SpectraSuite Data File
++++++++++++++++++++++++++++++++++++
Date: Fri Oct 04 11:33:46 GMT-05:00 2013
User: price-jones
Dark Spectrum Present: No
Reference Spectrum Present: No
Number of Sampled Component Spectra: 1
Spectrometers: USB2+H05261
Integration Time (usec): 100000 (USB2+H05261)
Spectra Averaged: 1 (USB2+H05261)
Boxcar Smoothing: 0 (USB2+H05261)
Correct for Electrical Dark: No (USB2+H05261)
Strobe/Lamp Enabled: No (USB2+H05261)
Correct for Detector Non-linearity: No (USB2+H05261)
Correct for Stray Light: No (USB2+H05261)
Number of Pixels in Processed Spectrum: 2048
>>>>>Begin Processed Spectral Data<<<<<
365.73	131.07
365.92	131.07
366.12	131.07
366.32	0.00
366.52	7.02
366.72	0.00
366.91	0.00
367.11	32.77
367.31	0.00
367.51	0.00
367.70	0.00
367.90	0.00
368.10	39.79
368.30	0.00
368.49	0.00
368.69	0.00
368.89	9.36
369.09	28.09
369.28	0.00
369.48	35.11
369.68	18.72
369.87	39.79
370.07	0.00
370.27	107.66
370.47	65.54
370.66	0.00
370.86	28.09
371.06	86.60
371.25	102.98
371.45	194.26
371.65	35.11
371.84	105.32
372.04	88.94
372.24	128.73
372.44	152.13
372.63	135.75
372.83	173.20
373.03	177.88
373.22	72.56
373.42	131.07
373.62	159.16
373.81	72.56
374.01	107.66
374.21	163.84
374.40	170.86
374.60	196.60
374.79	163.84
374.99	131.07
375.19	175.54
375.38	184.90
375.58	147.45
375.78	208.31
375.97	133.41
376.17	168.52
376.37	126.39
376.56	217.67
376.76	117.03
376.95	145.11
377.15	147.45
377.35	220.01
377.54	217.67
377.74	166.18
377.93	72.56
378.13	138.09
378.33	208.31
378.52	117.03
378.72	142.77
378.91	154.48
379.11	133.41
379.31	93.62
379.50	51.49
379.70	126.39
379.89	196.60
380.09	93.62
380.28	126.39
380.48	259.80
380.68	222.35
380.87	133.41
381.07	114.69
381.26	138.09
381.46	135.75
381.65	67.88
381.85	147.45
382.04	170.86
382.24	163.84
382.43	124.05
382.63	161.50
382.83	131.07
383.02	175.54
383.22	117.03
383.41	37.45
383.61	161.50
383.80	175.54
384.00	180.22
384.19	177.88
384.39	161.50
384.58	128.73
384.78	110.01
384.97	81.92
385.17	117.03
385.36	135.75
385.56	184.90
385.75	163.84
385.95	131.07
386.14	184.90
386.34	161.50
386.53	128.73
386.72	86.60
386.92	166.18
387.11	147.45
387.31	166.18
387.50	86.60
387.70	110.01
387.89	170.86
388.09	126.39
388.28	119.37
388.48	168.52
388.67	184.90
388.86	133.41
389.06	93.62
389.25	152.13
389.45	149.79
389.64	184.90
389.84	119.37
390.03	168.52
390.22	145.11
390.42	93.62
390.61	180.22
390.81	105.32
391.00	81.92
391.19	117.03
391.39	203.63
391.58	224.69
391.78	145.11
391.97	133.41
392.16	231.71
392.36	180.22
392.55	149.79
392.75	180.22
392.94	119.37
393.13	131.07
393.33	154.48
393.52	149.79
393.71	166.18
393.91	234.05
394.10	149.79
394.29	159.16
394.49	147.45
394.68	102.98
394.88	191.92
395.07	194.26
395.26	194.26
395.46	173.20
395.65	156.82
395.84	198.95
396.04	187.24
396.23	159.16
396.42	154.48
396.62	194.26
396.81	212.99
397.00	138.09
397.19	208.31
397.39	182.56
397.58	194.26
397.77	234.05
397.97	154.48
398.16	128.73
398.35	222.35
398.55	140.43
398.74	133.41
398.93	161.50
399.12	135.75
399.32	156.82
399.51	149.79
399.70	194.26
399.90	168.52
400.09	135.75
400.28	133.41
400.47	182.56
400.67	142.77
400.86	196.60
401.05	135.75
401.24	184.90
401.44	198.95
401.63	212.99
401.82	236.39
402.01	163.84
402.21	110.01
402.40	177.88
402.59	191.92
402.78	135.75
402.97	138.09
403.17	149.79
403.36	229.37
403.55	74.90
403.74	91.28
403.93	95.96
404.13	117.03
404.32	294.91
404.51	217.67
404.70	217.67
404.89	142.77
405.09	184.90
405.28	168.52
405.47	156.82
405.66	264.48
405.85	175.54
406.05	269.16
406.24	140.43
406.43	168.52
406.62	156.82
406.81	241.08
407.00	128.73
407.20	170.86
407.39	145.11
407.58	187.24
407.77	189.58
407.96	224.69
408.15	170.86
408.34	182.56
408.54	212.99
408.73	189.58
408.92	189.58
409.11	154.48
409.30	201.29
409.49	208.31
409.68	198.95
409.87	161.50
410.07	152.13
410.26	182.56
410.45	201.29
410.64	175.54
410.83	166.18
411.02	163.84
411.21	194.26
411.40	201.29
411.59	212.99
411.78	217.67
411.98	170.86
412.17	156.82
412.36	217.67
412.55	154.48
412.74	194.26
412.93	217.67
413.12	182.56
413.31	161.50
413.50	159.16
413.69	243.42
413.88	147.45
414.07	159.16
414.26	177.88
414.45	187.24
414.64	196.60
414.83	194.26
415.02	224.69
415.22	175.54
415.41	259.80
415.60	194.26
415.79	189.58
415.98	170.86
416.17	180.22
416.36	227.03
416.55	119.37
416.74	166.18
416.93	203.63
417.12	156.82
417.31	210.65
417.50	166.18
417.69	187.24
417.88	220.01
418.07	149.79
418.26	105.32
418.45	102.98
418.64	184.90
418.83	212.99
419.02	208.31
419.21	170.86
419.39	210.65
419.58	145.11
419.77	156.82
419.96	168.52
420.15	198.95
420.34	124.05
420.53	110.01
420.72	212.99
420.91	205.97
421.10	149.79
421.29	135.75
421.48	161.50
421.67	187.24
421.86	189.58
422.05	180.22
422.24	95.96
422.43	229.37
422.61	152.13
422.80	208.31
422.99	208.31
423.18	201.29
423.37	205.97
423.56	177.88
423.75	175.54
423.94	170.86
424.13	189.58
424.32	212.99
424.50	152.13
424.69	142.77
424.88	285.55
425.07	98.30
425.26	119.37
425.45	166.18
425.64	159.16
425.83	142.77
426.01	95.96
426.20	198.95
426.39	142.77
426.58	161.50
426.77	180.22
426.96	205.97
427.15	182.56
427.33	154.48
427.52	215.33
427.71	215.33
427.90	177.88
428.09	114.69
428.28	166.18
428.46	198.95
428.65	203.63
428.84	292.57
429.03	173.20
429.22	166.18
429.40	208.31
429.59	126.39
429.78	194.26
429.97	152.13
430.16	166.18
430.34	147.45
430.53	201.29
430.72	170.86
430.91	149.79
431.10	229.37
431.28	124.05
431.47	196.60
431.66	210.65
431.85	194.26
432.03	177.88
432.22	241.08
432.41	138.09
432.60	194.26
432.79	283.20
432.97	224.69
433.16	191.92
433.35	220.01
433.54	215.33
433.72	217.67
433.91	212.99
434.10	217.67
434.28	163.84
434.47	117.03
434.66	138.09
434.85	217.67
435.03	215.33
435.22	353.42
435.41	421.30
435.59	472.79
435.78	383.85
435.97	250.44
436.16	264.48
436.34	152.13
436.53	168.52
436.72	180.22
436.90	205.97
437.09	191.92
437.28	243.42
437.46	154.48
437.65	217.67
437.84	203.63
438.02	210.65
438.21	229.37
438.40	191.92
438.58	175.54
438.77	154.48
438.96	189.58
439.14	135.75
439.33	142.77
439.52	121.71
439.70	194.26
439.89	252.78
440.08	189.58
440.26	175.54
440.45	217.67
440.63	180.22
440.82	191.92
441.01	222.35
441.19	210.65
441.38	210.65
441.57	191.92
441.75	208.31
441.94	184.90
442.12	198.95
442.31	131.07
442.50	182.56
442.68	180.22
442.87	133.41
443.05	105.32
443.24	177.88
443.43	215.33
443.61	161.50
443.80	187.24
443.98	208.31
444.17	184.90
444.35	187.24
444.54	222.35
444.73	182.56
444.91	217.67
445.10	173.20
445.28	229.37
445.47	175.54
445.65	189.58
445.84	210.65
446.02	147.45
446.21	252.78
446.39	166.18
446.58	217.67
446.77	159.16
446.95	184.90
447.14	210.65
447.32	271.50
447.51	238.73
447.69	245.76
447.88	142.77
448.06	177.88
448.25	248.10
448.43	227.03
448.62	145.11
448.80	245.76
448.99	175.54
449.17	180.22
449.36	259.80
449.54	163.84
449.73	194.26
449.91	198.95
450.10	210.65
450.28	287.89
450.46	203.63
450.65	203.63
450.83	191.92
451.02	217.67
451.20	227.03
451.39	231.71
451.57	194.26
451.76	198.95
451.94	231.71
452.13	231.71
452.31	224.69
452.49	236.39
452.68	152.13
452.86	245.76
453.05	306.61
453.23	173.20
453.42	182.56
453.60	210.65
453.78	227.03
453.97	205.97
454.15	180.22
454.34	222.35
454.52	184.90
454.70	280.86
454.89	187.24
455.07	229.37
455.26	140.43
455.44	208.31
455.62	315.97
455.81	257.46
455.99	149.79
456.17	187.24
456.36	201.29
456.54	222.35
456.73	173.20
456.91	234.05
457.09	159.16
457.28	308.95
457.46	121.71
457.64	224.69
457.83	252.78
458.01	140.43
458.19	140.43
458.38	196.60
458.56	161.50
458.74	215.33
458.93	245.76
459.11	196.60
459.29	117.03
459.48	257.46
459.66	182.56
459.84	184.90
460.03	236.39
460.21	189.58
460.39	175.54
460.57	170.86
460.76	231.71
460.94	245.76
461.12	208.31
461.31	264.48
461.49	126.39
461.67	145.11
461.85	196.60
462.04	194.26
462.22	627.26
462.40	285.55
462.59	241.08
462.77	205.97
462.95	126.39
463.13	234.05
463.32	194.26
463.50	245.76
463.68	280.86
463.86	234.05
464.05	177.88
464.23	182.56
464.41	177.88
464.59	163.84
464.78	245.76
464.96	152.13
465.14	166.18
465.32	159.16
465.50	217.67
465.69	229.37
465.87	266.82
466.05	208.31
466.23	243.42
466.41	203.63
466.60	269.16
466.78	276.18
466.96	257.46
467.14	168.52
467.32	170.86
467.51	250.44
467.69	252.78
467.87	238.73
468.05	205.97
468.23	194.26
468.41	255.12
468.60	154.48
468.78	152.13
468.96	147.45
469.14	180.22
469.32	231.71
469.50	205.97
469.69	229.37
469.87	224.69
470.05	194.26
470.23	205.97
470.41	173.20
470.59	248.10
470.77	170.86
470.95	252.78
471.14	203.63
471.32	215.33
471.50	238.73
471.68	220.01
471.86	205.97
472.04	252.78
472.22	180.22
472.40	135.75
472.58	187.24
472.77	222.35
472.95	217.67
473.13	217.67
473.31	205.97
473.49	173.20
473.67	170.86
473.85	220.01
474.03	177.88
474.21	145.11
474.39	208.31
474.57	271.50
474.75	182.56
474.93	147.45
475.12	170.86
475.30	191.92
475.48	248.10
475.66	205.97
475.84	241.08
476.02	203.63
476.20	250.44
476.38	257.46
476.56	308.95
476.74	177.88
476.92	241.08
477.10	259.80
477.28	271.50
477.46	112.35
477.64	220.01
477.82	234.05
478.00	252.78
478.18	198.95
478.36	154.48
478.54	224.69
478.72	145.11
478.90	212.99
479.08	259.80
479.26	229.37
479.44	208.31
479.62	117.03
479.80	250.44
479.98	191.92
480.16	241.08
480.34	220.01
480.52	252.78
480.70	252.78
480.88	227.03
481.06	255.12
481.24	238.73
481.41	191.92
481.59	187.24
481.77	248.10
481.95	259.80
482.13	259.80
482.31	273.84
482.49	189.58
482.67	290.23
482.85	170.86
483.03	257.46
483.21	224.69
483.39	227.03
483.57	229.37
483.74	238.73
483.92	222.35
484.10	241.08
484.28	262.14
484.46	395.55
484.64	290.23
484.82	189.58
485.00	231.71
485.18	217.67
485.35	227.03
485.53	231.71
485.71	348.74
485.89	126.39
486.07	227.03
486.25	334.70
486.43	236.39
486.61	299.59
486.78	252.78
486.96	243.42
487.14	220.01
487.32	299.59
487.50	294.91
487.68	264.48
487.85	229.37
488.03	320.65
488.21	306.61
488.39	245.76
488.57	344.06
488.75	290.23
488.92	477.47
489.10	315.97
489.28	262.14
489.46	294.91
489.64	259.80
489.81	283.20
489.99	234.05
490.17	234.05
490.35	266.82
490.53	229.37
490.70	252.78
490.88	217.67
491.06	339.38
491.24	311.29
491.41	266.82
491.59	285.55
491.77	215.33
491.95	266.82
492.13	224.69
492.30	278.52
492.48	245.76
492.66	273.84
492.84	255.12
493.01	283.20
493.19	332.36
493.37	280.86
493.54	262.14
493.72	287.89
493.90	212.99
494.08	215.33
494.25	278.52
494.43	308.95
494.61	259.80
494.79	301.93
494.96	259.80
495.14	320.65
495.32	308.95
495.49	322.99
495.67	273.84
495.85	290.23
496.02	236.39
496.20	299.59
496.38	229.37
496.55	241.08
496.73	271.50
496.91	320.65
497.09	292.57
497.26	245.76
497.44	294.91
497.62	212.99
497.79	248.10
497.97	212.99
498.14	334.70
498.32	276.18
498.50	220.01
498.67	271.50
498.85	301.93
499.03	292.57
499.20	198.95
499.38	161.50
499.56	318.31
499.73	365.12
499.91	278.52
500.08	311.29
500.26	243.42
500.44	236.39
500.61	212.99
500.79	262.14
500.97	292.57
501.14	325.33
501.32	325.33
501.49	313.63
501.67	276.18
501.84	276.18
502.02	173.20
502.20	311.29
502.37	308.95
502.55	257.46
502.72	257.46
502.90	311.29
503.07	269.16
503.25	243.42
503.43	152.13
503.60	215.33
503.78	224.69
503.95	313.63
504.13	217.67
504.30	259.80
504.48	348.74
504.65	351.08
504.83	313.63
505.01	273.84
505.18	227.03
505.36	264.48
505.53	276.18
505.71	337.04
505.88	264.48
506.06	248.10
506.23	318.31
506.41	217.67
506.58	290.23
506.76	271.50
506.93	304.27
507.11	229.37
507.28	269.16
507.46	236.39
507.63	332.36
507.81	311.29
507.98	283.20
508.16	264.48
508.33	215.33
508.50	318.31
508.68	341.72
508.85	379.17
509.03	304.27
509.20	269.16
509.38	290.23
509.55	276.18
509.73	285.55
509.90	311.29
510.08	276.18
510.25	299.59
510.42	262.14
510.60	311.29
510.77	292.57
510.95	276.18
511.12	318.31
511.30	294.91
511.47	290.23
511.64	325.33
511.82	257.46
511.99	294.91
512.17	297.25
512.34	266.82
512.51	255.12
512.69	344.06
512.86	280.86
513.04	287.89
513.21	222.35
513.38	257.46
513.56	196.60
513.73	290.23
513.90	313.63
514.08	191.92
514.25	290.23
514.43	276.18
514.60	276.18
514.77	273.84
514.95	248.10
515.12	271.50
515.29	255.12
515.47	287.89
515.64	306.61
515.81	241.08
515.99	346.40
516.16	306.61
516.33	280.86
516.51	299.59
516.68	227.03
516.85	241.08
517.03	325.33
517.20	257.46
517.37	308.95
517.54	276.18
517.72	294.91
517.89	234.05
518.06	180.22
518.24	276.18
518.41	280.86
518.58	276.18
518.75	252.78
518.93	290.23
519.10	311.29
519.27	266.82
519.45	262.14
519.62	271.50
519.79	304.27
519.96	287.89
520.14	266.82
520.31	379.17
520.48	294.91
520.65	215.33
520.83	236.39
521.00	400.23
521.17	290.23
521.34	269.16
521.52	271.50
521.69	355.76
521.86	287.89
522.03	330.02
522.20	299.59
522.38	301.93
522.55	224.69
522.72	297.25
522.89	301.93
523.07	344.06
523.24	273.84
523.41	327.68
523.58	297.25
523.75	257.46
523.92	315.97
524.10	248.10
524.27	327.68
524.44	283.20
524.61	339.38
524.78	344.06
524.96	311.29
525.13	318.31
525.30	290.23
525.47	306.61
525.64	325.33
525.81	339.38
525.98	273.84
526.16	320.65
526.33	250.44
526.50	241.08
526.67	208.31
526.84	318.31
527.01	224.69
527.18	264.48
527.36	313.63
527.53	276.18
527.70	278.52
527.87	264.48
528.04	332.36
528.21	245.76
528.38	358.10
528.55	278.52
528.72	236.39
528.89	348.74
529.07	320.65
529.24	264.48
529.41	276.18
529.58	341.72
529.75	330.02
529.92	262.14
530.09	435.34
530.26	285.55
530.43	325.33
530.60	341.72
530.77	402.57
530.94	402.57
531.11	351.08
531.28	308.95
531.46	299.59
531.63	322.99
531.80	262.14
531.97	299.59
532.14	222.35
532.31	353.42
532.48	313.63
532.65	304.27
532.82	217.67
532.99	306.61
533.16	259.80
533.33	320.65
533.50	320.65
533.67	259.80
533.84	322.99
534.01	313.63
534.18	269.16
534.35	297.25
534.52	332.36
534.69	362.78
534.86	308.95
535.03	346.40
535.20	308.95
535.37	308.95
535.54	276.18
535.71	304.27
535.88	330.02
536.05	262.14
536.22	308.95
536.38	311.29
536.55	341.72
536.72	362.78
536.89	301.93
537.06	355.76
537.23	315.97
537.40	299.59
537.57	367.46
537.74	369.80
537.91	346.40
538.08	339.38
538.25	346.40
538.42	234.05
538.59	290.23
538.75	351.08
538.92	341.72
539.09	348.74
539.26	379.17
539.43	407.25
539.60	498.53
539.77	489.17
539.94	435.34
540.11	395.55
540.28	409.59
540.44	433.00
540.61	435.34
540.78	451.72
540.95	500.87
541.12	559.39
541.29	557.05
541.46	582.79
541.62	578.11
541.79	589.82
541.96	655.35
542.13	580.45
542.30	519.60
542.47	613.22
542.63	559.39
542.80	514.92
542.97	617.90
543.14	528.96
543.31	521.94
543.48	475.13
543.64	568.75
543.81	540.66
543.98	498.53
544.15	472.79
544.32	540.66
544.48	521.94
544.65	503.22
544.82	540.66
544.99	580.45
545.16	550.03
545.32	645.99
545.49	777.06
545.66	947.92
545.83	1001.75
546.00	976.00
546.16	711.52
546.33	685.78
546.50	559.39
546.67	535.98
546.83	505.56
547.00	463.43
547.17	425.98
547.34	397.89
547.50	456.40
547.67	341.72
547.84	440.02
548.00	496.19
548.17	458.74
548.34	433.00
548.51	376.83
548.67	447.04
548.84	353.42
549.01	440.02
549.18	472.79
549.34	388.53
549.51	355.76
549.68	425.98
549.84	362.78
550.01	367.46
550.18	437.68
550.34	407.25
550.51	334.70
550.68	421.30
550.84	351.08
551.01	402.57
551.18	339.38
551.34	425.98
551.51	337.04
551.68	306.61
551.84	416.62
552.01	269.16
552.18	355.76
552.34	318.31
552.51	276.18
552.68	362.78
552.84	266.82
553.01	262.14
553.18	334.70
553.34	224.69
553.51	271.50
553.67	245.76
553.84	297.25
554.01	341.72
554.17	351.08
554.34	294.91
554.51	327.68
554.67	304.27
554.84	297.25
555.00	355.76
555.17	311.29
555.33	313.63
555.50	308.95
555.67	315.97
555.83	346.40
556.00	313.63
556.16	482.15
556.33	287.89
556.50	212.99
556.66	362.78
556.83	269.16
556.99	325.33
557.16	245.76
557.32	313.63
557.49	222.35
557.65	241.08
557.82	259.80
557.98	294.91
558.15	227.03
558.32	266.82
558.48	315.97
558.65	271.50
558.81	341.72
558.98	320.65
559.14	308.95
559.31	390.87
559.47	332.36
559.64	264.48
559.80	294.91
559.97	304.27
560.13	299.59
560.30	262.14
560.46	379.17
560.63	264.48
560.79	393.21
560.96	308.95
561.12	304.27
561.29	299.59
561.45	262.14
561.61	241.08
561.78	379.17
561.94	276.18
562.11	210.65
562.27	301.93
562.44	215.33
562.60	311.29
562.77	297.25
562.93	320.65
563.10	280.86
563.26	248.10
563.42	299.59
563.59	315.97
563.75	187.24
563.92	346.40
564.08	262.14
564.24	360.44
564.41	325.33
564.57	304.27
564.74	294.91
564.90	205.97
565.07	266.82
565.23	308.95
565.39	262.14
565.56	245.76
565.72	278.52
565.88	266.82
566.05	306.61
566.21	250.44
566.38	322.99
566.54	285.55
566.70	285.55
566.87	285.55
567.03	299.59
567.19	351.08
567.36	250.44
567.52	250.44
567.68	318.31
567.85	271.50
568.01	250.44
568.17	227.03
568.34	255.12
568.50	308.95
568.66	313.63
568.83	332.36
568.99	308.95
569.15	348.74
569.32	308.95
569.48	301.93
569.64	222.35
569.81	304.27
569.97	238.73
570.13	339.38
570.30	353.42
570.46	337.04
570.62	299.59
570.78	245.76
570.95	290.23
571.11	355.76
571.27	294.91
571.43	311.29
571.60	301.93
571.76	257.46
571.92	266.82
572.09	271.50
572.25	346.40
572.41	339.38
572.57	299.59
572.74	285.55
572.90	341.72
573.06	322.99
573.22	294.91
573.38	297.25
573.55	339.38
573.71	367.46
573.87	234.05
574.03	245.76
574.20	245.76
574.36	273.84
574.52	264.48
574.68	236.39
574.84	262.14
575.01	285.55
575.17	297.25
575.33	311.29
575.49	257.46
575.65	297.25
575.82	283.20
575.98	376.83
576.14	327.68
576.30	376.83
576.46	444.70
576.62	383.85
576.79	500.87
576.95	416.62
577.11	381.51
577.27	322.99
577.43	346.40
577.59	386.19
577.75	243.42
577.92	330.02
578.08	325.33
578.24	311.29
578.40	304.27
578.56	348.74
578.72	423.64
578.88	512.58
579.04	292.57
579.21	404.91
579.37	299.59
579.53	290.23
579.69	386.19
579.85	276.18
580.01	315.97
580.17	395.55
580.33	348.74
580.49	344.06
580.65	440.02
580.82	313.63
580.98	294.91
581.14	285.55
581.30	346.40
581.46	257.46
581.62	407.25
581.78	299.59
581.94	318.31
582.10	315.97
582.26	411.93
582.42	292.57
582.58	313.63
582.74	393.21
582.90	351.08
583.06	367.46
583.22	360.44
583.38	372.15
583.54	395.55
583.70	421.30
583.86	372.15
584.02	395.55
584.18	337.04
584.34	409.59
584.50	496.19
584.66	1650.08
584.82	3730.81
584.98	5336.42
585.14	4711.50
585.30	3112.91
585.46	2073.71
585.62	1327.08
585.78	720.88
585.94	535.98
586.10	372.15
586.26	379.17
586.42	404.91
586.58	463.43
586.74	416.62
586.90	435.34
587.06	372.15
587.22	468.11
587.38	360.44
587.54	362.78
587.70	554.71
587.86	674.07
588.02	657.69
588.18	622.58
588.34	430.66
588.49	379.17
588.65	266.82
588.81	311.29
588.97	311.29
589.13	266.82
589.29	315.97
589.45	297.25
589.61	276.18
589.77	334.70
589.93	322.99
590.08	255.12
590.24	269.16
590.40	344.06
590.56	276.18
590.72	383.85
590.88	308.95
591.04	315.97
591.20	276.18
591.35	287.89
591.51	252.78
591.67	250.44
591.83	327.68
591.99	283.20
592.15	278.52
592.31	339.38
592.46	397.89
592.62	287.89
592.78	374.49
592.94	360.44
593.10	250.44
593.26	348.74
593.41	337.04
593.57	313.63
593.73	344.06
593.89	390.87
594.05	709.18
594.20	933.87
594.36	978.34
594.52	685.78
594.68	566.41
594.84	479.81
594.99	339.38
595.15	367.46
595.31	332.36
595.47	358.10
595.62	311.29
595.78	304.27
595.94	194.26
596.10	266.82
596.25	278.52
596.41	362.78
596.57	299.59
596.73	322.99
596.88	285.55
597.04	386.19
597.20	306.61
597.36	423.64
597.51	423.64
597.67	374.49
597.83	287.89
597.99	337.04
598.14	271.50
598.30	297.25
598.46	320.65
598.61	362.78
598.77	334.70
598.93	325.33
599.09	318.31
599.24	381.51
599.40	301.93
599.56	320.65
599.71	250.44
599.87	320.65
600.03	365.12
600.18	322.99
600.34	325.33
600.50	234.05
600.65	280.86
600.81	243.42
600.97	315.97
601.12	304.27
601.28	341.72
601.44	304.27
601.59	276.18
601.75	304.27
601.91	262.14
602.06	365.12
602.22	315.97
602.37	327.68
602.53	456.40
602.69	468.11
602.84	411.93
603.00	355.76
603.16	407.25
603.31	404.91
603.47	400.23
603.62	231.71
603.78	322.99
603.94	404.91
604.09	271.50
604.25	386.19
604.40	322.99
604.56	301.93
604.71	283.20
604.87	210.65
605.03	308.95
605.18	271.50
605.34	428.32
605.49	301.93
605.65	271.50
605.80	278.52
605.96	283.20
606.12	397.89
606.27	318.31
606.43	287.89
606.58	346.40
606.74	348.74
606.89	514.92
607.05	746.63
607.20	849.61
607.36	718.54
607.51	620.24
607.67	552.37
607.82	411.93
607.98	416.62
608.13	365.12
608.29	299.59
608.44	400.23
608.60	365.12
608.75	330.02
608.91	332.36
609.06	734.93
609.22	1078.99
609.37	1256.87
609.53	1261.55
609.68	1001.75
609.84	812.17
609.99	706.84
610.15	634.29
610.30	662.37
610.46	685.78
610.61	746.63
