SpectraSuite Data File
++++++++++++++++++++++++++++++++++++
Date: Fri Oct 04 11:33:44 GMT-05:00 2013
User: price-jones
Dark Spectrum Present: No
Reference Spectrum Present: No
Number of Sampled Component Spectra: 1
Spectrometers: USB2+H05261
Integration Time (usec): 100000 (USB2+H05261)
Spectra Averaged: 1 (USB2+H05261)
Boxcar Smoothing: 0 (USB2+H05261)
Correct for Electrical Dark: No (USB2+H05261)
Strobe/Lamp Enabled: No (USB2+H05261)
Correct for Detector Non-linearity: No (USB2+H05261)
Correct for Stray Light: No (USB2+H05261)
Number of Pixels in Processed Spectrum: 2048
>>>>>Begin Processed Spectral Data<<<<<
365.73	65.54
365.92	65.54
366.12	65.54
366.32	32.77
366.52	0.00
366.72	14.04
366.91	16.38
367.11	0.00
367.31	9.36
367.51	0.00
367.70	0.00
367.90	0.00
368.10	42.13
368.30	0.00
368.49	0.00
368.69	35.11
368.89	18.72
369.09	0.00
369.28	0.00
369.48	0.00
369.68	0.00
369.87	11.70
370.07	9.36
370.27	56.17
370.47	53.83
370.66	95.96
370.86	72.56
371.06	81.92
371.25	140.43
371.45	84.26
371.65	159.16
371.84	72.56
372.04	67.88
372.24	105.32
372.44	91.28
372.63	140.43
372.83	119.37
373.03	177.88
373.22	166.18
373.42	135.75
373.62	208.31
373.81	86.60
374.01	166.18
374.21	147.45
374.40	121.71
374.60	205.97
374.79	166.18
374.99	177.88
375.19	88.94
375.38	177.88
375.58	131.07
375.78	238.73
375.97	147.45
376.17	196.60
376.37	152.13
376.56	243.42
376.76	149.79
376.95	180.22
377.15	147.45
377.35	154.48
377.54	201.29
377.74	138.09
377.93	121.71
378.13	65.54
378.33	128.73
378.52	147.45
378.72	95.96
378.91	135.75
379.11	79.58
379.31	149.79
379.50	72.56
379.70	182.56
379.89	159.16
380.09	147.45
380.28	56.17
380.48	189.58
380.68	131.07
380.87	67.88
381.07	184.90
381.26	124.05
381.46	187.24
381.65	170.86
381.85	126.39
382.04	145.11
382.24	220.01
382.43	175.54
382.63	91.28
382.83	203.63
383.02	173.20
383.22	182.56
383.41	70.22
383.61	117.03
383.80	191.92
384.00	79.58
384.19	107.66
384.39	140.43
384.58	161.50
384.78	77.24
384.97	191.92
385.17	145.11
385.36	138.09
385.56	194.26
385.75	142.77
385.95	184.90
386.14	138.09
386.34	142.77
386.53	135.75
386.72	121.71
386.92	149.79
387.11	227.03
387.31	177.88
387.50	133.41
387.70	126.39
387.89	86.60
388.09	142.77
388.28	86.60
388.48	138.09
388.67	175.54
388.86	154.48
389.06	163.84
389.25	182.56
389.45	140.43
389.64	135.75
389.84	224.69
390.03	152.13
390.22	205.97
390.42	222.35
390.61	166.18
390.81	88.94
391.00	227.03
391.19	107.66
391.39	194.26
391.58	142.77
391.78	107.66
391.97	184.90
392.16	168.52
392.36	140.43
392.55	102.98
392.75	159.16
392.94	156.82
393.13	227.03
393.33	170.86
393.52	133.41
393.71	140.43
393.91	135.75
394.10	210.65
394.29	112.35
394.49	161.50
394.68	166.18
394.88	156.82
395.07	198.95
395.26	177.88
395.46	173.20
395.65	93.62
395.84	182.56
396.04	311.29
396.23	142.77
396.42	142.77
396.62	149.79
396.81	105.32
397.00	168.52
397.19	175.54
397.39	112.35
397.58	166.18
397.77	126.39
397.97	168.52
398.16	212.99
398.35	128.73
398.55	236.39
398.74	156.82
398.93	58.51
399.12	201.29
399.32	135.75
399.51	203.63
399.70	198.95
399.90	126.39
400.09	170.86
400.28	117.03
400.47	177.88
400.67	124.05
400.86	173.20
401.05	166.18
401.24	86.60
401.44	128.73
401.63	159.16
401.82	138.09
402.01	124.05
402.21	145.11
402.40	184.90
402.59	245.76
402.78	126.39
402.97	159.16
403.17	163.84
403.36	156.82
403.55	91.28
403.74	159.16
403.93	189.58
404.13	182.56
404.32	152.13
404.51	149.79
404.70	163.84
404.89	205.97
405.09	210.65
405.28	220.01
405.47	114.69
405.66	147.45
405.85	175.54
406.05	173.20
406.24	149.79
406.43	177.88
406.62	100.64
406.81	154.48
407.00	234.05
407.20	170.86
407.39	138.09
407.58	138.09
407.77	131.07
407.96	170.86
408.15	205.97
408.34	215.33
408.54	234.05
408.73	212.99
408.92	215.33
409.11	187.24
409.30	145.11
409.49	91.28
409.68	159.16
409.87	145.11
410.07	147.45
410.26	161.50
410.45	112.35
410.64	154.48
410.83	112.35
411.02	191.92
411.21	182.56
411.40	241.08
411.59	140.43
411.78	86.60
411.98	117.03
412.17	133.41
412.36	166.18
412.55	145.11
412.74	124.05
412.93	194.26
413.12	131.07
413.31	177.88
413.50	166.18
413.69	222.35
413.88	147.45
414.07	145.11
414.26	189.58
414.45	121.71
414.64	161.50
414.83	131.07
415.02	149.79
415.22	224.69
415.41	187.24
415.60	119.37
415.79	191.92
415.98	117.03
416.17	133.41
416.36	170.86
416.55	145.11
416.74	238.73
416.93	189.58
417.12	212.99
417.31	168.52
417.50	215.33
417.69	257.46
417.88	266.82
418.07	227.03
418.26	177.88
418.45	126.39
418.64	166.18
418.83	224.69
419.02	168.52
419.21	128.73
419.39	124.05
419.58	156.82
419.77	159.16
419.96	196.60
420.15	234.05
420.34	222.35
420.53	161.50
420.72	212.99
420.91	196.60
421.10	107.66
421.29	257.46
421.48	102.98
421.67	135.75
421.86	126.39
422.05	159.16
422.24	163.84
422.43	210.65
422.61	156.82
422.80	163.84
422.99	168.52
423.18	194.26
423.37	245.76
423.56	198.95
423.75	128.73
423.94	194.26
424.13	156.82
424.32	201.29
424.50	196.60
424.69	166.18
424.88	215.33
425.07	238.73
425.26	198.95
425.45	224.69
425.64	238.73
425.83	215.33
426.01	152.13
426.20	154.48
426.39	149.79
426.58	159.16
426.77	56.17
426.96	173.20
427.15	142.77
427.33	93.62
427.52	107.66
427.71	149.79
427.90	205.97
428.09	159.16
428.28	100.64
428.46	131.07
428.65	128.73
428.84	248.10
429.03	163.84
429.22	88.94
429.40	161.50
429.59	180.22
429.78	205.97
429.97	198.95
430.16	196.60
430.34	117.03
430.53	196.60
430.72	196.60
430.91	159.16
431.10	184.90
431.28	170.86
431.47	170.86
431.66	196.60
431.85	212.99
432.03	196.60
432.22	215.33
432.41	203.63
432.60	236.39
432.79	159.16
432.97	238.73
433.16	145.11
433.35	163.84
433.54	180.22
433.72	238.73
433.91	203.63
434.10	175.54
434.28	210.65
434.47	222.35
434.66	210.65
434.85	168.52
435.03	210.65
435.22	351.08
435.41	285.55
435.59	372.15
435.78	304.27
435.97	191.92
436.16	187.24
436.34	117.03
436.53	138.09
436.72	173.20
436.90	142.77
437.09	191.92
437.28	184.90
437.46	166.18
437.65	201.29
437.84	147.45
438.02	222.35
438.21	191.92
438.40	208.31
438.58	91.28
438.77	215.33
438.96	198.95
439.14	70.22
439.33	203.63
439.52	147.45
439.70	107.66
439.89	238.73
440.08	203.63
440.26	191.92
440.45	255.12
440.63	203.63
440.82	257.46
441.01	142.77
441.19	191.92
441.38	156.82
441.57	212.99
441.75	84.26
441.94	269.16
442.12	180.22
442.31	154.48
442.50	180.22
442.68	163.84
442.87	140.43
443.05	182.56
443.24	147.45
443.43	238.73
443.61	224.69
443.80	159.16
443.98	229.37
444.17	208.31
444.35	234.05
444.54	191.92
444.73	196.60
444.91	168.52
445.10	231.71
445.28	126.39
445.47	224.69
445.65	161.50
445.84	145.11
446.02	166.18
446.21	224.69
446.39	161.50
446.58	201.29
446.77	152.13
446.95	161.50
447.14	180.22
447.32	184.90
447.51	147.45
447.69	100.64
447.88	224.69
448.06	180.22
448.25	117.03
448.43	159.16
448.62	65.54
448.80	201.29
448.99	189.58
449.17	191.92
449.36	187.24
449.54	224.69
449.73	156.82
449.91	250.44
450.10	156.82
450.28	259.80
450.46	264.48
450.65	201.29
450.83	189.58
451.02	194.26
451.20	234.05
451.39	117.03
451.57	222.35
451.76	184.90
451.94	208.31
452.13	189.58
452.31	170.86
452.49	173.20
452.68	194.26
452.86	212.99
453.05	248.10
453.23	266.82
453.42	156.82
453.60	196.60
453.78	238.73
453.97	156.82
454.15	180.22
454.34	212.99
454.52	173.20
454.70	241.08
454.89	224.69
455.07	234.05
455.26	180.22
455.44	175.54
455.62	191.92
455.81	222.35
455.99	152.13
456.17	276.18
456.36	220.01
456.54	205.97
456.73	98.30
456.91	145.11
457.09	212.99
457.28	191.92
457.46	203.63
457.64	255.12
457.83	215.33
458.01	241.08
458.19	208.31
458.38	161.50
458.56	81.92
458.74	196.60
458.93	196.60
459.11	163.84
459.29	255.12
459.48	184.90
459.66	238.73
459.84	231.71
460.03	278.52
460.21	189.58
460.39	149.79
460.57	212.99
460.76	205.97
460.94	177.88
461.12	182.56
461.31	252.78
461.49	159.16
461.67	161.50
461.85	168.52
462.04	184.90
462.22	585.13
462.40	147.45
462.59	210.65
462.77	102.98
462.95	135.75
463.13	220.01
463.32	248.10
463.50	168.52
463.68	138.09
463.86	189.58
464.05	175.54
464.23	201.29
464.41	257.46
464.59	166.18
464.78	182.56
464.96	180.22
465.14	238.73
465.32	201.29
465.50	220.01
465.69	234.05
465.87	145.11
466.05	222.35
466.23	201.29
466.41	124.05
466.60	250.44
466.78	198.95
466.96	163.84
467.14	184.90
467.32	238.73
467.51	149.79
467.69	231.71
467.87	271.50
468.05	191.92
468.23	229.37
468.41	210.65
468.60	180.22
468.78	180.22
468.96	191.92
469.14	210.65
469.32	175.54
469.50	243.42
469.69	180.22
469.87	205.97
470.05	196.60
470.23	184.90
470.41	175.54
470.59	147.45
470.77	161.50
470.95	231.71
471.14	124.05
471.32	227.03
471.50	255.12
471.68	154.48
471.86	184.90
472.04	147.45
472.22	238.73
472.40	248.10
472.58	269.16
472.77	208.31
472.95	234.05
473.13	187.24
473.31	266.82
473.49	161.50
473.67	210.65
473.85	234.05
474.03	259.80
474.21	138.09
474.39	182.56
474.57	191.92
474.75	198.95
474.93	196.60
475.12	255.12
475.30	180.22
475.48	184.90
475.66	248.10
475.84	201.29
476.02	161.50
476.20	217.67
476.38	224.69
476.56	294.91
476.74	149.79
476.92	224.69
477.10	227.03
477.28	243.42
477.46	154.48
477.64	180.22
477.82	177.88
478.00	208.31
478.18	205.97
478.36	180.22
478.54	189.58
478.72	147.45
478.90	194.26
479.08	229.37
479.26	231.71
479.44	180.22
479.62	149.79
479.80	210.65
479.98	140.43
480.16	198.95
480.34	220.01
480.52	173.20
480.70	152.13
480.88	196.60
481.06	189.58
481.24	241.08
481.41	182.56
481.59	259.80
481.77	208.31
481.95	196.60
482.13	294.91
482.31	273.84
482.49	142.77
482.67	236.39
482.85	236.39
483.03	182.56
483.21	243.42
483.39	264.48
483.57	222.35
483.74	236.39
483.92	250.44
484.10	215.33
484.28	243.42
484.46	299.59
484.64	229.37
484.82	257.46
485.00	205.97
485.18	250.44
485.35	280.86
485.53	212.99
485.71	266.82
485.89	255.12
486.07	161.50
486.25	278.52
486.43	264.48
486.61	259.80
486.78	215.33
486.96	161.50
487.14	241.08
487.32	236.39
487.50	210.65
487.68	203.63
487.85	205.97
488.03	327.68
488.21	285.55
488.39	299.59
488.57	220.01
488.75	269.16
488.92	437.68
489.10	266.82
489.28	292.57
489.46	280.86
489.64	215.33
489.81	217.67
489.99	297.25
490.17	224.69
490.35	287.89
490.53	243.42
490.70	149.79
490.88	278.52
491.06	208.31
491.24	208.31
491.41	269.16
491.59	248.10
491.77	227.03
491.95	184.90
492.13	271.50
492.30	278.52
492.48	259.80
492.66	280.86
492.84	184.90
493.01	304.27
493.19	238.73
493.37	271.50
493.54	212.99
493.72	227.03
493.90	173.20
494.08	248.10
494.25	229.37
494.43	236.39
494.61	212.99
494.79	250.44
494.96	168.52
495.14	259.80
495.32	292.57
495.49	248.10
495.67	224.69
495.85	262.14
496.02	208.31
496.20	220.01
496.38	243.42
496.55	259.80
496.73	297.25
496.91	194.26
497.09	241.08
497.26	269.16
497.44	248.10
497.62	177.88
497.79	203.63
497.97	224.69
498.14	168.52
498.32	243.42
498.50	290.23
498.67	227.03
498.85	330.02
499.03	248.10
499.20	259.80
499.38	191.92
499.56	198.95
499.73	276.18
499.91	292.57
500.08	236.39
500.26	266.82
500.44	222.35
500.61	257.46
500.79	285.55
500.97	280.86
501.14	264.48
501.32	229.37
501.49	252.78
501.67	236.39
501.84	271.50
502.02	114.69
502.20	227.03
502.37	280.86
502.55	170.86
502.72	229.37
502.90	238.73
503.07	287.89
503.25	273.84
503.43	231.71
503.60	264.48
503.78	322.99
503.95	243.42
504.13	227.03
504.30	262.14
504.48	285.55
504.65	203.63
504.83	269.16
505.01	278.52
505.18	292.57
505.36	280.86
505.53	224.69
505.71	248.10
505.88	287.89
506.06	264.48
506.23	255.12
506.41	238.73
506.58	245.76
506.76	280.86
506.93	224.69
507.11	259.80
507.28	212.99
507.46	266.82
507.63	299.59
507.81	229.37
507.98	198.95
508.16	198.95
508.33	231.71
508.50	280.86
508.68	337.04
508.85	201.29
509.03	191.92
509.20	184.90
509.38	248.10
509.55	278.52
509.73	278.52
509.90	255.12
510.08	250.44
510.25	250.44
510.42	234.05
510.60	301.93
510.77	252.78
510.95	248.10
511.12	248.10
511.30	290.23
511.47	287.89
511.64	271.50
511.82	215.33
511.99	215.33
512.17	283.20
512.34	264.48
512.51	287.89
512.69	245.76
512.86	292.57
513.04	257.46
513.21	259.80
513.38	248.10
513.56	248.10
513.73	299.59
513.90	243.42
514.08	255.12
514.25	306.61
514.43	255.12
514.60	306.61
514.77	308.95
514.95	243.42
515.12	285.55
515.29	208.31
515.47	250.44
515.64	215.33
515.81	229.37
515.99	262.14
516.16	266.82
516.33	271.50
516.51	264.48
516.68	224.69
516.85	217.67
517.03	257.46
517.20	299.59
517.37	311.29
517.54	280.86
517.72	259.80
517.89	198.95
518.06	273.84
518.24	264.48
518.41	259.80
518.58	287.89
518.75	142.77
518.93	201.29
519.10	252.78
519.27	189.58
519.45	276.18
519.62	257.46
519.79	208.31
519.96	222.35
520.14	271.50
520.31	262.14
520.48	304.27
520.65	262.14
520.83	208.31
521.00	196.60
521.17	208.31
521.34	262.14
521.52	287.89
521.69	231.71
521.86	250.44
522.03	273.84
522.20	245.76
522.38	301.93
522.55	257.46
522.72	236.39
522.89	227.03
523.07	243.42
523.24	245.76
523.41	210.65
523.58	201.29
523.75	245.76
523.92	243.42
524.10	238.73
524.27	229.37
524.44	231.71
524.61	252.78
524.78	238.73
524.96	243.42
525.13	259.80
525.30	327.68
525.47	304.27
525.64	294.91
525.81	278.52
525.98	306.61
526.16	215.33
526.33	161.50
526.50	294.91
526.67	290.23
526.84	201.29
527.01	287.89
527.18	337.04
527.36	285.55
527.53	205.97
527.70	311.29
527.87	231.71
528.04	290.23
528.21	182.56
528.38	308.95
528.55	259.80
528.72	241.08
528.89	222.35
529.07	278.52
529.24	138.09
529.41	308.95
529.58	241.08
529.75	217.67
529.92	229.37
530.09	238.73
530.26	271.50
530.43	269.16
530.60	220.01
530.77	264.48
530.94	215.33
531.11	299.59
531.28	248.10
531.46	217.67
531.63	257.46
531.80	259.80
531.97	271.50
532.14	231.71
532.31	306.61
532.48	365.12
532.65	351.08
532.82	252.78
532.99	313.63
533.16	285.55
533.33	315.97
533.50	313.63
533.67	308.95
533.84	322.99
534.01	360.44
534.18	229.37
534.35	348.74
534.52	320.65
534.69	285.55
534.86	313.63
535.03	208.31
535.20	203.63
535.37	259.80
535.54	297.25
535.71	313.63
535.88	334.70
536.05	262.14
536.22	269.16
536.38	315.97
536.55	217.67
536.72	203.63
536.89	210.65
537.06	320.65
537.23	311.29
537.40	271.50
537.57	306.61
537.74	325.33
537.91	355.76
538.08	234.05
538.25	290.23
538.42	217.67
538.59	409.59
538.75	346.40
538.92	402.57
539.09	313.63
539.26	325.33
539.43	470.45
539.60	667.05
539.77	835.57
539.94	837.91
540.11	636.63
540.28	547.69
540.44	477.47
540.61	435.34
540.78	376.83
540.95	372.15
541.12	442.36
541.29	465.77
541.46	505.56
541.62	528.96
541.79	442.36
541.96	440.02
542.13	423.64
542.30	472.79
542.47	414.27
542.63	423.64
542.80	444.70
542.97	393.21
543.14	379.17
543.31	440.02
543.48	449.38
543.64	510.24
543.81	458.74
543.98	404.91
544.15	456.40
544.32	425.98
544.48	496.19
544.65	458.74
544.82	390.87
544.99	386.19
545.16	454.06
545.32	472.79
545.49	653.01
545.66	688.12
545.83	788.76
546.00	617.90
546.16	566.41
546.33	514.92
546.50	423.64
546.67	416.62
546.83	339.38
547.00	330.02
547.17	367.46
547.34	313.63
547.50	376.83
547.67	351.08
547.84	259.80
548.00	339.38
548.17	353.42
548.34	393.21
548.51	355.76
548.67	355.76
548.84	311.29
549.01	334.70
549.18	351.08
549.34	332.36
549.51	311.29
549.68	376.83
549.84	273.84
550.01	353.42
550.18	369.80
550.34	402.57
550.51	386.19
550.68	407.25
550.84	308.95
551.01	353.42
551.18	320.65
551.34	262.14
551.51	325.33
551.68	273.84
551.84	250.44
552.01	285.55
552.18	313.63
552.34	259.80
552.51	334.70
552.68	191.92
552.84	194.26
553.01	257.46
553.18	313.63
553.34	311.29
553.51	257.46
553.67	194.26
553.84	337.04
554.01	313.63
554.17	271.50
554.34	304.27
554.51	344.06
554.67	276.18
554.84	250.44
555.00	306.61
555.17	210.65
555.33	259.80
555.50	285.55
555.67	290.23
555.83	311.29
556.00	217.67
556.16	402.57
556.33	365.12
556.50	248.10
556.66	297.25
556.83	290.23
556.99	283.20
557.16	292.57
557.32	276.18
557.49	234.05
557.65	280.86
557.82	280.86
557.98	245.76
558.15	243.42
558.32	262.14
558.48	201.29
558.65	241.08
558.81	252.78
558.98	227.03
559.14	266.82
559.31	196.60
559.47	243.42
559.64	229.37
559.80	283.20
559.97	212.99
560.13	191.92
560.30	184.90
560.46	248.10
560.63	252.78
560.79	245.76
560.96	255.12
561.12	222.35
561.29	208.31
561.45	194.26
561.61	243.42
561.78	301.93
561.94	250.44
562.11	276.18
562.27	243.42
562.44	220.01
562.60	259.80
562.77	220.01
562.93	273.84
563.10	259.80
563.26	255.12
563.42	287.89
563.59	315.97
563.75	215.33
563.92	269.16
564.08	273.84
564.24	250.44
564.41	299.59
564.57	304.27
564.74	257.46
564.90	299.59
565.07	257.46
565.23	337.04
565.39	280.86
565.56	227.03
565.72	262.14
565.88	196.60
566.05	262.14
566.21	266.82
566.38	243.42
566.54	198.95
566.70	201.29
566.87	224.69
567.03	138.09
567.19	315.97
567.36	236.39
567.52	222.35
567.68	266.82
567.85	250.44
568.01	264.48
568.17	287.89
568.34	205.97
568.50	264.48
568.66	322.99
568.83	266.82
568.99	238.73
569.15	360.44
569.32	264.48
569.48	285.55
569.64	241.08
569.81	231.71
569.97	224.69
570.13	252.78
570.30	259.80
570.46	276.18
570.62	292.57
570.78	224.69
570.95	234.05
571.11	259.80
571.27	241.08
571.43	264.48
571.60	308.95
571.76	217.67
571.92	222.35
572.09	227.03
572.25	222.35
572.41	215.33
572.57	222.35
572.74	278.52
572.90	257.46
573.06	224.69
573.22	301.93
573.38	372.15
573.55	257.46
573.71	227.03
573.87	294.91
574.03	222.35
574.20	264.48
574.36	266.82
574.52	283.20
574.68	311.29
574.84	308.95
575.01	292.57
575.17	339.38
575.33	280.86
575.49	290.23
575.65	278.52
575.82	292.57
575.98	486.83
576.14	421.30
576.30	437.68
576.46	409.59
576.62	372.15
576.79	442.36
576.95	313.63
577.11	330.02
577.27	248.10
577.43	311.29
577.59	306.61
577.75	299.59
577.92	241.08
578.08	231.71
578.24	248.10
578.40	322.99
578.56	269.16
578.72	411.93
578.88	404.91
579.04	383.85
579.21	339.38
579.37	346.40
579.53	299.59
579.69	327.68
579.85	367.46
580.01	395.55
580.17	325.33
580.33	339.38
580.49	290.23
580.65	374.49
580.82	386.19
580.98	325.33
581.14	304.27
581.30	337.04
581.46	360.44
581.62	402.57
581.78	484.49
581.94	362.78
582.10	360.44
582.26	355.76
582.42	369.80
582.58	437.68
582.74	351.08
582.90	332.36
583.06	465.77
583.22	440.02
583.38	346.40
583.54	390.87
583.70	433.00
583.86	400.23
584.02	528.96
584.18	585.13
584.34	727.91
584.50	1554.12
584.66	10848.38
584.82	27735.35
584.98	35967.01
585.14	30490.16
585.30	19225.16
585.46	11861.84
585.62	7440.56
585.78	3545.91
585.94	1556.46
586.10	828.55
586.26	636.63
586.42	559.39
586.58	425.98
586.74	486.83
586.90	468.11
587.06	477.47
587.22	411.93
587.38	449.38
587.54	653.01
587.70	1727.32
587.86	2719.70
588.02	2738.43
588.18	1895.83
588.34	1299.00
588.49	940.90
588.65	638.97
588.81	477.47
588.97	374.49
589.13	257.46
589.29	315.97
589.45	318.31
589.61	322.99
589.77	299.59
589.93	334.70
590.08	311.29
590.24	397.89
590.40	358.10
590.56	390.87
590.72	332.36
590.88	313.63
591.04	327.68
591.20	339.38
591.35	372.15
591.51	231.71
591.67	290.23
591.83	297.25
591.99	315.97
592.15	276.18
592.31	325.33
592.46	271.50
592.62	322.99
592.78	318.31
592.94	344.06
593.10	306.61
593.26	313.63
593.41	367.46
593.57	360.44
593.73	365.12
593.89	1380.92
594.05	3375.05
594.20	4449.36
594.36	4133.39
594.52	2801.62
594.68	1921.58
594.84	1357.51
594.99	814.51
595.15	461.09
595.31	330.02
595.47	318.31
595.62	285.55
595.78	330.02
595.94	334.70
596.10	341.72
596.25	304.27
596.41	290.23
596.57	287.89
596.73	301.93
596.88	318.31
597.04	763.01
597.20	1088.35
597.36	1282.61
597.51	1043.88
597.67	746.63
597.83	610.88
597.99	479.81
598.14	411.93
598.30	315.97
598.46	297.25
598.61	341.72
598.77	299.59
598.93	292.57
599.09	327.68
599.24	236.39
599.40	280.86
599.56	273.84
599.71	332.36
599.87	278.52
600.03	304.27
600.18	229.37
600.34	325.33
600.50	273.84
600.65	198.95
600.81	205.97
600.97	243.42
601.12	259.80
601.28	313.63
601.44	334.70
601.59	238.73
601.75	276.18
601.91	287.89
602.06	313.63
602.22	383.85
602.37	468.11
602.53	882.38
602.69	1303.68
602.84	1191.33
603.00	880.04
603.16	784.08
603.31	505.56
603.47	407.25
603.62	280.86
603.78	332.36
603.94	318.31
604.09	262.14
604.25	294.91
604.40	262.14
604.56	290.23
604.71	304.27
604.87	250.44
605.03	220.01
605.18	210.65
605.34	287.89
605.49	203.63
605.65	290.23
605.80	262.14
605.96	257.46
606.12	367.46
606.27	325.33
606.43	325.33
606.58	395.55
606.74	599.18
606.89	1722.63
607.05	3159.72
607.20	3653.58
607.36	3028.65
607.51	2176.70
607.67	1448.79
607.82	1057.92
607.98	734.93
608.13	486.83
608.29	409.59
608.44	374.49
608.60	404.91
608.75	470.45
608.91	678.76
609.06	2693.96
609.22	5289.61
609.37	6370.94
609.53	5614.95
609.68	3850.18
609.84	2656.51
609.99	1928.60
610.15	1249.85
610.30	814.51
610.46	678.76
