SpectraSuite Data File
++++++++++++++++++++++++++++++++++++
Date: Fri Oct 04 11:33:55 GMT-05:00 2013
User: price-jones
Dark Spectrum Present: No
Reference Spectrum Present: No
Number of Sampled Component Spectra: 1
Spectrometers: USB2+H05261
Integration Time (usec): 100000 (USB2+H05261)
Spectra Averaged: 1 (USB2+H05261)
Boxcar Smoothing: 0 (USB2+H05261)
Correct for Electrical Dark: No (USB2+H05261)
Strobe/Lamp Enabled: No (USB2+H05261)
Correct for Detector Non-linearity: No (USB2+H05261)
Correct for Stray Light: No (USB2+H05261)
Number of Pixels in Processed Spectrum: 2048
>>>>>Begin Processed Spectral Data<<<<<
365.73	28.09
365.92	28.09
366.12	28.09
366.32	0.00
366.52	0.00
366.72	49.15
366.91	0.00
367.11	0.00
367.31	0.00
367.51	46.81
367.70	4.68
367.90	9.36
368.10	0.00
368.30	0.00
368.49	0.00
368.69	0.00
368.89	0.00
369.09	4.68
369.28	42.13
369.48	0.00
369.68	0.00
369.87	67.88
370.07	105.32
370.27	63.19
370.47	21.06
370.66	0.00
370.86	72.56
371.06	145.11
371.25	88.94
371.45	77.24
371.65	117.03
371.84	131.07
372.04	65.54
372.24	149.79
372.44	131.07
372.63	102.98
372.83	126.39
373.03	152.13
373.22	88.94
373.42	180.22
373.62	191.92
373.81	182.56
374.01	166.18
374.21	93.62
374.40	147.45
374.60	227.03
374.79	135.75
374.99	154.48
375.19	138.09
375.38	173.20
375.58	168.52
375.78	257.46
375.97	189.58
376.17	159.16
376.37	163.84
376.56	159.16
376.76	100.64
376.95	112.35
377.15	145.11
377.35	177.88
377.54	191.92
377.74	133.41
377.93	208.31
378.13	126.39
378.33	60.85
378.52	142.77
378.72	105.32
378.91	133.41
379.11	149.79
379.31	173.20
379.50	131.07
379.70	77.24
379.89	149.79
380.09	170.86
380.28	117.03
380.48	170.86
380.68	166.18
380.87	124.05
381.07	112.35
381.26	86.60
381.46	149.79
381.65	88.94
381.85	156.82
382.04	102.98
382.24	205.97
382.43	112.35
382.63	152.13
382.83	170.86
383.02	159.16
383.22	110.01
383.41	147.45
383.61	100.64
383.80	100.64
384.00	114.69
384.19	51.49
384.39	98.30
384.58	145.11
384.78	201.29
384.97	180.22
385.17	124.05
385.36	107.66
385.56	196.60
385.75	161.50
385.95	187.24
386.14	88.94
386.34	184.90
386.53	198.95
386.72	145.11
386.92	170.86
387.11	88.94
387.31	138.09
387.50	156.82
387.70	79.58
387.89	161.50
388.09	161.50
388.28	114.69
388.48	159.16
388.67	119.37
388.86	187.24
389.06	142.77
389.25	170.86
389.45	110.01
389.64	39.79
389.84	161.50
390.03	259.80
390.22	107.66
390.42	107.66
390.61	124.05
390.81	53.83
391.00	133.41
391.19	217.67
391.39	166.18
391.58	145.11
391.78	170.86
391.97	110.01
392.16	112.35
392.36	102.98
392.55	175.54
392.75	124.05
392.94	161.50
393.13	156.82
393.33	112.35
393.52	119.37
393.71	145.11
393.91	77.24
394.10	112.35
394.29	84.26
394.49	133.41
394.68	184.90
394.88	208.31
395.07	161.50
395.26	224.69
395.46	212.99
395.65	163.84
395.84	114.69
396.04	229.37
396.23	119.37
396.42	126.39
396.62	133.41
396.81	142.77
397.00	121.71
397.19	168.52
397.39	173.20
397.58	121.71
397.77	147.45
397.97	91.28
398.16	124.05
398.35	138.09
398.55	128.73
398.74	189.58
398.93	100.64
399.12	180.22
399.32	140.43
399.51	224.69
399.70	147.45
399.90	173.20
400.09	234.05
400.28	182.56
400.47	58.51
400.67	124.05
400.86	121.71
401.05	119.37
401.24	161.50
401.44	72.56
401.63	124.05
401.82	154.48
402.01	117.03
402.21	203.63
402.40	147.45
402.59	133.41
402.78	196.60
402.97	119.37
403.17	145.11
403.36	222.35
403.55	147.45
403.74	177.88
403.93	189.58
404.13	250.44
404.32	177.88
404.51	252.78
404.70	210.65
404.89	138.09
405.09	110.01
405.28	166.18
405.47	112.35
405.66	147.45
405.85	177.88
406.05	161.50
406.24	121.71
406.43	170.86
406.62	135.75
406.81	166.18
407.00	152.13
407.20	161.50
407.39	105.32
407.58	152.13
407.77	152.13
407.96	166.18
408.15	194.26
408.34	95.96
408.54	210.65
408.73	215.33
408.92	159.16
409.11	159.16
409.30	159.16
409.49	227.03
409.68	107.66
409.87	196.60
410.07	105.32
410.26	187.24
410.45	138.09
410.64	159.16
410.83	201.29
411.02	159.16
411.21	191.92
411.40	245.76
411.59	114.69
411.78	159.16
411.98	255.12
412.17	110.01
412.36	91.28
412.55	173.20
412.74	198.95
412.93	166.18
413.12	145.11
413.31	212.99
413.50	196.60
413.69	210.65
413.88	180.22
414.07	156.82
414.26	110.01
414.45	196.60
414.64	145.11
414.83	198.95
415.02	191.92
415.22	210.65
415.41	166.18
415.60	133.41
415.79	208.31
415.98	168.52
416.17	184.90
416.36	271.50
416.55	177.88
416.74	154.48
416.93	231.71
417.12	145.11
417.31	117.03
417.50	170.86
417.69	318.31
417.88	191.92
418.07	156.82
418.26	152.13
418.45	241.08
418.64	290.23
418.83	297.25
419.02	252.78
419.21	191.92
419.39	184.90
419.58	224.69
419.77	224.69
419.96	196.60
420.15	306.61
420.34	147.45
420.53	140.43
420.72	227.03
420.91	117.03
421.10	175.54
421.29	166.18
421.48	224.69
421.67	142.77
421.86	119.37
422.05	182.56
422.24	135.75
422.43	182.56
422.61	196.60
422.80	133.41
422.99	201.29
423.18	107.66
423.37	217.67
423.56	220.01
423.75	159.16
423.94	140.43
424.13	201.29
424.32	140.43
424.50	159.16
424.69	147.45
424.88	191.92
425.07	210.65
425.26	236.39
425.45	194.26
425.64	259.80
425.83	250.44
426.01	222.35
426.20	208.31
426.39	152.13
426.58	124.05
426.77	147.45
426.96	205.97
427.15	152.13
427.33	236.39
427.52	231.71
427.71	177.88
427.90	215.33
428.09	110.01
428.28	114.69
428.46	145.11
428.65	175.54
428.84	220.01
429.03	159.16
429.22	161.50
429.40	215.33
429.59	145.11
429.78	180.22
429.97	168.52
430.16	231.71
430.34	117.03
430.53	177.88
430.72	168.52
430.91	227.03
431.10	142.77
431.28	198.95
431.47	241.08
431.66	264.48
431.85	100.64
432.03	217.67
432.22	191.92
432.41	149.79
432.60	243.42
432.79	271.50
432.97	416.62
433.16	285.55
433.35	311.29
433.54	220.01
433.72	250.44
433.91	201.29
434.10	222.35
434.28	217.67
434.47	203.63
434.66	175.54
434.85	187.24
435.03	236.39
435.22	360.44
435.41	353.42
435.59	353.42
435.78	231.71
435.97	250.44
436.16	264.48
436.34	166.18
436.53	180.22
436.72	208.31
436.90	205.97
437.09	189.58
437.28	100.64
437.46	154.48
437.65	215.33
437.84	189.58
438.02	194.26
438.21	154.48
438.40	189.58
438.58	156.82
438.77	138.09
438.96	196.60
439.14	161.50
439.33	166.18
439.52	168.52
439.70	117.03
439.89	266.82
440.08	180.22
440.26	189.58
440.45	170.86
440.63	112.35
440.82	191.92
441.01	231.71
441.19	58.51
441.38	198.95
441.57	156.82
441.75	124.05
441.94	173.20
442.12	170.86
442.31	234.05
442.50	168.52
442.68	126.39
442.87	217.67
443.05	177.88
443.24	266.82
443.43	227.03
443.61	170.86
443.80	241.08
443.98	191.92
444.17	161.50
444.35	238.73
444.54	280.86
444.73	236.39
444.91	231.71
445.10	177.88
445.28	168.52
445.47	208.31
445.65	210.65
445.84	198.95
446.02	276.18
446.21	140.43
446.39	149.79
446.58	184.90
446.77	208.31
446.95	234.05
447.14	175.54
447.32	229.37
447.51	128.73
447.69	224.69
447.88	210.65
448.06	266.82
448.25	177.88
448.43	222.35
448.62	156.82
448.80	205.97
448.99	180.22
449.17	182.56
449.36	222.35
449.54	180.22
449.73	243.42
449.91	198.95
450.10	182.56
450.28	287.89
450.46	198.95
450.65	175.54
450.83	297.25
451.02	191.92
451.20	159.16
451.39	217.67
451.57	231.71
451.76	147.45
451.94	133.41
452.13	201.29
452.31	283.20
452.49	217.67
452.68	182.56
452.86	180.22
453.05	187.24
453.23	222.35
453.42	173.20
453.60	182.56
453.78	173.20
453.97	217.67
454.15	236.39
454.34	142.77
454.52	205.97
454.70	224.69
454.89	241.08
455.07	149.79
455.26	173.20
455.44	133.41
455.62	220.01
455.81	194.26
455.99	163.84
456.17	276.18
456.36	135.75
456.54	210.65
456.73	142.77
456.91	175.54
457.09	100.64
457.28	184.90
457.46	210.65
457.64	234.05
457.83	215.33
458.01	194.26
458.19	250.44
458.38	72.56
458.56	229.37
458.74	182.56
458.93	168.52
459.11	175.54
459.29	224.69
459.48	177.88
459.66	236.39
459.84	257.46
460.03	238.73
460.21	198.95
460.39	194.26
460.57	227.03
460.76	168.52
460.94	168.52
461.12	264.48
461.31	245.76
461.49	161.50
461.67	212.99
461.85	191.92
462.04	184.90
462.22	622.58
462.40	271.50
462.59	220.01
462.77	220.01
462.95	208.31
463.13	166.18
463.32	212.99
463.50	175.54
463.68	196.60
463.86	156.82
464.05	189.58
464.23	231.71
464.41	173.20
464.59	255.12
464.78	168.52
464.96	161.50
465.14	149.79
465.32	175.54
465.50	166.18
465.69	166.18
465.87	112.35
466.05	156.82
466.23	142.77
466.41	180.22
466.60	175.54
466.78	177.88
466.96	168.52
467.14	208.31
467.32	255.12
467.51	205.97
467.69	177.88
467.87	217.67
468.05	175.54
468.23	152.13
468.41	205.97
468.60	212.99
468.78	220.01
468.96	245.76
469.14	259.80
469.32	245.76
469.50	124.05
469.69	210.65
469.87	210.65
470.05	241.08
470.23	262.14
470.41	245.76
470.59	163.84
470.77	175.54
470.95	208.31
471.14	217.67
471.32	208.31
471.50	297.25
471.68	241.08
471.86	217.67
472.04	198.95
472.22	173.20
472.40	168.52
472.58	227.03
472.77	105.32
472.95	182.56
473.13	292.57
473.31	280.86
473.49	248.10
473.67	273.84
473.85	252.78
474.03	189.58
474.21	220.01
474.39	231.71
474.57	264.48
474.75	161.50
474.93	210.65
475.12	212.99
475.30	152.13
475.48	236.39
475.66	156.82
475.84	170.86
476.02	175.54
476.20	189.58
476.38	203.63
476.56	257.46
476.74	177.88
476.92	217.67
477.10	273.84
477.28	222.35
477.46	250.44
477.64	227.03
477.82	161.50
478.00	154.48
478.18	161.50
478.36	135.75
478.54	222.35
478.72	147.45
478.90	229.37
479.08	180.22
479.26	203.63
479.44	163.84
479.62	203.63
479.80	224.69
479.98	173.20
480.16	227.03
480.34	184.90
480.52	180.22
480.70	163.84
480.88	140.43
481.06	191.92
481.24	201.29
481.41	196.60
481.59	224.69
481.77	191.92
481.95	194.26
482.13	262.14
482.31	238.73
482.49	220.01
482.67	245.76
482.85	229.37
483.03	287.89
483.21	283.20
483.39	276.18
483.57	245.76
483.74	266.82
483.92	217.67
484.10	184.90
484.28	266.82
484.46	220.01
484.64	210.65
484.82	351.08
485.00	306.61
485.18	308.95
485.35	236.39
485.53	161.50
485.71	243.42
485.89	229.37
486.07	140.43
486.25	330.02
486.43	191.92
486.61	280.86
486.78	311.29
486.96	271.50
487.14	210.65
487.32	191.92
487.50	231.71
487.68	278.52
487.85	222.35
488.03	248.10
488.21	245.76
488.39	194.26
488.57	304.27
488.75	264.48
488.92	498.53
489.10	294.91
489.28	241.08
489.46	266.82
489.64	266.82
489.81	245.76
489.99	227.03
490.17	248.10
490.35	320.65
490.53	252.78
490.70	299.59
490.88	227.03
491.06	250.44
491.24	283.20
491.41	290.23
491.59	166.18
491.77	220.01
491.95	241.08
492.13	266.82
492.30	269.16
492.48	217.67
492.66	262.14
492.84	250.44
493.01	210.65
493.19	285.55
493.37	301.93
493.54	229.37
493.72	283.20
493.90	264.48
494.08	280.86
494.25	285.55
494.43	210.65
494.61	243.42
494.79	241.08
494.96	252.78
495.14	299.59
495.32	252.78
495.49	236.39
495.67	187.24
495.85	285.55
496.02	196.60
496.20	283.20
496.38	234.05
496.55	222.35
496.73	241.08
496.91	299.59
497.09	203.63
497.26	170.86
497.44	264.48
497.62	175.54
497.79	241.08
497.97	187.24
498.14	264.48
498.32	231.71
498.50	280.86
498.67	203.63
498.85	299.59
499.03	297.25
499.20	234.05
499.38	360.44
499.56	250.44
499.73	273.84
499.91	269.16
500.08	248.10
500.26	238.73
500.44	227.03
500.61	259.80
500.79	266.82
500.97	306.61
501.14	262.14
501.32	276.18
501.49	369.80
501.67	227.03
501.84	271.50
502.02	175.54
502.20	227.03
502.37	276.18
502.55	229.37
502.72	234.05
502.90	124.05
503.07	299.59
503.25	297.25
503.43	273.84
503.60	187.24
503.78	234.05
503.95	229.37
504.13	241.08
504.30	262.14
504.48	191.92
504.65	269.16
504.83	259.80
505.01	212.99
505.18	301.93
505.36	248.10
505.53	234.05
505.71	208.31
505.88	208.31
506.06	280.86
506.23	269.16
506.41	161.50
506.58	236.39
506.76	248.10
506.93	252.78
507.11	285.55
507.28	191.92
507.46	227.03
507.63	248.10
507.81	290.23
507.98	208.31
508.16	229.37
508.33	311.29
508.50	332.36
508.68	212.99
508.85	264.48
509.03	322.99
509.20	229.37
509.38	252.78
509.55	252.78
509.73	236.39
509.90	227.03
510.08	231.71
510.25	231.71
510.42	269.16
510.60	276.18
510.77	259.80
510.95	273.84
511.12	269.16
511.30	337.04
511.47	367.46
511.64	299.59
511.82	299.59
511.99	308.95
512.17	248.10
512.34	285.55
512.51	201.29
512.69	166.18
512.86	292.57
513.04	355.76
513.21	220.01
513.38	215.33
513.56	304.27
513.73	173.20
513.90	224.69
514.08	236.39
514.25	255.12
514.43	285.55
514.60	234.05
514.77	318.31
514.95	285.55
515.12	243.42
515.29	292.57
515.47	283.20
515.64	175.54
515.81	362.78
515.99	308.95
516.16	297.25
516.33	266.82
516.51	252.78
516.68	250.44
516.85	196.60
517.03	248.10
517.20	191.92
517.37	217.67
517.54	299.59
517.72	250.44
517.89	255.12
518.06	212.99
518.24	252.78
518.41	337.04
518.58	273.84
518.75	273.84
518.93	229.37
519.10	276.18
519.27	271.50
519.45	257.46
519.62	238.73
519.79	205.97
519.96	318.31
520.14	292.57
520.31	320.65
520.48	308.95
520.65	243.42
520.83	241.08
521.00	231.71
521.17	276.18
521.34	227.03
521.52	182.56
521.69	259.80
521.86	290.23
522.03	280.86
522.20	273.84
522.38	283.20
522.55	243.42
522.72	224.69
522.89	245.76
523.07	294.91
523.24	255.12
523.41	278.52
523.58	313.63
523.75	292.57
523.92	248.10
524.10	304.27
524.27	351.08
524.44	271.50
524.61	276.18
524.78	203.63
524.96	257.46
525.13	243.42
525.30	294.91
525.47	276.18
525.64	346.40
525.81	290.23
525.98	332.36
526.16	259.80
526.33	187.24
526.50	259.80
526.67	320.65
526.84	224.69
527.01	168.52
527.18	341.72
527.36	346.40
527.53	301.93
527.70	255.12
527.87	308.95
528.04	315.97
528.21	220.01
528.38	234.05
528.55	393.21
528.72	351.08
528.89	283.20
529.07	315.97
529.24	299.59
529.41	341.72
529.58	318.31
529.75	191.92
529.92	341.72
530.09	266.82
530.26	308.95
530.43	320.65
530.60	304.27
530.77	297.25
530.94	313.63
531.11	301.93
531.28	266.82
531.46	292.57
531.63	208.31
531.80	250.44
531.97	264.48
532.14	257.46
532.31	292.57
532.48	273.84
532.65	376.83
532.82	341.72
532.99	437.68
533.16	358.10
533.33	334.70
533.50	351.08
533.67	353.42
533.84	470.45
534.01	521.94
534.18	388.53
534.35	339.38
534.52	301.93
534.69	325.33
534.86	287.89
535.03	269.16
535.20	238.73
535.37	325.33
535.54	322.99
535.71	210.65
535.88	320.65
536.05	234.05
536.22	285.55
536.38	332.36
536.55	271.50
536.72	250.44
536.89	269.16
537.06	294.91
537.23	313.63
537.40	318.31
537.57	327.68
537.74	330.02
537.91	271.50
538.08	243.42
538.25	358.10
538.42	313.63
538.59	334.70
538.75	290.23
538.92	337.04
539.09	264.48
539.26	388.53
539.43	608.54
539.60	1226.44
539.77	1935.62
539.94	1893.49
540.11	1291.98
540.28	873.02
540.44	622.58
540.61	465.77
540.78	402.57
540.95	393.21
541.12	538.32
541.29	526.62
541.46	505.56
541.62	510.24
541.79	535.98
541.96	564.07
542.13	496.19
542.30	449.38
542.47	503.22
542.63	470.45
542.80	486.83
542.97	571.09
543.14	486.83
543.31	498.53
543.48	510.24
543.64	486.83
543.81	596.84
543.98	428.32
544.15	477.47
544.32	416.62
544.48	423.64
544.65	442.36
544.82	454.06
544.99	528.96
545.16	454.06
545.32	479.81
545.49	690.46
545.66	844.93
545.83	987.71
546.00	849.61
546.16	578.11
546.33	521.94
546.50	458.74
546.67	449.38
546.83	379.17
547.00	407.25
547.17	407.25
547.34	435.34
547.50	430.66
547.67	348.74
547.84	428.32
548.00	409.59
548.17	440.02
548.34	400.23
548.51	372.15
548.67	479.81
548.84	458.74
549.01	320.65
549.18	374.49
549.34	383.85
549.51	346.40
549.68	313.63
549.84	304.27
550.01	397.89
550.18	397.89
550.34	454.06
550.51	337.04
550.68	367.46
550.84	320.65
551.01	407.25
551.18	376.83
551.34	283.20
551.51	315.97
551.68	266.82
551.84	346.40
552.01	285.55
552.18	332.36
552.34	348.74
552.51	327.68
552.68	400.23
552.84	311.29
553.01	252.78
553.18	276.18
553.34	334.70
553.51	325.33
553.67	283.20
553.84	285.55
554.01	243.42
554.17	337.04
554.34	276.18
554.51	276.18
554.67	376.83
554.84	315.97
555.00	290.23
555.17	280.86
555.33	266.82
555.50	313.63
555.67	297.25
555.83	294.91
556.00	311.29
556.16	468.11
556.33	355.76
556.50	306.61
556.66	292.57
556.83	149.79
556.99	339.38
557.16	306.61
557.32	182.56
557.49	264.48
557.65	264.48
557.82	297.25
557.98	245.76
558.15	217.67
558.32	297.25
558.48	259.80
558.65	229.37
558.81	283.20
558.98	306.61
559.14	341.72
559.31	255.12
559.47	285.55
559.64	210.65
559.80	287.89
559.97	241.08
560.13	304.27
560.30	266.82
560.46	304.27
560.63	241.08
560.79	229.37
560.96	341.72
561.12	220.01
561.29	311.29
561.45	231.71
561.61	201.29
561.78	393.21
561.94	238.73
562.11	205.97
562.27	262.14
562.44	166.18
562.60	299.59
562.77	205.97
562.93	402.57
563.10	266.82
563.26	255.12
563.42	243.42
563.59	236.39
563.75	208.31
563.92	297.25
564.08	290.23
564.24	341.72
564.41	355.76
564.57	184.90
564.74	245.76
564.90	280.86
565.07	351.08
565.23	369.80
565.39	280.86
565.56	285.55
565.72	271.50
565.88	262.14
566.05	348.74
566.21	285.55
566.38	334.70
566.54	325.33
566.70	201.29
566.87	334.70
567.03	266.82
567.19	320.65
567.36	271.50
567.52	243.42
567.68	285.55
567.85	252.78
568.01	212.99
568.17	304.27
568.34	301.93
568.50	297.25
568.66	283.20
568.83	315.97
568.99	308.95
569.15	320.65
569.32	222.35
569.48	187.24
569.64	262.14
569.81	229.37
569.97	220.01
570.13	250.44
570.30	290.23
570.46	259.80
570.62	243.42
570.78	273.84
570.95	189.58
571.11	315.97
571.27	264.48
571.43	276.18
571.60	308.95
571.76	262.14
571.92	346.40
572.09	299.59
572.25	372.15
572.41	238.73
572.57	194.26
572.74	330.02
572.90	301.93
573.06	360.44
573.22	266.82
573.38	266.82
573.55	315.97
573.71	313.63
573.87	287.89
574.03	271.50
574.20	234.05
574.36	311.29
574.52	332.36
574.68	346.40
574.84	475.13
575.01	243.42
575.17	257.46
575.33	301.93
575.49	287.89
575.65	327.68
575.82	372.15
575.98	634.29
576.14	793.44
576.30	856.64
576.46	755.99
576.62	641.31
576.79	510.24
576.95	454.06
577.11	372.15
577.27	313.63
577.43	337.04
577.59	308.95
577.75	308.95
577.92	346.40
578.08	315.97
578.24	339.38
578.40	339.38
578.56	404.91
578.72	433.00
578.88	379.17
579.04	400.23
579.21	435.34
579.37	290.23
579.53	348.74
579.69	395.55
579.85	407.25
580.01	512.58
580.17	484.49
580.33	454.06
580.49	461.09
580.65	435.34
580.82	449.38
580.98	379.17
581.14	353.42
581.30	440.02
581.46	596.84
581.62	676.41
581.78	727.91
581.94	716.20
582.10	592.16
582.26	528.96
582.42	580.45
582.58	458.74
582.74	533.64
582.90	575.77
583.06	578.11
583.22	594.50
583.38	554.71
583.54	585.13
583.70	746.63
583.86	809.83
584.02	880.04
584.18	1160.91
584.34	1486.24
584.50	3733.15
584.66	27527.04
584.82	59952.82
584.98	65535.00
585.14	65535.00
585.30	54890.24
585.46	34562.69
585.62	21303.56
585.78	9722.59
585.94	3847.84
586.10	1886.47
586.26	1200.69
586.42	917.49
586.58	847.27
586.74	760.67
586.90	730.25
587.06	770.04
587.22	662.37
587.38	683.44
587.54	1380.92
587.70	4105.30
587.86	6707.98
588.02	7527.16
588.18	5345.78
588.34	3447.61
588.49	2179.04
588.65	1357.51
588.81	702.16
588.97	458.74
589.13	397.89
589.29	430.66
589.45	454.06
589.61	421.30
589.77	564.07
589.93	496.19
590.08	540.66
590.24	554.71
590.40	524.28
590.56	461.09
590.72	444.70
590.88	423.64
591.04	428.32
591.20	430.66
591.35	444.70
591.51	383.85
591.67	472.79
591.83	383.85
591.99	365.12
592.15	393.21
592.31	393.21
592.46	458.74
592.62	477.47
592.78	397.89
592.94	376.83
593.10	381.51
593.26	444.70
593.41	477.47
593.57	512.58
593.73	678.76
593.89	3300.16
594.05	8451.67
594.20	12739.54
594.36	12194.19
594.52	8105.28
594.68	5111.73
594.84	3375.05
594.99	1865.41
595.15	849.61
595.31	573.43
595.47	414.27
595.62	390.87
595.78	404.91
595.94	367.46
596.10	517.26
596.25	461.09
596.41	383.85
596.57	428.32
596.73	400.23
596.88	585.13
597.04	1659.44
597.20	2747.79
597.36	3213.56
597.51	2389.69
597.67	1572.84
597.83	1191.33
597.99	854.30
598.14	580.45
598.30	416.62
598.46	409.59
598.61	388.53
598.77	461.09
598.93	355.76
599.09	372.15
599.24	379.17
599.40	301.93
599.56	313.63
599.71	362.78
599.87	308.95
600.03	290.23
600.18	285.55
600.34	304.27
600.50	346.40
600.65	266.82
600.81	327.68
600.97	264.48
601.12	243.42
601.28	308.95
601.44	255.12
601.59	344.06
601.75	367.46
601.91	311.29
602.06	330.02
602.22	433.00
602.37	847.27
602.53	1912.22
602.69	3138.66
602.84	3363.35
603.00	2396.71
603.16	1739.02
603.31	1284.95
603.47	802.80
603.62	458.74
603.78	372.15
603.94	334.70
604.09	386.19
604.25	367.46
604.40	344.06
604.56	299.59
604.71	386.19
604.87	278.52
605.03	358.10
605.18	379.17
605.34	351.08
605.49	334.70
605.65	393.21
605.80	421.30
605.96	390.87
606.12	360.44
606.27	372.15
606.43	411.93
606.58	519.60
606.74	856.64
606.89	3929.76
607.05	8156.77
607.20	10977.11
607.36	8919.78
607.51	6111.14
607.67	3789.33
607.82	2565.23
607.98	1612.63
608.13	863.66
608.29	528.96
608.44	528.96
608.60	557.05
608.75	648.33
608.91	1397.30
609.06	6012.84
609.22	13757.67
609.37	19171.33
609.53	16762.92
609.68	11070.73
609.84	7124.59
609.99	5029.81
