SpectraSuite Data File
++++++++++++++++++++++++++++++++++++
Date: Fri Oct 04 12:13:51 GMT-05:00 2013
User: price-jones
Dark Spectrum Present: No
Reference Spectrum Present: No
Number of Sampled Component Spectra: 1
Spectrometers: USB2+H05261
Integration Time (usec): 1000000 (USB2+H05261)
Spectra Averaged: 1 (USB2+H05261)
Boxcar Smoothing: 0 (USB2+H05261)
Correct for Electrical Dark: No (USB2+H05261)
Strobe/Lamp Enabled: No (USB2+H05261)
Correct for Detector Non-linearity: No (USB2+H05261)
Correct for Stray Light: No (USB2+H05261)
Number of Pixels in Processed Spectrum: 2048
>>>>>Begin Processed Spectral Data<<<<<
365.73	39.79
365.92	39.79
366.12	39.79
366.32	0.00
366.52	0.00
366.72	322.99
366.91	135.75
367.11	257.46
367.31	278.52
367.51	325.33
367.70	362.78
367.90	571.09
368.10	376.83
368.30	381.51
368.49	84.26
368.69	526.62
368.89	344.06
369.09	145.11
369.28	252.78
369.48	147.45
369.68	264.48
369.87	421.30
370.07	262.14
370.27	554.71
370.47	433.00
370.66	344.06
370.86	402.57
371.06	674.07
371.25	931.53
371.45	416.62
371.65	685.78
371.84	383.85
372.04	248.10
372.24	512.58
372.44	407.25
372.63	557.05
372.83	903.45
373.03	484.49
373.22	341.72
373.42	374.49
373.62	493.85
373.81	648.33
374.01	716.20
374.21	688.12
374.40	449.38
374.60	793.44
374.79	526.62
374.99	517.26
375.19	608.54
375.38	692.80
375.58	573.43
375.78	692.80
375.97	603.86
376.17	994.73
376.37	479.81
376.56	535.98
376.76	472.79
376.95	449.38
377.15	671.73
377.35	620.24
377.54	664.71
377.74	407.25
377.93	447.04
378.13	510.24
378.33	709.18
378.52	554.71
378.72	772.38
378.91	634.29
379.11	479.81
379.31	519.60
379.50	388.53
379.70	676.41
379.89	744.29
380.09	449.38
380.28	320.65
380.48	519.60
380.68	409.59
380.87	318.31
381.07	608.54
381.26	807.48
381.46	678.76
381.65	620.24
381.85	484.49
382.04	554.71
382.24	617.90
382.43	528.96
382.63	383.85
382.83	444.70
383.02	706.84
383.22	816.85
383.41	409.59
383.61	578.11
383.80	526.62
384.00	479.81
384.19	463.43
384.39	538.32
384.58	461.09
384.78	645.99
384.97	587.47
385.17	503.22
385.36	491.51
385.56	711.52
385.75	360.44
385.95	538.32
386.14	725.57
386.34	463.43
386.53	528.96
386.72	430.66
386.92	784.08
387.11	662.37
387.31	641.31
387.50	421.30
387.70	367.46
387.89	498.53
388.09	444.70
388.28	386.19
388.48	383.85
388.67	648.33
388.86	442.36
389.06	472.79
389.25	617.90
389.45	528.96
389.64	507.90
389.84	746.63
390.03	624.92
390.22	608.54
390.42	533.64
390.61	451.72
390.81	402.57
391.00	500.87
391.19	643.65
391.39	491.51
391.58	683.44
391.78	550.03
391.97	655.35
392.16	400.23
392.36	786.42
392.55	755.99
392.75	517.26
392.94	376.83
393.13	664.71
393.33	334.70
393.52	468.11
393.71	877.70
393.91	592.16
394.10	521.94
394.29	653.01
394.49	765.36
394.68	968.98
394.88	987.71
395.07	866.00
395.26	550.03
395.46	517.26
395.65	732.59
395.84	617.90
396.04	1247.51
396.23	491.51
396.42	479.81
396.62	535.98
396.81	674.07
397.00	557.05
397.19	617.90
397.39	390.87
397.58	910.47
397.77	592.16
397.97	585.13
398.16	510.24
398.35	779.40
398.55	517.26
398.74	519.60
398.93	814.51
399.12	430.66
399.32	681.10
399.51	526.62
399.70	699.82
399.90	662.37
400.09	629.60
400.28	760.67
400.47	561.73
400.67	760.67
400.86	641.31
401.05	704.50
401.24	779.40
401.44	624.92
401.63	734.93
401.82	748.97
402.01	491.51
402.21	608.54
402.40	631.94
402.59	554.71
402.78	468.11
402.97	528.96
403.17	587.47
403.36	720.88
403.55	594.50
403.74	655.35
403.93	992.39
404.13	1479.22
404.32	976.00
404.51	760.67
404.70	894.08
404.89	655.35
405.09	1118.78
405.28	636.63
405.47	582.79
405.66	755.99
405.85	835.57
406.05	578.11
406.24	669.39
406.43	610.88
406.62	699.82
406.81	1067.28
407.00	788.76
407.20	596.84
407.39	599.18
407.58	631.94
407.77	725.57
407.96	884.72
408.15	847.27
408.34	669.39
408.54	681.10
408.73	688.12
408.92	699.82
409.11	814.51
409.30	851.96
409.49	496.19
409.68	599.18
409.87	713.86
410.07	440.02
410.26	650.67
410.45	594.50
410.64	514.92
410.83	676.41
411.02	531.30
411.21	781.74
411.40	793.44
411.59	655.35
411.78	660.03
411.98	683.44
412.17	603.86
412.36	622.58
412.55	564.07
412.74	777.06
412.93	1006.43
413.12	601.52
413.31	931.53
413.50	786.42
413.69	627.26
413.88	1050.90
414.07	723.23
414.26	685.78
414.45	557.05
414.64	737.27
414.83	725.57
415.02	737.27
415.22	990.05
415.41	1088.35
415.60	856.64
415.79	894.08
415.98	1144.52
416.17	765.36
416.36	685.78
416.55	669.39
416.74	807.48
416.93	891.74
417.12	760.67
417.31	674.07
417.50	880.04
417.69	1519.01
417.88	1275.59
418.07	1020.47
418.26	1027.50
418.45	1057.92
418.64	1680.50
418.83	1696.89
419.02	1413.68
419.21	1086.01
419.39	1191.33
419.58	1170.27
419.77	1263.89
419.96	1235.80
420.15	1245.16
420.34	777.06
420.53	763.01
420.72	1001.75
420.91	737.27
421.10	699.82
421.29	809.83
421.48	856.64
421.67	943.24
421.86	772.38
422.05	678.76
422.24	624.92
422.43	802.80
422.61	573.43
422.80	688.12
422.99	765.36
423.18	662.37
423.37	1107.07
423.56	833.23
423.75	837.91
423.94	545.34
424.13	709.18
424.32	664.71
424.50	737.27
424.69	758.33
424.88	971.32
425.07	755.99
425.26	1149.20
425.45	1497.94
425.64	1678.16
425.83	1556.46
426.01	1446.45
426.20	1013.45
426.39	716.20
426.58	746.63
426.77	898.77
426.96	1032.18
427.15	938.55
427.33	709.18
427.52	800.46
427.71	798.12
427.90	800.46
428.09	681.10
428.28	615.56
428.46	734.93
428.65	812.17
428.84	957.28
429.03	1125.80
429.22	671.73
429.40	580.45
429.59	575.77
429.78	1238.14
429.97	805.14
430.16	702.16
430.34	650.67
430.53	594.50
430.72	564.07
430.91	954.94
431.10	631.94
431.28	772.38
431.47	947.92
431.66	966.64
431.85	669.39
432.03	833.23
432.22	1235.80
432.41	767.70
432.60	1181.97
432.79	1214.74
432.97	2031.58
433.16	2090.10
433.35	1589.22
433.54	1186.65
433.72	1102.39
433.91	1137.50
434.10	1015.79
434.28	1364.53
434.47	976.00
434.66	1097.71
434.85	711.52
435.03	826.21
435.22	1132.82
435.41	1242.82
435.59	1015.79
435.78	950.26
435.97	868.34
436.16	983.02
436.34	765.36
436.53	826.21
436.72	1043.88
436.90	943.24
437.09	870.68
437.28	739.61
437.46	751.31
437.65	933.87
437.84	915.15
438.02	882.38
438.21	866.00
438.40	770.04
438.58	638.97
438.77	903.45
438.96	875.36
439.14	725.57
439.33	851.96
439.52	770.04
439.70	795.78
439.89	994.73
440.08	898.77
440.26	877.70
440.45	1188.99
440.63	940.90
440.82	856.64
441.01	891.74
441.19	816.85
441.38	875.36
441.57	835.57
441.75	1130.48
441.94	1137.50
442.12	1015.79
442.31	791.10
442.50	840.25
442.68	791.10
442.87	833.23
443.05	887.06
443.24	880.04
443.43	1130.48
443.61	1163.25
443.80	896.43
443.98	765.36
444.17	826.21
444.35	1008.77
444.54	861.32
444.73	748.97
444.91	1149.20
445.10	755.99
445.28	800.46
445.47	924.51
445.65	873.02
445.84	812.17
446.02	858.98
446.21	896.43
446.39	805.14
446.58	980.68
446.77	821.53
446.95	898.77
447.14	961.96
447.32	1207.72
447.51	870.68
447.69	861.32
447.88	891.74
448.06	1184.31
448.25	983.02
448.43	788.76
448.62	730.25
448.80	1004.09
448.99	1142.18
449.17	873.02
449.36	863.66
449.54	1015.79
449.73	812.17
449.91	1001.75
450.10	931.53
450.28	1331.76
450.46	1511.99
450.65	1284.95
450.83	1142.18
451.02	966.64
451.20	910.47
451.39	1008.77
451.57	983.02
451.76	891.74
451.94	980.68
452.13	1179.63
452.31	1123.46
452.49	1015.79
452.68	802.80
452.86	997.07
453.05	1385.60
453.23	973.66
453.42	814.51
453.60	929.19
453.78	1041.54
453.97	840.25
454.15	835.57
454.34	894.08
454.52	854.30
454.70	1268.57
454.89	1116.44
455.07	739.61
455.26	992.39
455.44	1144.52
455.62	936.21
455.81	1015.79
455.99	1086.01
456.17	1025.15
456.36	877.70
456.54	919.83
456.73	950.26
456.91	919.83
457.09	987.71
457.28	1217.08
457.46	971.32
457.64	1219.42
457.83	903.45
458.01	812.17
458.19	1022.81
458.38	966.64
458.56	1067.28
458.74	854.30
458.93	1029.84
459.11	1034.52
459.29	861.32
459.48	1137.50
459.66	1364.53
459.84	1167.93
460.03	1757.74
460.21	1083.67
460.39	917.49
460.57	1359.85
460.76	1015.79
460.94	994.73
461.12	1306.02
461.31	1345.81
461.49	1039.20
461.67	884.72
461.85	1067.28
462.04	994.73
462.22	5696.86
462.40	1301.34
462.59	1210.06
462.77	873.02
462.95	1039.20
463.13	847.27
463.32	1184.31
463.50	1083.67
463.68	1139.84
463.86	1071.97
464.05	1004.09
464.23	1296.66
464.41	1165.59
464.59	835.57
464.78	952.60
464.96	807.48
465.14	966.64
465.32	929.19
465.50	1142.18
465.69	1123.46
465.87	847.27
466.05	1118.78
466.23	763.01
466.41	940.90
466.60	896.43
466.78	1055.58
466.96	1228.78
467.14	1078.99
467.32	1224.10
467.51	1090.69
467.69	1174.95
467.87	1287.29
468.05	933.87
468.23	1380.92
468.41	1172.61
468.60	1008.77
468.78	1013.45
468.96	1313.04
469.14	1076.65
469.32	772.38
469.50	800.46
469.69	1118.78
469.87	1228.78
470.05	1146.86
470.23	1064.94
470.41	931.53
470.59	976.00
470.77	1224.10
470.95	1032.18
471.14	1270.91
471.32	983.02
471.50	1432.41
471.68	1123.46
471.86	1095.37
472.04	938.55
472.22	1088.35
472.40	805.14
472.58	950.26
472.77	898.77
472.95	1111.75
473.13	1376.24
473.31	1249.85
473.49	882.38
473.67	1018.13
473.85	1153.88
474.03	1160.91
474.21	1013.45
474.39	1270.91
474.57	1451.13
474.75	1226.44
474.93	1006.43
475.12	968.98
475.30	1022.81
475.48	1050.90
475.66	1011.11
475.84	1048.56
476.02	1046.22
476.20	1179.63
476.38	973.66
476.56	1605.61
476.74	1160.91
476.92	1069.62
477.10	1011.11
477.28	1249.85
477.46	1034.52
477.64	1242.82
477.82	1142.18
478.00	1090.69
478.18	1151.54
478.36	1076.65
478.54	931.53
478.72	1048.56
478.90	1104.73
479.08	1221.76
479.26	1146.86
479.44	1046.22
479.62	938.55
479.80	1071.97
479.98	1029.84
480.16	1076.65
480.34	1345.81
480.52	1067.28
480.70	1245.16
480.88	1018.13
481.06	1036.86
481.24	1067.28
481.41	1149.20
481.59	1355.17
481.77	1301.34
481.95	1172.61
482.13	1565.82
482.31	1254.53
482.49	1086.01
482.67	1294.32
482.85	1308.36
483.03	1329.42
483.21	1200.69
483.39	1188.99
483.57	1170.27
483.74	1603.27
483.92	1217.08
484.10	1123.46
484.28	1460.49
484.46	1827.96
484.64	1172.61
484.82	1219.42
485.00	1167.93
485.18	1114.10
485.35	1125.80
485.53	985.37
485.71	1376.24
485.89	873.02
486.07	1149.20
486.25	1614.97
486.43	1343.47
486.61	1301.34
486.78	1313.04
486.96	1036.86
487.14	1179.63
487.32	1193.67
487.50	1149.20
487.68	1434.75
487.85	1165.59
488.03	1341.13
488.21	1600.93
488.39	1430.07
488.57	1401.98
488.75	1214.74
488.92	4203.60
489.10	1486.24
489.28	1689.87
489.46	1242.82
489.64	1462.83
489.81	1373.89
489.99	1437.09
490.17	1294.32
490.35	2015.20
490.53	1343.47
490.70	1207.72
490.88	1549.43
491.06	1310.70
491.24	1509.65
491.41	1699.23
491.59	1416.02
491.77	1224.10
491.95	1291.98
492.13	1266.23
492.30	1266.23
492.48	1334.11
492.66	1453.47
492.84	1310.70
493.01	1523.69
493.19	1362.19
493.37	1771.79
493.54	1523.69
493.72	1490.92
493.90	1387.94
494.08	1355.17
494.25	1570.50
494.43	1558.80
494.61	1394.96
494.79	1252.19
494.96	1291.98
495.14	1675.82
495.32	1387.94
495.49	1593.90
495.67	1579.86
495.85	1458.15
496.02	1345.81
496.20	1692.21
496.38	1533.05
496.55	1479.22
496.73	1593.90
496.91	1420.71
497.09	1643.06
497.26	1521.35
497.44	1474.54
497.62	1507.30
497.79	1448.79
497.97	1629.01
498.14	1713.27
498.32	1526.03
498.50	1586.88
498.67	1488.58
498.85	1523.69
499.03	1591.56
499.20	1600.93
499.38	1582.20
499.56	1507.30
499.73	1919.24
499.91	1650.08
500.08	1666.46
500.26	1568.16
500.44	1439.43
500.61	1575.18
500.79	1511.99
500.97	1760.08
501.14	1872.43
501.32	1521.35
501.49	1757.74
501.67	1451.13
501.84	1633.69
502.02	1369.21
502.20	1905.20
502.37	1579.86
502.55	1530.71
502.72	1657.10
502.90	1783.49
503.07	1767.10
503.25	1774.13
503.43	1664.12
503.60	1809.23
503.78	1949.67
503.95	1643.06
504.13	1509.65
504.30	1654.76
504.48	1713.27
504.65	1879.45
504.83	1893.49
505.01	1593.90
505.18	1757.74
505.36	1659.44
505.53	1530.71
505.71	1547.09
505.88	1914.56
506.06	1556.46
506.23	1603.27
506.41	1565.82
506.58	1664.12
506.76	1666.46
506.93	1603.27
507.11	1757.74
507.28	1542.41
507.46	1626.67
507.63	1825.62
507.81	1802.21
507.98	1865.41
508.16	1741.36
508.33	1879.45
508.50	1654.76
508.68	1603.27
508.85	1607.95
509.03	1591.56
509.20	1502.62
509.38	1713.27
509.55	1837.32
509.73	1795.19
509.90	1996.48
510.08	1661.78
510.25	1827.96
510.42	1479.22
510.60	1558.80
510.77	1767.10
510.95	1877.11
511.12	1778.81
511.30	2223.51
511.47	2331.17
511.64	2420.11
511.82	1881.79
511.99	1785.83
512.17	1797.53
512.34	1561.14
512.51	1448.79
512.69	1568.16
512.86	1905.20
513.04	1563.48
513.21	1685.19
513.38	1537.73
513.56	1544.75
513.73	1497.94
513.90	1533.05
514.08	1607.95
514.25	1923.92
514.43	1830.30
514.60	1629.01
514.77	1713.27
514.95	1888.81
515.12	1624.33
515.29	1771.79
515.47	1795.19
515.64	1762.42
515.81	1703.91
515.99	2076.06
516.16	1825.62
516.33	1764.76
516.51	1469.86
516.68	1301.34
516.85	1467.52
517.03	1451.13
517.20	1617.31
517.37	1652.42
517.54	1729.66
517.72	1568.16
517.89	1378.58
518.06	1446.45
518.24	1998.82
518.41	2249.25
518.58	2069.03
518.75	1673.48
518.93	1832.64
519.10	1834.98
519.27	1640.72
519.45	1778.81
519.62	1722.63
519.79	1853.70
519.96	1638.38
520.14	1757.74
520.31	2017.54
520.48	1853.70
520.65	1909.88
520.83	2045.63
521.00	1881.79
521.17	1771.79
521.34	1610.29
521.52	1699.23
521.69	1839.66
521.86	1830.30
522.03	2019.88
522.20	2150.95
522.38	1706.25
522.55	1710.93
522.72	1526.03
522.89	2015.20
523.07	2183.72
523.24	1729.66
523.41	1689.87
523.58	1675.82
523.75	1715.61
523.92	1629.01
524.10	1783.49
524.27	1664.12
524.44	1687.53
524.61	2010.52
524.78	1612.63
524.96	1827.96
525.13	1755.40
525.30	2003.50
525.47	1923.92
525.64	1802.21
525.81	1778.81
525.98	1795.19
526.16	1558.80
526.33	1535.39
526.50	1526.03
526.67	1476.88
526.84	1533.05
527.01	1582.20
527.18	1757.74
527.36	1729.66
527.53	1629.01
527.70	1877.11
527.87	1818.60
528.04	2179.04
528.21	1664.12
528.38	2080.74
528.55	2040.95
528.72	2003.50
528.89	2253.94
529.07	1818.60
529.24	1788.17
529.41	2195.42
529.58	1809.23
529.75	1760.08
529.92	1998.82
530.09	1811.57
530.26	2052.65
530.43	1909.88
530.60	1935.62
530.77	1849.02
530.94	1912.22
531.11	1888.81
531.28	1856.04
531.46	1767.10
531.63	1764.76
531.80	1872.43
531.97	1806.89
532.14	1816.26
532.31	1935.62
532.48	2267.98
532.65	2937.37
532.82	3281.43
532.99	3115.25
533.16	2621.40
533.33	2284.36
533.50	2237.55
533.67	2684.59
533.84	3634.85
534.01	3929.76
534.18	3222.92
534.35	2682.25
534.52	2230.53
534.69	2396.71
534.86	1916.90
535.03	1820.94
535.20	1764.76
535.37	2043.29
535.54	1923.92
535.71	1928.60
535.88	2277.34
536.05	1746.04
536.22	1895.83
536.38	1844.34
536.55	1837.32
536.72	2031.58
536.89	1598.59
537.06	1715.61
537.23	1727.32
537.40	1797.53
537.57	1687.53
537.74	1942.64
537.91	1937.96
538.08	1842.00
538.25	1909.88
538.42	1771.79
538.59	1825.62
538.75	1818.60
538.92	1849.02
539.09	2139.25
539.26	2064.35
539.43	4456.38
539.60	10710.29
539.77	17657.00
539.94	17598.49
540.11	10785.19
540.28	6850.75
540.44	4587.45
540.61	2612.04
540.78	1933.28
540.95	1849.02
541.12	2321.81
541.29	1799.87
541.46	2157.97
541.62	1837.32
541.79	1727.32
541.96	1743.70
542.13	1739.02
542.30	1692.21
542.47	1949.67
542.63	1783.49
542.80	1769.44
542.97	2099.46
543.14	1944.99
543.31	1792.85
543.48	1853.70
543.64	1853.70
543.81	1884.13
543.98	1743.70
544.15	1629.01
544.32	1741.36
544.48	1795.19
544.65	1795.19
544.82	1755.40
544.99	1727.32
545.16	2031.58
545.32	1715.61
545.49	1926.26
545.66	1802.21
545.83	1678.16
546.00	1535.39
546.16	1680.50
546.33	1603.27
546.50	1727.32
546.67	2094.78
546.83	2017.54
547.00	1837.32
547.17	1565.82
547.34	1514.33
547.50	1631.35
547.67	1650.08
547.84	1533.05
548.00	1839.66
548.17	1621.99
548.34	1694.55
548.51	1975.41
548.67	1902.86
548.84	1708.59
549.01	1891.15
549.18	1886.47
549.34	2026.90
549.51	1947.33
549.68	1846.68
549.84	1755.40
550.01	1741.36
550.18	2670.55
550.34	2427.14
550.51	1830.30
550.68	2139.25
550.84	1685.19
551.01	1717.95
551.18	1956.69
551.34	1804.55
551.51	1701.57
551.68	1657.10
551.84	1928.60
552.01	1696.89
552.18	1610.29
552.34	1785.83
552.51	1767.10
552.68	1898.17
552.84	1666.46
553.01	1788.17
553.18	1898.17
553.34	1636.03
553.51	1495.60
553.67	1895.83
553.84	2141.59
554.01	1961.37
554.17	1956.69
554.34	1682.85
554.51	1851.36
554.67	1944.99
554.84	1949.67
555.00	1891.15
555.17	1755.40
555.33	1853.70
555.50	1856.04
555.67	1884.13
555.83	1846.68
556.00	2115.84
556.16	3637.19
556.33	1919.24
556.50	1706.25
556.66	1727.32
556.83	1746.04
556.99	1621.99
557.16	1834.98
557.32	1647.74
557.49	1671.14
557.65	1638.38
557.82	1652.42
557.98	1732.00
558.15	1561.14
558.32	1624.33
558.48	1582.20
558.65	1668.80
558.81	1804.55
558.98	1495.60
559.14	1839.66
559.31	1743.70
559.47	1797.53
559.64	1614.97
559.80	1923.92
559.97	1469.86
560.13	1727.32
560.30	1605.61
560.46	1643.06
560.63	1685.19
560.79	1776.47
560.96	1802.21
561.12	1626.67
561.29	1799.87
561.45	1565.82
561.61	1673.48
561.78	2420.11
561.94	1722.63
562.11	1600.93
562.27	1682.85
562.44	1607.95
562.60	1591.56
562.77	1603.27
562.93	2232.87
563.10	1776.47
563.26	1795.19
563.42	1923.92
563.59	1853.70
563.75	1565.82
563.92	1949.67
564.08	1797.53
564.24	1874.77
564.41	2047.97
564.57	1570.50
564.74	1664.12
564.90	1914.56
565.07	2010.52
565.23	2202.44
565.39	2146.27
565.56	2153.29
565.72	1921.58
565.88	1879.45
566.05	1769.44
566.21	1724.97
566.38	1902.86
566.54	1776.47
566.70	1610.29
566.87	1582.20
567.03	1509.65
567.19	1610.29
567.36	1778.81
567.52	1668.80
567.68	1713.27
567.85	1849.02
568.01	1542.41
568.17	1458.15
568.34	1746.04
568.50	2176.70
568.66	1802.21
568.83	2619.06
568.99	1771.79
569.15	1973.07
569.32	1664.12
569.48	1657.10
569.64	1502.62
569.81	1682.85
569.97	1526.03
570.13	1713.27
570.30	1610.29
570.46	1612.63
570.62	1526.03
570.78	1577.52
570.95	1446.45
571.11	2022.22
571.27	2132.23
571.43	1668.80
571.60	1933.28
571.76	1874.77
571.92	1813.92
572.09	1767.10
572.25	1689.87
572.41	1727.32
572.57	1612.63
572.74	2050.31
572.90	1905.20
573.06	1893.49
573.22	1849.02
573.38	2024.56
573.55	1952.01
573.71	1930.94
573.87	1849.02
574.03	1614.97
574.20	1867.75
574.36	2532.46
574.52	2647.15
574.68	2745.45
574.84	2612.04
575.01	2221.17
575.17	2097.12
575.33	1699.23
575.49	2010.52
575.65	2230.53
575.82	3005.25
575.98	5476.85
576.14	7150.34
576.30	7485.03
576.46	5291.95
576.62	3847.84
576.79	3396.12
576.95	2888.22
577.11	2118.18
577.27	2024.56
577.43	2267.98
577.59	2387.35
577.75	2211.81
577.92	2127.55
578.08	2115.84
578.24	1839.66
578.40	2221.17
578.56	2349.90
578.72	2497.35
578.88	2429.48
579.04	2209.47
579.21	2239.89
579.37	2293.72
579.53	2321.81
579.69	2609.70
579.85	2382.67
580.01	2998.23
580.17	3229.94
580.33	3286.11
580.49	2972.48
580.65	2979.50
580.82	2846.09
580.98	2818.00
581.14	2876.52
581.30	3304.84
581.46	4046.79
581.62	5476.85
581.78	6057.31
581.94	5870.06
582.10	4603.83
582.26	4175.52
582.42	3819.75
582.58	3826.78
582.74	3756.56
582.90	3969.55
583.06	4072.53
583.22	4004.66
583.38	4442.34
583.54	4868.31
583.70	6040.92
583.86	6846.07
584.02	7798.66
584.18	9757.69
584.34	13547.02
584.50	39662.72
584.66	65535.00
584.82	65535.00
584.98	65535.00
585.14	65535.00
585.30	65535.00
585.46	65535.00
585.62	65535.00
585.78	65535.00
585.94	45418.10
586.10	17240.39
586.26	11014.56
586.42	8594.45
586.58	6979.48
586.74	6139.23
586.90	5844.32
587.06	5694.52
587.22	5151.52
587.38	5069.60
587.54	13097.64
587.70	41450.89
587.86	59477.69
588.02	62333.15
588.18	52395.23
588.34	32898.57
588.49	21631.23
588.65	12959.55
588.81	6300.72
588.97	3693.37
589.13	3009.93
589.29	2871.84
589.45	2874.18
589.61	2789.92
589.77	3676.98
589.93	4074.87
590.08	4503.19
590.24	4215.30
590.40	4128.70
590.56	3857.20
590.72	3300.16
590.88	2998.23
591.04	3183.13
591.20	2710.34
591.35	3066.10
591.51	2647.15
591.67	2485.65
591.83	2448.20
591.99	2506.71
592.15	2605.02
592.31	2352.24
592.46	2340.54
592.62	2499.69
592.78	2260.96
592.94	2363.94
593.10	2443.52
593.26	2553.52
593.41	3096.53
593.57	3353.99
593.73	6038.58
593.89	35246.13
594.05	65132.43
594.20	65535.00
594.36	65535.00
594.52	65535.00
594.68	48903.15
594.84	33418.17
594.99	17511.89
595.15	7700.36
595.31	4369.78
595.47	3475.70
595.62	2740.77
595.78	2612.04
595.94	2644.81
596.10	3117.59
596.25	3213.56
596.41	3267.39
596.57	2773.53
596.73	2640.12
596.88	5626.65
597.04	15892.24
597.20	27367.88
597.36	32947.72
597.51	23742.39
597.67	15105.82
597.83	10347.51
597.99	7169.06
598.14	4072.53
598.30	3190.15
598.46	2740.77
598.61	3030.99
598.77	2750.13
598.93	2333.51
599.09	2237.55
599.24	2218.83
599.40	2286.70
599.56	2008.18
599.71	2097.12
599.87	1977.75
600.03	2029.24
