SpectraSuite Data File
++++++++++++++++++++++++++++++++++++
Date: Fri Oct 04 12:15:51 GMT-05:00 2013
User: price-jones
Dark Spectrum Present: No
Reference Spectrum Present: No
Number of Sampled Component Spectra: 1
Spectrometers: USB2+H05261
Integration Time (usec): 10000000 (USB2+H05261)
Spectra Averaged: 1 (USB2+H05261)
Boxcar Smoothing: 0 (USB2+H05261)
Correct for Electrical Dark: No (USB2+H05261)
Strobe/Lamp Enabled: No (USB2+H05261)
Correct for Detector Non-linearity: No (USB2+H05261)
Correct for Stray Light: No (USB2+H05261)
Number of Pixels in Processed Spectrum: 2048
>>>>>Begin Processed Spectral Data<<<<<
365.73	44.47
365.92	44.47
366.12	44.47
366.32	0.00
366.52	0.00
366.72	4348.72
366.91	2291.38
367.11	4327.65
367.31	3590.38
367.51	4320.63
367.70	4849.59
367.90	6707.98
368.10	4669.37
368.30	5043.85
368.49	2569.91
368.69	6277.32
368.89	4285.52
369.09	2750.13
369.28	3990.61
369.48	2410.75
369.68	3419.52
369.87	4547.66
370.07	3005.25
370.27	6731.38
370.47	4788.74
370.66	4381.48
370.86	6195.40
371.06	8545.30
371.25	10588.58
371.45	5076.62
371.65	7576.31
371.84	4266.80
372.04	3859.54
372.24	5671.12
372.44	4863.63
372.63	6120.50
372.83	9364.48
373.03	5172.58
373.22	4180.20
373.42	4367.44
373.62	5217.05
373.81	6197.74
374.01	7859.52
374.21	7595.04
374.40	4954.91
374.60	7934.42
374.79	5383.23
374.99	5334.08
375.19	6171.99
375.38	6785.21
375.58	5764.74
375.78	7599.72
375.97	6963.09
376.17	10892.85
376.37	5521.32
376.56	6651.80
376.76	4725.54
376.95	4526.60
377.15	7318.86
377.35	6794.58
377.54	6923.30
377.74	5048.54
377.93	5174.92
378.13	6504.35
378.33	8006.97
378.52	5776.44
378.72	8142.72
378.91	7456.95
379.11	5170.24
379.31	5163.22
379.50	4128.70
379.70	8056.12
379.89	8063.15
380.09	5371.53
380.28	4498.51
380.48	5980.07
380.68	5093.01
380.87	4278.50
381.07	6668.19
381.26	8884.67
381.46	4299.56
381.65	6958.41
381.85	5160.88
382.04	5516.64
382.24	6548.82
382.43	5310.68
382.63	4325.31
382.83	5060.24
383.02	7545.89
383.22	8439.97
383.41	4245.73
383.61	5689.84
383.80	5556.43
384.00	5860.70
384.19	5619.63
384.39	6272.64
384.58	5687.50
384.78	7068.42
384.97	6726.70
385.17	5933.26
385.36	5296.63
385.56	7379.71
385.75	4311.27
385.95	6113.48
386.14	7955.48
386.34	5502.60
386.53	6696.27
386.72	5198.33
386.92	8865.95
387.11	7159.70
387.31	7499.08
387.50	5144.50
387.70	4669.37
387.89	6279.66
388.09	5123.43
388.28	4788.74
388.48	5214.71
388.67	8093.57
388.86	6305.40
389.06	6373.28
389.25	7428.86
389.45	7246.30
389.64	6490.31
389.84	9116.39
390.03	7681.64
390.22	7213.53
390.42	6190.72
390.61	5533.03
390.81	5214.71
391.00	6958.41
391.19	9064.89
391.39	6677.55
391.58	8070.17
391.78	6717.34
391.97	7297.79
392.16	5095.35
392.36	9172.56
392.55	8608.49
392.75	5877.09
392.94	4849.59
393.13	7159.70
393.33	4381.48
393.52	5570.48
393.71	9350.44
393.91	6899.90
394.10	5249.82
394.29	6036.24
394.49	6310.08
394.68	7906.33
394.88	9671.09
395.07	9441.72
395.26	7686.32
395.46	7297.79
395.65	9273.20
395.84	7894.63
396.04	13495.53
396.23	6125.18
396.42	5500.26
396.62	6916.28
396.81	7218.21
397.00	6888.20
397.19	7503.76
397.39	7091.82
397.58	10560.50
397.77	7749.51
397.97	8255.07
398.16	8170.81
398.35	9661.73
398.55	7220.55
398.74	8582.74
398.93	10637.73
399.12	7964.84
399.32	9912.17
399.51	8519.55
399.70	10167.29
399.90	9682.80
400.09	9743.65
400.28	10892.85
400.47	8388.48
400.67	10899.87
400.86	9408.95
401.05	10551.14
401.24	11592.67
401.44	11016.90
401.63	11009.88
401.82	11747.15
402.01	8362.73
402.21	10244.52
402.40	10368.57
402.59	9146.81
402.78	8884.67
402.97	9174.90
403.17	9841.95
403.36	10689.23
403.55	9736.63
403.74	9657.05
403.93	9696.84
404.13	12088.87
404.32	8725.52
404.51	9109.36
404.70	12159.08
404.89	9856.00
405.09	14787.50
405.28	10312.40
405.47	8891.70
405.66	11557.57
405.85	12205.89
406.05	10317.08
406.24	10228.14
406.43	11164.36
406.62	11918.01
406.81	15721.38
407.00	12793.37
407.20	11035.63
407.39	10555.82
407.58	10520.71
407.77	12271.43
407.96	14373.23
408.15	13364.46
408.34	12908.05
408.54	12468.03
408.73	12587.40
408.92	12336.96
409.11	13418.29
409.30	14384.93
409.49	10462.19
409.68	11115.20
409.87	11557.57
410.07	10305.38
410.26	12308.88
410.45	12039.72
410.64	11524.80
410.83	13202.96
411.02	12343.99
411.21	14820.27
411.40	15290.72
411.59	13128.06
411.78	12854.22
411.98	13591.49
412.17	12608.47
412.36	13289.56
412.55	13563.40
412.74	15276.68
412.93	18010.42
413.12	12922.10
413.31	16837.81
413.50	15527.11
413.69	14780.48
413.88	17680.41
414.07	15068.37
414.26	14841.34
414.45	14670.48
414.64	16863.56
414.83	16898.67
415.02	16042.03
415.22	16910.37
415.41	18546.40
415.60	14939.64
415.79	16119.27
415.98	19871.15
416.17	16816.75
416.36	17085.91
416.55	15817.34
416.74	17591.47
416.93	18539.38
417.12	16376.73
417.31	16526.52
417.50	16608.44
417.69	21060.14
417.88	17025.06
418.07	15555.20
418.26	17125.70
418.45	17102.29
418.64	21488.46
418.83	18492.57
419.02	18518.32
419.21	17790.41
419.39	17654.66
419.58	16119.27
419.77	16580.36
419.96	19796.25
420.15	21530.59
420.34	18361.50
420.53	19578.58
420.72	20896.30
420.91	19782.21
421.10	19185.37
421.29	19428.79
421.48	19723.69
421.67	21514.20
421.86	18719.60
422.05	18246.82
422.24	17139.74
422.43	18129.79
422.61	16449.28
422.80	18686.84
422.99	19381.98
423.18	18068.94
423.37	21261.43
423.56	19854.76
423.75	20292.44
423.94	17305.92
424.13	18195.32
424.32	17083.57
424.50	18625.98
424.69	17813.82
424.88	21539.95
425.07	18099.36
425.26	19367.93
425.45	20016.26
425.64	17364.43
425.83	18242.14
426.01	21497.82
426.20	19641.78
426.39	18771.10
426.58	17706.15
426.77	18218.73
426.96	19800.93
427.15	18511.30
427.33	17558.70
427.52	19262.61
427.71	18857.70
427.90	19145.58
428.09	18258.52
428.28	17207.62
428.46	18122.77
428.65	19627.73
428.84	17853.61
429.03	22520.63
429.22	17605.51
429.40	16297.15
429.59	15372.64
429.78	20360.32
429.97	15412.43
430.16	15447.54
430.34	15875.85
430.53	15452.22
430.72	15819.68
430.91	19419.42
431.10	17165.49
431.28	20030.30
431.47	22771.07
431.66	21970.61
431.85	19637.09
432.03	19756.46
432.22	24748.82
432.41	19405.38
432.60	23789.20
432.79	19836.04
432.97	21785.71
433.16	20676.29
433.35	18906.85
433.54	18792.16
433.72	20524.16
433.91	20938.43
434.10	19164.31
434.28	21727.19
434.47	20851.83
434.66	23613.66
434.85	20788.64
435.03	21638.25
435.22	25055.43
435.41	25895.69
435.59	23545.79
435.78	23065.98
435.97	22115.72
436.16	24123.90
436.34	22581.49
436.53	23576.22
436.72	25135.01
436.90	23063.64
437.09	22967.68
437.28	21977.63
437.46	21551.65
437.65	23613.66
437.84	22569.79
438.02	21029.71
438.21	21563.36
438.40	20432.88
438.58	20526.50
438.77	22710.22
438.96	22658.73
439.14	22188.28
439.33	24982.88
439.52	23459.19
439.70	23367.91
439.89	24903.30
440.08	23545.79
440.26	23353.87
440.45	26934.88
440.63	24095.82
440.82	24439.87
441.01	25277.79
441.19	24070.07
441.38	24477.32
441.57	24814.36
441.75	28278.35
441.94	28130.90
442.12	25865.26
442.31	25261.40
442.50	25109.27
442.68	24699.67
442.87	26101.65
443.05	25135.01
443.24	26108.68
443.43	28779.23
443.61	29153.71
443.80	25991.65
443.98	24636.48
444.17	24978.20
444.35	28409.42
444.54	26085.27
444.73	26012.71
444.91	28730.08
445.10	23854.74
445.28	23468.55
445.47	24709.04
445.65	24322.85
445.84	23939.00
446.02	25401.83
446.21	25151.40
446.39	24786.27
446.58	25788.02
446.77	25333.96
446.95	25977.61
447.14	27431.08
447.32	30632.93
447.51	26426.99
447.69	26766.37
447.88	26176.55
448.06	29355.00
448.25	26817.86
448.43	25345.66
448.62	24673.93
448.80	27384.27
448.99	26850.63
449.17	25106.93
449.36	25331.62
449.54	28863.49
449.73	25099.90
449.91	27934.29
450.10	27367.88
450.28	33006.23
450.46	32023.21
450.65	29549.26
450.83	28404.74
451.02	27662.79
451.20	27091.70
451.39	27292.99
451.57	26789.77
451.76	26391.88
451.94	26707.85
452.13	26228.04
452.31	28500.70
452.49	25975.27
452.68	23227.48
452.86	25907.39
453.05	28613.05
453.23	26094.63
453.42	23473.23
453.60	26398.90
453.78	27700.24
453.97	25127.99
454.15	25071.82
454.34	25158.42
454.52	25127.99
454.70	28641.14
454.89	27442.78
455.07	25376.09
455.26	26864.67
455.44	28594.32
455.62	27030.85
455.81	27632.36
455.99	28318.14
456.17	28524.11
456.36	26855.31
456.54	27501.29
456.73	27550.45
456.91	27150.21
457.09	29244.99
457.28	30623.57
457.46	27632.36
457.64	29724.80
457.83	26429.33
458.01	25549.29
458.19	27178.30
458.38	25797.38
458.56	28727.74
458.74	25715.47
458.93	28332.18
459.11	27489.59
459.29	25998.67
459.48	28804.97
459.66	30450.37
459.84	29008.60
460.03	36594.28
460.21	28428.15
460.39	27744.71
460.57	30363.77
460.76	29069.45
460.94	28088.77
461.12	30972.31
461.31	30799.11
461.49	27711.94
461.67	27466.19
461.85	28350.91
462.04	28304.10
462.22	59508.12
462.40	28407.08
462.59	30663.36
462.77	27360.86
462.95	28802.63
463.13	26389.54
463.32	29996.31
463.50	27910.89
463.68	28842.42
463.86	28025.57
464.05	26930.20
464.23	28936.04
464.41	28374.31
464.59	25671.00
464.78	27201.71
464.96	25792.70
465.14	28236.22
465.32	27346.82
465.50	29312.87
465.69	29242.65
465.87	26522.95
466.05	28929.02
466.23	25144.38
466.41	26080.59
466.60	26810.84
466.78	26700.83
466.96	29062.43
467.14	27707.26
467.32	30033.75
467.51	28542.83
467.69	27510.66
467.87	30923.16
468.05	27637.05
468.23	31817.24
468.41	29172.44
468.60	26843.60
468.78	28369.63
468.96	30033.75
469.14	28746.46
469.32	25830.15
469.50	25525.88
469.69	28428.15
469.87	27637.05
470.05	26888.07
470.23	26073.57
470.41	25713.13
470.59	26267.83
470.77	27302.35
470.95	27302.35
471.14	30328.66
471.32	27379.59
471.50	32456.21
471.68	29219.25
471.86	28402.40
472.04	27587.89
472.22	28954.77
472.40	26181.23
472.58	27428.74
472.77	26445.71
472.95	28481.98
473.13	32872.82
473.31	30902.09
473.49	25944.84
473.67	26742.96
473.85	29984.60
474.03	31005.08
474.21	28931.36
474.39	32596.64
474.57	33198.16
474.75	30576.76
474.93	28037.28
475.12	26604.87
475.30	27536.40
475.48	28828.38
475.66	29635.86
475.84	28526.45
476.02	28379.00
476.20	30359.09
476.38	28975.83
476.56	33631.16
476.74	28907.96
476.92	29935.45
477.10	30216.32
477.28	32165.98
477.46	30925.50
477.64	30546.33
477.82	31255.51
478.00	31002.74
478.18	31129.12
478.36	31161.89
478.54	30302.92
478.72	30792.09
478.90	31105.72
479.08	33078.79
479.26	31880.44
479.44	31646.38
479.62	30199.93
479.80	32231.52
479.98	30614.21
480.16	32020.87
480.34	34380.13
480.52	31559.78
480.70	34267.78
480.88	32065.34
481.06	32063.00
481.24	32411.74
481.41	33228.59
481.59	35463.80
481.77	34726.53
481.95	33802.02
482.13	37291.76
482.31	33233.27
482.49	33357.32
482.67	35412.31
482.85	35732.96
483.03	35374.86
483.21	36067.66
483.39	34391.83
483.57	34216.29
483.74	36264.26
483.92	34005.64
484.10	31857.03
484.28	35632.32
484.46	39859.32
484.64	35058.88
484.82	35189.95
485.00	33764.57
485.18	34272.46
485.35	33717.76
485.53	29481.39
485.71	32816.65
485.89	27510.66
486.07	30338.02
486.25	36669.17
486.43	35105.70
486.61	34632.91
486.78	34897.39
486.96	31938.95
487.14	35117.40
487.32	35077.61
487.50	36266.60
487.68	37778.59
487.85	35253.15
488.03	39367.81
488.21	40584.89
488.39	37024.93
488.57	37139.62
488.75	35424.01
488.92	53399.32
489.10	39133.76
489.28	44002.07
489.46	38309.89
489.64	40275.94
489.81	40596.59
489.99	41209.81
490.17	39063.54
490.35	45830.03
490.53	38450.32
490.70	37469.64
490.88	40823.62
491.06	40257.21
491.24	41799.63
491.41	42794.36
491.59	39344.41
491.77	37148.98
491.95	37986.89
492.13	37848.80
492.30	41947.08
492.48	41289.39
492.66	41205.13
492.84	40926.61
493.01	41963.46
493.19	40940.65
493.37	44524.01
493.54	42274.76
493.72	42637.54
493.90	41965.81
494.08	42129.64
494.25	43964.62
494.43	42354.33
494.61	42043.04
494.79	42213.90
494.96	43377.15
495.14	43236.72
495.32	42485.40
495.49	41326.84
495.67	43873.34
495.85	43873.34
496.02	44039.52
496.20	46667.94
496.38	44210.38
496.55	45059.99
496.73	44694.87
496.91	42312.20
497.09	46731.14
497.26	43763.34
497.44	42941.81
497.62	43646.31
497.79	43035.43
497.97	42396.46
498.14	42415.19
498.32	42520.51
498.50	43374.81
498.67	44748.70
498.85	44622.31
499.03	44114.42
499.20	45275.32
499.38	45446.18
499.56	45062.33
499.73	48547.39
499.91	46611.77
500.08	44896.16
500.26	42192.84
500.44	42492.43
500.61	45041.27
500.79	42178.79
500.97	43789.08
501.14	45764.49
501.32	42742.86
501.49	45291.71
501.67	44039.52
501.84	44744.02
502.02	42852.87
502.20	47655.65
502.37	45495.33
502.55	44421.03
502.72	44353.15
502.90	46284.09
503.07	45254.26
503.25	45165.32
503.43	41373.65
503.60	40968.74
503.78	41628.77
503.95	42710.10
504.13	42953.51
504.30	46326.22
504.48	45890.88
504.65	45902.59
504.83	44580.18
505.01	44388.26
505.18	42237.31
505.36	46323.88
505.53	46461.97
505.71	44577.84
505.88	49279.98
506.06	45940.04
506.23	46838.80
506.41	44179.95
506.58	46431.55
506.76	44760.40
506.93	45411.07
507.11	46623.47
507.28	42981.60
507.46	43423.96
507.63	42787.33
507.81	42670.31
507.98	45422.78
508.16	44964.03
508.33	46167.07
508.50	46361.33
508.68	46223.24
508.85	47150.09
509.03	45642.79
509.20	45567.89
509.38	48116.73
509.55	46234.94
509.73	47398.19
509.90	48306.32
510.08	45645.13
510.25	47477.77
510.42	44657.42
510.60	45148.93
510.77	47496.49
510.95	48982.73
511.12	45808.96
511.30	48683.14
511.47	49453.18
511.64	49628.72
511.82	47285.84
511.99	46602.41
512.17	46216.22
512.34	44643.38
512.51	46515.81
512.69	44942.97
512.86	47573.73
513.04	45546.82
513.21	46665.60
513.38	44673.81
513.56	45773.86
513.73	44091.01
513.90	44671.46
514.08	42981.60
514.25	44378.90
514.43	46536.87
514.60	42677.33
514.77	44182.29
514.95	46270.05
515.12	44992.12
515.29	47646.29
515.47	47856.93
515.64	47672.03
515.81	47615.86
515.99	49020.18
516.16	45661.51
516.33	44289.96
516.51	39828.90
516.68	38843.53
516.85	39791.45
517.03	39826.56
517.20	44477.20
517.37	45443.84
517.54	47381.80
517.72	43775.04
517.89	42380.08
518.06	40217.43
518.24	45415.76
518.41	47143.07
518.58	45993.87
518.75	44275.91
518.93	45422.78
519.10	44449.11
519.27	44219.74
519.45	45666.19
519.62	47058.81
519.79	48378.87
519.96	46146.00
520.14	47138.39
520.31	47367.76
520.48	46005.57
520.65	46274.73
520.83	47309.25
521.00	46892.63
521.17	47524.58
521.34	45619.38
521.52	47079.88
521.69	47449.68
521.86	48444.41
522.03	48093.33
522.20	49825.32
522.38	44472.52
522.55	45930.67
522.72	43814.83
522.89	46096.85
523.07	49174.66
523.24	46944.12
523.41	47828.85
523.58	47707.14
523.75	48205.67
523.92	47599.47
524.10	48332.06
524.27	47927.15
524.44	45979.82
524.61	50054.70
524.78	47105.62
524.96	48193.97
525.13	48275.89
525.30	49429.77
525.47	50143.64
525.64	47122.01
525.81	47337.33
525.98	46511.13
526.16	43693.12
526.33	42745.20
526.50	39789.11
526.67	40772.13
526.84	42284.12
527.01	41727.07
527.18	46038.34
527.36	45701.30
527.53	46927.74
527.70	49029.54
527.87	47323.29
528.04	46808.37
528.21	45890.88
528.38	49485.95
528.55	50351.94
528.72	50241.94
528.89	52456.09
529.07	48907.83
529.24	47419.25
529.41	49764.47
529.58	47423.93
529.75	46260.69
529.92	48458.45
530.09	47484.79
530.26	49434.45
530.43	49488.29
530.60	48357.81
530.77	48301.64
530.94	49904.90
531.11	48512.28
531.28	47337.33
531.46	46349.63
531.63	48072.26
531.80	48390.58
531.97	48006.73
532.14	44289.96
532.31	45855.78
532.48	44516.99
532.65	45413.41
532.82	43604.18
532.99	46054.72
533.16	46504.10
533.33	46974.55
533.50	47672.03
533.67	44830.62
533.84	47084.56
534.01	44194.00
534.18	46223.24
534.35	46265.37
534.52	48311.00
534.69	51140.71
534.86	47304.57
535.03	47414.57
535.20	47327.97
535.37	50550.89
535.54	49645.10
535.71	47440.32
535.88	50188.11
536.05	47601.82
536.22	47339.68
536.38	45818.33
536.55	46983.91
536.72	47681.39
536.89	44435.07
537.06	44566.14
537.23	44641.04
537.40	44308.68
537.57	45186.38
537.74	47681.39
537.91	47571.39
538.08	46457.29
538.25	47999.71
538.42	46532.19
538.59	46003.23
538.75	44708.91
538.92	46993.28
539.09	47014.34
539.26	45867.48
539.43	47700.12
539.60	45296.39
539.77	46003.23
539.94	45488.31
540.11	46195.15
540.28	46990.94
540.44	46450.27
540.61	43484.81
540.78	43931.86
540.95	42478.38
541.12	48067.58
541.29	45020.20
541.46	47941.19
541.62	46689.01
541.79	44861.05
541.96	44128.46
542.13	45626.40
542.30	44720.62
542.47	48280.57
542.63	44514.65
542.80	46014.93
542.97	46637.51
543.14	45010.84
543.31	45771.52
543.48	46089.83
543.64	47196.90
543.81	47639.26
543.98	46155.36
544.15	45823.01
544.32	45237.87
544.48	45694.28
544.65	45741.09
544.82	45492.99
544.99	45958.76
545.16	48231.42
545.32	45029.57
545.49	46799.01
545.66	46878.59
545.83	45617.04
546.00	43800.79
546.16	44502.95
546.33	45158.30
546.50	45523.42
546.67	48612.93
546.83	46028.98
547.00	47131.37
547.17	44013.77
547.34	43253.10
547.50	44357.83
547.67	45205.11
547.84	44416.35
548.00	47023.70
548.17	45364.26
548.34	45713.00
548.51	49228.49
548.67	47842.89
548.84	45869.82
549.01	47124.35
549.18	46597.73
549.34	46436.23
549.51	46087.49
549.68	46202.18
549.84	45801.94
550.01	44039.52
550.18	52406.94
550.34	50195.13
550.51	45593.64
550.68	48208.01
550.84	43604.18
551.01	45511.72
551.18	45977.48
551.34	44863.39
551.51	45205.11
551.68	46031.32
551.84	47199.24
552.01	43545.67
552.18	45422.78
552.34	45347.88
552.51	45130.21
552.68	44596.57
552.84	44072.29
553.01	45764.49
553.18	47466.06
553.34	44858.71
553.51	43840.57
553.67	47140.73
553.84	50035.97
554.01	46972.21
554.17	46876.25
554.34	44201.02
554.51	46546.23
554.67	47686.07
554.84	47154.77
555.00	46167.07
555.17	45612.36
555.33	46653.90
555.50	44556.78
555.67	45595.98
555.83	43421.62
556.00	45024.89
556.16	55402.82
556.33	43723.55
556.50	44238.47
556.66	44615.29
556.83	43337.36
556.99	43196.93
557.16	44884.45
557.32	43438.00
557.49	44582.52
557.65	44250.17
557.82	43618.22
557.98	44428.05
558.15	42279.44
558.32	42841.17
558.48	41734.09
558.65	41572.60
558.81	43285.87
558.98	41911.97
559.14	43428.64
559.31	43208.63
559.47	44879.77
559.64	41926.02
559.80	43978.67
559.97	40832.99
560.13	42396.46
560.30	41940.06
560.46	43730.57
560.63	44065.27
560.79	44222.08
560.96	44020.80
561.12	41911.97
561.29	41827.71
561.45	40751.07
561.61	41525.78
561.78	49680.21
561.94	43035.43
562.11	42220.92
562.27	42986.28
562.44	41881.55
562.60	43129.05
562.77	43203.95
562.93	48044.18
563.10	43700.14
563.26	42543.92
563.42	44779.13
563.59	42440.93
563.75	40837.67
563.92	45284.68
564.08	43072.88
564.24	44212.72
564.41	46422.19
564.57	41132.57
564.74	41556.21
564.90	41745.80
565.07	42988.62
565.23	42993.30
565.39	40456.16
565.56	41855.80
565.72	39880.39
565.88	40388.28
566.05	40399.99
566.21	40325.09
566.38	42707.76
566.54	40940.65
566.70	41617.07
566.87	41581.96
567.03	40102.74
567.19	42148.37
567.36	42029.00
567.52	40790.86
567.68	41249.60
567.85	41287.05
568.01	39477.82
568.17	37916.68
568.34	38967.58
568.50	42139.00
568.66	37827.74
568.83	45530.44
568.99	38422.23
569.15	43054.15
569.32	39384.19
569.48	39601.86
569.64	38347.34
569.81	38562.67
569.97	37933.06
570.13	40250.19
570.30	38543.94
570.46	38267.76
570.62	38043.07
570.78	37579.64
570.95	35615.93
571.11	41170.02
571.27	42059.43
571.43	36456.18
571.60	40451.48
571.76	37556.24
571.92	39321.00
572.09	39878.05
572.25	39548.03
572.41	39409.94
572.57	38787.36
572.74	43842.92
572.90	40837.67
573.06	41085.76
573.22	39999.76
573.38	41193.43
573.55	40739.36
573.71	41909.63
573.87	41247.26
574.03	37741.14
574.20	38539.26
574.36	41120.87
574.52	38017.32
574.68	37509.43
574.84	39875.71
575.01	38022.00
575.17	38569.69
575.33	37521.13
575.49	40203.38
575.65	40322.75
575.82	39945.92
575.98	42770.95
576.14	37411.12
576.30	37813.70
576.46	38590.75
576.62	38658.63
576.79	38382.45
576.95	40753.41
577.11	36470.23
577.27	37446.23
577.43	41071.72
577.59	40259.55
577.75	38394.15
577.92	36357.88
578.08	35620.61
578.24	35651.04
578.40	39601.86
578.56	39456.75
578.72	39793.79
578.88	38815.44
579.04	36348.52
579.21	38897.36
579.37	37053.02
579.53	38096.90
579.69	39545.69
579.85	36378.95
580.01	38253.72
580.17	36259.58
580.33	36161.28
580.49	37642.84
580.65	38632.88
580.82	38483.09
580.98	36367.24
581.14	36875.14
581.30	40603.61
581.46	37862.85
581.62	40542.76
581.78	36622.36
581.94	39796.13
582.10	36481.93
582.26	38129.67
582.42	37067.06
582.58	39292.91
582.74	37081.11
582.90	39189.93
583.06	39086.95
583.22	36311.07
583.38	37027.28
583.54	37205.16
583.70	40781.49
583.86	38431.60
584.02	38057.11
584.18	42085.17
584.34	37521.13
584.50	38403.51
584.66	39213.34
584.82	40266.58
