SpectraSuite Data File
++++++++++++++++++++++++++++++++++++
Date: Fri Oct 04 11:33:48 GMT-05:00 2013
User: price-jones
Dark Spectrum Present: No
Reference Spectrum Present: No
Number of Sampled Component Spectra: 1
Spectrometers: USB2+H05261
Integration Time (usec): 100000 (USB2+H05261)
Spectra Averaged: 1 (USB2+H05261)
Boxcar Smoothing: 0 (USB2+H05261)
Correct for Electrical Dark: No (USB2+H05261)
Strobe/Lamp Enabled: No (USB2+H05261)
Correct for Detector Non-linearity: No (USB2+H05261)
Correct for Stray Light: No (USB2+H05261)
Number of Pixels in Processed Spectrum: 2048
>>>>>Begin Processed Spectral Data<<<<<
365.73	42.13
365.92	42.13
366.12	42.13
366.32	58.51
366.52	0.00
366.72	37.45
366.91	0.00
367.11	0.00
367.31	0.00
367.51	4.68
367.70	0.00
367.90	0.00
368.10	0.00
368.30	44.47
368.49	0.00
368.69	0.00
368.89	35.11
369.09	0.00
369.28	0.00
369.48	0.00
369.68	2.34
369.87	84.26
370.07	0.00
370.27	0.00
370.47	0.00
370.66	65.54
370.86	107.66
371.06	140.43
371.25	133.41
371.45	42.13
371.65	175.54
371.84	88.94
372.04	49.15
372.24	70.22
372.44	65.54
372.63	128.73
372.83	203.63
373.03	140.43
373.22	81.92
373.42	72.56
373.62	161.50
373.81	145.11
374.01	145.11
374.21	117.03
374.40	180.22
374.60	170.86
374.79	205.97
374.99	58.51
375.19	152.13
375.38	173.20
375.58	135.75
375.78	112.35
375.97	191.92
376.17	175.54
376.37	208.31
376.56	208.31
376.76	135.75
376.95	147.45
377.15	191.92
377.35	173.20
377.54	128.73
377.74	128.73
377.93	102.98
378.13	105.32
378.33	184.90
378.52	63.19
378.72	133.41
378.91	154.48
379.11	74.90
379.31	135.75
379.50	117.03
379.70	128.73
379.89	168.52
380.09	138.09
380.28	126.39
380.48	30.43
380.68	140.43
380.87	198.95
381.07	208.31
381.26	147.45
381.46	107.66
381.65	131.07
381.85	147.45
382.04	107.66
382.24	102.98
382.43	196.60
382.63	91.28
382.83	205.97
383.02	119.37
383.22	138.09
383.41	159.16
383.61	159.16
383.80	168.52
384.00	126.39
384.19	110.01
384.39	138.09
384.58	119.37
384.78	198.95
384.97	149.79
385.17	154.48
385.36	182.56
385.56	140.43
385.75	145.11
385.95	156.82
386.14	152.13
386.34	131.07
386.53	112.35
386.72	142.77
386.92	140.43
387.11	114.69
387.31	184.90
387.50	114.69
387.70	147.45
387.89	124.05
388.09	67.88
388.28	107.66
388.48	191.92
388.67	180.22
388.86	140.43
389.06	196.60
389.25	198.95
389.45	145.11
389.64	163.84
389.84	196.60
390.03	196.60
390.22	124.05
390.42	114.69
390.61	161.50
390.81	135.75
391.00	128.73
391.19	152.13
391.39	140.43
391.58	149.79
391.78	168.52
391.97	184.90
392.16	88.94
392.36	166.18
392.55	161.50
392.75	156.82
392.94	175.54
393.13	126.39
393.33	147.45
393.52	163.84
393.71	173.20
393.91	156.82
394.10	149.79
394.29	182.56
394.49	147.45
394.68	166.18
394.88	173.20
395.07	182.56
395.26	163.84
395.46	107.66
395.65	135.75
395.84	266.82
396.04	133.41
396.23	107.66
396.42	142.77
396.62	152.13
396.81	170.86
397.00	105.32
397.19	117.03
397.39	81.92
397.58	140.43
397.77	147.45
397.97	107.66
398.16	161.50
398.35	121.71
398.55	154.48
398.74	147.45
398.93	145.11
399.12	105.32
399.32	152.13
399.51	124.05
399.70	114.69
399.90	126.39
400.09	210.65
400.28	175.54
400.47	142.77
400.67	147.45
400.86	152.13
401.05	248.10
401.24	173.20
401.44	212.99
401.63	210.65
401.82	110.01
402.01	198.95
402.21	152.13
402.40	208.31
402.59	180.22
402.78	117.03
402.97	138.09
403.17	117.03
403.36	112.35
403.55	154.48
403.74	170.86
403.93	182.56
404.13	238.73
404.32	294.91
404.51	166.18
404.70	170.86
404.89	135.75
405.09	252.78
405.28	119.37
405.47	182.56
405.66	177.88
405.85	140.43
406.05	201.29
406.24	187.24
406.43	145.11
406.62	215.33
406.81	241.08
407.00	182.56
407.20	138.09
407.39	131.07
407.58	86.60
407.77	156.82
407.96	161.50
408.15	194.26
408.34	131.07
408.54	187.24
408.73	145.11
408.92	198.95
409.11	100.64
409.30	177.88
409.49	124.05
409.68	191.92
409.87	110.01
410.07	107.66
410.26	173.20
410.45	177.88
410.64	182.56
410.83	149.79
411.02	117.03
411.21	182.56
411.40	215.33
411.59	142.77
411.78	135.75
411.98	149.79
412.17	159.16
412.36	124.05
412.55	156.82
412.74	184.90
412.93	224.69
413.12	175.54
413.31	154.48
413.50	142.77
413.69	203.63
413.88	154.48
414.07	121.71
414.26	182.56
414.45	156.82
414.64	187.24
414.83	210.65
415.02	128.73
415.22	201.29
415.41	203.63
415.60	159.16
415.79	140.43
415.98	126.39
416.17	168.52
416.36	196.60
416.55	161.50
416.74	250.44
416.93	215.33
417.12	184.90
417.31	194.26
417.50	180.22
417.69	271.50
417.88	198.95
418.07	187.24
418.26	175.54
418.45	224.69
418.64	236.39
418.83	227.03
419.02	215.33
419.21	229.37
419.39	149.79
419.58	126.39
419.77	187.24
419.96	243.42
420.15	191.92
420.34	154.48
420.53	70.22
420.72	175.54
420.91	114.69
421.10	170.86
421.29	231.71
421.48	168.52
421.67	156.82
421.86	163.84
422.05	147.45
422.24	161.50
422.43	159.16
422.61	175.54
422.80	161.50
422.99	182.56
423.18	205.97
423.37	170.86
423.56	149.79
423.75	243.42
423.94	145.11
424.13	215.33
424.32	121.71
424.50	149.79
424.69	163.84
424.88	241.08
425.07	93.62
425.26	161.50
425.45	198.95
425.64	241.08
425.83	220.01
426.01	257.46
426.20	166.18
426.39	93.62
426.58	140.43
426.77	135.75
426.96	180.22
427.15	126.39
427.33	154.48
427.52	156.82
427.71	168.52
427.90	180.22
428.09	168.52
428.28	184.90
428.46	227.03
428.65	175.54
428.84	126.39
429.03	238.73
429.22	166.18
429.40	170.86
429.59	114.69
429.78	147.45
429.97	112.35
430.16	126.39
430.34	166.18
430.53	145.11
430.72	271.50
430.91	238.73
431.10	196.60
431.28	140.43
431.47	250.44
431.66	238.73
431.85	175.54
432.03	182.56
432.22	229.37
432.41	119.37
432.60	203.63
432.79	222.35
432.97	234.05
433.16	278.52
433.35	229.37
433.54	250.44
433.72	173.20
433.91	175.54
434.10	220.01
434.28	191.92
434.47	264.48
434.66	264.48
434.85	241.08
435.03	231.71
435.22	372.15
435.41	348.74
435.59	374.49
435.78	252.78
435.97	102.98
436.16	203.63
436.34	210.65
436.53	184.90
436.72	173.20
436.90	161.50
437.09	236.39
437.28	229.37
437.46	191.92
437.65	175.54
437.84	189.58
438.02	189.58
438.21	189.58
438.40	198.95
438.58	208.31
438.77	222.35
438.96	177.88
439.14	196.60
439.33	236.39
439.52	184.90
439.70	149.79
439.89	117.03
440.08	198.95
440.26	180.22
440.45	166.18
440.63	210.65
440.82	191.92
441.01	201.29
441.19	173.20
441.38	177.88
441.57	170.86
441.75	236.39
441.94	159.16
442.12	187.24
442.31	154.48
442.50	187.24
442.68	231.71
442.87	163.84
443.05	227.03
443.24	187.24
443.43	212.99
443.61	231.71
443.80	205.97
443.98	170.86
444.17	177.88
444.35	191.92
444.54	156.82
444.73	248.10
444.91	273.84
445.10	124.05
445.28	166.18
445.47	152.13
445.65	236.39
445.84	196.60
446.02	161.50
446.21	156.82
446.39	252.78
446.58	203.63
446.77	210.65
446.95	145.11
447.14	198.95
447.32	215.33
447.51	149.79
447.69	217.67
447.88	159.16
448.06	257.46
448.25	203.63
448.43	283.20
448.62	184.90
448.80	194.26
448.99	161.50
449.17	215.33
449.36	217.67
449.54	212.99
449.73	180.22
449.91	212.99
450.10	147.45
450.28	224.69
450.46	276.18
450.65	203.63
450.83	205.97
451.02	156.82
451.20	215.33
451.39	173.20
451.57	163.84
451.76	159.16
451.94	189.58
452.13	210.65
452.31	220.01
452.49	154.48
452.68	196.60
452.86	170.86
453.05	173.20
453.23	201.29
453.42	107.66
453.60	163.84
453.78	245.76
453.97	236.39
454.15	194.26
454.34	191.92
454.52	187.24
454.70	250.44
454.89	196.60
455.07	180.22
455.26	238.73
455.44	236.39
455.62	156.82
455.81	182.56
455.99	182.56
456.17	252.78
456.36	142.77
456.54	135.75
456.73	191.92
456.91	168.52
457.09	154.48
457.28	259.80
457.46	210.65
457.64	184.90
457.83	159.16
458.01	189.58
458.19	166.18
458.38	222.35
458.56	269.16
458.74	149.79
458.93	278.52
459.11	177.88
459.29	156.82
459.48	173.20
459.66	210.65
459.84	290.23
460.03	280.86
460.21	262.14
460.39	180.22
460.57	241.08
460.76	194.26
460.94	98.30
461.12	191.92
461.31	262.14
461.49	217.67
461.67	170.86
461.85	168.52
462.04	170.86
462.22	669.39
462.40	208.31
462.59	222.35
462.77	252.78
462.95	250.44
463.13	201.29
463.32	220.01
463.50	201.29
463.68	224.69
463.86	170.86
464.05	234.05
464.23	229.37
464.41	189.58
464.59	210.65
464.78	227.03
464.96	149.79
465.14	194.26
465.32	238.73
465.50	191.92
465.69	236.39
465.87	161.50
466.05	278.52
466.23	173.20
466.41	224.69
466.60	175.54
466.78	159.16
466.96	208.31
467.14	266.82
467.32	259.80
467.51	191.92
467.69	173.20
467.87	243.42
468.05	203.63
468.23	255.12
468.41	227.03
468.60	159.16
468.78	138.09
468.96	252.78
469.14	177.88
469.32	182.56
469.50	154.48
469.69	173.20
469.87	159.16
470.05	100.64
470.23	196.60
470.41	126.39
470.59	184.90
470.77	236.39
470.95	161.50
471.14	210.65
471.32	168.52
471.50	203.63
471.68	215.33
471.86	161.50
472.04	138.09
472.22	212.99
472.40	196.60
472.58	175.54
472.77	191.92
472.95	198.95
473.13	194.26
473.31	212.99
473.49	205.97
473.67	177.88
473.85	264.48
474.03	224.69
474.21	229.37
474.39	184.90
474.57	217.67
474.75	187.24
474.93	212.99
475.12	175.54
475.30	222.35
475.48	177.88
475.66	196.60
475.84	229.37
476.02	147.45
476.20	220.01
476.38	198.95
476.56	290.23
476.74	208.31
476.92	189.58
477.10	198.95
477.28	229.37
477.46	224.69
477.64	203.63
477.82	175.54
478.00	182.56
478.18	168.52
478.36	196.60
478.54	266.82
478.72	224.69
478.90	220.01
479.08	173.20
479.26	229.37
479.44	205.97
479.62	187.24
479.80	133.41
479.98	198.95
480.16	210.65
480.34	264.48
480.52	198.95
480.70	198.95
480.88	220.01
481.06	194.26
481.24	180.22
481.41	243.42
481.59	191.92
481.77	187.24
481.95	250.44
482.13	304.27
482.31	210.65
482.49	196.60
482.67	140.43
482.85	220.01
483.03	210.65
483.21	175.54
483.39	173.20
483.57	189.58
483.74	287.89
483.92	255.12
484.10	222.35
484.28	238.73
484.46	224.69
484.64	271.50
484.82	262.14
485.00	196.60
485.18	227.03
485.35	231.71
485.53	198.95
485.71	245.76
485.89	201.29
486.07	250.44
486.25	327.68
486.43	227.03
486.61	250.44
486.78	212.99
486.96	257.46
487.14	198.95
487.32	215.33
487.50	259.80
487.68	238.73
487.85	248.10
488.03	297.25
488.21	220.01
488.39	191.92
488.57	283.20
488.75	259.80
488.92	507.90
489.10	243.42
489.28	301.93
489.46	241.08
489.64	234.05
489.81	196.60
489.99	262.14
490.17	248.10
490.35	243.42
490.53	266.82
490.70	196.60
490.88	292.57
491.06	236.39
491.24	234.05
491.41	294.91
491.59	222.35
491.77	255.12
491.95	189.58
492.13	248.10
492.30	245.76
492.48	215.33
492.66	217.67
492.84	250.44
493.01	245.76
493.19	210.65
493.37	313.63
493.54	210.65
493.72	184.90
493.90	285.55
494.08	257.46
494.25	166.18
494.43	229.37
494.61	229.37
494.79	301.93
494.96	238.73
495.14	241.08
495.32	222.35
495.49	208.31
495.67	255.12
495.85	250.44
496.02	299.59
496.20	273.84
496.38	231.71
496.55	273.84
496.73	238.73
496.91	220.01
497.09	257.46
497.26	278.52
497.44	283.20
497.62	217.67
497.79	229.37
497.97	201.29
498.14	262.14
498.32	252.78
498.50	210.65
498.67	201.29
498.85	189.58
499.03	257.46
499.20	196.60
499.38	231.71
499.56	280.86
499.73	320.65
499.91	341.72
500.08	332.36
500.26	280.86
500.44	227.03
500.61	252.78
500.79	287.89
500.97	191.92
501.14	271.50
501.32	229.37
501.49	259.80
501.67	255.12
501.84	212.99
502.02	222.35
502.20	241.08
502.37	238.73
502.55	332.36
502.72	215.33
502.90	273.84
503.07	276.18
503.25	215.33
503.43	234.05
503.60	243.42
503.78	297.25
503.95	212.99
504.13	224.69
504.30	236.39
504.48	273.84
504.65	262.14
504.83	203.63
505.01	252.78
505.18	229.37
505.36	236.39
505.53	262.14
505.71	250.44
505.88	273.84
506.06	236.39
506.23	266.82
506.41	212.99
506.58	285.55
506.76	264.48
506.93	264.48
507.11	212.99
507.28	194.26
507.46	229.37
507.63	283.20
507.81	245.76
507.98	259.80
508.16	252.78
508.33	222.35
508.50	224.69
508.68	266.82
508.85	212.99
509.03	264.48
509.20	252.78
509.38	304.27
509.55	238.73
509.73	250.44
509.90	334.70
510.08	285.55
510.25	299.59
510.42	294.91
510.60	231.71
510.77	238.73
510.95	285.55
511.12	198.95
511.30	313.63
511.47	325.33
511.64	318.31
511.82	283.20
511.99	273.84
512.17	210.65
512.34	191.92
512.51	217.67
512.69	238.73
512.86	259.80
513.04	222.35
513.21	252.78
513.38	278.52
513.56	184.90
513.73	205.97
513.90	234.05
514.08	245.76
514.25	294.91
514.43	205.97
514.60	208.31
514.77	259.80
514.95	290.23
515.12	259.80
515.29	266.82
515.47	205.97
515.64	264.48
515.81	315.97
515.99	327.68
516.16	212.99
516.33	276.18
516.51	283.20
516.68	170.86
516.85	304.27
517.03	306.61
517.20	297.25
517.37	266.82
517.54	238.73
517.72	250.44
517.89	257.46
518.06	266.82
518.24	236.39
518.41	301.93
518.58	308.95
518.75	292.57
518.93	271.50
519.10	306.61
519.27	231.71
519.45	290.23
519.62	245.76
519.79	252.78
519.96	306.61
520.14	205.97
520.31	292.57
520.48	255.12
520.65	262.14
520.83	231.71
521.00	262.14
521.17	222.35
521.34	236.39
521.52	271.50
521.69	243.42
521.86	266.82
522.03	222.35
522.20	322.99
522.38	292.57
522.55	198.95
522.72	283.20
522.89	287.89
523.07	311.29
523.24	229.37
523.41	252.78
523.58	203.63
523.75	234.05
523.92	259.80
524.10	332.36
524.27	220.01
524.44	201.29
524.61	341.72
524.78	273.84
524.96	287.89
525.13	262.14
525.30	264.48
525.47	346.40
525.64	280.86
525.81	278.52
525.98	189.58
526.16	271.50
526.33	238.73
526.50	255.12
526.67	201.29
526.84	212.99
527.01	278.52
527.18	299.59
527.36	234.05
527.53	245.76
527.70	308.95
527.87	252.78
528.04	255.12
528.21	271.50
528.38	285.55
528.55	238.73
528.72	285.55
528.89	362.78
529.07	262.14
529.24	330.02
529.41	252.78
529.58	304.27
529.75	215.33
529.92	311.29
530.09	299.59
530.26	308.95
530.43	330.02
530.60	276.18
530.77	248.10
530.94	262.14
531.11	220.01
531.28	252.78
531.46	255.12
531.63	234.05
531.80	301.93
531.97	276.18
532.14	290.23
532.31	257.46
532.48	365.12
532.65	360.44
532.82	402.57
532.99	346.40
533.16	332.36
533.33	278.52
533.50	224.69
533.67	318.31
533.84	404.91
534.01	332.36
534.18	365.12
534.35	290.23
534.52	259.80
534.69	325.33
534.86	245.76
535.03	320.65
535.20	299.59
535.37	283.20
535.54	257.46
535.71	259.80
535.88	334.70
536.05	222.35
536.22	257.46
536.38	234.05
536.55	276.18
536.72	297.25
536.89	227.03
537.06	306.61
537.23	332.36
537.40	259.80
537.57	332.36
537.74	313.63
537.91	322.99
538.08	313.63
538.25	245.76
538.42	320.65
538.59	353.42
538.75	315.97
538.92	280.86
539.09	322.99
539.26	351.08
539.43	461.09
539.60	901.11
539.77	1327.08
539.94	1376.24
540.11	842.59
540.28	638.97
540.44	561.73
540.61	393.21
540.78	369.80
540.95	397.89
541.12	543.00
541.29	409.59
541.46	456.40
541.62	512.58
541.79	470.45
541.96	477.47
542.13	505.56
542.30	444.70
542.47	479.81
542.63	500.87
542.80	381.51
542.97	454.06
543.14	430.66
543.31	458.74
543.48	479.81
543.64	447.04
543.81	409.59
543.98	367.46
544.15	535.98
544.32	369.80
544.48	433.00
544.65	421.30
544.82	404.91
544.99	454.06
545.16	451.72
545.32	425.98
545.49	603.86
545.66	877.70
545.83	800.46
546.00	704.50
546.16	608.54
546.33	491.51
546.50	444.70
546.67	468.11
546.83	404.91
547.00	348.74
547.17	383.85
547.34	365.12
547.50	416.62
547.67	325.33
547.84	388.53
548.00	372.15
548.17	337.04
548.34	306.61
548.51	437.68
548.67	322.99
548.84	252.78
549.01	334.70
549.18	365.12
549.34	397.89
549.51	337.04
549.68	297.25
549.84	362.78
550.01	269.16
550.18	322.99
550.34	400.23
550.51	322.99
550.68	376.83
550.84	334.70
551.01	351.08
551.18	362.78
551.34	318.31
551.51	292.57
551.68	297.25
551.84	386.19
552.01	301.93
552.18	259.80
552.34	292.57
552.51	311.29
552.68	297.25
552.84	252.78
553.01	292.57
553.18	257.46
553.34	255.12
553.51	252.78
553.67	362.78
553.84	318.31
554.01	271.50
554.17	294.91
554.34	283.20
554.51	315.97
554.67	372.15
554.84	208.31
555.00	346.40
555.17	255.12
555.33	294.91
555.50	241.08
555.67	297.25
555.83	271.50
556.00	290.23
556.16	421.30
556.33	330.02
556.50	346.40
556.66	304.27
556.83	283.20
556.99	273.84
557.16	201.29
557.32	311.29
557.49	208.31
557.65	257.46
557.82	285.55
557.98	245.76
558.15	285.55
558.32	255.12
558.48	243.42
558.65	278.52
558.81	250.44
558.98	238.73
559.14	292.57
559.31	222.35
559.47	290.23
559.64	222.35
559.80	290.23
559.97	290.23
560.13	322.99
560.30	205.97
560.46	250.44
560.63	269.16
560.79	320.65
560.96	231.71
561.12	212.99
561.29	318.31
561.45	201.29
561.61	269.16
561.78	299.59
561.94	217.67
562.11	238.73
562.27	271.50
562.44	243.42
562.60	262.14
562.77	229.37
562.93	341.72
563.10	203.63
563.26	287.89
563.42	306.61
563.59	238.73
563.75	278.52
563.92	306.61
564.08	292.57
564.24	318.31
564.41	271.50
564.57	194.26
564.74	203.63
564.90	255.12
565.07	313.63
565.23	294.91
565.39	262.14
565.56	299.59
565.72	236.39
565.88	280.86
566.05	280.86
566.21	241.08
566.38	262.14
566.54	245.76
566.70	236.39
566.87	210.65
567.03	250.44
567.19	248.10
567.36	229.37
567.52	231.71
567.68	187.24
567.85	280.86
568.01	259.80
568.17	255.12
568.34	220.01
568.50	269.16
568.66	287.89
568.83	301.93
568.99	238.73
569.15	234.05
569.32	299.59
569.48	259.80
569.64	301.93
569.81	222.35
569.97	266.82
570.13	271.50
570.30	252.78
570.46	217.67
570.62	252.78
570.78	154.48
570.95	208.31
571.11	381.51
571.27	290.23
571.43	217.67
571.60	332.36
571.76	294.91
571.92	245.76
572.09	243.42
572.25	341.72
572.41	229.37
572.57	318.31
572.74	287.89
572.90	301.93
573.06	325.33
573.22	313.63
573.38	257.46
573.55	299.59
573.71	325.33
573.87	250.44
574.03	271.50
574.20	243.42
574.36	231.71
574.52	262.14
574.68	383.85
574.84	339.38
575.01	266.82
575.17	285.55
575.33	255.12
575.49	238.73
575.65	259.80
575.82	301.93
575.98	514.92
576.14	531.30
576.30	660.03
576.46	571.09
576.62	456.40
576.79	465.77
576.95	437.68
577.11	308.95
577.27	255.12
577.43	318.31
577.59	308.95
577.75	292.57
577.92	283.20
578.08	276.18
578.24	180.22
578.40	304.27
578.56	376.83
578.72	447.04
578.88	440.02
579.04	362.78
579.21	358.10
579.37	322.99
579.53	334.70
579.69	313.63
579.85	409.59
580.01	313.63
580.17	369.80
580.33	355.76
580.49	372.15
580.65	362.78
580.82	425.98
580.98	404.91
581.14	418.96
581.30	414.27
581.46	456.40
581.62	468.11
581.78	596.84
581.94	568.75
582.10	454.06
582.26	404.91
582.42	360.44
582.58	449.38
582.74	390.87
582.90	526.62
583.06	484.49
583.22	465.77
583.38	484.49
583.54	470.45
583.70	547.69
583.86	685.78
584.02	755.99
584.18	805.14
584.34	1060.26
584.50	2207.13
584.66	14853.04
584.82	42384.76
584.98	58520.41
585.14	55852.20
585.30	37956.47
585.46	22001.04
585.62	13575.11
585.78	6466.90
585.94	2642.46
586.10	1301.34
586.26	875.36
586.42	739.61
586.58	627.26
586.74	645.99
586.90	653.01
587.06	564.07
587.22	540.66
587.38	545.34
587.54	922.17
587.70	2452.88
587.86	4278.50
588.02	5090.67
588.18	3604.42
588.34	2190.74
588.49	1549.43
588.65	978.34
588.81	486.83
588.97	374.49
589.13	372.15
589.29	351.08
589.45	313.63
589.61	322.99
589.77	433.00
589.93	440.02
590.08	461.09
590.24	463.43
590.40	409.59
590.56	470.45
590.72	411.93
590.88	346.40
591.04	330.02
591.20	339.38
591.35	386.19
591.51	348.74
591.67	360.44
591.83	390.87
591.99	358.10
592.15	353.42
592.31	407.25
592.46	409.59
592.62	376.83
592.78	341.72
592.94	325.33
593.10	306.61
593.26	320.65
593.41	360.44
593.57	425.98
593.73	472.79
593.89	1926.26
594.05	5102.37
594.20	7981.23
594.36	7978.89
594.52	5322.38
594.68	3421.86
594.84	2143.93
594.99	1394.96
595.15	683.44
595.31	437.68
595.47	379.17
595.62	362.78
595.78	351.08
595.94	318.31
596.10	325.33
596.25	369.80
596.41	416.62
596.57	337.04
596.73	278.52
596.88	557.05
597.04	1006.43
597.20	1771.79
597.36	2197.76
597.51	1629.01
597.67	1158.57
597.83	760.67
597.99	615.56
598.14	440.02
598.30	430.66
598.46	353.42
598.61	346.40
598.77	353.42
598.93	262.14
599.09	271.50
599.24	358.10
599.40	332.36
599.56	306.61
599.71	294.91
599.87	346.40
600.03	337.04
600.18	301.93
600.34	290.23
600.50	301.93
600.65	243.42
600.81	304.27
600.97	294.91
601.12	280.86
601.28	383.85
601.44	327.68
601.59	290.23
601.75	365.12
601.91	280.86
602.06	313.63
602.22	344.06
602.37	620.24
602.53	1320.06
602.69	1970.73
602.84	2195.42
603.00	1661.78
603.16	1139.84
603.31	952.60
603.47	655.35
603.62	402.57
603.78	313.63
603.94	273.84
604.09	369.80
604.25	325.33
604.40	318.31
604.56	330.02
604.71	280.86
604.87	278.52
605.03	273.84
605.18	276.18
605.34	315.97
605.49	325.33
605.65	379.17
605.80	301.93
605.96	290.23
606.12	355.76
606.27	252.78
606.43	334.70
606.58	346.40
606.74	664.71
606.89	2415.43
607.05	5022.79
607.20	6974.80
607.36	5954.32
607.51	3997.64
607.67	2623.74
607.82	1804.55
607.98	1188.99
608.13	601.52
608.29	489.17
608.44	414.27
608.60	374.49
608.75	514.92
608.91	875.36
609.06	3660.60
609.22	8739.56
609.37	11824.39
609.53	10284.31
609.68	7248.64
609.84	4711.50
609.99	3262.71
610.15	1877.11
