SpectraSuite Data File
++++++++++++++++++++++++++++++++++++
Date: Fri Oct 04 11:33:48 GMT-05:00 2013
User: price-jones
Dark Spectrum Present: No
Reference Spectrum Present: No
Number of Sampled Component Spectra: 1
Spectrometers: USB2+H05261
Integration Time (usec): 100000 (USB2+H05261)
Spectra Averaged: 1 (USB2+H05261)
Boxcar Smoothing: 0 (USB2+H05261)
Correct for Electrical Dark: No (USB2+H05261)
Strobe/Lamp Enabled: No (USB2+H05261)
Correct for Detector Non-linearity: No (USB2+H05261)
Correct for Stray Light: No (USB2+H05261)
Number of Pixels in Processed Spectrum: 2048
>>>>>Begin Processed Spectral Data<<<<<
365.73	88.94
365.92	88.94
366.12	88.94
366.32	23.41
366.52	30.43
366.72	7.02
366.91	4.68
367.11	0.00
367.31	0.00
367.51	0.00
367.70	0.00
367.90	0.00
368.10	4.68
368.30	0.00
368.49	0.00
368.69	11.70
368.89	0.00
369.09	0.00
369.28	0.00
369.48	0.00
369.68	0.00
369.87	23.41
370.07	0.00
370.27	72.56
370.47	65.54
370.66	67.88
370.86	95.96
371.06	81.92
371.25	175.54
371.45	147.45
371.65	79.58
371.84	159.16
372.04	74.90
372.24	135.75
372.44	95.96
372.63	145.11
372.83	152.13
373.03	138.09
373.22	135.75
373.42	177.88
373.62	124.05
373.81	98.30
374.01	131.07
374.21	131.07
374.40	145.11
374.60	117.03
374.79	79.58
374.99	168.52
375.19	208.31
375.38	98.30
375.58	126.39
375.78	102.98
375.97	102.98
376.17	297.25
376.37	105.32
376.56	173.20
376.76	187.24
376.95	138.09
377.15	100.64
377.35	163.84
377.54	149.79
377.74	201.29
377.93	161.50
378.13	114.69
378.33	163.84
378.52	175.54
378.72	156.82
378.91	145.11
379.11	184.90
379.31	119.37
379.50	77.24
379.70	182.56
379.89	156.82
380.09	126.39
380.28	154.48
380.48	187.24
380.68	107.66
380.87	58.51
381.07	145.11
381.26	112.35
381.46	161.50
381.65	177.88
381.85	117.03
382.04	133.41
382.24	88.94
382.43	56.17
382.63	117.03
382.83	117.03
383.02	191.92
383.22	93.62
383.41	84.26
383.61	159.16
383.80	142.77
384.00	201.29
384.19	114.69
384.39	177.88
384.58	173.20
384.78	212.99
384.97	168.52
385.17	128.73
385.36	67.88
385.56	140.43
385.75	121.71
385.95	95.96
386.14	124.05
386.34	124.05
386.53	156.82
386.72	170.86
386.92	173.20
387.11	128.73
387.31	161.50
387.50	142.77
387.70	177.88
387.89	145.11
388.09	180.22
388.28	152.13
388.48	152.13
388.67	180.22
388.86	217.67
389.06	210.65
389.25	110.01
389.45	131.07
389.64	95.96
389.84	74.90
390.03	191.92
390.22	175.54
390.42	100.64
390.61	124.05
390.81	133.41
391.00	173.20
391.19	220.01
391.39	110.01
391.58	107.66
391.78	194.26
391.97	124.05
392.16	84.26
392.36	140.43
392.55	161.50
392.75	121.71
392.94	156.82
393.13	142.77
393.33	217.67
393.52	86.60
393.71	117.03
393.91	105.32
394.10	140.43
394.29	168.52
394.49	126.39
394.68	124.05
394.88	180.22
395.07	243.42
395.26	107.66
395.46	170.86
395.65	184.90
395.84	161.50
396.04	191.92
396.23	175.54
396.42	203.63
396.62	205.97
396.81	119.37
397.00	159.16
397.19	173.20
397.39	170.86
397.58	142.77
397.77	121.71
397.97	145.11
398.16	98.30
398.35	163.84
398.55	112.35
398.74	126.39
398.93	168.52
399.12	177.88
399.32	133.41
399.51	107.66
399.70	187.24
399.90	126.39
400.09	194.26
400.28	121.71
400.47	114.69
400.67	140.43
400.86	145.11
401.05	217.67
401.24	170.86
401.44	67.88
401.63	86.60
401.82	201.29
402.01	117.03
402.21	112.35
402.40	114.69
402.59	173.20
402.78	140.43
402.97	107.66
403.17	131.07
403.36	117.03
403.55	182.56
403.74	124.05
403.93	203.63
404.13	217.67
404.32	138.09
404.51	149.79
404.70	121.71
404.89	142.77
405.09	138.09
405.28	163.84
405.47	117.03
405.66	189.58
405.85	161.50
406.05	147.45
406.24	156.82
406.43	210.65
406.62	170.86
406.81	227.03
407.00	205.97
407.20	156.82
407.39	140.43
407.58	198.95
407.77	124.05
407.96	184.90
408.15	159.16
408.34	173.20
408.54	173.20
408.73	131.07
408.92	198.95
409.11	173.20
409.30	140.43
409.49	145.11
409.68	138.09
409.87	177.88
410.07	203.63
410.26	140.43
410.45	131.07
410.64	152.13
410.83	198.95
411.02	217.67
411.21	173.20
411.40	182.56
411.59	135.75
411.78	175.54
411.98	128.73
412.17	205.97
412.36	124.05
412.55	91.28
412.74	168.52
412.93	180.22
413.12	105.32
413.31	110.01
413.50	198.95
413.69	182.56
413.88	196.60
414.07	156.82
414.26	147.45
414.45	138.09
414.64	177.88
414.83	156.82
415.02	180.22
415.22	163.84
415.41	194.26
415.60	121.71
415.79	177.88
415.98	241.08
416.17	126.39
416.36	201.29
416.55	203.63
416.74	191.92
416.93	126.39
417.12	159.16
417.31	100.64
417.50	170.86
417.69	138.09
417.88	285.55
418.07	205.97
418.26	135.75
418.45	142.77
418.64	180.22
418.83	159.16
419.02	126.39
419.21	182.56
419.39	250.44
419.58	201.29
419.77	140.43
419.96	156.82
420.15	168.52
420.34	126.39
420.53	196.60
420.72	131.07
420.91	149.79
421.10	220.01
421.29	159.16
421.48	88.94
421.67	175.54
421.86	98.30
422.05	168.52
422.24	170.86
422.43	149.79
422.61	133.41
422.80	224.69
422.99	180.22
423.18	131.07
423.37	203.63
423.56	201.29
423.75	124.05
423.94	152.13
424.13	161.50
424.32	189.58
424.50	154.48
424.69	177.88
424.88	182.56
425.07	102.98
425.26	180.22
425.45	234.05
425.64	182.56
425.83	175.54
426.01	196.60
426.20	149.79
426.39	145.11
426.58	102.98
426.77	173.20
426.96	168.52
427.15	175.54
427.33	203.63
427.52	166.18
427.71	191.92
427.90	121.71
428.09	100.64
428.28	128.73
428.46	84.26
428.65	140.43
428.84	220.01
429.03	224.69
429.22	156.82
429.40	184.90
429.59	98.30
429.78	210.65
429.97	142.77
430.16	159.16
430.34	210.65
430.53	152.13
430.72	161.50
430.91	142.77
431.10	135.75
431.28	245.76
431.47	220.01
431.66	222.35
431.85	198.95
432.03	182.56
432.22	173.20
432.41	128.73
432.60	140.43
432.79	140.43
432.97	238.73
433.16	205.97
433.35	212.99
433.54	170.86
433.72	168.52
433.91	175.54
434.10	173.20
434.28	156.82
434.47	149.79
434.66	229.37
434.85	180.22
435.03	175.54
435.22	292.57
435.41	433.00
435.59	348.74
435.78	269.16
435.97	189.58
436.16	205.97
436.34	205.97
436.53	285.55
436.72	107.66
436.90	177.88
437.09	145.11
437.28	194.26
437.46	187.24
437.65	177.88
437.84	138.09
438.02	180.22
438.21	255.12
438.40	135.75
438.58	191.92
438.77	198.95
438.96	229.37
439.14	170.86
439.33	156.82
439.52	124.05
439.70	212.99
439.89	257.46
440.08	201.29
440.26	147.45
440.45	194.26
440.63	194.26
440.82	215.33
441.01	173.20
441.19	166.18
441.38	145.11
441.57	175.54
441.75	154.48
441.94	173.20
442.12	170.86
442.31	161.50
442.50	175.54
442.68	77.24
442.87	196.60
443.05	147.45
443.24	126.39
443.43	248.10
443.61	236.39
443.80	255.12
443.98	196.60
444.17	168.52
444.35	145.11
444.54	163.84
444.73	177.88
444.91	170.86
445.10	175.54
445.28	224.69
445.47	170.86
445.65	191.92
445.84	177.88
446.02	229.37
446.21	210.65
446.39	177.88
446.58	166.18
446.77	156.82
446.95	166.18
447.14	283.20
447.32	236.39
447.51	170.86
447.69	229.37
447.88	156.82
448.06	229.37
448.25	198.95
448.43	166.18
448.62	135.75
448.80	154.48
448.99	227.03
449.17	166.18
449.36	198.95
449.54	250.44
449.73	110.01
449.91	152.13
450.10	196.60
450.28	191.92
450.46	220.01
450.65	227.03
450.83	177.88
451.02	222.35
451.20	208.31
451.39	184.90
451.57	163.84
451.76	203.63
451.94	142.77
452.13	145.11
452.31	194.26
452.49	191.92
452.68	208.31
452.86	177.88
453.05	198.95
453.23	196.60
453.42	191.92
453.60	161.50
453.78	205.97
453.97	133.41
454.15	126.39
454.34	145.11
454.52	154.48
454.70	117.03
454.89	255.12
455.07	149.79
455.26	173.20
455.44	236.39
455.62	227.03
455.81	224.69
455.99	243.42
456.17	231.71
456.36	187.24
456.54	241.08
456.73	138.09
456.91	124.05
457.09	149.79
457.28	121.71
457.46	182.56
457.64	250.44
457.83	175.54
458.01	212.99
458.19	156.82
458.38	241.08
458.56	124.05
458.74	147.45
458.93	159.16
459.11	203.63
459.29	124.05
459.48	156.82
459.66	294.91
459.84	234.05
460.03	252.78
460.21	217.67
460.39	110.01
460.57	234.05
460.76	170.86
460.94	182.56
461.12	259.80
461.31	133.41
461.49	205.97
461.67	208.31
461.85	189.58
462.04	173.20
462.22	617.90
462.40	212.99
462.59	182.56
462.77	173.20
462.95	217.67
463.13	168.52
463.32	184.90
463.50	201.29
463.68	227.03
463.86	222.35
464.05	177.88
464.23	222.35
464.41	248.10
464.59	203.63
464.78	152.13
464.96	114.69
465.14	227.03
465.32	187.24
465.50	236.39
465.69	173.20
465.87	175.54
466.05	175.54
466.23	205.97
466.41	212.99
466.60	234.05
466.78	184.90
466.96	198.95
467.14	266.82
467.32	231.71
467.51	252.78
467.69	208.31
467.87	217.67
468.05	159.16
468.23	140.43
468.41	180.22
468.60	149.79
468.78	117.03
468.96	175.54
469.14	154.48
469.32	152.13
469.50	224.69
469.69	210.65
469.87	252.78
470.05	222.35
470.23	222.35
470.41	187.24
470.59	241.08
470.77	194.26
470.95	163.84
471.14	245.76
471.32	201.29
471.50	210.65
471.68	180.22
471.86	191.92
472.04	128.73
472.22	156.82
472.40	180.22
472.58	187.24
472.77	131.07
472.95	208.31
473.13	266.82
473.31	191.92
473.49	189.58
473.67	170.86
473.85	217.67
474.03	184.90
474.21	189.58
474.39	198.95
474.57	173.20
474.75	210.65
474.93	182.56
475.12	215.33
475.30	156.82
475.48	182.56
475.66	231.71
475.84	264.48
476.02	201.29
476.20	227.03
476.38	173.20
476.56	248.10
476.74	215.33
476.92	149.79
477.10	210.65
477.28	175.54
477.46	149.79
477.64	224.69
477.82	252.78
478.00	166.18
478.18	229.37
478.36	252.78
478.54	220.01
478.72	149.79
478.90	203.63
479.08	205.97
479.26	198.95
479.44	142.77
479.62	215.33
479.80	191.92
479.98	236.39
480.16	124.05
480.34	180.22
480.52	217.67
480.70	220.01
480.88	198.95
481.06	194.26
481.24	231.71
481.41	215.33
481.59	163.84
481.77	231.71
481.95	161.50
482.13	224.69
482.31	250.44
482.49	187.24
482.67	203.63
482.85	222.35
483.03	276.18
483.21	285.55
483.39	283.20
483.57	208.31
483.74	203.63
483.92	201.29
484.10	224.69
484.28	191.92
484.46	285.55
484.64	156.82
484.82	252.78
485.00	191.92
485.18	140.43
485.35	278.52
485.53	159.16
485.71	220.01
485.89	241.08
486.07	184.90
486.25	259.80
486.43	227.03
486.61	238.73
486.78	250.44
486.96	222.35
487.14	255.12
487.32	224.69
487.50	257.46
487.68	182.56
487.85	227.03
488.03	217.67
488.21	203.63
488.39	234.05
488.57	283.20
488.75	205.97
488.92	482.15
489.10	222.35
489.28	304.27
489.46	243.42
489.64	257.46
489.81	222.35
489.99	205.97
490.17	262.14
490.35	337.04
490.53	231.71
490.70	241.08
490.88	238.73
491.06	236.39
491.24	182.56
491.41	222.35
491.59	208.31
491.77	259.80
491.95	215.33
492.13	243.42
492.30	241.08
492.48	238.73
492.66	215.33
492.84	220.01
493.01	234.05
493.19	163.84
493.37	266.82
493.54	184.90
493.72	280.86
493.90	255.12
494.08	210.65
494.25	203.63
494.43	325.33
494.61	210.65
494.79	215.33
494.96	161.50
495.14	201.29
495.32	294.91
495.49	217.67
495.67	287.89
495.85	248.10
496.02	269.16
496.20	325.33
496.38	299.59
496.55	280.86
496.73	283.20
496.91	257.46
497.09	229.37
497.26	287.89
497.44	266.82
497.62	227.03
497.79	273.84
497.97	140.43
498.14	166.18
498.32	262.14
498.50	266.82
498.67	308.95
498.85	290.23
499.03	318.31
499.20	135.75
499.38	231.71
499.56	294.91
499.73	276.18
499.91	245.76
500.08	262.14
500.26	285.55
500.44	236.39
500.61	222.35
500.79	224.69
500.97	212.99
501.14	234.05
501.32	322.99
501.49	250.44
501.67	248.10
501.84	231.71
502.02	252.78
502.20	236.39
502.37	220.01
502.55	236.39
502.72	264.48
502.90	203.63
503.07	278.52
503.25	250.44
503.43	278.52
503.60	227.03
503.78	229.37
503.95	252.78
504.13	189.58
504.30	280.86
504.48	311.29
504.65	320.65
504.83	271.50
505.01	201.29
505.18	208.31
505.36	243.42
505.53	217.67
505.71	238.73
505.88	229.37
506.06	234.05
506.23	229.37
506.41	245.76
506.58	210.65
506.76	264.48
506.93	346.40
507.11	266.82
507.28	231.71
507.46	177.88
507.63	280.86
507.81	262.14
507.98	348.74
508.16	262.14
508.33	280.86
508.50	255.12
508.68	276.18
508.85	259.80
509.03	217.67
509.20	210.65
509.38	243.42
509.55	348.74
509.73	285.55
509.90	313.63
510.08	241.08
510.25	252.78
510.42	252.78
510.60	222.35
510.77	297.25
510.95	271.50
511.12	299.59
511.30	341.72
511.47	191.92
511.64	346.40
511.82	147.45
511.99	208.31
512.17	290.23
512.34	238.73
512.51	215.33
512.69	271.50
512.86	224.69
513.04	248.10
513.21	252.78
513.38	330.02
513.56	332.36
513.73	222.35
513.90	212.99
514.08	212.99
514.25	210.65
514.43	365.12
514.60	208.31
514.77	208.31
514.95	222.35
515.12	259.80
515.29	196.60
515.47	276.18
515.64	187.24
515.81	205.97
515.99	341.72
516.16	243.42
516.33	227.03
516.51	194.26
516.68	369.80
516.85	227.03
517.03	280.86
517.20	191.92
517.37	234.05
517.54	210.65
517.72	189.58
517.89	229.37
518.06	238.73
518.24	280.86
518.41	273.84
518.58	287.89
518.75	241.08
518.93	266.82
519.10	294.91
519.27	163.84
519.45	222.35
519.62	271.50
519.79	327.68
519.96	208.31
520.14	245.76
520.31	313.63
520.48	290.23
520.65	245.76
520.83	224.69
521.00	280.86
521.17	201.29
521.34	257.46
521.52	238.73
521.69	208.31
521.86	285.55
522.03	278.52
522.20	304.27
522.38	220.01
522.55	236.39
522.72	191.92
522.89	250.44
523.07	241.08
523.24	241.08
523.41	294.91
523.58	224.69
523.75	220.01
523.92	224.69
524.10	201.29
524.27	259.80
524.44	273.84
524.61	283.20
524.78	210.65
524.96	304.27
525.13	250.44
525.30	299.59
525.47	287.89
525.64	229.37
525.81	278.52
525.98	208.31
526.16	266.82
526.33	271.50
526.50	245.76
526.67	142.77
526.84	201.29
527.01	304.27
527.18	322.99
527.36	318.31
527.53	290.23
527.70	234.05
527.87	231.71
528.04	344.06
528.21	227.03
528.38	227.03
528.55	320.65
528.72	301.93
528.89	318.31
529.07	308.95
529.24	245.76
529.41	271.50
529.58	198.95
529.75	322.99
529.92	313.63
530.09	264.48
530.26	311.29
530.43	294.91
530.60	297.25
530.77	266.82
530.94	269.16
531.11	318.31
531.28	287.89
531.46	257.46
531.63	283.20
531.80	292.57
531.97	353.42
532.14	257.46
532.31	224.69
532.48	273.84
532.65	346.40
532.82	248.10
532.99	325.33
533.16	276.18
533.33	327.68
533.50	367.46
533.67	367.46
533.84	353.42
534.01	330.02
534.18	351.08
534.35	294.91
534.52	250.44
534.69	241.08
534.86	276.18
535.03	250.44
535.20	266.82
535.37	341.72
535.54	411.93
535.71	278.52
535.88	290.23
536.05	287.89
536.22	290.23
536.38	313.63
536.55	191.92
536.72	290.23
536.89	266.82
537.06	245.76
537.23	315.97
537.40	311.29
537.57	311.29
537.74	301.93
537.91	313.63
538.08	355.76
538.25	311.29
538.42	348.74
538.59	325.33
538.75	318.31
538.92	264.48
539.09	348.74
539.26	395.55
539.43	468.11
539.60	751.31
539.77	828.55
539.94	800.46
540.11	678.76
540.28	545.34
540.44	498.53
540.61	423.64
540.78	491.51
540.95	442.36
541.12	456.40
541.29	447.04
541.46	543.00
541.62	489.17
541.79	479.81
541.96	414.27
542.13	430.66
542.30	383.85
542.47	472.79
542.63	468.11
542.80	461.09
542.97	463.43
543.14	390.87
543.31	414.27
543.48	475.13
543.64	489.17
543.81	358.10
543.98	362.78
544.15	444.70
544.32	468.11
544.48	421.30
544.65	442.36
544.82	376.83
544.99	442.36
545.16	407.25
545.32	428.32
545.49	578.11
545.66	734.93
545.83	730.25
546.00	594.50
546.16	517.26
546.33	472.79
546.50	449.38
546.67	444.70
546.83	409.59
547.00	334.70
547.17	376.83
547.34	294.91
547.50	388.53
547.67	273.84
547.84	348.74
548.00	341.72
548.17	393.21
548.34	369.80
548.51	400.23
548.67	416.62
548.84	358.10
549.01	304.27
549.18	344.06
549.34	306.61
549.51	334.70
549.68	264.48
549.84	344.06
550.01	227.03
550.18	362.78
550.34	374.49
550.51	313.63
550.68	337.04
550.84	250.44
551.01	231.71
551.18	322.99
551.34	301.93
551.51	278.52
551.68	322.99
551.84	304.27
552.01	304.27
552.18	257.46
552.34	266.82
552.51	196.60
552.68	351.08
552.84	194.26
553.01	264.48
553.18	318.31
553.34	337.04
553.51	245.76
553.67	313.63
553.84	339.38
554.01	313.63
554.17	198.95
554.34	266.82
554.51	308.95
554.67	255.12
554.84	285.55
555.00	273.84
555.17	231.71
555.33	355.76
555.50	301.93
555.67	297.25
555.83	266.82
556.00	306.61
556.16	433.00
556.33	315.97
556.50	220.01
556.66	245.76
556.83	276.18
556.99	220.01
557.16	243.42
557.32	224.69
557.49	290.23
557.65	234.05
557.82	159.16
557.98	262.14
558.15	271.50
558.32	243.42
558.48	259.80
558.65	271.50
558.81	301.93
558.98	325.33
559.14	301.93
559.31	327.68
559.47	308.95
559.64	229.37
559.80	248.10
559.97	304.27
560.13	269.16
560.30	227.03
560.46	290.23
560.63	236.39
560.79	231.71
560.96	285.55
561.12	285.55
561.29	294.91
561.45	241.08
561.61	266.82
561.78	320.65
561.94	224.69
562.11	271.50
562.27	273.84
562.44	166.18
562.60	241.08
562.77	236.39
562.93	325.33
563.10	248.10
563.26	269.16
563.42	252.78
563.59	276.18
563.75	203.63
563.92	285.55
564.08	266.82
564.24	198.95
564.41	297.25
564.57	229.37
564.74	271.50
564.90	273.84
565.07	276.18
565.23	355.76
565.39	231.71
565.56	280.86
565.72	189.58
565.88	252.78
566.05	271.50
566.21	243.42
566.38	224.69
566.54	262.14
566.70	205.97
566.87	297.25
567.03	163.84
567.19	292.57
567.36	262.14
567.52	191.92
567.68	259.80
567.85	276.18
568.01	299.59
568.17	222.35
568.34	252.78
568.50	341.72
568.66	194.26
568.83	337.04
568.99	283.20
569.15	259.80
569.32	224.69
569.48	191.92
569.64	198.95
569.81	292.57
569.97	126.39
570.13	278.52
570.30	318.31
570.46	234.05
570.62	327.68
570.78	276.18
570.95	236.39
571.11	255.12
571.27	339.38
571.43	325.33
571.60	339.38
571.76	344.06
571.92	238.73
572.09	205.97
572.25	294.91
572.41	292.57
572.57	297.25
572.74	252.78
572.90	285.55
573.06	262.14
573.22	234.05
573.38	304.27
573.55	208.31
573.71	285.55
573.87	266.82
574.03	264.48
574.20	285.55
574.36	220.01
574.52	311.29
574.68	292.57
574.84	315.97
575.01	227.03
575.17	292.57
575.33	255.12
575.49	255.12
575.65	241.08
575.82	269.16
575.98	444.70
576.14	418.96
576.30	533.64
576.46	554.71
576.62	423.64
576.79	402.57
576.95	369.80
577.11	255.12
577.27	255.12
577.43	369.80
577.59	285.55
577.75	229.37
577.92	184.90
578.08	257.46
578.24	287.89
578.40	344.06
578.56	320.65
578.72	404.91
578.88	362.78
579.04	355.76
579.21	327.68
579.37	322.99
579.53	313.63
579.69	369.80
579.85	266.82
580.01	358.10
580.17	320.65
580.33	330.02
580.49	393.21
580.65	313.63
580.82	332.36
580.98	292.57
581.14	301.93
581.30	285.55
581.46	318.31
581.62	447.04
581.78	479.81
581.94	430.66
582.10	341.72
582.26	388.53
582.42	393.21
582.58	409.59
582.74	397.89
582.90	379.17
583.06	442.36
583.22	390.87
583.38	433.00
583.54	400.23
583.70	421.30
583.86	458.74
584.02	465.77
584.18	545.34
584.34	758.33
584.50	1500.28
584.66	10150.90
584.82	27068.30
584.98	37926.04
585.14	32390.67
585.30	20184.78
585.46	12140.36
585.62	7779.94
585.78	3719.11
585.94	1657.10
586.10	910.47
586.26	683.44
586.42	526.62
586.58	517.26
586.74	444.70
586.90	484.49
587.06	510.24
587.22	395.55
587.38	379.17
587.54	678.76
587.70	1746.04
587.86	2492.67
588.02	2771.19
588.18	2165.00
588.34	1378.58
588.49	957.28
588.65	664.71
588.81	458.74
588.97	320.65
589.13	236.39
589.29	362.78
589.45	280.86
589.61	306.61
589.77	362.78
589.93	327.68
590.08	351.08
590.24	332.36
590.40	407.25
590.56	285.55
590.72	276.18
590.88	386.19
591.04	278.52
591.20	304.27
591.35	276.18
591.51	344.06
591.67	330.02
591.83	292.57
591.99	290.23
592.15	285.55
592.31	360.44
592.46	304.27
592.62	362.78
592.78	294.91
592.94	337.04
593.10	266.82
593.26	299.59
593.41	315.97
593.57	330.02
593.73	369.80
593.89	1338.79
594.05	3267.39
594.20	4578.09
594.36	4444.68
594.52	3026.31
594.68	1973.07
594.84	1378.58
594.99	856.64
595.15	486.83
595.31	355.76
595.47	353.42
595.62	308.95
595.78	255.12
595.94	297.25
596.10	311.29
596.25	278.52
596.41	362.78
596.57	276.18
596.73	334.70
596.88	440.02
597.04	880.04
597.20	1153.88
597.36	1263.89
597.51	1018.13
597.67	737.27
597.83	594.50
597.99	456.40
598.14	337.04
598.30	227.03
598.46	318.31
598.61	367.46
598.77	308.95
598.93	264.48
599.09	327.68
599.24	294.91
599.40	344.06
599.56	299.59
599.71	294.91
599.87	220.01
600.03	271.50
600.18	236.39
600.34	250.44
600.50	224.69
600.65	173.20
600.81	259.80
600.97	182.56
601.12	297.25
601.28	262.14
601.44	271.50
601.59	353.42
601.75	280.86
601.91	299.59
602.06	224.69
602.22	344.06
602.37	479.81
602.53	929.19
602.69	1308.36
602.84	1371.55
603.00	966.64
603.16	802.80
603.31	655.35
603.47	491.51
603.62	262.14
603.78	252.78
603.94	287.89
604.09	257.46
604.25	280.86
604.40	236.39
604.56	257.46
604.71	304.27
604.87	255.12
605.03	297.25
605.18	365.12
605.34	299.59
605.49	248.10
605.65	311.29
605.80	264.48
605.96	285.55
606.12	297.25
606.27	313.63
606.43	294.91
606.58	297.25
606.74	545.34
606.89	1732.00
607.05	3178.45
607.20	3932.10
607.36	3297.81
607.51	2303.09
607.67	1565.82
607.82	1132.82
607.98	674.07
608.13	461.09
608.29	379.17
608.44	395.55
608.60	383.85
608.75	421.30
608.91	702.16
609.06	2495.01
609.22	5313.02
609.37	6572.22
609.53	5895.81
609.68	4039.76
609.84	2822.69
609.99	2066.69
610.15	1282.61
610.30	861.32
