SpectraSuite Data File
++++++++++++++++++++++++++++++++++++
Date: Fri Oct 04 11:34:07 GMT-05:00 2013
User: price-jones
Dark Spectrum Present: No
Reference Spectrum Present: No
Number of Sampled Component Spectra: 1
Spectrometers: USB2+H05261
Integration Time (usec): 100000 (USB2+H05261)
Spectra Averaged: 1 (USB2+H05261)
Boxcar Smoothing: 0 (USB2+H05261)
Correct for Electrical Dark: No (USB2+H05261)
Strobe/Lamp Enabled: No (USB2+H05261)
Correct for Detector Non-linearity: No (USB2+H05261)
Correct for Stray Light: No (USB2+H05261)
Number of Pixels in Processed Spectrum: 2048
>>>>>Begin Processed Spectral Data<<<<<
365.73	145.11
365.92	145.11
366.12	145.11
366.32	0.00
366.52	0.00
366.72	0.00
366.91	0.00
367.11	44.47
367.31	0.00
367.51	0.00
367.70	0.00
367.90	0.00
368.10	0.00
368.30	0.00
368.49	0.00
368.69	35.11
368.89	0.00
369.09	4.68
369.28	0.00
369.48	0.00
369.68	74.90
369.87	18.72
370.07	4.68
370.27	35.11
370.47	16.38
370.66	14.04
370.86	74.90
371.06	88.94
371.25	175.54
371.45	105.32
371.65	138.09
371.84	102.98
372.04	168.52
372.24	105.32
372.44	184.90
372.63	140.43
372.83	95.96
373.03	107.66
373.22	135.75
373.42	98.30
373.62	51.49
373.81	135.75
374.01	161.50
374.21	131.07
374.40	159.16
374.60	166.18
374.79	65.54
374.99	126.39
375.19	142.77
375.38	156.82
375.58	198.95
375.78	88.94
375.97	117.03
376.17	182.56
376.37	236.39
376.56	161.50
376.76	142.77
376.95	88.94
377.15	177.88
377.35	170.86
377.54	133.41
377.74	159.16
377.93	156.82
378.13	159.16
378.33	145.11
378.52	138.09
378.72	222.35
378.91	212.99
379.11	53.83
379.31	58.51
379.50	145.11
379.70	175.54
379.89	124.05
380.09	154.48
380.28	147.45
380.48	131.07
380.68	154.48
380.87	145.11
381.07	159.16
381.26	180.22
381.46	159.16
381.65	93.62
381.85	182.56
382.04	166.18
382.24	149.79
382.43	100.64
382.63	175.54
382.83	91.28
383.02	100.64
383.22	170.86
383.41	121.71
383.61	224.69
383.80	156.82
384.00	112.35
384.19	25.75
384.39	95.96
384.58	91.28
384.78	131.07
384.97	14.04
385.17	135.75
385.36	107.66
385.56	177.88
385.75	138.09
385.95	119.37
386.14	107.66
386.34	100.64
386.53	121.71
386.72	166.18
386.92	173.20
387.11	133.41
387.31	147.45
387.50	131.07
387.70	131.07
387.89	149.79
388.09	121.71
388.28	145.11
388.48	201.29
388.67	112.35
388.86	107.66
389.06	114.69
389.25	191.92
389.45	175.54
389.64	182.56
389.84	149.79
390.03	133.41
390.22	121.71
390.42	100.64
390.61	168.52
390.81	224.69
391.00	135.75
391.19	173.20
391.39	126.39
391.58	112.35
391.78	126.39
391.97	149.79
392.16	142.77
392.36	154.48
392.55	234.05
392.75	93.62
392.94	131.07
393.13	114.69
393.33	173.20
393.52	217.67
393.71	119.37
393.91	117.03
394.10	84.26
394.29	145.11
394.49	128.73
394.68	212.99
394.88	210.65
395.07	126.39
395.26	98.30
395.46	138.09
395.65	201.29
395.84	140.43
396.04	152.13
396.23	112.35
396.42	154.48
396.62	100.64
396.81	156.82
397.00	173.20
397.19	177.88
397.39	114.69
397.58	175.54
397.77	220.01
397.97	152.13
398.16	142.77
398.35	133.41
398.55	152.13
398.74	56.17
398.93	205.97
399.12	117.03
399.32	145.11
399.51	126.39
399.70	142.77
399.90	191.92
400.09	184.90
400.28	100.64
400.47	60.85
400.67	173.20
400.86	114.69
401.05	147.45
401.24	177.88
401.44	196.60
401.63	173.20
401.82	154.48
402.01	133.41
402.21	152.13
402.40	166.18
402.59	170.86
402.78	191.92
402.97	105.32
403.17	231.71
403.36	156.82
403.55	175.54
403.74	196.60
403.93	128.73
404.13	170.86
404.32	117.03
404.51	196.60
404.70	250.44
404.89	98.30
405.09	194.26
405.28	131.07
405.47	173.20
405.66	154.48
405.85	149.79
406.05	95.96
406.24	145.11
406.43	133.41
406.62	163.84
406.81	159.16
407.00	217.67
407.20	180.22
407.39	166.18
407.58	177.88
407.77	84.26
407.96	163.84
408.15	159.16
408.34	187.24
408.54	189.58
408.73	131.07
408.92	138.09
409.11	208.31
409.30	175.54
409.49	100.64
409.68	217.67
409.87	119.37
410.07	121.71
410.26	145.11
410.45	184.90
410.64	149.79
410.83	131.07
411.02	135.75
411.21	166.18
411.40	112.35
411.59	220.01
411.78	166.18
411.98	187.24
412.17	168.52
412.36	168.52
412.55	156.82
412.74	124.05
412.93	184.90
413.12	126.39
413.31	163.84
413.50	114.69
413.69	138.09
413.88	177.88
414.07	117.03
414.26	163.84
414.45	215.33
414.64	154.48
414.83	194.26
415.02	198.95
415.22	124.05
415.41	161.50
415.60	161.50
415.79	152.13
415.98	145.11
416.17	208.31
416.36	149.79
416.55	112.35
416.74	142.77
416.93	273.84
417.12	191.92
417.31	131.07
417.50	201.29
417.69	177.88
417.88	135.75
418.07	208.31
418.26	121.71
418.45	142.77
418.64	126.39
418.83	198.95
419.02	210.65
419.21	203.63
419.39	161.50
419.58	187.24
419.77	173.20
419.96	198.95
420.15	149.79
420.34	187.24
420.53	215.33
420.72	142.77
420.91	124.05
421.10	210.65
421.29	156.82
421.48	161.50
421.67	187.24
421.86	161.50
422.05	145.11
422.24	154.48
422.43	220.01
422.61	124.05
422.80	112.35
422.99	170.86
423.18	119.37
423.37	177.88
423.56	119.37
423.75	227.03
423.94	126.39
424.13	126.39
424.32	112.35
424.50	194.26
424.69	121.71
424.88	222.35
425.07	72.56
425.26	154.48
425.45	152.13
425.64	131.07
425.83	119.37
426.01	161.50
426.20	163.84
426.39	121.71
426.58	126.39
426.77	95.96
426.96	182.56
427.15	203.63
427.33	131.07
427.52	182.56
427.71	117.03
427.90	205.97
428.09	170.86
428.28	229.37
428.46	131.07
428.65	159.16
428.84	224.69
429.03	220.01
429.22	145.11
429.40	210.65
429.59	121.71
429.78	215.33
429.97	166.18
430.16	182.56
430.34	201.29
430.53	124.05
430.72	191.92
430.91	154.48
431.10	114.69
431.28	105.32
431.47	135.75
431.66	166.18
431.85	112.35
432.03	142.77
432.22	269.16
432.41	152.13
432.60	166.18
432.79	126.39
432.97	159.16
433.16	184.90
433.35	149.79
433.54	201.29
433.72	208.31
433.91	203.63
434.10	161.50
434.28	184.90
434.47	135.75
434.66	135.75
434.85	173.20
435.03	166.18
435.22	332.36
435.41	388.53
435.59	308.95
435.78	365.12
435.97	168.52
436.16	203.63
436.34	180.22
436.53	149.79
436.72	161.50
436.90	168.52
437.09	135.75
437.28	154.48
437.46	198.95
437.65	210.65
437.84	222.35
438.02	257.46
438.21	220.01
438.40	166.18
438.58	168.52
438.77	154.48
438.96	161.50
439.14	173.20
439.33	182.56
439.52	187.24
439.70	147.45
439.89	182.56
440.08	184.90
440.26	145.11
440.45	175.54
440.63	86.60
440.82	138.09
441.01	220.01
441.19	201.29
441.38	248.10
441.57	215.33
441.75	236.39
441.94	201.29
442.12	142.77
442.31	182.56
442.50	166.18
442.68	220.01
442.87	177.88
443.05	110.01
443.24	180.22
443.43	145.11
443.61	198.95
443.80	241.08
443.98	154.48
444.17	194.26
444.35	201.29
444.54	138.09
444.73	84.26
444.91	198.95
445.10	131.07
445.28	112.35
445.47	124.05
445.65	175.54
445.84	154.48
446.02	152.13
446.21	121.71
446.39	245.76
446.58	159.16
446.77	102.98
446.95	187.24
447.14	203.63
447.32	250.44
447.51	198.95
447.69	152.13
447.88	215.33
448.06	217.67
448.25	215.33
448.43	163.84
448.62	187.24
448.80	184.90
448.99	187.24
449.17	161.50
449.36	252.78
449.54	227.03
449.73	126.39
449.91	180.22
450.10	135.75
450.28	203.63
450.46	203.63
450.65	231.71
450.83	205.97
451.02	168.52
451.20	110.01
451.39	257.46
451.57	163.84
451.76	198.95
451.94	212.99
452.13	257.46
452.31	224.69
452.49	177.88
452.68	205.97
452.86	187.24
453.05	212.99
453.23	131.07
453.42	152.13
453.60	152.13
453.78	177.88
453.97	154.48
454.15	194.26
454.34	208.31
454.52	184.90
454.70	184.90
454.89	236.39
455.07	194.26
455.26	196.60
455.44	234.05
455.62	224.69
455.81	191.92
455.99	243.42
456.17	234.05
456.36	201.29
456.54	276.18
456.73	222.35
456.91	182.56
457.09	159.16
457.28	198.95
457.46	241.08
457.64	227.03
457.83	154.48
458.01	205.97
458.19	196.60
458.38	175.54
458.56	187.24
458.74	149.79
458.93	234.05
459.11	234.05
459.29	131.07
459.48	166.18
459.66	252.78
459.84	212.99
460.03	280.86
460.21	156.82
460.39	170.86
460.57	234.05
460.76	248.10
460.94	166.18
461.12	283.20
461.31	198.95
461.49	110.01
461.67	180.22
461.85	154.48
462.04	140.43
462.22	622.58
462.40	191.92
462.59	215.33
462.77	147.45
462.95	149.79
463.13	191.92
463.32	236.39
463.50	182.56
463.68	187.24
463.86	154.48
464.05	191.92
464.23	266.82
464.41	170.86
464.59	191.92
464.78	222.35
464.96	180.22
465.14	208.31
465.32	217.67
465.50	170.86
465.69	140.43
465.87	156.82
466.05	203.63
466.23	159.16
466.41	131.07
466.60	294.91
466.78	173.20
466.96	163.84
467.14	189.58
467.32	177.88
467.51	241.08
467.69	145.11
467.87	175.54
468.05	175.54
468.23	241.08
468.41	182.56
468.60	180.22
468.78	175.54
468.96	191.92
469.14	229.37
469.32	175.54
469.50	243.42
469.69	238.73
469.87	166.18
470.05	166.18
470.23	173.20
470.41	210.65
470.59	243.42
470.77	231.71
470.95	196.60
471.14	175.54
471.32	156.82
471.50	243.42
471.68	161.50
471.86	152.13
472.04	212.99
472.22	212.99
472.40	175.54
472.58	224.69
472.77	184.90
472.95	222.35
473.13	283.20
473.31	182.56
473.49	159.16
473.67	140.43
473.85	175.54
474.03	215.33
474.21	154.48
474.39	166.18
474.57	248.10
474.75	217.67
474.93	182.56
475.12	156.82
475.30	215.33
475.48	154.48
475.66	210.65
475.84	124.05
476.02	222.35
476.20	198.95
476.38	210.65
476.56	248.10
476.74	168.52
476.92	191.92
477.10	236.39
477.28	159.16
477.46	166.18
477.64	234.05
477.82	168.52
478.00	184.90
478.18	241.08
478.36	203.63
478.54	234.05
478.72	166.18
478.90	145.11
479.08	189.58
479.26	250.44
479.44	236.39
479.62	229.37
479.80	210.65
479.98	285.55
480.16	238.73
480.34	201.29
480.52	180.22
480.70	201.29
480.88	217.67
481.06	304.27
481.24	248.10
481.41	170.86
481.59	173.20
481.77	224.69
481.95	191.92
482.13	271.50
482.31	208.31
482.49	184.90
482.67	196.60
482.85	290.23
483.03	208.31
483.21	269.16
483.39	248.10
483.57	259.80
483.74	294.91
483.92	215.33
484.10	231.71
484.28	234.05
484.46	269.16
484.64	187.24
484.82	201.29
485.00	182.56
485.18	208.31
485.35	163.84
485.53	128.73
485.71	196.60
485.89	248.10
486.07	140.43
486.25	294.91
486.43	229.37
486.61	273.84
486.78	189.58
486.96	203.63
487.14	187.24
487.32	236.39
487.50	215.33
487.68	229.37
487.85	245.76
488.03	229.37
488.21	208.31
488.39	227.03
488.57	224.69
488.75	241.08
488.92	514.92
489.10	198.95
489.28	243.42
489.46	224.69
489.64	215.33
489.81	215.33
489.99	241.08
490.17	229.37
490.35	264.48
490.53	255.12
490.70	241.08
490.88	280.86
491.06	285.55
491.24	196.60
491.41	269.16
491.59	227.03
491.77	287.89
491.95	248.10
492.13	149.79
492.30	220.01
492.48	252.78
492.66	212.99
492.84	245.76
493.01	250.44
493.19	236.39
493.37	285.55
493.54	262.14
493.72	276.18
493.90	243.42
494.08	313.63
494.25	327.68
494.43	243.42
494.61	142.77
494.79	243.42
494.96	191.92
495.14	208.31
495.32	220.01
495.49	320.65
495.67	273.84
495.85	285.55
496.02	250.44
496.20	170.86
496.38	208.31
496.55	255.12
496.73	259.80
496.91	285.55
497.09	241.08
497.26	212.99
497.44	205.97
497.62	241.08
497.79	212.99
497.97	238.73
498.14	238.73
498.32	266.82
498.50	273.84
498.67	224.69
498.85	287.89
499.03	180.22
499.20	250.44
499.38	273.84
499.56	243.42
499.73	318.31
499.91	339.38
500.08	276.18
500.26	222.35
500.44	175.54
500.61	224.69
500.79	180.22
500.97	231.71
501.14	327.68
501.32	248.10
501.49	212.99
501.67	278.52
501.84	306.61
502.02	229.37
502.20	290.23
502.37	264.48
502.55	262.14
502.72	208.31
502.90	217.67
503.07	269.16
503.25	194.26
503.43	234.05
503.60	243.42
503.78	224.69
503.95	203.63
504.13	187.24
504.30	220.01
504.48	217.67
504.65	280.86
504.83	271.50
505.01	252.78
505.18	273.84
505.36	313.63
505.53	299.59
505.71	217.67
505.88	238.73
506.06	227.03
506.23	241.08
506.41	210.65
506.58	262.14
506.76	276.18
506.93	248.10
507.11	292.57
507.28	217.67
507.46	313.63
507.63	252.78
507.81	191.92
507.98	220.01
508.16	234.05
508.33	205.97
508.50	203.63
508.68	271.50
508.85	276.18
509.03	255.12
509.20	259.80
509.38	308.95
509.55	215.33
509.73	266.82
509.90	283.20
510.08	311.29
510.25	241.08
510.42	266.82
510.60	252.78
510.77	269.16
510.95	292.57
511.12	231.71
511.30	273.84
511.47	313.63
511.64	255.12
511.82	299.59
511.99	264.48
512.17	344.06
512.34	229.37
512.51	224.69
512.69	280.86
512.86	262.14
513.04	273.84
513.21	227.03
513.38	205.97
513.56	227.03
513.73	238.73
513.90	250.44
514.08	229.37
514.25	241.08
514.43	241.08
514.60	294.91
514.77	278.52
514.95	264.48
515.12	198.95
515.29	252.78
515.47	252.78
515.64	208.31
515.81	290.23
515.99	220.01
516.16	241.08
516.33	266.82
516.51	234.05
516.68	252.78
516.85	241.08
517.03	161.50
517.20	290.23
517.37	208.31
517.54	255.12
517.72	215.33
517.89	215.33
518.06	203.63
518.24	315.97
518.41	287.89
518.58	250.44
518.75	259.80
518.93	210.65
519.10	248.10
519.27	276.18
519.45	259.80
519.62	201.29
519.79	243.42
519.96	189.58
520.14	250.44
520.31	215.33
520.48	273.84
520.65	280.86
520.83	292.57
521.00	217.67
521.17	229.37
521.34	234.05
521.52	229.37
521.69	210.65
521.86	236.39
522.03	278.52
522.20	304.27
522.38	250.44
522.55	220.01
522.72	297.25
522.89	220.01
523.07	320.65
523.24	273.84
523.41	287.89
523.58	229.37
523.75	229.37
523.92	287.89
524.10	304.27
524.27	234.05
524.44	229.37
524.61	215.33
524.78	231.71
524.96	264.48
525.13	292.57
525.30	297.25
525.47	243.42
525.64	273.84
525.81	231.71
525.98	287.89
526.16	318.31
526.33	203.63
526.50	248.10
526.67	283.20
526.84	184.90
527.01	222.35
527.18	322.99
527.36	252.78
527.53	248.10
527.70	304.27
527.87	280.86
528.04	308.95
528.21	301.93
528.38	297.25
528.55	287.89
528.72	311.29
528.89	325.33
529.07	273.84
529.24	227.03
529.41	285.55
529.58	269.16
529.75	271.50
529.92	290.23
530.09	262.14
530.26	245.76
530.43	301.93
530.60	236.39
530.77	290.23
530.94	376.83
531.11	252.78
531.28	255.12
531.46	205.97
531.63	299.59
531.80	252.78
531.97	278.52
532.14	304.27
532.31	227.03
532.48	313.63
532.65	252.78
532.82	238.73
532.99	234.05
533.16	290.23
533.33	306.61
533.50	217.67
533.67	210.65
533.84	224.69
534.01	243.42
534.18	245.76
534.35	278.52
534.52	278.52
534.69	311.29
534.86	292.57
535.03	283.20
535.20	322.99
535.37	308.95
535.54	280.86
535.71	241.08
535.88	271.50
536.05	227.03
536.22	269.16
536.38	311.29
536.55	257.46
536.72	301.93
536.89	215.33
537.06	292.57
537.23	285.55
537.40	299.59
537.57	273.84
537.74	337.04
537.91	262.14
538.08	292.57
538.25	341.72
538.42	250.44
538.59	276.18
538.75	301.93
538.92	245.76
539.09	306.61
539.26	304.27
539.43	320.65
539.60	341.72
539.77	393.21
539.94	409.59
540.11	386.19
540.28	402.57
540.44	383.85
540.61	430.66
540.78	325.33
540.95	339.38
541.12	449.38
541.29	367.46
541.46	512.58
541.62	470.45
541.79	507.90
541.96	425.98
542.13	447.04
542.30	407.25
542.47	430.66
542.63	360.44
542.80	381.51
542.97	454.06
543.14	425.98
543.31	447.04
543.48	346.40
543.64	430.66
543.81	418.96
543.98	437.68
544.15	428.32
544.32	470.45
544.48	428.32
544.65	411.93
544.82	294.91
544.99	369.80
545.16	400.23
545.32	409.59
545.49	683.44
545.66	660.03
545.83	671.73
546.00	671.73
546.16	498.53
546.33	437.68
546.50	379.17
546.67	397.89
546.83	465.77
547.00	337.04
547.17	294.91
547.34	320.65
547.50	299.59
547.67	383.85
547.84	322.99
548.00	332.36
548.17	376.83
548.34	348.74
548.51	346.40
548.67	358.10
548.84	332.36
549.01	283.20
549.18	374.49
549.34	344.06
549.51	318.31
549.68	386.19
549.84	315.97
550.01	238.73
550.18	440.02
550.34	376.83
550.51	346.40
550.68	379.17
550.84	285.55
551.01	262.14
551.18	325.33
551.34	322.99
551.51	369.80
551.68	294.91
551.84	358.10
552.01	327.68
552.18	325.33
552.34	278.52
552.51	353.42
552.68	262.14
552.84	259.80
553.01	250.44
553.18	294.91
553.34	271.50
553.51	234.05
553.67	269.16
553.84	313.63
554.01	348.74
554.17	229.37
554.34	255.12
554.51	273.84
554.67	250.44
554.84	318.31
555.00	266.82
555.17	248.10
555.33	269.16
555.50	292.57
555.67	241.08
555.83	271.50
556.00	297.25
556.16	369.80
556.33	299.59
556.50	322.99
556.66	311.29
556.83	241.08
556.99	330.02
557.16	269.16
557.32	250.44
557.49	245.76
557.65	266.82
557.82	229.37
557.98	248.10
558.15	241.08
558.32	262.14
558.48	299.59
558.65	292.57
558.81	257.46
558.98	248.10
559.14	313.63
559.31	294.91
559.47	269.16
559.64	227.03
559.80	299.59
559.97	217.67
560.13	215.33
560.30	170.86
560.46	255.12
560.63	264.48
560.79	217.67
560.96	262.14
561.12	252.78
561.29	285.55
561.45	262.14
561.61	227.03
561.78	358.10
561.94	220.01
562.11	210.65
562.27	243.42
562.44	245.76
562.60	318.31
562.77	283.20
562.93	278.52
563.10	269.16
563.26	259.80
563.42	264.48
563.59	292.57
563.75	203.63
563.92	257.46
564.08	285.55
564.24	255.12
564.41	318.31
564.57	241.08
564.74	264.48
564.90	217.67
565.07	287.89
565.23	182.56
565.39	177.88
565.56	269.16
565.72	236.39
565.88	215.33
566.05	222.35
566.21	140.43
566.38	227.03
566.54	299.59
566.70	318.31
566.87	257.46
567.03	224.69
567.19	287.89
567.36	210.65
567.52	285.55
567.68	278.52
567.85	243.42
568.01	210.65
568.17	248.10
568.34	278.52
568.50	264.48
568.66	257.46
568.83	299.59
568.99	231.71
569.15	229.37
569.32	278.52
569.48	283.20
569.64	257.46
569.81	290.23
569.97	229.37
570.13	238.73
570.30	217.67
570.46	194.26
570.62	191.92
570.78	224.69
570.95	262.14
571.11	266.82
571.27	262.14
571.43	294.91
571.60	227.03
571.76	227.03
571.92	217.67
572.09	234.05
572.25	250.44
572.41	231.71
572.57	241.08
572.74	241.08
572.90	283.20
573.06	245.76
573.22	231.71
573.38	220.01
573.55	245.76
573.71	212.99
573.87	236.39
574.03	278.52
574.20	198.95
574.36	262.14
574.52	227.03
574.68	224.69
574.84	166.18
575.01	266.82
575.17	243.42
575.33	269.16
575.49	208.31
575.65	264.48
575.82	393.21
575.98	353.42
576.14	301.93
576.30	299.59
576.46	325.33
576.62	292.57
576.79	308.95
576.95	430.66
577.11	325.33
577.27	236.39
577.43	234.05
577.59	262.14
577.75	229.37
577.92	273.84
578.08	201.29
578.24	245.76
578.40	224.69
578.56	330.02
578.72	381.51
578.88	245.76
579.04	264.48
579.21	294.91
579.37	264.48
579.53	287.89
579.69	306.61
579.85	297.25
580.01	278.52
580.17	210.65
580.33	262.14
580.49	355.76
580.65	285.55
580.82	259.80
580.98	255.12
581.14	234.05
581.30	306.61
581.46	262.14
581.62	299.59
581.78	280.86
581.94	330.02
582.10	276.18
582.26	278.52
582.42	283.20
582.58	339.38
582.74	287.89
582.90	374.49
583.06	215.33
583.22	322.99
583.38	353.42
583.54	266.82
583.70	374.49
583.86	276.18
584.02	327.68
584.18	360.44
584.34	306.61
584.50	472.79
584.66	1607.95
584.82	3281.43
584.98	3971.89
585.14	3503.78
585.30	2296.07
585.46	1462.83
585.62	1004.09
585.78	690.46
585.94	433.00
586.10	355.76
586.26	278.52
586.42	360.44
586.58	346.40
586.74	325.33
586.90	250.44
587.06	327.68
587.22	273.84
587.38	301.93
587.54	372.15
587.70	491.51
587.86	557.05
588.02	573.43
588.18	456.40
588.34	341.72
588.49	231.71
588.65	189.58
588.81	313.63
588.97	266.82
589.13	166.18
589.29	229.37
589.45	248.10
589.61	257.46
589.77	353.42
589.93	283.20
590.08	262.14
590.24	278.52
590.40	292.57
590.56	248.10
590.72	376.83
590.88	271.50
591.04	252.78
591.20	290.23
591.35	290.23
591.51	264.48
591.67	252.78
591.83	248.10
591.99	320.65
592.15	430.66
592.31	222.35
592.46	290.23
592.62	299.59
592.78	264.48
592.94	304.27
593.10	234.05
593.26	259.80
593.41	306.61
593.57	283.20
593.73	269.16
593.89	449.38
594.05	561.73
594.20	667.05
594.36	741.95
594.52	463.43
594.68	325.33
594.84	332.36
594.99	320.65
595.15	271.50
595.31	236.39
595.47	280.86
595.62	269.16
595.78	227.03
595.94	205.97
596.10	264.48
596.25	215.33
596.41	269.16
596.57	290.23
596.73	224.69
596.88	346.40
597.04	311.29
597.20	313.63
597.36	381.51
597.51	372.15
597.67	290.23
597.83	252.78
597.99	285.55
598.14	224.69
598.30	273.84
598.46	271.50
598.61	285.55
598.77	322.99
598.93	248.10
599.09	280.86
599.24	283.20
599.40	294.91
599.56	234.05
599.71	212.99
599.87	245.76
600.03	245.76
600.18	231.71
600.34	287.89
600.50	276.18
600.65	138.09
600.81	220.01
600.97	241.08
601.12	236.39
601.28	234.05
601.44	215.33
601.59	241.08
601.75	243.42
601.91	243.42
602.06	262.14
602.22	322.99
602.37	292.57
602.53	369.80
602.69	374.49
602.84	383.85
603.00	355.76
603.16	301.93
603.31	308.95
603.47	290.23
603.62	241.08
603.78	320.65
603.94	285.55
604.09	262.14
604.25	210.65
604.40	273.84
604.56	266.82
604.71	287.89
604.87	255.12
605.03	294.91
605.18	215.33
605.34	311.29
605.49	245.76
605.65	318.31
605.80	234.05
605.96	224.69
606.12	229.37
606.27	311.29
606.43	269.16
606.58	341.72
606.74	346.40
606.89	451.72
607.05	543.00
607.20	620.24
607.36	545.34
607.51	414.27
607.67	393.21
607.82	379.17
607.98	276.18
608.13	245.76
608.29	285.55
608.44	292.57
608.60	285.55
608.75	322.99
608.91	344.06
609.06	653.01
609.22	849.61
609.37	1015.79
609.53	858.98
609.68	737.27
609.84	631.94
609.99	564.07
610.15	526.62
610.30	482.15
610.46	519.60
610.61	669.39
610.76	713.86
