SpectraSuite Data File
++++++++++++++++++++++++++++++++++++
Date: Fri Oct 04 11:33:55 GMT-05:00 2013
User: price-jones
Dark Spectrum Present: No
Reference Spectrum Present: No
Number of Sampled Component Spectra: 1
Spectrometers: USB2+H05261
Integration Time (usec): 100000 (USB2+H05261)
Spectra Averaged: 1 (USB2+H05261)
Boxcar Smoothing: 0 (USB2+H05261)
Correct for Electrical Dark: No (USB2+H05261)
Strobe/Lamp Enabled: No (USB2+H05261)
Correct for Detector Non-linearity: No (USB2+H05261)
Correct for Stray Light: No (USB2+H05261)
Number of Pixels in Processed Spectrum: 2048
>>>>>Begin Processed Spectral Data<<<<<
365.73	74.90
365.92	74.90
366.12	74.90
366.32	0.00
366.52	37.45
366.72	0.00
366.91	0.00
367.11	42.13
367.31	0.00
367.51	0.00
367.70	0.00
367.90	9.36
368.10	9.36
368.30	0.00
368.49	0.00
368.69	2.34
368.89	46.81
369.09	0.00
369.28	0.00
369.48	0.00
369.68	0.00
369.87	0.00
370.07	35.11
370.27	35.11
370.47	35.11
370.66	98.30
370.86	70.22
371.06	124.05
371.25	117.03
371.45	49.15
371.65	102.98
371.84	37.45
372.04	81.92
372.24	100.64
372.44	79.58
372.63	112.35
372.83	126.39
373.03	159.16
373.22	161.50
373.42	145.11
373.62	110.01
373.81	166.18
374.01	203.63
374.21	170.86
374.40	201.29
374.60	191.92
374.79	152.13
374.99	159.16
375.19	112.35
375.38	138.09
375.58	166.18
375.78	191.92
375.97	203.63
376.17	187.24
376.37	133.41
376.56	149.79
376.76	177.88
376.95	163.84
377.15	166.18
377.35	131.07
377.54	194.26
377.74	152.13
377.93	93.62
378.13	147.45
378.33	175.54
378.52	124.05
378.72	159.16
378.91	177.88
379.11	128.73
379.31	140.43
379.50	131.07
379.70	177.88
379.89	140.43
380.09	65.54
380.28	126.39
380.48	198.95
380.68	156.82
380.87	67.88
381.07	145.11
381.26	128.73
381.46	201.29
381.65	107.66
381.85	126.39
382.04	140.43
382.24	161.50
382.43	126.39
382.63	84.26
382.83	159.16
383.02	72.56
383.22	159.16
383.41	159.16
383.61	126.39
383.80	110.01
384.00	177.88
384.19	98.30
384.39	205.97
384.58	163.84
384.78	191.92
384.97	135.75
385.17	149.79
385.36	77.24
385.56	154.48
385.75	121.71
385.95	163.84
386.14	161.50
386.34	194.26
386.53	170.86
386.72	135.75
386.92	175.54
387.11	133.41
387.31	217.67
387.50	124.05
387.70	173.20
387.89	196.60
388.09	91.28
388.28	124.05
388.48	114.69
388.67	102.98
388.86	107.66
389.06	126.39
389.25	159.16
389.45	133.41
389.64	102.98
389.84	184.90
390.03	117.03
390.22	28.09
390.42	170.86
390.61	93.62
390.81	182.56
391.00	133.41
391.19	227.03
391.39	84.26
391.58	177.88
391.78	124.05
391.97	170.86
392.16	163.84
392.36	166.18
392.55	98.30
392.75	177.88
392.94	114.69
393.13	166.18
393.33	182.56
393.52	142.77
393.71	173.20
393.91	177.88
394.10	110.01
394.29	147.45
394.49	238.73
394.68	243.42
394.88	191.92
395.07	205.97
395.26	128.73
395.46	149.79
395.65	107.66
395.84	173.20
396.04	191.92
396.23	220.01
396.42	168.52
396.62	131.07
396.81	142.77
397.00	114.69
397.19	100.64
397.39	156.82
397.58	168.52
397.77	135.75
397.97	88.94
398.16	154.48
398.35	205.97
398.55	163.84
398.74	114.69
398.93	126.39
399.12	142.77
399.32	135.75
399.51	173.20
399.70	236.39
399.90	140.43
400.09	154.48
400.28	138.09
400.47	154.48
400.67	248.10
400.86	102.98
401.05	163.84
401.24	142.77
401.44	189.58
401.63	149.79
401.82	154.48
402.01	86.60
402.21	187.24
402.40	184.90
402.59	74.90
402.78	133.41
402.97	138.09
403.17	264.48
403.36	177.88
403.55	154.48
403.74	196.60
403.93	163.84
404.13	264.48
404.32	252.78
404.51	198.95
404.70	217.67
404.89	187.24
405.09	177.88
405.28	191.92
405.47	191.92
405.66	117.03
405.85	114.69
406.05	135.75
406.24	182.56
406.43	119.37
406.62	63.19
406.81	252.78
407.00	112.35
407.20	187.24
407.39	203.63
407.58	156.82
407.77	147.45
407.96	175.54
408.15	138.09
408.34	189.58
408.54	187.24
408.73	177.88
408.92	135.75
409.11	126.39
409.30	112.35
409.49	159.16
409.68	140.43
409.87	182.56
410.07	133.41
410.26	156.82
410.45	126.39
410.64	177.88
410.83	215.33
411.02	86.60
411.21	81.92
411.40	72.56
411.59	147.45
411.78	149.79
411.98	147.45
412.17	126.39
412.36	149.79
412.55	203.63
412.74	170.86
412.93	208.31
413.12	140.43
413.31	126.39
413.50	140.43
413.69	215.33
413.88	145.11
414.07	152.13
414.26	201.29
414.45	121.71
414.64	168.52
414.83	196.60
415.02	161.50
415.22	173.20
415.41	187.24
415.60	241.08
415.79	180.22
415.98	212.99
416.17	210.65
416.36	135.75
416.55	149.79
416.74	180.22
416.93	229.37
417.12	180.22
417.31	126.39
417.50	117.03
417.69	215.33
417.88	243.42
418.07	210.65
418.26	287.89
418.45	241.08
418.64	224.69
418.83	234.05
419.02	283.20
419.21	201.29
419.39	212.99
419.58	210.65
419.77	168.52
419.96	203.63
420.15	259.80
420.34	154.48
420.53	210.65
420.72	133.41
420.91	205.97
421.10	191.92
421.29	166.18
421.48	142.77
421.67	227.03
421.86	184.90
422.05	145.11
422.24	126.39
422.43	173.20
422.61	229.37
422.80	173.20
422.99	191.92
423.18	138.09
423.37	138.09
423.56	170.86
423.75	182.56
423.94	159.16
424.13	149.79
424.32	212.99
424.50	210.65
424.69	156.82
424.88	191.92
425.07	140.43
425.26	196.60
425.45	273.84
425.64	259.80
425.83	215.33
426.01	182.56
426.20	210.65
426.39	198.95
426.58	142.77
426.77	205.97
426.96	241.08
427.15	149.79
427.33	191.92
427.52	168.52
427.71	212.99
427.90	180.22
428.09	161.50
428.28	135.75
428.46	198.95
428.65	133.41
428.84	72.56
429.03	173.20
429.22	154.48
429.40	86.60
429.59	140.43
429.78	227.03
429.97	112.35
430.16	210.65
430.34	198.95
430.53	189.58
430.72	182.56
430.91	227.03
431.10	91.28
431.28	161.50
431.47	163.84
431.66	170.86
431.85	149.79
432.03	196.60
432.22	212.99
432.41	210.65
432.60	222.35
432.79	102.98
432.97	285.55
433.16	304.27
433.35	255.12
433.54	156.82
433.72	194.26
433.91	266.82
434.10	220.01
434.28	177.88
434.47	170.86
434.66	217.67
434.85	177.88
435.03	201.29
435.22	299.59
435.41	414.27
435.59	325.33
435.78	355.76
435.97	245.76
436.16	217.67
436.34	105.32
436.53	135.75
436.72	184.90
436.90	173.20
437.09	196.60
437.28	149.79
437.46	196.60
437.65	166.18
437.84	124.05
438.02	163.84
438.21	180.22
438.40	191.92
438.58	110.01
438.77	212.99
438.96	126.39
439.14	229.37
439.33	220.01
439.52	138.09
439.70	191.92
439.89	196.60
440.08	236.39
440.26	184.90
440.45	255.12
440.63	198.95
440.82	205.97
441.01	142.77
441.19	159.16
441.38	161.50
441.57	182.56
441.75	210.65
441.94	227.03
442.12	236.39
442.31	198.95
442.50	212.99
442.68	180.22
442.87	126.39
443.05	217.67
443.24	180.22
443.43	243.42
443.61	191.92
443.80	198.95
443.98	231.71
444.17	114.69
444.35	229.37
444.54	145.11
444.73	156.82
444.91	154.48
445.10	159.16
445.28	124.05
445.47	210.65
445.65	149.79
445.84	201.29
446.02	88.94
446.21	128.73
446.39	168.52
446.58	196.60
446.77	163.84
446.95	140.43
447.14	229.37
447.32	234.05
447.51	243.42
447.69	191.92
447.88	205.97
448.06	290.23
448.25	173.20
448.43	154.48
448.62	135.75
448.80	217.67
448.99	198.95
449.17	180.22
449.36	182.56
449.54	140.43
449.73	191.92
449.91	252.78
450.10	201.29
450.28	210.65
450.46	264.48
450.65	234.05
450.83	220.01
451.02	241.08
451.20	201.29
451.39	217.67
451.57	220.01
451.76	170.86
451.94	180.22
452.13	236.39
452.31	224.69
452.49	215.33
452.68	208.31
452.86	236.39
453.05	201.29
453.23	187.24
453.42	224.69
453.60	220.01
453.78	168.52
453.97	222.35
454.15	168.52
454.34	208.31
454.52	156.82
454.70	271.50
454.89	201.29
455.07	173.20
455.26	231.71
455.44	273.84
455.62	154.48
455.81	100.64
455.99	191.92
456.17	180.22
456.36	241.08
456.54	205.97
456.73	182.56
456.91	170.86
457.09	170.86
457.28	243.42
457.46	297.25
457.64	184.90
457.83	184.90
458.01	198.95
458.19	217.67
458.38	189.58
458.56	224.69
458.74	229.37
458.93	196.60
459.11	189.58
459.29	198.95
459.48	205.97
459.66	173.20
459.84	238.73
460.03	166.18
460.21	266.82
460.39	170.86
460.57	280.86
460.76	175.54
460.94	205.97
461.12	255.12
461.31	252.78
461.49	182.56
461.67	266.82
461.85	248.10
462.04	208.31
462.22	641.31
462.40	212.99
462.59	159.16
462.77	227.03
462.95	196.60
463.13	222.35
463.32	177.88
463.50	196.60
463.68	248.10
463.86	142.77
464.05	177.88
464.23	163.84
464.41	271.50
464.59	205.97
464.78	147.45
464.96	131.07
465.14	168.52
465.32	184.90
465.50	248.10
465.69	201.29
465.87	177.88
466.05	177.88
466.23	138.09
466.41	170.86
466.60	159.16
466.78	220.01
466.96	238.73
467.14	243.42
467.32	189.58
467.51	189.58
467.69	177.88
467.87	250.44
468.05	210.65
468.23	236.39
468.41	241.08
468.60	177.88
468.78	208.31
468.96	133.41
469.14	290.23
469.32	191.92
469.50	156.82
469.69	222.35
469.87	252.78
470.05	266.82
470.23	210.65
470.41	124.05
470.59	175.54
470.77	241.08
470.95	269.16
471.14	210.65
471.32	128.73
471.50	273.84
471.68	224.69
471.86	194.26
472.04	126.39
472.22	234.05
472.40	74.90
472.58	203.63
472.77	198.95
472.95	220.01
473.13	212.99
473.31	163.84
473.49	238.73
473.67	175.54
473.85	205.97
474.03	243.42
474.21	175.54
474.39	234.05
474.57	292.57
474.75	266.82
474.93	212.99
475.12	154.48
475.30	182.56
475.48	217.67
475.66	149.79
475.84	231.71
476.02	220.01
476.20	135.75
476.38	86.60
476.56	205.97
476.74	231.71
476.92	187.24
477.10	142.77
477.28	114.69
477.46	168.52
477.64	205.97
477.82	227.03
478.00	220.01
478.18	184.90
478.36	224.69
478.54	257.46
478.72	208.31
478.90	248.10
479.08	264.48
479.26	184.90
479.44	234.05
479.62	250.44
479.80	166.18
479.98	124.05
480.16	208.31
480.34	196.60
480.52	222.35
480.70	248.10
480.88	191.92
481.06	220.01
481.24	180.22
481.41	234.05
481.59	215.33
481.77	201.29
481.95	255.12
482.13	255.12
482.31	212.99
482.49	187.24
482.67	273.84
482.85	210.65
483.03	149.79
483.21	276.18
483.39	259.80
483.57	318.31
483.74	283.20
483.92	245.76
484.10	231.71
484.28	294.91
484.46	262.14
484.64	252.78
484.82	297.25
485.00	231.71
485.18	278.52
485.35	210.65
485.53	182.56
485.71	227.03
485.89	175.54
486.07	262.14
486.25	245.76
486.43	241.08
486.61	196.60
486.78	236.39
486.96	184.90
487.14	271.50
487.32	245.76
487.50	227.03
487.68	313.63
487.85	334.70
488.03	269.16
488.21	205.97
488.39	236.39
488.57	285.55
488.75	271.50
488.92	411.93
489.10	177.88
489.28	252.78
489.46	245.76
489.64	163.84
489.81	222.35
489.99	215.33
490.17	212.99
490.35	313.63
490.53	173.20
490.70	220.01
490.88	245.76
491.06	234.05
491.24	259.80
491.41	273.84
491.59	255.12
491.77	142.77
491.95	278.52
492.13	332.36
492.30	227.03
492.48	276.18
492.66	276.18
492.84	287.89
493.01	287.89
493.19	208.31
493.37	322.99
493.54	252.78
493.72	278.52
493.90	276.18
494.08	238.73
494.25	362.78
494.43	180.22
494.61	248.10
494.79	220.01
494.96	243.42
495.14	271.50
495.32	287.89
495.49	196.60
495.67	245.76
495.85	224.69
496.02	203.63
496.20	299.59
496.38	234.05
496.55	248.10
496.73	215.33
496.91	264.48
497.09	196.60
497.26	262.14
497.44	229.37
497.62	227.03
497.79	276.18
497.97	255.12
498.14	304.27
498.32	341.72
498.50	315.97
498.67	177.88
498.85	248.10
499.03	222.35
499.20	231.71
499.38	269.16
499.56	191.92
499.73	301.93
499.91	266.82
500.08	220.01
500.26	189.58
500.44	248.10
500.61	241.08
500.79	255.12
500.97	304.27
501.14	327.68
501.32	234.05
501.49	238.73
501.67	163.84
501.84	276.18
502.02	234.05
502.20	327.68
502.37	248.10
502.55	175.54
502.72	287.89
502.90	320.65
503.07	341.72
503.25	262.14
503.43	231.71
503.60	243.42
503.78	273.84
503.95	285.55
504.13	250.44
504.30	215.33
504.48	248.10
504.65	255.12
504.83	266.82
505.01	276.18
505.18	318.31
505.36	250.44
505.53	201.29
505.71	248.10
505.88	292.57
506.06	257.46
506.23	184.90
506.41	280.86
506.58	311.29
506.76	262.14
506.93	177.88
507.11	308.95
507.28	236.39
507.46	224.69
507.63	320.65
507.81	255.12
507.98	259.80
508.16	198.95
508.33	271.50
508.50	252.78
508.68	252.78
508.85	245.76
509.03	217.67
509.20	259.80
509.38	227.03
509.55	266.82
509.73	360.44
509.90	308.95
510.08	262.14
510.25	227.03
510.42	290.23
510.60	250.44
510.77	315.97
510.95	278.52
511.12	311.29
511.30	332.36
511.47	292.57
511.64	306.61
511.82	201.29
511.99	283.20
512.17	299.59
512.34	304.27
512.51	290.23
512.69	215.33
512.86	278.52
513.04	229.37
513.21	234.05
513.38	238.73
513.56	301.93
513.73	290.23
513.90	276.18
514.08	280.86
514.25	311.29
514.43	257.46
514.60	278.52
514.77	327.68
514.95	294.91
515.12	243.42
515.29	205.97
515.47	278.52
515.64	278.52
515.81	203.63
515.99	304.27
516.16	294.91
516.33	210.65
516.51	252.78
516.68	301.93
516.85	259.80
517.03	255.12
517.20	283.20
517.37	262.14
517.54	308.95
517.72	320.65
517.89	238.73
518.06	262.14
518.24	285.55
518.41	367.46
518.58	362.78
518.75	245.76
518.93	297.25
519.10	290.23
519.27	184.90
519.45	332.36
519.62	220.01
519.79	250.44
519.96	241.08
520.14	257.46
520.31	280.86
520.48	299.59
520.65	262.14
520.83	299.59
521.00	325.33
521.17	215.33
521.34	313.63
521.52	241.08
521.69	229.37
521.86	318.31
522.03	297.25
522.20	229.37
522.38	306.61
522.55	220.01
522.72	241.08
522.89	234.05
523.07	313.63
523.24	273.84
523.41	243.42
523.58	250.44
523.75	231.71
523.92	262.14
524.10	262.14
524.27	262.14
524.44	322.99
524.61	264.48
524.78	220.01
524.96	236.39
525.13	257.46
525.30	315.97
525.47	304.27
525.64	264.48
525.81	276.18
525.98	243.42
526.16	241.08
526.33	266.82
526.50	196.60
526.67	168.52
526.84	299.59
527.01	234.05
527.18	283.20
527.36	304.27
527.53	252.78
527.70	346.40
527.87	278.52
528.04	322.99
528.21	325.33
528.38	245.76
528.55	250.44
528.72	341.72
528.89	285.55
529.07	311.29
529.24	290.23
529.41	337.04
529.58	327.68
529.75	313.63
529.92	259.80
530.09	287.89
530.26	294.91
530.43	271.50
530.60	257.46
530.77	243.42
530.94	348.74
531.11	376.83
531.28	241.08
531.46	276.18
531.63	292.57
531.80	299.59
531.97	243.42
532.14	304.27
532.31	367.46
532.48	320.65
532.65	414.27
532.82	456.40
532.99	456.40
533.16	404.91
533.33	386.19
533.50	348.74
533.67	358.10
533.84	437.68
534.01	507.90
534.18	440.02
534.35	365.12
534.52	344.06
534.69	257.46
534.86	259.80
535.03	238.73
535.20	238.73
535.37	313.63
535.54	278.52
535.71	266.82
535.88	266.82
536.05	334.70
536.22	351.08
536.38	337.04
536.55	397.89
536.72	306.61
536.89	297.25
537.06	290.23
537.23	360.44
537.40	337.04
537.57	243.42
537.74	271.50
537.91	330.02
538.08	290.23
538.25	308.95
538.42	259.80
538.59	344.06
538.75	351.08
538.92	325.33
539.09	320.65
539.26	376.83
539.43	608.54
539.60	1224.10
539.77	1863.07
539.94	1771.79
540.11	1224.10
540.28	863.66
540.44	631.94
540.61	421.30
540.78	414.27
540.95	479.81
541.12	500.87
541.29	554.71
541.46	482.15
541.62	531.30
541.79	552.37
541.96	458.74
542.13	489.17
542.30	444.70
542.47	454.06
542.63	440.02
542.80	512.58
542.97	470.45
543.14	456.40
543.31	444.70
543.48	421.30
543.64	442.36
543.81	458.74
543.98	484.49
544.15	528.96
544.32	489.17
544.48	456.40
544.65	440.02
544.82	456.40
544.99	498.53
545.16	477.47
545.32	554.71
545.49	763.01
545.66	814.51
545.83	961.96
546.00	858.98
546.16	610.88
546.33	615.56
546.50	547.69
546.67	423.64
546.83	433.00
547.00	416.62
547.17	337.04
547.34	381.51
547.50	395.55
547.67	444.70
547.84	425.98
548.00	273.84
548.17	346.40
548.34	337.04
548.51	402.57
548.67	397.89
548.84	362.78
549.01	362.78
549.18	339.38
549.34	351.08
549.51	308.95
549.68	414.27
549.84	339.38
550.01	337.04
550.18	470.45
550.34	372.15
550.51	322.99
550.68	381.51
550.84	383.85
551.01	294.91
551.18	318.31
551.34	330.02
551.51	271.50
551.68	376.83
551.84	285.55
552.01	334.70
552.18	238.73
552.34	362.78
552.51	346.40
552.68	224.69
552.84	294.91
553.01	245.76
553.18	320.65
553.34	269.16
553.51	248.10
553.67	311.29
553.84	234.05
554.01	322.99
554.17	346.40
554.34	241.08
554.51	330.02
554.67	292.57
554.84	292.57
555.00	215.33
555.17	224.69
555.33	243.42
555.50	238.73
555.67	360.44
555.83	311.29
556.00	294.91
556.16	374.49
556.33	283.20
556.50	269.16
556.66	259.80
556.83	269.16
556.99	346.40
557.16	248.10
557.32	191.92
557.49	257.46
557.65	292.57
557.82	238.73
557.98	257.46
558.15	224.69
558.32	250.44
558.48	201.29
558.65	306.61
558.81	259.80
558.98	236.39
559.14	283.20
559.31	308.95
559.47	271.50
559.64	266.82
559.80	308.95
559.97	264.48
560.13	283.20
560.30	255.12
560.46	257.46
560.63	245.76
560.79	278.52
560.96	276.18
561.12	262.14
561.29	299.59
561.45	325.33
561.61	255.12
561.78	355.76
561.94	236.39
562.11	245.76
562.27	252.78
562.44	304.27
562.60	280.86
562.77	229.37
562.93	346.40
563.10	322.99
563.26	243.42
563.42	365.12
563.59	255.12
563.75	217.67
563.92	325.33
564.08	257.46
564.24	334.70
564.41	362.78
564.57	222.35
564.74	241.08
564.90	290.23
565.07	294.91
565.23	334.70
565.39	313.63
565.56	365.12
565.72	339.38
565.88	287.89
566.05	283.20
566.21	264.48
566.38	283.20
566.54	248.10
566.70	250.44
566.87	276.18
567.03	196.60
567.19	280.86
567.36	257.46
567.52	250.44
567.68	365.12
567.85	280.86
568.01	259.80
568.17	278.52
568.34	339.38
568.50	353.42
568.66	198.95
568.83	367.46
568.99	241.08
569.15	266.82
569.32	245.76
569.48	243.42
569.64	161.50
569.81	346.40
569.97	259.80
570.13	355.76
570.30	276.18
570.46	234.05
570.62	252.78
570.78	222.35
570.95	227.03
571.11	285.55
571.27	393.21
571.43	322.99
571.60	327.68
571.76	287.89
571.92	259.80
572.09	224.69
572.25	337.04
572.41	220.01
572.57	252.78
572.74	285.55
572.90	271.50
573.06	301.93
573.22	262.14
573.38	304.27
573.55	306.61
573.71	262.14
573.87	367.46
574.03	252.78
574.20	301.93
574.36	339.38
574.52	346.40
574.68	365.12
574.84	318.31
575.01	318.31
575.17	301.93
575.33	245.76
575.49	276.18
575.65	325.33
575.82	351.08
575.98	582.79
576.14	805.14
576.30	868.34
576.46	730.25
576.62	552.37
576.79	547.69
576.95	440.02
577.11	393.21
577.27	397.89
577.43	266.82
577.59	430.66
577.75	294.91
577.92	259.80
578.08	318.31
578.24	250.44
578.40	390.87
578.56	395.55
578.72	435.34
578.88	418.96
579.04	320.65
579.21	341.72
579.37	374.49
579.53	430.66
579.69	386.19
579.85	383.85
580.01	458.74
580.17	447.04
580.33	524.28
580.49	512.58
580.65	416.62
580.82	402.57
580.98	400.23
581.14	332.36
581.30	500.87
581.46	550.03
581.62	795.78
581.78	748.97
581.94	755.99
582.10	587.47
582.26	566.41
582.42	470.45
582.58	510.24
582.74	547.69
582.90	559.39
583.06	538.32
583.22	519.60
583.38	507.90
583.54	559.39
583.70	777.06
583.86	788.76
584.02	929.19
584.18	1071.97
584.34	1437.09
584.50	3595.06
584.66	27126.81
584.82	59267.05
584.98	65535.00
585.14	65535.00
585.30	52783.76
585.46	33347.95
585.62	20692.68
585.78	9488.53
585.94	3733.15
586.10	1830.30
586.26	1233.46
586.42	929.19
586.58	795.78
586.74	812.17
586.90	791.10
587.06	809.83
587.22	702.16
587.38	653.01
587.54	1373.89
587.70	4044.45
587.86	6321.79
588.02	7190.13
588.18	5156.20
588.34	3288.45
588.49	2228.19
588.65	1315.38
588.81	767.70
588.97	470.45
589.13	449.38
589.29	355.76
589.45	404.91
589.61	355.76
589.77	535.98
589.93	430.66
590.08	531.30
590.24	521.94
590.40	482.15
590.56	491.51
590.72	512.58
590.88	447.04
591.04	411.93
591.20	379.17
591.35	402.57
591.51	430.66
591.67	414.27
591.83	430.66
591.99	400.23
592.15	386.19
592.31	444.70
592.46	299.59
592.62	397.89
592.78	461.09
592.94	423.64
593.10	465.77
593.26	397.89
593.41	444.70
593.57	486.83
593.73	685.78
593.89	3234.62
594.05	8306.56
594.20	12400.16
594.36	11810.34
594.52	7573.97
594.68	4791.08
594.84	3309.52
594.99	1755.40
595.15	840.25
595.31	484.49
595.47	503.22
595.62	512.58
595.78	421.30
595.94	421.30
596.10	477.47
596.25	379.17
596.41	477.47
596.57	376.83
596.73	372.15
596.88	657.69
597.04	1607.95
597.20	2663.53
597.36	3103.55
597.51	2319.47
597.67	1675.82
597.83	1170.27
597.99	896.43
598.14	517.26
598.30	386.19
598.46	400.23
598.61	489.17
598.77	411.93
598.93	435.34
599.09	395.55
599.24	369.80
599.40	358.10
599.56	330.02
599.71	400.23
599.87	311.29
600.03	330.02
600.18	330.02
600.34	266.82
600.50	301.93
600.65	308.95
600.81	306.61
600.97	259.80
601.12	332.36
601.28	355.76
601.44	250.44
601.59	348.74
601.75	313.63
601.91	334.70
602.06	337.04
602.22	421.30
602.37	795.78
602.53	1949.67
602.69	2904.60
602.84	3185.47
603.00	2303.09
603.16	1572.84
603.31	1116.44
603.47	800.46
603.62	456.40
603.78	386.19
603.94	402.57
604.09	372.15
604.25	266.82
604.40	351.08
604.56	414.27
604.71	283.20
604.87	290.23
605.03	280.86
605.18	379.17
605.34	372.15
605.49	411.93
605.65	456.40
605.80	259.80
605.96	369.80
606.12	325.33
606.27	334.70
606.43	475.13
606.58	365.12
606.74	954.94
606.89	3754.22
607.05	7852.50
607.20	10480.92
607.36	8655.30
607.51	5949.64
607.67	3889.97
607.82	2572.25
607.98	1453.47
608.13	805.14
608.29	554.71
608.44	552.37
608.60	564.07
608.75	620.24
608.91	1373.89
609.06	6059.65
609.22	13420.63
609.37	18279.58
609.53	16126.29
609.68	10633.05
609.84	6913.94
609.99	4594.47
