SpectraSuite Data File
++++++++++++++++++++++++++++++++++++
Date: Fri Oct 04 12:13:33 GMT-05:00 2013
User: price-jones
Dark Spectrum Present: No
Reference Spectrum Present: No
Number of Sampled Component Spectra: 1
Spectrometers: USB2+H05261
Integration Time (usec): 10000 (USB2+H05261)
Spectra Averaged: 1 (USB2+H05261)
Boxcar Smoothing: 0 (USB2+H05261)
Correct for Electrical Dark: No (USB2+H05261)
Strobe/Lamp Enabled: No (USB2+H05261)
Correct for Detector Non-linearity: No (USB2+H05261)
Correct for Stray Light: No (USB2+H05261)
Number of Pixels in Processed Spectrum: 2048
>>>>>Begin Processed Spectral Data<<<<<
365.73	0.00
365.92	0.00
366.12	0.00
366.32	0.00
366.52	0.00
366.72	0.00
366.91	0.00
367.11	0.00
367.31	0.00
367.51	0.00
367.70	0.00
367.90	0.00
368.10	0.00
368.30	0.00
368.49	0.00
368.69	0.00
368.89	0.00
369.09	0.00
369.28	0.00
369.48	0.00
369.68	0.00
369.87	0.00
370.07	0.00
370.27	0.00
370.47	7.02
370.66	0.00
370.86	0.00
371.06	0.00
371.25	14.04
371.45	23.41
371.65	11.70
371.84	25.75
372.04	0.00
372.24	11.70
372.44	128.73
372.63	23.41
372.83	28.09
373.03	74.90
373.22	93.62
373.42	95.96
373.62	56.17
373.81	86.60
374.01	39.79
374.21	74.90
374.40	44.47
374.60	91.28
374.79	102.98
374.99	84.26
375.19	117.03
375.38	51.49
375.58	81.92
375.78	23.41
375.97	152.13
376.17	88.94
376.37	128.73
376.56	88.94
376.76	74.90
376.95	46.81
377.15	81.92
377.35	114.69
377.54	98.30
377.74	39.79
377.93	60.85
378.13	74.90
378.33	138.09
378.52	102.98
378.72	51.49
378.91	138.09
379.11	46.81
379.31	112.35
379.50	79.58
379.70	77.24
379.89	93.62
380.09	65.54
380.28	126.39
380.48	117.03
380.68	53.83
380.87	72.56
381.07	63.19
381.26	53.83
381.46	131.07
381.65	51.49
381.85	56.17
382.04	65.54
382.24	18.72
382.43	32.77
382.63	18.72
382.83	14.04
383.02	32.77
383.22	11.70
383.41	53.83
383.61	91.28
383.80	88.94
384.00	91.28
384.19	88.94
384.39	98.30
384.58	105.32
384.78	149.79
384.97	110.01
385.17	30.43
385.36	56.17
385.56	102.98
385.75	74.90
385.95	91.28
386.14	110.01
386.34	49.15
386.53	159.16
386.72	105.32
386.92	74.90
387.11	107.66
387.31	46.81
387.50	105.32
387.70	168.52
387.89	42.13
388.09	114.69
388.28	23.41
388.48	16.38
388.67	81.92
388.86	91.28
389.06	126.39
389.25	170.86
389.45	147.45
389.64	145.11
389.84	121.71
390.03	121.71
390.22	81.92
390.42	107.66
390.61	105.32
390.81	93.62
391.00	182.56
391.19	152.13
391.39	177.88
391.58	21.06
391.78	84.26
391.97	79.58
392.16	93.62
392.36	86.60
392.55	72.56
392.75	86.60
392.94	16.38
393.13	23.41
393.33	44.47
393.52	112.35
393.71	102.98
393.91	112.35
394.10	88.94
394.29	154.48
394.49	166.18
394.68	44.47
394.88	163.84
395.07	161.50
395.26	112.35
395.46	112.35
395.65	93.62
395.84	58.51
396.04	124.05
396.23	60.85
396.42	7.02
396.62	98.30
396.81	84.26
397.00	102.98
397.19	100.64
397.39	140.43
397.58	133.41
397.77	133.41
397.97	88.94
398.16	252.78
398.35	198.95
398.55	149.79
398.74	189.58
398.93	140.43
399.12	149.79
399.32	159.16
399.51	184.90
399.70	147.45
399.90	205.97
400.09	210.65
400.28	166.18
400.47	262.14
400.67	222.35
400.86	191.92
401.05	95.96
401.24	133.41
401.44	166.18
401.63	220.01
401.82	280.86
402.01	252.78
402.21	159.16
402.40	227.03
402.59	229.37
402.78	152.13
402.97	215.33
403.17	201.29
403.36	142.77
403.55	241.08
403.74	175.54
403.93	224.69
404.13	175.54
404.32	154.48
404.51	227.03
404.70	227.03
404.89	227.03
405.09	182.56
405.28	177.88
405.47	208.31
405.66	250.44
405.85	140.43
406.05	168.52
406.24	170.86
406.43	170.86
406.62	236.39
406.81	215.33
407.00	266.82
407.20	184.90
407.39	241.08
407.58	287.89
407.77	175.54
407.96	234.05
408.15	217.67
408.34	210.65
408.54	184.90
408.73	224.69
408.92	149.79
409.11	229.37
409.30	252.78
409.49	128.73
409.68	142.77
409.87	224.69
410.07	177.88
410.26	159.16
410.45	159.16
410.64	229.37
410.83	231.71
411.02	182.56
411.21	234.05
411.40	248.10
411.59	238.73
411.78	236.39
411.98	252.78
412.17	196.60
412.36	210.65
412.55	234.05
412.74	234.05
412.93	177.88
413.12	290.23
413.31	304.27
413.50	259.80
413.69	238.73
413.88	257.46
414.07	215.33
414.26	320.65
414.45	238.73
414.64	271.50
414.83	269.16
415.02	210.65
415.22	210.65
415.41	231.71
415.60	196.60
415.79	280.86
415.98	311.29
416.17	283.20
416.36	259.80
416.55	348.74
416.74	257.46
416.93	290.23
417.12	250.44
417.31	264.48
417.50	234.05
417.69	224.69
417.88	187.24
418.07	210.65
418.26	208.31
418.45	315.97
418.64	280.86
418.83	318.31
419.02	252.78
419.21	227.03
419.39	241.08
419.58	327.68
419.77	180.22
419.96	304.27
420.15	278.52
420.34	262.14
420.53	238.73
420.72	365.12
420.91	266.82
421.10	355.76
421.29	313.63
421.48	271.50
421.67	255.12
421.86	248.10
422.05	332.36
422.24	241.08
422.43	238.73
422.61	304.27
422.80	220.01
422.99	264.48
423.18	224.69
423.37	278.52
423.56	355.76
423.75	330.02
423.94	257.46
424.13	220.01
424.32	341.72
424.50	215.33
424.69	217.67
424.88	283.20
425.07	264.48
425.26	311.29
425.45	273.84
425.64	180.22
425.83	273.84
426.01	273.84
426.20	318.31
426.39	215.33
426.58	217.67
426.77	217.67
426.96	243.42
427.15	191.92
427.33	201.29
427.52	292.57
427.71	283.20
427.90	222.35
428.09	292.57
428.28	301.93
428.46	283.20
428.65	257.46
428.84	236.39
429.03	231.71
429.22	175.54
429.40	266.82
429.59	252.78
429.78	184.90
429.97	257.46
430.16	159.16
430.34	210.65
430.53	238.73
430.72	238.73
430.91	154.48
431.10	234.05
431.28	299.59
431.47	269.16
431.66	285.55
431.85	334.70
432.03	278.52
432.22	262.14
432.41	250.44
432.60	262.14
432.79	330.02
432.97	287.89
433.16	365.12
433.35	369.80
433.54	271.50
433.72	273.84
433.91	252.78
434.10	255.12
434.28	283.20
434.47	339.38
434.66	287.89
434.85	285.55
435.03	271.50
435.22	285.55
435.41	248.10
435.59	292.57
435.78	346.40
435.97	306.61
436.16	283.20
436.34	362.78
436.53	346.40
436.72	355.76
436.90	318.31
437.09	327.68
437.28	313.63
437.46	236.39
437.65	315.97
437.84	360.44
438.02	273.84
438.21	280.86
438.40	285.55
438.58	327.68
438.77	292.57
438.96	287.89
439.14	348.74
439.33	362.78
439.52	280.86
439.70	376.83
439.89	306.61
440.08	337.04
440.26	341.72
440.45	278.52
440.63	285.55
440.82	327.68
441.01	297.25
441.19	297.25
441.38	358.10
441.57	423.64
441.75	346.40
441.94	367.46
442.12	315.97
442.31	330.02
442.50	315.97
442.68	299.59
442.87	397.89
443.05	346.40
443.24	358.10
443.43	369.80
443.61	311.29
443.80	372.15
443.98	283.20
444.17	297.25
444.35	393.21
444.54	421.30
444.73	411.93
444.91	341.72
445.10	388.53
445.28	290.23
445.47	346.40
445.65	334.70
445.84	327.68
446.02	337.04
446.21	332.36
446.39	376.83
446.58	374.49
446.77	273.84
446.95	362.78
447.14	369.80
447.32	369.80
447.51	379.17
447.69	379.17
447.88	367.46
448.06	376.83
448.25	362.78
448.43	327.68
448.62	407.25
448.80	355.76
448.99	374.49
449.17	334.70
449.36	369.80
449.54	397.89
449.73	418.96
449.91	369.80
450.10	327.68
450.28	416.62
450.46	444.70
450.65	365.12
450.83	433.00
451.02	421.30
451.20	407.25
451.39	332.36
451.57	386.19
451.76	334.70
451.94	327.68
452.13	369.80
452.31	362.78
452.49	278.52
452.68	388.53
452.86	400.23
453.05	332.36
453.23	332.36
453.42	299.59
453.60	407.25
453.78	365.12
453.97	400.23
454.15	374.49
454.34	376.83
454.52	400.23
454.70	397.89
454.89	435.34
455.07	290.23
455.26	444.70
455.44	386.19
455.62	341.72
455.81	360.44
455.99	360.44
456.17	421.30
456.36	407.25
456.54	423.64
456.73	404.91
456.91	383.85
457.09	418.96
457.28	404.91
457.46	386.19
457.64	365.12
457.83	402.57
458.01	353.42
458.19	407.25
458.38	390.87
458.56	330.02
458.74	376.83
458.93	440.02
459.11	395.55
459.29	379.17
459.48	339.38
459.66	355.76
459.84	369.80
460.03	402.57
460.21	379.17
460.39	418.96
460.57	395.55
460.76	407.25
460.94	528.96
461.12	353.42
461.31	437.68
461.49	423.64
461.67	444.70
461.85	468.11
462.04	276.18
462.22	400.23
462.40	372.15
462.59	477.47
462.77	393.21
462.95	444.70
463.13	411.93
463.32	348.74
463.50	353.42
463.68	337.04
463.86	430.66
464.05	447.04
464.23	360.44
464.41	407.25
464.59	449.38
464.78	463.43
464.96	351.08
465.14	386.19
465.32	444.70
465.50	409.59
465.69	470.45
465.87	440.02
466.05	435.34
466.23	433.00
466.41	379.17
466.60	383.85
466.78	411.93
466.96	374.49
467.14	374.49
467.32	414.27
467.51	393.21
467.69	348.74
467.87	411.93
468.05	411.93
468.23	402.57
468.41	381.51
468.60	458.74
468.78	433.00
468.96	416.62
469.14	376.83
469.32	402.57
469.50	330.02
469.69	428.32
469.87	390.87
470.05	301.93
470.23	491.51
470.41	393.21
470.59	444.70
470.77	313.63
470.95	411.93
471.14	430.66
471.32	442.36
471.50	407.25
471.68	475.13
471.86	437.68
472.04	463.43
472.22	491.51
472.40	400.23
472.58	379.17
472.77	411.93
472.95	360.44
473.13	437.68
473.31	381.51
473.49	433.00
473.67	409.59
473.85	447.04
474.03	517.26
474.21	393.21
474.39	423.64
474.57	465.77
474.75	442.36
474.93	425.98
475.12	416.62
475.30	337.04
475.48	386.19
475.66	519.60
475.84	437.68
476.02	444.70
476.20	425.98
476.38	416.62
476.56	449.38
476.74	437.68
476.92	390.87
477.10	465.77
477.28	507.90
477.46	444.70
477.64	557.05
477.82	433.00
478.00	489.17
478.18	486.83
478.36	498.53
478.54	489.17
478.72	479.81
478.90	451.72
479.08	477.47
479.26	440.02
479.44	571.09
479.62	489.17
479.80	479.81
479.98	491.51
480.16	479.81
480.34	491.51
480.52	550.03
480.70	409.59
480.88	500.87
481.06	397.89
481.24	564.07
481.41	573.43
481.59	554.71
481.77	442.36
481.95	486.83
482.13	571.09
482.31	519.60
482.49	580.45
482.67	535.98
482.85	463.43
483.03	538.32
483.21	500.87
483.39	550.03
483.57	538.32
483.74	493.85
483.92	580.45
484.10	552.37
484.28	585.13
484.46	521.94
484.64	533.64
484.82	519.60
485.00	608.54
485.18	486.83
485.35	507.90
485.53	489.17
485.71	454.06
485.89	416.62
486.07	491.51
486.25	512.58
486.43	547.69
486.61	496.19
486.78	449.38
486.96	531.30
487.14	585.13
487.32	514.92
487.50	528.96
487.68	526.62
487.85	564.07
488.03	648.33
488.21	578.11
488.39	575.77
488.57	538.32
488.75	599.18
488.92	617.90
489.10	538.32
489.28	615.56
489.46	624.92
489.64	669.39
489.81	650.67
489.99	587.47
490.17	580.45
490.35	685.78
490.53	601.52
490.70	589.82
490.88	683.44
491.06	650.67
491.24	638.97
491.41	603.86
491.59	671.73
491.77	550.03
491.95	631.94
492.13	645.99
492.30	746.63
492.48	688.12
492.66	706.84
492.84	667.05
493.01	730.25
493.19	662.37
493.37	720.88
493.54	617.90
493.72	660.03
493.90	667.05
494.08	795.78
494.25	650.67
494.43	720.88
494.61	739.61
494.79	662.37
494.96	690.46
495.14	718.54
495.32	709.18
495.49	730.25
495.67	751.31
495.85	730.25
496.02	739.61
496.20	805.14
496.38	760.67
496.55	697.48
496.73	774.72
496.91	720.88
497.09	786.42
497.26	781.74
497.44	767.70
497.62	718.54
497.79	699.82
497.97	697.48
498.14	711.52
498.32	770.04
498.50	690.46
498.67	734.93
498.85	674.07
499.03	793.44
499.20	786.42
499.38	704.50
499.56	770.04
499.73	760.67
499.91	739.61
500.08	704.50
500.26	772.38
500.44	737.27
500.61	737.27
500.79	704.50
500.97	784.08
501.14	685.78
501.32	706.84
501.49	678.76
501.67	678.76
501.84	718.54
502.02	739.61
502.20	802.80
502.37	730.25
502.55	760.67
502.72	856.64
502.90	877.70
503.07	734.93
503.25	653.01
503.43	662.37
503.60	741.95
503.78	596.84
503.95	697.48
504.13	662.37
504.30	732.59
504.48	763.01
504.65	744.29
504.83	798.12
505.01	828.55
505.18	786.42
505.36	706.84
505.53	849.61
505.71	800.46
505.88	798.12
506.06	774.72
506.23	793.44
506.41	774.72
506.58	718.54
506.76	695.14
506.93	730.25
507.11	767.70
507.28	739.61
507.46	723.23
507.63	734.93
507.81	695.14
507.98	744.29
508.16	791.10
508.33	763.01
508.50	737.27
508.68	819.19
508.85	814.51
509.03	737.27
509.20	758.33
509.38	807.48
509.55	765.36
509.73	814.51
509.90	784.08
510.08	805.14
510.25	823.87
510.42	884.72
510.60	786.42
510.77	819.19
510.95	805.14
511.12	884.72
511.30	779.40
511.47	840.25
511.64	833.23
511.82	751.31
511.99	711.52
512.17	706.84
512.34	788.76
512.51	751.31
512.69	809.83
512.86	765.36
513.04	786.42
513.21	753.65
513.38	725.57
513.56	720.88
513.73	779.40
513.90	770.04
514.08	734.93
514.25	800.46
514.43	844.93
514.60	730.25
514.77	828.55
514.95	767.70
515.12	767.70
515.29	765.36
515.47	837.91
515.64	697.48
515.81	788.76
515.99	802.80
516.16	702.16
516.33	613.22
516.51	683.44
516.68	571.09
516.85	648.33
517.03	582.79
517.20	755.99
517.37	760.67
517.54	709.18
517.72	772.38
517.89	699.82
518.06	690.46
518.24	699.82
518.41	685.78
518.58	641.31
518.75	739.61
518.93	849.61
519.10	800.46
519.27	777.06
519.45	798.12
519.62	830.89
519.79	856.64
519.96	856.64
520.14	837.91
520.31	758.33
520.48	753.65
520.65	753.65
520.83	767.70
521.00	912.81
521.17	844.93
521.34	802.80
521.52	849.61
521.69	828.55
521.86	830.89
522.03	847.27
522.20	781.74
522.38	798.12
522.55	702.16
522.72	823.87
522.89	837.91
523.07	755.99
523.24	798.12
523.41	791.10
523.58	802.80
523.75	873.02
523.92	795.78
524.10	744.29
524.27	870.68
524.44	854.30
524.61	851.96
524.78	704.50
524.96	844.93
525.13	854.30
525.30	699.82
525.47	751.31
525.64	849.61
525.81	755.99
525.98	699.82
526.16	847.27
526.33	718.54
526.50	704.50
526.67	758.33
526.84	699.82
527.01	730.25
527.18	793.44
527.36	741.95
527.53	774.72
527.70	781.74
527.87	805.14
528.04	830.89
528.21	753.65
528.38	851.96
528.55	784.08
528.72	905.79
528.89	875.36
529.07	851.96
529.24	884.72
529.41	915.15
529.58	758.33
529.75	744.29
529.92	777.06
530.09	788.76
530.26	875.36
530.43	777.06
530.60	758.33
530.77	856.64
530.94	828.55
531.11	866.00
531.28	807.48
531.46	875.36
531.63	823.87
531.80	835.57
531.97	786.42
532.14	779.40
532.31	793.44
532.48	741.95
532.65	802.80
532.82	784.08
532.99	812.17
533.16	837.91
533.33	784.08
533.50	795.78
533.67	772.38
533.84	706.84
534.01	744.29
534.18	840.25
534.35	868.34
534.52	788.76
534.69	842.59
534.86	884.72
535.03	816.85
535.20	784.08
535.37	802.80
535.54	760.67
535.71	875.36
535.88	821.53
536.05	884.72
536.22	828.55
536.38	777.06
536.55	770.04
536.72	774.72
536.89	725.57
537.06	744.29
537.23	828.55
537.40	844.93
537.57	800.46
537.74	777.06
537.91	760.67
538.08	870.68
538.25	891.74
538.42	791.10
538.59	807.48
538.75	805.14
538.92	800.46
539.09	753.65
539.26	751.31
539.43	786.42
539.60	765.36
539.77	763.01
539.94	760.67
540.11	786.42
540.28	798.12
540.44	718.54
540.61	734.93
540.78	781.74
540.95	718.54
541.12	751.31
541.29	720.88
541.46	840.25
541.62	791.10
541.79	765.36
541.96	844.93
542.13	734.93
542.30	755.99
542.47	781.74
542.63	655.35
542.80	784.08
542.97	720.88
543.14	744.29
543.31	755.99
543.48	814.51
543.64	751.31
543.81	807.48
543.98	847.27
544.15	835.57
544.32	814.51
544.48	812.17
544.65	807.48
544.82	760.67
544.99	807.48
545.16	873.02
545.32	744.29
545.49	847.27
545.66	772.38
545.83	903.45
546.00	758.33
546.16	788.76
546.33	709.18
546.50	770.04
546.67	833.23
546.83	863.66
547.00	755.99
547.17	699.82
547.34	730.25
547.50	774.72
547.67	765.36
547.84	772.38
548.00	765.36
548.17	802.80
548.34	814.51
548.51	725.57
548.67	800.46
548.84	807.48
549.01	901.11
549.18	868.34
549.34	809.83
549.51	720.88
549.68	835.57
549.84	699.82
550.01	791.10
550.18	734.93
550.34	823.87
550.51	795.78
550.68	770.04
550.84	802.80
551.01	709.18
551.18	734.93
551.34	791.10
551.51	777.06
551.68	725.57
551.84	758.33
552.01	807.48
552.18	704.50
552.34	781.74
552.51	765.36
552.68	748.97
552.84	770.04
553.01	709.18
553.18	786.42
553.34	732.59
553.51	760.67
553.67	842.59
553.84	755.99
554.01	784.08
554.17	718.54
554.34	718.54
554.51	788.76
554.67	781.74
554.84	784.08
555.00	849.61
555.17	730.25
555.33	767.70
555.50	807.48
555.67	741.95
555.83	779.40
556.00	730.25
556.16	751.31
556.33	678.76
556.50	774.72
556.66	711.52
556.83	744.29
556.99	702.16
557.16	777.06
557.32	800.46
557.49	809.83
557.65	704.50
557.82	800.46
557.98	737.27
558.15	739.61
558.32	695.14
558.48	711.52
558.65	716.20
558.81	669.39
558.98	634.29
559.14	751.31
559.31	753.65
559.47	660.03
559.64	774.72
559.80	638.97
559.97	753.65
560.13	746.63
560.30	751.31
560.46	704.50
560.63	849.61
560.79	819.19
560.96	765.36
561.12	748.97
561.29	634.29
561.45	683.44
561.61	688.12
561.78	739.61
561.94	781.74
562.11	727.91
562.27	772.38
562.44	702.16
562.60	720.88
562.77	697.48
562.93	720.88
563.10	739.61
563.26	791.10
563.42	765.36
563.59	723.23
563.75	734.93
563.92	674.07
564.08	655.35
564.24	751.31
564.41	713.86
564.57	730.25
564.74	706.84
564.90	718.54
565.07	681.10
565.23	737.27
565.39	723.23
565.56	634.29
565.72	692.80
565.88	706.84
566.05	622.58
566.21	674.07
566.38	716.20
566.54	662.37
566.70	741.95
566.87	744.29
567.03	741.95
567.19	791.10
567.36	674.07
567.52	720.88
567.68	645.99
567.85	692.80
568.01	624.92
568.17	638.97
568.34	603.86
568.50	669.39
568.66	671.73
568.83	650.67
568.99	683.44
569.15	664.71
569.32	648.33
569.48	645.99
569.64	636.63
569.81	716.20
569.97	767.70
570.13	657.69
570.30	720.88
570.46	596.84
570.62	667.05
570.78	624.92
570.95	613.22
571.11	678.76
571.27	678.76
571.43	655.35
571.60	718.54
571.76	589.82
571.92	699.82
572.09	664.71
572.25	610.88
572.41	620.24
572.57	760.67
572.74	711.52
572.90	606.20
573.06	660.03
573.22	664.71
573.38	667.05
573.55	648.33
573.71	634.29
573.87	667.05
574.03	653.01
574.20	615.56
574.36	629.60
574.52	610.88
574.68	657.69
574.84	681.10
575.01	650.67
575.17	697.48
575.33	678.76
575.49	629.60
575.65	676.41
575.82	650.67
575.98	627.26
576.14	643.65
576.30	681.10
576.46	706.84
576.62	573.43
576.79	550.03
576.95	695.14
577.11	629.60
577.27	660.03
577.43	620.24
577.59	622.58
577.75	608.54
577.92	697.48
578.08	685.78
578.24	631.94
578.40	674.07
578.56	711.52
578.72	650.67
578.88	629.60
579.04	690.46
579.21	620.24
579.37	683.44
579.53	660.03
579.69	622.58
579.85	657.69
580.01	603.86
580.17	660.03
580.33	608.54
580.49	610.88
580.65	589.82
580.82	627.26
580.98	594.50
581.14	582.79
581.30	603.86
581.46	720.88
581.62	599.18
581.78	723.23
581.94	634.29
582.10	657.69
582.26	699.82
582.42	638.97
582.58	767.70
582.74	657.69
582.90	615.56
583.06	669.39
583.22	636.63
583.38	692.80
583.54	585.13
583.70	578.11
583.86	662.37
584.02	650.67
584.18	643.65
584.34	561.73
584.50	575.77
584.66	599.18
584.82	566.41
584.98	587.47
585.14	615.56
585.30	638.97
585.46	608.54
585.62	599.18
585.78	620.24
585.94	571.09
586.10	566.41
586.26	606.20
586.42	592.16
586.58	662.37
586.74	620.24
586.90	617.90
587.06	664.71
587.22	617.90
587.38	601.52
587.54	660.03
587.70	547.69
587.86	521.94
588.02	526.62
588.18	552.37
588.34	528.96
588.49	489.17
588.65	433.00
588.81	430.66
588.97	479.81
589.13	463.43
589.29	482.15
589.45	484.49
589.61	510.24
589.77	468.11
589.93	491.51
590.08	538.32
590.24	540.66
590.40	496.19
590.56	528.96
590.72	552.37
590.88	535.98
591.04	519.60
591.20	442.36
591.35	526.62
591.51	454.06
591.67	463.43
591.83	496.19
591.99	561.73
592.15	493.85
592.31	491.51
592.46	561.73
592.62	557.05
592.78	496.19
592.94	538.32
593.10	531.30
593.26	493.85
593.41	585.13
593.57	491.51
593.73	514.92
593.89	519.60
594.05	519.60
594.20	517.26
594.36	538.32
594.52	521.94
594.68	496.19
594.84	482.15
594.99	507.90
595.15	519.60
595.31	538.32
595.47	472.79
595.62	491.51
595.78	592.16
595.94	528.96
596.10	557.05
596.25	468.11
596.41	589.82
596.57	503.22
596.73	482.15
596.88	552.37
597.04	547.69
597.20	507.90
597.36	461.09
597.51	585.13
597.67	496.19
597.83	564.07
597.99	552.37
598.14	486.83
598.30	524.28
598.46	447.04
598.61	594.50
598.77	435.34
598.93	608.54
599.09	496.19
599.24	575.77
599.40	496.19
599.56	519.60
599.71	533.64
599.87	559.39
600.03	559.39
600.18	620.24
600.34	594.50
600.50	606.20
600.65	634.29
600.81	510.24
600.97	566.41
601.12	545.34
601.28	519.60
601.44	592.16
601.59	552.37
601.75	500.87
601.91	517.26
602.06	578.11
602.22	550.03
602.37	564.07
602.53	578.11
602.69	535.98
602.84	575.77
603.00	533.64
603.16	498.53
603.31	505.56
603.47	554.71
603.62	510.24
603.78	575.77
603.94	582.79
604.09	519.60
604.25	582.79
604.40	592.16
604.56	610.88
604.71	531.30
604.87	664.71
605.03	650.67
605.18	512.58
605.34	557.05
605.49	533.64
605.65	550.03
605.80	575.77
605.96	486.83
606.12	564.07
606.27	512.58
606.43	519.60
606.58	484.49
606.74	543.00
606.89	521.94
607.05	512.58
607.20	482.15
607.36	461.09
607.51	575.77
607.67	617.90
607.82	496.19
607.98	545.34
608.13	564.07
608.29	512.58
608.44	507.90
608.60	514.92
608.75	540.66
608.91	514.92
609.06	566.41
609.22	528.96
609.37	540.66
609.53	528.96
609.68	554.71
609.84	521.94
609.99	444.70
610.15	451.72
610.30	482.15
610.46	463.43
610.61	470.45
610.76	545.34
610.92	458.74
611.07	573.43
611.23	491.51
611.38	545.34
611.54	535.98
611.69	472.79
