SpectraSuite Data File
++++++++++++++++++++++++++++++++++++
Date: Fri Oct 04 11:33:55 GMT-05:00 2013
User: price-jones
Dark Spectrum Present: No
Reference Spectrum Present: No
Number of Sampled Component Spectra: 1
Spectrometers: USB2+H05261
Integration Time (usec): 100000 (USB2+H05261)
Spectra Averaged: 1 (USB2+H05261)
Boxcar Smoothing: 0 (USB2+H05261)
Correct for Electrical Dark: No (USB2+H05261)
Strobe/Lamp Enabled: No (USB2+H05261)
Correct for Detector Non-linearity: No (USB2+H05261)
Correct for Stray Light: No (USB2+H05261)
Number of Pixels in Processed Spectrum: 2048
>>>>>Begin Processed Spectral Data<<<<<
365.73	58.51
365.92	58.51
366.12	58.51
366.32	30.43
366.52	37.45
366.72	77.24
366.91	7.02
367.11	0.00
367.31	67.88
367.51	0.00
367.70	0.00
367.90	0.00
368.10	0.00
368.30	0.00
368.49	0.00
368.69	0.00
368.89	0.00
369.09	14.04
369.28	0.00
369.48	37.45
369.68	0.00
369.87	49.15
370.07	11.70
370.27	0.00
370.47	95.96
370.66	11.70
370.86	32.77
371.06	191.92
371.25	102.98
371.45	0.00
371.65	93.62
371.84	156.82
372.04	112.35
372.24	67.88
372.44	140.43
372.63	140.43
372.83	198.95
373.03	117.03
373.22	180.22
373.42	189.58
373.62	159.16
373.81	140.43
374.01	138.09
374.21	95.96
374.40	173.20
374.60	159.16
374.79	166.18
374.99	208.31
375.19	175.54
375.38	205.97
375.58	175.54
375.78	189.58
375.97	154.48
376.17	173.20
376.37	147.45
376.56	166.18
376.76	121.71
376.95	77.24
377.15	217.67
377.35	217.67
377.54	140.43
377.74	105.32
377.93	170.86
378.13	93.62
378.33	184.90
378.52	156.82
378.72	102.98
378.91	161.50
379.11	159.16
379.31	88.94
379.50	95.96
379.70	107.66
379.89	124.05
380.09	117.03
380.28	81.92
380.48	149.79
380.68	140.43
380.87	77.24
381.07	154.48
381.26	215.33
381.46	161.50
381.65	149.79
381.85	126.39
382.04	152.13
382.24	156.82
382.43	91.28
382.63	121.71
382.83	121.71
383.02	175.54
383.22	175.54
383.41	93.62
383.61	79.58
383.80	98.30
384.00	93.62
384.19	182.56
384.39	152.13
384.58	159.16
384.78	124.05
384.97	168.52
385.17	98.30
385.36	131.07
385.56	194.26
385.75	112.35
385.95	154.48
386.14	72.56
386.34	77.24
386.53	149.79
386.72	180.22
386.92	196.60
387.11	93.62
387.31	142.77
387.50	142.77
387.70	163.84
387.89	100.64
388.09	142.77
388.28	74.90
388.48	102.98
388.67	152.13
388.86	142.77
389.06	133.41
389.25	110.01
389.45	149.79
389.64	194.26
389.84	149.79
390.03	194.26
390.22	140.43
390.42	93.62
390.61	128.73
390.81	112.35
391.00	51.49
391.19	105.32
391.39	147.45
391.58	112.35
391.78	156.82
391.97	121.71
392.16	140.43
392.36	105.32
392.55	175.54
392.75	161.50
392.94	56.17
393.13	124.05
393.33	65.54
393.52	117.03
393.71	112.35
393.91	119.37
394.10	154.48
394.29	156.82
394.49	154.48
394.68	222.35
394.88	196.60
395.07	177.88
395.26	124.05
395.46	168.52
395.65	93.62
395.84	152.13
396.04	145.11
396.23	112.35
396.42	121.71
396.62	161.50
396.81	149.79
397.00	142.77
397.19	140.43
397.39	131.07
397.58	231.71
397.77	156.82
397.97	102.98
398.16	128.73
398.35	159.16
398.55	147.45
398.74	222.35
398.93	161.50
399.12	227.03
399.32	145.11
399.51	152.13
399.70	168.52
399.90	194.26
400.09	170.86
400.28	234.05
400.47	145.11
400.67	166.18
400.86	124.05
401.05	191.92
401.24	189.58
401.44	212.99
401.63	173.20
401.82	241.08
402.01	161.50
402.21	138.09
402.40	133.41
402.59	154.48
402.78	175.54
402.97	231.71
403.17	175.54
403.36	149.79
403.55	145.11
403.74	154.48
403.93	278.52
404.13	280.86
404.32	259.80
404.51	236.39
404.70	227.03
404.89	138.09
405.09	229.37
405.28	147.45
405.47	133.41
405.66	189.58
405.85	231.71
406.05	159.16
406.24	187.24
406.43	138.09
406.62	131.07
406.81	196.60
407.00	149.79
407.20	156.82
407.39	201.29
407.58	175.54
407.77	170.86
407.96	177.88
408.15	133.41
408.34	212.99
408.54	175.54
408.73	175.54
408.92	142.77
409.11	173.20
409.30	168.52
409.49	191.92
409.68	182.56
409.87	170.86
410.07	248.10
410.26	182.56
410.45	135.75
410.64	149.79
410.83	110.01
411.02	145.11
411.21	224.69
411.40	152.13
411.59	203.63
411.78	205.97
411.98	84.26
412.17	166.18
412.36	126.39
412.55	102.98
412.74	102.98
412.93	208.31
413.12	154.48
413.31	163.84
413.50	205.97
413.69	114.69
413.88	138.09
414.07	177.88
414.26	161.50
414.45	112.35
414.64	124.05
414.83	156.82
415.02	196.60
415.22	215.33
415.41	189.58
415.60	117.03
415.79	180.22
415.98	126.39
416.17	163.84
416.36	161.50
416.55	180.22
416.74	180.22
416.93	166.18
417.12	184.90
417.31	117.03
417.50	220.01
417.69	332.36
417.88	196.60
418.07	145.11
418.26	241.08
418.45	208.31
418.64	271.50
418.83	308.95
419.02	276.18
419.21	372.15
419.39	229.37
419.58	194.26
419.77	173.20
419.96	252.78
420.15	222.35
420.34	194.26
420.53	124.05
420.72	210.65
420.91	227.03
421.10	145.11
421.29	224.69
421.48	222.35
421.67	184.90
421.86	147.45
422.05	100.64
422.24	152.13
422.43	170.86
422.61	67.88
422.80	142.77
422.99	163.84
423.18	187.24
423.37	191.92
423.56	168.52
423.75	161.50
423.94	217.67
424.13	210.65
424.32	142.77
424.50	210.65
424.69	238.73
424.88	163.84
425.07	208.31
425.26	210.65
425.45	318.31
425.64	285.55
425.83	273.84
426.01	287.89
426.20	203.63
426.39	227.03
426.58	238.73
426.77	201.29
426.96	189.58
427.15	177.88
427.33	133.41
427.52	201.29
427.71	135.75
427.90	140.43
428.09	210.65
428.28	119.37
428.46	212.99
428.65	84.26
428.84	238.73
429.03	208.31
429.22	135.75
429.40	131.07
429.59	142.77
429.78	173.20
429.97	187.24
430.16	243.42
430.34	180.22
430.53	156.82
430.72	182.56
430.91	203.63
431.10	187.24
431.28	102.98
431.47	187.24
431.66	152.13
431.85	128.73
432.03	145.11
432.22	175.54
432.41	154.48
432.60	189.58
432.79	283.20
432.97	276.18
433.16	334.70
433.35	231.71
433.54	191.92
433.72	135.75
433.91	224.69
434.10	198.95
434.28	273.84
434.47	264.48
434.66	224.69
434.85	149.79
435.03	238.73
435.22	252.78
435.41	409.59
435.59	358.10
435.78	315.97
435.97	278.52
436.16	166.18
436.34	255.12
436.53	152.13
436.72	175.54
436.90	170.86
437.09	180.22
437.28	264.48
437.46	135.75
437.65	229.37
437.84	156.82
438.02	191.92
438.21	163.84
438.40	208.31
438.58	119.37
438.77	159.16
438.96	191.92
439.14	177.88
439.33	259.80
439.52	191.92
439.70	231.71
439.89	142.77
440.08	217.67
440.26	173.20
440.45	222.35
440.63	236.39
440.82	180.22
441.01	245.76
441.19	166.18
441.38	224.69
441.57	149.79
441.75	180.22
441.94	161.50
442.12	159.16
442.31	117.03
442.50	180.22
442.68	196.60
442.87	168.52
443.05	140.43
443.24	212.99
443.43	196.60
443.61	229.37
443.80	159.16
443.98	152.13
444.17	210.65
444.35	131.07
444.54	266.82
444.73	152.13
444.91	222.35
445.10	205.97
445.28	159.16
445.47	210.65
445.65	196.60
445.84	140.43
446.02	175.54
446.21	184.90
446.39	212.99
446.58	205.97
446.77	189.58
446.95	175.54
447.14	182.56
447.32	287.89
447.51	88.94
447.69	203.63
447.88	187.24
448.06	168.52
448.25	294.91
448.43	156.82
448.62	208.31
448.80	182.56
448.99	163.84
449.17	175.54
449.36	175.54
449.54	203.63
449.73	184.90
449.91	243.42
450.10	175.54
450.28	163.84
450.46	250.44
450.65	280.86
450.83	173.20
451.02	271.50
451.20	166.18
451.39	212.99
451.57	182.56
451.76	196.60
451.94	205.97
452.13	301.93
452.31	257.46
452.49	227.03
452.68	168.52
452.86	79.58
453.05	203.63
453.23	140.43
453.42	135.75
453.60	173.20
453.78	234.05
453.97	231.71
454.15	154.48
454.34	161.50
454.52	180.22
454.70	196.60
454.89	180.22
455.07	154.48
455.26	175.54
455.44	238.73
455.62	175.54
455.81	220.01
455.99	182.56
456.17	191.92
456.36	60.85
456.54	138.09
456.73	220.01
456.91	231.71
457.09	189.58
457.28	163.84
457.46	194.26
457.64	257.46
457.83	205.97
458.01	191.92
458.19	217.67
458.38	131.07
458.56	128.73
458.74	222.35
458.93	191.92
459.11	217.67
459.29	142.77
459.48	194.26
459.66	255.12
459.84	180.22
460.03	271.50
460.21	189.58
460.39	159.16
460.57	196.60
460.76	142.77
460.94	177.88
461.12	212.99
461.31	325.33
461.49	168.52
461.67	161.50
461.85	102.98
462.04	149.79
462.22	662.37
462.40	180.22
462.59	212.99
462.77	208.31
462.95	210.65
463.13	121.71
463.32	175.54
463.50	133.41
463.68	255.12
463.86	107.66
464.05	196.60
464.23	154.48
464.41	208.31
464.59	170.86
464.78	189.58
464.96	180.22
465.14	170.86
465.32	159.16
465.50	187.24
465.69	224.69
465.87	252.78
466.05	149.79
466.23	149.79
466.41	215.33
466.60	168.52
466.78	257.46
466.96	175.54
467.14	257.46
467.32	255.12
467.51	210.65
467.69	191.92
467.87	217.67
468.05	212.99
468.23	285.55
468.41	276.18
468.60	212.99
468.78	269.16
468.96	215.33
469.14	205.97
469.32	166.18
469.50	229.37
469.69	220.01
469.87	220.01
470.05	212.99
470.23	201.29
470.41	191.92
470.59	229.37
470.77	138.09
470.95	156.82
471.14	159.16
471.32	234.05
471.50	217.67
471.68	215.33
471.86	198.95
472.04	142.77
472.22	205.97
472.40	205.97
472.58	224.69
472.77	145.11
472.95	266.82
473.13	198.95
473.31	201.29
473.49	210.65
473.67	187.24
473.85	234.05
474.03	198.95
474.21	177.88
474.39	234.05
474.57	196.60
474.75	262.14
474.93	198.95
475.12	147.45
475.30	182.56
475.48	201.29
475.66	205.97
475.84	208.31
476.02	189.58
476.20	248.10
476.38	234.05
476.56	273.84
476.74	189.58
476.92	231.71
477.10	259.80
477.28	262.14
477.46	194.26
477.64	222.35
477.82	154.48
478.00	210.65
478.18	217.67
478.36	241.08
478.54	124.05
478.72	215.33
478.90	170.86
479.08	184.90
479.26	208.31
479.44	182.56
479.62	215.33
479.80	175.54
479.98	149.79
480.16	194.26
480.34	243.42
480.52	203.63
480.70	152.13
480.88	145.11
481.06	198.95
481.24	236.39
481.41	166.18
481.59	252.78
481.77	208.31
481.95	215.33
482.13	308.95
482.31	215.33
482.49	278.52
482.67	220.01
482.85	184.90
483.03	161.50
483.21	243.42
483.39	229.37
483.57	231.71
483.74	243.42
483.92	252.78
484.10	215.33
484.28	269.16
484.46	306.61
484.64	163.84
484.82	205.97
485.00	234.05
485.18	227.03
485.35	344.06
485.53	222.35
485.71	273.84
485.89	138.09
486.07	241.08
486.25	262.14
486.43	320.65
486.61	285.55
486.78	236.39
486.96	184.90
487.14	205.97
487.32	220.01
487.50	187.24
487.68	283.20
487.85	285.55
488.03	245.76
488.21	245.76
488.39	257.46
488.57	271.50
488.75	201.29
488.92	540.66
489.10	276.18
489.28	262.14
489.46	224.69
489.64	241.08
489.81	248.10
489.99	191.92
490.17	210.65
490.35	271.50
490.53	227.03
490.70	210.65
490.88	308.95
491.06	259.80
491.24	243.42
491.41	276.18
491.59	280.86
491.77	283.20
491.95	271.50
492.13	297.25
492.30	259.80
492.48	229.37
492.66	196.60
492.84	182.56
493.01	241.08
493.19	269.16
493.37	220.01
493.54	266.82
493.72	259.80
493.90	196.60
494.08	301.93
494.25	266.82
494.43	229.37
494.61	257.46
494.79	215.33
494.96	229.37
495.14	191.92
495.32	229.37
495.49	280.86
495.67	248.10
495.85	203.63
496.02	222.35
496.20	255.12
496.38	262.14
496.55	283.20
496.73	285.55
496.91	252.78
497.09	308.95
497.26	259.80
497.44	250.44
497.62	273.84
497.79	294.91
497.97	264.48
498.14	241.08
498.32	250.44
498.50	252.78
498.67	257.46
498.85	346.40
499.03	229.37
499.20	264.48
499.38	227.03
499.56	294.91
499.73	241.08
499.91	215.33
500.08	283.20
500.26	250.44
500.44	222.35
500.61	234.05
500.79	175.54
500.97	229.37
501.14	222.35
501.32	327.68
501.49	294.91
501.67	238.73
501.84	189.58
502.02	217.67
502.20	245.76
502.37	205.97
502.55	236.39
502.72	248.10
502.90	327.68
503.07	248.10
503.25	262.14
503.43	285.55
503.60	201.29
503.78	308.95
503.95	252.78
504.13	243.42
504.30	245.76
504.48	353.42
504.65	278.52
504.83	243.42
505.01	182.56
505.18	236.39
505.36	294.91
505.53	229.37
505.71	236.39
505.88	287.89
506.06	229.37
506.23	252.78
506.41	224.69
506.58	266.82
506.76	259.80
506.93	224.69
507.11	262.14
507.28	248.10
507.46	255.12
507.63	311.29
507.81	404.91
507.98	236.39
508.16	264.48
508.33	255.12
508.50	287.89
508.68	301.93
508.85	259.80
509.03	290.23
509.20	287.89
509.38	212.99
509.55	283.20
509.73	278.52
509.90	217.67
510.08	215.33
510.25	313.63
510.42	252.78
510.60	252.78
510.77	313.63
510.95	276.18
511.12	245.76
511.30	208.31
511.47	376.83
511.64	351.08
511.82	315.97
511.99	318.31
512.17	325.33
512.34	257.46
512.51	257.46
512.69	191.92
512.86	252.78
513.04	269.16
513.21	311.29
513.38	229.37
513.56	262.14
513.73	238.73
513.90	229.37
514.08	231.71
514.25	306.61
514.43	292.57
514.60	196.60
514.77	238.73
514.95	320.65
515.12	285.55
515.29	346.40
515.47	255.12
515.64	278.52
515.81	182.56
515.99	306.61
516.16	290.23
516.33	241.08
516.51	208.31
516.68	229.37
516.85	283.20
517.03	250.44
517.20	308.95
517.37	308.95
517.54	332.36
517.72	280.86
517.89	252.78
518.06	215.33
518.24	236.39
518.41	294.91
518.58	257.46
518.75	264.48
518.93	271.50
519.10	306.61
519.27	187.24
519.45	287.89
519.62	278.52
519.79	355.76
519.96	248.10
520.14	299.59
520.31	372.15
520.48	243.42
520.65	252.78
520.83	276.18
521.00	283.20
521.17	255.12
521.34	276.18
521.52	276.18
521.69	257.46
521.86	299.59
522.03	299.59
522.20	360.44
522.38	287.89
522.55	224.69
522.72	262.14
522.89	245.76
523.07	337.04
523.24	273.84
523.41	234.05
523.58	308.95
523.75	203.63
523.92	320.65
524.10	222.35
524.27	217.67
524.44	308.95
524.61	353.42
524.78	294.91
524.96	259.80
525.13	266.82
525.30	292.57
525.47	308.95
525.64	346.40
525.81	313.63
525.98	222.35
526.16	227.03
526.33	220.01
526.50	292.57
526.67	245.76
526.84	257.46
527.01	198.95
527.18	259.80
527.36	346.40
527.53	184.90
527.70	292.57
527.87	236.39
528.04	299.59
528.21	187.24
528.38	348.74
528.55	313.63
528.72	255.12
528.89	276.18
529.07	266.82
529.24	287.89
529.41	348.74
529.58	285.55
529.75	327.68
529.92	330.02
530.09	362.78
530.26	322.99
530.43	304.27
530.60	344.06
530.77	257.46
530.94	327.68
531.11	308.95
531.28	227.03
531.46	322.99
531.63	299.59
531.80	215.33
531.97	344.06
532.14	355.76
532.31	236.39
532.48	315.97
532.65	411.93
532.82	425.98
532.99	433.00
533.16	411.93
533.33	393.21
533.50	358.10
533.67	390.87
533.84	454.06
534.01	475.13
534.18	362.78
534.35	353.42
534.52	346.40
534.69	390.87
534.86	301.93
535.03	367.46
535.20	299.59
535.37	259.80
535.54	243.42
535.71	271.50
535.88	294.91
536.05	262.14
536.22	332.36
536.38	362.78
536.55	285.55
536.72	266.82
536.89	257.46
537.06	297.25
537.23	292.57
537.40	306.61
537.57	271.50
537.74	358.10
537.91	290.23
538.08	255.12
538.25	280.86
538.42	255.12
538.59	330.02
538.75	264.48
538.92	353.42
539.09	346.40
539.26	306.61
539.43	608.54
539.60	1291.98
539.77	2022.22
539.94	2129.89
540.11	1310.70
540.28	947.92
540.44	734.93
540.61	510.24
540.78	447.04
540.95	365.12
541.12	437.68
541.29	510.24
541.46	521.94
541.62	550.03
541.79	486.83
541.96	526.62
542.13	512.58
542.30	400.23
542.47	486.83
542.63	484.49
542.80	500.87
542.97	514.92
543.14	491.51
543.31	510.24
543.48	498.53
543.64	550.03
543.81	458.74
543.98	482.15
544.15	433.00
544.32	454.06
544.48	440.02
544.65	404.91
544.82	386.19
544.99	468.11
545.16	475.13
545.32	580.45
545.49	772.38
545.66	800.46
545.83	887.06
546.00	795.78
546.16	594.50
546.33	514.92
546.50	510.24
546.67	414.27
546.83	463.43
547.00	470.45
547.17	414.27
547.34	381.51
547.50	402.57
547.67	409.59
547.84	367.46
548.00	381.51
548.17	421.30
548.34	367.46
548.51	416.62
548.67	334.70
548.84	369.80
549.01	390.87
549.18	266.82
549.34	353.42
549.51	351.08
549.68	362.78
549.84	395.55
550.01	259.80
550.18	444.70
550.34	372.15
550.51	334.70
550.68	318.31
550.84	311.29
551.01	332.36
551.18	315.97
551.34	283.20
551.51	325.33
551.68	313.63
551.84	301.93
552.01	327.68
552.18	341.72
552.34	290.23
552.51	308.95
552.68	299.59
552.84	285.55
553.01	322.99
553.18	271.50
553.34	290.23
553.51	290.23
553.67	208.31
553.84	362.78
554.01	320.65
554.17	290.23
554.34	266.82
554.51	358.10
554.67	313.63
554.84	290.23
555.00	311.29
555.17	337.04
555.33	348.74
555.50	334.70
555.67	285.55
555.83	353.42
556.00	245.76
556.16	489.17
556.33	325.33
556.50	299.59
556.66	257.46
556.83	271.50
556.99	273.84
557.16	238.73
557.32	280.86
557.49	292.57
557.65	280.86
557.82	257.46
557.98	173.20
558.15	243.42
558.32	220.01
558.48	294.91
558.65	271.50
558.81	217.67
558.98	252.78
559.14	252.78
559.31	330.02
559.47	229.37
559.64	339.38
559.80	252.78
559.97	266.82
560.13	229.37
560.30	248.10
560.46	327.68
560.63	285.55
560.79	301.93
560.96	273.84
561.12	262.14
561.29	379.17
561.45	220.01
561.61	285.55
561.78	208.31
561.94	224.69
562.11	238.73
562.27	297.25
562.44	306.61
562.60	285.55
562.77	215.33
562.93	304.27
563.10	229.37
563.26	332.36
563.42	301.93
563.59	311.29
563.75	299.59
563.92	287.89
564.08	238.73
564.24	283.20
564.41	278.52
564.57	243.42
564.74	269.16
564.90	322.99
565.07	280.86
565.23	386.19
565.39	292.57
565.56	355.76
565.72	264.48
565.88	266.82
566.05	320.65
566.21	287.89
566.38	315.97
566.54	234.05
566.70	313.63
566.87	283.20
567.03	212.99
567.19	173.20
567.36	348.74
567.52	292.57
567.68	222.35
567.85	227.03
568.01	257.46
568.17	266.82
568.34	273.84
568.50	376.83
568.66	273.84
568.83	337.04
568.99	266.82
569.15	313.63
569.32	243.42
569.48	245.76
569.64	255.12
569.81	322.99
569.97	238.73
570.13	285.55
570.30	301.93
570.46	297.25
570.62	238.73
570.78	234.05
570.95	344.06
571.11	264.48
571.27	304.27
571.43	280.86
571.60	344.06
571.76	318.31
571.92	248.10
572.09	320.65
572.25	250.44
572.41	266.82
572.57	236.39
572.74	278.52
572.90	283.20
573.06	278.52
573.22	283.20
573.38	346.40
573.55	294.91
573.71	250.44
573.87	290.23
574.03	311.29
574.20	273.84
574.36	383.85
574.52	393.21
574.68	367.46
574.84	358.10
575.01	318.31
575.17	262.14
575.33	283.20
575.49	262.14
575.65	280.86
575.82	409.59
575.98	718.54
576.14	950.26
576.30	835.57
576.46	788.76
576.62	557.05
576.79	566.41
576.95	498.53
577.11	397.89
577.27	348.74
577.43	393.21
577.59	334.70
577.75	297.25
577.92	301.93
578.08	297.25
578.24	362.78
578.40	367.46
578.56	386.19
578.72	470.45
578.88	404.91
579.04	514.92
579.21	465.77
579.37	322.99
579.53	372.15
579.69	372.15
579.85	339.38
580.01	566.41
580.17	557.05
580.33	538.32
580.49	421.30
580.65	409.59
580.82	397.89
580.98	444.70
581.14	402.57
581.30	477.47
581.46	550.03
581.62	725.57
581.78	758.33
581.94	725.57
582.10	648.33
582.26	601.52
582.42	568.75
582.58	447.04
582.74	589.82
582.90	559.39
583.06	641.31
583.22	566.41
583.38	716.20
583.54	704.50
583.70	772.38
583.86	877.70
584.02	966.64
584.18	1242.82
584.34	1462.83
584.50	3772.94
584.66	28734.76
584.82	61893.13
584.98	65535.00
585.14	65535.00
585.30	61762.06
585.46	38873.96
585.62	23997.51
585.78	10881.15
585.94	4301.90
586.10	2083.08
586.26	1406.66
586.42	1144.52
586.58	917.49
586.74	870.68
586.90	819.19
587.06	753.65
587.22	755.99
587.38	711.52
587.54	1504.96
587.70	4290.20
587.86	7438.22
588.02	8592.11
588.18	6087.73
588.34	3744.86
588.49	2394.37
588.65	1530.71
588.81	784.08
588.97	526.62
589.13	430.66
589.29	407.25
589.45	433.00
589.61	374.49
589.77	493.85
589.93	524.28
590.08	622.58
590.24	575.77
590.40	514.92
590.56	538.32
590.72	468.11
590.88	447.04
591.04	456.40
591.20	421.30
591.35	489.17
591.51	454.06
591.67	463.43
591.83	402.57
591.99	402.57
592.15	374.49
592.31	397.89
592.46	344.06
592.62	505.56
592.78	421.30
592.94	414.27
593.10	442.36
593.26	430.66
593.41	517.26
593.57	447.04
593.73	709.18
593.89	3414.84
594.05	9266.18
594.20	14417.70
594.36	13895.76
594.52	9083.62
594.68	5458.13
594.84	3698.05
594.99	2062.01
595.15	999.41
595.31	610.88
595.47	500.87
595.62	355.76
595.78	442.36
595.94	435.34
596.10	465.77
596.25	454.06
596.41	524.28
596.57	397.89
596.73	362.78
596.88	676.41
597.04	1748.38
597.20	3042.70
597.36	3557.61
597.51	2876.52
597.67	1792.85
597.83	1282.61
597.99	861.32
598.14	617.90
598.30	442.36
598.46	463.43
598.61	482.15
598.77	447.04
598.93	451.72
599.09	430.66
599.24	365.12
599.40	355.76
599.56	322.99
599.71	344.06
599.87	330.02
600.03	362.78
600.18	376.83
600.34	280.86
600.50	358.10
600.65	301.93
600.81	306.61
600.97	266.82
601.12	433.00
601.28	325.33
601.44	313.63
601.59	358.10
601.75	257.46
601.91	299.59
602.06	365.12
602.22	390.87
602.37	880.04
602.53	2076.06
602.69	3389.10
602.84	3590.38
603.00	2623.74
603.16	1811.57
603.31	1331.76
603.47	866.00
603.62	498.53
603.78	482.15
603.94	337.04
604.09	390.87
604.25	409.59
604.40	365.12
604.56	360.44
604.71	299.59
604.87	301.93
605.03	367.46
605.18	365.12
605.34	337.04
605.49	339.38
605.65	294.91
605.80	395.55
605.96	358.10
606.12	362.78
606.27	435.34
606.43	358.10
606.58	510.24
606.74	1013.45
606.89	4212.96
607.05	8968.93
607.20	12229.30
607.36	10092.39
607.51	6822.66
607.67	4425.95
607.82	3056.74
607.98	1673.48
608.13	800.46
608.29	561.73
608.44	538.32
608.60	589.82
608.75	622.58
608.91	1430.07
609.06	6354.55
609.22	15131.56
609.37	21219.30
609.53	19220.48
609.68	12358.03
609.84	7859.52
609.99	5385.57
