SpectraSuite Data File
++++++++++++++++++++++++++++++++++++
Date: Fri Oct 04 12:13:33 GMT-05:00 2013
User: price-jones
Dark Spectrum Present: No
Reference Spectrum Present: No
Number of Sampled Component Spectra: 1
Spectrometers: USB2+H05261
Integration Time (usec): 10000 (USB2+H05261)
Spectra Averaged: 1 (USB2+H05261)
Boxcar Smoothing: 0 (USB2+H05261)
Correct for Electrical Dark: No (USB2+H05261)
Strobe/Lamp Enabled: No (USB2+H05261)
Correct for Detector Non-linearity: No (USB2+H05261)
Correct for Stray Light: No (USB2+H05261)
Number of Pixels in Processed Spectrum: 2048
>>>>>Begin Processed Spectral Data<<<<<
365.73	11.70
365.92	11.70
366.12	11.70
366.32	0.00
366.52	0.00
366.72	0.00
366.91	0.00
367.11	0.00
367.31	0.00
367.51	0.00
367.70	0.00
367.90	0.00
368.10	0.00
368.30	0.00
368.49	0.00
368.69	0.00
368.89	0.00
369.09	0.00
369.28	0.00
369.48	0.00
369.68	0.00
369.87	0.00
370.07	0.00
370.27	0.00
370.47	0.00
370.66	18.72
370.86	0.00
371.06	25.75
371.25	126.39
371.45	81.92
371.65	93.62
371.84	79.58
372.04	63.19
372.24	72.56
372.44	65.54
372.63	121.71
372.83	107.66
373.03	93.62
373.22	30.43
373.42	88.94
373.62	177.88
373.81	175.54
374.01	117.03
374.21	133.41
374.40	135.75
374.60	124.05
374.79	86.60
374.99	37.45
375.19	65.54
375.38	93.62
375.58	72.56
375.78	114.69
375.97	149.79
376.17	177.88
376.37	177.88
376.56	114.69
376.76	107.66
376.95	138.09
377.15	124.05
377.35	175.54
377.54	166.18
377.74	100.64
377.93	180.22
378.13	147.45
378.33	105.32
378.52	114.69
378.72	114.69
378.91	98.30
379.11	81.92
379.31	102.98
379.50	70.22
379.70	135.75
379.89	156.82
380.09	84.26
380.28	72.56
380.48	107.66
380.68	105.32
380.87	156.82
381.07	102.98
381.26	74.90
381.46	161.50
381.65	35.11
381.85	102.98
382.04	131.07
382.24	145.11
382.43	53.83
382.63	35.11
382.83	124.05
383.02	67.88
383.22	88.94
383.41	67.88
383.61	121.71
383.80	107.66
384.00	117.03
384.19	152.13
384.39	98.30
384.58	110.01
384.78	72.56
384.97	51.49
385.17	112.35
385.36	91.28
385.56	119.37
385.75	112.35
385.95	93.62
386.14	163.84
386.34	161.50
386.53	138.09
386.72	126.39
386.92	74.90
387.11	77.24
387.31	128.73
387.50	177.88
387.70	112.35
387.89	49.15
388.09	91.28
388.28	91.28
388.48	156.82
388.67	173.20
388.86	147.45
389.06	105.32
389.25	161.50
389.45	191.92
389.64	177.88
389.84	126.39
390.03	184.90
390.22	128.73
390.42	215.33
390.61	180.22
390.81	201.29
391.00	231.71
391.19	241.08
391.39	163.84
391.58	234.05
391.78	208.31
391.97	159.16
392.16	135.75
392.36	131.07
392.55	105.32
392.75	154.48
392.94	95.96
393.13	79.58
393.33	126.39
393.52	81.92
393.71	189.58
393.91	166.18
394.10	191.92
394.29	189.58
394.49	222.35
394.68	224.69
394.88	163.84
395.07	264.48
395.26	133.41
395.46	187.24
395.65	184.90
395.84	201.29
396.04	121.71
396.23	147.45
396.42	138.09
396.62	140.43
396.81	208.31
397.00	135.75
397.19	142.77
397.39	203.63
397.58	217.67
397.77	154.48
397.97	259.80
398.16	285.55
398.35	273.84
398.55	191.92
398.74	259.80
398.93	280.86
399.12	257.46
399.32	276.18
399.51	299.59
399.70	266.82
399.90	227.03
400.09	224.69
400.28	339.38
400.47	332.36
400.67	222.35
400.86	262.14
401.05	320.65
401.24	355.76
401.44	299.59
401.63	290.23
401.82	236.39
402.01	231.71
402.21	243.42
402.40	348.74
402.59	315.97
402.78	330.02
402.97	257.46
403.17	299.59
403.36	322.99
403.55	285.55
403.74	259.80
403.93	285.55
404.13	346.40
404.32	308.95
404.51	252.78
404.70	330.02
404.89	344.06
405.09	318.31
405.28	236.39
405.47	271.50
405.66	278.52
405.85	205.97
406.05	313.63
406.24	273.84
406.43	308.95
406.62	311.29
406.81	257.46
407.00	285.55
407.20	313.63
407.39	259.80
407.58	304.27
407.77	304.27
407.96	327.68
408.15	304.27
408.34	341.72
408.54	393.21
408.73	332.36
408.92	369.80
409.11	337.04
409.30	334.70
409.49	294.91
409.68	259.80
409.87	294.91
410.07	322.99
410.26	231.71
410.45	301.93
410.64	341.72
410.83	346.40
411.02	332.36
411.21	367.46
411.40	367.46
411.59	320.65
411.78	435.34
411.98	341.72
412.17	292.57
412.36	332.36
412.55	365.12
412.74	320.65
412.93	365.12
413.12	400.23
413.31	362.78
413.50	376.83
413.69	407.25
413.88	313.63
414.07	358.10
414.26	266.82
414.45	287.89
414.64	313.63
414.83	330.02
415.02	330.02
415.22	346.40
415.41	355.76
415.60	381.51
415.79	365.12
415.98	400.23
416.17	414.27
416.36	355.76
416.55	362.78
416.74	407.25
416.93	320.65
417.12	402.57
417.31	400.23
417.50	379.17
417.69	386.19
417.88	369.80
418.07	330.02
418.26	376.83
418.45	337.04
418.64	355.76
418.83	395.55
419.02	454.06
419.21	400.23
419.39	409.59
419.58	292.57
419.77	360.44
419.96	451.72
420.15	369.80
420.34	390.87
420.53	416.62
420.72	358.10
420.91	404.91
421.10	430.66
421.29	468.11
421.48	358.10
421.67	430.66
421.86	409.59
422.05	404.91
422.24	351.08
422.43	372.15
422.61	358.10
422.80	423.64
422.99	465.77
423.18	332.36
423.37	327.68
423.56	355.76
423.75	337.04
423.94	337.04
424.13	388.53
424.32	388.53
424.50	407.25
424.69	325.33
424.88	355.76
425.07	362.78
425.26	390.87
425.45	346.40
425.64	379.17
425.83	355.76
426.01	423.64
426.20	390.87
426.39	400.23
426.58	344.06
426.77	344.06
426.96	393.21
427.15	390.87
427.33	362.78
427.52	409.59
427.71	404.91
427.90	456.40
428.09	390.87
428.28	348.74
428.46	397.89
428.65	386.19
428.84	353.42
429.03	369.80
429.22	334.70
429.40	344.06
429.59	353.42
429.78	325.33
429.97	234.05
430.16	341.72
430.34	304.27
430.53	292.57
430.72	248.10
430.91	341.72
431.10	353.42
431.28	386.19
431.47	449.38
431.66	425.98
431.85	451.72
432.03	353.42
432.22	367.46
432.41	337.04
432.60	465.77
432.79	351.08
432.97	493.85
433.16	393.21
433.35	353.42
433.54	437.68
433.72	372.15
433.91	337.04
434.10	320.65
434.28	315.97
434.47	425.98
434.66	475.13
434.85	486.83
435.03	447.04
435.22	388.53
435.41	477.47
435.59	491.51
435.78	479.81
435.97	479.81
436.16	486.83
436.34	421.30
436.53	472.79
436.72	421.30
436.90	374.49
437.09	489.17
437.28	442.36
437.46	442.36
437.65	425.98
437.84	367.46
438.02	425.98
438.21	430.66
438.40	421.30
438.58	463.43
438.77	409.59
438.96	479.81
439.14	470.45
439.33	435.34
439.52	390.87
439.70	454.06
439.89	393.21
440.08	456.40
440.26	510.24
440.45	379.17
440.63	472.79
440.82	484.49
441.01	624.92
441.19	531.30
441.38	416.62
441.57	479.81
441.75	564.07
441.94	491.51
442.12	484.49
442.31	510.24
442.50	484.49
442.68	496.19
442.87	493.85
443.05	458.74
443.24	484.49
443.43	491.51
443.61	575.77
443.80	496.19
443.98	528.96
444.17	510.24
444.35	500.87
444.54	514.92
444.73	561.73
444.91	526.62
445.10	498.53
445.28	517.26
445.47	496.19
445.65	346.40
445.84	418.96
446.02	512.58
446.21	475.13
446.39	496.19
446.58	564.07
446.77	491.51
446.95	470.45
447.14	507.90
447.32	533.64
447.51	543.00
447.69	465.77
447.88	395.55
448.06	603.86
448.25	521.94
448.43	566.41
448.62	528.96
448.80	465.77
448.99	540.66
449.17	615.56
449.36	538.32
449.54	535.98
449.73	514.92
449.91	622.58
450.10	554.71
450.28	528.96
450.46	517.26
450.65	547.69
450.83	585.13
451.02	568.75
451.20	547.69
451.39	552.37
451.57	550.03
451.76	603.86
451.94	571.09
452.13	533.64
452.31	449.38
452.49	512.58
452.68	484.49
452.86	510.24
453.05	528.96
453.23	456.40
453.42	514.92
453.60	538.32
453.78	564.07
453.97	571.09
454.15	505.56
454.34	545.34
454.52	564.07
454.70	566.41
454.89	545.34
455.07	514.92
455.26	573.43
455.44	528.96
455.62	519.60
455.81	526.62
455.99	603.86
456.17	526.62
456.36	571.09
456.54	472.79
456.73	505.56
456.91	543.00
457.09	615.56
457.28	554.71
457.46	528.96
457.64	657.69
457.83	489.17
458.01	606.20
458.19	510.24
458.38	540.66
458.56	587.47
458.74	507.90
458.93	552.37
459.11	540.66
459.29	533.64
459.48	627.26
459.66	571.09
459.84	521.94
460.03	564.07
460.21	547.69
460.39	564.07
460.57	578.11
460.76	613.22
460.94	601.52
461.12	606.20
461.31	585.13
461.49	599.18
461.67	596.84
461.85	650.67
462.04	599.18
462.22	596.84
462.40	620.24
462.59	547.69
462.77	610.88
462.95	596.84
463.13	610.88
463.32	587.47
463.50	596.84
463.68	528.96
463.86	561.73
464.05	657.69
464.23	603.86
464.41	566.41
464.59	559.39
464.78	559.39
464.96	554.71
465.14	547.69
465.32	557.05
465.50	634.29
465.69	578.11
465.87	627.26
466.05	547.69
466.23	589.82
466.41	498.53
466.60	496.19
466.78	559.39
466.96	592.16
467.14	594.50
467.32	521.94
467.51	528.96
467.69	561.73
467.87	599.18
468.05	538.32
468.23	594.50
468.41	622.58
468.60	540.66
468.78	533.64
468.96	561.73
469.14	550.03
469.32	521.94
469.50	461.09
469.69	580.45
469.87	475.13
470.05	578.11
470.23	622.58
470.41	599.18
470.59	524.28
470.77	589.82
470.95	559.39
471.14	568.75
471.32	592.16
471.50	624.92
471.68	571.09
471.86	601.52
472.04	613.22
472.22	681.10
472.40	608.54
472.58	557.05
472.77	540.66
472.95	599.18
473.13	557.05
473.31	557.05
473.49	519.60
473.67	657.69
473.85	657.69
474.03	573.43
474.21	662.37
474.39	622.58
474.57	622.58
474.75	709.18
474.93	763.01
475.12	589.82
475.30	599.18
475.48	648.33
475.66	603.86
475.84	690.46
476.02	641.31
476.20	571.09
476.38	568.75
476.56	568.75
476.74	599.18
476.92	664.71
477.10	631.94
477.28	685.78
477.46	643.65
477.64	723.23
477.82	798.12
478.00	709.18
478.18	669.39
478.36	690.46
478.54	685.78
478.72	631.94
478.90	641.31
479.08	716.20
479.26	683.44
479.44	683.44
479.62	711.52
479.80	779.40
479.98	748.97
480.16	744.29
480.34	809.83
480.52	732.59
480.70	713.86
480.88	772.38
481.06	758.33
481.24	702.16
481.41	730.25
481.59	741.95
481.77	716.20
481.95	727.91
482.13	816.85
482.31	819.19
482.49	739.61
482.67	706.84
482.85	784.08
483.03	765.36
483.21	854.30
483.39	746.63
483.57	791.10
483.74	760.67
483.92	770.04
484.10	678.76
484.28	854.30
484.46	823.87
484.64	821.53
484.82	786.42
485.00	805.14
485.18	765.36
485.35	725.57
485.53	667.05
485.71	599.18
485.89	699.82
486.07	629.60
486.25	718.54
486.43	695.14
486.61	772.38
486.78	709.18
486.96	786.42
487.14	851.96
487.32	814.51
487.50	849.61
487.68	903.45
487.85	866.00
488.03	842.59
488.21	816.85
488.39	828.55
488.57	837.91
488.75	786.42
488.92	870.68
489.10	844.93
489.28	926.85
489.46	1020.47
489.64	976.00
489.81	957.28
489.99	912.81
490.17	990.05
490.35	943.24
490.53	973.66
490.70	847.27
490.88	938.55
491.06	954.94
491.24	997.07
491.41	870.68
491.59	870.68
491.77	840.25
491.95	844.93
492.13	833.23
492.30	959.62
492.48	1006.43
492.66	997.07
492.84	936.21
493.01	1114.10
493.19	922.17
493.37	1041.54
493.54	994.73
493.72	1015.79
493.90	997.07
494.08	1043.88
494.25	966.64
494.43	1057.92
494.61	1001.75
494.79	1011.11
494.96	1123.46
495.14	1050.90
495.32	1011.11
495.49	1086.01
495.67	1104.73
495.85	1139.84
496.02	1048.56
496.20	1041.54
496.38	1123.46
496.55	997.07
496.73	1025.15
496.91	1022.81
497.09	1102.39
497.26	1076.65
497.44	1083.67
497.62	1020.47
497.79	1048.56
497.97	994.73
498.14	1062.60
498.32	1107.07
498.50	1015.79
498.67	1156.22
498.85	1027.50
499.03	1139.84
499.20	1076.65
499.38	1107.07
499.56	1055.58
499.73	1062.60
499.91	1069.62
500.08	1027.50
500.26	950.26
500.44	933.87
500.61	1013.45
500.79	1069.62
500.97	1027.50
501.14	1041.54
501.32	950.26
501.49	1029.84
501.67	1067.28
501.84	1048.56
502.02	1048.56
502.20	1001.75
502.37	1039.20
502.55	1029.84
502.72	1064.94
502.90	1114.10
503.07	1067.28
503.25	1104.73
503.43	1025.15
503.60	1032.18
503.78	945.58
503.95	1015.79
504.13	1071.97
504.30	1069.62
504.48	1078.99
504.65	1032.18
504.83	1029.84
505.01	1121.12
505.18	1095.37
505.36	1135.16
505.53	1086.01
505.71	1121.12
505.88	1121.12
506.06	1078.99
506.23	1057.92
506.41	1041.54
506.58	1109.41
506.76	1034.52
506.93	1151.54
507.11	1034.52
507.28	1067.28
507.46	1050.90
507.63	1102.39
507.81	1074.31
507.98	1029.84
508.16	992.39
508.33	1064.94
508.50	1083.67
508.68	1128.14
508.85	1179.63
509.03	1149.20
509.20	1186.65
509.38	1090.69
509.55	976.00
509.73	1020.47
509.90	1181.97
510.08	1121.12
510.25	1137.50
510.42	1186.65
510.60	1135.16
510.77	1196.01
510.95	1125.80
511.12	1205.38
511.30	1247.51
511.47	1219.42
511.64	1153.88
511.82	1181.97
511.99	1076.65
512.17	1123.46
512.34	1074.31
512.51	1097.71
512.69	1074.31
512.86	1100.05
513.04	1224.10
513.21	1149.20
513.38	1238.14
513.56	1188.99
513.73	1071.97
513.90	1081.33
514.08	1076.65
514.25	1114.10
514.43	1086.01
514.60	1137.50
514.77	1071.97
514.95	1086.01
515.12	1179.63
515.29	1118.78
515.47	1142.18
515.64	1200.69
515.81	1142.18
515.99	1118.78
516.16	1104.73
516.33	910.47
516.51	1004.09
516.68	901.11
516.85	887.06
517.03	971.32
517.20	947.92
517.37	994.73
517.54	1153.88
517.72	1231.12
517.89	1048.56
518.06	952.60
518.24	985.37
518.41	1088.35
518.58	1025.15
518.75	1029.84
518.93	1097.71
519.10	1041.54
519.27	1090.69
519.45	1198.35
519.62	1177.29
519.79	1076.65
519.96	1198.35
520.14	1069.62
520.31	1053.24
520.48	1083.67
520.65	1090.69
520.83	1083.67
521.00	1149.20
521.17	1203.04
521.34	1179.63
521.52	1158.57
521.69	1109.41
521.86	1188.99
522.03	1221.76
522.20	1163.25
522.38	1039.20
522.55	1029.84
522.72	1121.12
522.89	1198.35
523.07	1207.72
523.24	1111.75
523.41	1128.14
523.58	1142.18
523.75	1270.91
523.92	1219.42
524.10	1132.82
524.27	1116.44
524.44	1219.42
524.61	1226.44
524.78	1219.42
524.96	1121.12
525.13	1214.74
525.30	1249.85
525.47	1212.40
525.64	1132.82
525.81	1135.16
525.98	1118.78
526.16	1078.99
526.33	978.34
526.50	1006.43
526.67	1067.28
526.84	957.28
527.01	1018.13
527.18	1074.31
527.36	1076.65
527.53	1111.75
527.70	1186.65
527.87	1128.14
528.04	1074.31
528.21	1275.59
528.38	1121.12
528.55	1228.78
528.72	1156.22
528.89	1203.04
529.07	1233.46
529.24	1238.14
529.41	1188.99
529.58	1142.18
529.75	1128.14
529.92	1123.46
530.09	1179.63
530.26	1109.41
530.43	1254.53
530.60	1163.25
530.77	1238.14
530.94	1210.06
531.11	1261.55
531.28	1198.35
531.46	1256.87
531.63	1177.29
531.80	1268.57
531.97	1128.14
532.14	1111.75
532.31	1071.97
532.48	1025.15
532.65	1039.20
532.82	1137.50
532.99	1214.74
533.16	1015.79
533.33	1181.97
533.50	1153.88
533.67	1123.46
533.84	1123.46
534.01	1064.94
534.18	1095.37
534.35	1146.86
534.52	1163.25
534.69	1137.50
534.86	1128.14
535.03	1247.51
535.20	1156.22
535.37	1327.08
535.54	1231.12
535.71	1200.69
535.88	1217.08
536.05	1261.55
536.22	1156.22
536.38	1043.88
536.55	1088.35
536.72	1097.71
536.89	1128.14
537.06	1146.86
537.23	1144.52
537.40	1219.42
537.57	1167.93
537.74	1165.59
537.91	1160.91
538.08	1226.44
538.25	1198.35
538.42	1095.37
538.59	1170.27
538.75	1158.57
538.92	1153.88
539.09	1050.90
539.26	1128.14
539.43	1088.35
539.60	1064.94
539.77	1158.57
539.94	1050.90
540.11	1146.86
540.28	987.71
540.44	1081.33
540.61	959.62
540.78	978.34
540.95	1128.14
541.12	1139.84
541.29	1064.94
541.46	1041.54
541.62	1144.52
541.79	1100.05
541.96	1121.12
542.13	1188.99
542.30	1090.69
542.47	1160.91
542.63	1109.41
542.80	1109.41
542.97	1034.52
543.14	1109.41
543.31	1130.48
543.48	1020.47
543.64	1153.88
543.81	1165.59
543.98	1170.27
544.15	1191.33
544.32	1109.41
544.48	1057.92
544.65	1130.48
544.82	1008.77
544.99	1158.57
545.16	1153.88
545.32	1074.31
545.49	1109.41
545.66	1114.10
545.83	1100.05
546.00	1088.35
546.16	1135.16
546.33	1135.16
546.50	1071.97
546.67	1128.14
546.83	1114.10
547.00	1008.77
547.17	1060.26
547.34	997.07
547.50	1135.16
547.67	1015.79
547.84	1107.07
548.00	1076.65
548.17	1137.50
548.34	1125.80
548.51	1137.50
548.67	973.66
548.84	1142.18
549.01	1086.01
549.18	1114.10
549.34	1088.35
549.51	1137.50
549.68	1100.05
549.84	1142.18
550.01	1114.10
550.18	1027.50
550.34	1048.56
550.51	1118.78
550.68	1165.59
550.84	1153.88
551.01	1149.20
551.18	1111.75
551.34	1151.54
551.51	1081.33
551.68	1123.46
551.84	1184.31
552.01	1144.52
552.18	1156.22
552.34	1128.14
552.51	1048.56
552.68	987.71
552.84	1055.58
553.01	1153.88
553.18	1100.05
553.34	1048.56
553.51	1050.90
553.67	1156.22
553.84	1053.24
554.01	1022.81
554.17	1076.65
554.34	1078.99
554.51	1109.41
554.67	1069.62
554.84	1160.91
555.00	1104.73
555.17	980.68
555.33	1074.31
555.50	1130.48
555.67	1121.12
555.83	1067.28
556.00	1022.81
556.16	1088.35
556.33	1142.18
556.50	1022.81
556.66	1128.14
556.83	1020.47
556.99	1032.18
557.16	1083.67
557.32	1069.62
557.49	1071.97
557.65	1086.01
557.82	1076.65
557.98	1053.24
558.15	1064.94
558.32	999.41
558.48	929.19
558.65	952.60
558.81	1013.45
558.98	1036.86
559.14	1097.71
559.31	1097.71
559.47	1074.31
559.64	1057.92
559.80	1015.79
559.97	1090.69
560.13	1076.65
560.30	987.71
560.46	1069.62
560.63	1125.80
560.79	1027.50
560.96	1071.97
561.12	983.02
561.29	964.30
561.45	1060.26
561.61	1025.15
561.78	952.60
561.94	1032.18
562.11	976.00
562.27	1004.09
562.44	1062.60
562.60	1011.11
562.77	1203.04
562.93	1078.99
563.10	994.73
563.26	1041.54
563.42	1090.69
563.59	957.28
563.75	1088.35
563.92	1015.79
564.08	1029.84
564.24	1013.45
564.41	997.07
564.57	1060.26
564.74	990.05
564.90	1078.99
565.07	1163.25
565.23	1036.86
565.39	1004.09
565.56	968.98
565.72	1025.15
565.88	971.32
566.05	1001.75
566.21	919.83
566.38	1004.09
566.54	990.05
566.70	1011.11
566.87	1078.99
567.03	1048.56
567.19	994.73
567.36	980.68
567.52	968.98
567.68	938.55
567.85	987.71
568.01	994.73
568.17	959.62
568.34	968.98
568.50	919.83
568.66	884.72
568.83	870.68
568.99	894.08
569.15	940.90
569.32	1013.45
569.48	908.13
569.64	908.13
569.81	952.60
569.97	915.15
570.13	1015.79
570.30	961.96
570.46	945.58
570.62	973.66
570.78	931.53
570.95	947.92
571.11	917.49
571.27	945.58
571.43	952.60
571.60	901.11
571.76	1006.43
571.92	908.13
572.09	940.90
572.25	947.92
572.41	903.45
572.57	1032.18
572.74	980.68
572.90	1008.77
573.06	936.21
573.22	936.21
573.38	1020.47
573.55	901.11
573.71	1020.47
573.87	924.51
574.03	947.92
574.20	940.90
574.36	898.77
574.52	912.81
574.68	959.62
574.84	858.98
575.01	861.32
575.17	891.74
575.33	821.53
575.49	887.06
575.65	964.30
575.82	966.64
575.98	945.58
576.14	847.27
576.30	880.04
576.46	1004.09
576.62	894.08
576.79	898.77
576.95	863.66
577.11	898.77
577.27	952.60
577.43	959.62
577.59	938.55
577.75	933.87
577.92	877.70
578.08	901.11
578.24	971.32
578.40	821.53
578.56	945.58
578.72	866.00
578.88	912.81
579.04	851.96
579.21	851.96
579.37	861.32
579.53	851.96
579.69	823.87
579.85	922.17
580.01	945.58
580.17	887.06
580.33	943.24
580.49	847.27
580.65	901.11
580.82	896.43
580.98	882.38
581.14	830.89
581.30	959.62
581.46	884.72
581.62	933.87
581.78	908.13
581.94	936.21
582.10	1008.77
582.26	875.36
582.42	929.19
582.58	961.96
582.74	957.28
582.90	884.72
583.06	863.66
583.22	863.66
583.38	917.49
583.54	870.68
583.70	844.93
583.86	940.90
584.02	866.00
584.18	849.61
584.34	908.13
584.50	901.11
584.66	866.00
584.82	875.36
584.98	940.90
585.14	837.91
585.30	929.19
585.46	800.46
585.62	875.36
585.78	812.17
585.94	840.25
586.10	833.23
586.26	840.25
586.42	894.08
586.58	812.17
586.74	826.21
586.90	903.45
587.06	910.47
587.22	835.57
587.38	887.06
587.54	842.59
587.70	837.91
587.86	828.55
588.02	819.19
588.18	737.27
588.34	765.36
588.49	720.88
588.65	653.01
588.81	720.88
588.97	748.97
589.13	678.76
589.29	685.78
589.45	660.03
589.61	596.84
589.77	615.56
589.93	739.61
590.08	702.16
590.24	828.55
590.40	690.46
590.56	786.42
590.72	716.20
590.88	711.52
591.04	730.25
591.20	720.88
591.35	765.36
591.51	671.73
591.67	711.52
591.83	751.31
591.99	711.52
592.15	685.78
592.31	741.95
592.46	767.70
592.62	753.65
592.78	805.14
592.94	788.76
593.10	676.41
593.26	746.63
593.41	774.72
593.57	737.27
593.73	716.20
593.89	746.63
594.05	669.39
594.20	723.23
594.36	664.71
594.52	688.12
594.68	643.65
594.84	748.97
594.99	704.50
595.15	732.59
595.31	809.83
595.47	788.76
595.62	702.16
595.78	697.48
595.94	763.01
596.10	807.48
596.25	763.01
596.41	802.80
596.57	709.18
596.73	800.46
596.88	746.63
597.04	805.14
597.20	678.76
597.36	746.63
597.51	739.61
597.67	723.23
597.83	800.46
597.99	826.21
598.14	709.18
598.30	767.70
598.46	821.53
598.61	711.52
598.77	746.63
598.93	681.10
599.09	713.86
599.24	784.08
599.40	847.27
599.56	767.70
599.71	788.76
599.87	793.44
600.03	807.48
600.18	763.01
600.34	720.88
600.50	763.01
600.65	695.14
600.81	819.19
600.97	795.78
601.12	779.40
601.28	755.99
601.44	798.12
601.59	732.59
601.75	786.42
601.91	795.78
602.06	812.17
602.22	723.23
602.37	748.97
602.53	718.54
602.69	858.98
602.84	711.52
603.00	826.21
603.16	798.12
603.31	770.04
603.47	770.04
603.62	805.14
603.78	734.93
603.94	765.36
604.09	863.66
604.25	842.59
604.40	816.85
604.56	814.51
604.71	772.38
604.87	727.91
605.03	798.12
605.18	819.19
605.34	861.32
605.49	730.25
605.65	716.20
605.80	716.20
605.96	784.08
606.12	763.01
606.27	739.61
606.43	826.21
606.58	835.57
606.74	730.25
