SpectraSuite Data File
++++++++++++++++++++++++++++++++++++
Date: Fri Oct 04 11:33:55 GMT-05:00 2013
User: price-jones
Dark Spectrum Present: No
Reference Spectrum Present: No
Number of Sampled Component Spectra: 1
Spectrometers: USB2+H05261
Integration Time (usec): 100000 (USB2+H05261)
Spectra Averaged: 1 (USB2+H05261)
Boxcar Smoothing: 0 (USB2+H05261)
Correct for Electrical Dark: No (USB2+H05261)
Strobe/Lamp Enabled: No (USB2+H05261)
Correct for Detector Non-linearity: No (USB2+H05261)
Correct for Stray Light: No (USB2+H05261)
Number of Pixels in Processed Spectrum: 2048
>>>>>Begin Processed Spectral Data<<<<<
365.73	37.45
365.92	37.45
366.12	37.45
366.32	23.41
366.52	0.00
366.72	49.15
366.91	0.00
367.11	0.00
367.31	16.38
367.51	0.00
367.70	0.00
367.90	0.00
368.10	0.00
368.30	0.00
368.49	0.00
368.69	0.00
368.89	0.00
369.09	0.00
369.28	46.81
369.48	16.38
369.68	0.00
369.87	0.00
370.07	35.11
370.27	37.45
370.47	56.17
370.66	53.83
370.86	93.62
371.06	67.88
371.25	79.58
371.45	65.54
371.65	81.92
371.84	112.35
372.04	21.06
372.24	93.62
372.44	114.69
372.63	159.16
372.83	234.05
373.03	107.66
373.22	147.45
373.42	77.24
373.62	102.98
373.81	63.19
374.01	140.43
374.21	203.63
374.40	145.11
374.60	175.54
374.79	194.26
374.99	163.84
375.19	74.90
375.38	203.63
375.58	170.86
375.78	121.71
375.97	166.18
376.17	191.92
376.37	159.16
376.56	159.16
376.76	161.50
376.95	222.35
377.15	152.13
377.35	149.79
377.54	166.18
377.74	84.26
377.93	229.37
378.13	119.37
378.33	135.75
378.52	84.26
378.72	215.33
378.91	198.95
379.11	173.20
379.31	117.03
379.50	126.39
379.70	208.31
379.89	203.63
380.09	135.75
380.28	84.26
380.48	156.82
380.68	189.58
380.87	133.41
381.07	182.56
381.26	154.48
381.46	121.71
381.65	58.51
381.85	149.79
382.04	107.66
382.24	152.13
382.43	114.69
382.63	102.98
382.83	145.11
383.02	121.71
383.22	133.41
383.41	117.03
383.61	112.35
383.80	170.86
384.00	142.77
384.19	126.39
384.39	121.71
384.58	140.43
384.78	126.39
384.97	156.82
385.17	112.35
385.36	128.73
385.56	163.84
385.75	180.22
385.95	173.20
386.14	191.92
386.34	182.56
386.53	189.58
386.72	100.64
386.92	142.77
387.11	145.11
387.31	152.13
387.50	184.90
387.70	140.43
387.89	124.05
388.09	163.84
388.28	100.64
388.48	39.79
388.67	175.54
388.86	126.39
389.06	81.92
389.25	93.62
389.45	166.18
389.64	121.71
389.84	198.95
390.03	131.07
390.22	227.03
390.42	159.16
390.61	119.37
390.81	156.82
391.00	149.79
391.19	107.66
391.39	145.11
391.58	91.28
391.78	163.84
391.97	140.43
392.16	95.96
392.36	168.52
392.55	149.79
392.75	135.75
392.94	98.30
393.13	177.88
393.33	133.41
393.52	147.45
393.71	196.60
393.91	159.16
394.10	119.37
394.29	93.62
394.49	212.99
394.68	210.65
394.88	241.08
395.07	168.52
395.26	105.32
395.46	196.60
395.65	138.09
395.84	203.63
396.04	245.76
396.23	166.18
396.42	114.69
396.62	121.71
396.81	131.07
397.00	189.58
397.19	215.33
397.39	159.16
397.58	194.26
397.77	175.54
397.97	142.77
398.16	128.73
398.35	161.50
398.55	173.20
398.74	124.05
398.93	79.58
399.12	170.86
399.32	154.48
399.51	191.92
399.70	201.29
399.90	126.39
400.09	243.42
400.28	114.69
400.47	142.77
400.67	138.09
400.86	117.03
401.05	227.03
401.24	187.24
401.44	217.67
401.63	180.22
401.82	177.88
402.01	86.60
402.21	170.86
402.40	250.44
402.59	194.26
402.78	210.65
402.97	140.43
403.17	147.45
403.36	175.54
403.55	159.16
403.74	170.86
403.93	163.84
404.13	248.10
404.32	259.80
404.51	159.16
404.70	234.05
404.89	128.73
405.09	255.12
405.28	168.52
405.47	177.88
405.66	163.84
405.85	220.01
406.05	95.96
406.24	154.48
406.43	234.05
406.62	234.05
406.81	159.16
407.00	166.18
407.20	147.45
407.39	170.86
407.58	65.54
407.77	149.79
407.96	241.08
408.15	201.29
408.34	170.86
408.54	105.32
408.73	107.66
408.92	159.16
409.11	154.48
409.30	198.95
409.49	156.82
409.68	168.52
409.87	161.50
410.07	121.71
410.26	170.86
410.45	110.01
410.64	128.73
410.83	205.97
411.02	145.11
411.21	149.79
411.40	182.56
411.59	177.88
411.78	86.60
411.98	175.54
412.17	149.79
412.36	63.19
412.55	189.58
412.74	194.26
412.93	133.41
413.12	93.62
413.31	154.48
413.50	182.56
413.69	152.13
413.88	166.18
414.07	121.71
414.26	159.16
414.45	126.39
414.64	173.20
414.83	133.41
415.02	147.45
415.22	163.84
415.41	91.28
415.60	102.98
415.79	100.64
415.98	180.22
416.17	126.39
416.36	112.35
416.55	131.07
416.74	194.26
416.93	229.37
417.12	182.56
417.31	135.75
417.50	196.60
417.69	250.44
417.88	215.33
418.07	234.05
418.26	189.58
418.45	196.60
418.64	283.20
418.83	276.18
419.02	234.05
419.21	238.73
419.39	212.99
419.58	257.46
419.77	227.03
419.96	222.35
420.15	231.71
420.34	266.82
420.53	222.35
420.72	229.37
420.91	154.48
421.10	198.95
421.29	124.05
421.48	170.86
421.67	117.03
421.86	147.45
422.05	152.13
422.24	163.84
422.43	229.37
422.61	131.07
422.80	107.66
422.99	182.56
423.18	198.95
423.37	170.86
423.56	168.52
423.75	168.52
423.94	100.64
424.13	163.84
424.32	142.77
424.50	124.05
424.69	217.67
424.88	147.45
425.07	182.56
425.26	250.44
425.45	259.80
425.64	215.33
425.83	217.67
426.01	194.26
426.20	224.69
426.39	205.97
426.58	203.63
426.77	180.22
426.96	133.41
427.15	271.50
427.33	180.22
427.52	182.56
427.71	248.10
427.90	229.37
428.09	243.42
428.28	203.63
428.46	149.79
428.65	238.73
428.84	231.71
429.03	145.11
429.22	107.66
429.40	140.43
429.59	163.84
429.78	304.27
429.97	241.08
430.16	161.50
430.34	168.52
430.53	145.11
430.72	72.56
430.91	161.50
431.10	142.77
431.28	124.05
431.47	227.03
431.66	184.90
431.85	203.63
432.03	201.29
432.22	227.03
432.41	131.07
432.60	203.63
432.79	236.39
432.97	311.29
433.16	304.27
433.35	220.01
433.54	224.69
433.72	227.03
433.91	245.76
434.10	194.26
434.28	196.60
434.47	156.82
434.66	173.20
434.85	196.60
435.03	264.48
435.22	276.18
435.41	437.68
435.59	379.17
435.78	337.04
435.97	308.95
436.16	215.33
436.34	231.71
436.53	191.92
436.72	264.48
436.90	175.54
437.09	170.86
437.28	168.52
437.46	189.58
437.65	234.05
437.84	168.52
438.02	175.54
438.21	187.24
438.40	177.88
438.58	95.96
438.77	166.18
438.96	161.50
439.14	154.48
439.33	252.78
439.52	187.24
439.70	166.18
439.89	210.65
440.08	128.73
440.26	194.26
440.45	252.78
440.63	238.73
440.82	255.12
441.01	145.11
441.19	191.92
441.38	170.86
441.57	189.58
441.75	231.71
441.94	208.31
442.12	215.33
442.31	250.44
442.50	196.60
442.68	196.60
442.87	191.92
443.05	114.69
443.24	180.22
443.43	220.01
443.61	231.71
443.80	231.71
443.98	131.07
444.17	145.11
444.35	220.01
444.54	110.01
444.73	135.75
444.91	231.71
445.10	147.45
445.28	196.60
445.47	107.66
445.65	119.37
445.84	210.65
446.02	168.52
446.21	212.99
446.39	203.63
446.58	173.20
446.77	201.29
446.95	110.01
447.14	210.65
447.32	241.08
447.51	142.77
447.69	262.14
447.88	196.60
448.06	220.01
448.25	180.22
448.43	154.48
448.62	152.13
448.80	210.65
448.99	147.45
449.17	198.95
449.36	224.69
449.54	299.59
449.73	117.03
449.91	205.97
450.10	189.58
450.28	224.69
450.46	205.97
450.65	238.73
450.83	205.97
451.02	224.69
451.20	259.80
451.39	145.11
451.57	201.29
451.76	217.67
451.94	184.90
452.13	161.50
452.31	220.01
452.49	203.63
452.68	105.32
452.86	152.13
453.05	229.37
453.23	184.90
453.42	102.98
453.60	201.29
453.78	210.65
453.97	126.39
454.15	201.29
454.34	205.97
454.52	201.29
454.70	220.01
454.89	170.86
455.07	175.54
455.26	131.07
455.44	238.73
455.62	184.90
455.81	248.10
455.99	259.80
456.17	210.65
456.36	203.63
456.54	231.71
456.73	205.97
456.91	182.56
457.09	212.99
457.28	194.26
457.46	191.92
457.64	198.95
457.83	205.97
458.01	241.08
458.19	285.55
458.38	210.65
458.56	201.29
458.74	173.20
458.93	128.73
459.11	201.29
459.29	210.65
459.48	278.52
459.66	222.35
459.84	196.60
460.03	372.15
460.21	266.82
460.39	177.88
460.57	161.50
460.76	194.26
460.94	142.77
461.12	250.44
461.31	238.73
461.49	220.01
461.67	203.63
461.85	184.90
462.04	187.24
462.22	634.29
462.40	250.44
462.59	194.26
462.77	149.79
462.95	203.63
463.13	117.03
463.32	245.76
463.50	278.52
463.68	245.76
463.86	222.35
464.05	159.16
464.23	182.56
464.41	173.20
464.59	133.41
464.78	114.69
464.96	161.50
465.14	166.18
465.32	142.77
465.50	184.90
465.69	224.69
465.87	142.77
466.05	187.24
466.23	201.29
466.41	248.10
466.60	201.29
466.78	198.95
466.96	243.42
467.14	234.05
467.32	177.88
467.51	203.63
467.69	173.20
467.87	212.99
468.05	203.63
468.23	248.10
468.41	276.18
468.60	220.01
468.78	220.01
468.96	205.97
469.14	194.26
469.32	257.46
469.50	198.95
469.69	205.97
469.87	147.45
470.05	255.12
470.23	173.20
470.41	182.56
470.59	135.75
470.77	257.46
470.95	262.14
471.14	224.69
471.32	252.78
471.50	201.29
471.68	156.82
471.86	191.92
472.04	217.67
472.22	269.16
472.40	117.03
472.58	215.33
472.77	142.77
472.95	210.65
473.13	262.14
473.31	236.39
473.49	203.63
473.67	243.42
473.85	198.95
474.03	222.35
474.21	212.99
474.39	194.26
474.57	152.13
474.75	234.05
474.93	250.44
475.12	175.54
475.30	114.69
475.48	212.99
475.66	175.54
475.84	278.52
476.02	196.60
476.20	257.46
476.38	285.55
476.56	283.20
476.74	252.78
476.92	234.05
477.10	159.16
477.28	217.67
477.46	191.92
477.64	203.63
477.82	180.22
478.00	255.12
478.18	182.56
478.36	166.18
478.54	173.20
478.72	187.24
478.90	191.92
479.08	245.76
479.26	229.37
479.44	156.82
479.62	220.01
479.80	163.84
479.98	93.62
480.16	217.67
480.34	297.25
480.52	145.11
480.70	248.10
480.88	191.92
481.06	142.77
481.24	187.24
481.41	168.52
481.59	175.54
481.77	208.31
481.95	212.99
482.13	212.99
482.31	257.46
482.49	229.37
482.67	278.52
482.85	229.37
483.03	266.82
483.21	227.03
483.39	264.48
483.57	264.48
483.74	280.86
483.92	234.05
484.10	224.69
484.28	238.73
484.46	266.82
484.64	238.73
484.82	297.25
485.00	220.01
485.18	217.67
485.35	315.97
485.53	227.03
485.71	285.55
485.89	234.05
486.07	180.22
486.25	245.76
486.43	245.76
486.61	327.68
486.78	297.25
486.96	217.67
487.14	201.29
487.32	156.82
487.50	255.12
487.68	245.76
487.85	217.67
488.03	229.37
488.21	283.20
488.39	224.69
488.57	306.61
488.75	182.56
488.92	491.51
489.10	222.35
489.28	259.80
489.46	255.12
489.64	224.69
489.81	210.65
489.99	327.68
490.17	236.39
490.35	292.57
490.53	238.73
490.70	210.65
490.88	257.46
491.06	252.78
491.24	264.48
491.41	294.91
491.59	250.44
491.77	250.44
491.95	217.67
492.13	224.69
492.30	210.65
492.48	198.95
492.66	252.78
492.84	287.89
493.01	330.02
493.19	245.76
493.37	365.12
493.54	266.82
493.72	276.18
493.90	318.31
494.08	222.35
494.25	271.50
494.43	269.16
494.61	276.18
494.79	252.78
494.96	205.97
495.14	224.69
495.32	308.95
495.49	238.73
495.67	220.01
495.85	208.31
496.02	241.08
496.20	308.95
496.38	299.59
496.55	224.69
496.73	234.05
496.91	290.23
497.09	269.16
497.26	243.42
497.44	175.54
497.62	119.37
497.79	194.26
497.97	255.12
498.14	252.78
498.32	297.25
498.50	280.86
498.67	248.10
498.85	250.44
499.03	196.60
499.20	252.78
499.38	243.42
499.56	262.14
499.73	208.31
499.91	299.59
500.08	205.97
500.26	273.84
500.44	217.67
500.61	210.65
500.79	259.80
500.97	283.20
501.14	290.23
501.32	243.42
501.49	264.48
501.67	196.60
501.84	234.05
502.02	187.24
502.20	257.46
502.37	231.71
502.55	166.18
502.72	212.99
502.90	259.80
503.07	231.71
503.25	238.73
503.43	177.88
503.60	241.08
503.78	311.29
503.95	271.50
504.13	236.39
504.30	212.99
504.48	276.18
504.65	269.16
504.83	238.73
505.01	344.06
505.18	297.25
505.36	278.52
505.53	231.71
505.71	241.08
505.88	299.59
506.06	236.39
506.23	234.05
506.41	222.35
506.58	236.39
506.76	290.23
506.93	243.42
507.11	250.44
507.28	283.20
507.46	273.84
507.63	273.84
507.81	327.68
507.98	166.18
508.16	287.89
508.33	191.92
508.50	187.24
508.68	196.60
508.85	287.89
509.03	257.46
509.20	250.44
509.38	212.99
509.55	271.50
509.73	299.59
509.90	297.25
510.08	163.84
510.25	304.27
510.42	142.77
510.60	332.36
510.77	362.78
510.95	250.44
511.12	229.37
511.30	332.36
511.47	344.06
511.64	334.70
511.82	224.69
511.99	320.65
512.17	334.70
512.34	208.31
512.51	196.60
512.69	257.46
512.86	227.03
513.04	208.31
513.21	287.89
513.38	290.23
513.56	248.10
513.73	196.60
513.90	217.67
514.08	299.59
514.25	250.44
514.43	273.84
514.60	259.80
514.77	248.10
514.95	222.35
515.12	241.08
515.29	271.50
515.47	276.18
515.64	318.31
515.81	283.20
515.99	318.31
516.16	320.65
516.33	248.10
516.51	248.10
516.68	243.42
516.85	124.05
517.03	243.42
517.20	224.69
517.37	287.89
517.54	327.68
517.72	238.73
517.89	290.23
518.06	231.71
518.24	241.08
518.41	297.25
518.58	322.99
518.75	245.76
518.93	294.91
519.10	243.42
519.27	306.61
519.45	292.57
519.62	269.16
519.79	285.55
519.96	297.25
520.14	278.52
520.31	299.59
520.48	313.63
520.65	276.18
520.83	292.57
521.00	311.29
521.17	283.20
521.34	245.76
521.52	250.44
521.69	287.89
521.86	308.95
522.03	262.14
522.20	273.84
522.38	341.72
522.55	266.82
522.72	231.71
522.89	238.73
523.07	306.61
523.24	187.24
523.41	208.31
523.58	318.31
523.75	252.78
523.92	241.08
524.10	273.84
524.27	259.80
524.44	250.44
524.61	311.29
524.78	236.39
524.96	266.82
525.13	297.25
525.30	362.78
525.47	248.10
525.64	320.65
525.81	252.78
525.98	236.39
526.16	212.99
526.33	290.23
526.50	220.01
526.67	220.01
526.84	248.10
527.01	273.84
527.18	252.78
527.36	306.61
527.53	229.37
527.70	318.31
527.87	229.37
528.04	313.63
528.21	271.50
528.38	248.10
528.55	285.55
528.72	376.83
528.89	360.44
529.07	292.57
529.24	290.23
529.41	292.57
529.58	198.95
529.75	294.91
529.92	304.27
530.09	337.04
530.26	339.38
530.43	362.78
530.60	351.08
530.77	297.25
530.94	205.97
531.11	299.59
531.28	280.86
531.46	287.89
531.63	229.37
531.80	299.59
531.97	308.95
532.14	257.46
532.31	301.93
532.48	353.42
532.65	407.25
532.82	451.72
532.99	514.92
533.16	416.62
533.33	367.46
533.50	325.33
533.67	390.87
533.84	442.36
534.01	559.39
534.18	493.85
534.35	404.91
534.52	269.16
534.69	355.76
534.86	259.80
535.03	217.67
535.20	250.44
535.37	301.93
535.54	301.93
535.71	262.14
535.88	304.27
536.05	231.71
536.22	234.05
536.38	227.03
536.55	290.23
536.72	339.38
536.89	304.27
537.06	248.10
537.23	334.70
537.40	297.25
537.57	355.76
537.74	311.29
537.91	346.40
538.08	241.08
538.25	290.23
538.42	299.59
538.59	285.55
538.75	311.29
538.92	362.78
539.09	330.02
539.26	290.23
539.43	716.20
539.60	1362.19
539.77	2045.63
539.94	2101.80
540.11	1430.07
540.28	1055.58
540.44	746.63
540.61	543.00
540.78	449.38
540.95	423.64
541.12	435.34
541.29	440.02
541.46	538.32
541.62	540.66
541.79	547.69
541.96	477.47
542.13	498.53
542.30	416.62
542.47	500.87
542.63	482.15
542.80	552.37
542.97	468.11
543.14	505.56
543.31	554.71
543.48	528.96
543.64	500.87
543.81	454.06
543.98	477.47
544.15	456.40
544.32	475.13
544.48	428.32
544.65	390.87
544.82	550.03
544.99	447.04
545.16	533.64
545.32	517.26
545.49	615.56
545.66	866.00
545.83	912.81
546.00	830.89
546.16	615.56
546.33	493.85
546.50	479.81
546.67	449.38
546.83	444.70
547.00	355.76
547.17	390.87
547.34	437.68
547.50	325.33
547.67	376.83
547.84	376.83
548.00	346.40
548.17	337.04
548.34	325.33
548.51	369.80
548.67	299.59
548.84	367.46
549.01	372.15
549.18	376.83
549.34	402.57
549.51	393.21
549.68	344.06
549.84	339.38
550.01	278.52
550.18	414.27
550.34	397.89
550.51	327.68
550.68	365.12
550.84	351.08
551.01	383.85
551.18	369.80
551.34	344.06
551.51	402.57
551.68	236.39
551.84	306.61
552.01	266.82
552.18	290.23
552.34	285.55
552.51	276.18
552.68	297.25
552.84	353.42
553.01	301.93
553.18	372.15
553.34	292.57
553.51	292.57
553.67	287.89
553.84	376.83
554.01	341.72
554.17	252.78
554.34	297.25
554.51	325.33
554.67	320.65
554.84	325.33
555.00	358.10
555.17	259.80
555.33	285.55
555.50	264.48
555.67	327.68
555.83	327.68
556.00	337.04
556.16	428.32
556.33	259.80
556.50	273.84
556.66	276.18
556.83	322.99
556.99	257.46
557.16	299.59
557.32	276.18
557.49	266.82
557.65	210.65
557.82	189.58
557.98	308.95
558.15	264.48
558.32	252.78
558.48	248.10
558.65	322.99
558.81	236.39
558.98	201.29
559.14	290.23
559.31	248.10
559.47	250.44
559.64	276.18
559.80	308.95
559.97	299.59
560.13	245.76
560.30	229.37
560.46	220.01
560.63	243.42
560.79	255.12
560.96	257.46
561.12	252.78
561.29	257.46
561.45	283.20
561.61	339.38
561.78	306.61
561.94	234.05
562.11	278.52
562.27	278.52
562.44	327.68
562.60	248.10
562.77	276.18
562.93	306.61
563.10	259.80
563.26	372.15
563.42	264.48
563.59	231.71
563.75	138.09
563.92	283.20
564.08	285.55
564.24	234.05
564.41	423.64
564.57	227.03
564.74	311.29
564.90	252.78
565.07	318.31
565.23	348.74
565.39	292.57
565.56	259.80
565.72	287.89
565.88	299.59
566.05	294.91
566.21	334.70
566.38	252.78
566.54	320.65
566.70	262.14
566.87	170.86
567.03	234.05
567.19	318.31
567.36	297.25
567.52	250.44
567.68	259.80
567.85	217.67
568.01	250.44
568.17	234.05
568.34	215.33
568.50	215.33
568.66	297.25
568.83	362.78
568.99	236.39
569.15	306.61
569.32	262.14
569.48	198.95
569.64	311.29
569.81	280.86
569.97	250.44
570.13	264.48
570.30	304.27
570.46	308.95
570.62	271.50
570.78	266.82
570.95	227.03
571.11	297.25
571.27	262.14
571.43	210.65
571.60	255.12
571.76	332.36
571.92	297.25
572.09	285.55
572.25	285.55
572.41	264.48
572.57	208.31
572.74	299.59
572.90	334.70
573.06	266.82
573.22	257.46
573.38	318.31
573.55	269.16
573.71	320.65
573.87	294.91
574.03	257.46
574.20	306.61
574.36	320.65
574.52	416.62
574.68	461.09
574.84	353.42
575.01	360.44
575.17	315.97
575.33	299.59
575.49	292.57
575.65	269.16
575.82	365.12
575.98	709.18
576.14	875.36
576.30	985.37
576.46	741.95
576.62	662.37
576.79	599.18
576.95	437.68
577.11	339.38
577.27	395.55
577.43	365.12
577.59	348.74
577.75	397.89
577.92	313.63
578.08	315.97
578.24	330.02
578.40	308.95
578.56	430.66
578.72	500.87
578.88	475.13
579.04	407.25
579.21	393.21
579.37	416.62
579.53	395.55
579.69	285.55
579.85	421.30
580.01	543.00
580.17	538.32
580.33	491.51
580.49	411.93
580.65	440.02
580.82	444.70
580.98	423.64
581.14	369.80
581.30	402.57
581.46	594.50
581.62	746.63
581.78	823.87
581.94	758.33
582.10	573.43
582.26	594.50
582.42	514.92
582.58	601.52
582.74	573.43
582.90	521.94
583.06	636.63
583.22	624.92
583.38	631.94
583.54	685.78
583.70	774.72
583.86	983.02
584.02	1055.58
584.18	1217.08
584.34	1476.88
584.50	3922.74
584.66	28439.85
584.82	62150.59
584.98	65535.00
585.14	65535.00
585.30	62705.29
585.46	39618.25
585.62	25022.67
585.78	11564.59
585.94	4458.72
586.10	2101.80
586.26	1404.32
586.42	1144.52
586.58	912.81
586.74	873.02
586.90	802.80
587.06	809.83
587.22	786.42
587.38	770.04
587.54	1444.11
587.70	4447.02
587.86	7506.10
588.02	8910.42
588.18	6361.58
588.34	3719.11
588.49	2499.69
588.65	1511.99
588.81	950.26
588.97	636.63
589.13	393.21
589.29	440.02
589.45	376.83
589.61	402.57
589.77	500.87
589.93	528.96
590.08	592.16
590.24	526.62
590.40	575.77
590.56	540.66
590.72	543.00
590.88	498.53
591.04	491.51
591.20	425.98
591.35	533.64
591.51	461.09
591.67	411.93
591.83	402.57
591.99	367.46
592.15	386.19
592.31	397.89
592.46	386.19
592.62	465.77
592.78	425.98
592.94	381.51
593.10	465.77
593.26	411.93
593.41	545.34
593.57	451.72
593.73	681.10
593.89	3515.48
594.05	9357.46
594.20	14743.03
594.36	14319.40
594.52	9366.82
594.68	5715.59
594.84	3770.60
594.99	2165.00
595.15	952.60
595.31	533.64
595.47	484.49
595.62	383.85
595.78	348.74
595.94	360.44
596.10	433.00
596.25	414.27
596.41	477.47
596.57	388.53
596.73	395.55
596.88	638.97
597.04	1687.53
597.20	3002.91
597.36	3667.62
597.51	2733.75
597.67	1813.92
597.83	1259.21
597.99	880.04
598.14	559.39
598.30	486.83
598.46	360.44
598.61	514.92
598.77	451.72
598.93	379.17
599.09	315.97
599.24	376.83
599.40	362.78
599.56	346.40
599.71	344.06
599.87	290.23
600.03	322.99
600.18	341.72
600.34	407.25
600.50	330.02
600.65	334.70
600.81	341.72
600.97	311.29
601.12	264.48
601.28	318.31
601.44	299.59
601.59	234.05
601.75	311.29
601.91	327.68
602.06	374.49
602.22	491.51
602.37	816.85
602.53	2064.35
602.69	3634.85
602.84	3880.61
603.00	2885.88
603.16	2001.16
603.31	1308.36
603.47	854.30
603.62	505.56
603.78	433.00
603.94	386.19
604.09	287.89
604.25	372.15
604.40	355.76
604.56	381.51
604.71	320.65
604.87	365.12
605.03	262.14
605.18	430.66
605.34	381.51
605.49	369.80
605.65	388.53
605.80	400.23
605.96	351.08
606.12	337.04
606.27	444.70
606.43	444.70
606.58	484.49
606.74	1025.15
606.89	4056.15
607.05	9041.49
607.20	12781.67
607.36	10745.40
607.51	7143.32
607.67	4524.26
607.82	3201.85
607.98	1732.00
608.13	854.30
608.29	608.54
608.44	554.71
608.60	617.90
608.75	664.71
608.91	1474.54
609.06	6272.64
609.22	15477.96
609.37	22513.61
609.53	19695.61
609.68	12961.89
609.84	8269.11
609.99	5521.32
