SpectraSuite Data File
++++++++++++++++++++++++++++++++++++
Date: Fri Oct 04 11:33:59 GMT-05:00 2013
User: price-jones
Dark Spectrum Present: No
Reference Spectrum Present: No
Number of Sampled Component Spectra: 1
Spectrometers: USB2+H05261
Integration Time (usec): 100000 (USB2+H05261)
Spectra Averaged: 1 (USB2+H05261)
Boxcar Smoothing: 0 (USB2+H05261)
Correct for Electrical Dark: No (USB2+H05261)
Strobe/Lamp Enabled: No (USB2+H05261)
Correct for Detector Non-linearity: No (USB2+H05261)
Correct for Stray Light: No (USB2+H05261)
Number of Pixels in Processed Spectrum: 2048
>>>>>Begin Processed Spectral Data<<<<<
365.73	154.48
365.92	154.48
366.12	154.48
366.32	0.00
366.52	0.00
366.72	0.00
366.91	0.00
367.11	0.00
367.31	0.00
367.51	0.00
367.70	0.00
367.90	37.45
368.10	0.00
368.30	0.00
368.49	0.00
368.69	46.81
368.89	7.02
369.09	0.00
369.28	0.00
369.48	0.00
369.68	0.00
369.87	49.15
370.07	35.11
370.27	35.11
370.47	9.36
370.66	39.79
370.86	63.19
371.06	142.77
371.25	147.45
371.45	107.66
371.65	79.58
371.84	65.54
372.04	110.01
372.24	35.11
372.44	93.62
372.63	102.98
372.83	119.37
373.03	114.69
373.22	84.26
373.42	114.69
373.62	117.03
373.81	198.95
374.01	187.24
374.21	189.58
374.40	133.41
374.60	238.73
374.79	161.50
374.99	138.09
375.19	163.84
375.38	220.01
375.58	79.58
375.78	135.75
375.97	177.88
376.17	252.78
376.37	131.07
376.56	131.07
376.76	184.90
376.95	145.11
377.15	131.07
377.35	135.75
377.54	135.75
377.74	114.69
377.93	65.54
378.13	98.30
378.33	152.13
378.52	84.26
378.72	140.43
378.91	124.05
379.11	131.07
379.31	63.19
379.50	194.26
379.70	184.90
379.89	77.24
380.09	147.45
380.28	88.94
380.48	102.98
380.68	191.92
380.87	126.39
381.07	163.84
381.26	173.20
381.46	191.92
381.65	168.52
381.85	147.45
382.04	88.94
382.24	110.01
382.43	156.82
382.63	126.39
382.83	138.09
383.02	140.43
383.22	159.16
383.41	114.69
383.61	86.60
383.80	173.20
384.00	170.86
384.19	88.94
384.39	72.56
384.58	74.90
384.78	184.90
384.97	114.69
385.17	170.86
385.36	135.75
385.56	152.13
385.75	88.94
385.95	88.94
386.14	138.09
386.34	156.82
386.53	119.37
386.72	98.30
386.92	166.18
387.11	142.77
387.31	152.13
387.50	107.66
387.70	175.54
387.89	102.98
388.09	56.17
388.28	140.43
388.48	217.67
388.67	217.67
388.86	140.43
389.06	133.41
389.25	84.26
389.45	112.35
389.64	152.13
389.84	170.86
390.03	205.97
390.22	95.96
390.42	128.73
390.61	102.98
390.81	170.86
391.00	102.98
391.19	119.37
391.39	159.16
391.58	145.11
391.78	95.96
391.97	177.88
392.16	72.56
392.36	147.45
392.55	175.54
392.75	159.16
392.94	147.45
393.13	114.69
393.33	180.22
393.52	159.16
393.71	182.56
393.91	102.98
394.10	173.20
394.29	177.88
394.49	220.01
394.68	166.18
394.88	224.69
395.07	91.28
395.26	138.09
395.46	93.62
395.65	145.11
395.84	215.33
396.04	208.31
396.23	114.69
396.42	91.28
396.62	91.28
396.81	145.11
397.00	166.18
397.19	184.90
397.39	163.84
397.58	177.88
397.77	161.50
397.97	161.50
398.16	159.16
398.35	159.16
398.55	177.88
398.74	191.92
398.93	194.26
399.12	95.96
399.32	191.92
399.51	159.16
399.70	154.48
399.90	131.07
400.09	222.35
400.28	177.88
400.47	128.73
400.67	149.79
400.86	173.20
401.05	184.90
401.24	140.43
401.44	168.52
401.63	173.20
401.82	128.73
402.01	112.35
402.21	161.50
402.40	79.58
402.59	65.54
402.78	105.32
402.97	140.43
403.17	238.73
403.36	145.11
403.55	161.50
403.74	168.52
403.93	159.16
404.13	248.10
404.32	152.13
404.51	170.86
404.70	203.63
404.89	53.83
405.09	236.39
405.28	126.39
405.47	126.39
405.66	145.11
405.85	142.77
406.05	159.16
406.24	133.41
406.43	105.32
406.62	149.79
406.81	128.73
407.00	168.52
407.20	189.58
407.39	138.09
407.58	126.39
407.77	229.37
407.96	159.16
408.15	128.73
408.34	152.13
408.54	166.18
408.73	74.90
408.92	187.24
409.11	163.84
409.30	138.09
409.49	175.54
409.68	173.20
409.87	32.77
410.07	177.88
410.26	175.54
410.45	285.55
410.64	142.77
410.83	149.79
411.02	79.58
411.21	105.32
411.40	140.43
411.59	159.16
411.78	201.29
411.98	135.75
412.17	201.29
412.36	196.60
412.55	184.90
412.74	173.20
412.93	229.37
413.12	119.37
413.31	194.26
413.50	140.43
413.69	156.82
413.88	189.58
414.07	100.64
414.26	154.48
414.45	145.11
414.64	170.86
414.83	142.77
415.02	159.16
415.22	222.35
415.41	187.24
415.60	102.98
415.79	145.11
415.98	210.65
416.17	145.11
416.36	145.11
416.55	152.13
416.74	135.75
416.93	163.84
417.12	131.07
417.31	145.11
417.50	245.76
417.69	203.63
417.88	224.69
418.07	145.11
418.26	189.58
418.45	191.92
418.64	222.35
418.83	212.99
419.02	163.84
419.21	168.52
419.39	128.73
419.58	135.75
419.77	110.01
419.96	147.45
420.15	156.82
420.34	88.94
420.53	217.67
420.72	140.43
420.91	177.88
421.10	152.13
421.29	175.54
421.48	168.52
421.67	182.56
421.86	184.90
422.05	196.60
422.24	184.90
422.43	110.01
422.61	161.50
422.80	180.22
422.99	234.05
423.18	175.54
423.37	152.13
423.56	222.35
423.75	187.24
423.94	152.13
424.13	189.58
424.32	121.71
424.50	196.60
424.69	117.03
424.88	194.26
425.07	175.54
425.26	215.33
425.45	243.42
425.64	212.99
425.83	250.44
426.01	215.33
426.20	77.24
426.39	175.54
426.58	124.05
426.77	140.43
426.96	168.52
427.15	198.95
427.33	203.63
427.52	95.96
427.71	149.79
427.90	173.20
428.09	184.90
428.28	149.79
428.46	138.09
428.65	128.73
428.84	163.84
429.03	220.01
429.22	196.60
429.40	161.50
429.59	110.01
429.78	194.26
429.97	124.05
430.16	180.22
430.34	124.05
430.53	114.69
430.72	131.07
430.91	194.26
431.10	119.37
431.28	126.39
431.47	149.79
431.66	262.14
431.85	177.88
432.03	166.18
432.22	234.05
432.41	212.99
432.60	285.55
432.79	168.52
432.97	161.50
433.16	184.90
433.35	126.39
433.54	126.39
433.72	175.54
433.91	161.50
434.10	147.45
434.28	161.50
434.47	124.05
434.66	210.65
434.85	208.31
435.03	283.20
435.22	308.95
435.41	362.78
435.59	313.63
435.78	271.50
435.97	156.82
436.16	191.92
436.34	215.33
436.53	264.48
436.72	124.05
436.90	210.65
437.09	189.58
437.28	215.33
437.46	182.56
437.65	205.97
437.84	168.52
438.02	222.35
438.21	252.78
438.40	159.16
438.58	149.79
438.77	128.73
438.96	180.22
439.14	217.67
439.33	217.67
439.52	138.09
439.70	154.48
439.89	201.29
440.08	159.16
440.26	135.75
440.45	163.84
440.63	234.05
440.82	170.86
441.01	126.39
441.19	156.82
441.38	238.73
441.57	215.33
441.75	210.65
441.94	201.29
442.12	184.90
442.31	201.29
442.50	180.22
442.68	170.86
442.87	152.13
443.05	196.60
443.24	140.43
443.43	175.54
443.61	180.22
443.80	72.56
443.98	119.37
444.17	119.37
444.35	159.16
444.54	177.88
444.73	177.88
444.91	210.65
445.10	194.26
445.28	238.73
445.47	220.01
445.65	191.92
445.84	191.92
446.02	220.01
446.21	166.18
446.39	145.11
446.58	196.60
446.77	107.66
446.95	217.67
447.14	168.52
447.32	198.95
447.51	133.41
447.69	175.54
447.88	168.52
448.06	131.07
448.25	252.78
448.43	184.90
448.62	163.84
448.80	173.20
448.99	182.56
449.17	238.73
449.36	156.82
449.54	159.16
449.73	236.39
449.91	287.89
450.10	135.75
450.28	229.37
450.46	187.24
450.65	161.50
450.83	238.73
451.02	102.98
451.20	196.60
451.39	159.16
451.57	205.97
451.76	175.54
451.94	212.99
452.13	203.63
452.31	245.76
452.49	180.22
452.68	161.50
452.86	201.29
453.05	217.67
453.23	212.99
453.42	203.63
453.60	210.65
453.78	210.65
453.97	163.84
454.15	243.42
454.34	124.05
454.52	245.76
454.70	201.29
454.89	191.92
455.07	152.13
455.26	215.33
455.44	215.33
455.62	149.79
455.81	215.33
455.99	189.58
456.17	248.10
456.36	168.52
456.54	184.90
456.73	187.24
456.91	170.86
457.09	203.63
457.28	224.69
457.46	201.29
457.64	210.65
457.83	140.43
458.01	147.45
458.19	189.58
458.38	154.48
458.56	166.18
458.74	276.18
458.93	224.69
459.11	163.84
459.29	187.24
459.48	166.18
459.66	208.31
459.84	133.41
460.03	224.69
460.21	168.52
460.39	201.29
460.57	180.22
460.76	189.58
460.94	198.95
461.12	220.01
461.31	229.37
461.49	205.97
461.67	145.11
461.85	138.09
462.04	191.92
462.22	711.52
462.40	245.76
462.59	173.20
462.77	175.54
462.95	184.90
463.13	191.92
463.32	177.88
463.50	166.18
463.68	189.58
463.86	175.54
464.05	131.07
464.23	222.35
464.41	234.05
464.59	152.13
464.78	166.18
464.96	100.64
465.14	201.29
465.32	177.88
465.50	248.10
465.69	194.26
465.87	152.13
466.05	140.43
466.23	184.90
466.41	203.63
466.60	194.26
466.78	227.03
466.96	154.48
467.14	241.08
467.32	217.67
467.51	273.84
467.69	180.22
467.87	248.10
468.05	184.90
468.23	198.95
468.41	227.03
468.60	194.26
468.78	100.64
468.96	205.97
469.14	138.09
469.32	105.32
469.50	189.58
469.69	224.69
469.87	238.73
470.05	215.33
470.23	203.63
470.41	119.37
470.59	128.73
470.77	182.56
470.95	154.48
471.14	140.43
471.32	138.09
471.50	156.82
471.68	163.84
471.86	229.37
472.04	163.84
472.22	203.63
472.40	140.43
472.58	227.03
472.77	222.35
472.95	229.37
473.13	224.69
473.31	198.95
473.49	210.65
473.67	184.90
473.85	175.54
474.03	220.01
474.21	166.18
474.39	114.69
474.57	196.60
474.75	149.79
474.93	145.11
475.12	126.39
475.30	161.50
475.48	126.39
475.66	184.90
475.84	234.05
476.02	208.31
476.20	196.60
476.38	161.50
476.56	184.90
476.74	201.29
476.92	159.16
477.10	126.39
477.28	222.35
477.46	175.54
477.64	227.03
477.82	220.01
478.00	145.11
478.18	231.71
478.36	210.65
478.54	205.97
478.72	241.08
478.90	189.58
479.08	224.69
479.26	154.48
479.44	203.63
479.62	205.97
479.80	201.29
479.98	163.84
480.16	222.35
480.34	184.90
480.52	224.69
480.70	159.16
480.88	142.77
481.06	234.05
481.24	283.20
481.41	238.73
481.59	243.42
481.77	201.29
481.95	124.05
482.13	264.48
482.31	229.37
482.49	142.77
482.67	163.84
482.85	245.76
483.03	229.37
483.21	273.84
483.39	229.37
483.57	229.37
483.74	227.03
483.92	271.50
484.10	215.33
484.28	313.63
484.46	259.80
484.64	210.65
484.82	203.63
485.00	241.08
485.18	236.39
485.35	217.67
485.53	280.86
485.71	212.99
485.89	201.29
486.07	285.55
486.25	320.65
486.43	217.67
486.61	220.01
486.78	250.44
486.96	222.35
487.14	255.12
487.32	266.82
487.50	217.67
487.68	390.87
487.85	215.33
488.03	299.59
488.21	257.46
488.39	205.97
488.57	290.23
488.75	166.18
488.92	442.36
489.10	259.80
489.28	315.97
489.46	227.03
489.64	292.57
489.81	234.05
489.99	198.95
490.17	210.65
490.35	311.29
490.53	191.92
490.70	189.58
490.88	332.36
491.06	182.56
491.24	318.31
491.41	266.82
491.59	222.35
491.77	234.05
491.95	238.73
492.13	238.73
492.30	276.18
492.48	280.86
492.66	252.78
492.84	205.97
493.01	252.78
493.19	287.89
493.37	227.03
493.54	189.58
493.72	280.86
493.90	236.39
494.08	156.82
494.25	168.52
494.43	217.67
494.61	264.48
494.79	278.52
494.96	285.55
495.14	217.67
495.32	245.76
495.49	252.78
495.67	271.50
495.85	210.65
496.02	280.86
496.20	262.14
496.38	273.84
496.55	264.48
496.73	229.37
496.91	234.05
497.09	297.25
497.26	187.24
497.44	149.79
497.62	189.58
497.79	255.12
497.97	241.08
498.14	280.86
498.32	201.29
498.50	222.35
498.67	259.80
498.85	229.37
499.03	182.56
499.20	255.12
499.38	290.23
499.56	201.29
499.73	292.57
499.91	325.33
500.08	299.59
500.26	238.73
500.44	266.82
500.61	205.97
500.79	210.65
500.97	245.76
501.14	262.14
501.32	245.76
501.49	210.65
501.67	238.73
501.84	262.14
502.02	325.33
502.20	278.52
502.37	299.59
502.55	138.09
502.72	301.93
502.90	177.88
503.07	229.37
503.25	212.99
503.43	271.50
503.60	334.70
503.78	255.12
503.95	287.89
504.13	224.69
504.30	301.93
504.48	222.35
504.65	308.95
504.83	325.33
505.01	229.37
505.18	220.01
505.36	168.52
505.53	266.82
505.71	264.48
505.88	299.59
506.06	196.60
506.23	269.16
506.41	231.71
506.58	177.88
506.76	212.99
506.93	241.08
507.11	266.82
507.28	131.07
507.46	238.73
507.63	243.42
507.81	255.12
507.98	234.05
508.16	215.33
508.33	234.05
508.50	266.82
508.68	339.38
508.85	224.69
509.03	205.97
509.20	196.60
509.38	196.60
509.55	304.27
509.73	273.84
509.90	292.57
510.08	203.63
510.25	220.01
510.42	205.97
510.60	287.89
510.77	301.93
510.95	264.48
511.12	276.18
511.30	222.35
511.47	273.84
511.64	276.18
511.82	266.82
511.99	224.69
512.17	191.92
512.34	238.73
512.51	205.97
512.69	285.55
512.86	306.61
513.04	271.50
513.21	262.14
513.38	224.69
513.56	241.08
513.73	231.71
513.90	276.18
514.08	266.82
514.25	222.35
514.43	262.14
514.60	203.63
514.77	299.59
514.95	292.57
515.12	306.61
515.29	290.23
515.47	229.37
515.64	262.14
515.81	283.20
515.99	292.57
516.16	215.33
516.33	262.14
516.51	208.31
516.68	131.07
516.85	243.42
517.03	250.44
517.20	273.84
517.37	215.33
517.54	236.39
517.72	191.92
517.89	215.33
518.06	234.05
518.24	266.82
518.41	299.59
518.58	224.69
518.75	252.78
518.93	308.95
519.10	257.46
519.27	215.33
519.45	325.33
519.62	217.67
519.79	248.10
519.96	259.80
520.14	220.01
520.31	243.42
520.48	301.93
520.65	280.86
520.83	205.97
521.00	236.39
521.17	236.39
521.34	231.71
521.52	250.44
521.69	224.69
521.86	311.29
522.03	285.55
522.20	334.70
522.38	285.55
522.55	236.39
522.72	217.67
522.89	212.99
523.07	306.61
523.24	276.18
523.41	290.23
523.58	283.20
523.75	294.91
523.92	236.39
524.10	313.63
524.27	234.05
524.44	266.82
524.61	290.23
524.78	269.16
524.96	348.74
525.13	280.86
525.30	306.61
525.47	311.29
525.64	292.57
525.81	287.89
525.98	227.03
526.16	269.16
526.33	227.03
526.50	236.39
526.67	152.13
526.84	250.44
527.01	191.92
527.18	217.67
527.36	238.73
527.53	215.33
527.70	248.10
527.87	248.10
528.04	278.52
528.21	273.84
528.38	334.70
528.55	177.88
528.72	259.80
528.89	346.40
529.07	205.97
529.24	208.31
529.41	301.93
529.58	280.86
529.75	231.71
529.92	238.73
530.09	255.12
530.26	299.59
530.43	245.76
530.60	203.63
530.77	266.82
530.94	365.12
531.11	301.93
531.28	161.50
531.46	322.99
531.63	273.84
531.80	266.82
531.97	243.42
532.14	297.25
532.31	276.18
532.48	191.92
532.65	341.72
532.82	278.52
532.99	283.20
533.16	308.95
533.33	297.25
533.50	245.76
533.67	280.86
533.84	273.84
534.01	212.99
534.18	280.86
534.35	292.57
534.52	278.52
534.69	322.99
534.86	252.78
535.03	278.52
535.20	327.68
535.37	322.99
535.54	297.25
535.71	297.25
535.88	313.63
536.05	339.38
536.22	327.68
536.38	276.18
536.55	283.20
536.72	337.04
536.89	259.80
537.06	252.78
537.23	194.26
537.40	255.12
537.57	243.42
537.74	266.82
537.91	337.04
538.08	351.08
538.25	278.52
538.42	311.29
538.59	313.63
538.75	318.31
538.92	248.10
539.09	379.17
539.26	252.78
539.43	374.49
539.60	477.47
539.77	484.49
539.94	606.20
540.11	393.21
540.28	447.04
540.44	407.25
540.61	341.72
540.78	407.25
540.95	451.72
541.12	433.00
541.29	496.19
541.46	512.58
541.62	489.17
541.79	456.40
541.96	496.19
542.13	533.64
542.30	447.04
542.47	430.66
542.63	435.34
542.80	472.79
542.97	507.90
543.14	444.70
543.31	440.02
543.48	430.66
543.64	458.74
543.81	369.80
543.98	463.43
544.15	414.27
544.32	339.38
544.48	397.89
544.65	379.17
544.82	472.79
544.99	402.57
545.16	489.17
545.32	472.79
545.49	636.63
545.66	791.10
545.83	812.17
546.00	709.18
546.16	615.56
546.33	505.56
546.50	491.51
546.67	409.59
546.83	416.62
547.00	404.91
547.17	285.55
547.34	379.17
547.50	390.87
547.67	353.42
547.84	367.46
548.00	425.98
548.17	418.96
548.34	386.19
548.51	395.55
548.67	386.19
548.84	320.65
549.01	341.72
549.18	369.80
549.34	397.89
549.51	355.76
549.68	341.72
549.84	308.95
550.01	313.63
550.18	416.62
550.34	311.29
550.51	346.40
550.68	313.63
550.84	266.82
551.01	285.55
551.18	285.55
551.34	322.99
551.51	353.42
551.68	248.10
551.84	332.36
552.01	266.82
552.18	271.50
552.34	276.18
552.51	325.33
552.68	313.63
552.84	252.78
553.01	283.20
553.18	330.02
553.34	299.59
553.51	313.63
553.67	273.84
553.84	327.68
554.01	266.82
554.17	266.82
554.34	220.01
554.51	283.20
554.67	259.80
554.84	236.39
555.00	269.16
555.17	287.89
555.33	245.76
555.50	227.03
555.67	337.04
555.83	271.50
556.00	208.31
556.16	365.12
556.33	292.57
556.50	280.86
556.66	306.61
556.83	217.67
556.99	248.10
557.16	250.44
557.32	243.42
557.49	241.08
557.65	222.35
557.82	187.24
557.98	259.80
558.15	250.44
558.32	315.97
558.48	257.46
558.65	299.59
558.81	262.14
558.98	330.02
559.14	264.48
559.31	262.14
559.47	322.99
559.64	212.99
559.80	264.48
559.97	248.10
560.13	217.67
560.30	173.20
560.46	257.46
560.63	227.03
560.79	320.65
560.96	273.84
561.12	194.26
561.29	308.95
561.45	220.01
561.61	212.99
561.78	269.16
561.94	231.71
562.11	255.12
562.27	241.08
562.44	252.78
562.60	259.80
562.77	262.14
562.93	344.06
563.10	285.55
563.26	208.31
563.42	257.46
563.59	360.44
563.75	280.86
563.92	262.14
564.08	290.23
564.24	262.14
564.41	311.29
564.57	262.14
564.74	210.65
564.90	292.57
565.07	259.80
565.23	241.08
565.39	257.46
565.56	283.20
565.72	271.50
565.88	243.42
566.05	313.63
566.21	273.84
566.38	198.95
566.54	337.04
566.70	245.76
566.87	250.44
567.03	236.39
567.19	285.55
567.36	227.03
567.52	215.33
567.68	252.78
567.85	287.89
568.01	180.22
568.17	234.05
568.34	257.46
568.50	313.63
568.66	278.52
568.83	287.89
568.99	280.86
569.15	280.86
569.32	273.84
569.48	257.46
569.64	220.01
569.81	276.18
569.97	278.52
570.13	212.99
570.30	222.35
570.46	255.12
570.62	252.78
570.78	271.50
570.95	189.58
571.11	224.69
571.27	290.23
571.43	238.73
571.60	252.78
571.76	250.44
571.92	189.58
572.09	227.03
572.25	177.88
572.41	280.86
572.57	257.46
572.74	257.46
572.90	339.38
573.06	236.39
573.22	322.99
573.38	205.97
573.55	250.44
573.71	241.08
573.87	330.02
574.03	234.05
574.20	271.50
574.36	243.42
574.52	238.73
574.68	248.10
574.84	248.10
575.01	264.48
575.17	285.55
575.33	294.91
575.49	341.72
575.65	248.10
575.82	322.99
575.98	346.40
576.14	290.23
576.30	266.82
576.46	416.62
576.62	397.89
576.79	360.44
576.95	444.70
577.11	337.04
577.27	318.31
577.43	266.82
577.59	330.02
577.75	362.78
577.92	276.18
578.08	327.68
578.24	283.20
578.40	325.33
578.56	369.80
578.72	395.55
578.88	383.85
579.04	348.74
579.21	301.93
579.37	264.48
579.53	353.42
579.69	327.68
579.85	264.48
580.01	313.63
580.17	287.89
580.33	337.04
580.49	285.55
580.65	355.76
580.82	229.37
580.98	255.12
581.14	215.33
581.30	243.42
581.46	257.46
581.62	301.93
581.78	271.50
581.94	383.85
582.10	334.70
582.26	285.55
582.42	337.04
582.58	362.78
582.74	304.27
582.90	353.42
583.06	348.74
583.22	353.42
583.38	315.97
583.54	304.27
583.70	332.36
583.86	409.59
584.02	341.72
584.18	472.79
584.34	465.77
584.50	910.47
584.66	4751.29
584.82	10090.05
584.98	13146.79
585.14	11335.21
585.30	7300.13
585.46	4725.54
585.62	2829.71
585.78	1474.54
585.94	734.93
586.10	428.32
586.26	461.09
586.42	440.02
586.58	334.70
586.74	411.93
586.90	322.99
587.06	341.72
587.22	400.23
587.38	299.59
587.54	517.26
587.70	837.91
587.86	1252.19
588.02	1301.34
588.18	905.79
588.34	660.03
588.49	507.90
588.65	447.04
588.81	327.68
588.97	266.82
589.13	280.86
589.29	318.31
589.45	301.93
589.61	238.73
589.77	318.31
589.93	299.59
590.08	348.74
590.24	273.84
590.40	358.10
590.56	304.27
590.72	257.46
590.88	262.14
591.04	255.12
591.20	311.29
591.35	304.27
591.51	236.39
591.67	266.82
591.83	287.89
591.99	383.85
592.15	283.20
592.31	278.52
592.46	266.82
592.62	266.82
592.78	257.46
592.94	280.86
593.10	318.31
593.26	255.12
593.41	313.63
593.57	273.84
593.73	337.04
593.89	758.33
594.05	1373.89
594.20	1865.41
594.36	1764.76
594.52	1165.59
594.68	917.49
594.84	676.41
594.99	454.06
595.15	376.83
595.31	241.08
595.47	299.59
595.62	355.76
595.78	367.46
595.94	224.69
596.10	290.23
596.25	287.89
596.41	294.91
596.57	255.12
596.73	255.12
596.88	297.25
597.04	486.83
597.20	559.39
597.36	592.16
597.51	463.43
597.67	411.93
597.83	379.17
597.99	292.57
598.14	332.36
598.30	280.86
598.46	313.63
598.61	332.36
598.77	372.15
598.93	276.18
599.09	201.29
599.24	283.20
599.40	248.10
599.56	318.31
599.71	308.95
599.87	299.59
600.03	245.76
600.18	276.18
600.34	287.89
600.50	297.25
600.65	248.10
600.81	283.20
600.97	259.80
601.12	264.48
601.28	304.27
601.44	252.78
601.59	234.05
601.75	229.37
601.91	196.60
602.06	273.84
602.22	332.36
602.37	374.49
602.53	559.39
602.69	589.82
602.84	676.41
603.00	521.94
603.16	482.15
603.31	334.70
603.47	348.74
603.62	320.65
603.78	290.23
603.94	229.37
604.09	257.46
604.25	318.31
604.40	245.76
604.56	306.61
604.71	248.10
604.87	304.27
605.03	229.37
605.18	140.43
605.34	273.84
605.49	287.89
605.65	255.12
605.80	252.78
605.96	294.91
606.12	318.31
606.27	245.76
606.43	280.86
606.58	306.61
606.74	425.98
606.89	961.96
607.05	1401.98
607.20	1631.35
607.36	1334.11
607.51	940.90
607.67	741.95
607.82	578.11
607.98	430.66
608.13	351.08
608.29	318.31
608.44	334.70
608.60	346.40
608.75	337.04
608.91	535.98
609.06	1212.40
609.22	2209.47
609.37	2504.37
609.53	2260.96
609.68	1607.95
609.84	1177.29
609.99	924.51
610.15	685.78
610.30	631.94
610.46	662.37
610.61	669.39
610.76	802.80
