SpectraSuite Data File
++++++++++++++++++++++++++++++++++++
Date: Fri Oct 04 12:15:01 GMT-05:00 2013
User: price-jones
Dark Spectrum Present: No
Reference Spectrum Present: No
Number of Sampled Component Spectra: 1
Spectrometers: USB2+H05261
Integration Time (usec): 10000000 (USB2+H05261)
Spectra Averaged: 1 (USB2+H05261)
Boxcar Smoothing: 0 (USB2+H05261)
Correct for Electrical Dark: No (USB2+H05261)
Strobe/Lamp Enabled: No (USB2+H05261)
Correct for Detector Non-linearity: No (USB2+H05261)
Correct for Stray Light: No (USB2+H05261)
Number of Pixels in Processed Spectrum: 2048
>>>>>Begin Processed Spectral Data<<<<<
365.73	0.00
365.92	0.00
366.12	0.00
366.32	0.00
366.52	0.00
366.72	4355.74
366.91	2284.36
367.11	4227.01
367.31	3599.74
367.51	4294.88
367.70	4994.70
367.90	6745.42
368.10	4821.50
368.30	4938.53
368.49	2555.86
368.69	6204.76
368.89	4301.90
369.09	2796.94
369.28	3976.57
369.48	2392.03
369.68	3412.50
369.87	4550.00
370.07	2974.82
370.27	6513.71
370.47	4664.69
370.66	3662.94
370.86	5533.03
371.06	7936.76
371.25	9853.66
371.45	4351.06
371.65	7056.72
371.84	3569.32
372.04	3126.96
372.24	5013.43
372.44	4053.81
372.63	5373.87
372.83	8648.28
373.03	4674.05
373.22	3641.87
373.42	3829.12
373.62	4606.17
373.81	5544.73
374.01	7091.82
374.21	6892.88
374.40	4255.09
374.60	7290.77
374.79	4578.09
374.99	4196.58
375.19	5469.83
375.38	5998.79
375.58	5022.79
375.78	6904.58
375.97	6384.98
376.17	9832.59
376.37	4688.09
376.56	5858.36
376.76	3866.56
376.95	3513.14
377.15	6157.95
377.35	5722.61
377.54	5746.02
377.74	3904.01
377.93	4004.66
378.13	5102.37
378.33	6911.60
378.52	4725.54
378.72	6991.18
378.91	6431.79
379.11	4250.41
379.31	4308.93
379.50	3218.24
379.70	7112.89
379.89	6906.92
380.09	4250.41
380.28	3417.18
380.48	4915.12
380.68	3782.31
380.87	3155.04
381.07	5495.58
381.26	7679.30
381.46	6516.05
381.65	6090.07
381.85	4222.33
382.04	4856.61
382.24	5942.62
382.43	4493.83
382.63	3492.08
382.83	4451.70
383.02	6764.15
383.22	7641.85
383.41	3501.44
383.61	4905.76
383.80	4643.62
384.00	4760.65
384.19	4259.78
384.39	5235.78
384.58	4416.59
384.78	5888.79
384.97	5500.26
385.17	4629.58
385.36	4156.79
385.56	6633.08
385.75	3243.98
385.95	4748.95
386.14	6703.29
386.34	4306.59
386.53	5432.38
386.72	4170.83
386.92	7861.86
387.11	5916.87
387.31	6054.97
387.50	3859.54
387.70	3419.52
387.89	5067.26
388.09	3702.73
388.28	3581.02
388.48	3819.75
388.67	6668.19
388.86	4615.54
389.06	4617.88
389.25	5823.25
389.45	5549.41
389.64	4802.78
389.84	7557.59
390.03	6150.93
390.22	5434.72
390.42	4606.17
390.61	3698.05
390.81	3253.34
391.00	5137.48
391.19	7222.89
391.39	4770.01
391.58	6207.10
391.78	5053.22
391.97	5612.60
392.16	3655.92
392.36	7836.11
392.55	7267.36
392.75	4922.15
392.94	4070.19
393.13	6471.58
393.33	3323.56
393.52	4196.58
393.71	7950.80
393.91	5357.49
394.10	3726.13
394.29	4271.48
394.49	4224.67
394.68	6033.90
394.88	7447.58
395.07	7213.53
395.26	5476.85
395.46	5217.05
395.65	7255.66
395.84	5921.56
396.04	11955.46
396.23	4971.30
396.42	4332.33
396.62	5692.18
396.81	5827.93
397.00	5118.75
397.19	5540.05
397.39	4596.81
397.58	8112.30
397.77	4812.14
397.97	5458.13
398.16	5261.52
398.35	6722.02
398.55	4177.86
398.74	5444.09
398.93	7445.24
399.12	4688.09
399.32	6621.38
399.51	5245.14
399.70	6686.91
399.90	6354.55
400.09	6312.42
400.28	7552.91
400.47	5050.88
400.67	7232.26
400.86	5722.61
401.05	6944.37
401.24	7548.23
401.44	7140.97
401.63	7096.50
401.82	7955.48
402.01	4578.09
402.21	5486.22
402.40	6050.28
402.59	5163.22
402.78	5184.29
402.97	5350.46
403.17	5933.26
403.36	6452.86
403.55	5544.73
403.74	5364.51
403.93	5556.43
404.13	8325.29
404.32	5013.43
404.51	4922.15
404.70	7304.81
404.89	5474.51
405.09	9956.64
405.28	5837.30
405.47	4404.89
405.66	7087.14
405.85	7896.97
406.05	5696.86
406.24	5650.05
406.43	6490.31
406.62	7087.14
406.81	10443.47
407.00	7997.61
407.20	6263.27
407.39	5755.38
407.58	5376.21
407.77	7080.12
407.96	8641.26
408.15	7852.50
408.34	7304.81
408.54	6658.82
408.73	6403.71
408.92	6171.99
409.11	7435.88
409.30	8404.86
409.49	4865.97
409.68	5617.29
409.87	6284.34
410.07	4952.57
410.26	6539.46
410.45	5748.36
410.64	5053.22
410.83	6368.60
411.02	5617.29
411.21	7538.87
411.40	7854.84
411.59	6045.60
411.78	5603.24
411.98	6499.67
412.17	5097.69
412.36	5820.91
412.55	5694.52
412.74	7639.51
412.93	10396.66
413.12	5437.06
413.31	8535.93
413.50	7248.64
413.69	6420.09
413.88	9301.29
414.07	6963.09
414.26	6731.38
414.45	5582.18
414.64	7812.71
414.83	7485.03
415.02	7133.95
415.22	7999.95
415.41	9245.12
415.60	5996.45
415.79	6588.61
415.98	9710.88
416.17	6960.75
416.36	6813.30
416.55	5830.27
416.74	8107.62
416.93	8870.63
417.12	6504.35
417.31	6293.70
417.50	6663.51
417.69	10663.48
417.88	7180.76
418.07	5547.07
418.26	6579.25
418.45	6640.10
418.64	10499.64
418.83	7981.23
419.02	7843.14
419.21	7185.44
419.39	7485.03
419.58	5977.73
419.77	6101.78
419.96	9001.70
420.15	10326.44
420.34	7150.34
420.53	7515.46
420.72	8915.10
420.91	7489.71
421.10	7112.89
421.29	7581.00
421.48	8231.66
421.67	8919.78
421.86	6382.64
422.05	6747.76
422.24	6696.27
422.43	7419.50
422.61	5430.04
422.80	6665.85
422.99	7115.23
423.18	6085.39
423.37	9844.29
423.56	7999.95
423.75	8271.45
423.94	5523.66
424.13	6848.41
424.32	6026.88
424.50	7080.12
424.69	6860.11
424.88	9966.00
425.07	6565.20
425.26	8070.17
425.45	8503.17
425.64	6321.79
425.83	7159.70
426.01	9940.26
426.20	8035.06
426.39	6640.10
426.58	6211.78
426.77	7180.76
426.96	9114.05
427.15	7693.34
427.33	6396.68
427.52	7295.45
427.71	7297.79
427.90	7585.68
428.09	6401.37
428.28	5490.90
428.46	6361.58
428.65	8156.77
428.84	8961.91
429.03	10487.94
429.22	6286.68
429.40	5621.97
429.59	5191.31
429.78	11360.96
429.97	6534.78
430.16	5647.71
430.34	6040.92
430.53	5884.11
430.72	6331.15
430.91	8676.37
431.10	5502.60
431.28	7169.06
431.47	9114.05
431.66	8276.13
431.85	6586.27
432.03	7328.22
432.22	12617.83
432.41	7105.87
432.60	10274.95
432.79	6480.94
432.97	8226.98
433.16	7375.03
433.35	6368.60
433.54	6396.68
433.72	8486.78
433.91	9001.70
434.10	6808.62
434.28	8198.90
434.47	7178.42
434.66	9252.14
434.85	6951.39
435.03	7653.55
435.22	11108.18
435.41	11372.66
435.59	9081.28
435.78	8304.22
435.97	6881.18
436.16	9582.15
436.34	7723.77
436.53	8613.17
436.72	9853.66
436.90	9415.98
437.09	8601.47
437.28	8049.10
437.46	7325.88
437.65	9128.09
437.84	8809.78
438.02	8465.72
438.21	8748.92
438.40	6878.83
438.58	6143.91
438.77	8175.49
438.96	8121.66
439.14	6916.28
439.33	9657.05
439.52	7478.01
439.70	7946.12
439.89	9523.64
440.08	8505.51
440.26	8241.03
440.45	11536.50
440.63	8676.37
440.82	8723.18
441.01	8643.60
441.19	7747.17
441.38	7889.95
441.57	8154.43
441.75	10991.16
441.94	10815.62
442.12	8547.64
442.31	7929.74
442.50	8093.57
442.68	7957.82
442.87	8676.37
443.05	7906.33
443.24	8954.89
443.43	11215.85
443.61	11777.58
443.80	8784.03
443.98	7686.32
444.17	8102.93
444.35	10586.24
444.54	8304.22
444.73	8278.47
444.91	11269.68
445.10	7232.26
445.28	7398.43
445.47	8711.47
445.65	8500.83
445.84	7723.77
446.02	8624.87
446.21	8081.87
446.39	8072.51
446.58	9455.76
446.77	8079.53
446.95	8414.23
447.14	9736.63
447.32	12060.78
447.51	8830.84
447.69	9158.52
447.88	9305.97
448.06	12170.79
448.25	9710.88
448.43	7602.06
448.62	7489.71
448.80	10031.54
448.99	10399.00
449.17	7889.95
449.36	8109.96
449.54	10595.61
449.73	7744.83
449.91	10059.62
450.10	8435.29
450.28	14420.04
450.46	13338.71
450.65	11232.23
450.83	9734.29
451.02	8828.50
451.20	9085.96
451.39	9013.40
451.57	8713.81
451.76	8365.07
451.94	8819.14
452.13	9987.07
452.31	11197.12
452.49	9898.13
452.68	7279.07
452.86	9654.71
453.05	12917.42
453.23	9338.74
453.42	7365.67
453.60	8922.12
453.78	9774.08
453.97	7749.51
454.15	7470.99
454.34	8002.29
454.52	7988.25
454.70	12107.59
454.89	10387.30
455.07	8131.02
455.26	10155.58
455.44	10932.64
455.62	8601.47
455.81	9762.37
455.99	10047.92
456.17	10307.72
456.36	8901.06
456.54	8760.63
456.73	8566.36
456.91	8482.10
457.09	10354.53
457.28	11747.15
457.46	9144.47
457.64	11393.73
457.83	8919.78
458.01	8198.90
458.19	9961.32
458.38	8748.92
458.56	10043.24
458.74	7796.32
458.93	10186.01
459.11	9544.70
459.29	8283.16
459.48	10551.14
459.66	13076.57
459.84	11096.48
460.03	18192.98
460.21	11260.32
460.39	9130.43
460.57	12271.43
460.76	9989.41
460.94	9675.77
461.12	13434.68
461.31	12458.67
461.49	9371.50
461.67	8940.85
461.85	10125.16
462.04	9296.61
462.22	52198.63
462.40	10736.04
462.59	12262.07
462.77	8767.65
462.95	10251.55
463.13	8079.53
463.32	11360.96
463.50	10080.69
463.68	10572.20
463.86	10019.83
464.05	8990.00
464.23	12224.62
464.41	11117.54
464.59	8643.60
464.78	8908.08
464.96	7943.78
465.14	9944.94
465.32	8793.39
465.50	10988.82
465.69	10892.85
465.87	8002.29
466.05	10637.73
466.23	7543.55
466.41	8847.22
466.60	9238.09
466.78	9654.71
466.96	11995.25
467.14	10312.40
467.32	11985.88
467.51	10691.57
467.69	10817.96
467.87	12884.65
468.05	9549.39
468.23	13958.96
468.41	11506.07
468.60	9268.52
468.78	10434.11
468.96	12184.83
469.14	10780.51
469.32	7829.09
469.50	8002.29
469.69	10579.22
469.87	10024.51
470.05	10169.63
470.23	9483.85
470.41	8372.10
470.59	8842.54
470.77	10319.42
470.95	9476.83
471.14	12308.88
471.32	9708.54
471.50	13305.95
471.68	10277.29
471.86	10810.93
472.04	8805.10
472.22	10373.25
472.40	8226.98
472.58	8990.00
472.77	8568.70
472.95	9738.97
473.13	14136.84
473.31	12741.88
473.49	8479.76
473.67	8872.97
473.85	11419.47
474.03	11737.79
474.21	10310.06
474.39	13193.60
474.57	13816.18
474.75	10661.14
474.93	9078.94
475.12	8308.90
475.30	9455.76
475.48	10036.22
475.66	10370.91
475.84	10305.38
476.02	9802.16
476.20	11922.69
476.38	10340.49
476.56	16116.93
476.74	10080.69
476.92	9954.30
477.10	10352.19
477.28	11903.96
477.46	10448.15
477.64	11838.43
477.82	10726.68
478.00	10026.86
478.18	10934.98
478.36	10628.37
478.54	9692.16
478.72	10078.35
478.90	10785.19
479.08	11721.40
479.26	11152.65
479.44	10417.72
479.62	9378.53
479.80	10408.36
479.98	9525.98
480.16	10148.56
480.34	12947.84
480.52	9996.43
480.70	12397.82
480.88	10045.58
481.06	9989.41
481.24	10415.38
481.41	10939.66
481.59	12746.56
481.77	11838.43
481.95	11009.88
482.13	14560.47
482.31	11611.40
482.49	10160.27
482.67	12863.58
482.85	13558.72
483.03	12678.68
483.21	12056.10
483.39	11068.39
483.57	11396.07
483.74	15103.48
483.92	11578.63
484.10	10349.85
484.28	14040.87
484.46	17664.02
484.64	11239.25
484.82	11925.03
485.00	11073.07
485.18	11868.86
485.35	11925.03
485.53	9090.64
485.71	13448.72
485.89	8702.11
486.07	10305.38
486.25	16615.46
486.43	13069.55
486.61	13254.45
486.78	12945.50
486.96	10186.01
487.14	11882.90
487.32	11683.95
487.50	11756.51
487.68	14150.88
487.85	11218.19
488.03	13664.05
488.21	15700.31
488.39	12461.01
488.57	13738.94
488.75	11452.24
488.92	38866.94
489.10	13715.54
489.28	17507.21
489.46	11791.62
489.64	13371.48
489.81	13514.25
489.99	14796.87
490.17	12917.42
490.35	20058.39
490.53	12924.44
490.70	11995.25
490.88	15424.13
491.06	12772.30
491.24	14696.22
491.41	16788.66
491.59	14178.97
491.77	11815.02
491.95	11899.28
492.13	12439.95
492.30	13973.00
492.48	13378.50
492.66	13970.66
492.84	12840.18
493.01	14696.22
493.19	13006.36
493.37	17900.42
493.54	15508.39
493.72	15255.61
493.90	13502.55
494.08	13404.25
494.25	15473.28
494.43	15456.90
494.61	13877.04
494.79	13020.40
494.96	13095.30
495.14	15440.51
495.32	13823.20
495.49	14941.98
495.67	14888.15
495.85	14090.02
496.02	13474.46
496.20	16926.75
496.38	15812.66
496.55	14881.13
496.73	16013.95
496.91	13867.67
497.09	16386.09
497.26	14698.56
497.44	14785.16
497.62	14719.63
497.79	14721.97
497.97	15398.38
498.14	15730.74
498.32	15311.78
498.50	15438.17
498.67	14265.57
498.85	15426.47
499.03	14714.95
499.20	15503.71
499.38	15119.86
499.56	15063.69
499.73	19379.64
499.91	16755.90
500.08	16542.91
500.26	14450.47
500.44	14169.60
500.61	15838.41
500.79	13898.10
500.97	16063.10
501.14	18078.30
501.32	14953.68
501.49	17598.49
501.67	14841.34
501.84	15744.78
502.02	13596.17
502.20	19058.98
502.37	16137.99
502.55	14766.44
502.72	15173.69
502.90	16952.50
503.07	15480.30
503.25	15955.43
503.43	13383.18
503.60	13872.36
503.78	15253.27
503.95	14389.61
504.13	14391.95
504.30	16872.92
504.48	17942.55
504.65	18417.68
504.83	17064.85
505.01	14916.23
505.18	16088.84
505.36	15768.19
505.53	15702.65
505.71	15056.67
505.88	19108.13
506.06	15293.06
506.23	15377.32
506.41	14707.93
506.58	16662.27
506.76	16079.48
506.93	15021.56
507.11	16662.27
507.28	14097.05
507.46	14530.05
507.63	15852.45
507.81	14277.27
507.98	15723.72
508.16	15744.78
508.33	16407.16
508.50	17319.96
508.68	16180.12
508.85	16552.27
509.03	15119.86
509.20	15264.97
509.38	16947.82
509.55	18017.44
509.73	18162.56
509.90	18869.40
510.08	14904.53
510.25	17717.86
510.42	14623.67
510.60	16177.78
510.77	17998.72
510.95	18705.56
511.12	15459.24
511.30	17895.74
511.47	18277.24
511.64	20643.52
511.82	16112.25
511.99	16060.76
512.17	15992.88
512.34	14934.96
512.51	15517.75
512.69	15613.71
512.86	18937.27
513.04	15037.94
513.21	16725.47
513.38	15414.77
513.56	15147.95
513.73	15358.60
513.90	14492.60
514.08	14534.73
514.25	16659.93
514.43	17050.80
514.60	14768.78
514.77	15304.76
514.95	16716.11
515.12	15133.90
515.29	17090.59
515.47	16996.97
515.64	16872.92
515.81	16147.36
515.99	19461.55
516.16	16961.86
516.33	17635.94
516.51	14031.51
516.68	12989.97
516.85	13989.38
517.03	14661.12
517.20	17029.74
517.37	16718.45
517.54	17710.83
517.72	15410.09
517.89	13334.03
518.06	13865.33
518.24	20147.33
518.41	19695.61
518.58	17675.73
518.75	14939.64
518.93	16409.50
519.10	16650.57
519.27	15676.91
519.45	16989.95
519.62	17266.13
519.79	18148.51
519.96	14981.77
520.14	16952.50
520.31	19143.24
520.48	16720.79
520.65	16924.41
520.83	18448.10
521.00	18005.74
521.17	17586.79
521.34	16245.66
521.52	17411.25
521.69	17179.53
521.86	17137.40
522.03	18347.46
522.20	20648.21
522.38	15925.00
522.55	17078.89
522.72	14693.88
522.89	18555.77
523.07	21507.18
523.24	16798.02
523.41	16617.80
523.58	16659.93
523.75	17177.19
523.92	16219.91
524.10	18043.19
524.27	17165.49
524.44	16601.42
524.61	20208.19
524.78	16416.52
524.96	18459.81
525.13	17694.45
525.30	19623.05
525.47	19208.78
525.64	17329.33
525.81	17727.22
525.98	17191.23
526.16	15545.84
526.33	14724.31
526.50	14260.88
526.67	14141.52
526.84	14429.40
527.01	14801.55
527.18	17364.43
527.36	16879.94
527.53	16119.27
527.70	19616.03
527.87	17165.49
528.04	21125.68
528.21	16311.19
528.38	20224.57
528.55	20355.64
528.72	20886.94
528.89	22530.00
529.07	17528.27
529.24	17408.90
529.41	21069.50
529.58	17710.83
529.75	16500.78
529.92	18951.32
530.09	17869.99
530.26	19576.24
530.43	18733.65
530.60	18054.89
530.77	17984.68
530.94	19639.44
531.11	18897.49
531.28	17205.28
531.46	16545.25
531.63	18155.54
531.80	18436.40
531.97	18405.97
532.14	16851.86
532.31	17474.44
532.48	17469.76
532.65	18412.99
532.82	15658.18
532.99	17460.40
533.16	17696.79
533.33	17481.46
533.50	17507.21
533.67	16512.48
533.84	19283.67
534.01	17980.00
534.18	17429.97
534.35	17748.28
534.52	18295.97
534.69	22845.97
534.86	17497.84
535.03	17252.09
535.20	17507.21
535.37	20348.62
535.54	18567.47
535.71	17530.61
535.88	21233.34
536.05	16901.01
536.22	18478.53
536.38	16805.05
536.55	17858.29
536.72	19580.92
536.89	15634.78
537.06	16329.92
537.23	16283.11
537.40	16484.39
537.57	16390.77
537.74	19185.37
537.91	18998.13
538.08	17654.66
538.25	18595.56
538.42	16683.34
538.59	18071.28
538.75	16875.26
538.92	17467.42
539.09	19176.01
539.26	16851.86
539.43	21556.33
539.60	21558.67
539.77	24287.74
539.94	22941.93
540.11	21570.38
540.28	22031.46
540.44	20650.55
540.61	16959.52
540.78	16203.53
540.95	15403.07
541.12	20599.05
541.29	16240.98
541.46	20776.94
541.62	17685.09
541.79	15784.57
541.96	15992.88
542.13	16496.10
542.30	15782.23
542.47	18981.74
542.63	16533.54
542.80	18026.81
542.97	19749.44
543.14	16669.30
543.31	18174.26
543.48	17219.32
543.64	18431.72
543.81	17664.02
543.98	16379.07
544.15	15704.99
544.32	16475.03
544.48	17102.29
544.65	16645.89
544.82	16020.97
544.99	17097.61
545.16	19836.04
545.32	16016.29
545.49	17799.77
545.66	17277.83
545.83	15873.51
546.00	15253.27
546.16	16278.43
546.33	16592.06
546.50	16882.28
546.67	20130.95
546.83	18831.95
547.00	17432.31
547.17	15304.76
547.34	15499.03
547.50	16786.32
547.67	17043.78
547.84	15871.17
548.00	18801.52
548.17	16037.35
548.34	16524.18
548.51	21383.13
548.67	19646.46
548.84	16727.81
549.01	17813.82
549.18	17825.52
549.34	17769.35
549.51	17563.38
549.68	17844.24
549.84	17376.14
550.01	15367.96
550.18	27239.15
550.34	23461.53
550.51	17598.49
550.68	21996.35
550.84	16166.08
551.01	17259.11
551.18	18679.82
551.34	17102.29
551.51	16496.10
551.68	17069.53
551.84	18780.46
552.01	16053.73
552.18	16297.15
552.34	17128.04
552.51	17177.19
552.68	18658.75
552.84	16116.93
553.01	17481.46
553.18	19005.15
553.34	16608.44
553.51	15302.42
553.67	18459.81
553.84	21965.93
554.01	18609.60
554.17	18361.50
554.34	15836.06
554.51	18092.34
554.67	19557.52
554.84	18883.44
555.00	17614.87
555.17	17596.15
555.33	19335.17
555.50	17465.08
555.67	18022.12
555.83	15508.39
556.00	17043.78
556.16	34251.40
556.33	17348.05
556.50	16791.00
556.66	16638.87
556.83	15662.86
556.99	15791.59
557.16	16980.59
557.32	15969.48
557.49	16203.53
557.65	16013.95
557.82	15737.76
557.98	16788.66
558.15	15192.42
558.32	16245.66
558.48	15442.85
558.65	15580.95
558.81	17563.38
558.98	15290.72
559.14	17628.92
559.31	16554.61
559.47	17839.56
559.64	15105.82
559.80	18143.83
559.97	14864.74
560.13	16362.69
560.30	14743.03
560.46	15798.62
560.63	16226.93
560.79	16706.74
560.96	16725.47
561.12	15403.07
561.29	17064.85
561.45	15679.25
561.61	16163.74
561.78	24924.36
561.94	16053.73
562.11	15339.87
562.27	16755.90
562.44	14876.44
562.60	16280.77
562.77	15953.09
562.93	22569.79
563.10	17130.38
563.26	16259.70
563.42	18766.42
563.59	16723.13
563.75	14871.76
563.92	19424.11
564.08	17214.64
564.24	18256.18
564.41	21125.68
564.57	14277.27
564.74	15356.25
564.90	16912.71
565.07	17598.49
565.23	17558.70
565.39	15339.87
565.56	16959.52
565.72	14913.89
565.88	15421.79
566.05	15218.16
566.21	15000.49
566.38	17055.48
566.54	16114.59
566.70	15531.80
566.87	15475.62
567.03	13942.57
567.19	15880.53
567.36	17050.80
567.52	15250.93
567.68	16819.09
567.85	16826.11
568.01	15033.26
568.17	13612.56
568.34	14892.83
568.50	18033.83
568.66	13738.94
568.83	22663.41
568.99	14539.41
569.15	18848.33
569.32	15056.67
569.48	15124.54
569.64	14015.13
569.81	15674.57
569.97	14265.57
570.13	16627.17
570.30	14956.02
570.46	14518.34
570.62	14534.73
570.78	14583.88
570.95	13139.77
571.11	19044.94
571.27	19115.16
571.43	13495.53
571.60	16933.78
571.76	14420.04
571.92	15466.26
572.09	14761.76
572.25	15241.57
572.41	15651.16
572.57	15208.80
572.74	19960.09
572.90	17198.26
573.06	17352.73
573.22	16816.75
573.38	17881.69
573.55	17165.49
573.71	17745.94
573.87	16692.70
574.03	13902.78
574.20	14801.55
574.36	18146.17
574.52	14691.54
574.68	14860.06
574.84	16720.79
575.01	14986.45
575.17	16580.36
575.33	14724.31
575.49	17158.47
575.65	17303.58
575.82	17554.02
575.98	21860.60
576.14	17493.16
576.30	16978.25
576.46	16578.01
576.62	16460.99
576.79	16741.85
576.95	18558.11
577.11	14195.35
577.27	13834.91
577.43	18160.22
577.59	18321.71
577.75	16325.24
577.92	14520.68
578.08	14246.84
578.24	13607.87
578.40	17575.08
578.56	17818.50
578.72	18265.54
578.88	16966.54
579.04	14581.54
579.21	16238.64
579.37	15068.37
579.53	14918.57
579.69	17781.05
579.85	13558.72
580.01	16987.61
580.17	14525.36
580.33	14967.73
580.49	16009.26
580.65	16730.15
580.82	15721.38
580.98	14281.95
581.14	14560.47
581.30	18429.38
581.46	16255.02
581.62	19229.84
581.78	16037.35
581.94	18214.05
582.10	14586.22
582.26	16025.65
582.42	14937.30
582.58	17270.81
582.74	15080.07
582.90	16465.67
583.06	16994.63
583.22	14834.32
583.38	15229.87
583.54	15180.71
583.70	20250.32
583.86	17825.52
584.02	17654.66
584.18	22029.12
584.34	19323.46
584.50	31978.74
584.66	65535.00
584.82	65535.00
584.98	65535.00
585.14	65535.00
585.30	65535.00
585.46	65535.00
585.62	65535.00
585.78	49233.17
585.94	29074.13
586.10	20821.41
586.26	18951.32
586.42	21678.04
586.58	17991.70
586.74	16233.96
586.90	16416.52
587.06	17097.61
587.22	16365.03
587.38	14532.39
587.54	18991.11
587.70	34316.93
587.86	43592.48
588.02	40617.66
