SpectraSuite Data File
++++++++++++++++++++++++++++++++++++
Date: Fri Oct 04 11:33:49 GMT-05:00 2013
User: price-jones
Dark Spectrum Present: No
Reference Spectrum Present: No
Number of Sampled Component Spectra: 1
Spectrometers: USB2+H05261
Integration Time (usec): 100000 (USB2+H05261)
Spectra Averaged: 1 (USB2+H05261)
Boxcar Smoothing: 0 (USB2+H05261)
Correct for Electrical Dark: No (USB2+H05261)
Strobe/Lamp Enabled: No (USB2+H05261)
Correct for Detector Non-linearity: No (USB2+H05261)
Correct for Stray Light: No (USB2+H05261)
Number of Pixels in Processed Spectrum: 2048
>>>>>Begin Processed Spectral Data<<<<<
365.73	65.54
365.92	65.54
366.12	65.54
366.32	0.00
366.52	0.00
366.72	0.00
366.91	0.00
367.11	28.09
367.31	0.00
367.51	0.00
367.70	0.00
367.90	0.00
368.10	30.43
368.30	46.81
368.49	0.00
368.69	0.00
368.89	0.00
369.09	0.00
369.28	0.00
369.48	0.00
369.68	14.04
369.87	77.24
370.07	32.77
370.27	86.60
370.47	60.85
370.66	37.45
370.86	163.84
371.06	173.20
371.25	156.82
371.45	51.49
371.65	163.84
371.84	124.05
372.04	154.48
372.24	84.26
372.44	168.52
372.63	119.37
372.83	145.11
373.03	180.22
373.22	168.52
373.42	149.79
373.62	156.82
373.81	135.75
374.01	177.88
374.21	177.88
374.40	149.79
374.60	133.41
374.79	184.90
374.99	86.60
375.19	135.75
375.38	175.54
375.58	128.73
375.78	201.29
375.97	86.60
376.17	229.37
376.37	152.13
376.56	184.90
376.76	145.11
376.95	135.75
377.15	180.22
377.35	53.83
377.54	84.26
377.74	170.86
377.93	126.39
378.13	196.60
378.33	227.03
378.52	110.01
378.72	203.63
378.91	131.07
379.11	65.54
379.31	168.52
379.50	105.32
379.70	133.41
379.89	119.37
380.09	156.82
380.28	67.88
380.48	86.60
380.68	98.30
380.87	163.84
381.07	128.73
381.26	170.86
381.46	138.09
381.65	234.05
381.85	152.13
382.04	117.03
382.24	182.56
382.43	124.05
382.63	81.92
382.83	121.71
383.02	142.77
383.22	110.01
383.41	128.73
383.61	126.39
383.80	166.18
384.00	107.66
384.19	156.82
384.39	88.94
384.58	133.41
384.78	135.75
384.97	142.77
385.17	142.77
385.36	117.03
385.56	138.09
385.75	133.41
385.95	135.75
386.14	126.39
386.34	205.97
386.53	147.45
386.72	86.60
386.92	189.58
387.11	196.60
387.31	184.90
387.50	124.05
387.70	135.75
387.89	128.73
388.09	154.48
388.28	124.05
388.48	170.86
388.67	184.90
388.86	147.45
389.06	107.66
389.25	156.82
389.45	32.77
389.64	142.77
389.84	105.32
390.03	154.48
390.22	177.88
390.42	91.28
390.61	91.28
390.81	147.45
391.00	135.75
391.19	131.07
391.39	35.11
391.58	51.49
391.78	121.71
391.97	152.13
392.16	131.07
392.36	145.11
392.55	124.05
392.75	135.75
392.94	131.07
393.13	159.16
393.33	135.75
393.52	124.05
393.71	229.37
393.91	147.45
394.10	140.43
394.29	198.95
394.49	166.18
394.68	114.69
394.88	227.03
395.07	220.01
395.26	142.77
395.46	79.58
395.65	107.66
395.84	152.13
396.04	236.39
396.23	124.05
396.42	154.48
396.62	210.65
396.81	168.52
397.00	156.82
397.19	191.92
397.39	140.43
397.58	170.86
397.77	166.18
397.97	112.35
398.16	126.39
398.35	147.45
398.55	95.96
398.74	100.64
398.93	138.09
399.12	149.79
399.32	133.41
399.51	53.83
399.70	161.50
399.90	147.45
400.09	152.13
400.28	147.45
400.47	166.18
400.67	145.11
400.86	74.90
401.05	145.11
401.24	184.90
401.44	107.66
401.63	98.30
401.82	159.16
402.01	173.20
402.21	224.69
402.40	119.37
402.59	187.24
402.78	114.69
402.97	117.03
403.17	180.22
403.36	168.52
403.55	182.56
403.74	131.07
403.93	180.22
404.13	243.42
404.32	236.39
404.51	306.61
404.70	294.91
404.89	208.31
405.09	140.43
405.28	84.26
405.47	102.98
405.66	177.88
405.85	168.52
406.05	135.75
406.24	102.98
406.43	180.22
406.62	170.86
406.81	170.86
407.00	133.41
407.20	126.39
407.39	168.52
407.58	163.84
407.77	229.37
407.96	238.73
408.15	252.78
408.34	173.20
408.54	142.77
408.73	138.09
408.92	140.43
409.11	98.30
409.30	180.22
409.49	159.16
409.68	142.77
409.87	168.52
410.07	182.56
410.26	117.03
410.45	168.52
410.64	98.30
410.83	142.77
411.02	142.77
411.21	163.84
411.40	205.97
411.59	156.82
411.78	194.26
411.98	140.43
412.17	88.94
412.36	168.52
412.55	149.79
412.74	210.65
412.93	196.60
413.12	95.96
413.31	121.71
413.50	189.58
413.69	138.09
413.88	182.56
414.07	170.86
414.26	175.54
414.45	220.01
414.64	194.26
414.83	159.16
415.02	205.97
415.22	166.18
415.41	231.71
415.60	128.73
415.79	135.75
415.98	234.05
416.17	128.73
416.36	161.50
416.55	161.50
416.74	234.05
416.93	182.56
417.12	168.52
417.31	67.88
417.50	112.35
417.69	201.29
417.88	224.69
418.07	152.13
418.26	166.18
418.45	156.82
418.64	147.45
418.83	163.84
419.02	152.13
419.21	215.33
419.39	175.54
419.58	135.75
419.77	156.82
419.96	159.16
420.15	168.52
420.34	128.73
420.53	152.13
420.72	138.09
420.91	154.48
421.10	128.73
421.29	145.11
421.48	220.01
421.67	145.11
421.86	159.16
422.05	187.24
422.24	156.82
422.43	198.95
422.61	236.39
422.80	217.67
422.99	191.92
423.18	159.16
423.37	173.20
423.56	236.39
423.75	152.13
423.94	191.92
424.13	128.73
424.32	194.26
424.50	234.05
424.69	194.26
424.88	208.31
425.07	208.31
425.26	161.50
425.45	196.60
425.64	138.09
425.83	184.90
426.01	217.67
426.20	222.35
426.39	163.84
426.58	147.45
426.77	205.97
426.96	201.29
427.15	196.60
427.33	187.24
427.52	231.71
427.71	189.58
427.90	156.82
428.09	117.03
428.28	182.56
428.46	212.99
428.65	222.35
428.84	147.45
429.03	208.31
429.22	196.60
429.40	269.16
429.59	161.50
429.78	170.86
429.97	198.95
430.16	217.67
430.34	121.71
430.53	194.26
430.72	173.20
430.91	152.13
431.10	220.01
431.28	196.60
431.47	196.60
431.66	180.22
431.85	180.22
432.03	140.43
432.22	196.60
432.41	184.90
432.60	126.39
432.79	187.24
432.97	147.45
433.16	196.60
433.35	138.09
433.54	147.45
433.72	231.71
433.91	168.52
434.10	149.79
434.28	229.37
434.47	145.11
434.66	196.60
434.85	196.60
435.03	222.35
435.22	456.40
435.41	671.73
435.59	674.07
435.78	454.06
435.97	297.25
436.16	276.18
436.34	140.43
436.53	238.73
436.72	180.22
436.90	161.50
437.09	124.05
437.28	177.88
437.46	180.22
437.65	156.82
437.84	177.88
438.02	208.31
438.21	229.37
438.40	173.20
438.58	187.24
438.77	140.43
438.96	191.92
439.14	212.99
439.33	227.03
439.52	166.18
439.70	126.39
439.89	196.60
440.08	194.26
440.26	163.84
440.45	252.78
440.63	194.26
440.82	224.69
441.01	290.23
441.19	173.20
441.38	163.84
441.57	187.24
441.75	210.65
441.94	163.84
442.12	163.84
442.31	119.37
442.50	159.16
442.68	180.22
442.87	187.24
443.05	224.69
443.24	205.97
443.43	238.73
443.61	198.95
443.80	271.50
443.98	161.50
444.17	135.75
444.35	177.88
444.54	231.71
444.73	159.16
444.91	168.52
445.10	128.73
445.28	208.31
445.47	142.77
445.65	205.97
445.84	126.39
446.02	191.92
446.21	166.18
446.39	201.29
446.58	198.95
446.77	187.24
446.95	159.16
447.14	198.95
447.32	180.22
447.51	280.86
447.69	208.31
447.88	189.58
448.06	255.12
448.25	189.58
448.43	191.92
448.62	152.13
448.80	250.44
448.99	231.71
449.17	156.82
449.36	145.11
449.54	273.84
449.73	191.92
449.91	212.99
450.10	182.56
450.28	170.86
450.46	196.60
450.65	147.45
450.83	161.50
451.02	182.56
451.20	212.99
451.39	198.95
451.57	95.96
451.76	124.05
451.94	212.99
452.13	166.18
452.31	234.05
452.49	248.10
452.68	224.69
452.86	177.88
453.05	278.52
453.23	156.82
453.42	196.60
453.60	145.11
453.78	189.58
453.97	231.71
454.15	182.56
454.34	166.18
454.52	224.69
454.70	180.22
454.89	250.44
455.07	241.08
455.26	243.42
455.44	159.16
455.62	152.13
455.81	229.37
455.99	231.71
456.17	187.24
456.36	182.56
456.54	170.86
456.73	119.37
456.91	203.63
457.09	184.90
457.28	175.54
457.46	182.56
457.64	236.39
457.83	203.63
458.01	128.73
458.19	236.39
458.38	243.42
458.56	203.63
458.74	205.97
458.93	255.12
459.11	222.35
459.29	198.95
459.48	255.12
459.66	243.42
459.84	163.84
460.03	280.86
460.21	241.08
460.39	152.13
460.57	203.63
460.76	198.95
460.94	234.05
461.12	227.03
461.31	231.71
461.49	243.42
461.67	210.65
461.85	196.60
462.04	217.67
462.22	636.63
462.40	234.05
462.59	248.10
462.77	252.78
462.95	117.03
463.13	163.84
463.32	238.73
463.50	210.65
463.68	177.88
463.86	220.01
464.05	205.97
464.23	262.14
464.41	159.16
464.59	173.20
464.78	205.97
464.96	189.58
465.14	159.16
465.32	196.60
465.50	145.11
465.69	241.08
465.87	173.20
466.05	138.09
466.23	187.24
466.41	198.95
466.60	88.94
466.78	135.75
466.96	154.48
467.14	208.31
467.32	280.86
467.51	166.18
467.69	252.78
467.87	234.05
468.05	128.73
468.23	238.73
468.41	224.69
468.60	238.73
468.78	112.35
468.96	184.90
469.14	145.11
469.32	304.27
469.50	210.65
469.69	215.33
469.87	241.08
470.05	262.14
470.23	142.77
470.41	166.18
470.59	135.75
470.77	173.20
470.95	149.79
471.14	227.03
471.32	222.35
471.50	320.65
471.68	212.99
471.86	201.29
472.04	245.76
472.22	163.84
472.40	135.75
472.58	215.33
472.77	166.18
472.95	173.20
473.13	205.97
473.31	229.37
473.49	93.62
473.67	177.88
473.85	166.18
474.03	205.97
474.21	208.31
474.39	236.39
474.57	236.39
474.75	212.99
474.93	201.29
475.12	168.52
475.30	117.03
475.48	187.24
475.66	205.97
475.84	177.88
476.02	203.63
476.20	189.58
476.38	231.71
476.56	262.14
476.74	224.69
476.92	227.03
477.10	241.08
477.28	259.80
477.46	189.58
477.64	238.73
477.82	245.76
478.00	231.71
478.18	189.58
478.36	152.13
478.54	224.69
478.72	250.44
478.90	196.60
479.08	220.01
479.26	231.71
479.44	245.76
479.62	138.09
479.80	229.37
479.98	180.22
480.16	217.67
480.34	208.31
480.52	180.22
480.70	229.37
480.88	215.33
481.06	191.92
481.24	241.08
481.41	234.05
481.59	259.80
481.77	191.92
481.95	252.78
482.13	259.80
482.31	224.69
482.49	196.60
482.67	184.90
482.85	325.33
483.03	238.73
483.21	280.86
483.39	269.16
483.57	227.03
483.74	262.14
483.92	222.35
484.10	287.89
484.28	262.14
484.46	278.52
484.64	250.44
484.82	259.80
485.00	259.80
485.18	318.31
485.35	215.33
485.53	201.29
485.71	315.97
485.89	266.82
486.07	231.71
486.25	374.49
486.43	304.27
486.61	290.23
486.78	273.84
486.96	248.10
487.14	224.69
487.32	280.86
487.50	269.16
487.68	308.95
487.85	227.03
488.03	231.71
488.21	262.14
488.39	294.91
488.57	191.92
488.75	184.90
488.92	517.26
489.10	290.23
489.28	355.76
489.46	217.67
489.64	259.80
489.81	283.20
489.99	313.63
490.17	276.18
490.35	351.08
490.53	276.18
490.70	287.89
490.88	273.84
491.06	360.44
491.24	252.78
491.41	306.61
491.59	297.25
491.77	313.63
491.95	311.29
492.13	217.67
492.30	308.95
492.48	269.16
492.66	255.12
492.84	194.26
493.01	287.89
493.19	290.23
493.37	299.59
493.54	304.27
493.72	313.63
493.90	266.82
494.08	184.90
494.25	304.27
494.43	301.93
494.61	264.48
494.79	266.82
494.96	299.59
495.14	304.27
495.32	269.16
495.49	245.76
495.67	369.80
495.85	227.03
496.02	290.23
496.20	304.27
496.38	294.91
496.55	297.25
496.73	332.36
496.91	269.16
497.09	264.48
497.26	299.59
497.44	294.91
497.62	264.48
497.79	266.82
497.97	231.71
498.14	273.84
498.32	250.44
498.50	264.48
498.67	262.14
498.85	264.48
499.03	287.89
499.20	259.80
499.38	198.95
499.56	299.59
499.73	292.57
499.91	257.46
500.08	290.23
500.26	180.22
500.44	262.14
500.61	189.58
500.79	259.80
500.97	276.18
501.14	304.27
501.32	220.01
501.49	250.44
501.67	241.08
501.84	191.92
502.02	297.25
502.20	264.48
502.37	327.68
502.55	280.86
502.72	292.57
502.90	222.35
503.07	210.65
503.25	241.08
503.43	205.97
503.60	301.93
503.78	191.92
503.95	245.76
504.13	248.10
504.30	259.80
504.48	266.82
504.65	304.27
504.83	322.99
505.01	177.88
505.18	330.02
505.36	301.93
505.53	184.90
505.71	187.24
505.88	334.70
506.06	266.82
506.23	259.80
506.41	201.29
506.58	304.27
506.76	273.84
506.93	264.48
507.11	292.57
507.28	273.84
507.46	220.01
507.63	325.33
507.81	175.54
507.98	227.03
508.16	269.16
508.33	276.18
508.50	287.89
508.68	238.73
508.85	220.01
509.03	238.73
509.20	252.78
509.38	313.63
509.55	339.38
509.73	299.59
509.90	231.71
510.08	252.78
510.25	266.82
510.42	243.42
510.60	299.59
510.77	297.25
510.95	325.33
511.12	290.23
511.30	337.04
511.47	304.27
511.64	362.78
511.82	332.36
511.99	292.57
512.17	248.10
512.34	266.82
512.51	191.92
512.69	245.76
512.86	325.33
513.04	252.78
513.21	208.31
513.38	231.71
513.56	220.01
513.73	187.24
513.90	283.20
514.08	227.03
514.25	182.56
514.43	292.57
514.60	339.38
514.77	224.69
514.95	220.01
515.12	191.92
515.29	255.12
515.47	215.33
515.64	269.16
515.81	234.05
515.99	322.99
516.16	280.86
516.33	250.44
516.51	126.39
516.68	292.57
516.85	236.39
517.03	215.33
517.20	264.48
517.37	287.89
517.54	212.99
517.72	304.27
517.89	187.24
518.06	238.73
518.24	334.70
518.41	346.40
518.58	327.68
518.75	283.20
518.93	280.86
519.10	273.84
519.27	215.33
519.45	294.91
519.62	266.82
519.79	297.25
519.96	278.52
520.14	315.97
520.31	234.05
520.48	243.42
520.65	212.99
520.83	210.65
521.00	297.25
521.17	308.95
521.34	241.08
521.52	269.16
521.69	203.63
521.86	297.25
522.03	259.80
522.20	304.27
522.38	198.95
522.55	264.48
522.72	170.86
522.89	287.89
523.07	301.93
523.24	208.31
523.41	220.01
523.58	212.99
523.75	287.89
523.92	234.05
524.10	280.86
524.27	273.84
524.44	311.29
524.61	325.33
524.78	287.89
524.96	241.08
525.13	271.50
525.30	203.63
525.47	248.10
525.64	269.16
525.81	362.78
525.98	248.10
526.16	262.14
526.33	198.95
526.50	264.48
526.67	278.52
526.84	241.08
527.01	252.78
527.18	264.48
527.36	252.78
527.53	285.55
527.70	250.44
527.87	315.97
528.04	283.20
528.21	283.20
528.38	238.73
528.55	292.57
528.72	299.59
528.89	322.99
529.07	248.10
529.24	252.78
529.41	325.33
529.58	266.82
529.75	234.05
529.92	299.59
530.09	297.25
530.26	346.40
530.43	269.16
530.60	304.27
530.77	315.97
530.94	339.38
531.11	308.95
531.28	304.27
531.46	269.16
531.63	269.16
531.80	290.23
531.97	269.16
532.14	271.50
532.31	273.84
532.48	250.44
532.65	264.48
532.82	266.82
532.99	280.86
533.16	280.86
533.33	325.33
533.50	231.71
533.67	278.52
533.84	301.93
534.01	304.27
534.18	306.61
534.35	280.86
534.52	243.42
534.69	348.74
534.86	397.89
535.03	297.25
535.20	294.91
535.37	269.16
535.54	301.93
535.71	315.97
535.88	311.29
536.05	222.35
536.22	346.40
536.38	351.08
536.55	351.08
536.72	360.44
536.89	285.55
537.06	332.36
537.23	372.15
537.40	355.76
537.57	290.23
537.74	341.72
537.91	264.48
538.08	362.78
538.25	304.27
538.42	351.08
538.59	423.64
538.75	348.74
538.92	294.91
539.09	411.93
539.26	421.30
539.43	514.92
539.60	561.73
539.77	739.61
539.94	645.99
540.11	587.47
540.28	585.13
540.44	540.66
540.61	517.26
540.78	540.66
540.95	564.07
541.12	802.80
541.29	781.74
541.46	793.44
541.62	786.42
541.79	676.41
541.96	755.99
542.13	753.65
542.30	741.95
542.47	760.67
542.63	685.78
542.80	634.29
542.97	685.78
543.14	676.41
543.31	667.05
543.48	587.47
543.64	688.12
543.81	697.48
543.98	599.18
544.15	592.16
544.32	648.33
544.48	667.05
544.65	653.01
544.82	610.88
544.99	592.16
545.16	681.10
545.32	730.25
545.49	1004.09
545.66	1373.89
545.83	1640.72
546.00	1376.24
546.16	1069.62
546.33	784.08
546.50	732.59
546.67	636.63
546.83	617.90
547.00	575.77
547.17	528.96
547.34	564.07
547.50	564.07
547.67	451.72
547.84	472.79
548.00	547.69
548.17	400.23
548.34	444.70
548.51	496.19
548.67	475.13
548.84	489.17
549.01	531.30
549.18	442.36
549.34	461.09
549.51	454.06
549.68	358.10
549.84	484.49
550.01	383.85
550.18	505.56
550.34	468.11
550.51	374.49
550.68	407.25
550.84	290.23
551.01	348.74
551.18	381.51
551.34	360.44
551.51	402.57
551.68	376.83
551.84	416.62
552.01	313.63
552.18	358.10
552.34	355.76
552.51	360.44
552.68	458.74
552.84	250.44
553.01	376.83
553.18	365.12
553.34	276.18
553.51	252.78
553.67	304.27
553.84	301.93
554.01	276.18
554.17	418.96
554.34	264.48
554.51	308.95
554.67	369.80
554.84	292.57
555.00	320.65
555.17	287.89
555.33	301.93
555.50	369.80
555.67	381.51
555.83	224.69
556.00	304.27
556.16	383.85
556.33	348.74
556.50	276.18
556.66	308.95
556.83	297.25
556.99	294.91
557.16	287.89
557.32	257.46
557.49	250.44
557.65	243.42
557.82	262.14
557.98	325.33
558.15	290.23
558.32	306.61
558.48	341.72
558.65	248.10
558.81	337.04
558.98	273.84
559.14	238.73
559.31	306.61
559.47	262.14
559.64	187.24
559.80	294.91
559.97	266.82
560.13	266.82
560.30	292.57
560.46	205.97
560.63	180.22
560.79	313.63
560.96	252.78
561.12	318.31
561.29	203.63
561.45	271.50
561.61	271.50
561.78	285.55
561.94	276.18
562.11	231.71
562.27	287.89
562.44	248.10
562.60	306.61
562.77	315.97
562.93	313.63
563.10	280.86
563.26	245.76
563.42	325.33
563.59	301.93
563.75	208.31
563.92	248.10
564.08	315.97
564.24	308.95
564.41	294.91
564.57	283.20
564.74	191.92
564.90	229.37
565.07	304.27
565.23	252.78
565.39	250.44
565.56	250.44
565.72	262.14
565.88	250.44
566.05	234.05
566.21	227.03
566.38	322.99
566.54	234.05
566.70	252.78
566.87	269.16
567.03	203.63
567.19	250.44
567.36	243.42
567.52	203.63
567.68	250.44
567.85	290.23
568.01	273.84
568.17	248.10
568.34	238.73
568.50	308.95
568.66	248.10
568.83	308.95
568.99	271.50
569.15	339.38
569.32	278.52
569.48	269.16
569.64	255.12
569.81	308.95
569.97	301.93
570.13	294.91
570.30	212.99
570.46	276.18
570.62	287.89
570.78	224.69
570.95	285.55
571.11	283.20
571.27	327.68
571.43	259.80
571.60	287.89
571.76	212.99
571.92	187.24
572.09	259.80
572.25	243.42
572.41	273.84
572.57	259.80
572.74	229.37
572.90	250.44
573.06	245.76
573.22	297.25
573.38	276.18
573.55	243.42
573.71	269.16
573.87	315.97
574.03	227.03
574.20	238.73
574.36	250.44
574.52	257.46
574.68	266.82
574.84	292.57
575.01	231.71
575.17	280.86
575.33	248.10
575.49	276.18
575.65	250.44
575.82	299.59
575.98	337.04
576.14	388.53
576.30	334.70
576.46	447.04
576.62	559.39
576.79	528.96
576.95	472.79
577.11	449.38
577.27	313.63
577.43	330.02
577.59	299.59
577.75	229.37
577.92	393.21
578.08	250.44
578.24	250.44
578.40	353.42
578.56	444.70
578.72	503.22
578.88	566.41
579.04	447.04
579.21	376.83
579.37	383.85
579.53	348.74
579.69	381.51
579.85	334.70
580.01	367.46
580.17	339.38
580.33	339.38
580.49	381.51
580.65	367.46
580.82	294.91
580.98	292.57
581.14	294.91
581.30	308.95
581.46	322.99
581.62	397.89
581.78	402.57
581.94	379.17
582.10	358.10
582.26	346.40
582.42	344.06
582.58	390.87
582.74	376.83
582.90	449.38
583.06	383.85
583.22	337.04
583.38	334.70
583.54	463.43
583.70	365.12
583.86	407.25
584.02	430.66
584.18	444.70
584.34	550.03
584.50	985.37
584.66	4887.04
584.82	10422.41
584.98	13881.72
585.14	11676.93
585.30	7616.10
585.46	4711.50
585.62	3089.51
585.78	1614.97
585.94	833.23
586.10	578.11
586.26	491.51
586.42	468.11
586.58	449.38
586.74	386.19
586.90	514.92
587.06	528.96
587.22	489.17
587.38	451.72
587.54	554.71
587.70	964.30
587.86	1294.32
588.02	1179.63
588.18	992.39
588.34	723.23
588.49	552.37
588.65	500.87
588.81	362.78
588.97	330.02
589.13	337.04
589.29	332.36
589.45	337.04
589.61	337.04
589.77	301.93
589.93	308.95
590.08	252.78
590.24	318.31
590.40	379.17
590.56	351.08
590.72	351.08
590.88	355.76
591.04	332.36
591.20	248.10
591.35	341.72
591.51	308.95
591.67	304.27
591.83	341.72
591.99	372.15
592.15	418.96
592.31	332.36
592.46	365.12
592.62	416.62
592.78	365.12
592.94	358.10
593.10	407.25
593.26	454.06
593.41	411.93
593.57	402.57
593.73	409.59
593.89	884.72
594.05	1504.96
594.20	1870.09
594.36	1863.07
594.52	1226.44
594.68	903.45
594.84	667.05
594.99	592.16
595.15	414.27
595.31	311.29
595.47	243.42
595.62	346.40
595.78	252.78
595.94	287.89
596.10	390.87
596.25	308.95
596.41	358.10
596.57	292.57
596.73	236.39
596.88	388.53
597.04	510.24
597.20	653.01
597.36	751.31
597.51	645.99
597.67	425.98
597.83	440.02
597.99	482.15
598.14	395.55
598.30	390.87
598.46	334.70
598.61	322.99
598.77	416.62
598.93	299.59
599.09	360.44
599.24	355.76
599.40	360.44
599.56	376.83
599.71	390.87
599.87	299.59
600.03	337.04
600.18	255.12
600.34	318.31
600.50	327.68
600.65	238.73
600.81	266.82
600.97	315.97
601.12	255.12
601.28	339.38
601.44	276.18
601.59	330.02
601.75	234.05
601.91	222.35
602.06	269.16
602.22	325.33
602.37	362.78
602.53	552.37
602.69	634.29
602.84	650.67
603.00	587.47
603.16	493.85
603.31	346.40
603.47	294.91
603.62	276.18
603.78	367.46
603.94	315.97
604.09	276.18
604.25	315.97
604.40	280.86
604.56	290.23
604.71	257.46
604.87	379.17
605.03	322.99
605.18	252.78
605.34	334.70
605.49	311.29
605.65	327.68
605.80	182.56
605.96	327.68
606.12	266.82
606.27	362.78
606.43	358.10
606.58	404.91
606.74	444.70
606.89	1013.45
607.05	1516.67
607.20	1689.87
607.36	1448.79
607.51	1015.79
607.67	905.79
607.82	664.71
607.98	535.98
608.13	379.17
608.29	379.17
608.44	360.44
608.60	421.30
608.75	409.59
608.91	554.71
609.06	1521.35
609.22	2415.43
609.37	2846.09
609.53	2555.86
609.68	1846.68
609.84	1439.43
609.99	1158.57
610.15	910.47
610.30	903.45
610.46	1055.58
