SpectraSuite Data File
++++++++++++++++++++++++++++++++++++
Date: Fri Oct 04 11:34:10 GMT-05:00 2013
User: price-jones
Dark Spectrum Present: No
Reference Spectrum Present: No
Number of Sampled Component Spectra: 1
Spectrometers: USB2+H05261
Integration Time (usec): 100000 (USB2+H05261)
Spectra Averaged: 1 (USB2+H05261)
Boxcar Smoothing: 0 (USB2+H05261)
Correct for Electrical Dark: No (USB2+H05261)
Strobe/Lamp Enabled: No (USB2+H05261)
Correct for Detector Non-linearity: No (USB2+H05261)
Correct for Stray Light: No (USB2+H05261)
Number of Pixels in Processed Spectrum: 2048
>>>>>Begin Processed Spectral Data<<<<<
365.73	86.60
365.92	86.60
366.12	86.60
366.32	0.00
366.52	25.75
366.72	0.00
366.91	7.02
367.11	0.00
367.31	14.04
367.51	0.00
367.70	0.00
367.90	0.00
368.10	0.00
368.30	0.00
368.49	0.00
368.69	0.00
368.89	49.15
369.09	0.00
369.28	0.00
369.48	0.00
369.68	0.00
369.87	117.03
370.07	0.00
370.27	84.26
370.47	53.83
370.66	126.39
370.86	58.51
371.06	133.41
371.25	156.82
371.45	18.72
371.65	42.13
371.84	86.60
372.04	63.19
372.24	145.11
372.44	215.33
372.63	128.73
372.83	161.50
373.03	114.69
373.22	126.39
373.42	107.66
373.62	114.69
373.81	149.79
374.01	145.11
374.21	166.18
374.40	182.56
374.60	236.39
374.79	138.09
374.99	184.90
375.19	159.16
375.38	124.05
375.58	194.26
375.78	142.77
375.97	119.37
376.17	189.58
376.37	159.16
376.56	154.48
376.76	145.11
376.95	110.01
377.15	201.29
377.35	201.29
377.54	201.29
377.74	77.24
377.93	105.32
378.13	138.09
378.33	105.32
378.52	124.05
378.72	205.97
378.91	154.48
379.11	133.41
379.31	194.26
379.50	138.09
379.70	198.95
379.89	234.05
380.09	149.79
380.28	196.60
380.48	119.37
380.68	117.03
380.87	124.05
381.07	86.60
381.26	159.16
381.46	201.29
381.65	112.35
381.85	100.64
382.04	140.43
382.24	166.18
382.43	124.05
382.63	161.50
382.83	133.41
383.02	145.11
383.22	156.82
383.41	114.69
383.61	212.99
383.80	149.79
384.00	168.52
384.19	86.60
384.39	114.69
384.58	152.13
384.78	152.13
384.97	117.03
385.17	177.88
385.36	110.01
385.56	177.88
385.75	126.39
385.95	72.56
386.14	128.73
386.34	124.05
386.53	88.94
386.72	86.60
386.92	145.11
387.11	194.26
387.31	227.03
387.50	84.26
387.70	154.48
387.89	149.79
388.09	105.32
388.28	93.62
388.48	177.88
388.67	147.45
388.86	170.86
389.06	156.82
389.25	126.39
389.45	161.50
389.64	180.22
389.84	152.13
390.03	126.39
390.22	140.43
390.42	131.07
390.61	159.16
390.81	79.58
391.00	187.24
391.19	191.92
391.39	124.05
391.58	128.73
391.78	128.73
391.97	114.69
392.16	98.30
392.36	222.35
392.55	215.33
392.75	121.71
392.94	159.16
393.13	152.13
393.33	114.69
393.52	133.41
393.71	187.24
393.91	182.56
394.10	74.90
394.29	95.96
394.49	175.54
394.68	163.84
394.88	175.54
395.07	175.54
395.26	105.32
395.46	156.82
395.65	84.26
395.84	124.05
396.04	152.13
396.23	163.84
396.42	140.43
396.62	154.48
396.81	126.39
397.00	140.43
397.19	163.84
397.39	170.86
397.58	161.50
397.77	117.03
397.97	147.45
398.16	161.50
398.35	203.63
398.55	180.22
398.74	173.20
398.93	224.69
399.12	142.77
399.32	152.13
399.51	194.26
399.70	126.39
399.90	163.84
400.09	138.09
400.28	180.22
400.47	114.69
400.67	163.84
400.86	168.52
401.05	145.11
401.24	168.52
401.44	117.03
401.63	241.08
401.82	112.35
402.01	102.98
402.21	152.13
402.40	124.05
402.59	177.88
402.78	175.54
402.97	177.88
403.17	177.88
403.36	105.32
403.55	168.52
403.74	105.32
403.93	189.58
404.13	217.67
404.32	203.63
404.51	210.65
404.70	220.01
404.89	154.48
405.09	266.82
405.28	84.26
405.47	133.41
405.66	252.78
405.85	208.31
406.05	170.86
406.24	177.88
406.43	201.29
406.62	117.03
406.81	229.37
407.00	173.20
407.20	159.16
407.39	184.90
407.58	166.18
407.77	163.84
407.96	131.07
408.15	198.95
408.34	184.90
408.54	95.96
408.73	198.95
408.92	180.22
409.11	140.43
409.30	161.50
409.49	175.54
409.68	163.84
409.87	145.11
410.07	133.41
410.26	175.54
410.45	159.16
410.64	100.64
410.83	117.03
411.02	60.85
411.21	175.54
411.40	91.28
411.59	107.66
411.78	91.28
411.98	100.64
412.17	168.52
412.36	152.13
412.55	168.52
412.74	156.82
412.93	145.11
413.12	177.88
413.31	168.52
413.50	175.54
413.69	180.22
413.88	156.82
414.07	138.09
414.26	124.05
414.45	124.05
414.64	131.07
414.83	93.62
415.02	177.88
415.22	198.95
415.41	227.03
415.60	229.37
415.79	121.71
415.98	163.84
416.17	170.86
416.36	187.24
416.55	147.45
416.74	182.56
416.93	140.43
417.12	112.35
417.31	102.98
417.50	110.01
417.69	320.65
417.88	196.60
418.07	145.11
418.26	243.42
418.45	110.01
418.64	250.44
418.83	227.03
419.02	220.01
419.21	234.05
419.39	205.97
419.58	191.92
419.77	177.88
419.96	208.31
420.15	271.50
420.34	180.22
420.53	182.56
420.72	220.01
420.91	198.95
421.10	212.99
421.29	133.41
421.48	191.92
421.67	203.63
421.86	170.86
422.05	91.28
422.24	135.75
422.43	105.32
422.61	98.30
422.80	208.31
422.99	189.58
423.18	156.82
423.37	215.33
423.56	184.90
423.75	201.29
423.94	220.01
424.13	135.75
424.32	177.88
424.50	180.22
424.69	173.20
424.88	163.84
425.07	175.54
425.26	224.69
425.45	224.69
425.64	278.52
425.83	241.08
426.01	250.44
426.20	208.31
426.39	196.60
426.58	212.99
426.77	177.88
426.96	189.58
427.15	177.88
427.33	161.50
427.52	147.45
427.71	198.95
427.90	215.33
428.09	196.60
428.28	147.45
428.46	88.94
428.65	208.31
428.84	177.88
429.03	224.69
429.22	184.90
429.40	177.88
429.59	138.09
429.78	269.16
429.97	84.26
430.16	191.92
430.34	210.65
430.53	184.90
430.72	182.56
430.91	182.56
431.10	149.79
431.28	161.50
431.47	189.58
431.66	212.99
431.85	182.56
432.03	166.18
432.22	259.80
432.41	159.16
432.60	217.67
432.79	210.65
432.97	238.73
433.16	278.52
433.35	234.05
433.54	140.43
433.72	212.99
433.91	252.78
434.10	276.18
434.28	259.80
434.47	187.24
434.66	220.01
434.85	236.39
435.03	234.05
435.22	325.33
435.41	491.51
435.59	472.79
435.78	346.40
435.97	348.74
436.16	271.50
436.34	217.67
436.53	147.45
436.72	159.16
436.90	224.69
437.09	161.50
437.28	149.79
437.46	168.52
437.65	257.46
437.84	189.58
438.02	189.58
438.21	166.18
438.40	163.84
438.58	170.86
438.77	145.11
438.96	212.99
439.14	161.50
439.33	170.86
439.52	156.82
439.70	84.26
439.89	149.79
440.08	166.18
440.26	170.86
440.45	203.63
440.63	245.76
440.82	236.39
441.01	152.13
441.19	159.16
441.38	194.26
441.57	166.18
441.75	210.65
441.94	187.24
442.12	222.35
442.31	187.24
442.50	138.09
442.68	194.26
442.87	196.60
443.05	189.58
443.24	112.35
443.43	173.20
443.61	280.86
443.80	234.05
443.98	177.88
444.17	175.54
444.35	163.84
444.54	100.64
444.73	114.69
444.91	191.92
445.10	161.50
445.28	142.77
445.47	245.76
445.65	177.88
445.84	124.05
446.02	191.92
446.21	145.11
446.39	182.56
446.58	166.18
446.77	198.95
446.95	159.16
447.14	163.84
447.32	191.92
447.51	149.79
447.69	175.54
447.88	175.54
448.06	241.08
448.25	231.71
448.43	170.86
448.62	149.79
448.80	220.01
448.99	149.79
449.17	255.12
449.36	215.33
449.54	170.86
449.73	198.95
449.91	208.31
450.10	227.03
450.28	304.27
450.46	224.69
450.65	224.69
450.83	262.14
451.02	194.26
451.20	184.90
451.39	191.92
451.57	198.95
451.76	198.95
451.94	241.08
452.13	203.63
452.31	203.63
452.49	241.08
452.68	121.71
452.86	252.78
453.05	255.12
453.23	138.09
453.42	142.77
453.60	182.56
453.78	203.63
453.97	182.56
454.15	198.95
454.34	187.24
454.52	147.45
454.70	205.97
454.89	184.90
455.07	149.79
455.26	128.73
455.44	250.44
455.62	234.05
455.81	227.03
455.99	182.56
456.17	189.58
456.36	173.20
456.54	205.97
456.73	142.77
456.91	173.20
457.09	203.63
457.28	269.16
457.46	217.67
457.64	198.95
457.83	224.69
458.01	264.48
458.19	198.95
458.38	198.95
458.56	234.05
458.74	189.58
458.93	201.29
459.11	184.90
459.29	201.29
459.48	238.73
459.66	163.84
459.84	159.16
460.03	248.10
460.21	175.54
460.39	138.09
460.57	229.37
460.76	220.01
460.94	173.20
461.12	236.39
461.31	173.20
461.49	196.60
461.67	243.42
461.85	210.65
462.04	173.20
462.22	369.80
462.40	201.29
462.59	227.03
462.77	203.63
462.95	297.25
463.13	187.24
463.32	222.35
463.50	241.08
463.68	131.07
463.86	231.71
464.05	117.03
464.23	205.97
464.41	238.73
464.59	215.33
464.78	273.84
464.96	131.07
465.14	166.18
465.32	182.56
465.50	182.56
465.69	189.58
465.87	135.75
466.05	231.71
466.23	245.76
466.41	222.35
466.60	121.71
466.78	208.31
466.96	205.97
467.14	177.88
467.32	198.95
467.51	152.13
467.69	191.92
467.87	194.26
468.05	210.65
468.23	227.03
468.41	205.97
468.60	184.90
468.78	205.97
468.96	269.16
469.14	205.97
469.32	173.20
469.50	133.41
469.69	175.54
469.87	175.54
470.05	177.88
470.23	159.16
470.41	124.05
470.59	234.05
470.77	182.56
470.95	177.88
471.14	175.54
471.32	248.10
471.50	177.88
471.68	173.20
471.86	168.52
472.04	170.86
472.22	234.05
472.40	147.45
472.58	245.76
472.77	166.18
472.95	191.92
473.13	184.90
473.31	245.76
473.49	229.37
473.67	220.01
473.85	243.42
474.03	191.92
474.21	212.99
474.39	271.50
474.57	257.46
474.75	149.79
474.93	222.35
475.12	243.42
475.30	198.95
475.48	194.26
475.66	236.39
475.84	231.71
476.02	196.60
476.20	243.42
476.38	205.97
476.56	238.73
476.74	170.86
476.92	159.16
477.10	180.22
477.28	238.73
477.46	154.48
477.64	102.98
477.82	191.92
478.00	243.42
478.18	189.58
478.36	217.67
478.54	203.63
478.72	252.78
478.90	159.16
479.08	198.95
479.26	222.35
479.44	224.69
479.62	196.60
479.80	205.97
479.98	231.71
480.16	271.50
480.34	264.48
480.52	250.44
480.70	217.67
480.88	117.03
481.06	201.29
481.24	168.52
481.41	133.41
481.59	194.26
481.77	208.31
481.95	173.20
482.13	248.10
482.31	264.48
482.49	245.76
482.67	227.03
482.85	250.44
483.03	250.44
483.21	241.08
483.39	243.42
483.57	222.35
483.74	271.50
483.92	203.63
484.10	287.89
484.28	269.16
484.46	262.14
484.64	210.65
484.82	208.31
485.00	234.05
485.18	278.52
485.35	189.58
485.53	236.39
485.71	346.40
485.89	255.12
486.07	299.59
486.25	327.68
486.43	245.76
486.61	318.31
486.78	266.82
486.96	238.73
487.14	210.65
487.32	299.59
487.50	236.39
487.68	234.05
487.85	266.82
488.03	259.80
488.21	315.97
488.39	283.20
488.57	278.52
488.75	205.97
488.92	493.85
489.10	231.71
489.28	259.80
489.46	238.73
489.64	234.05
489.81	273.84
489.99	262.14
490.17	189.58
490.35	322.99
490.53	315.97
490.70	252.78
490.88	276.18
491.06	257.46
491.24	294.91
491.41	257.46
491.59	255.12
491.77	220.01
491.95	198.95
492.13	229.37
492.30	259.80
492.48	245.76
492.66	248.10
492.84	168.52
493.01	266.82
493.19	252.78
493.37	346.40
493.54	278.52
493.72	346.40
493.90	301.93
494.08	227.03
494.25	304.27
494.43	285.55
494.61	220.01
494.79	238.73
494.96	306.61
495.14	259.80
495.32	266.82
495.49	257.46
495.67	322.99
495.85	264.48
496.02	210.65
496.20	264.48
496.38	243.42
496.55	227.03
496.73	273.84
496.91	271.50
497.09	220.01
497.26	196.60
497.44	297.25
497.62	266.82
497.79	212.99
497.97	294.91
498.14	311.29
498.32	255.12
498.50	308.95
498.67	290.23
498.85	264.48
499.03	262.14
499.20	238.73
499.38	280.86
499.56	259.80
499.73	339.38
499.91	271.50
500.08	292.57
500.26	299.59
500.44	269.16
500.61	273.84
500.79	220.01
500.97	299.59
501.14	308.95
501.32	236.39
501.49	262.14
501.67	306.61
501.84	234.05
502.02	287.89
502.20	262.14
502.37	276.18
502.55	259.80
502.72	287.89
502.90	269.16
503.07	287.89
503.25	334.70
503.43	259.80
503.60	294.91
503.78	262.14
503.95	243.42
504.13	257.46
504.30	245.76
504.48	250.44
504.65	278.52
504.83	273.84
505.01	259.80
505.18	245.76
505.36	255.12
505.53	290.23
505.71	248.10
505.88	318.31
506.06	203.63
506.23	304.27
506.41	234.05
506.58	273.84
506.76	269.16
506.93	224.69
507.11	339.38
507.28	278.52
507.46	205.97
507.63	280.86
507.81	255.12
507.98	320.65
508.16	280.86
508.33	250.44
508.50	231.71
508.68	280.86
508.85	191.92
509.03	147.45
509.20	198.95
509.38	212.99
509.55	257.46
509.73	313.63
509.90	266.82
510.08	262.14
510.25	339.38
510.42	236.39
510.60	278.52
510.77	266.82
510.95	299.59
511.12	241.08
511.30	322.99
511.47	271.50
511.64	278.52
511.82	224.69
511.99	271.50
512.17	236.39
512.34	215.33
512.51	227.03
512.69	266.82
512.86	334.70
513.04	229.37
513.21	264.48
513.38	248.10
513.56	262.14
513.73	231.71
513.90	283.20
514.08	243.42
514.25	285.55
514.43	262.14
514.60	259.80
514.77	257.46
514.95	308.95
515.12	283.20
515.29	276.18
515.47	264.48
515.64	220.01
515.81	304.27
515.99	360.44
516.16	266.82
516.33	337.04
516.51	166.18
516.68	241.08
516.85	203.63
517.03	259.80
517.20	304.27
517.37	252.78
517.54	227.03
517.72	259.80
517.89	229.37
518.06	217.67
518.24	355.76
518.41	297.25
518.58	297.25
518.75	250.44
518.93	320.65
519.10	283.20
519.27	269.16
519.45	257.46
519.62	252.78
519.79	210.65
519.96	304.27
520.14	276.18
520.31	255.12
520.48	266.82
520.65	299.59
520.83	283.20
521.00	308.95
521.17	365.12
521.34	245.76
521.52	201.29
521.69	304.27
521.86	299.59
522.03	297.25
522.20	348.74
522.38	259.80
522.55	276.18
522.72	313.63
522.89	252.78
523.07	353.42
523.24	205.97
523.41	276.18
523.58	255.12
523.75	318.31
523.92	266.82
524.10	250.44
524.27	257.46
524.44	238.73
524.61	322.99
524.78	201.29
524.96	217.67
525.13	210.65
525.30	294.91
525.47	344.06
525.64	269.16
525.81	269.16
525.98	297.25
526.16	248.10
526.33	280.86
526.50	231.71
526.67	308.95
526.84	264.48
527.01	238.73
527.18	283.20
527.36	301.93
527.53	220.01
527.70	180.22
527.87	290.23
528.04	322.99
528.21	273.84
528.38	262.14
528.55	304.27
528.72	297.25
528.89	292.57
529.07	257.46
529.24	252.78
529.41	292.57
529.58	280.86
529.75	294.91
529.92	318.31
530.09	325.33
530.26	227.03
530.43	285.55
530.60	252.78
530.77	294.91
530.94	301.93
531.11	290.23
531.28	273.84
531.46	231.71
531.63	271.50
531.80	203.63
531.97	278.52
532.14	313.63
532.31	273.84
532.48	346.40
532.65	390.87
532.82	383.85
532.99	360.44
533.16	395.55
533.33	402.57
533.50	379.17
533.67	409.59
533.84	409.59
534.01	376.83
534.18	297.25
534.35	341.72
534.52	280.86
534.69	358.10
534.86	257.46
535.03	243.42
535.20	304.27
535.37	287.89
535.54	299.59
535.71	322.99
535.88	308.95
536.05	339.38
536.22	278.52
536.38	287.89
536.55	294.91
536.72	299.59
536.89	334.70
537.06	306.61
537.23	297.25
537.40	259.80
537.57	304.27
537.74	299.59
537.91	344.06
538.08	334.70
538.25	327.68
538.42	294.91
538.59	374.49
538.75	376.83
538.92	334.70
539.09	346.40
539.26	404.91
539.43	547.69
539.60	1156.22
539.77	1596.25
539.94	1614.97
540.11	1060.26
540.28	791.10
540.44	685.78
540.61	524.28
540.78	440.02
540.95	561.73
541.12	524.28
541.29	573.43
541.46	688.12
541.62	634.29
541.79	638.97
541.96	519.60
542.13	557.05
542.30	489.17
542.47	517.26
542.63	585.13
542.80	564.07
542.97	507.90
543.14	510.24
543.31	533.64
543.48	503.22
543.64	519.60
543.81	489.17
543.98	458.74
544.15	437.68
544.32	423.64
544.48	545.34
544.65	568.75
544.82	531.30
544.99	587.47
545.16	505.56
545.32	582.79
545.49	777.06
545.66	985.37
545.83	1149.20
546.00	961.96
546.16	746.63
546.33	664.71
546.50	538.32
546.67	512.58
546.83	425.98
547.00	514.92
547.17	458.74
547.34	404.91
547.50	465.77
547.67	372.15
547.84	376.83
548.00	407.25
548.17	449.38
548.34	346.40
548.51	447.04
548.67	470.45
548.84	376.83
549.01	407.25
549.18	388.53
549.34	447.04
549.51	386.19
549.68	379.17
549.84	362.78
550.01	257.46
550.18	470.45
550.34	454.06
550.51	367.46
550.68	470.45
550.84	325.33
551.01	388.53
551.18	311.29
551.34	379.17
551.51	297.25
551.68	332.36
551.84	320.65
552.01	341.72
552.18	308.95
552.34	318.31
552.51	353.42
552.68	311.29
552.84	353.42
553.01	315.97
553.18	262.14
553.34	238.73
553.51	241.08
553.67	315.97
553.84	411.93
554.01	301.93
554.17	325.33
554.34	222.35
554.51	208.31
554.67	327.68
554.84	330.02
555.00	311.29
555.17	259.80
555.33	278.52
555.50	318.31
555.67	290.23
555.83	285.55
556.00	280.86
556.16	491.51
556.33	383.85
556.50	276.18
556.66	283.20
556.83	271.50
556.99	248.10
557.16	348.74
557.32	292.57
557.49	290.23
557.65	248.10
557.82	290.23
557.98	269.16
558.15	285.55
558.32	325.33
558.48	234.05
558.65	306.61
558.81	236.39
558.98	189.58
559.14	276.18
559.31	269.16
559.47	287.89
559.64	262.14
559.80	315.97
559.97	184.90
560.13	241.08
560.30	280.86
560.46	266.82
560.63	269.16
560.79	187.24
560.96	315.97
561.12	322.99
561.29	341.72
561.45	229.37
561.61	224.69
561.78	390.87
561.94	271.50
562.11	278.52
562.27	271.50
562.44	243.42
562.60	252.78
562.77	276.18
562.93	301.93
563.10	250.44
563.26	353.42
563.42	285.55
563.59	299.59
563.75	306.61
563.92	315.97
564.08	299.59
564.24	325.33
564.41	273.84
564.57	285.55
564.74	222.35
564.90	234.05
565.07	297.25
565.23	397.89
565.39	205.97
565.56	355.76
565.72	248.10
565.88	299.59
566.05	351.08
566.21	238.73
566.38	315.97
566.54	262.14
566.70	283.20
566.87	250.44
567.03	292.57
567.19	224.69
567.36	245.76
567.52	231.71
567.68	266.82
567.85	294.91
568.01	262.14
568.17	222.35
568.34	250.44
568.50	250.44
568.66	304.27
568.83	339.38
568.99	315.97
569.15	259.80
569.32	294.91
569.48	257.46
569.64	222.35
569.81	299.59
569.97	273.84
570.13	255.12
570.30	276.18
570.46	292.57
570.62	271.50
570.78	227.03
570.95	280.86
571.11	320.65
571.27	269.16
571.43	299.59
571.60	234.05
571.76	311.29
571.92	287.89
572.09	234.05
572.25	241.08
572.41	297.25
572.57	269.16
572.74	280.86
572.90	280.86
573.06	241.08
573.22	376.83
573.38	252.78
573.55	264.48
573.71	248.10
573.87	315.97
574.03	264.48
574.20	280.86
574.36	294.91
574.52	353.42
574.68	325.33
574.84	388.53
575.01	369.80
575.17	308.95
575.33	311.29
575.49	280.86
575.65	255.12
575.82	386.19
575.98	503.22
576.14	791.10
576.30	730.25
576.46	688.12
576.62	610.88
576.79	575.77
576.95	498.53
577.11	454.06
577.27	330.02
577.43	397.89
577.59	330.02
577.75	330.02
577.92	297.25
578.08	337.04
578.24	285.55
578.40	332.36
578.56	393.21
578.72	477.47
578.88	528.96
579.04	393.21
579.21	341.72
579.37	395.55
579.53	355.76
579.69	435.34
579.85	341.72
580.01	376.83
580.17	444.70
580.33	407.25
580.49	484.49
580.65	486.83
580.82	383.85
580.98	437.68
581.14	362.78
581.30	470.45
581.46	482.15
581.62	685.78
581.78	599.18
581.94	650.67
582.10	552.37
582.26	512.58
582.42	489.17
582.58	477.47
582.74	472.79
582.90	458.74
583.06	559.39
583.22	557.05
583.38	538.32
583.54	533.64
583.70	732.59
583.86	746.63
584.02	823.87
584.18	1018.13
584.34	1207.72
584.50	2986.52
584.66	22508.93
584.82	54384.69
584.98	63213.19
585.14	60067.51
585.30	44226.76
585.46	27091.70
585.62	16645.89
585.78	7627.81
585.94	3145.68
586.10	1591.56
586.26	1083.67
586.42	870.68
586.58	793.44
586.74	763.01
586.90	697.48
587.06	734.93
587.22	648.33
587.38	657.69
587.54	1221.76
587.70	3386.76
587.86	5582.18
588.02	5919.21
588.18	4257.43
588.34	2867.16
588.49	1827.96
588.65	1156.22
588.81	699.82
588.97	456.40
589.13	365.12
589.29	386.19
589.45	402.57
589.61	407.25
589.77	458.74
589.93	512.58
590.08	468.11
590.24	514.92
590.40	521.94
590.56	500.87
590.72	402.57
590.88	409.59
591.04	407.25
591.20	442.36
591.35	433.00
591.51	362.78
591.67	322.99
591.83	395.55
591.99	369.80
592.15	325.33
592.31	360.44
592.46	425.98
592.62	498.53
592.78	428.32
592.94	416.62
593.10	414.27
593.26	463.43
593.41	447.04
593.57	449.38
593.73	641.31
593.89	2967.80
594.05	7122.25
594.20	10125.16
594.36	9551.73
594.52	6289.02
594.68	4018.70
594.84	2693.96
594.99	1575.18
595.15	758.33
595.31	526.62
595.47	465.77
595.62	341.72
595.78	397.89
595.94	379.17
596.10	458.74
596.25	397.89
596.41	418.96
596.57	318.31
596.73	313.63
596.88	641.31
597.04	1416.02
597.20	2300.75
597.36	2572.25
597.51	1963.71
597.67	1334.11
597.83	992.39
597.99	795.78
598.14	531.30
598.30	423.64
598.46	423.64
598.61	470.45
598.77	376.83
598.93	372.15
599.09	395.55
599.24	376.83
599.40	425.98
599.56	365.12
599.71	243.42
599.87	416.62
600.03	383.85
600.18	306.61
600.34	304.27
600.50	285.55
600.65	243.42
600.81	271.50
600.97	369.80
601.12	287.89
601.28	369.80
601.44	208.31
601.59	318.31
601.75	273.84
601.91	301.93
602.06	313.63
602.22	351.08
602.37	758.33
602.53	1729.66
602.69	2541.82
602.84	2579.27
603.00	1856.04
603.16	1409.00
603.31	990.05
603.47	688.12
603.62	440.02
603.78	386.19
603.94	332.36
604.09	330.02
604.25	383.85
604.40	327.68
604.56	308.95
604.71	229.37
604.87	283.20
605.03	276.18
605.18	304.27
605.34	299.59
605.49	330.02
605.65	388.53
605.80	358.10
605.96	297.25
606.12	388.53
606.27	451.72
606.43	393.21
606.58	421.30
606.74	950.26
606.89	3365.69
607.05	6642.44
607.20	8589.77
607.36	6974.80
607.51	4770.01
607.67	3162.06
607.82	2129.89
607.98	1341.13
608.13	727.91
608.29	484.49
608.44	491.51
608.60	482.15
608.75	557.05
608.91	1331.76
609.06	5446.43
609.22	11337.56
609.37	15035.60
609.53	12975.93
609.68	8966.59
609.84	5926.24
609.99	3948.48
610.15	2291.38
