SpectraSuite Data File
++++++++++++++++++++++++++++++++++++
Date: Fri Oct 04 11:33:55 GMT-05:00 2013
User: price-jones
Dark Spectrum Present: No
Reference Spectrum Present: No
Number of Sampled Component Spectra: 1
Spectrometers: USB2+H05261
Integration Time (usec): 100000 (USB2+H05261)
Spectra Averaged: 1 (USB2+H05261)
Boxcar Smoothing: 0 (USB2+H05261)
Correct for Electrical Dark: No (USB2+H05261)
Strobe/Lamp Enabled: No (USB2+H05261)
Correct for Detector Non-linearity: No (USB2+H05261)
Correct for Stray Light: No (USB2+H05261)
Number of Pixels in Processed Spectrum: 2048
>>>>>Begin Processed Spectral Data<<<<<
365.73	7.02
365.92	7.02
366.12	7.02
366.32	21.06
366.52	0.00
366.72	0.00
366.91	9.36
367.11	0.00
367.31	0.00
367.51	0.00
367.70	0.00
367.90	0.00
368.10	0.00
368.30	0.00
368.49	23.41
368.69	23.41
368.89	0.00
369.09	0.00
369.28	21.06
369.48	0.00
369.68	0.00
369.87	0.00
370.07	39.79
370.27	72.56
370.47	100.64
370.66	149.79
370.86	91.28
371.06	91.28
371.25	107.66
371.45	102.98
371.65	119.37
371.84	175.54
372.04	117.03
372.24	170.86
372.44	81.92
372.63	81.92
372.83	154.48
373.03	102.98
373.22	121.71
373.42	140.43
373.62	133.41
373.81	161.50
374.01	166.18
374.21	191.92
374.40	215.33
374.60	217.67
374.79	147.45
374.99	100.64
375.19	208.31
375.38	198.95
375.58	110.01
375.78	135.75
375.97	184.90
376.17	229.37
376.37	133.41
376.56	173.20
376.76	72.56
376.95	119.37
377.15	196.60
377.35	191.92
377.54	189.58
377.74	84.26
377.93	63.19
378.13	198.95
378.33	187.24
378.52	161.50
378.72	119.37
378.91	147.45
379.11	84.26
379.31	121.71
379.50	70.22
379.70	175.54
379.89	112.35
380.09	182.56
380.28	81.92
380.48	95.96
380.68	88.94
380.87	166.18
381.07	18.72
381.26	124.05
381.46	128.73
381.65	168.52
381.85	168.52
382.04	147.45
382.24	149.79
382.43	189.58
382.63	138.09
382.83	98.30
383.02	147.45
383.22	145.11
383.41	198.95
383.61	163.84
383.80	142.77
384.00	138.09
384.19	177.88
384.39	280.86
384.58	154.48
384.78	205.97
384.97	166.18
385.17	124.05
385.36	187.24
385.56	180.22
385.75	105.32
385.95	119.37
386.14	84.26
386.34	95.96
386.53	191.92
386.72	203.63
386.92	229.37
387.11	72.56
387.31	100.64
387.50	124.05
387.70	173.20
387.89	84.26
388.09	161.50
388.28	145.11
388.48	128.73
388.67	152.13
388.86	140.43
389.06	32.77
389.25	159.16
389.45	145.11
389.64	201.29
389.84	119.37
390.03	140.43
390.22	166.18
390.42	231.71
390.61	138.09
390.81	145.11
391.00	128.73
391.19	138.09
391.39	88.94
391.58	121.71
391.78	126.39
391.97	149.79
392.16	159.16
392.36	222.35
392.55	170.86
392.75	156.82
392.94	154.48
393.13	166.18
393.33	79.58
393.52	107.66
393.71	238.73
393.91	184.90
394.10	98.30
394.29	177.88
394.49	128.73
394.68	248.10
394.88	84.26
395.07	170.86
395.26	105.32
395.46	152.13
395.65	173.20
395.84	152.13
396.04	238.73
396.23	147.45
396.42	147.45
396.62	159.16
396.81	196.60
397.00	147.45
397.19	149.79
397.39	128.73
397.58	168.52
397.77	98.30
397.97	95.96
398.16	161.50
398.35	110.01
398.55	173.20
398.74	126.39
398.93	177.88
399.12	224.69
399.32	217.67
399.51	154.48
399.70	168.52
399.90	184.90
400.09	84.26
400.28	138.09
400.47	149.79
400.67	161.50
400.86	128.73
401.05	184.90
401.24	191.92
401.44	140.43
401.63	121.71
401.82	126.39
402.01	121.71
402.21	212.99
402.40	166.18
402.59	198.95
402.78	114.69
402.97	117.03
403.17	205.97
403.36	159.16
403.55	187.24
403.74	182.56
403.93	224.69
404.13	304.27
404.32	208.31
404.51	128.73
404.70	180.22
404.89	203.63
405.09	170.86
405.28	102.98
405.47	154.48
405.66	102.98
405.85	161.50
406.05	163.84
406.24	159.16
406.43	194.26
406.62	173.20
406.81	241.08
407.00	161.50
407.20	128.73
407.39	119.37
407.58	224.69
407.77	180.22
407.96	175.54
408.15	177.88
408.34	131.07
408.54	210.65
408.73	161.50
408.92	182.56
409.11	182.56
409.30	210.65
409.49	175.54
409.68	135.75
409.87	234.05
410.07	159.16
410.26	170.86
410.45	152.13
410.64	149.79
410.83	236.39
411.02	128.73
411.21	187.24
411.40	224.69
411.59	198.95
411.78	121.71
411.98	170.86
412.17	163.84
412.36	168.52
412.55	145.11
412.74	147.45
412.93	159.16
413.12	173.20
413.31	173.20
413.50	236.39
413.69	180.22
413.88	152.13
414.07	236.39
414.26	152.13
414.45	189.58
414.64	161.50
414.83	156.82
415.02	145.11
415.22	135.75
415.41	191.92
415.60	166.18
415.79	135.75
415.98	138.09
416.17	212.99
416.36	180.22
416.55	145.11
416.74	180.22
416.93	229.37
417.12	180.22
417.31	117.03
417.50	173.20
417.69	301.93
417.88	294.91
418.07	238.73
418.26	133.41
418.45	191.92
418.64	313.63
418.83	196.60
419.02	250.44
419.21	177.88
419.39	243.42
419.58	198.95
419.77	140.43
419.96	262.14
420.15	205.97
420.34	180.22
420.53	128.73
420.72	140.43
420.91	131.07
421.10	98.30
421.29	196.60
421.48	229.37
421.67	236.39
421.86	194.26
422.05	168.52
422.24	161.50
422.43	159.16
422.61	119.37
422.80	194.26
422.99	175.54
423.18	161.50
423.37	168.52
423.56	191.92
423.75	140.43
423.94	189.58
424.13	215.33
424.32	135.75
424.50	205.97
424.69	187.24
424.88	227.03
425.07	194.26
425.26	243.42
425.45	168.52
425.64	269.16
425.83	332.36
426.01	224.69
426.20	205.97
426.39	217.67
426.58	161.50
426.77	124.05
426.96	201.29
427.15	222.35
427.33	119.37
427.52	161.50
427.71	231.71
427.90	203.63
428.09	241.08
428.28	112.35
428.46	149.79
428.65	133.41
428.84	238.73
429.03	184.90
429.22	198.95
429.40	152.13
429.59	198.95
429.78	189.58
429.97	177.88
430.16	170.86
430.34	163.84
430.53	203.63
430.72	135.75
430.91	107.66
431.10	154.48
431.28	154.48
431.47	196.60
431.66	168.52
431.85	149.79
432.03	126.39
432.22	163.84
432.41	128.73
432.60	196.60
432.79	208.31
432.97	313.63
433.16	318.31
433.35	241.08
433.54	212.99
433.72	184.90
433.91	182.56
434.10	159.16
434.28	262.14
434.47	189.58
434.66	175.54
434.85	161.50
435.03	194.26
435.22	414.27
435.41	482.15
435.59	362.78
435.78	383.85
435.97	208.31
436.16	163.84
436.34	220.01
436.53	215.33
436.72	173.20
436.90	264.48
437.09	114.69
437.28	203.63
437.46	198.95
437.65	208.31
437.84	180.22
438.02	234.05
438.21	124.05
438.40	145.11
438.58	135.75
438.77	208.31
438.96	88.94
439.14	191.92
439.33	205.97
439.52	203.63
439.70	243.42
439.89	168.52
440.08	170.86
440.26	238.73
440.45	149.79
440.63	222.35
440.82	217.67
441.01	180.22
441.19	227.03
441.38	234.05
441.57	177.88
441.75	177.88
441.94	238.73
442.12	145.11
442.31	175.54
442.50	135.75
442.68	222.35
442.87	163.84
443.05	145.11
443.24	191.92
443.43	212.99
443.61	217.67
443.80	163.84
443.98	135.75
444.17	107.66
444.35	175.54
444.54	110.01
444.73	163.84
444.91	175.54
445.10	152.13
445.28	156.82
445.47	180.22
445.65	227.03
445.84	229.37
446.02	133.41
446.21	187.24
446.39	227.03
446.58	177.88
446.77	152.13
446.95	189.58
447.14	210.65
447.32	198.95
447.51	229.37
447.69	198.95
447.88	203.63
448.06	175.54
448.25	231.71
448.43	135.75
448.62	175.54
448.80	257.46
448.99	194.26
449.17	124.05
449.36	93.62
449.54	194.26
449.73	184.90
449.91	269.16
450.10	191.92
450.28	252.78
450.46	208.31
450.65	210.65
450.83	159.16
451.02	208.31
451.20	196.60
451.39	175.54
451.57	168.52
451.76	259.80
451.94	273.84
452.13	205.97
452.31	224.69
452.49	201.29
452.68	170.86
452.86	138.09
453.05	306.61
453.23	198.95
453.42	131.07
453.60	161.50
453.78	217.67
453.97	175.54
454.15	191.92
454.34	184.90
454.52	119.37
454.70	241.08
454.89	208.31
455.07	215.33
455.26	198.95
455.44	283.20
455.62	170.86
455.81	208.31
455.99	140.43
456.17	198.95
456.36	205.97
456.54	184.90
456.73	161.50
456.91	245.76
457.09	241.08
457.28	198.95
457.46	140.43
457.64	145.11
457.83	220.01
458.01	159.16
458.19	166.18
458.38	196.60
458.56	149.79
458.74	117.03
458.93	229.37
459.11	121.71
459.29	145.11
459.48	170.86
459.66	250.44
459.84	147.45
460.03	297.25
460.21	234.05
460.39	156.82
460.57	161.50
460.76	182.56
460.94	163.84
461.12	227.03
461.31	236.39
461.49	198.95
461.67	135.75
461.85	142.77
462.04	196.60
462.22	592.16
462.40	198.95
462.59	208.31
462.77	196.60
462.95	203.63
463.13	184.90
463.32	208.31
463.50	187.24
463.68	142.77
463.86	196.60
464.05	184.90
464.23	236.39
464.41	222.35
464.59	215.33
464.78	217.67
464.96	131.07
465.14	222.35
465.32	126.39
465.50	168.52
465.69	283.20
465.87	145.11
466.05	234.05
466.23	229.37
466.41	222.35
466.60	229.37
466.78	128.73
466.96	191.92
467.14	201.29
467.32	227.03
467.51	229.37
467.69	189.58
467.87	227.03
468.05	210.65
468.23	306.61
468.41	180.22
468.60	304.27
468.78	180.22
468.96	212.99
469.14	194.26
469.32	168.52
469.50	196.60
469.69	236.39
469.87	245.76
470.05	191.92
470.23	266.82
470.41	170.86
470.59	208.31
470.77	294.91
470.95	245.76
471.14	229.37
471.32	217.67
471.50	248.10
471.68	259.80
471.86	252.78
472.04	175.54
472.22	257.46
472.40	210.65
472.58	215.33
472.77	248.10
472.95	180.22
473.13	208.31
473.31	175.54
473.49	166.18
473.67	112.35
473.85	177.88
474.03	243.42
474.21	241.08
474.39	299.59
474.57	236.39
474.75	175.54
474.93	250.44
475.12	168.52
475.30	156.82
475.48	196.60
475.66	208.31
475.84	168.52
476.02	166.18
476.20	231.71
476.38	180.22
476.56	278.52
476.74	194.26
476.92	180.22
477.10	257.46
477.28	205.97
477.46	145.11
477.64	201.29
477.82	227.03
478.00	128.73
478.18	184.90
478.36	231.71
478.54	142.77
478.72	170.86
478.90	170.86
479.08	238.73
479.26	224.69
479.44	220.01
479.62	210.65
479.80	210.65
479.98	229.37
480.16	243.42
480.34	269.16
480.52	215.33
480.70	117.03
480.88	194.26
481.06	142.77
481.24	229.37
481.41	142.77
481.59	245.76
481.77	210.65
481.95	180.22
482.13	234.05
482.31	304.27
482.49	292.57
482.67	142.77
482.85	234.05
483.03	238.73
483.21	280.86
483.39	180.22
483.57	271.50
483.74	269.16
483.92	224.69
484.10	227.03
484.28	217.67
484.46	278.52
484.64	210.65
484.82	222.35
485.00	184.90
485.18	212.99
485.35	283.20
485.53	318.31
485.71	322.99
485.89	203.63
486.07	280.86
486.25	301.93
486.43	255.12
486.61	236.39
486.78	264.48
486.96	191.92
487.14	250.44
487.32	330.02
487.50	266.82
487.68	255.12
487.85	243.42
488.03	245.76
488.21	234.05
488.39	304.27
488.57	266.82
488.75	301.93
488.92	475.13
489.10	292.57
489.28	273.84
489.46	196.60
489.64	271.50
489.81	259.80
489.99	182.56
490.17	245.76
490.35	315.97
490.53	269.16
490.70	245.76
490.88	276.18
491.06	220.01
491.24	173.20
491.41	341.72
491.59	184.90
491.77	222.35
491.95	252.78
492.13	229.37
492.30	255.12
492.48	210.65
492.66	243.42
492.84	227.03
493.01	259.80
493.19	285.55
493.37	290.23
493.54	205.97
493.72	285.55
493.90	248.10
494.08	252.78
494.25	292.57
494.43	283.20
494.61	241.08
494.79	262.14
494.96	250.44
495.14	294.91
495.32	227.03
495.49	318.31
495.67	210.65
495.85	273.84
496.02	245.76
496.20	266.82
496.38	248.10
496.55	255.12
496.73	262.14
496.91	250.44
497.09	287.89
497.26	252.78
497.44	290.23
497.62	212.99
497.79	220.01
497.97	262.14
498.14	227.03
498.32	252.78
498.50	262.14
498.67	262.14
498.85	217.67
499.03	318.31
499.20	306.61
499.38	283.20
499.56	290.23
499.73	315.97
499.91	208.31
500.08	231.71
500.26	194.26
500.44	250.44
500.61	255.12
500.79	266.82
500.97	250.44
501.14	278.52
501.32	203.63
501.49	231.71
501.67	259.80
501.84	245.76
502.02	222.35
502.20	297.25
502.37	201.29
502.55	208.31
502.72	259.80
502.90	231.71
503.07	241.08
503.25	301.93
503.43	203.63
503.60	278.52
503.78	227.03
503.95	280.86
504.13	215.33
504.30	332.36
504.48	208.31
504.65	273.84
504.83	250.44
505.01	252.78
505.18	252.78
505.36	257.46
505.53	203.63
505.71	299.59
505.88	322.99
506.06	208.31
506.23	241.08
506.41	266.82
506.58	241.08
506.76	264.48
506.93	294.91
507.11	330.02
507.28	257.46
507.46	243.42
507.63	327.68
507.81	271.50
507.98	262.14
508.16	304.27
508.33	287.89
508.50	262.14
508.68	222.35
508.85	299.59
509.03	180.22
509.20	250.44
509.38	203.63
509.55	285.55
509.73	236.39
509.90	290.23
510.08	315.97
510.25	271.50
510.42	271.50
510.60	234.05
510.77	280.86
510.95	266.82
511.12	224.69
511.30	304.27
511.47	327.68
511.64	294.91
511.82	255.12
511.99	306.61
512.17	220.01
512.34	238.73
512.51	255.12
512.69	241.08
512.86	187.24
513.04	234.05
513.21	280.86
513.38	243.42
513.56	243.42
513.73	245.76
513.90	238.73
514.08	297.25
514.25	234.05
514.43	306.61
514.60	196.60
514.77	311.29
514.95	294.91
515.12	290.23
515.29	318.31
515.47	245.76
515.64	208.31
515.81	301.93
515.99	278.52
516.16	255.12
516.33	208.31
516.51	224.69
516.68	259.80
516.85	234.05
517.03	234.05
517.20	255.12
517.37	227.03
517.54	217.67
517.72	227.03
517.89	236.39
518.06	243.42
518.24	311.29
518.41	252.78
518.58	243.42
518.75	301.93
518.93	264.48
519.10	145.11
519.27	205.97
519.45	191.92
519.62	220.01
519.79	301.93
519.96	301.93
520.14	278.52
520.31	252.78
520.48	264.48
520.65	301.93
520.83	346.40
521.00	308.95
521.17	294.91
521.34	287.89
521.52	322.99
521.69	315.97
521.86	257.46
522.03	241.08
522.20	341.72
522.38	334.70
522.55	241.08
522.72	166.18
522.89	271.50
523.07	313.63
523.24	285.55
523.41	255.12
523.58	227.03
523.75	238.73
523.92	269.16
524.10	257.46
524.27	259.80
524.44	264.48
524.61	301.93
524.78	161.50
524.96	337.04
525.13	271.50
525.30	334.70
525.47	386.19
525.64	266.82
525.81	308.95
525.98	287.89
526.16	227.03
526.33	273.84
526.50	227.03
526.67	248.10
526.84	252.78
527.01	241.08
527.18	245.76
527.36	325.33
527.53	238.73
527.70	358.10
527.87	294.91
528.04	372.15
528.21	255.12
528.38	351.08
528.55	306.61
528.72	313.63
528.89	266.82
529.07	259.80
529.24	252.78
529.41	397.89
529.58	229.37
529.75	241.08
529.92	252.78
530.09	304.27
530.26	189.58
530.43	367.46
530.60	306.61
530.77	287.89
530.94	290.23
531.11	229.37
531.28	337.04
531.46	177.88
531.63	224.69
531.80	290.23
531.97	304.27
532.14	224.69
532.31	224.69
532.48	290.23
532.65	393.21
532.82	407.25
532.99	358.10
533.16	346.40
533.33	402.57
533.50	367.46
533.67	358.10
533.84	416.62
534.01	491.51
534.18	393.21
534.35	407.25
534.52	367.46
534.69	339.38
534.86	264.48
535.03	278.52
535.20	318.31
535.37	299.59
535.54	264.48
535.71	299.59
535.88	397.89
536.05	229.37
536.22	290.23
536.38	320.65
536.55	348.74
536.72	306.61
536.89	259.80
537.06	290.23
537.23	344.06
537.40	292.57
537.57	322.99
537.74	365.12
537.91	362.78
538.08	334.70
538.25	313.63
538.42	383.85
538.59	358.10
538.75	264.48
538.92	358.10
539.09	346.40
539.26	367.46
539.43	575.77
539.60	1221.76
539.77	1771.79
539.94	1764.76
540.11	1259.21
540.28	821.53
540.44	690.46
540.61	444.70
540.78	397.89
540.95	447.04
541.12	493.85
541.29	486.83
541.46	564.07
541.62	545.34
541.79	472.79
541.96	486.83
542.13	519.60
542.30	486.83
542.47	465.77
542.63	461.09
542.80	447.04
542.97	472.79
543.14	500.87
543.31	479.81
543.48	402.57
543.64	433.00
543.81	512.58
543.98	451.72
544.15	479.81
544.32	465.77
544.48	477.47
544.65	421.30
544.82	449.38
544.99	465.77
545.16	482.15
545.32	475.13
545.49	671.73
545.66	809.83
545.83	840.25
546.00	772.38
546.16	662.37
546.33	435.34
546.50	463.43
546.67	510.24
546.83	381.51
547.00	456.40
547.17	376.83
547.34	393.21
547.50	353.42
547.67	400.23
547.84	362.78
548.00	365.12
548.17	390.87
548.34	332.36
548.51	374.49
548.67	369.80
548.84	325.33
549.01	315.97
549.18	404.91
549.34	297.25
549.51	374.49
549.68	376.83
549.84	369.80
550.01	337.04
550.18	512.58
550.34	454.06
550.51	273.84
550.68	369.80
550.84	341.72
551.01	311.29
551.18	362.78
551.34	318.31
551.51	351.08
551.68	283.20
551.84	294.91
552.01	313.63
552.18	257.46
552.34	257.46
552.51	318.31
552.68	299.59
552.84	271.50
553.01	339.38
553.18	306.61
553.34	304.27
553.51	374.49
553.67	285.55
553.84	271.50
554.01	325.33
554.17	280.86
554.34	187.24
554.51	355.76
554.67	224.69
554.84	304.27
555.00	243.42
555.17	191.92
555.33	318.31
555.50	285.55
555.67	283.20
555.83	255.12
556.00	330.02
556.16	449.38
556.33	339.38
556.50	297.25
556.66	259.80
556.83	264.48
556.99	320.65
557.16	227.03
557.32	224.69
557.49	259.80
557.65	294.91
557.82	292.57
557.98	290.23
558.15	318.31
558.32	217.67
558.48	198.95
558.65	276.18
558.81	294.91
558.98	283.20
559.14	285.55
559.31	299.59
559.47	320.65
559.64	266.82
559.80	285.55
559.97	292.57
560.13	308.95
560.30	304.27
560.46	278.52
560.63	339.38
560.79	318.31
560.96	266.82
561.12	283.20
561.29	245.76
561.45	208.31
561.61	313.63
561.78	337.04
561.94	269.16
562.11	297.25
562.27	217.67
562.44	243.42
562.60	220.01
562.77	238.73
562.93	344.06
563.10	241.08
563.26	311.29
563.42	325.33
563.59	231.71
563.75	208.31
563.92	234.05
564.08	276.18
564.24	348.74
564.41	273.84
564.57	297.25
564.74	250.44
564.90	259.80
565.07	280.86
565.23	332.36
565.39	304.27
565.56	285.55
565.72	311.29
565.88	287.89
566.05	205.97
566.21	191.92
566.38	264.48
566.54	224.69
566.70	203.63
566.87	220.01
567.03	269.16
567.19	269.16
567.36	278.52
567.52	365.12
567.68	330.02
567.85	297.25
568.01	297.25
568.17	196.60
568.34	241.08
568.50	325.33
568.66	339.38
568.83	360.44
568.99	341.72
569.15	299.59
569.32	252.78
569.48	220.01
569.64	266.82
569.81	311.29
569.97	271.50
570.13	252.78
570.30	313.63
570.46	248.10
570.62	184.90
570.78	203.63
570.95	234.05
571.11	313.63
571.27	348.74
571.43	194.26
571.60	283.20
571.76	325.33
571.92	222.35
572.09	269.16
572.25	252.78
572.41	334.70
572.57	212.99
572.74	308.95
572.90	320.65
573.06	229.37
573.22	287.89
573.38	259.80
573.55	381.51
573.71	245.76
573.87	238.73
574.03	222.35
574.20	313.63
574.36	365.12
574.52	341.72
574.68	418.96
574.84	365.12
575.01	341.72
575.17	285.55
575.33	252.78
575.49	301.93
575.65	339.38
575.82	425.98
575.98	624.92
576.14	903.45
576.30	842.59
576.46	641.31
576.62	587.47
576.79	533.64
576.95	386.19
577.11	351.08
577.27	330.02
577.43	337.04
577.59	402.57
577.75	301.93
577.92	243.42
578.08	367.46
578.24	257.46
578.40	351.08
578.56	456.40
578.72	489.17
578.88	418.96
579.04	383.85
579.21	332.36
579.37	372.15
579.53	402.57
579.69	451.72
579.85	322.99
580.01	428.32
580.17	550.03
580.33	475.13
580.49	388.53
580.65	421.30
580.82	447.04
580.98	386.19
581.14	425.98
581.30	519.60
581.46	491.51
581.62	638.97
581.78	725.57
581.94	709.18
582.10	627.26
582.26	550.03
582.42	538.32
582.58	510.24
582.74	533.64
582.90	435.34
583.06	573.43
583.22	559.39
583.38	517.26
583.54	695.14
583.70	753.65
583.86	805.14
584.02	901.11
584.18	1078.99
584.34	1469.86
584.50	3534.21
584.66	27515.34
584.82	59255.34
584.98	65535.00
585.14	65535.00
585.30	53343.15
585.46	33474.34
585.62	20360.32
585.78	9231.07
585.94	3723.79
586.10	1881.79
586.26	1242.82
586.42	964.30
586.58	798.12
586.74	791.10
586.90	753.65
587.06	791.10
587.22	718.54
587.38	720.88
587.54	1296.66
587.70	3875.93
587.86	6583.93
588.02	7356.30
588.18	5149.18
588.34	3349.31
588.49	2148.61
588.65	1329.42
588.81	716.20
588.97	451.72
589.13	430.66
589.29	425.98
589.45	400.23
589.61	386.19
589.77	449.38
589.93	489.17
590.08	554.71
590.24	571.09
590.40	543.00
590.56	517.26
590.72	435.34
590.88	416.62
591.04	379.17
591.20	386.19
591.35	402.57
591.51	390.87
591.67	348.74
591.83	334.70
591.99	449.38
592.15	414.27
592.31	374.49
592.46	367.46
592.62	421.30
592.78	390.87
592.94	440.02
593.10	425.98
593.26	341.72
593.41	463.43
593.57	517.26
593.73	676.41
593.89	3180.79
594.05	8149.75
594.20	12161.42
594.36	11845.45
594.52	7503.76
594.68	4809.80
594.84	3187.81
594.99	1872.43
595.15	959.62
595.31	517.26
595.47	500.87
595.62	383.85
595.78	416.62
595.94	369.80
596.10	393.21
596.25	463.43
596.41	444.70
596.57	465.77
596.73	379.17
596.88	631.94
597.04	1591.56
597.20	2602.68
597.36	3080.14
597.51	2321.81
597.67	1706.25
597.83	1011.11
597.99	727.91
598.14	573.43
598.30	442.36
598.46	451.72
598.61	437.68
598.77	386.19
598.93	407.25
599.09	402.57
599.24	337.04
599.40	367.46
599.56	306.61
599.71	322.99
599.87	292.57
600.03	255.12
600.18	266.82
600.34	332.36
600.50	306.61
600.65	358.10
600.81	292.57
600.97	313.63
601.12	273.84
601.28	271.50
601.44	259.80
601.59	292.57
601.75	255.12
601.91	313.63
602.06	255.12
602.22	430.66
602.37	830.89
602.53	1809.23
602.69	2953.76
602.84	3222.92
603.00	2370.96
603.16	1624.33
603.31	1118.78
603.47	774.72
603.62	486.83
603.78	463.43
603.94	383.85
604.09	397.89
604.25	334.70
604.40	341.72
604.56	318.31
604.71	334.70
604.87	278.52
605.03	264.48
605.18	367.46
605.34	360.44
605.49	395.55
605.65	400.23
605.80	360.44
605.96	313.63
606.12	376.83
606.27	435.34
606.43	374.49
606.58	479.81
606.74	1069.62
606.89	3712.09
607.05	7730.79
607.20	10487.94
607.36	8652.96
607.51	5907.51
607.67	3955.51
607.82	2602.68
607.98	1451.13
608.13	784.08
608.29	610.88
608.44	587.47
608.60	568.75
608.75	617.90
608.91	1350.49
609.06	5996.45
609.22	13642.98
609.37	18649.39
609.53	16180.12
609.68	10789.87
609.84	6974.80
609.99	4615.54
