SpectraSuite Data File
++++++++++++++++++++++++++++++++++++
Date: Fri Oct 04 11:33:59 GMT-05:00 2013
User: price-jones
Dark Spectrum Present: No
Reference Spectrum Present: No
Number of Sampled Component Spectra: 1
Spectrometers: USB2+H05261
Integration Time (usec): 100000 (USB2+H05261)
Spectra Averaged: 1 (USB2+H05261)
Boxcar Smoothing: 0 (USB2+H05261)
Correct for Electrical Dark: No (USB2+H05261)
Strobe/Lamp Enabled: No (USB2+H05261)
Correct for Detector Non-linearity: No (USB2+H05261)
Correct for Stray Light: No (USB2+H05261)
Number of Pixels in Processed Spectrum: 2048
>>>>>Begin Processed Spectral Data<<<<<
365.73	93.62
365.92	93.62
366.12	93.62
366.32	14.04
366.52	0.00
366.72	28.09
366.91	0.00
367.11	0.00
367.31	0.00
367.51	0.00
367.70	0.00
367.90	0.00
368.10	14.04
368.30	0.00
368.49	0.00
368.69	0.00
368.89	0.00
369.09	0.00
369.28	0.00
369.48	2.34
369.68	0.00
369.87	9.36
370.07	79.58
370.27	65.54
370.47	56.17
370.66	51.49
370.86	53.83
371.06	102.98
371.25	81.92
371.45	98.30
371.65	51.49
371.84	42.13
372.04	98.30
372.24	81.92
372.44	100.64
372.63	84.26
372.83	163.84
373.03	149.79
373.22	142.77
373.42	86.60
373.62	163.84
373.81	119.37
374.01	224.69
374.21	177.88
374.40	95.96
374.60	152.13
374.79	105.32
374.99	177.88
375.19	182.56
375.38	166.18
375.58	149.79
375.78	135.75
375.97	138.09
376.17	234.05
376.37	88.94
376.56	142.77
376.76	112.35
376.95	147.45
377.15	145.11
377.35	154.48
377.54	138.09
377.74	100.64
377.93	124.05
378.13	168.52
378.33	215.33
378.52	114.69
378.72	100.64
378.91	189.58
379.11	138.09
379.31	152.13
379.50	175.54
379.70	149.79
379.89	175.54
380.09	100.64
380.28	126.39
380.48	110.01
380.68	133.41
380.87	131.07
381.07	107.66
381.26	102.98
381.46	88.94
381.65	84.26
381.85	166.18
382.04	149.79
382.24	140.43
382.43	110.01
382.63	166.18
382.83	119.37
383.02	149.79
383.22	124.05
383.41	86.60
383.61	128.73
383.80	102.98
384.00	100.64
384.19	145.11
384.39	159.16
384.58	173.20
384.78	166.18
384.97	147.45
385.17	201.29
385.36	128.73
385.56	191.92
385.75	72.56
385.95	173.20
386.14	227.03
386.34	110.01
386.53	142.77
386.72	152.13
386.92	126.39
387.11	191.92
387.31	142.77
387.50	77.24
387.70	152.13
387.89	154.48
388.09	91.28
388.28	88.94
388.48	93.62
388.67	196.60
388.86	131.07
389.06	173.20
389.25	182.56
389.45	140.43
389.64	177.88
389.84	250.44
390.03	161.50
390.22	135.75
390.42	166.18
390.61	84.26
390.81	105.32
391.00	180.22
391.19	159.16
391.39	105.32
391.58	154.48
391.78	173.20
391.97	203.63
392.16	114.69
392.36	170.86
392.55	124.05
392.75	156.82
392.94	126.39
393.13	180.22
393.33	98.30
393.52	159.16
393.71	227.03
393.91	128.73
394.10	163.84
394.29	140.43
394.49	149.79
394.68	98.30
394.88	145.11
395.07	149.79
395.26	180.22
395.46	65.54
395.65	159.16
395.84	187.24
396.04	201.29
396.23	156.82
396.42	131.07
396.62	163.84
396.81	133.41
397.00	133.41
397.19	128.73
397.39	95.96
397.58	135.75
397.77	81.92
397.97	110.01
398.16	182.56
398.35	152.13
398.55	133.41
398.74	152.13
398.93	182.56
399.12	142.77
399.32	252.78
399.51	124.05
399.70	203.63
399.90	138.09
400.09	215.33
400.28	224.69
400.47	128.73
400.67	182.56
400.86	191.92
401.05	142.77
401.24	95.96
401.44	168.52
401.63	145.11
401.82	159.16
402.01	187.24
402.21	217.67
402.40	166.18
402.59	98.30
402.78	170.86
402.97	93.62
403.17	191.92
403.36	138.09
403.55	79.58
403.74	72.56
403.93	126.39
404.13	210.65
404.32	163.84
404.51	140.43
404.70	208.31
404.89	131.07
405.09	147.45
405.28	154.48
405.47	56.17
405.66	182.56
405.85	194.26
406.05	138.09
406.24	121.71
406.43	105.32
406.62	107.66
406.81	166.18
407.00	227.03
407.20	220.01
407.39	140.43
407.58	163.84
407.77	154.48
407.96	182.56
408.15	208.31
408.34	191.92
408.54	140.43
408.73	203.63
408.92	138.09
409.11	175.54
409.30	170.86
409.49	140.43
409.68	140.43
409.87	114.69
410.07	138.09
410.26	128.73
410.45	117.03
410.64	110.01
410.83	175.54
411.02	241.08
411.21	154.48
411.40	121.71
411.59	227.03
411.78	100.64
411.98	93.62
412.17	147.45
412.36	145.11
412.55	173.20
412.74	159.16
412.93	215.33
413.12	81.92
413.31	112.35
413.50	222.35
413.69	203.63
413.88	159.16
414.07	184.90
414.26	166.18
414.45	208.31
414.64	198.95
414.83	131.07
415.02	152.13
415.22	152.13
415.41	205.97
415.60	128.73
415.79	184.90
415.98	191.92
416.17	177.88
416.36	86.60
416.55	177.88
416.74	102.98
416.93	191.92
417.12	156.82
417.31	182.56
417.50	168.52
417.69	196.60
417.88	154.48
418.07	189.58
418.26	156.82
418.45	128.73
418.64	269.16
418.83	198.95
419.02	119.37
419.21	100.64
419.39	196.60
419.58	189.58
419.77	107.66
419.96	182.56
420.15	182.56
420.34	175.54
420.53	166.18
420.72	196.60
420.91	112.35
421.10	227.03
421.29	140.43
421.48	229.37
421.67	131.07
421.86	107.66
422.05	154.48
422.24	138.09
422.43	161.50
422.61	159.16
422.80	175.54
422.99	133.41
423.18	119.37
423.37	163.84
423.56	168.52
423.75	234.05
423.94	98.30
424.13	133.41
424.32	126.39
424.50	121.71
424.69	133.41
424.88	196.60
425.07	201.29
425.26	152.13
425.45	112.35
425.64	175.54
425.83	182.56
426.01	229.37
426.20	152.13
426.39	154.48
426.58	95.96
426.77	187.24
426.96	217.67
427.15	147.45
427.33	180.22
427.52	152.13
427.71	222.35
427.90	121.71
428.09	133.41
428.28	128.73
428.46	86.60
428.65	147.45
428.84	152.13
429.03	182.56
429.22	140.43
429.40	196.60
429.59	210.65
429.78	222.35
429.97	170.86
430.16	161.50
430.34	91.28
430.53	152.13
430.72	163.84
430.91	182.56
431.10	100.64
431.28	166.18
431.47	126.39
431.66	131.07
431.85	243.42
432.03	182.56
432.22	264.48
432.41	156.82
432.60	215.33
432.79	95.96
432.97	168.52
433.16	238.73
433.35	135.75
433.54	205.97
433.72	224.69
433.91	194.26
434.10	203.63
434.28	166.18
434.47	187.24
434.66	241.08
434.85	170.86
435.03	184.90
435.22	304.27
435.41	339.38
435.59	379.17
435.78	276.18
435.97	180.22
436.16	212.99
436.34	166.18
436.53	187.24
436.72	220.01
436.90	227.03
437.09	147.45
437.28	203.63
437.46	227.03
437.65	145.11
437.84	166.18
438.02	175.54
438.21	105.32
438.40	128.73
438.58	201.29
438.77	117.03
438.96	161.50
439.14	159.16
439.33	217.67
439.52	121.71
439.70	203.63
439.89	152.13
440.08	194.26
440.26	145.11
440.45	142.77
440.63	217.67
440.82	191.92
441.01	224.69
441.19	194.26
441.38	140.43
441.57	128.73
441.75	138.09
441.94	194.26
442.12	229.37
442.31	142.77
442.50	177.88
442.68	135.75
442.87	210.65
443.05	182.56
443.24	182.56
443.43	196.60
443.61	203.63
443.80	229.37
443.98	224.69
444.17	131.07
444.35	117.03
444.54	198.95
444.73	140.43
444.91	163.84
445.10	140.43
445.28	198.95
445.47	170.86
445.65	234.05
445.84	159.16
446.02	238.73
446.21	194.26
446.39	201.29
446.58	173.20
446.77	182.56
446.95	180.22
447.14	173.20
447.32	187.24
447.51	145.11
447.69	205.97
447.88	194.26
448.06	203.63
448.25	161.50
448.43	102.98
448.62	203.63
448.80	238.73
448.99	163.84
449.17	107.66
449.36	189.58
449.54	189.58
449.73	189.58
449.91	222.35
450.10	245.76
450.28	227.03
450.46	163.84
450.65	201.29
450.83	128.73
451.02	241.08
451.20	212.99
451.39	163.84
451.57	126.39
451.76	138.09
451.94	180.22
452.13	166.18
452.31	180.22
452.49	133.41
452.68	140.43
452.86	168.52
453.05	196.60
453.23	168.52
453.42	175.54
453.60	222.35
453.78	212.99
453.97	166.18
454.15	131.07
454.34	196.60
454.52	152.13
454.70	166.18
454.89	210.65
455.07	177.88
455.26	203.63
455.44	145.11
455.62	180.22
455.81	210.65
455.99	187.24
456.17	234.05
456.36	212.99
456.54	149.79
456.73	196.60
456.91	142.77
457.09	187.24
457.28	210.65
457.46	161.50
457.64	241.08
457.83	227.03
458.01	217.67
458.19	257.46
458.38	264.48
458.56	208.31
458.74	194.26
458.93	159.16
459.11	121.71
459.29	126.39
459.48	159.16
459.66	142.77
459.84	191.92
460.03	241.08
460.21	187.24
460.39	191.92
460.57	241.08
460.76	191.92
460.94	250.44
461.12	283.20
461.31	283.20
461.49	215.33
461.67	278.52
461.85	161.50
462.04	168.52
462.22	599.18
462.40	224.69
462.59	224.69
462.77	159.16
462.95	191.92
463.13	180.22
463.32	138.09
463.50	173.20
463.68	154.48
463.86	166.18
464.05	180.22
464.23	273.84
464.41	198.95
464.59	168.52
464.78	208.31
464.96	222.35
465.14	217.67
465.32	159.16
465.50	222.35
465.69	147.45
465.87	152.13
466.05	222.35
466.23	135.75
466.41	138.09
466.60	156.82
466.78	229.37
466.96	198.95
467.14	255.12
467.32	196.60
467.51	215.33
467.69	248.10
467.87	255.12
468.05	287.89
468.23	198.95
468.41	241.08
468.60	191.92
468.78	170.86
468.96	180.22
469.14	168.52
469.32	175.54
469.50	191.92
469.69	220.01
469.87	215.33
470.05	191.92
470.23	201.29
470.41	173.20
470.59	105.32
470.77	175.54
470.95	175.54
471.14	241.08
471.32	196.60
471.50	276.18
471.68	217.67
471.86	224.69
472.04	88.94
472.22	238.73
472.40	215.33
472.58	194.26
472.77	201.29
472.95	152.13
473.13	257.46
473.31	182.56
473.49	142.77
473.67	138.09
473.85	220.01
474.03	241.08
474.21	152.13
474.39	184.90
474.57	227.03
474.75	215.33
474.93	147.45
475.12	114.69
475.30	187.24
475.48	182.56
475.66	131.07
475.84	245.76
476.02	168.52
476.20	227.03
476.38	210.65
476.56	255.12
476.74	205.97
476.92	215.33
477.10	210.65
477.28	177.88
477.46	170.86
477.64	224.69
477.82	217.67
478.00	194.26
478.18	245.76
478.36	229.37
478.54	196.60
478.72	243.42
478.90	224.69
479.08	166.18
479.26	212.99
479.44	217.67
479.62	224.69
479.80	229.37
479.98	210.65
480.16	198.95
480.34	184.90
480.52	196.60
480.70	227.03
480.88	184.90
481.06	173.20
481.24	259.80
481.41	189.58
481.59	224.69
481.77	250.44
481.95	255.12
482.13	299.59
482.31	142.77
482.49	177.88
482.67	182.56
482.85	187.24
483.03	191.92
483.21	168.52
483.39	238.73
483.57	245.76
483.74	283.20
483.92	222.35
484.10	198.95
484.28	222.35
484.46	250.44
484.64	217.67
484.82	180.22
485.00	238.73
485.18	222.35
485.35	243.42
485.53	159.16
485.71	283.20
485.89	217.67
486.07	184.90
486.25	257.46
486.43	297.25
486.61	259.80
486.78	264.48
486.96	250.44
487.14	203.63
487.32	234.05
487.50	243.42
487.68	245.76
487.85	243.42
488.03	138.09
488.21	198.95
488.39	266.82
488.57	215.33
488.75	205.97
488.92	468.11
489.10	252.78
489.28	266.82
489.46	264.48
489.64	215.33
489.81	245.76
489.99	252.78
490.17	224.69
490.35	283.20
490.53	245.76
490.70	334.70
490.88	311.29
491.06	203.63
491.24	301.93
491.41	304.27
491.59	229.37
491.77	208.31
491.95	278.52
492.13	194.26
492.30	203.63
492.48	201.29
492.66	222.35
492.84	243.42
493.01	227.03
493.19	238.73
493.37	236.39
493.54	220.01
493.72	276.18
493.90	217.67
494.08	191.92
494.25	212.99
494.43	269.16
494.61	222.35
494.79	248.10
494.96	184.90
495.14	245.76
495.32	227.03
495.49	248.10
495.67	348.74
495.85	241.08
496.02	276.18
496.20	255.12
496.38	189.58
496.55	215.33
496.73	250.44
496.91	217.67
497.09	308.95
497.26	245.76
497.44	250.44
497.62	205.97
497.79	187.24
497.97	283.20
498.14	287.89
498.32	234.05
498.50	276.18
498.67	234.05
498.85	238.73
499.03	227.03
499.20	234.05
499.38	238.73
499.56	194.26
499.73	306.61
499.91	245.76
500.08	257.46
500.26	217.67
500.44	212.99
500.61	201.29
500.79	271.50
500.97	313.63
501.14	229.37
501.32	220.01
501.49	287.89
501.67	252.78
501.84	224.69
502.02	238.73
502.20	198.95
502.37	360.44
502.55	187.24
502.72	285.55
502.90	236.39
503.07	264.48
503.25	262.14
503.43	222.35
503.60	241.08
503.78	159.16
503.95	231.71
504.13	351.08
504.30	238.73
504.48	299.59
504.65	212.99
504.83	198.95
505.01	241.08
505.18	210.65
505.36	243.42
505.53	264.48
505.71	236.39
505.88	227.03
506.06	250.44
506.23	250.44
506.41	234.05
506.58	255.12
506.76	198.95
506.93	215.33
507.11	238.73
507.28	264.48
507.46	234.05
507.63	285.55
507.81	203.63
507.98	196.60
508.16	189.58
508.33	252.78
508.50	294.91
508.68	285.55
508.85	262.14
509.03	184.90
509.20	229.37
509.38	241.08
509.55	266.82
509.73	238.73
509.90	191.92
510.08	203.63
510.25	231.71
510.42	210.65
510.60	262.14
510.77	294.91
510.95	287.89
511.12	262.14
511.30	278.52
511.47	252.78
511.64	294.91
511.82	290.23
511.99	271.50
512.17	273.84
512.34	187.24
512.51	203.63
512.69	308.95
512.86	243.42
513.04	262.14
513.21	276.18
513.38	198.95
513.56	252.78
513.73	285.55
513.90	252.78
514.08	161.50
514.25	217.67
514.43	264.48
514.60	194.26
514.77	290.23
514.95	224.69
515.12	280.86
515.29	236.39
515.47	243.42
515.64	234.05
515.81	306.61
515.99	259.80
516.16	210.65
516.33	255.12
516.51	184.90
516.68	250.44
516.85	264.48
517.03	332.36
517.20	266.82
517.37	313.63
517.54	224.69
517.72	294.91
517.89	170.86
518.06	280.86
518.24	369.80
518.41	259.80
518.58	292.57
518.75	257.46
518.93	231.71
519.10	184.90
519.27	271.50
519.45	222.35
519.62	294.91
519.79	243.42
519.96	224.69
520.14	187.24
520.31	346.40
520.48	332.36
520.65	241.08
520.83	248.10
521.00	266.82
521.17	238.73
521.34	262.14
521.52	238.73
521.69	257.46
521.86	227.03
522.03	241.08
522.20	248.10
522.38	257.46
522.55	166.18
522.72	187.24
522.89	236.39
523.07	290.23
523.24	217.67
523.41	304.27
523.58	208.31
523.75	227.03
523.92	287.89
524.10	187.24
524.27	276.18
524.44	266.82
524.61	276.18
524.78	184.90
524.96	294.91
525.13	257.46
525.30	297.25
525.47	271.50
525.64	273.84
525.81	252.78
525.98	220.01
526.16	294.91
526.33	212.99
526.50	339.38
526.67	311.29
526.84	241.08
527.01	299.59
527.18	308.95
527.36	290.23
527.53	224.69
527.70	283.20
527.87	227.03
528.04	325.33
528.21	297.25
528.38	198.95
528.55	330.02
528.72	252.78
528.89	224.69
529.07	234.05
529.24	294.91
529.41	313.63
529.58	297.25
529.75	236.39
529.92	236.39
530.09	290.23
530.26	229.37
530.43	266.82
530.60	285.55
530.77	250.44
530.94	271.50
531.11	229.37
531.28	208.31
531.46	248.10
531.63	325.33
531.80	245.76
531.97	212.99
532.14	330.02
532.31	238.73
532.48	252.78
532.65	290.23
532.82	238.73
532.99	194.26
533.16	245.76
533.33	292.57
533.50	330.02
533.67	236.39
533.84	159.16
534.01	297.25
534.18	245.76
534.35	241.08
534.52	287.89
534.69	285.55
534.86	304.27
535.03	241.08
535.20	269.16
535.37	285.55
535.54	280.86
535.71	315.97
535.88	308.95
536.05	234.05
536.22	355.76
536.38	297.25
536.55	262.14
536.72	353.42
536.89	238.73
537.06	255.12
537.23	283.20
537.40	290.23
537.57	234.05
537.74	266.82
537.91	344.06
538.08	290.23
538.25	346.40
538.42	243.42
538.59	215.33
538.75	198.95
538.92	229.37
539.09	306.61
539.26	280.86
539.43	327.68
539.60	367.46
539.77	353.42
539.94	318.31
540.11	402.57
540.28	362.78
540.44	393.21
540.61	393.21
540.78	369.80
540.95	348.74
541.12	447.04
541.29	463.43
541.46	566.41
541.62	496.19
541.79	435.34
541.96	390.87
542.13	489.17
542.30	407.25
542.47	433.00
542.63	376.83
542.80	341.72
542.97	423.64
543.14	393.21
543.31	423.64
543.48	447.04
543.64	393.21
543.81	416.62
543.98	416.62
544.15	425.98
544.32	437.68
544.48	437.68
544.65	397.89
544.82	360.44
544.99	440.02
545.16	465.77
545.32	402.57
545.49	500.87
545.66	723.23
545.83	777.06
546.00	636.63
546.16	500.87
546.33	472.79
546.50	425.98
546.67	386.19
546.83	365.12
547.00	360.44
547.17	297.25
547.34	330.02
547.50	259.80
547.67	348.74
547.84	365.12
548.00	325.33
548.17	234.05
548.34	304.27
548.51	353.42
548.67	348.74
548.84	325.33
549.01	262.14
549.18	407.25
549.34	362.78
549.51	346.40
549.68	334.70
549.84	301.93
550.01	285.55
550.18	411.93
550.34	388.53
550.51	271.50
550.68	355.76
550.84	315.97
551.01	297.25
551.18	304.27
551.34	283.20
551.51	255.12
551.68	212.99
551.84	311.29
552.01	339.38
552.18	294.91
552.34	287.89
552.51	210.65
552.68	294.91
552.84	234.05
553.01	262.14
553.18	355.76
553.34	241.08
553.51	297.25
553.67	278.52
553.84	308.95
554.01	325.33
554.17	266.82
554.34	236.39
554.51	264.48
554.67	283.20
554.84	276.18
555.00	271.50
555.17	255.12
555.33	224.69
555.50	215.33
555.67	264.48
555.83	220.01
556.00	271.50
556.16	383.85
556.33	290.23
556.50	271.50
556.66	250.44
556.83	264.48
556.99	227.03
557.16	276.18
557.32	220.01
557.49	257.46
557.65	292.57
557.82	238.73
557.98	241.08
558.15	236.39
558.32	201.29
558.48	210.65
558.65	255.12
558.81	264.48
558.98	285.55
559.14	269.16
559.31	166.18
559.47	212.99
559.64	222.35
559.80	198.95
559.97	222.35
560.13	337.04
560.30	243.42
560.46	266.82
560.63	306.61
560.79	243.42
560.96	196.60
561.12	276.18
561.29	287.89
561.45	313.63
561.61	299.59
561.78	280.86
561.94	224.69
562.11	220.01
562.27	234.05
562.44	278.52
562.60	255.12
562.77	248.10
562.93	287.89
563.10	264.48
563.26	271.50
563.42	194.26
563.59	220.01
563.75	227.03
563.92	248.10
564.08	245.76
564.24	341.72
564.41	271.50
564.57	212.99
564.74	229.37
564.90	320.65
565.07	241.08
565.23	243.42
565.39	159.16
565.56	215.33
565.72	173.20
565.88	220.01
566.05	196.60
566.21	180.22
566.38	273.84
566.54	238.73
566.70	212.99
566.87	184.90
567.03	191.92
567.19	248.10
567.36	201.29
567.52	196.60
567.68	212.99
567.85	271.50
568.01	252.78
568.17	241.08
568.34	238.73
568.50	205.97
568.66	170.86
568.83	292.57
568.99	203.63
569.15	273.84
569.32	210.65
569.48	215.33
569.64	276.18
569.81	276.18
569.97	222.35
570.13	290.23
570.30	243.42
570.46	189.58
570.62	217.67
570.78	182.56
570.95	220.01
571.11	325.33
571.27	308.95
571.43	205.97
571.60	297.25
571.76	234.05
571.92	227.03
572.09	212.99
572.25	198.95
572.41	252.78
572.57	257.46
572.74	315.97
572.90	224.69
573.06	287.89
573.22	271.50
573.38	273.84
573.55	212.99
573.71	266.82
573.87	299.59
574.03	201.29
574.20	224.69
574.36	252.78
574.52	264.48
574.68	231.71
574.84	266.82
575.01	231.71
575.17	280.86
575.33	248.10
575.49	231.71
575.65	294.91
575.82	220.01
575.98	292.57
576.14	271.50
576.30	215.33
576.46	320.65
576.62	301.93
576.79	358.10
576.95	369.80
577.11	231.71
577.27	269.16
577.43	355.76
577.59	217.67
577.75	287.89
577.92	229.37
578.08	250.44
578.24	259.80
578.40	287.89
578.56	346.40
578.72	365.12
578.88	374.49
579.04	346.40
579.21	372.15
579.37	304.27
579.53	304.27
579.69	362.78
579.85	259.80
580.01	252.78
580.17	287.89
580.33	248.10
580.49	269.16
580.65	304.27
580.82	248.10
580.98	278.52
581.14	224.69
581.30	238.73
581.46	245.76
581.62	311.29
581.78	236.39
581.94	311.29
582.10	306.61
582.26	252.78
582.42	320.65
582.58	301.93
582.74	294.91
582.90	266.82
583.06	299.59
583.22	276.18
583.38	243.42
583.54	311.29
583.70	332.36
583.86	299.59
584.02	264.48
584.18	271.50
584.34	337.04
584.50	379.17
584.66	809.83
584.82	1666.46
584.98	2396.71
585.14	2237.55
585.30	1528.37
585.46	1062.60
585.62	711.52
585.78	395.55
585.94	372.15
586.10	234.05
586.26	203.63
586.42	318.31
586.58	250.44
586.74	355.76
586.90	327.68
587.06	386.19
587.22	297.25
587.38	301.93
587.54	306.61
587.70	404.91
587.86	454.06
588.02	472.79
588.18	311.29
588.34	315.97
588.49	245.76
588.65	278.52
588.81	224.69
588.97	241.08
589.13	276.18
589.29	140.43
589.45	259.80
589.61	194.26
589.77	294.91
589.93	255.12
590.08	276.18
590.24	252.78
590.40	203.63
590.56	255.12
590.72	224.69
590.88	227.03
591.04	308.95
591.20	191.92
591.35	255.12
591.51	259.80
591.67	273.84
591.83	308.95
591.99	315.97
592.15	264.48
592.31	262.14
592.46	257.46
592.62	283.20
592.78	280.86
592.94	276.18
593.10	308.95
593.26	332.36
593.41	325.33
593.57	229.37
593.73	301.93
593.89	308.95
594.05	433.00
594.20	547.69
594.36	484.49
594.52	449.38
594.68	318.31
594.84	285.55
594.99	341.72
595.15	313.63
595.31	257.46
595.47	271.50
595.62	276.18
595.78	280.86
595.94	248.10
596.10	243.42
596.25	255.12
596.41	294.91
596.57	227.03
596.73	238.73
596.88	264.48
597.04	210.65
597.20	243.42
597.36	327.68
597.51	344.06
597.67	266.82
597.83	163.84
597.99	297.25
598.14	318.31
598.30	276.18
598.46	259.80
598.61	266.82
598.77	231.71
598.93	264.48
599.09	215.33
599.24	243.42
599.40	262.14
599.56	262.14
599.71	280.86
599.87	276.18
600.03	320.65
600.18	220.01
600.34	238.73
600.50	292.57
600.65	276.18
600.81	285.55
600.97	215.33
601.12	245.76
601.28	299.59
601.44	308.95
601.59	243.42
601.75	269.16
601.91	273.84
602.06	266.82
602.22	348.74
602.37	227.03
602.53	238.73
602.69	311.29
602.84	346.40
603.00	294.91
603.16	299.59
603.31	301.93
603.47	304.27
603.62	191.92
603.78	351.08
603.94	245.76
604.09	243.42
604.25	248.10
604.40	229.37
604.56	280.86
604.71	252.78
604.87	297.25
605.03	276.18
605.18	341.72
605.34	341.72
605.49	184.90
605.65	308.95
605.80	257.46
605.96	355.76
606.12	177.88
606.27	280.86
606.43	285.55
606.58	285.55
606.74	372.15
606.89	348.74
607.05	411.93
607.20	491.51
607.36	425.98
607.51	411.93
607.67	339.38
607.82	346.40
607.98	327.68
608.13	269.16
608.29	262.14
608.44	355.76
608.60	306.61
608.75	313.63
608.91	322.99
609.06	517.26
609.22	580.45
609.37	758.33
609.53	664.71
609.68	636.63
609.84	435.34
609.99	482.15
610.15	535.98
610.30	470.45
610.46	552.37
610.61	559.39
610.76	671.73
610.92	711.52
