SpectraSuite Data File
++++++++++++++++++++++++++++++++++++
Date: Fri Oct 04 11:33:53 GMT-05:00 2013
User: price-jones
Dark Spectrum Present: No
Reference Spectrum Present: No
Number of Sampled Component Spectra: 1
Spectrometers: USB2+H05261
Integration Time (usec): 100000 (USB2+H05261)
Spectra Averaged: 1 (USB2+H05261)
Boxcar Smoothing: 0 (USB2+H05261)
Correct for Electrical Dark: No (USB2+H05261)
Strobe/Lamp Enabled: No (USB2+H05261)
Correct for Detector Non-linearity: No (USB2+H05261)
Correct for Stray Light: No (USB2+H05261)
Number of Pixels in Processed Spectrum: 2048
>>>>>Begin Processed Spectral Data<<<<<
365.73	46.81
365.92	46.81
366.12	46.81
366.32	39.79
366.52	0.00
366.72	0.00
366.91	0.00
367.11	28.09
367.31	0.00
367.51	11.70
367.70	0.00
367.90	0.00
368.10	0.00
368.30	0.00
368.49	0.00
368.69	0.00
368.89	0.00
369.09	0.00
369.28	0.00
369.48	0.00
369.68	0.00
369.87	0.00
370.07	18.72
370.27	42.13
370.47	14.04
370.66	0.00
370.86	63.19
371.06	112.35
371.25	154.48
371.45	28.09
371.65	138.09
371.84	110.01
372.04	74.90
372.24	88.94
372.44	81.92
372.63	145.11
372.83	187.24
373.03	124.05
373.22	138.09
373.42	135.75
373.62	142.77
373.81	121.71
374.01	170.86
374.21	128.73
374.40	175.54
374.60	110.01
374.79	145.11
374.99	114.69
375.19	198.95
375.38	273.84
375.58	124.05
375.78	154.48
375.97	161.50
376.17	173.20
376.37	114.69
376.56	138.09
376.76	81.92
376.95	175.54
377.15	152.13
377.35	236.39
377.54	128.73
377.74	79.58
377.93	145.11
378.13	81.92
378.33	180.22
378.52	114.69
378.72	203.63
378.91	58.51
379.11	133.41
379.31	93.62
379.50	156.82
379.70	248.10
379.89	159.16
380.09	142.77
380.28	98.30
380.48	191.92
380.68	98.30
380.87	156.82
381.07	198.95
381.26	215.33
381.46	86.60
381.65	159.16
381.85	124.05
382.04	86.60
382.24	149.79
382.43	135.75
382.63	145.11
382.83	102.98
383.02	117.03
383.22	273.84
383.41	145.11
383.61	203.63
383.80	107.66
384.00	107.66
384.19	88.94
384.39	177.88
384.58	210.65
384.78	173.20
384.97	142.77
385.17	196.60
385.36	177.88
385.56	140.43
385.75	126.39
385.95	163.84
386.14	196.60
386.34	166.18
386.53	98.30
386.72	138.09
386.92	210.65
387.11	135.75
387.31	135.75
387.50	147.45
387.70	152.13
387.89	156.82
388.09	154.48
388.28	110.01
388.48	74.90
388.67	166.18
388.86	112.35
389.06	128.73
389.25	208.31
389.45	159.16
389.64	145.11
389.84	177.88
390.03	121.71
390.22	161.50
390.42	147.45
390.61	131.07
390.81	112.35
391.00	180.22
391.19	154.48
391.39	156.82
391.58	117.03
391.78	156.82
391.97	166.18
392.16	98.30
392.36	184.90
392.55	142.77
392.75	117.03
392.94	128.73
393.13	159.16
393.33	159.16
393.52	145.11
393.71	198.95
393.91	149.79
394.10	140.43
394.29	117.03
394.49	184.90
394.68	154.48
394.88	212.99
395.07	227.03
395.26	119.37
395.46	201.29
395.65	170.86
395.84	168.52
396.04	241.08
396.23	173.20
396.42	166.18
396.62	117.03
396.81	196.60
397.00	107.66
397.19	114.69
397.39	177.88
397.58	173.20
397.77	187.24
397.97	105.32
398.16	147.45
398.35	182.56
398.55	166.18
398.74	110.01
398.93	147.45
399.12	105.32
399.32	135.75
399.51	159.16
399.70	149.79
399.90	205.97
400.09	154.48
400.28	147.45
400.47	145.11
400.67	196.60
400.86	168.52
401.05	215.33
401.24	198.95
401.44	203.63
401.63	126.39
401.82	105.32
402.01	126.39
402.21	114.69
402.40	147.45
402.59	189.58
402.78	161.50
402.97	170.86
403.17	84.26
403.36	152.13
403.55	194.26
403.74	227.03
403.93	168.52
404.13	238.73
404.32	234.05
404.51	168.52
404.70	166.18
404.89	142.77
405.09	121.71
405.28	152.13
405.47	135.75
405.66	163.84
405.85	184.90
406.05	163.84
406.24	177.88
406.43	201.29
406.62	124.05
406.81	266.82
407.00	194.26
407.20	163.84
407.39	166.18
407.58	191.92
407.77	154.48
407.96	138.09
408.15	114.69
408.34	168.52
408.54	142.77
408.73	124.05
408.92	194.26
409.11	173.20
409.30	210.65
409.49	131.07
409.68	154.48
409.87	145.11
410.07	152.13
410.26	149.79
410.45	107.66
410.64	175.54
410.83	154.48
411.02	231.71
411.21	180.22
411.40	208.31
411.59	126.39
411.78	184.90
411.98	124.05
412.17	184.90
412.36	161.50
412.55	161.50
412.74	168.52
412.93	168.52
413.12	173.20
413.31	224.69
413.50	163.84
413.69	131.07
413.88	194.26
414.07	156.82
414.26	187.24
414.45	142.77
414.64	168.52
414.83	112.35
415.02	91.28
415.22	107.66
415.41	182.56
415.60	238.73
415.79	166.18
415.98	173.20
416.17	170.86
416.36	227.03
416.55	177.88
416.74	252.78
416.93	135.75
417.12	187.24
417.31	142.77
417.50	182.56
417.69	203.63
417.88	297.25
418.07	229.37
418.26	194.26
418.45	208.31
418.64	259.80
418.83	191.92
419.02	252.78
419.21	194.26
419.39	215.33
419.58	159.16
419.77	229.37
419.96	229.37
420.15	222.35
420.34	175.54
420.53	201.29
420.72	205.97
420.91	229.37
421.10	173.20
421.29	203.63
421.48	154.48
421.67	196.60
421.86	198.95
422.05	191.92
422.24	163.84
422.43	222.35
422.61	112.35
422.80	191.92
422.99	175.54
423.18	140.43
423.37	180.22
423.56	191.92
423.75	159.16
423.94	194.26
424.13	163.84
424.32	121.71
424.50	187.24
424.69	205.97
424.88	196.60
425.07	173.20
425.26	175.54
425.45	238.73
425.64	236.39
425.83	224.69
426.01	266.82
426.20	93.62
426.39	147.45
426.58	227.03
426.77	201.29
426.96	140.43
427.15	191.92
427.33	166.18
427.52	222.35
427.71	201.29
427.90	198.95
428.09	102.98
428.28	149.79
428.46	152.13
428.65	180.22
428.84	217.67
429.03	194.26
429.22	170.86
429.40	110.01
429.59	121.71
429.78	168.52
429.97	222.35
430.16	170.86
430.34	145.11
430.53	184.90
430.72	124.05
430.91	140.43
431.10	112.35
431.28	187.24
431.47	177.88
431.66	182.56
431.85	156.82
432.03	156.82
432.22	255.12
432.41	140.43
432.60	203.63
432.79	257.46
432.97	304.27
433.16	297.25
433.35	259.80
433.54	220.01
433.72	299.59
433.91	278.52
434.10	215.33
434.28	273.84
434.47	222.35
434.66	196.60
434.85	154.48
435.03	243.42
435.22	294.91
435.41	348.74
435.59	397.89
435.78	255.12
435.97	245.76
436.16	152.13
436.34	208.31
436.53	259.80
436.72	142.77
436.90	269.16
437.09	147.45
437.28	149.79
437.46	168.52
437.65	191.92
437.84	222.35
438.02	227.03
438.21	119.37
438.40	145.11
438.58	208.31
438.77	135.75
438.96	182.56
439.14	124.05
439.33	154.48
439.52	161.50
439.70	196.60
439.89	203.63
440.08	138.09
440.26	142.77
440.45	227.03
440.63	142.77
440.82	168.52
441.01	117.03
441.19	93.62
441.38	189.58
441.57	177.88
441.75	285.55
441.94	212.99
442.12	212.99
442.31	196.60
442.50	191.92
442.68	175.54
442.87	173.20
443.05	152.13
443.24	250.44
443.43	266.82
443.61	227.03
443.80	222.35
443.98	196.60
444.17	149.79
444.35	184.90
444.54	217.67
444.73	212.99
444.91	227.03
445.10	140.43
445.28	166.18
445.47	180.22
445.65	149.79
445.84	217.67
446.02	170.86
446.21	95.96
446.39	159.16
446.58	189.58
446.77	217.67
446.95	147.45
447.14	149.79
447.32	220.01
447.51	248.10
447.69	215.33
447.88	217.67
448.06	234.05
448.25	229.37
448.43	145.11
448.62	135.75
448.80	210.65
448.99	224.69
449.17	182.56
449.36	201.29
449.54	210.65
449.73	156.82
449.91	208.31
450.10	175.54
450.28	201.29
450.46	248.10
450.65	147.45
450.83	182.56
451.02	224.69
451.20	194.26
451.39	168.52
451.57	212.99
451.76	198.95
451.94	280.86
452.13	205.97
452.31	257.46
452.49	110.01
452.68	135.75
452.86	173.20
453.05	182.56
453.23	236.39
453.42	189.58
453.60	133.41
453.78	189.58
453.97	177.88
454.15	194.26
454.34	210.65
454.52	166.18
454.70	152.13
454.89	198.95
455.07	238.73
455.26	198.95
455.44	210.65
455.62	208.31
455.81	128.73
455.99	264.48
456.17	212.99
456.36	196.60
456.54	173.20
456.73	168.52
456.91	175.54
457.09	201.29
457.28	131.07
457.46	161.50
457.64	217.67
457.83	184.90
458.01	203.63
458.19	149.79
458.38	124.05
458.56	259.80
458.74	231.71
458.93	161.50
459.11	180.22
459.29	177.88
459.48	189.58
459.66	257.46
459.84	168.52
460.03	259.80
460.21	110.01
460.39	156.82
460.57	170.86
460.76	119.37
460.94	156.82
461.12	285.55
461.31	245.76
461.49	170.86
461.67	177.88
461.85	198.95
462.04	241.08
462.22	585.13
462.40	168.52
462.59	198.95
462.77	138.09
462.95	184.90
463.13	191.92
463.32	161.50
463.50	252.78
463.68	194.26
463.86	175.54
464.05	182.56
464.23	241.08
464.41	212.99
464.59	259.80
464.78	189.58
464.96	191.92
465.14	255.12
465.32	191.92
465.50	180.22
465.69	236.39
465.87	166.18
466.05	135.75
466.23	152.13
466.41	212.99
466.60	191.92
466.78	231.71
466.96	210.65
467.14	168.52
467.32	159.16
467.51	208.31
467.69	126.39
467.87	175.54
468.05	212.99
468.23	135.75
468.41	224.69
468.60	187.24
468.78	163.84
468.96	203.63
469.14	161.50
469.32	205.97
469.50	201.29
469.69	205.97
469.87	119.37
470.05	231.71
470.23	128.73
470.41	173.20
470.59	175.54
470.77	180.22
470.95	294.91
471.14	201.29
471.32	173.20
471.50	220.01
471.68	266.82
471.86	248.10
472.04	231.71
472.22	175.54
472.40	198.95
472.58	173.20
472.77	201.29
472.95	166.18
473.13	196.60
473.31	208.31
473.49	112.35
473.67	245.76
473.85	238.73
474.03	224.69
474.21	194.26
474.39	184.90
474.57	266.82
474.75	177.88
474.93	212.99
475.12	173.20
475.30	177.88
475.48	229.37
475.66	126.39
475.84	243.42
476.02	196.60
476.20	189.58
476.38	196.60
476.56	248.10
476.74	234.05
476.92	217.67
477.10	163.84
477.28	238.73
477.46	152.13
477.64	264.48
477.82	222.35
478.00	180.22
478.18	231.71
478.36	145.11
478.54	168.52
478.72	173.20
478.90	135.75
479.08	170.86
479.26	170.86
479.44	210.65
479.62	187.24
479.80	229.37
479.98	215.33
480.16	170.86
480.34	266.82
480.52	163.84
480.70	133.41
480.88	215.33
481.06	168.52
481.24	212.99
481.41	166.18
481.59	273.84
481.77	170.86
481.95	191.92
482.13	290.23
482.31	168.52
482.49	180.22
482.67	248.10
482.85	170.86
483.03	264.48
483.21	231.71
483.39	168.52
483.57	149.79
483.74	259.80
483.92	252.78
484.10	180.22
484.28	229.37
484.46	271.50
484.64	271.50
484.82	248.10
485.00	224.69
485.18	290.23
485.35	175.54
485.53	189.58
485.71	306.61
485.89	140.43
486.07	198.95
486.25	264.48
486.43	353.42
486.61	234.05
486.78	205.97
486.96	189.58
487.14	182.56
487.32	241.08
487.50	222.35
487.68	241.08
487.85	215.33
488.03	245.76
488.21	208.31
488.39	208.31
488.57	269.16
488.75	215.33
488.92	447.04
489.10	273.84
489.28	210.65
489.46	250.44
489.64	290.23
489.81	306.61
489.99	217.67
490.17	243.42
490.35	315.97
490.53	287.89
490.70	208.31
490.88	264.48
491.06	294.91
491.24	220.01
491.41	266.82
491.59	252.78
491.77	201.29
491.95	194.26
492.13	227.03
492.30	215.33
492.48	224.69
492.66	313.63
492.84	203.63
493.01	191.92
493.19	208.31
493.37	294.91
493.54	236.39
493.72	292.57
493.90	220.01
494.08	215.33
494.25	290.23
494.43	280.86
494.61	224.69
494.79	299.59
494.96	341.72
495.14	318.31
495.32	245.76
495.49	285.55
495.67	231.71
495.85	264.48
496.02	245.76
496.20	280.86
496.38	297.25
496.55	248.10
496.73	332.36
496.91	262.14
497.09	257.46
497.26	245.76
497.44	341.72
497.62	294.91
497.79	184.90
497.97	245.76
498.14	334.70
498.32	299.59
498.50	269.16
498.67	227.03
498.85	252.78
499.03	224.69
499.20	196.60
499.38	234.05
499.56	278.52
499.73	241.08
499.91	313.63
500.08	210.65
500.26	287.89
500.44	245.76
500.61	229.37
500.79	294.91
500.97	276.18
501.14	154.48
501.32	177.88
501.49	276.18
501.67	264.48
501.84	269.16
502.02	238.73
502.20	297.25
502.37	266.82
502.55	238.73
502.72	245.76
502.90	280.86
503.07	276.18
503.25	234.05
503.43	231.71
503.60	292.57
503.78	285.55
503.95	229.37
504.13	248.10
504.30	306.61
504.48	241.08
504.65	325.33
504.83	341.72
505.01	318.31
505.18	287.89
505.36	238.73
505.53	215.33
505.71	243.42
505.88	280.86
506.06	203.63
506.23	276.18
506.41	217.67
506.58	266.82
506.76	222.35
506.93	217.67
507.11	308.95
507.28	259.80
507.46	229.37
507.63	264.48
507.81	245.76
507.98	257.46
508.16	299.59
508.33	271.50
508.50	243.42
508.68	276.18
508.85	222.35
509.03	236.39
509.20	222.35
509.38	222.35
509.55	208.31
509.73	304.27
509.90	280.86
510.08	245.76
510.25	313.63
510.42	255.12
510.60	215.33
510.77	245.76
510.95	259.80
511.12	311.29
511.30	358.10
511.47	311.29
511.64	330.02
511.82	299.59
511.99	264.48
512.17	236.39
512.34	201.29
512.51	236.39
512.69	278.52
512.86	227.03
513.04	245.76
513.21	184.90
513.38	285.55
513.56	255.12
513.73	201.29
513.90	198.95
514.08	238.73
514.25	266.82
514.43	266.82
514.60	276.18
514.77	252.78
514.95	271.50
515.12	271.50
515.29	266.82
515.47	248.10
515.64	250.44
515.81	231.71
515.99	299.59
516.16	250.44
516.33	252.78
516.51	269.16
516.68	330.02
516.85	217.67
517.03	224.69
517.20	294.91
517.37	330.02
517.54	283.20
517.72	257.46
517.89	229.37
518.06	222.35
518.24	320.65
518.41	276.18
518.58	308.95
518.75	166.18
518.93	287.89
519.10	224.69
519.27	248.10
519.45	280.86
519.62	182.56
519.79	217.67
519.96	205.97
520.14	290.23
520.31	327.68
520.48	369.80
520.65	278.52
520.83	248.10
521.00	283.20
521.17	231.71
521.34	205.97
521.52	248.10
521.69	266.82
521.86	266.82
522.03	313.63
522.20	311.29
522.38	243.42
522.55	290.23
522.72	301.93
522.89	332.36
523.07	283.20
523.24	252.78
523.41	252.78
523.58	215.33
523.75	259.80
523.92	325.33
524.10	315.97
524.27	269.16
524.44	241.08
524.61	383.85
524.78	264.48
524.96	257.46
525.13	353.42
525.30	308.95
525.47	229.37
525.64	257.46
525.81	271.50
525.98	243.42
526.16	175.54
526.33	231.71
526.50	222.35
526.67	229.37
526.84	250.44
527.01	280.86
527.18	238.73
527.36	301.93
527.53	278.52
527.70	304.27
527.87	287.89
528.04	353.42
528.21	250.44
528.38	311.29
528.55	250.44
528.72	318.31
528.89	320.65
529.07	227.03
529.24	236.39
529.41	308.95
529.58	238.73
529.75	276.18
529.92	318.31
530.09	308.95
530.26	344.06
530.43	306.61
530.60	290.23
530.77	271.50
530.94	224.69
531.11	285.55
531.28	308.95
531.46	322.99
531.63	315.97
531.80	231.71
531.97	313.63
532.14	227.03
532.31	191.92
532.48	369.80
532.65	362.78
532.82	374.49
532.99	510.24
533.16	418.96
533.33	287.89
533.50	325.33
533.67	369.80
533.84	411.93
534.01	402.57
534.18	454.06
534.35	402.57
534.52	390.87
534.69	353.42
534.86	311.29
535.03	322.99
535.20	252.78
535.37	311.29
535.54	273.84
535.71	217.67
535.88	318.31
536.05	255.12
536.22	285.55
536.38	341.72
536.55	304.27
536.72	304.27
536.89	297.25
537.06	290.23
537.23	255.12
537.40	360.44
537.57	304.27
537.74	376.83
537.91	248.10
538.08	266.82
538.25	362.78
538.42	306.61
538.59	252.78
538.75	315.97
538.92	241.08
539.09	393.21
539.26	330.02
539.43	463.43
539.60	1076.65
539.77	1785.83
539.94	1949.67
540.11	1280.27
540.28	849.61
540.44	732.59
540.61	510.24
540.78	470.45
540.95	383.85
541.12	538.32
541.29	514.92
541.46	505.56
541.62	519.60
541.79	512.58
541.96	470.45
542.13	479.81
542.30	538.32
542.47	449.38
542.63	440.02
542.80	348.74
542.97	486.83
543.14	437.68
543.31	416.62
543.48	456.40
543.64	491.51
543.81	503.22
543.98	477.47
544.15	386.19
544.32	493.85
544.48	458.74
544.65	451.72
544.82	374.49
544.99	341.72
545.16	507.90
545.32	500.87
545.49	688.12
545.66	847.27
545.83	889.40
546.00	779.40
546.16	571.09
546.33	580.45
546.50	451.72
546.67	411.93
546.83	381.51
547.00	358.10
547.17	372.15
547.34	325.33
547.50	362.78
547.67	400.23
547.84	327.68
548.00	451.72
548.17	311.29
548.34	344.06
548.51	390.87
548.67	372.15
548.84	353.42
549.01	402.57
549.18	433.00
549.34	278.52
549.51	362.78
549.68	362.78
549.84	411.93
550.01	402.57
550.18	463.43
550.34	362.78
550.51	292.57
550.68	374.49
550.84	365.12
551.01	299.59
551.18	229.37
551.34	337.04
551.51	327.68
551.68	414.27
551.84	362.78
552.01	337.04
552.18	241.08
552.34	297.25
552.51	287.89
552.68	294.91
552.84	229.37
553.01	285.55
553.18	374.49
553.34	344.06
553.51	248.10
553.67	313.63
553.84	285.55
554.01	299.59
554.17	334.70
554.34	290.23
554.51	304.27
554.67	330.02
554.84	294.91
555.00	266.82
555.17	334.70
555.33	313.63
555.50	266.82
555.67	325.33
555.83	369.80
556.00	327.68
556.16	465.77
556.33	365.12
556.50	308.95
556.66	266.82
556.83	306.61
556.99	306.61
557.16	222.35
557.32	313.63
557.49	229.37
557.65	189.58
557.82	224.69
557.98	227.03
558.15	177.88
558.32	243.42
558.48	294.91
558.65	236.39
558.81	276.18
558.98	325.33
559.14	252.78
559.31	320.65
559.47	304.27
559.64	280.86
559.80	315.97
559.97	299.59
560.13	344.06
560.30	276.18
560.46	276.18
560.63	257.46
560.79	269.16
560.96	315.97
561.12	299.59
561.29	255.12
561.45	315.97
561.61	264.48
561.78	346.40
561.94	224.69
562.11	290.23
562.27	325.33
562.44	201.29
562.60	283.20
562.77	283.20
562.93	353.42
563.10	259.80
563.26	231.71
563.42	215.33
563.59	280.86
563.75	250.44
563.92	304.27
564.08	259.80
564.24	306.61
564.41	250.44
564.57	252.78
564.74	224.69
564.90	304.27
565.07	320.65
565.23	360.44
565.39	306.61
565.56	311.29
565.72	264.48
565.88	294.91
566.05	292.57
566.21	325.33
566.38	315.97
566.54	276.18
566.70	229.37
566.87	271.50
567.03	222.35
567.19	217.67
567.36	252.78
567.52	271.50
567.68	351.08
567.85	234.05
568.01	269.16
568.17	306.61
568.34	332.36
568.50	280.86
568.66	280.86
568.83	402.57
568.99	248.10
569.15	306.61
569.32	301.93
569.48	320.65
569.64	337.04
569.81	234.05
569.97	236.39
570.13	337.04
570.30	203.63
570.46	241.08
570.62	248.10
570.78	259.80
570.95	224.69
571.11	304.27
571.27	264.48
571.43	271.50
571.60	266.82
571.76	259.80
571.92	259.80
572.09	297.25
572.25	367.46
572.41	250.44
572.57	241.08
572.74	294.91
572.90	285.55
573.06	330.02
573.22	248.10
573.38	304.27
573.55	203.63
573.71	285.55
573.87	278.52
574.03	243.42
574.20	269.16
574.36	308.95
574.52	458.74
574.68	383.85
574.84	353.42
575.01	372.15
575.17	283.20
575.33	315.97
575.49	285.55
575.65	241.08
575.82	442.36
575.98	540.66
576.14	725.57
576.30	863.66
576.46	784.08
576.62	589.82
576.79	477.47
576.95	454.06
577.11	341.72
577.27	322.99
577.43	339.38
577.59	292.57
577.75	248.10
577.92	330.02
578.08	273.84
578.24	322.99
578.40	315.97
578.56	348.74
578.72	421.30
578.88	358.10
579.04	369.80
579.21	388.53
579.37	348.74
579.53	404.91
579.69	423.64
579.85	367.46
580.01	456.40
580.17	535.98
580.33	425.98
580.49	400.23
580.65	390.87
580.82	400.23
580.98	374.49
581.14	421.30
581.30	498.53
581.46	538.32
581.62	678.76
581.78	653.01
581.94	765.36
582.10	559.39
582.26	533.64
582.42	496.19
582.58	578.11
582.74	543.00
582.90	526.62
583.06	559.39
583.22	564.07
583.38	615.56
583.54	631.94
583.70	706.84
583.86	788.76
584.02	870.68
584.18	1041.54
584.34	1336.45
584.50	3023.97
584.66	21422.92
584.82	56355.42
584.98	65535.00
585.14	65535.00
585.30	57092.69
585.46	34382.47
585.62	20809.70
585.78	9788.12
585.94	3896.99
586.10	1886.47
586.26	1390.28
586.42	992.39
586.58	889.40
586.74	746.63
586.90	781.74
587.06	763.01
587.22	695.14
587.38	653.01
587.54	1174.95
587.70	3330.58
587.86	6331.15
588.02	8030.38
588.18	5603.24
588.34	3492.08
588.49	2172.02
588.65	1371.55
588.81	837.91
588.97	531.30
589.13	442.36
589.29	400.23
589.45	390.87
589.61	278.52
589.77	369.80
589.93	444.70
590.08	603.86
590.24	543.00
590.40	585.13
590.56	594.50
590.72	390.87
590.88	337.04
591.04	393.21
591.20	346.40
591.35	411.93
591.51	376.83
591.67	393.21
591.83	374.49
591.99	393.21
592.15	390.87
592.31	409.59
592.46	456.40
592.62	362.78
592.78	358.10
592.94	294.91
593.10	362.78
593.26	447.04
593.41	484.49
593.57	393.21
593.73	585.13
593.89	2462.24
594.05	7236.94
594.20	12379.09
594.36	12868.27
594.52	8332.31
594.68	5011.09
594.84	3201.85
594.99	1809.23
595.15	884.72
595.31	610.88
595.47	468.11
595.62	383.85
595.78	407.25
595.94	332.36
596.10	379.17
596.25	402.57
596.41	435.34
596.57	320.65
596.73	372.15
596.88	587.47
597.04	1387.94
597.20	2487.99
597.36	3353.99
597.51	2471.61
597.67	1607.95
597.83	1167.93
597.99	823.87
598.14	479.81
598.30	400.23
598.46	428.32
598.61	447.04
598.77	484.49
598.93	367.46
599.09	348.74
599.24	334.70
599.40	374.49
599.56	334.70
599.71	294.91
599.87	322.99
600.03	311.29
600.18	320.65
600.34	236.39
600.50	332.36
600.65	252.78
600.81	327.68
600.97	280.86
601.12	292.57
601.28	266.82
601.44	320.65
601.59	292.57
601.75	241.08
601.91	301.93
602.06	367.46
602.22	414.27
602.37	763.01
602.53	1654.76
602.69	3009.93
602.84	3480.38
603.00	2445.86
603.16	1729.66
603.31	1263.89
603.47	791.10
603.62	507.90
603.78	294.91
603.94	355.76
604.09	374.49
604.25	381.51
604.40	360.44
604.56	299.59
604.71	299.59
604.87	381.51
605.03	341.72
605.18	430.66
605.34	425.98
605.49	330.02
605.65	367.46
605.80	346.40
605.96	381.51
606.12	393.21
606.27	367.46
606.43	388.53
606.58	477.47
606.74	711.52
606.89	3234.62
607.05	7314.17
607.20	11101.16
607.36	9270.86
607.51	6197.74
607.67	4091.26
607.82	2778.22
607.98	1507.30
608.13	866.00
608.29	543.00
608.44	507.90
608.60	519.60
608.75	629.60
608.91	1142.18
609.06	4849.59
609.22	12360.37
609.37	19290.70
609.53	17874.67
609.68	11499.05
609.84	7227.57
609.99	4695.11
