SpectraSuite Data File
++++++++++++++++++++++++++++++++++++
Date: Fri Oct 04 11:33:45 GMT-05:00 2013
User: price-jones
Dark Spectrum Present: No
Reference Spectrum Present: No
Number of Sampled Component Spectra: 1
Spectrometers: USB2+H05261
Integration Time (usec): 100000 (USB2+H05261)
Spectra Averaged: 1 (USB2+H05261)
Boxcar Smoothing: 0 (USB2+H05261)
Correct for Electrical Dark: No (USB2+H05261)
Strobe/Lamp Enabled: No (USB2+H05261)
Correct for Detector Non-linearity: No (USB2+H05261)
Correct for Stray Light: No (USB2+H05261)
Number of Pixels in Processed Spectrum: 2048
>>>>>Begin Processed Spectral Data<<<<<
365.73	58.51
365.92	58.51
366.12	58.51
366.32	58.51
366.52	0.00
366.72	0.00
366.91	0.00
367.11	28.09
367.31	0.00
367.51	0.00
367.70	0.00
367.90	0.00
368.10	0.00
368.30	39.79
368.49	0.00
368.69	0.00
368.89	0.00
369.09	0.00
369.28	21.06
369.48	18.72
369.68	58.51
369.87	16.38
370.07	0.00
370.27	25.75
370.47	0.00
370.66	28.09
370.86	39.79
371.06	100.64
371.25	187.24
371.45	93.62
371.65	159.16
371.84	86.60
372.04	58.51
372.24	88.94
372.44	145.11
372.63	161.50
372.83	170.86
373.03	142.77
373.22	86.60
373.42	86.60
373.62	119.37
373.81	201.29
374.01	196.60
374.21	184.90
374.40	112.35
374.60	156.82
374.79	194.26
374.99	121.71
375.19	135.75
375.38	124.05
375.58	203.63
375.78	161.50
375.97	229.37
376.17	231.71
376.37	140.43
376.56	152.13
376.76	102.98
376.95	86.60
377.15	152.13
377.35	114.69
377.54	201.29
377.74	112.35
377.93	140.43
378.13	142.77
378.33	93.62
378.52	110.01
378.72	93.62
378.91	161.50
379.11	180.22
379.31	170.86
379.50	138.09
379.70	128.73
379.89	105.32
380.09	173.20
380.28	114.69
380.48	168.52
380.68	161.50
380.87	100.64
381.07	67.88
381.26	98.30
381.46	168.52
381.65	182.56
381.85	135.75
382.04	88.94
382.24	238.73
382.43	124.05
382.63	166.18
382.83	212.99
383.02	227.03
383.22	173.20
383.41	124.05
383.61	133.41
383.80	145.11
384.00	173.20
384.19	131.07
384.39	140.43
384.58	91.28
384.78	194.26
384.97	102.98
385.17	170.86
385.36	93.62
385.56	84.26
385.75	117.03
385.95	154.48
386.14	166.18
386.34	126.39
386.53	93.62
386.72	128.73
386.92	91.28
387.11	166.18
387.31	184.90
387.50	170.86
387.70	107.66
387.89	140.43
388.09	100.64
388.28	107.66
388.48	86.60
388.67	77.24
388.86	170.86
389.06	77.24
389.25	168.52
389.45	175.54
389.64	100.64
389.84	201.29
390.03	163.84
390.22	133.41
390.42	114.69
390.61	138.09
390.81	119.37
391.00	107.66
391.19	184.90
391.39	159.16
391.58	191.92
391.78	124.05
391.97	152.13
392.16	93.62
392.36	98.30
392.55	156.82
392.75	133.41
392.94	163.84
393.13	220.01
393.33	105.32
393.52	60.85
393.71	138.09
393.91	145.11
394.10	175.54
394.29	196.60
394.49	227.03
394.68	156.82
394.88	194.26
395.07	173.20
395.26	126.39
395.46	81.92
395.65	98.30
395.84	154.48
396.04	285.55
396.23	102.98
396.42	175.54
396.62	208.31
396.81	166.18
397.00	124.05
397.19	119.37
397.39	121.71
397.58	220.01
397.77	194.26
397.97	184.90
398.16	166.18
398.35	110.01
398.55	135.75
398.74	161.50
398.93	180.22
399.12	114.69
399.32	198.95
399.51	163.84
399.70	114.69
399.90	131.07
400.09	163.84
400.28	166.18
400.47	187.24
400.67	180.22
400.86	140.43
401.05	142.77
401.24	238.73
401.44	128.73
401.63	191.92
401.82	241.08
402.01	72.56
402.21	238.73
402.40	152.13
402.59	93.62
402.78	145.11
402.97	159.16
403.17	72.56
403.36	177.88
403.55	126.39
403.74	227.03
403.93	177.88
404.13	287.89
404.32	236.39
404.51	229.37
404.70	203.63
404.89	156.82
405.09	222.35
405.28	135.75
405.47	102.98
405.66	131.07
405.85	182.56
406.05	182.56
406.24	173.20
406.43	229.37
406.62	159.16
406.81	198.95
407.00	133.41
407.20	180.22
407.39	135.75
407.58	222.35
407.77	229.37
407.96	208.31
408.15	189.58
408.34	194.26
408.54	163.84
408.73	173.20
408.92	149.79
409.11	173.20
409.30	241.08
409.49	112.35
409.68	166.18
409.87	182.56
410.07	140.43
410.26	124.05
410.45	140.43
410.64	147.45
410.83	112.35
411.02	135.75
411.21	175.54
411.40	212.99
411.59	159.16
411.78	93.62
411.98	140.43
412.17	152.13
412.36	149.79
412.55	152.13
412.74	154.48
412.93	182.56
413.12	168.52
413.31	229.37
413.50	203.63
413.69	110.01
413.88	180.22
414.07	156.82
414.26	156.82
414.45	182.56
414.64	227.03
414.83	175.54
415.02	212.99
415.22	252.78
415.41	184.90
415.60	234.05
415.79	194.26
415.98	243.42
416.17	173.20
416.36	152.13
416.55	112.35
416.74	145.11
416.93	168.52
417.12	126.39
417.31	198.95
417.50	184.90
417.69	320.65
417.88	287.89
418.07	273.84
418.26	208.31
418.45	252.78
418.64	308.95
418.83	234.05
419.02	182.56
419.21	217.67
419.39	208.31
419.58	264.48
419.77	198.95
419.96	299.59
420.15	238.73
420.34	152.13
420.53	180.22
420.72	205.97
420.91	98.30
421.10	81.92
421.29	128.73
421.48	203.63
421.67	224.69
421.86	220.01
422.05	145.11
422.24	119.37
422.43	194.26
422.61	163.84
422.80	189.58
422.99	182.56
423.18	269.16
423.37	163.84
423.56	217.67
423.75	189.58
423.94	194.26
424.13	177.88
424.32	205.97
424.50	184.90
424.69	145.11
424.88	224.69
425.07	177.88
425.26	262.14
425.45	191.92
425.64	308.95
425.83	294.91
426.01	248.10
426.20	184.90
426.39	177.88
426.58	161.50
426.77	180.22
426.96	156.82
427.15	159.16
427.33	154.48
427.52	210.65
427.71	201.29
427.90	184.90
428.09	175.54
428.28	154.48
428.46	163.84
428.65	175.54
428.84	245.76
429.03	205.97
429.22	220.01
429.40	198.95
429.59	175.54
429.78	217.67
429.97	138.09
430.16	149.79
430.34	131.07
430.53	140.43
430.72	112.35
430.91	159.16
431.10	161.50
431.28	217.67
431.47	212.99
431.66	191.92
431.85	110.01
432.03	212.99
432.22	234.05
432.41	184.90
432.60	215.33
432.79	194.26
432.97	355.76
433.16	351.08
433.35	292.57
433.54	318.31
433.72	217.67
433.91	173.20
434.10	234.05
434.28	201.29
434.47	205.97
434.66	187.24
434.85	248.10
435.03	229.37
435.22	313.63
435.41	383.85
435.59	341.72
435.78	337.04
435.97	224.69
436.16	217.67
436.34	138.09
436.53	208.31
436.72	147.45
436.90	236.39
437.09	201.29
437.28	161.50
437.46	198.95
437.65	238.73
437.84	234.05
438.02	201.29
438.21	222.35
438.40	184.90
438.58	191.92
438.77	248.10
438.96	224.69
439.14	114.69
439.33	205.97
439.52	217.67
439.70	119.37
439.89	187.24
440.08	149.79
440.26	231.71
440.45	191.92
440.63	234.05
440.82	161.50
441.01	215.33
441.19	215.33
441.38	133.41
441.57	184.90
441.75	212.99
441.94	173.20
442.12	142.77
442.31	161.50
442.50	156.82
442.68	124.05
442.87	175.54
443.05	215.33
443.24	241.08
443.43	117.03
443.61	231.71
443.80	231.71
443.98	287.89
444.17	184.90
444.35	215.33
444.54	180.22
444.73	231.71
444.91	177.88
445.10	220.01
445.28	56.17
445.47	203.63
445.65	208.31
445.84	194.26
446.02	184.90
446.21	166.18
446.39	152.13
446.58	245.76
446.77	311.29
446.95	208.31
447.14	198.95
447.32	215.33
447.51	203.63
447.69	273.84
447.88	210.65
448.06	231.71
448.25	161.50
448.43	161.50
448.62	180.22
448.80	189.58
448.99	201.29
449.17	210.65
449.36	217.67
449.54	241.08
449.73	215.33
449.91	149.79
450.10	135.75
450.28	189.58
450.46	276.18
450.65	198.95
450.83	250.44
451.02	156.82
451.20	166.18
451.39	187.24
451.57	161.50
451.76	145.11
451.94	161.50
452.13	152.13
452.31	149.79
452.49	180.22
452.68	156.82
452.86	241.08
453.05	250.44
453.23	163.84
453.42	184.90
453.60	187.24
453.78	234.05
453.97	182.56
454.15	175.54
454.34	210.65
454.52	194.26
454.70	208.31
454.89	259.80
455.07	156.82
455.26	215.33
455.44	259.80
455.62	238.73
455.81	180.22
455.99	245.76
456.17	156.82
456.36	105.32
456.54	201.29
456.73	212.99
456.91	222.35
457.09	208.31
457.28	203.63
457.46	177.88
457.64	243.42
457.83	177.88
458.01	133.41
458.19	126.39
458.38	203.63
458.56	191.92
458.74	227.03
458.93	243.42
459.11	238.73
459.29	128.73
459.48	245.76
459.66	201.29
459.84	140.43
460.03	311.29
460.21	238.73
460.39	170.86
460.57	212.99
460.76	210.65
460.94	212.99
461.12	189.58
461.31	161.50
461.49	222.35
461.67	124.05
461.85	231.71
462.04	173.20
462.22	634.29
462.40	131.07
462.59	266.82
462.77	161.50
462.95	227.03
463.13	259.80
463.32	198.95
463.50	243.42
463.68	257.46
463.86	276.18
464.05	191.92
464.23	224.69
464.41	156.82
464.59	175.54
464.78	208.31
464.96	84.26
465.14	224.69
465.32	126.39
465.50	220.01
465.69	201.29
465.87	220.01
466.05	227.03
466.23	203.63
466.41	208.31
466.60	208.31
466.78	248.10
466.96	227.03
467.14	175.54
467.32	252.78
467.51	220.01
467.69	191.92
467.87	196.60
468.05	217.67
468.23	313.63
468.41	205.97
468.60	252.78
468.78	243.42
468.96	224.69
469.14	222.35
469.32	156.82
469.50	145.11
469.69	294.91
469.87	177.88
470.05	215.33
470.23	222.35
470.41	156.82
470.59	145.11
470.77	238.73
470.95	210.65
471.14	198.95
471.32	285.55
471.50	208.31
471.68	229.37
471.86	294.91
472.04	215.33
472.22	156.82
472.40	119.37
472.58	208.31
472.77	163.84
472.95	152.13
473.13	248.10
473.31	241.08
473.49	234.05
473.67	212.99
473.85	227.03
474.03	194.26
474.21	292.57
474.39	287.89
474.57	205.97
474.75	224.69
474.93	208.31
475.12	220.01
475.30	187.24
475.48	191.92
475.66	212.99
475.84	187.24
476.02	184.90
476.20	248.10
476.38	224.69
476.56	184.90
476.74	257.46
476.92	140.43
477.10	191.92
477.28	297.25
477.46	257.46
477.64	229.37
477.82	182.56
478.00	215.33
478.18	236.39
478.36	250.44
478.54	217.67
478.72	231.71
478.90	166.18
479.08	243.42
479.26	215.33
479.44	184.90
479.62	205.97
479.80	154.48
479.98	180.22
480.16	142.77
480.34	269.16
480.52	180.22
480.70	191.92
480.88	175.54
481.06	194.26
481.24	138.09
481.41	245.76
481.59	180.22
481.77	208.31
481.95	140.43
482.13	294.91
482.31	236.39
482.49	189.58
482.67	285.55
482.85	215.33
483.03	301.93
483.21	332.36
483.39	170.86
483.57	229.37
483.74	215.33
483.92	177.88
484.10	238.73
484.28	301.93
484.46	273.84
484.64	210.65
484.82	215.33
485.00	224.69
485.18	152.13
485.35	280.86
485.53	257.46
485.71	201.29
485.89	217.67
486.07	168.52
486.25	273.84
486.43	161.50
486.61	231.71
486.78	201.29
486.96	252.78
487.14	271.50
487.32	205.97
487.50	250.44
487.68	212.99
487.85	315.97
488.03	262.14
488.21	283.20
488.39	231.71
488.57	299.59
488.75	257.46
488.92	475.13
489.10	330.02
489.28	327.68
489.46	231.71
489.64	264.48
489.81	236.39
489.99	236.39
490.17	276.18
490.35	322.99
490.53	236.39
490.70	252.78
490.88	306.61
491.06	220.01
491.24	215.33
491.41	271.50
491.59	311.29
491.77	180.22
491.95	259.80
492.13	231.71
492.30	248.10
492.48	229.37
492.66	266.82
492.84	215.33
493.01	241.08
493.19	262.14
493.37	353.42
493.54	259.80
493.72	201.29
493.90	236.39
494.08	224.69
494.25	215.33
494.43	271.50
494.61	182.56
494.79	168.52
494.96	222.35
495.14	241.08
495.32	304.27
495.49	238.73
495.67	212.99
495.85	299.59
496.02	252.78
496.20	243.42
496.38	175.54
496.55	212.99
496.73	227.03
496.91	283.20
497.09	266.82
497.26	332.36
497.44	205.97
497.62	264.48
497.79	346.40
497.97	264.48
498.14	250.44
498.32	182.56
498.50	231.71
498.67	297.25
498.85	278.52
499.03	245.76
499.20	299.59
499.38	238.73
499.56	250.44
499.73	245.76
499.91	238.73
500.08	304.27
500.26	301.93
500.44	217.67
500.61	264.48
500.79	191.92
500.97	236.39
501.14	210.65
501.32	257.46
501.49	278.52
501.67	198.95
501.84	248.10
502.02	255.12
502.20	257.46
502.37	280.86
502.55	318.31
502.72	231.71
502.90	306.61
503.07	297.25
503.25	285.55
503.43	301.93
503.60	344.06
503.78	241.08
503.95	322.99
504.13	250.44
504.30	311.29
504.48	320.65
504.65	290.23
504.83	231.71
505.01	173.20
505.18	306.61
505.36	196.60
505.53	215.33
505.71	318.31
505.88	257.46
506.06	287.89
506.23	236.39
506.41	203.63
506.58	224.69
506.76	187.24
506.93	285.55
507.11	308.95
507.28	217.67
507.46	201.29
507.63	341.72
507.81	278.52
507.98	313.63
508.16	259.80
508.33	297.25
508.50	250.44
508.68	290.23
508.85	255.12
509.03	252.78
509.20	241.08
509.38	315.97
509.55	273.84
509.73	278.52
509.90	257.46
510.08	168.52
510.25	285.55
510.42	212.99
510.60	262.14
510.77	341.72
510.95	257.46
511.12	245.76
511.30	285.55
511.47	327.68
511.64	411.93
511.82	330.02
511.99	297.25
512.17	290.23
512.34	245.76
512.51	238.73
512.69	269.16
512.86	360.44
513.04	241.08
513.21	276.18
513.38	212.99
513.56	241.08
513.73	299.59
513.90	194.26
514.08	262.14
514.25	325.33
514.43	236.39
514.60	262.14
514.77	250.44
514.95	297.25
515.12	269.16
515.29	341.72
515.47	266.82
515.64	245.76
515.81	189.58
515.99	245.76
516.16	332.36
516.33	388.53
516.51	236.39
516.68	191.92
516.85	271.50
517.03	229.37
517.20	285.55
517.37	205.97
517.54	241.08
517.72	311.29
517.89	131.07
518.06	255.12
518.24	346.40
518.41	266.82
518.58	344.06
518.75	315.97
518.93	313.63
519.10	360.44
519.27	306.61
519.45	280.86
519.62	252.78
519.79	285.55
519.96	283.20
520.14	332.36
520.31	322.99
520.48	266.82
520.65	318.31
520.83	269.16
521.00	367.46
521.17	222.35
521.34	332.36
521.52	287.89
521.69	306.61
521.86	250.44
522.03	313.63
522.20	294.91
522.38	231.71
522.55	241.08
522.72	255.12
522.89	280.86
523.07	341.72
523.24	273.84
523.41	224.69
523.58	271.50
523.75	243.42
523.92	285.55
524.10	308.95
524.27	257.46
524.44	292.57
524.61	259.80
524.78	271.50
524.96	322.99
525.13	250.44
525.30	332.36
525.47	280.86
525.64	315.97
525.81	297.25
525.98	163.84
526.16	276.18
526.33	215.33
526.50	280.86
526.67	201.29
526.84	238.73
527.01	234.05
527.18	220.01
527.36	264.48
527.53	308.95
527.70	287.89
527.87	278.52
528.04	348.74
528.21	283.20
528.38	308.95
528.55	266.82
528.72	306.61
528.89	393.21
529.07	318.31
529.24	238.73
529.41	278.52
529.58	243.42
529.75	255.12
529.92	341.72
530.09	191.92
530.26	276.18
530.43	390.87
530.60	243.42
530.77	257.46
530.94	322.99
531.11	280.86
531.28	304.27
531.46	234.05
531.63	238.73
531.80	238.73
531.97	294.91
532.14	367.46
532.31	304.27
532.48	313.63
532.65	458.74
532.82	510.24
532.99	552.37
533.16	465.77
533.33	337.04
533.50	353.42
533.67	374.49
533.84	550.03
534.01	645.99
534.18	477.47
534.35	397.89
534.52	369.80
534.69	320.65
534.86	318.31
535.03	360.44
535.20	344.06
535.37	278.52
535.54	339.38
535.71	339.38
535.88	400.23
536.05	306.61
536.22	362.78
536.38	360.44
536.55	320.65
536.72	250.44
536.89	290.23
537.06	325.33
537.23	308.95
537.40	229.37
537.57	259.80
537.74	315.97
537.91	280.86
538.08	313.63
538.25	315.97
538.42	273.84
538.59	325.33
538.75	285.55
538.92	346.40
539.09	360.44
539.26	358.10
539.43	634.29
539.60	1575.18
539.77	2679.91
539.94	2904.60
540.11	1867.75
540.28	1207.72
540.44	849.61
540.61	580.45
540.78	421.30
540.95	423.64
541.12	526.62
541.29	503.22
541.46	477.47
541.62	468.11
541.79	440.02
541.96	418.96
542.13	425.98
542.30	404.91
542.47	430.66
542.63	498.53
542.80	528.96
542.97	491.51
543.14	458.74
543.31	482.15
543.48	442.36
543.64	423.64
543.81	416.62
543.98	418.96
544.15	376.83
544.32	500.87
544.48	458.74
544.65	416.62
544.82	433.00
544.99	402.57
545.16	458.74
545.32	514.92
545.49	678.76
545.66	732.59
545.83	828.55
546.00	664.71
546.16	587.47
546.33	519.60
546.50	498.53
546.67	451.72
546.83	416.62
547.00	465.77
547.17	358.10
547.34	315.97
547.50	292.57
547.67	367.46
547.84	348.74
548.00	393.21
548.17	365.12
548.34	266.82
548.51	393.21
548.67	409.59
548.84	383.85
549.01	402.57
549.18	306.61
549.34	411.93
549.51	383.85
549.68	353.42
549.84	362.78
550.01	358.10
550.18	456.40
550.34	383.85
550.51	367.46
550.68	344.06
550.84	299.59
551.01	315.97
551.18	292.57
551.34	334.70
551.51	287.89
551.68	318.31
551.84	353.42
552.01	315.97
552.18	245.76
552.34	334.70
552.51	269.16
552.68	308.95
552.84	320.65
553.01	322.99
553.18	320.65
553.34	259.80
553.51	194.26
553.67	283.20
553.84	407.25
554.01	255.12
554.17	280.86
554.34	276.18
554.51	304.27
554.67	273.84
554.84	287.89
555.00	334.70
555.17	266.82
555.33	318.31
555.50	294.91
555.67	287.89
555.83	243.42
556.00	315.97
556.16	493.85
556.33	304.27
556.50	290.23
556.66	257.46
556.83	259.80
556.99	287.89
557.16	262.14
557.32	297.25
557.49	355.76
557.65	241.08
557.82	297.25
557.98	308.95
558.15	264.48
558.32	292.57
558.48	325.33
558.65	327.68
558.81	318.31
558.98	318.31
559.14	285.55
559.31	255.12
559.47	255.12
559.64	264.48
559.80	259.80
559.97	259.80
560.13	262.14
560.30	224.69
560.46	290.23
560.63	238.73
560.79	229.37
560.96	250.44
561.12	327.68
561.29	252.78
561.45	306.61
561.61	175.54
561.78	320.65
561.94	269.16
562.11	196.60
562.27	215.33
562.44	229.37
562.60	241.08
562.77	283.20
562.93	362.78
563.10	248.10
563.26	259.80
563.42	348.74
563.59	273.84
563.75	248.10
563.92	243.42
564.08	353.42
564.24	227.03
564.41	339.38
564.57	257.46
564.74	327.68
564.90	339.38
565.07	353.42
565.23	276.18
565.39	334.70
565.56	355.76
565.72	273.84
565.88	330.02
566.05	344.06
566.21	283.20
566.38	337.04
566.54	276.18
566.70	292.57
566.87	278.52
567.03	262.14
567.19	220.01
567.36	259.80
567.52	266.82
567.68	290.23
567.85	306.61
568.01	273.84
568.17	217.67
568.34	292.57
568.50	280.86
568.66	299.59
568.83	330.02
568.99	250.44
569.15	320.65
569.32	308.95
569.48	266.82
569.64	283.20
569.81	248.10
569.97	327.68
570.13	332.36
570.30	194.26
570.46	248.10
570.62	248.10
570.78	285.55
570.95	241.08
571.11	299.59
571.27	369.80
571.43	306.61
571.60	355.76
571.76	301.93
571.92	327.68
572.09	259.80
572.25	285.55
572.41	318.31
572.57	191.92
572.74	224.69
572.90	313.63
573.06	372.15
573.22	280.86
573.38	222.35
573.55	292.57
573.71	285.55
573.87	330.02
574.03	292.57
574.20	374.49
574.36	369.80
574.52	423.64
574.68	423.64
574.84	428.32
575.01	358.10
575.17	337.04
575.33	313.63
575.49	353.42
575.65	353.42
575.82	397.89
575.98	861.32
576.14	1088.35
576.30	1373.89
576.46	1083.67
576.62	730.25
576.79	657.69
576.95	435.34
577.11	463.43
577.27	411.93
577.43	458.74
577.59	362.78
577.75	327.68
577.92	360.44
578.08	341.72
578.24	234.05
578.40	472.79
578.56	479.81
578.72	465.77
578.88	449.38
579.04	500.87
579.21	454.06
579.37	440.02
579.53	423.64
579.69	425.98
579.85	489.17
580.01	648.33
580.17	578.11
580.33	559.39
580.49	545.34
580.65	512.58
580.82	578.11
580.98	524.28
581.14	524.28
581.30	568.75
581.46	634.29
581.62	908.13
581.78	992.39
581.94	929.19
582.10	861.32
582.26	681.10
582.42	697.48
582.58	676.41
582.74	636.63
582.90	723.23
583.06	702.16
583.22	688.12
583.38	807.48
583.54	786.42
583.70	1071.97
583.86	1043.88
584.02	1254.53
584.18	1568.16
584.34	1935.62
584.50	4999.38
584.66	36072.34
584.82	65535.00
584.98	65535.00
585.14	65535.00
585.30	65535.00
585.46	59650.89
585.62	36229.15
585.78	16573.33
585.94	6384.98
586.10	2878.86
586.26	1795.19
586.42	1439.43
586.58	1128.14
586.74	1100.05
586.90	1020.47
587.06	985.37
587.22	861.32
587.38	952.60
587.54	1865.41
587.70	5507.28
587.86	10553.48
588.02	13289.56
588.18	9238.09
588.34	5472.17
588.49	3438.25
588.65	2195.42
588.81	1086.01
588.97	650.67
589.13	601.52
589.29	498.53
589.45	498.53
589.61	409.59
589.77	587.47
589.93	713.86
590.08	807.48
590.24	716.20
590.40	788.76
590.56	631.94
590.72	554.71
590.88	554.71
591.04	540.66
591.20	538.32
591.35	566.41
591.51	475.13
591.67	458.74
591.83	510.24
591.99	475.13
592.15	437.68
592.31	503.22
592.46	390.87
592.62	470.45
592.78	442.36
592.94	442.36
593.10	461.09
593.26	482.15
593.41	587.47
593.57	512.58
593.73	873.02
593.89	4140.41
594.05	12294.83
594.20	21455.69
594.36	21792.73
594.52	13891.08
594.68	8147.40
594.84	5418.34
594.99	2794.60
595.15	1306.02
595.31	763.01
595.47	587.47
595.62	559.39
595.78	430.66
595.94	470.45
596.10	547.69
596.25	528.96
596.41	500.87
596.57	552.37
596.73	421.30
596.88	821.53
597.04	2195.42
597.20	4093.60
597.36	5317.70
597.51	4133.39
597.67	2691.62
597.83	1827.96
597.99	1266.23
598.14	741.95
598.30	545.34
598.46	479.81
598.61	533.64
598.77	531.30
598.93	456.40
599.09	486.83
599.24	423.64
599.40	461.09
599.56	367.46
599.71	362.78
599.87	334.70
600.03	367.46
600.18	388.53
600.34	339.38
600.50	292.57
600.65	339.38
600.81	440.02
600.97	341.72
601.12	367.46
601.28	379.17
601.44	348.74
601.59	376.83
601.75	348.74
601.91	346.40
602.06	388.53
602.22	433.00
602.37	997.07
602.53	2700.98
602.69	5013.43
602.84	5818.57
603.00	3997.64
603.16	2588.63
603.31	1717.95
603.47	1123.46
603.62	641.31
603.78	421.30
603.94	386.19
604.09	339.38
604.25	430.66
604.40	369.80
604.56	433.00
604.71	346.40
604.87	334.70
605.03	416.62
605.18	423.64
605.34	383.85
605.49	367.46
605.65	447.04
605.80	409.59
605.96	407.25
606.12	421.30
606.27	479.81
606.43	580.45
606.58	608.54
606.74	1268.57
606.89	5254.50
607.05	12638.89
607.20	19089.41
607.36	15983.52
607.51	10410.70
607.67	6462.22
607.82	4470.42
607.98	2305.43
608.13	1156.22
608.29	800.46
608.44	688.12
608.60	770.04
608.75	908.13
608.91	1703.91
609.06	8245.71
609.22	20758.21
609.37	32629.41
609.53	29530.54
609.68	19129.20
609.84	11712.04
