SpectraSuite Data File
++++++++++++++++++++++++++++++++++++
Date: Fri Oct 04 11:33:57 GMT-05:00 2013
User: price-jones
Dark Spectrum Present: No
Reference Spectrum Present: No
Number of Sampled Component Spectra: 1
Spectrometers: USB2+H05261
Integration Time (usec): 100000 (USB2+H05261)
Spectra Averaged: 1 (USB2+H05261)
Boxcar Smoothing: 0 (USB2+H05261)
Correct for Electrical Dark: No (USB2+H05261)
Strobe/Lamp Enabled: No (USB2+H05261)
Correct for Detector Non-linearity: No (USB2+H05261)
Correct for Stray Light: No (USB2+H05261)
Number of Pixels in Processed Spectrum: 2048
>>>>>Begin Processed Spectral Data<<<<<
365.73	124.05
365.92	124.05
366.12	124.05
366.32	0.00
366.52	0.00
366.72	0.00
366.91	28.09
367.11	0.00
367.31	0.00
367.51	0.00
367.70	32.77
367.90	14.04
368.10	0.00
368.30	37.45
368.49	0.00
368.69	0.00
368.89	0.00
369.09	0.00
369.28	0.00
369.48	16.38
369.68	0.00
369.87	46.81
370.07	21.06
370.27	58.51
370.47	86.60
370.66	124.05
370.86	163.84
371.06	114.69
371.25	128.73
371.45	91.28
371.65	70.22
371.84	51.49
372.04	121.71
372.24	166.18
372.44	168.52
372.63	114.69
372.83	182.56
373.03	166.18
373.22	133.41
373.42	117.03
373.62	156.82
373.81	166.18
374.01	177.88
374.21	180.22
374.40	152.13
374.60	173.20
374.79	105.32
374.99	152.13
375.19	175.54
375.38	196.60
375.58	102.98
375.78	227.03
375.97	67.88
376.17	215.33
376.37	149.79
376.56	135.75
376.76	154.48
376.95	161.50
377.15	182.56
377.35	252.78
377.54	145.11
377.74	135.75
377.93	147.45
378.13	227.03
378.33	142.77
378.52	114.69
378.72	119.37
378.91	117.03
379.11	215.33
379.31	133.41
379.50	63.19
379.70	124.05
379.89	152.13
380.09	147.45
380.28	86.60
380.48	166.18
380.68	159.16
380.87	67.88
381.07	110.01
381.26	124.05
381.46	91.28
381.65	177.88
381.85	88.94
382.04	198.95
382.24	126.39
382.43	110.01
382.63	98.30
382.83	161.50
383.02	131.07
383.22	224.69
383.41	145.11
383.61	131.07
383.80	117.03
384.00	107.66
384.19	147.45
384.39	105.32
384.58	100.64
384.78	145.11
384.97	112.35
385.17	198.95
385.36	152.13
385.56	112.35
385.75	98.30
385.95	117.03
386.14	168.52
386.34	135.75
386.53	159.16
386.72	58.51
386.92	196.60
387.11	227.03
387.31	196.60
387.50	86.60
387.70	138.09
387.89	124.05
388.09	159.16
388.28	163.84
388.48	163.84
388.67	121.71
388.86	98.30
389.06	60.85
389.25	133.41
389.45	177.88
389.64	121.71
389.84	161.50
390.03	140.43
390.22	131.07
390.42	65.54
390.61	110.01
390.81	107.66
391.00	77.24
391.19	147.45
391.39	142.77
391.58	152.13
391.78	191.92
391.97	175.54
392.16	131.07
392.36	135.75
392.55	182.56
392.75	128.73
392.94	152.13
393.13	154.48
393.33	166.18
393.52	105.32
393.71	133.41
393.91	107.66
394.10	152.13
394.29	163.84
394.49	131.07
394.68	156.82
394.88	140.43
395.07	133.41
395.26	149.79
395.46	102.98
395.65	159.16
395.84	245.76
396.04	170.86
396.23	124.05
396.42	91.28
396.62	156.82
396.81	208.31
397.00	191.92
397.19	154.48
397.39	203.63
397.58	215.33
397.77	140.43
397.97	133.41
398.16	173.20
398.35	252.78
398.55	138.09
398.74	119.37
398.93	163.84
399.12	168.52
399.32	159.16
399.51	203.63
399.70	138.09
399.90	196.60
400.09	114.69
400.28	149.79
400.47	60.85
400.67	159.16
400.86	142.77
401.05	149.79
401.24	121.71
401.44	170.86
401.63	189.58
401.82	166.18
402.01	182.56
402.21	100.64
402.40	205.97
402.59	182.56
402.78	159.16
402.97	149.79
403.17	154.48
403.36	212.99
403.55	159.16
403.74	121.71
403.93	248.10
404.13	245.76
404.32	212.99
404.51	210.65
404.70	238.73
404.89	194.26
405.09	220.01
405.28	184.90
405.47	152.13
405.66	210.65
405.85	283.20
406.05	135.75
406.24	154.48
406.43	170.86
406.62	222.35
406.81	168.52
407.00	166.18
407.20	166.18
407.39	117.03
407.58	168.52
407.77	191.92
407.96	236.39
408.15	138.09
408.34	170.86
408.54	149.79
408.73	126.39
408.92	177.88
409.11	142.77
409.30	227.03
409.49	110.01
409.68	100.64
409.87	135.75
410.07	149.79
410.26	203.63
410.45	187.24
410.64	182.56
410.83	138.09
411.02	210.65
411.21	208.31
411.40	234.05
411.59	142.77
411.78	84.26
411.98	205.97
412.17	168.52
412.36	105.32
412.55	86.60
412.74	163.84
412.93	182.56
413.12	117.03
413.31	241.08
413.50	191.92
413.69	152.13
413.88	175.54
414.07	163.84
414.26	184.90
414.45	112.35
414.64	201.29
414.83	227.03
415.02	210.65
415.22	191.92
415.41	166.18
415.60	173.20
415.79	212.99
415.98	241.08
416.17	159.16
416.36	191.92
416.55	152.13
416.74	215.33
416.93	142.77
417.12	145.11
417.31	154.48
417.50	224.69
417.69	177.88
417.88	220.01
418.07	156.82
418.26	182.56
418.45	198.95
418.64	283.20
418.83	212.99
419.02	238.73
419.21	180.22
419.39	182.56
419.58	243.42
419.77	189.58
419.96	154.48
420.15	208.31
420.34	135.75
420.53	91.28
420.72	180.22
420.91	177.88
421.10	203.63
421.29	170.86
421.48	266.82
421.67	168.52
421.86	166.18
422.05	205.97
422.24	182.56
422.43	180.22
422.61	159.16
422.80	168.52
422.99	182.56
423.18	154.48
423.37	241.08
423.56	184.90
423.75	236.39
423.94	161.50
424.13	175.54
424.32	163.84
424.50	210.65
424.69	107.66
424.88	208.31
425.07	117.03
425.26	259.80
425.45	306.61
425.64	276.18
425.83	238.73
426.01	229.37
426.20	304.27
426.39	170.86
426.58	182.56
426.77	170.86
426.96	194.26
427.15	177.88
427.33	201.29
427.52	154.48
427.71	173.20
427.90	149.79
428.09	159.16
428.28	133.41
428.46	163.84
428.65	220.01
428.84	241.08
429.03	248.10
429.22	138.09
429.40	102.98
429.59	154.48
429.78	220.01
429.97	191.92
430.16	154.48
430.34	170.86
430.53	149.79
430.72	114.69
430.91	124.05
431.10	212.99
431.28	215.33
431.47	182.56
431.66	170.86
431.85	161.50
432.03	194.26
432.22	269.16
432.41	159.16
432.60	175.54
432.79	271.50
432.97	255.12
433.16	231.71
433.35	210.65
433.54	168.52
433.72	124.05
433.91	163.84
434.10	231.71
434.28	154.48
434.47	217.67
434.66	161.50
434.85	177.88
435.03	320.65
435.22	376.83
435.41	472.79
435.59	472.79
435.78	348.74
435.97	234.05
436.16	205.97
436.34	191.92
436.53	208.31
436.72	215.33
436.90	112.35
437.09	147.45
437.28	194.26
437.46	231.71
437.65	220.01
437.84	184.90
438.02	203.63
438.21	208.31
438.40	215.33
438.58	163.84
438.77	173.20
438.96	147.45
439.14	166.18
439.33	220.01
439.52	210.65
439.70	196.60
439.89	140.43
440.08	222.35
440.26	212.99
440.45	250.44
440.63	152.13
440.82	182.56
441.01	205.97
441.19	168.52
441.38	175.54
441.57	180.22
441.75	180.22
441.94	222.35
442.12	154.48
442.31	114.69
442.50	231.71
442.68	184.90
442.87	177.88
443.05	175.54
443.24	163.84
443.43	269.16
443.61	245.76
443.80	196.60
443.98	182.56
444.17	217.67
444.35	149.79
444.54	161.50
444.73	168.52
444.91	215.33
445.10	201.29
445.28	180.22
445.47	180.22
445.65	201.29
445.84	194.26
446.02	124.05
446.21	161.50
446.39	149.79
446.58	222.35
446.77	140.43
446.95	159.16
447.14	147.45
447.32	222.35
447.51	173.20
447.69	128.73
447.88	203.63
448.06	245.76
448.25	210.65
448.43	184.90
448.62	145.11
448.80	224.69
448.99	189.58
449.17	170.86
449.36	208.31
449.54	220.01
449.73	159.16
449.91	236.39
450.10	166.18
450.28	238.73
450.46	262.14
450.65	224.69
450.83	210.65
451.02	250.44
451.20	198.95
451.39	236.39
451.57	220.01
451.76	152.13
451.94	248.10
452.13	168.52
452.31	194.26
452.49	187.24
452.68	220.01
452.86	182.56
453.05	180.22
453.23	182.56
453.42	212.99
453.60	236.39
453.78	234.05
453.97	196.60
454.15	135.75
454.34	215.33
454.52	175.54
454.70	198.95
454.89	215.33
455.07	191.92
455.26	215.33
455.44	255.12
455.62	147.45
455.81	280.86
455.99	259.80
456.17	276.18
456.36	156.82
456.54	205.97
456.73	156.82
456.91	163.84
457.09	166.18
457.28	208.31
457.46	191.92
457.64	168.52
457.83	208.31
458.01	175.54
458.19	224.69
458.38	184.90
458.56	191.92
458.74	119.37
458.93	248.10
459.11	217.67
459.29	182.56
459.48	198.95
459.66	182.56
459.84	227.03
460.03	290.23
460.21	243.42
460.39	177.88
460.57	255.12
460.76	224.69
460.94	238.73
461.12	191.92
461.31	222.35
461.49	217.67
461.67	191.92
461.85	257.46
462.04	119.37
462.22	554.71
462.40	156.82
462.59	238.73
462.77	224.69
462.95	264.48
463.13	196.60
463.32	224.69
463.50	208.31
463.68	255.12
463.86	166.18
464.05	198.95
464.23	222.35
464.41	266.82
464.59	138.09
464.78	173.20
464.96	168.52
465.14	215.33
465.32	159.16
465.50	241.08
465.69	248.10
465.87	149.79
466.05	222.35
466.23	208.31
466.41	128.73
466.60	114.69
466.78	231.71
466.96	236.39
467.14	271.50
467.32	241.08
467.51	259.80
467.69	245.76
467.87	313.63
468.05	198.95
468.23	245.76
468.41	161.50
468.60	222.35
468.78	191.92
468.96	205.97
469.14	140.43
469.32	238.73
469.50	175.54
469.69	189.58
469.87	227.03
470.05	238.73
470.23	229.37
470.41	131.07
470.59	114.69
470.77	163.84
470.95	222.35
471.14	234.05
471.32	170.86
471.50	220.01
471.68	243.42
471.86	194.26
472.04	154.48
472.22	236.39
472.40	154.48
472.58	170.86
472.77	168.52
472.95	264.48
473.13	201.29
473.31	250.44
473.49	262.14
473.67	210.65
473.85	238.73
474.03	229.37
474.21	182.56
474.39	238.73
474.57	194.26
474.75	252.78
474.93	236.39
475.12	177.88
475.30	121.71
475.48	231.71
475.66	257.46
475.84	229.37
476.02	177.88
476.20	250.44
476.38	187.24
476.56	250.44
476.74	203.63
476.92	170.86
477.10	250.44
477.28	170.86
477.46	196.60
477.64	262.14
477.82	156.82
478.00	248.10
478.18	285.55
478.36	234.05
478.54	191.92
478.72	276.18
478.90	182.56
479.08	259.80
479.26	180.22
479.44	229.37
479.62	182.56
479.80	210.65
479.98	198.95
480.16	248.10
480.34	271.50
480.52	191.92
480.70	210.65
480.88	208.31
481.06	215.33
481.24	229.37
481.41	285.55
481.59	231.71
481.77	231.71
481.95	161.50
482.13	238.73
482.31	262.14
482.49	220.01
482.67	224.69
482.85	180.22
483.03	252.78
483.21	315.97
483.39	255.12
483.57	264.48
483.74	224.69
483.92	299.59
484.10	191.92
484.28	224.69
484.46	234.05
484.64	220.01
484.82	222.35
485.00	208.31
485.18	285.55
485.35	238.73
485.53	234.05
485.71	292.57
485.89	229.37
486.07	348.74
486.25	248.10
486.43	278.52
486.61	231.71
486.78	290.23
486.96	320.65
487.14	280.86
487.32	236.39
487.50	308.95
487.68	292.57
487.85	180.22
488.03	297.25
488.21	280.86
488.39	224.69
488.57	222.35
488.75	229.37
488.92	503.22
489.10	283.20
489.28	369.80
489.46	238.73
489.64	229.37
489.81	187.24
489.99	245.76
490.17	271.50
490.35	341.72
490.53	306.61
490.70	220.01
490.88	287.89
491.06	248.10
491.24	276.18
491.41	238.73
491.59	222.35
491.77	156.82
491.95	180.22
492.13	175.54
492.30	257.46
492.48	276.18
492.66	269.16
492.84	255.12
493.01	320.65
493.19	325.33
493.37	297.25
493.54	287.89
493.72	280.86
493.90	220.01
494.08	243.42
494.25	308.95
494.43	220.01
494.61	259.80
494.79	229.37
494.96	304.27
495.14	243.42
495.32	222.35
495.49	201.29
495.67	250.44
495.85	220.01
496.02	231.71
496.20	255.12
496.38	191.92
496.55	259.80
496.73	234.05
496.91	140.43
497.09	248.10
497.26	308.95
497.44	299.59
497.62	217.67
497.79	259.80
497.97	250.44
498.14	308.95
498.32	255.12
498.50	273.84
498.67	187.24
498.85	318.31
499.03	227.03
499.20	184.90
499.38	227.03
499.56	236.39
499.73	266.82
499.91	241.08
500.08	273.84
500.26	301.93
500.44	208.31
500.61	184.90
500.79	299.59
500.97	189.58
501.14	311.29
501.32	290.23
501.49	175.54
501.67	255.12
501.84	170.86
502.02	208.31
502.20	255.12
502.37	315.97
502.55	215.33
502.72	283.20
502.90	318.31
503.07	215.33
503.25	252.78
503.43	255.12
503.60	318.31
503.78	252.78
503.95	252.78
504.13	280.86
504.30	266.82
504.48	269.16
504.65	313.63
504.83	257.46
505.01	208.31
505.18	330.02
505.36	215.33
505.53	285.55
505.71	224.69
505.88	257.46
506.06	297.25
506.23	231.71
506.41	285.55
506.58	234.05
506.76	224.69
506.93	292.57
507.11	227.03
507.28	227.03
507.46	215.33
507.63	217.67
507.81	194.26
507.98	198.95
508.16	224.69
508.33	210.65
508.50	250.44
508.68	227.03
508.85	257.46
509.03	248.10
509.20	217.67
509.38	236.39
509.55	292.57
509.73	292.57
509.90	290.23
510.08	264.48
510.25	266.82
510.42	212.99
510.60	238.73
510.77	262.14
510.95	227.03
511.12	248.10
511.30	325.33
511.47	320.65
511.64	374.49
511.82	248.10
511.99	362.78
512.17	304.27
512.34	236.39
512.51	308.95
512.69	262.14
512.86	374.49
513.04	175.54
513.21	308.95
513.38	262.14
513.56	257.46
513.73	252.78
513.90	294.91
514.08	262.14
514.25	341.72
514.43	315.97
514.60	299.59
514.77	283.20
514.95	287.89
515.12	241.08
515.29	297.25
515.47	283.20
515.64	248.10
515.81	271.50
515.99	278.52
516.16	215.33
516.33	273.84
516.51	271.50
516.68	208.31
516.85	306.61
517.03	184.90
517.20	283.20
517.37	149.79
517.54	205.97
517.72	229.37
517.89	241.08
518.06	161.50
518.24	276.18
518.41	318.31
518.58	315.97
518.75	250.44
518.93	243.42
519.10	243.42
519.27	236.39
519.45	259.80
519.62	341.72
519.79	248.10
519.96	259.80
520.14	273.84
520.31	257.46
520.48	191.92
520.65	283.20
520.83	322.99
521.00	238.73
521.17	278.52
521.34	264.48
521.52	224.69
521.69	301.93
521.86	250.44
522.03	315.97
522.20	381.51
522.38	231.71
522.55	292.57
522.72	285.55
522.89	264.48
523.07	299.59
523.24	259.80
523.41	241.08
523.58	287.89
523.75	250.44
523.92	273.84
524.10	238.73
524.27	308.95
524.44	245.76
524.61	262.14
524.78	313.63
524.96	229.37
525.13	346.40
525.30	315.97
525.47	248.10
525.64	299.59
525.81	245.76
525.98	229.37
526.16	222.35
526.33	325.33
526.50	191.92
526.67	301.93
526.84	250.44
527.01	262.14
527.18	278.52
527.36	255.12
527.53	250.44
527.70	280.86
527.87	311.29
528.04	287.89
528.21	234.05
528.38	278.52
528.55	322.99
528.72	269.16
528.89	304.27
529.07	337.04
529.24	299.59
529.41	243.42
529.58	301.93
529.75	292.57
529.92	311.29
530.09	283.20
530.26	379.17
530.43	271.50
530.60	266.82
530.77	287.89
530.94	294.91
531.11	194.26
531.28	231.71
531.46	255.12
531.63	257.46
531.80	194.26
531.97	220.01
532.14	262.14
532.31	344.06
532.48	341.72
532.65	344.06
532.82	334.70
532.99	407.25
533.16	280.86
533.33	269.16
533.50	355.76
533.67	346.40
533.84	444.70
534.01	327.68
534.18	484.49
534.35	372.15
534.52	341.72
534.69	311.29
534.86	313.63
535.03	203.63
535.20	231.71
535.37	304.27
535.54	299.59
535.71	252.78
535.88	362.78
536.05	285.55
536.22	280.86
536.38	269.16
536.55	304.27
536.72	330.02
536.89	346.40
537.06	332.36
537.23	355.76
537.40	304.27
537.57	245.76
537.74	311.29
537.91	243.42
538.08	327.68
538.25	362.78
538.42	339.38
538.59	390.87
538.75	330.02
538.92	372.15
539.09	322.99
539.26	430.66
539.43	500.87
539.60	1022.81
539.77	1430.07
539.94	1219.42
540.11	910.47
540.28	655.35
540.44	622.58
540.61	524.28
540.78	477.47
540.95	418.96
541.12	552.37
541.29	491.51
541.46	575.77
541.62	575.77
541.79	500.87
541.96	526.62
542.13	440.02
542.30	482.15
542.47	468.11
542.63	470.45
542.80	472.79
542.97	479.81
543.14	482.15
543.31	554.71
543.48	510.24
543.64	500.87
543.81	517.26
543.98	472.79
544.15	482.15
544.32	528.96
544.48	411.93
544.65	447.04
544.82	444.70
544.99	489.17
545.16	486.83
545.32	498.53
545.49	786.42
545.66	940.90
545.83	978.34
546.00	720.88
546.16	669.39
546.33	578.11
546.50	519.60
546.67	498.53
546.83	395.55
547.00	423.64
547.17	404.91
547.34	334.70
547.50	418.96
547.67	416.62
547.84	355.76
548.00	451.72
548.17	374.49
548.34	369.80
548.51	421.30
548.67	360.44
548.84	353.42
549.01	404.91
549.18	315.97
549.34	379.17
549.51	367.46
549.68	311.29
549.84	330.02
550.01	381.51
550.18	433.00
550.34	407.25
550.51	374.49
550.68	423.64
550.84	290.23
551.01	285.55
551.18	318.31
551.34	341.72
551.51	348.74
551.68	330.02
551.84	365.12
552.01	327.68
552.18	325.33
552.34	313.63
552.51	346.40
552.68	322.99
552.84	285.55
553.01	222.35
553.18	252.78
553.34	248.10
553.51	308.95
553.67	341.72
553.84	421.30
554.01	344.06
554.17	362.78
554.34	255.12
554.51	358.10
554.67	308.95
554.84	273.84
555.00	301.93
555.17	238.73
555.33	301.93
555.50	311.29
555.67	299.59
555.83	262.14
556.00	248.10
556.16	423.64
556.33	287.89
556.50	327.68
556.66	224.69
556.83	322.99
556.99	278.52
557.16	248.10
557.32	255.12
557.49	266.82
557.65	273.84
557.82	306.61
557.98	257.46
558.15	255.12
558.32	308.95
558.48	276.18
558.65	297.25
558.81	273.84
558.98	278.52
559.14	299.59
559.31	283.20
559.47	238.73
559.64	250.44
559.80	334.70
559.97	308.95
560.13	243.42
560.30	194.26
560.46	238.73
560.63	266.82
560.79	222.35
560.96	234.05
561.12	252.78
561.29	301.93
561.45	262.14
561.61	322.99
561.78	327.68
561.94	234.05
562.11	306.61
562.27	229.37
562.44	280.86
562.60	278.52
562.77	248.10
562.93	308.95
563.10	250.44
563.26	269.16
563.42	280.86
563.59	245.76
563.75	271.50
563.92	269.16
564.08	241.08
564.24	315.97
564.41	337.04
564.57	334.70
564.74	283.20
564.90	269.16
565.07	224.69
565.23	248.10
565.39	278.52
565.56	238.73
565.72	280.86
565.88	290.23
566.05	259.80
566.21	243.42
566.38	327.68
566.54	283.20
566.70	236.39
566.87	215.33
567.03	297.25
567.19	273.84
567.36	283.20
567.52	266.82
567.68	266.82
567.85	330.02
568.01	283.20
568.17	238.73
568.34	264.48
568.50	299.59
568.66	287.89
568.83	344.06
568.99	224.69
569.15	250.44
569.32	248.10
569.48	255.12
569.64	180.22
569.81	250.44
569.97	266.82
570.13	259.80
570.30	278.52
570.46	238.73
570.62	252.78
570.78	231.71
570.95	276.18
571.11	280.86
571.27	299.59
571.43	238.73
571.60	266.82
571.76	322.99
571.92	259.80
572.09	269.16
572.25	320.65
572.41	308.95
572.57	348.74
572.74	315.97
572.90	297.25
573.06	248.10
573.22	294.91
573.38	217.67
573.55	224.69
573.71	311.29
573.87	294.91
574.03	259.80
574.20	255.12
574.36	297.25
574.52	297.25
574.68	379.17
574.84	351.08
575.01	318.31
575.17	243.42
575.33	208.31
575.49	245.76
575.65	287.89
575.82	386.19
575.98	486.83
576.14	727.91
576.30	615.56
576.46	524.28
576.62	484.49
576.79	543.00
576.95	493.85
577.11	414.27
577.27	353.42
577.43	353.42
577.59	402.57
577.75	325.33
577.92	318.31
578.08	332.36
578.24	266.82
578.40	320.65
578.56	393.21
578.72	409.59
578.88	447.04
579.04	341.72
579.21	383.85
579.37	400.23
579.53	325.33
579.69	418.96
579.85	376.83
580.01	376.83
580.17	374.49
580.33	430.66
580.49	416.62
580.65	369.80
580.82	444.70
580.98	402.57
581.14	355.76
581.30	348.74
581.46	477.47
581.62	564.07
581.78	543.00
581.94	613.22
582.10	461.09
582.26	456.40
582.42	451.72
582.58	468.11
582.74	388.53
582.90	447.04
583.06	486.83
583.22	472.79
583.38	486.83
583.54	491.51
583.70	688.12
583.86	655.35
584.02	741.95
584.18	751.31
584.34	1069.62
584.50	2675.23
584.66	19143.24
584.82	47756.29
584.98	58148.27
585.14	54780.24
585.30	37095.15
585.46	22321.69
585.62	13689.79
585.78	6417.75
585.94	2686.94
586.10	1409.00
586.26	863.66
586.42	795.78
586.58	734.93
586.74	617.90
586.90	631.94
587.06	629.60
587.22	528.96
587.38	514.92
587.54	1067.28
587.70	2958.44
587.86	4496.17
588.02	4842.57
588.18	3531.87
588.34	2286.70
588.49	1572.84
588.65	1032.18
588.81	540.66
588.97	428.32
589.13	437.68
589.29	341.72
589.45	351.08
589.61	383.85
589.77	482.15
589.93	418.96
590.08	484.49
590.24	383.85
590.40	447.04
590.56	451.72
590.72	447.04
590.88	330.02
591.04	341.72
591.20	376.83
591.35	362.78
591.51	388.53
591.67	381.51
591.83	355.76
591.99	369.80
592.15	346.40
592.31	374.49
592.46	372.15
592.62	344.06
592.78	351.08
592.94	313.63
593.10	411.93
593.26	428.32
593.41	374.49
593.57	482.15
593.73	585.13
593.89	2363.94
594.05	5893.47
594.20	8334.65
594.36	7955.48
594.52	5144.50
594.68	3246.32
594.84	2328.83
594.99	1247.51
595.15	732.59
595.31	468.11
595.47	454.06
595.62	372.15
595.78	383.85
595.94	339.38
596.10	388.53
596.25	461.09
596.41	449.38
596.57	376.83
596.73	299.59
596.88	550.03
597.04	1270.91
597.20	1853.70
597.36	2101.80
597.51	1685.19
597.67	1207.72
597.83	919.83
597.99	648.33
598.14	489.17
598.30	348.74
598.46	367.46
598.61	372.15
598.77	365.12
598.93	344.06
599.09	444.70
599.24	369.80
599.40	344.06
599.56	339.38
599.71	332.36
599.87	351.08
600.03	311.29
600.18	287.89
600.34	318.31
600.50	287.89
600.65	290.23
600.81	308.95
600.97	318.31
601.12	287.89
601.28	313.63
601.44	330.02
601.59	297.25
601.75	313.63
601.91	339.38
602.06	327.68
602.22	454.06
602.37	702.16
602.53	1394.96
602.69	2167.34
602.84	2284.36
603.00	1647.74
603.16	1226.44
603.31	891.74
603.47	734.93
603.62	388.53
603.78	264.48
603.94	299.59
604.09	313.63
604.25	332.36
604.40	337.04
604.56	292.57
604.71	327.68
604.87	257.46
605.03	320.65
605.18	327.68
605.34	315.97
605.49	278.52
605.65	381.51
605.80	348.74
605.96	374.49
606.12	376.83
606.27	341.72
606.43	351.08
606.58	423.64
606.74	755.99
606.89	2829.71
607.05	5509.62
607.20	6998.20
607.36	5984.75
607.51	3948.48
607.67	2605.02
607.82	1940.30
607.98	1153.88
608.13	702.16
608.29	528.96
608.44	479.81
608.60	442.36
608.75	550.03
608.91	1095.37
609.06	4194.24
609.22	9284.91
609.37	12390.80
609.53	10616.67
609.68	7304.81
609.84	4748.95
609.99	3258.03
