SpectraSuite Data File
++++++++++++++++++++++++++++++++++++
Date: Fri Oct 04 11:33:51 GMT-05:00 2013
User: price-jones
Dark Spectrum Present: No
Reference Spectrum Present: No
Number of Sampled Component Spectra: 1
Spectrometers: USB2+H05261
Integration Time (usec): 100000 (USB2+H05261)
Spectra Averaged: 1 (USB2+H05261)
Boxcar Smoothing: 0 (USB2+H05261)
Correct for Electrical Dark: No (USB2+H05261)
Strobe/Lamp Enabled: No (USB2+H05261)
Correct for Detector Non-linearity: No (USB2+H05261)
Correct for Stray Light: No (USB2+H05261)
Number of Pixels in Processed Spectrum: 2048
>>>>>Begin Processed Spectral Data<<<<<
365.73	51.49
365.92	51.49
366.12	51.49
366.32	0.00
366.52	11.70
366.72	28.09
366.91	0.00
367.11	30.43
367.31	21.06
367.51	0.00
367.70	0.00
367.90	0.00
368.10	4.68
368.30	0.00
368.49	0.00
368.69	21.06
368.89	0.00
369.09	0.00
369.28	0.00
369.48	0.00
369.68	28.09
369.87	0.00
370.07	28.09
370.27	126.39
370.47	102.98
370.66	58.51
370.86	56.17
371.06	23.41
371.25	53.83
371.45	93.62
371.65	166.18
371.84	95.96
372.04	81.92
372.24	107.66
372.44	72.56
372.63	117.03
372.83	196.60
373.03	74.90
373.22	49.15
373.42	140.43
373.62	107.66
373.81	102.98
374.01	142.77
374.21	194.26
374.40	119.37
374.60	262.14
374.79	187.24
374.99	46.81
375.19	140.43
375.38	145.11
375.58	133.41
375.78	166.18
375.97	154.48
376.17	217.67
376.37	170.86
376.56	159.16
376.76	95.96
376.95	152.13
377.15	126.39
377.35	124.05
377.54	145.11
377.74	168.52
377.93	145.11
378.13	227.03
378.33	236.39
378.52	100.64
378.72	203.63
378.91	128.73
379.11	208.31
379.31	140.43
379.50	152.13
379.70	259.80
379.89	187.24
380.09	145.11
380.28	149.79
380.48	138.09
380.68	131.07
380.87	91.28
381.07	110.01
381.26	182.56
381.46	198.95
381.65	243.42
381.85	60.85
382.04	138.09
382.24	156.82
382.43	140.43
382.63	170.86
382.83	163.84
383.02	168.52
383.22	107.66
383.41	126.39
383.61	177.88
383.80	173.20
384.00	231.71
384.19	100.64
384.39	56.17
384.58	86.60
384.78	126.39
384.97	166.18
385.17	140.43
385.36	177.88
385.56	166.18
385.75	168.52
385.95	140.43
386.14	79.58
386.34	133.41
386.53	91.28
386.72	149.79
386.92	163.84
387.11	149.79
387.31	182.56
387.50	138.09
387.70	149.79
387.89	114.69
388.09	128.73
388.28	131.07
388.48	65.54
388.67	102.98
388.86	154.48
389.06	149.79
389.25	180.22
389.45	147.45
389.64	117.03
389.84	159.16
390.03	121.71
390.22	102.98
390.42	121.71
390.61	63.19
390.81	142.77
391.00	212.99
391.19	180.22
391.39	201.29
391.58	210.65
391.78	102.98
391.97	135.75
392.16	170.86
392.36	196.60
392.55	201.29
392.75	154.48
392.94	128.73
393.13	166.18
393.33	128.73
393.52	161.50
393.71	138.09
393.91	182.56
394.10	110.01
394.29	180.22
394.49	147.45
394.68	234.05
394.88	95.96
395.07	229.37
395.26	180.22
395.46	100.64
395.65	250.44
395.84	184.90
396.04	138.09
396.23	217.67
396.42	156.82
396.62	163.84
396.81	156.82
397.00	88.94
397.19	119.37
397.39	128.73
397.58	163.84
397.77	128.73
397.97	102.98
398.16	126.39
398.35	201.29
398.55	152.13
398.74	119.37
398.93	159.16
399.12	142.77
399.32	166.18
399.51	147.45
399.70	128.73
399.90	177.88
400.09	102.98
400.28	175.54
400.47	133.41
400.67	133.41
400.86	124.05
401.05	198.95
401.24	152.13
401.44	166.18
401.63	135.75
401.82	203.63
402.01	128.73
402.21	121.71
402.40	161.50
402.59	205.97
402.78	147.45
402.97	170.86
403.17	133.41
403.36	140.43
403.55	128.73
403.74	198.95
403.93	198.95
404.13	255.12
404.32	189.58
404.51	255.12
404.70	217.67
404.89	224.69
405.09	187.24
405.28	187.24
405.47	184.90
405.66	170.86
405.85	145.11
406.05	88.94
406.24	215.33
406.43	212.99
406.62	212.99
406.81	131.07
407.00	147.45
407.20	198.95
407.39	110.01
407.58	201.29
407.77	217.67
407.96	145.11
408.15	180.22
408.34	145.11
408.54	121.71
408.73	147.45
408.92	168.52
409.11	259.80
409.30	250.44
409.49	159.16
409.68	126.39
409.87	145.11
410.07	114.69
410.26	208.31
410.45	161.50
410.64	84.26
410.83	182.56
411.02	105.32
411.21	140.43
411.40	203.63
411.59	173.20
411.78	145.11
411.98	107.66
412.17	138.09
412.36	163.84
412.55	163.84
412.74	203.63
412.93	245.76
413.12	119.37
413.31	154.48
413.50	140.43
413.69	212.99
413.88	212.99
414.07	163.84
414.26	156.82
414.45	234.05
414.64	170.86
414.83	166.18
415.02	135.75
415.22	227.03
415.41	180.22
415.60	114.69
415.79	159.16
415.98	271.50
416.17	198.95
416.36	161.50
416.55	133.41
416.74	203.63
416.93	196.60
417.12	175.54
417.31	191.92
417.50	163.84
417.69	170.86
417.88	227.03
418.07	196.60
418.26	145.11
418.45	194.26
418.64	217.67
418.83	248.10
419.02	173.20
419.21	191.92
419.39	138.09
419.58	229.37
419.77	229.37
419.96	168.52
420.15	102.98
420.34	110.01
420.53	98.30
420.72	117.03
420.91	147.45
421.10	196.60
421.29	257.46
421.48	140.43
421.67	177.88
421.86	110.01
422.05	177.88
422.24	187.24
422.43	154.48
422.61	152.13
422.80	241.08
422.99	135.75
423.18	173.20
423.37	131.07
423.56	210.65
423.75	217.67
423.94	156.82
424.13	138.09
424.32	156.82
424.50	149.79
424.69	196.60
424.88	201.29
425.07	173.20
425.26	236.39
425.45	241.08
425.64	285.55
425.83	266.82
426.01	250.44
426.20	215.33
426.39	177.88
426.58	187.24
426.77	154.48
426.96	191.92
427.15	217.67
427.33	191.92
427.52	161.50
427.71	128.73
427.90	184.90
428.09	189.58
428.28	114.69
428.46	182.56
428.65	198.95
428.84	215.33
429.03	238.73
429.22	229.37
429.40	88.94
429.59	184.90
429.78	175.54
429.97	198.95
430.16	156.82
430.34	194.26
430.53	128.73
430.72	145.11
430.91	198.95
431.10	107.66
431.28	147.45
431.47	212.99
431.66	156.82
431.85	182.56
432.03	145.11
432.22	210.65
432.41	184.90
432.60	273.84
432.79	212.99
432.97	250.44
433.16	290.23
433.35	243.42
433.54	250.44
433.72	187.24
433.91	212.99
434.10	182.56
434.28	194.26
434.47	194.26
434.66	198.95
434.85	170.86
435.03	215.33
435.22	358.10
435.41	308.95
435.59	393.21
435.78	287.89
435.97	262.14
436.16	234.05
436.34	152.13
436.53	152.13
436.72	159.16
436.90	220.01
437.09	152.13
437.28	182.56
437.46	220.01
437.65	212.99
437.84	133.41
438.02	187.24
438.21	208.31
438.40	88.94
438.58	138.09
438.77	222.35
438.96	126.39
439.14	241.08
439.33	131.07
439.52	135.75
439.70	224.69
439.89	173.20
440.08	257.46
440.26	212.99
440.45	208.31
440.63	259.80
440.82	205.97
441.01	210.65
441.19	194.26
441.38	114.69
441.57	208.31
441.75	180.22
441.94	220.01
442.12	241.08
442.31	142.77
442.50	175.54
442.68	133.41
442.87	217.67
443.05	170.86
443.24	166.18
443.43	201.29
443.61	177.88
443.80	156.82
443.98	191.92
444.17	184.90
444.35	278.52
444.54	201.29
444.73	175.54
444.91	182.56
445.10	152.13
445.28	205.97
445.47	180.22
445.65	194.26
445.84	184.90
446.02	161.50
446.21	203.63
446.39	131.07
446.58	107.66
446.77	205.97
446.95	217.67
447.14	203.63
447.32	166.18
447.51	201.29
447.69	159.16
447.88	180.22
448.06	257.46
448.25	203.63
448.43	191.92
448.62	259.80
448.80	313.63
448.99	220.01
449.17	191.92
449.36	182.56
449.54	177.88
449.73	217.67
449.91	248.10
450.10	229.37
450.28	255.12
450.46	257.46
450.65	224.69
450.83	229.37
451.02	133.41
451.20	117.03
451.39	208.31
451.57	170.86
451.76	210.65
451.94	220.01
452.13	234.05
452.31	234.05
452.49	227.03
452.68	173.20
452.86	184.90
453.05	299.59
453.23	140.43
453.42	210.65
453.60	198.95
453.78	152.13
453.97	147.45
454.15	128.73
454.34	161.50
454.52	147.45
454.70	203.63
454.89	266.82
455.07	161.50
455.26	152.13
455.44	208.31
455.62	149.79
455.81	166.18
455.99	159.16
456.17	234.05
456.36	227.03
456.54	173.20
456.73	294.91
456.91	163.84
457.09	187.24
457.28	210.65
457.46	189.58
457.64	255.12
457.83	182.56
458.01	154.48
458.19	198.95
458.38	196.60
458.56	227.03
458.74	224.69
458.93	140.43
459.11	145.11
459.29	234.05
459.48	201.29
459.66	236.39
459.84	208.31
460.03	196.60
460.21	189.58
460.39	159.16
460.57	196.60
460.76	166.18
460.94	227.03
461.12	224.69
461.31	236.39
461.49	173.20
461.67	196.60
461.85	227.03
462.04	280.86
462.22	645.99
462.40	222.35
462.59	198.95
462.77	175.54
462.95	156.82
463.13	231.71
463.32	212.99
463.50	147.45
463.68	236.39
463.86	149.79
464.05	222.35
464.23	220.01
464.41	126.39
464.59	196.60
464.78	266.82
464.96	170.86
465.14	241.08
465.32	248.10
465.50	166.18
465.69	212.99
465.87	203.63
466.05	250.44
466.23	220.01
466.41	140.43
466.60	177.88
466.78	177.88
466.96	224.69
467.14	217.67
467.32	215.33
467.51	119.37
467.69	205.97
467.87	234.05
468.05	198.95
468.23	250.44
468.41	245.76
468.60	133.41
468.78	173.20
468.96	210.65
469.14	259.80
469.32	161.50
469.50	114.69
469.69	184.90
469.87	217.67
470.05	236.39
470.23	184.90
470.41	175.54
470.59	220.01
470.77	189.58
470.95	238.73
471.14	212.99
471.32	173.20
471.50	320.65
471.68	238.73
471.86	152.13
472.04	156.82
472.22	205.97
472.40	215.33
472.58	152.13
472.77	163.84
472.95	217.67
473.13	163.84
473.31	191.92
473.49	217.67
473.67	145.11
473.85	142.77
474.03	182.56
474.21	212.99
474.39	220.01
474.57	290.23
474.75	201.29
474.93	285.55
475.12	156.82
475.30	201.29
475.48	145.11
475.66	201.29
475.84	170.86
476.02	222.35
476.20	208.31
476.38	215.33
476.56	238.73
476.74	175.54
476.92	264.48
477.10	194.26
477.28	238.73
477.46	177.88
477.64	187.24
477.82	168.52
478.00	170.86
478.18	217.67
478.36	210.65
478.54	191.92
478.72	198.95
478.90	243.42
479.08	161.50
479.26	189.58
479.44	133.41
479.62	198.95
479.80	227.03
479.98	180.22
480.16	250.44
480.34	177.88
480.52	217.67
480.70	224.69
480.88	156.82
481.06	212.99
481.24	234.05
481.41	163.84
481.59	252.78
481.77	201.29
481.95	311.29
482.13	243.42
482.31	238.73
482.49	173.20
482.67	194.26
482.85	266.82
483.03	227.03
483.21	238.73
483.39	227.03
483.57	250.44
483.74	234.05
483.92	245.76
484.10	264.48
484.28	220.01
484.46	322.99
484.64	245.76
484.82	259.80
485.00	257.46
485.18	222.35
485.35	189.58
485.53	175.54
485.71	229.37
485.89	271.50
486.07	166.18
486.25	224.69
486.43	290.23
486.61	304.27
486.78	311.29
486.96	245.76
487.14	161.50
487.32	161.50
487.50	208.31
487.68	262.14
487.85	308.95
488.03	257.46
488.21	320.65
488.39	248.10
488.57	339.38
488.75	252.78
488.92	531.30
489.10	224.69
489.28	344.06
489.46	234.05
489.64	234.05
489.81	208.31
489.99	126.39
490.17	259.80
490.35	306.61
490.53	250.44
490.70	271.50
490.88	252.78
491.06	278.52
491.24	273.84
491.41	276.18
491.59	250.44
491.77	255.12
491.95	180.22
492.13	220.01
492.30	285.55
492.48	191.92
492.66	266.82
492.84	252.78
493.01	301.93
493.19	257.46
493.37	210.65
493.54	252.78
493.72	196.60
493.90	208.31
494.08	290.23
494.25	311.29
494.43	276.18
494.61	264.48
494.79	278.52
494.96	229.37
495.14	205.97
495.32	276.18
495.49	266.82
495.67	273.84
495.85	227.03
496.02	203.63
496.20	318.31
496.38	255.12
496.55	332.36
496.73	330.02
496.91	238.73
497.09	198.95
497.26	325.33
497.44	266.82
497.62	259.80
497.79	210.65
497.97	217.67
498.14	196.60
498.32	224.69
498.50	257.46
498.67	304.27
498.85	248.10
499.03	229.37
499.20	294.91
499.38	262.14
499.56	252.78
499.73	294.91
499.91	264.48
500.08	318.31
500.26	243.42
500.44	262.14
500.61	191.92
500.79	154.48
500.97	243.42
501.14	243.42
501.32	278.52
501.49	311.29
501.67	285.55
501.84	290.23
502.02	212.99
502.20	273.84
502.37	227.03
502.55	334.70
502.72	273.84
502.90	255.12
503.07	283.20
503.25	332.36
503.43	266.82
503.60	269.16
503.78	243.42
503.95	208.31
504.13	220.01
504.30	245.76
504.48	264.48
504.65	348.74
504.83	362.78
505.01	224.69
505.18	236.39
505.36	222.35
505.53	236.39
505.71	273.84
505.88	245.76
506.06	255.12
506.23	241.08
506.41	238.73
506.58	229.37
506.76	217.67
506.93	241.08
507.11	238.73
507.28	264.48
507.46	266.82
507.63	262.14
507.81	194.26
507.98	231.71
508.16	276.18
508.33	236.39
508.50	191.92
508.68	313.63
508.85	241.08
509.03	264.48
509.20	308.95
509.38	252.78
509.55	236.39
509.73	273.84
509.90	255.12
510.08	245.76
510.25	292.57
510.42	290.23
510.60	212.99
510.77	212.99
510.95	259.80
511.12	308.95
511.30	367.46
511.47	341.72
511.64	325.33
511.82	198.95
511.99	266.82
512.17	248.10
512.34	245.76
512.51	163.84
512.69	175.54
512.86	360.44
513.04	278.52
513.21	292.57
513.38	224.69
513.56	217.67
513.73	236.39
513.90	210.65
514.08	210.65
514.25	222.35
514.43	320.65
514.60	273.84
514.77	252.78
514.95	262.14
515.12	269.16
515.29	304.27
515.47	227.03
515.64	264.48
515.81	255.12
515.99	325.33
516.16	311.29
516.33	264.48
516.51	299.59
516.68	191.92
516.85	229.37
517.03	222.35
517.20	220.01
517.37	276.18
517.54	259.80
517.72	241.08
517.89	212.99
518.06	194.26
518.24	283.20
518.41	334.70
518.58	299.59
518.75	212.99
518.93	313.63
519.10	245.76
519.27	320.65
519.45	299.59
519.62	236.39
519.79	322.99
519.96	283.20
520.14	245.76
520.31	280.86
520.48	238.73
520.65	248.10
520.83	311.29
521.00	320.65
521.17	325.33
521.34	271.50
521.52	224.69
521.69	264.48
521.86	271.50
522.03	245.76
522.20	250.44
522.38	224.69
522.55	276.18
522.72	276.18
522.89	201.29
523.07	271.50
523.24	229.37
523.41	257.46
523.58	290.23
523.75	290.23
523.92	248.10
524.10	276.18
524.27	212.99
524.44	234.05
524.61	252.78
524.78	224.69
524.96	266.82
525.13	297.25
525.30	341.72
525.47	299.59
525.64	262.14
525.81	238.73
525.98	243.42
526.16	231.71
526.33	189.58
526.50	205.97
526.67	208.31
526.84	182.56
527.01	255.12
527.18	264.48
527.36	252.78
527.53	266.82
527.70	243.42
527.87	280.86
528.04	259.80
528.21	184.90
528.38	259.80
528.55	294.91
528.72	245.76
528.89	318.31
529.07	191.92
529.24	222.35
529.41	297.25
529.58	187.24
529.75	212.99
529.92	301.93
530.09	266.82
530.26	367.46
530.43	339.38
530.60	262.14
530.77	236.39
530.94	287.89
531.11	341.72
531.28	245.76
531.46	255.12
531.63	276.18
531.80	243.42
531.97	283.20
532.14	351.08
532.31	304.27
532.48	304.27
532.65	341.72
532.82	365.12
532.99	381.51
533.16	365.12
533.33	285.55
533.50	297.25
533.67	416.62
533.84	451.72
534.01	430.66
534.18	435.34
534.35	320.65
534.52	304.27
534.69	404.91
534.86	252.78
535.03	243.42
535.20	306.61
535.37	283.20
535.54	250.44
535.71	287.89
535.88	332.36
536.05	308.95
536.22	290.23
536.38	360.44
536.55	297.25
536.72	346.40
536.89	264.48
537.06	191.92
537.23	304.27
537.40	257.46
537.57	208.31
537.74	287.89
537.91	299.59
538.08	337.04
538.25	358.10
538.42	224.69
538.59	322.99
538.75	334.70
538.92	285.55
539.09	365.12
539.26	355.76
539.43	561.73
539.60	1203.04
539.77	1961.37
539.94	1949.67
540.11	1242.82
540.28	847.27
540.44	648.33
540.61	486.83
540.78	491.51
540.95	512.58
541.12	519.60
541.29	454.06
541.46	531.30
541.62	440.02
541.79	550.03
541.96	447.04
542.13	484.49
542.30	505.56
542.47	437.68
542.63	395.55
542.80	458.74
542.97	493.85
543.14	514.92
543.31	407.25
543.48	451.72
543.64	477.47
543.81	433.00
543.98	442.36
544.15	397.89
544.32	484.49
544.48	507.90
544.65	386.19
544.82	402.57
544.99	447.04
545.16	440.02
545.32	477.47
545.49	592.16
545.66	793.44
545.83	758.33
546.00	702.16
546.16	514.92
546.33	524.28
546.50	472.79
546.67	423.64
546.83	454.06
547.00	369.80
547.17	381.51
547.34	344.06
547.50	341.72
547.67	383.85
547.84	374.49
548.00	367.46
548.17	358.10
548.34	381.51
548.51	421.30
548.67	292.57
548.84	332.36
549.01	304.27
549.18	388.53
549.34	344.06
549.51	320.65
549.68	435.34
549.84	346.40
550.01	351.08
550.18	440.02
550.34	411.93
550.51	362.78
550.68	365.12
550.84	315.97
551.01	325.33
551.18	327.68
551.34	271.50
551.51	224.69
551.68	285.55
551.84	322.99
552.01	327.68
552.18	346.40
552.34	285.55
552.51	306.61
552.68	358.10
552.84	320.65
553.01	271.50
553.18	325.33
553.34	245.76
553.51	236.39
553.67	259.80
553.84	411.93
554.01	315.97
554.17	257.46
554.34	184.90
554.51	306.61
554.67	348.74
554.84	318.31
555.00	299.59
555.17	227.03
555.33	306.61
555.50	262.14
555.67	196.60
555.83	252.78
556.00	276.18
556.16	437.68
556.33	320.65
556.50	259.80
556.66	241.08
556.83	283.20
556.99	280.86
557.16	238.73
557.32	297.25
557.49	259.80
557.65	257.46
557.82	257.46
557.98	308.95
558.15	255.12
558.32	278.52
558.48	168.52
558.65	217.67
558.81	259.80
558.98	220.01
559.14	210.65
559.31	259.80
559.47	320.65
559.64	278.52
559.80	318.31
559.97	231.71
560.13	245.76
560.30	245.76
560.46	231.71
560.63	201.29
560.79	262.14
560.96	250.44
561.12	259.80
561.29	299.59
561.45	327.68
561.61	248.10
561.78	334.70
561.94	304.27
562.11	264.48
562.27	318.31
562.44	299.59
562.60	257.46
562.77	318.31
562.93	290.23
563.10	231.71
563.26	301.93
563.42	278.52
563.59	278.52
563.75	250.44
563.92	290.23
564.08	259.80
564.24	252.78
564.41	285.55
564.57	250.44
564.74	252.78
564.90	304.27
565.07	360.44
565.23	346.40
565.39	297.25
565.56	383.85
565.72	220.01
565.88	365.12
566.05	208.31
566.21	294.91
566.38	287.89
566.54	241.08
566.70	294.91
566.87	271.50
567.03	278.52
567.19	262.14
567.36	273.84
567.52	283.20
567.68	245.76
567.85	250.44
568.01	234.05
568.17	262.14
568.34	290.23
568.50	280.86
568.66	269.16
568.83	308.95
568.99	229.37
569.15	339.38
569.32	217.67
569.48	212.99
569.64	208.31
569.81	222.35
569.97	198.95
570.13	294.91
570.30	231.71
570.46	269.16
570.62	217.67
570.78	259.80
570.95	215.33
571.11	234.05
571.27	348.74
571.43	285.55
571.60	255.12
571.76	262.14
571.92	283.20
572.09	264.48
572.25	276.18
572.41	220.01
572.57	308.95
572.74	290.23
572.90	297.25
573.06	257.46
573.22	292.57
573.38	390.87
573.55	318.31
573.71	334.70
573.87	241.08
574.03	231.71
574.20	327.68
574.36	285.55
574.52	311.29
574.68	395.55
574.84	362.78
575.01	339.38
575.17	341.72
575.33	280.86
575.49	285.55
575.65	388.53
575.82	477.47
575.98	660.03
576.14	763.01
576.30	880.04
576.46	746.63
576.62	592.16
576.79	526.62
576.95	468.11
577.11	376.83
577.27	374.49
577.43	292.57
577.59	428.32
577.75	278.52
577.92	320.65
578.08	280.86
578.24	283.20
578.40	512.58
578.56	407.25
578.72	458.74
578.88	402.57
579.04	348.74
579.21	379.17
579.37	337.04
579.53	283.20
579.69	437.68
579.85	397.89
580.01	346.40
580.17	458.74
580.33	465.77
580.49	433.00
580.65	362.78
580.82	472.79
580.98	414.27
581.14	402.57
581.30	428.32
581.46	526.62
581.62	638.97
581.78	826.21
581.94	723.23
582.10	580.45
582.26	557.05
582.42	521.94
582.58	521.94
582.74	566.41
582.90	622.58
583.06	528.96
583.22	587.47
583.38	627.26
583.54	641.31
583.70	748.97
583.86	812.17
584.02	980.68
584.18	1057.92
584.34	1413.68
584.50	3503.78
584.66	25085.86
584.82	60149.43
584.98	65535.00
585.14	65535.00
585.30	60568.38
585.46	36751.09
585.62	22696.17
585.78	10441.13
585.94	4198.92
586.10	2036.27
586.26	1320.06
586.42	1029.84
586.58	851.96
586.74	732.59
586.90	730.25
587.06	737.27
587.22	746.63
587.38	704.50
587.54	1324.74
587.70	3794.01
587.86	6736.06
588.02	7749.51
588.18	5589.20
588.34	3569.32
588.49	2333.51
588.65	1455.81
588.81	866.00
588.97	503.22
589.13	498.53
589.29	461.09
589.45	351.08
589.61	411.93
589.77	496.19
589.93	540.66
590.08	660.03
590.24	543.00
590.40	547.69
590.56	550.03
590.72	386.19
590.88	433.00
591.04	493.85
591.20	423.64
591.35	454.06
591.51	418.96
591.67	404.91
591.83	433.00
591.99	440.02
592.15	318.31
592.31	358.10
592.46	435.34
592.62	379.17
592.78	367.46
592.94	381.51
593.10	360.44
593.26	456.40
593.41	524.28
593.57	442.36
593.73	535.98
593.89	2911.63
594.05	8198.90
594.20	13397.23
594.36	12908.05
594.52	8535.93
594.68	5348.12
594.84	3545.91
594.99	1930.94
595.15	882.38
595.31	578.11
595.47	503.22
595.62	395.55
595.78	440.02
595.94	306.61
596.10	491.51
596.25	465.77
596.41	437.68
596.57	351.08
596.73	411.93
596.88	627.26
597.04	1497.94
597.20	2691.62
597.36	3372.71
597.51	2530.12
597.67	1722.63
597.83	1200.69
597.99	898.77
598.14	580.45
598.30	463.43
598.46	440.02
598.61	491.51
598.77	442.36
598.93	388.53
599.09	423.64
599.24	360.44
599.40	358.10
599.56	297.25
599.71	245.76
599.87	299.59
600.03	285.55
600.18	320.65
600.34	315.97
600.50	315.97
600.65	283.20
600.81	280.86
600.97	297.25
601.12	327.68
601.28	395.55
601.44	283.20
601.59	271.50
601.75	313.63
601.91	344.06
602.06	255.12
602.22	440.02
602.37	802.80
602.53	2038.61
602.69	3117.59
602.84	3403.14
603.00	2487.99
603.16	1746.04
603.31	1231.12
603.47	854.30
603.62	430.66
603.78	358.10
603.94	322.99
604.09	318.31
604.25	365.12
604.40	297.25
604.56	372.15
604.71	318.31
604.87	322.99
605.03	283.20
605.18	351.08
605.34	341.72
605.49	351.08
605.65	379.17
605.80	318.31
605.96	351.08
606.12	339.38
606.27	379.17
606.43	458.74
606.58	433.00
606.74	819.19
606.89	3644.21
607.05	7784.62
607.20	11290.74
607.36	9404.27
607.51	6518.39
607.67	4105.30
607.82	2904.60
607.98	1509.65
608.13	858.98
608.29	592.16
608.44	491.51
608.60	568.75
608.75	641.31
608.91	1345.81
609.06	5451.11
609.22	13870.01
609.37	20126.27
609.53	18139.15
609.68	11566.93
609.84	7456.95
609.99	5139.82
