SpectraSuite Data File
++++++++++++++++++++++++++++++++++++
Date: Fri Oct 04 11:34:02 GMT-05:00 2013
User: price-jones
Dark Spectrum Present: No
Reference Spectrum Present: No
Number of Sampled Component Spectra: 1
Spectrometers: USB2+H05261
Integration Time (usec): 100000 (USB2+H05261)
Spectra Averaged: 1 (USB2+H05261)
Boxcar Smoothing: 0 (USB2+H05261)
Correct for Electrical Dark: No (USB2+H05261)
Strobe/Lamp Enabled: No (USB2+H05261)
Correct for Detector Non-linearity: No (USB2+H05261)
Correct for Stray Light: No (USB2+H05261)
Number of Pixels in Processed Spectrum: 2048
>>>>>Begin Processed Spectral Data<<<<<
365.73	67.88
365.92	67.88
366.12	67.88
366.32	0.00
366.52	0.00
366.72	11.70
366.91	35.11
367.11	0.00
367.31	7.02
367.51	0.00
367.70	0.00
367.90	0.00
368.10	0.00
368.30	37.45
368.49	0.00
368.69	18.72
368.89	4.68
369.09	0.00
369.28	28.09
369.48	0.00
369.68	25.75
369.87	21.06
370.07	46.81
370.27	86.60
370.47	60.85
370.66	88.94
370.86	77.24
371.06	100.64
371.25	107.66
371.45	128.73
371.65	65.54
371.84	124.05
372.04	133.41
372.24	154.48
372.44	147.45
372.63	121.71
372.83	191.92
373.03	121.71
373.22	145.11
373.42	198.95
373.62	156.82
373.81	161.50
374.01	138.09
374.21	194.26
374.40	126.39
374.60	222.35
374.79	163.84
374.99	88.94
375.19	152.13
375.38	184.90
375.58	203.63
375.78	161.50
375.97	163.84
376.17	187.24
376.37	189.58
376.56	156.82
376.76	161.50
376.95	86.60
377.15	149.79
377.35	46.81
377.54	156.82
377.74	191.92
377.93	189.58
378.13	161.50
378.33	187.24
378.52	102.98
378.72	177.88
378.91	147.45
379.11	138.09
379.31	166.18
379.50	100.64
379.70	149.79
379.89	191.92
380.09	133.41
380.28	117.03
380.48	166.18
380.68	88.94
380.87	124.05
381.07	159.16
381.26	173.20
381.46	65.54
381.65	187.24
381.85	91.28
382.04	173.20
382.24	98.30
382.43	170.86
382.63	124.05
382.83	189.58
383.02	149.79
383.22	163.84
383.41	147.45
383.61	117.03
383.80	177.88
384.00	112.35
384.19	154.48
384.39	98.30
384.58	93.62
384.78	107.66
384.97	135.75
385.17	194.26
385.36	173.20
385.56	161.50
385.75	121.71
385.95	131.07
386.14	187.24
386.34	16.38
386.53	152.13
386.72	147.45
386.92	154.48
387.11	175.54
387.31	142.77
387.50	128.73
387.70	107.66
387.89	184.90
388.09	91.28
388.28	142.77
388.48	154.48
388.67	133.41
388.86	88.94
389.06	140.43
389.25	182.56
389.45	194.26
389.64	205.97
389.84	117.03
390.03	191.92
390.22	250.44
390.42	149.79
390.61	107.66
390.81	60.85
391.00	72.56
391.19	133.41
391.39	88.94
391.58	145.11
391.78	100.64
391.97	133.41
392.16	161.50
392.36	203.63
392.55	117.03
392.75	95.96
392.94	91.28
393.13	145.11
393.33	117.03
393.52	114.69
393.71	212.99
393.91	215.33
394.10	184.90
394.29	93.62
394.49	147.45
394.68	217.67
394.88	142.77
395.07	236.39
395.26	191.92
395.46	138.09
395.65	128.73
395.84	205.97
396.04	292.57
396.23	117.03
396.42	126.39
396.62	159.16
396.81	105.32
397.00	135.75
397.19	102.98
397.39	177.88
397.58	182.56
397.77	152.13
397.97	138.09
398.16	124.05
398.35	189.58
398.55	163.84
398.74	205.97
398.93	117.03
399.12	117.03
399.32	191.92
399.51	184.90
399.70	110.01
399.90	149.79
400.09	128.73
400.28	205.97
400.47	161.50
400.67	156.82
400.86	133.41
401.05	234.05
401.24	182.56
401.44	208.31
401.63	77.24
401.82	161.50
402.01	128.73
402.21	124.05
402.40	187.24
402.59	189.58
402.78	175.54
402.97	149.79
403.17	210.65
403.36	187.24
403.55	189.58
403.74	201.29
403.93	180.22
404.13	180.22
404.32	196.60
404.51	124.05
404.70	187.24
404.89	180.22
405.09	215.33
405.28	142.77
405.47	154.48
405.66	117.03
405.85	241.08
406.05	107.66
406.24	208.31
406.43	227.03
406.62	205.97
406.81	255.12
407.00	201.29
407.20	163.84
407.39	231.71
407.58	121.71
407.77	184.90
407.96	154.48
408.15	156.82
408.34	131.07
408.54	182.56
408.73	114.69
408.92	119.37
409.11	227.03
409.30	217.67
409.49	140.43
409.68	147.45
409.87	201.29
410.07	161.50
410.26	149.79
410.45	140.43
410.64	126.39
410.83	168.52
411.02	182.56
411.21	177.88
411.40	119.37
411.59	234.05
411.78	133.41
411.98	102.98
412.17	217.67
412.36	147.45
412.55	173.20
412.74	128.73
412.93	236.39
413.12	81.92
413.31	140.43
413.50	201.29
413.69	166.18
413.88	201.29
414.07	182.56
414.26	187.24
414.45	114.69
414.64	215.33
414.83	154.48
415.02	180.22
415.22	231.71
415.41	278.52
415.60	248.10
415.79	187.24
415.98	245.76
416.17	177.88
416.36	93.62
416.55	177.88
416.74	156.82
416.93	187.24
417.12	161.50
417.31	124.05
417.50	149.79
417.69	229.37
417.88	229.37
418.07	196.60
418.26	194.26
418.45	222.35
418.64	224.69
418.83	224.69
419.02	229.37
419.21	264.48
419.39	278.52
419.58	227.03
419.77	227.03
419.96	252.78
420.15	280.86
420.34	131.07
420.53	222.35
420.72	175.54
420.91	121.71
421.10	187.24
421.29	243.42
421.48	184.90
421.67	126.39
421.86	189.58
422.05	222.35
422.24	135.75
422.43	203.63
422.61	147.45
422.80	196.60
422.99	220.01
423.18	138.09
423.37	189.58
423.56	170.86
423.75	255.12
423.94	180.22
424.13	142.77
424.32	110.01
424.50	166.18
424.69	128.73
424.88	182.56
425.07	168.52
425.26	156.82
425.45	320.65
425.64	245.76
425.83	280.86
426.01	250.44
426.20	170.86
426.39	133.41
426.58	128.73
426.77	173.20
426.96	210.65
427.15	191.92
427.33	203.63
427.52	156.82
427.71	201.29
427.90	229.37
428.09	173.20
428.28	166.18
428.46	168.52
428.65	201.29
428.84	177.88
429.03	163.84
429.22	166.18
429.40	159.16
429.59	208.31
429.78	196.60
429.97	208.31
430.16	163.84
430.34	147.45
430.53	182.56
430.72	182.56
430.91	220.01
431.10	154.48
431.28	187.24
431.47	182.56
431.66	124.05
431.85	126.39
432.03	133.41
432.22	184.90
432.41	227.03
432.60	241.08
432.79	222.35
432.97	250.44
433.16	292.57
433.35	266.82
433.54	191.92
433.72	222.35
433.91	224.69
434.10	196.60
434.28	152.13
434.47	257.46
434.66	227.03
434.85	224.69
435.03	177.88
435.22	358.10
435.41	397.89
435.59	477.47
435.78	397.89
435.97	318.31
436.16	231.71
436.34	229.37
436.53	166.18
436.72	194.26
436.90	205.97
437.09	222.35
437.28	124.05
437.46	173.20
437.65	135.75
437.84	170.86
438.02	88.94
438.21	184.90
438.40	250.44
438.58	159.16
438.77	194.26
438.96	187.24
439.14	112.35
439.33	189.58
439.52	170.86
439.70	184.90
439.89	210.65
440.08	245.76
440.26	170.86
440.45	145.11
440.63	220.01
440.82	159.16
441.01	170.86
441.19	187.24
441.38	212.99
441.57	175.54
441.75	166.18
441.94	212.99
442.12	262.14
442.31	212.99
442.50	201.29
442.68	243.42
442.87	177.88
443.05	91.28
443.24	203.63
443.43	245.76
443.61	208.31
443.80	93.62
443.98	135.75
444.17	215.33
444.35	224.69
444.54	198.95
444.73	131.07
444.91	264.48
445.10	161.50
445.28	133.41
445.47	203.63
445.65	180.22
445.84	205.97
446.02	135.75
446.21	166.18
446.39	187.24
446.58	149.79
446.77	184.90
446.95	187.24
447.14	241.08
447.32	243.42
447.51	177.88
447.69	88.94
447.88	222.35
448.06	203.63
448.25	170.86
448.43	131.07
448.62	175.54
448.80	224.69
448.99	215.33
449.17	217.67
449.36	147.45
449.54	238.73
449.73	149.79
449.91	220.01
450.10	194.26
450.28	241.08
450.46	245.76
450.65	227.03
450.83	252.78
451.02	212.99
451.20	196.60
451.39	210.65
451.57	98.30
451.76	184.90
451.94	220.01
452.13	184.90
452.31	222.35
452.49	128.73
452.68	180.22
452.86	201.29
453.05	255.12
453.23	149.79
453.42	161.50
453.60	187.24
453.78	140.43
453.97	152.13
454.15	154.48
454.34	187.24
454.52	184.90
454.70	217.67
454.89	152.13
455.07	154.48
455.26	196.60
455.44	184.90
455.62	220.01
455.81	177.88
455.99	191.92
456.17	131.07
456.36	163.84
456.54	191.92
456.73	177.88
456.91	126.39
457.09	189.58
457.28	194.26
457.46	191.92
457.64	205.97
457.83	133.41
458.01	107.66
458.19	117.03
458.38	259.80
458.56	98.30
458.74	198.95
458.93	222.35
459.11	205.97
459.29	212.99
459.48	198.95
459.66	234.05
459.84	231.71
460.03	217.67
460.21	222.35
460.39	250.44
460.57	227.03
460.76	212.99
460.94	182.56
461.12	241.08
461.31	194.26
461.49	159.16
461.67	201.29
461.85	161.50
462.04	205.97
462.22	608.54
462.40	220.01
462.59	301.93
462.77	131.07
462.95	196.60
463.13	175.54
463.32	170.86
463.50	168.52
463.68	259.80
463.86	154.48
464.05	180.22
464.23	238.73
464.41	145.11
464.59	166.18
464.78	161.50
464.96	205.97
465.14	224.69
465.32	145.11
465.50	173.20
465.69	159.16
465.87	145.11
466.05	159.16
466.23	224.69
466.41	205.97
466.60	229.37
466.78	152.13
466.96	191.92
467.14	196.60
467.32	196.60
467.51	208.31
467.69	147.45
467.87	194.26
468.05	180.22
468.23	292.57
468.41	208.31
468.60	154.48
468.78	156.82
468.96	196.60
469.14	208.31
469.32	177.88
469.50	255.12
469.69	271.50
469.87	175.54
470.05	250.44
470.23	191.92
470.41	145.11
470.59	205.97
470.77	271.50
470.95	198.95
471.14	229.37
471.32	201.29
471.50	220.01
471.68	124.05
471.86	248.10
472.04	168.52
472.22	194.26
472.40	212.99
472.58	98.30
472.77	203.63
472.95	194.26
473.13	198.95
473.31	287.89
473.49	203.63
473.67	217.67
473.85	220.01
474.03	229.37
474.21	149.79
474.39	142.77
474.57	243.42
474.75	229.37
474.93	147.45
475.12	156.82
475.30	180.22
475.48	173.20
475.66	231.71
475.84	215.33
476.02	194.26
476.20	217.67
476.38	231.71
476.56	224.69
476.74	252.78
476.92	196.60
477.10	166.18
477.28	191.92
477.46	187.24
477.64	241.08
477.82	182.56
478.00	224.69
478.18	201.29
478.36	194.26
478.54	168.52
478.72	159.16
478.90	269.16
479.08	191.92
479.26	156.82
479.44	180.22
479.62	189.58
479.80	231.71
479.98	224.69
480.16	194.26
480.34	154.48
480.52	133.41
480.70	180.22
480.88	173.20
481.06	191.92
481.24	255.12
481.41	271.50
481.59	245.76
481.77	208.31
481.95	241.08
482.13	252.78
482.31	273.84
482.49	234.05
482.67	276.18
482.85	294.91
483.03	168.52
483.21	280.86
483.39	266.82
483.57	278.52
483.74	224.69
483.92	262.14
484.10	224.69
484.28	327.68
484.46	276.18
484.64	203.63
484.82	234.05
485.00	224.69
485.18	255.12
485.35	273.84
485.53	262.14
485.71	212.99
485.89	257.46
486.07	236.39
486.25	339.38
486.43	220.01
486.61	227.03
486.78	224.69
486.96	273.84
487.14	315.97
487.32	313.63
487.50	227.03
487.68	269.16
487.85	243.42
488.03	215.33
488.21	318.31
488.39	290.23
488.57	215.33
488.75	217.67
488.92	514.92
489.10	252.78
489.28	280.86
489.46	283.20
489.64	236.39
489.81	320.65
489.99	252.78
490.17	250.44
490.35	320.65
490.53	278.52
490.70	283.20
490.88	273.84
491.06	215.33
491.24	201.29
491.41	337.04
491.59	262.14
491.77	159.16
491.95	248.10
492.13	180.22
492.30	243.42
492.48	238.73
492.66	285.55
492.84	278.52
493.01	222.35
493.19	280.86
493.37	332.36
493.54	266.82
493.72	290.23
493.90	255.12
494.08	250.44
494.25	299.59
494.43	163.84
494.61	292.57
494.79	175.54
494.96	276.18
495.14	283.20
495.32	248.10
495.49	301.93
495.67	245.76
495.85	273.84
496.02	266.82
496.20	311.29
496.38	301.93
496.55	234.05
496.73	227.03
496.91	280.86
497.09	252.78
497.26	276.18
497.44	234.05
497.62	229.37
497.79	280.86
497.97	229.37
498.14	283.20
498.32	271.50
498.50	224.69
498.67	259.80
498.85	245.76
499.03	257.46
499.20	168.52
499.38	194.26
499.56	229.37
499.73	273.84
499.91	315.97
500.08	264.48
500.26	238.73
500.44	231.71
500.61	201.29
500.79	264.48
500.97	264.48
501.14	304.27
501.32	208.31
501.49	215.33
501.67	280.86
501.84	217.67
502.02	180.22
502.20	273.84
502.37	299.59
502.55	191.92
502.72	234.05
502.90	285.55
503.07	212.99
503.25	315.97
503.43	231.71
503.60	283.20
503.78	264.48
503.95	238.73
504.13	262.14
504.30	259.80
504.48	311.29
504.65	264.48
504.83	234.05
505.01	327.68
505.18	280.86
505.36	283.20
505.53	182.56
505.71	217.67
505.88	287.89
506.06	166.18
506.23	285.55
506.41	292.57
506.58	210.65
506.76	327.68
506.93	327.68
507.11	271.50
507.28	217.67
507.46	245.76
507.63	297.25
507.81	283.20
507.98	315.97
508.16	299.59
508.33	231.71
508.50	313.63
508.68	269.16
508.85	334.70
509.03	262.14
509.20	255.12
509.38	287.89
509.55	231.71
509.73	266.82
509.90	259.80
510.08	203.63
510.25	243.42
510.42	201.29
510.60	201.29
510.77	276.18
510.95	337.04
511.12	313.63
511.30	292.57
511.47	351.08
511.64	266.82
511.82	306.61
511.99	248.10
512.17	252.78
512.34	231.71
512.51	283.20
512.69	231.71
512.86	322.99
513.04	278.52
513.21	205.97
513.38	276.18
513.56	283.20
513.73	215.33
513.90	208.31
514.08	147.45
514.25	341.72
514.43	315.97
514.60	245.76
514.77	278.52
514.95	334.70
515.12	259.80
515.29	236.39
515.47	290.23
515.64	163.84
515.81	212.99
515.99	241.08
516.16	224.69
516.33	276.18
516.51	243.42
516.68	208.31
516.85	191.92
517.03	217.67
517.20	220.01
517.37	278.52
517.54	255.12
517.72	224.69
517.89	243.42
518.06	234.05
518.24	229.37
518.41	271.50
518.58	297.25
518.75	250.44
518.93	311.29
519.10	306.61
519.27	304.27
519.45	259.80
519.62	250.44
519.79	308.95
519.96	231.71
520.14	283.20
520.31	358.10
520.48	325.33
520.65	332.36
520.83	290.23
521.00	285.55
521.17	301.93
521.34	283.20
521.52	280.86
521.69	285.55
521.86	285.55
522.03	266.82
522.20	325.33
522.38	234.05
522.55	348.74
522.72	283.20
522.89	215.33
523.07	304.27
523.24	348.74
523.41	222.35
523.58	250.44
523.75	299.59
523.92	280.86
524.10	283.20
524.27	252.78
524.44	245.76
524.61	222.35
524.78	257.46
524.96	297.25
525.13	308.95
525.30	313.63
525.47	227.03
525.64	315.97
525.81	311.29
525.98	229.37
526.16	208.31
526.33	243.42
526.50	259.80
526.67	229.37
526.84	131.07
527.01	252.78
527.18	297.25
527.36	255.12
527.53	227.03
527.70	250.44
527.87	259.80
528.04	334.70
528.21	285.55
528.38	330.02
528.55	358.10
528.72	248.10
528.89	344.06
529.07	320.65
529.24	287.89
529.41	318.31
529.58	231.71
529.75	180.22
529.92	346.40
530.09	327.68
530.26	330.02
530.43	337.04
530.60	252.78
530.77	285.55
530.94	287.89
531.11	308.95
531.28	243.42
531.46	301.93
531.63	315.97
531.80	301.93
531.97	292.57
532.14	276.18
532.31	252.78
532.48	337.04
532.65	365.12
532.82	442.36
532.99	451.72
533.16	386.19
533.33	360.44
533.50	337.04
533.67	362.78
533.84	486.83
534.01	390.87
534.18	444.70
534.35	355.76
534.52	320.65
534.69	341.72
534.86	283.20
535.03	222.35
535.20	252.78
535.37	308.95
535.54	287.89
535.71	315.97
535.88	360.44
536.05	292.57
536.22	369.80
536.38	313.63
536.55	351.08
536.72	346.40
536.89	262.14
537.06	283.20
537.23	259.80
537.40	322.99
537.57	330.02
537.74	313.63
537.91	348.74
538.08	313.63
538.25	330.02
538.42	320.65
538.59	280.86
538.75	327.68
538.92	241.08
539.09	346.40
539.26	360.44
539.43	601.52
539.60	1114.10
539.77	1724.97
539.94	1790.51
540.11	1317.72
540.28	978.34
540.44	727.91
540.61	442.36
540.78	435.34
540.95	470.45
541.12	545.34
541.29	575.77
541.46	660.03
541.62	660.03
541.79	624.92
541.96	552.37
542.13	428.32
542.30	543.00
542.47	545.34
542.63	617.90
542.80	533.64
542.97	575.77
543.14	507.90
543.31	463.43
543.48	477.47
543.64	566.41
543.81	465.77
543.98	517.26
544.15	519.60
544.32	545.34
544.48	454.06
544.65	517.26
544.82	498.53
544.99	482.15
545.16	587.47
545.32	496.19
545.49	706.84
545.66	1006.43
545.83	1018.13
546.00	964.30
546.16	716.20
546.33	667.05
546.50	507.90
546.67	482.15
546.83	458.74
547.00	493.85
547.17	400.23
547.34	430.66
547.50	409.59
547.67	475.13
547.84	365.12
548.00	454.06
548.17	355.76
548.34	390.87
548.51	461.09
548.67	402.57
548.84	381.51
549.01	411.93
549.18	395.55
549.34	416.62
549.51	402.57
549.68	332.36
549.84	285.55
550.01	433.00
550.18	449.38
550.34	456.40
550.51	407.25
550.68	381.51
550.84	376.83
551.01	386.19
551.18	388.53
551.34	248.10
551.51	348.74
551.68	358.10
551.84	372.15
552.01	369.80
552.18	271.50
552.34	280.86
552.51	306.61
552.68	355.76
552.84	308.95
553.01	330.02
553.18	369.80
553.34	248.10
553.51	264.48
553.67	290.23
553.84	322.99
554.01	304.27
554.17	215.33
554.34	231.71
554.51	320.65
554.67	346.40
554.84	280.86
555.00	264.48
555.17	276.18
555.33	327.68
555.50	255.12
555.67	283.20
555.83	308.95
556.00	283.20
556.16	510.24
556.33	259.80
556.50	278.52
556.66	362.78
556.83	248.10
556.99	327.68
557.16	294.91
557.32	290.23
557.49	320.65
557.65	250.44
557.82	250.44
557.98	320.65
558.15	259.80
558.32	189.58
558.48	271.50
558.65	280.86
558.81	308.95
558.98	290.23
559.14	301.93
559.31	280.86
559.47	273.84
559.64	301.93
559.80	245.76
559.97	238.73
560.13	266.82
560.30	163.84
560.46	205.97
560.63	224.69
560.79	271.50
560.96	292.57
561.12	273.84
561.29	287.89
561.45	257.46
561.61	285.55
561.78	271.50
561.94	252.78
562.11	191.92
562.27	220.01
562.44	222.35
562.60	308.95
562.77	229.37
562.93	306.61
563.10	290.23
563.26	322.99
563.42	294.91
563.59	234.05
563.75	320.65
563.92	236.39
564.08	322.99
564.24	301.93
564.41	351.08
564.57	294.91
564.74	264.48
564.90	351.08
565.07	257.46
565.23	320.65
565.39	301.93
565.56	322.99
565.72	248.10
565.88	280.86
566.05	280.86
566.21	322.99
566.38	266.82
566.54	210.65
566.70	269.16
566.87	196.60
567.03	276.18
567.19	252.78
567.36	259.80
567.52	264.48
567.68	351.08
567.85	299.59
568.01	243.42
568.17	259.80
568.34	290.23
568.50	315.97
568.66	294.91
568.83	330.02
568.99	308.95
569.15	271.50
569.32	292.57
569.48	280.86
569.64	224.69
569.81	252.78
569.97	191.92
570.13	234.05
570.30	269.16
570.46	287.89
570.62	374.49
570.78	259.80
570.95	276.18
571.11	266.82
571.27	285.55
571.43	154.48
571.60	292.57
571.76	259.80
571.92	287.89
572.09	262.14
572.25	224.69
572.41	301.93
572.57	278.52
572.74	372.15
572.90	292.57
573.06	301.93
573.22	201.29
573.38	330.02
573.55	360.44
573.71	325.33
573.87	222.35
574.03	278.52
574.20	325.33
574.36	325.33
574.52	308.95
574.68	383.85
574.84	362.78
575.01	386.19
575.17	330.02
575.33	236.39
575.49	262.14
575.65	212.99
575.82	322.99
575.98	610.88
576.14	765.36
576.30	910.47
576.46	786.42
576.62	660.03
576.79	566.41
576.95	503.22
577.11	313.63
577.27	271.50
577.43	243.42
577.59	376.83
577.75	372.15
577.92	299.59
578.08	322.99
578.24	374.49
578.40	390.87
578.56	421.30
578.72	531.30
578.88	451.72
579.04	386.19
579.21	346.40
579.37	348.74
579.53	365.12
579.69	397.89
579.85	386.19
580.01	540.66
580.17	472.79
580.33	454.06
580.49	428.32
580.65	444.70
580.82	407.25
580.98	360.44
581.14	346.40
581.30	468.11
581.46	531.30
581.62	650.67
581.78	779.40
581.94	725.57
582.10	531.30
582.26	505.56
582.42	458.74
582.58	533.64
582.74	519.60
582.90	580.45
583.06	610.88
583.22	559.39
583.38	564.07
583.54	575.77
583.70	751.31
583.86	741.95
584.02	936.21
584.18	1004.09
584.34	1336.45
584.50	3066.10
584.66	22647.02
584.82	57022.47
584.98	65535.00
585.14	64973.27
585.30	52313.31
585.46	32388.33
585.62	20032.65
585.78	9352.78
585.94	3714.43
586.10	1832.64
586.26	1114.10
586.42	933.87
586.58	819.19
586.74	767.70
586.90	755.99
587.06	683.44
587.22	683.44
587.38	744.29
587.54	1254.53
587.70	3592.72
587.86	6282.00
588.02	7108.21
588.18	5039.17
588.34	3206.53
588.49	2064.35
588.65	1341.13
588.81	760.67
588.97	493.85
589.13	428.32
589.29	362.78
589.45	386.19
589.61	449.38
589.77	444.70
589.93	531.30
590.08	524.28
590.24	475.13
590.40	554.71
590.56	447.04
590.72	454.06
590.88	449.38
591.04	414.27
591.20	393.21
591.35	414.27
591.51	411.93
591.67	355.76
591.83	414.27
591.99	383.85
592.15	468.11
592.31	360.44
592.46	280.86
592.62	404.91
592.78	411.93
592.94	463.43
593.10	402.57
593.26	379.17
593.41	482.15
593.57	430.66
593.73	676.41
593.89	2892.90
594.05	7779.94
594.20	12070.14
594.36	11421.81
594.52	7641.85
594.68	4889.38
594.84	3267.39
594.99	1767.10
595.15	858.98
595.31	601.52
595.47	447.04
595.62	362.78
595.78	374.49
595.94	409.59
596.10	428.32
596.25	430.66
596.41	428.32
596.57	346.40
596.73	421.30
596.88	622.58
597.04	1432.41
597.20	2382.67
597.36	3007.59
597.51	2349.90
597.67	1558.80
597.83	1114.10
597.99	891.74
598.14	543.00
598.30	444.70
598.46	372.15
598.61	447.04
598.77	383.85
598.93	318.31
599.09	411.93
599.24	379.17
599.40	404.91
599.56	315.97
599.71	341.72
599.87	400.23
600.03	269.16
600.18	304.27
600.34	344.06
600.50	315.97
600.65	203.63
600.81	313.63
600.97	290.23
601.12	229.37
601.28	248.10
601.44	369.80
601.59	285.55
601.75	320.65
601.91	367.46
602.06	362.78
602.22	402.57
602.37	751.31
602.53	1820.94
602.69	2878.86
602.84	3066.10
603.00	2293.72
603.16	1584.54
603.31	1104.73
603.47	755.99
603.62	489.17
603.78	411.93
603.94	376.83
604.09	358.10
604.25	339.38
604.40	311.29
604.56	348.74
604.71	344.06
604.87	334.70
605.03	313.63
605.18	304.27
605.34	355.76
605.49	292.57
605.65	369.80
605.80	266.82
605.96	388.53
606.12	383.85
606.27	402.57
606.43	456.40
606.58	477.47
606.74	821.53
606.89	3463.99
607.05	7297.79
607.20	10331.12
607.36	8629.56
607.51	5860.70
607.67	3815.07
607.82	2581.61
607.98	1385.60
608.13	805.14
608.29	615.56
608.44	573.43
608.60	507.90
608.75	568.75
608.91	1282.61
609.06	5291.95
609.22	12641.23
609.37	17628.92
609.53	15712.02
609.68	10469.22
609.84	6850.75
609.99	4840.23
