SpectraSuite Data File
++++++++++++++++++++++++++++++++++++
Date: Fri Oct 04 11:33:45 GMT-05:00 2013
User: price-jones
Dark Spectrum Present: No
Reference Spectrum Present: No
Number of Sampled Component Spectra: 1
Spectrometers: USB2+H05261
Integration Time (usec): 100000 (USB2+H05261)
Spectra Averaged: 1 (USB2+H05261)
Boxcar Smoothing: 0 (USB2+H05261)
Correct for Electrical Dark: No (USB2+H05261)
Strobe/Lamp Enabled: No (USB2+H05261)
Correct for Detector Non-linearity: No (USB2+H05261)
Correct for Stray Light: No (USB2+H05261)
Number of Pixels in Processed Spectrum: 2048
>>>>>Begin Processed Spectral Data<<<<<
365.73	56.17
365.92	56.17
366.12	56.17
366.32	0.00
366.52	0.00
366.72	0.00
366.91	4.68
367.11	0.00
367.31	0.00
367.51	0.00
367.70	0.00
367.90	42.13
368.10	0.00
368.30	0.00
368.49	0.00
368.69	0.00
368.89	0.00
369.09	0.00
369.28	37.45
369.48	14.04
369.68	0.00
369.87	0.00
370.07	0.00
370.27	77.24
370.47	46.81
370.66	110.01
370.86	88.94
371.06	112.35
371.25	175.54
371.45	74.90
371.65	107.66
371.84	102.98
372.04	98.30
372.24	168.52
372.44	227.03
372.63	163.84
372.83	191.92
373.03	105.32
373.22	175.54
373.42	74.90
373.62	95.96
373.81	159.16
374.01	161.50
374.21	189.58
374.40	100.64
374.60	175.54
374.79	147.45
374.99	220.01
375.19	107.66
375.38	250.44
375.58	168.52
375.78	161.50
375.97	175.54
376.17	194.26
376.37	147.45
376.56	191.92
376.76	205.97
376.95	110.01
377.15	203.63
377.35	156.82
377.54	208.31
377.74	152.13
377.93	131.07
378.13	114.69
378.33	166.18
378.52	128.73
378.72	128.73
378.91	177.88
379.11	112.35
379.31	163.84
379.50	124.05
379.70	161.50
379.89	84.26
380.09	163.84
380.28	170.86
380.48	154.48
380.68	138.09
380.87	53.83
381.07	243.42
381.26	184.90
381.46	220.01
381.65	142.77
381.85	63.19
382.04	177.88
382.24	112.35
382.43	56.17
382.63	100.64
382.83	149.79
383.02	128.73
383.22	170.86
383.41	126.39
383.61	152.13
383.80	175.54
384.00	147.45
384.19	81.92
384.39	131.07
384.58	128.73
384.78	147.45
384.97	203.63
385.17	170.86
385.36	126.39
385.56	138.09
385.75	98.30
385.95	159.16
386.14	114.69
386.34	84.26
386.53	128.73
386.72	135.75
386.92	126.39
387.11	145.11
387.31	128.73
387.50	84.26
387.70	112.35
387.89	140.43
388.09	133.41
388.28	93.62
388.48	133.41
388.67	184.90
388.86	154.48
389.06	149.79
389.25	140.43
389.45	182.56
389.64	145.11
389.84	196.60
390.03	161.50
390.22	119.37
390.42	154.48
390.61	126.39
390.81	145.11
391.00	126.39
391.19	128.73
391.39	105.32
391.58	154.48
391.78	128.73
391.97	114.69
392.16	98.30
392.36	187.24
392.55	170.86
392.75	135.75
392.94	60.85
393.13	159.16
393.33	163.84
393.52	145.11
393.71	91.28
393.91	117.03
394.10	79.58
394.29	175.54
394.49	177.88
394.68	175.54
394.88	187.24
395.07	182.56
395.26	156.82
395.46	231.71
395.65	175.54
395.84	107.66
396.04	168.52
396.23	51.49
396.42	135.75
396.62	121.71
396.81	170.86
397.00	229.37
397.19	86.60
397.39	149.79
397.58	208.31
397.77	126.39
397.97	187.24
398.16	126.39
398.35	182.56
398.55	91.28
398.74	135.75
398.93	189.58
399.12	154.48
399.32	161.50
399.51	112.35
399.70	182.56
399.90	201.29
400.09	126.39
400.28	159.16
400.47	133.41
400.67	201.29
400.86	119.37
401.05	138.09
401.24	215.33
401.44	180.22
401.63	128.73
401.82	152.13
402.01	100.64
402.21	145.11
402.40	168.52
402.59	142.77
402.78	124.05
402.97	187.24
403.17	140.43
403.36	184.90
403.55	98.30
403.74	205.97
403.93	243.42
404.13	271.50
404.32	271.50
404.51	208.31
404.70	189.58
404.89	147.45
405.09	166.18
405.28	152.13
405.47	117.03
405.66	184.90
405.85	198.95
406.05	152.13
406.24	152.13
406.43	177.88
406.62	133.41
406.81	234.05
407.00	194.26
407.20	166.18
407.39	95.96
407.58	88.94
407.77	159.16
407.96	257.46
408.15	234.05
408.34	203.63
408.54	182.56
408.73	117.03
408.92	147.45
409.11	215.33
409.30	210.65
409.49	163.84
409.68	133.41
409.87	145.11
410.07	227.03
410.26	194.26
410.45	159.16
410.64	161.50
410.83	187.24
411.02	163.84
411.21	161.50
411.40	135.75
411.59	140.43
411.78	191.92
411.98	140.43
412.17	187.24
412.36	184.90
412.55	215.33
412.74	140.43
412.93	145.11
413.12	117.03
413.31	175.54
413.50	203.63
413.69	168.52
413.88	140.43
414.07	170.86
414.26	196.60
414.45	227.03
414.64	175.54
414.83	88.94
415.02	152.13
415.22	138.09
415.41	203.63
415.60	184.90
415.79	205.97
415.98	191.92
416.17	248.10
416.36	124.05
416.55	161.50
416.74	205.97
416.93	170.86
417.12	201.29
417.31	140.43
417.50	222.35
417.69	222.35
417.88	212.99
418.07	257.46
418.26	173.20
418.45	173.20
418.64	241.08
418.83	203.63
419.02	266.82
419.21	222.35
419.39	196.60
419.58	212.99
419.77	201.29
419.96	166.18
420.15	196.60
420.34	203.63
420.53	236.39
420.72	259.80
420.91	245.76
421.10	215.33
421.29	149.79
421.48	189.58
421.67	177.88
421.86	114.69
422.05	222.35
422.24	91.28
422.43	161.50
422.61	156.82
422.80	163.84
422.99	189.58
423.18	182.56
423.37	224.69
423.56	177.88
423.75	220.01
423.94	175.54
424.13	184.90
424.32	128.73
424.50	166.18
424.69	215.33
424.88	266.82
425.07	208.31
425.26	173.20
425.45	257.46
425.64	308.95
425.83	292.57
426.01	236.39
426.20	248.10
426.39	140.43
426.58	133.41
426.77	156.82
426.96	210.65
427.15	187.24
427.33	140.43
427.52	133.41
427.71	217.67
427.90	142.77
428.09	154.48
428.28	145.11
428.46	149.79
428.65	114.69
428.84	173.20
429.03	203.63
429.22	187.24
429.40	210.65
429.59	170.86
429.78	159.16
429.97	135.75
430.16	224.69
430.34	154.48
430.53	182.56
430.72	217.67
430.91	215.33
431.10	112.35
431.28	187.24
431.47	121.71
431.66	191.92
431.85	229.37
432.03	166.18
432.22	210.65
432.41	166.18
432.60	220.01
432.79	180.22
432.97	278.52
433.16	348.74
433.35	264.48
433.54	166.18
433.72	184.90
433.91	201.29
434.10	180.22
434.28	248.10
434.47	198.95
434.66	159.16
434.85	168.52
435.03	266.82
435.22	285.55
435.41	465.77
435.59	365.12
435.78	315.97
435.97	229.37
436.16	166.18
436.34	161.50
436.53	154.48
436.72	208.31
436.90	177.88
437.09	210.65
437.28	128.73
437.46	203.63
437.65	187.24
437.84	168.52
438.02	156.82
438.21	154.48
438.40	119.37
438.58	131.07
438.77	175.54
438.96	196.60
439.14	102.98
439.33	126.39
439.52	187.24
439.70	166.18
439.89	231.71
440.08	187.24
440.26	121.71
440.45	212.99
440.63	173.20
440.82	124.05
441.01	224.69
441.19	212.99
441.38	203.63
441.57	147.45
441.75	203.63
441.94	236.39
442.12	159.16
442.31	159.16
442.50	227.03
442.68	124.05
442.87	180.22
443.05	177.88
443.24	194.26
443.43	220.01
443.61	217.67
443.80	149.79
443.98	154.48
444.17	107.66
444.35	255.12
444.54	156.82
444.73	152.13
444.91	170.86
445.10	170.86
445.28	227.03
445.47	173.20
445.65	208.31
445.84	203.63
446.02	145.11
446.21	198.95
446.39	161.50
446.58	201.29
446.77	131.07
446.95	210.65
447.14	205.97
447.32	175.54
447.51	184.90
447.69	210.65
447.88	156.82
448.06	173.20
448.25	259.80
448.43	191.92
448.62	117.03
448.80	187.24
448.99	166.18
449.17	224.69
449.36	114.69
449.54	175.54
449.73	208.31
449.91	161.50
450.10	182.56
450.28	245.76
450.46	250.44
450.65	168.52
450.83	243.42
451.02	252.78
451.20	217.67
451.39	201.29
451.57	231.71
451.76	145.11
451.94	191.92
452.13	220.01
452.31	224.69
452.49	220.01
452.68	170.86
452.86	203.63
453.05	250.44
453.23	243.42
453.42	203.63
453.60	196.60
453.78	224.69
453.97	184.90
454.15	142.77
454.34	163.84
454.52	208.31
454.70	208.31
454.89	215.33
455.07	203.63
455.26	191.92
455.44	227.03
455.62	133.41
455.81	245.76
455.99	222.35
456.17	180.22
456.36	163.84
456.54	194.26
456.73	196.60
456.91	159.16
457.09	184.90
457.28	208.31
457.46	173.20
457.64	262.14
457.83	236.39
458.01	138.09
458.19	117.03
458.38	231.71
458.56	252.78
458.74	170.86
458.93	194.26
459.11	210.65
459.29	180.22
459.48	236.39
459.66	222.35
459.84	250.44
460.03	320.65
460.21	121.71
460.39	241.08
460.57	245.76
460.76	198.95
460.94	217.67
461.12	215.33
461.31	182.56
461.49	117.03
461.67	168.52
461.85	231.71
462.04	212.99
462.22	636.63
462.40	238.73
462.59	184.90
462.77	126.39
462.95	203.63
463.13	210.65
463.32	278.52
463.50	196.60
463.68	187.24
463.86	180.22
464.05	241.08
464.23	227.03
464.41	273.84
464.59	182.56
464.78	222.35
464.96	203.63
465.14	198.95
465.32	194.26
465.50	227.03
465.69	210.65
465.87	175.54
466.05	161.50
466.23	168.52
466.41	135.75
466.60	161.50
466.78	234.05
466.96	124.05
467.14	182.56
467.32	212.99
467.51	215.33
467.69	168.52
467.87	245.76
468.05	292.57
468.23	142.77
468.41	184.90
468.60	205.97
468.78	299.59
468.96	156.82
469.14	154.48
469.32	112.35
469.50	147.45
469.69	222.35
469.87	217.67
470.05	243.42
470.23	238.73
470.41	196.60
470.59	205.97
470.77	159.16
470.95	194.26
471.14	276.18
471.32	231.71
471.50	266.82
471.68	168.52
471.86	184.90
472.04	252.78
472.22	217.67
472.40	191.92
472.58	175.54
472.77	124.05
472.95	196.60
473.13	290.23
473.31	196.60
473.49	152.13
473.67	175.54
473.85	180.22
474.03	222.35
474.21	149.79
474.39	280.86
474.57	124.05
474.75	205.97
474.93	212.99
475.12	152.13
475.30	152.13
475.48	138.09
475.66	166.18
475.84	203.63
476.02	145.11
476.20	208.31
476.38	175.54
476.56	278.52
476.74	264.48
476.92	161.50
477.10	184.90
477.28	241.08
477.46	208.31
477.64	159.16
477.82	248.10
478.00	273.84
478.18	248.10
478.36	196.60
478.54	182.56
478.72	227.03
478.90	229.37
479.08	248.10
479.26	224.69
479.44	250.44
479.62	175.54
479.80	201.29
479.98	224.69
480.16	196.60
480.34	220.01
480.52	173.20
480.70	217.67
480.88	231.71
481.06	257.46
481.24	168.52
481.41	234.05
481.59	301.93
481.77	231.71
481.95	215.33
482.13	280.86
482.31	241.08
482.49	217.67
482.67	208.31
482.85	166.18
483.03	161.50
483.21	248.10
483.39	217.67
483.57	227.03
483.74	320.65
483.92	250.44
484.10	198.95
484.28	278.52
484.46	269.16
484.64	227.03
484.82	194.26
485.00	241.08
485.18	212.99
485.35	205.97
485.53	194.26
485.71	238.73
485.89	227.03
486.07	262.14
486.25	210.65
486.43	205.97
486.61	238.73
486.78	220.01
486.96	187.24
487.14	245.76
487.32	294.91
487.50	252.78
487.68	276.18
487.85	220.01
488.03	252.78
488.21	311.29
488.39	217.67
488.57	220.01
488.75	229.37
488.92	500.87
489.10	236.39
489.28	276.18
489.46	201.29
489.64	222.35
489.81	217.67
489.99	234.05
490.17	166.18
490.35	301.93
490.53	250.44
490.70	191.92
490.88	297.25
491.06	283.20
491.24	273.84
491.41	304.27
491.59	262.14
491.77	259.80
491.95	292.57
492.13	236.39
492.30	283.20
492.48	257.46
492.66	301.93
492.84	205.97
493.01	262.14
493.19	252.78
493.37	313.63
493.54	184.90
493.72	294.91
493.90	297.25
494.08	271.50
494.25	245.76
494.43	252.78
494.61	182.56
494.79	245.76
494.96	306.61
495.14	283.20
495.32	250.44
495.49	280.86
495.67	248.10
495.85	250.44
496.02	180.22
496.20	252.78
496.38	301.93
496.55	238.73
496.73	222.35
496.91	313.63
497.09	262.14
497.26	276.18
497.44	243.42
497.62	238.73
497.79	344.06
497.97	320.65
498.14	313.63
498.32	322.99
498.50	337.04
498.67	250.44
498.85	311.29
499.03	311.29
499.20	215.33
499.38	245.76
499.56	217.67
499.73	217.67
499.91	344.06
500.08	292.57
500.26	238.73
500.44	250.44
500.61	208.31
500.79	217.67
500.97	308.95
501.14	292.57
501.32	215.33
501.49	269.16
501.67	241.08
501.84	203.63
502.02	203.63
502.20	287.89
502.37	266.82
502.55	243.42
502.72	238.73
502.90	238.73
503.07	198.95
503.25	271.50
503.43	205.97
503.60	264.48
503.78	311.29
503.95	175.54
504.13	166.18
504.30	290.23
504.48	311.29
504.65	304.27
504.83	358.10
505.01	255.12
505.18	250.44
505.36	189.58
505.53	285.55
505.71	294.91
505.88	325.33
506.06	299.59
506.23	285.55
506.41	220.01
506.58	278.52
506.76	238.73
506.93	337.04
507.11	287.89
507.28	259.80
507.46	245.76
507.63	330.02
507.81	264.48
507.98	311.29
508.16	278.52
508.33	280.86
508.50	290.23
508.68	341.72
508.85	255.12
509.03	311.29
509.20	294.91
509.38	273.84
509.55	290.23
509.73	215.33
509.90	259.80
510.08	283.20
510.25	250.44
510.42	245.76
510.60	229.37
510.77	278.52
510.95	320.65
511.12	334.70
511.30	278.52
511.47	308.95
511.64	280.86
511.82	210.65
511.99	264.48
512.17	208.31
512.34	252.78
512.51	220.01
512.69	255.12
512.86	344.06
513.04	238.73
513.21	255.12
513.38	250.44
513.56	276.18
513.73	205.97
513.90	252.78
514.08	264.48
514.25	301.93
514.43	236.39
514.60	294.91
514.77	327.68
514.95	304.27
515.12	306.61
515.29	301.93
515.47	301.93
515.64	311.29
515.81	224.69
515.99	257.46
516.16	262.14
516.33	243.42
516.51	243.42
516.68	259.80
516.85	269.16
517.03	203.63
517.20	341.72
517.37	269.16
517.54	306.61
517.72	299.59
517.89	290.23
518.06	276.18
518.24	304.27
518.41	311.29
518.58	351.08
518.75	250.44
518.93	266.82
519.10	252.78
519.27	250.44
519.45	313.63
519.62	203.63
519.79	241.08
519.96	248.10
520.14	322.99
520.31	294.91
520.48	269.16
520.65	248.10
520.83	325.33
521.00	255.12
521.17	358.10
521.34	308.95
521.52	262.14
521.69	311.29
521.86	278.52
522.03	280.86
522.20	271.50
522.38	280.86
522.55	262.14
522.72	255.12
522.89	297.25
523.07	308.95
523.24	278.52
523.41	231.71
523.58	241.08
523.75	236.39
523.92	285.55
524.10	285.55
524.27	236.39
524.44	224.69
524.61	262.14
524.78	241.08
524.96	306.61
525.13	276.18
525.30	325.33
525.47	313.63
525.64	327.68
525.81	287.89
525.98	297.25
526.16	224.69
526.33	248.10
526.50	236.39
526.67	252.78
526.84	201.29
527.01	259.80
527.18	266.82
527.36	278.52
527.53	266.82
527.70	374.49
527.87	222.35
528.04	311.29
528.21	196.60
528.38	337.04
528.55	362.78
528.72	292.57
528.89	304.27
529.07	222.35
529.24	292.57
529.41	383.85
529.58	248.10
529.75	264.48
529.92	311.29
530.09	346.40
530.26	271.50
530.43	308.95
530.60	266.82
530.77	217.67
530.94	278.52
531.11	327.68
531.28	271.50
531.46	285.55
531.63	234.05
531.80	241.08
531.97	294.91
532.14	322.99
532.31	255.12
532.48	248.10
532.65	407.25
532.82	425.98
532.99	362.78
533.16	297.25
533.33	334.70
533.50	266.82
533.67	297.25
533.84	454.06
534.01	477.47
534.18	411.93
534.35	325.33
534.52	353.42
534.69	348.74
534.86	322.99
535.03	315.97
535.20	259.80
535.37	278.52
535.54	271.50
535.71	224.69
535.88	290.23
536.05	203.63
536.22	299.59
536.38	283.20
536.55	273.84
536.72	264.48
536.89	269.16
537.06	311.29
537.23	322.99
537.40	327.68
537.57	271.50
537.74	346.40
537.91	362.78
538.08	369.80
538.25	358.10
538.42	304.27
538.59	297.25
538.75	306.61
538.92	304.27
539.09	348.74
539.26	353.42
539.43	491.51
539.60	854.30
539.77	1394.96
539.94	1533.05
540.11	997.07
540.28	713.86
540.44	688.12
540.61	442.36
540.78	477.47
540.95	425.98
541.12	533.64
541.29	472.79
541.46	528.96
541.62	500.87
541.79	531.30
541.96	451.72
542.13	524.28
542.30	514.92
542.47	479.81
542.63	470.45
542.80	440.02
542.97	383.85
543.14	472.79
543.31	493.85
543.48	496.19
543.64	437.68
543.81	519.60
543.98	395.55
544.15	414.27
544.32	484.49
544.48	477.47
544.65	507.90
544.82	491.51
544.99	421.30
545.16	510.24
545.32	451.72
545.49	664.71
545.66	760.67
545.83	795.78
546.00	772.38
546.16	585.13
546.33	510.24
546.50	498.53
546.67	505.56
546.83	367.46
547.00	454.06
547.17	414.27
547.34	372.15
547.50	362.78
547.67	308.95
547.84	325.33
548.00	372.15
548.17	308.95
548.34	372.15
548.51	334.70
548.67	381.51
548.84	379.17
549.01	358.10
549.18	411.93
549.34	313.63
549.51	383.85
549.68	353.42
549.84	369.80
550.01	362.78
550.18	423.64
550.34	414.27
550.51	337.04
550.68	388.53
550.84	330.02
551.01	346.40
551.18	306.61
551.34	341.72
551.51	255.12
551.68	379.17
551.84	330.02
552.01	325.33
552.18	358.10
552.34	311.29
552.51	344.06
552.68	322.99
552.84	332.36
553.01	318.31
553.18	304.27
553.34	344.06
553.51	294.91
553.67	367.46
553.84	355.76
554.01	318.31
554.17	283.20
554.34	264.48
554.51	337.04
554.67	306.61
554.84	257.46
555.00	292.57
555.17	276.18
555.33	325.33
555.50	283.20
555.67	276.18
555.83	294.91
556.00	299.59
556.16	425.98
556.33	299.59
556.50	311.29
556.66	248.10
556.83	285.55
556.99	175.54
557.16	245.76
557.32	276.18
557.49	257.46
557.65	280.86
557.82	264.48
557.98	243.42
558.15	283.20
558.32	308.95
558.48	238.73
558.65	287.89
558.81	299.59
558.98	208.31
559.14	250.44
559.31	280.86
559.47	283.20
559.64	222.35
559.80	287.89
559.97	292.57
560.13	278.52
560.30	262.14
560.46	276.18
560.63	285.55
560.79	301.93
560.96	306.61
561.12	271.50
561.29	278.52
561.45	271.50
561.61	292.57
561.78	386.19
561.94	330.02
562.11	280.86
562.27	285.55
562.44	311.29
562.60	276.18
562.77	264.48
562.93	360.44
563.10	208.31
563.26	222.35
563.42	339.38
563.59	245.76
563.75	243.42
563.92	301.93
564.08	259.80
564.24	332.36
564.41	241.08
564.57	311.29
564.74	238.73
564.90	259.80
565.07	287.89
565.23	332.36
565.39	327.68
565.56	325.33
565.72	259.80
565.88	229.37
566.05	262.14
566.21	180.22
566.38	243.42
566.54	318.31
566.70	243.42
566.87	301.93
567.03	220.01
567.19	276.18
567.36	280.86
567.52	177.88
567.68	250.44
567.85	257.46
568.01	283.20
568.17	180.22
568.34	278.52
568.50	236.39
568.66	278.52
568.83	273.84
568.99	217.67
569.15	271.50
569.32	269.16
569.48	311.29
569.64	201.29
569.81	276.18
569.97	283.20
570.13	339.38
570.30	189.58
570.46	285.55
570.62	231.71
570.78	318.31
570.95	266.82
571.11	327.68
571.27	290.23
571.43	182.56
571.60	372.15
571.76	217.67
571.92	308.95
572.09	327.68
572.25	287.89
572.41	308.95
572.57	217.67
572.74	313.63
572.90	220.01
573.06	311.29
573.22	273.84
573.38	311.29
573.55	376.83
573.71	269.16
573.87	278.52
574.03	243.42
574.20	294.91
574.36	379.17
574.52	278.52
574.68	325.33
574.84	372.15
575.01	318.31
575.17	337.04
575.33	301.93
575.49	264.48
575.65	287.89
575.82	330.02
575.98	514.92
576.14	699.82
576.30	704.50
576.46	627.26
576.62	585.13
576.79	519.60
576.95	416.62
577.11	308.95
577.27	287.89
577.43	292.57
577.59	351.08
577.75	250.44
577.92	269.16
578.08	243.42
578.24	257.46
578.40	292.57
578.56	369.80
578.72	447.04
578.88	400.23
579.04	341.72
579.21	346.40
579.37	353.42
579.53	383.85
579.69	388.53
579.85	369.80
580.01	362.78
580.17	365.12
580.33	393.21
580.49	386.19
580.65	353.42
580.82	351.08
580.98	416.62
581.14	332.36
581.30	451.72
581.46	428.32
581.62	582.79
581.78	671.73
581.94	589.82
582.10	545.34
582.26	526.62
582.42	486.83
582.58	512.58
582.74	425.98
582.90	472.79
583.06	456.40
583.22	407.25
583.38	519.60
583.54	535.98
583.70	620.24
583.86	634.29
584.02	711.52
584.18	884.72
584.34	1041.54
584.50	2380.32
584.66	15669.89
584.82	45759.81
584.98	61630.99
585.14	60140.07
585.30	44182.29
585.46	25535.24
585.62	16058.42
585.78	7524.82
585.94	2930.35
586.10	1455.81
586.26	1034.52
586.42	805.14
586.58	727.91
586.74	606.20
586.90	599.18
587.06	685.78
587.22	692.80
587.38	585.13
587.54	1011.11
587.70	2600.34
587.86	4840.23
588.02	5844.32
588.18	4161.47
588.34	2682.25
588.49	1748.38
588.65	1125.80
588.81	571.09
588.97	463.43
589.13	372.15
589.29	442.36
589.45	402.57
589.61	306.61
589.77	428.32
589.93	465.77
590.08	454.06
590.24	535.98
590.40	468.11
590.56	418.96
590.72	416.62
590.88	348.74
591.04	386.19
591.20	402.57
591.35	395.55
591.51	374.49
591.67	395.55
591.83	327.68
591.99	346.40
592.15	322.99
592.31	409.59
592.46	379.17
592.62	463.43
592.78	379.17
592.94	278.52
593.10	421.30
593.26	479.81
593.41	374.49
593.57	393.21
593.73	545.34
593.89	1966.05
594.05	5561.11
594.20	9481.51
594.36	9598.54
594.52	6335.83
594.68	3747.20
594.84	2649.49
594.99	1563.48
595.15	826.21
595.31	489.17
595.47	423.64
595.62	365.12
595.78	465.77
595.94	313.63
596.10	390.87
596.25	353.42
596.41	454.06
596.57	355.76
596.73	423.64
596.88	461.09
597.04	1233.46
597.20	2024.56
597.36	2539.48
597.51	1923.92
597.67	1263.89
597.83	903.45
597.99	692.80
598.14	524.28
598.30	383.85
598.46	404.91
598.61	465.77
598.77	416.62
598.93	390.87
599.09	374.49
599.24	334.70
599.40	374.49
599.56	327.68
599.71	276.18
599.87	341.72
600.03	276.18
600.18	313.63
600.34	304.27
600.50	301.93
600.65	313.63
600.81	280.86
600.97	285.55
601.12	322.99
601.28	280.86
601.44	259.80
601.59	222.35
601.75	276.18
601.91	311.29
602.06	276.18
602.22	390.87
602.37	580.45
602.53	1411.34
602.69	2321.81
602.84	2691.62
603.00	1937.96
603.16	1359.85
603.31	954.94
603.47	716.20
603.62	475.13
603.78	351.08
603.94	400.23
604.09	334.70
604.25	334.70
604.40	348.74
604.56	229.37
604.71	259.80
604.87	287.89
605.03	337.04
605.18	306.61
605.34	313.63
605.49	304.27
605.65	292.57
605.80	283.20
605.96	308.95
606.12	337.04
606.27	376.83
606.43	386.19
606.58	440.02
606.74	816.85
606.89	2574.59
607.05	5696.86
607.20	8196.56
607.36	6993.52
607.51	4854.27
607.67	3082.49
607.82	2221.17
607.98	1352.83
608.13	685.78
608.29	550.03
608.44	566.41
608.60	498.53
608.75	552.37
608.91	1006.43
609.06	3826.78
609.22	9446.40
609.37	14300.67
609.53	12720.81
609.68	8463.38
609.84	5451.11
609.99	3761.24
610.15	2150.95
