SpectraSuite Data File
++++++++++++++++++++++++++++++++++++
Date: Fri Oct 04 12:14:00 GMT-05:00 2013
User: price-jones
Dark Spectrum Present: No
Reference Spectrum Present: No
Number of Sampled Component Spectra: 1
Spectrometers: USB2+H05261
Integration Time (usec): 1000000 (USB2+H05261)
Spectra Averaged: 1 (USB2+H05261)
Boxcar Smoothing: 0 (USB2+H05261)
Correct for Electrical Dark: No (USB2+H05261)
Strobe/Lamp Enabled: No (USB2+H05261)
Correct for Detector Non-linearity: No (USB2+H05261)
Correct for Stray Light: No (USB2+H05261)
Number of Pixels in Processed Spectrum: 2048
>>>>>Begin Processed Spectral Data<<<<<
365.73	21.06
365.92	21.06
366.12	21.06
366.32	0.00
366.52	0.00
366.72	332.36
366.91	100.64
367.11	285.55
367.31	248.10
367.51	339.38
367.70	395.55
367.90	521.94
368.10	297.25
368.30	327.68
368.49	102.98
368.69	482.15
368.89	318.31
369.09	255.12
369.28	212.99
369.48	98.30
369.68	208.31
369.87	283.20
370.07	184.90
370.27	566.41
370.47	393.21
370.66	348.74
370.86	477.47
371.06	704.50
371.25	985.37
371.45	318.31
371.65	662.37
371.84	346.40
372.04	320.65
372.24	503.22
372.44	311.29
372.63	510.24
372.83	802.80
373.03	458.74
373.22	393.21
373.42	421.30
373.62	435.34
373.81	561.73
374.01	638.97
374.21	704.50
374.40	390.87
374.60	669.39
374.79	477.47
374.99	505.56
375.19	568.75
375.38	624.92
375.58	500.87
375.78	716.20
375.97	711.52
376.17	966.64
376.37	468.11
376.56	624.92
376.76	468.11
376.95	397.89
377.15	664.71
377.35	660.03
377.54	559.39
377.74	465.77
377.93	400.23
378.13	528.96
378.33	662.37
378.52	475.13
378.72	709.18
378.91	657.69
379.11	430.66
379.31	461.09
379.50	383.85
379.70	671.73
379.89	755.99
380.09	458.74
380.28	294.91
380.48	489.17
380.68	416.62
380.87	255.12
381.07	514.92
381.26	772.38
381.46	599.18
381.65	641.31
381.85	461.09
382.04	482.15
382.24	561.73
382.43	475.13
382.63	437.68
382.83	381.51
383.02	653.01
383.22	711.52
383.41	395.55
383.61	503.22
383.80	528.96
384.00	547.69
384.19	437.68
384.39	578.11
384.58	465.77
384.78	566.41
384.97	496.19
385.17	454.06
385.36	468.11
385.56	662.37
385.75	315.97
385.95	531.30
386.14	681.10
386.34	400.23
386.53	620.24
386.72	435.34
386.92	809.83
387.11	648.33
387.31	660.03
387.50	416.62
387.70	322.99
387.89	512.58
388.09	388.53
388.28	393.21
388.48	440.02
388.67	645.99
388.86	535.98
389.06	449.38
389.25	578.11
389.45	601.52
389.64	498.53
389.84	734.93
390.03	636.63
390.22	545.34
390.42	468.11
390.61	374.49
390.81	400.23
391.00	535.98
391.19	730.25
391.39	507.90
391.58	629.60
391.78	507.90
391.97	575.77
392.16	435.34
392.36	877.70
392.55	727.91
392.75	507.90
392.94	393.21
393.13	660.03
393.33	374.49
393.52	458.74
393.71	814.51
393.91	512.58
394.10	369.80
394.29	531.30
394.49	517.26
394.68	758.33
394.88	809.83
395.07	786.42
395.26	603.86
395.46	475.13
395.65	786.42
395.84	716.20
396.04	1167.93
396.23	489.17
396.42	388.53
396.62	517.26
396.81	627.26
397.00	507.90
397.19	589.82
397.39	514.92
397.58	844.93
397.77	491.51
397.97	585.13
398.16	557.05
398.35	645.99
398.55	454.06
398.74	629.60
398.93	765.36
399.12	566.41
399.32	704.50
399.51	521.94
399.70	681.10
399.90	690.46
400.09	667.05
400.28	805.14
400.47	554.71
400.67	706.84
400.86	592.16
401.05	669.39
401.24	746.63
401.44	725.57
401.63	634.29
401.82	826.21
402.01	411.93
402.21	688.12
402.40	601.52
402.59	468.11
402.78	512.58
402.97	592.16
403.17	599.18
403.36	704.50
403.55	610.88
403.74	573.43
403.93	648.33
404.13	994.73
404.32	681.10
404.51	655.35
404.70	774.72
404.89	608.54
405.09	1074.31
405.28	655.35
405.47	465.77
405.66	683.44
405.85	781.74
406.05	627.26
406.24	568.75
406.43	709.18
406.62	678.76
406.81	1074.31
407.00	805.14
407.20	613.22
407.39	624.92
407.58	601.52
407.77	688.12
407.96	919.83
408.15	755.99
408.34	732.59
408.54	688.12
408.73	554.71
408.92	620.24
409.11	744.29
409.30	840.25
409.49	472.79
409.68	620.24
409.87	681.10
410.07	493.85
410.26	631.94
410.45	559.39
410.64	557.05
410.83	648.33
411.02	545.34
411.21	819.19
411.40	847.27
411.59	596.84
411.78	524.28
411.98	667.05
412.17	575.77
412.36	599.18
412.55	585.13
412.74	793.44
412.93	1067.28
413.12	674.07
413.31	866.00
413.50	753.65
413.69	692.80
413.88	978.34
414.07	725.57
414.26	667.05
414.45	571.09
414.64	730.25
414.83	748.97
415.02	802.80
415.22	795.78
415.41	1018.13
415.60	655.35
415.79	791.10
415.98	1074.31
416.17	692.80
416.36	667.05
416.55	608.54
416.74	868.34
416.93	1011.11
417.12	723.23
417.31	718.54
417.50	725.57
417.69	1242.82
417.88	983.02
418.07	788.76
418.26	793.44
418.45	844.93
418.64	1259.21
418.83	1121.12
419.02	1111.75
419.21	961.96
419.39	807.48
419.58	784.08
419.77	835.57
419.96	1076.65
420.15	1139.84
420.34	744.29
420.53	674.07
420.72	912.81
420.91	784.08
421.10	603.86
421.29	765.36
421.48	840.25
421.67	844.93
421.86	620.24
422.05	641.31
422.24	713.86
422.43	688.12
422.61	547.69
422.80	725.57
422.99	751.31
423.18	599.18
423.37	931.53
423.56	877.70
423.75	917.49
423.94	545.34
424.13	725.57
424.32	620.24
424.50	758.33
424.69	688.12
424.88	1055.58
425.07	734.93
425.26	901.11
425.45	1179.63
425.64	1104.73
425.83	1060.26
426.01	1153.88
426.20	898.77
426.39	781.74
426.58	711.52
426.77	791.10
426.96	943.24
427.15	821.53
427.33	552.37
427.52	706.84
427.71	704.50
427.90	755.99
428.09	730.25
428.28	550.03
428.46	636.63
428.65	828.55
428.84	929.19
429.03	1067.28
429.22	608.54
429.40	603.86
429.59	554.71
429.78	1203.04
429.97	608.54
430.16	538.32
430.34	531.30
430.53	624.92
430.72	641.31
430.91	880.04
431.10	554.71
431.28	706.84
431.47	929.19
431.66	851.96
431.85	699.82
432.03	777.06
432.22	1210.06
432.41	744.29
432.60	1104.73
432.79	924.51
432.97	1350.49
433.16	1268.57
433.35	1139.84
433.54	870.68
433.72	990.05
433.91	1032.18
434.10	781.74
434.28	933.87
434.47	856.64
434.66	959.62
434.85	758.33
435.03	760.67
435.22	1102.39
435.41	1174.95
435.59	924.51
435.78	870.68
435.97	734.93
436.16	1022.81
436.34	779.40
436.53	847.27
436.72	1067.28
436.90	915.15
437.09	922.17
437.28	795.78
437.46	795.78
437.65	950.26
437.84	875.36
438.02	816.85
438.21	917.49
438.40	716.20
438.58	699.82
438.77	793.44
438.96	870.68
439.14	697.48
439.33	915.15
439.52	709.18
439.70	802.80
439.89	983.02
440.08	847.27
440.26	809.83
440.45	1139.84
440.63	924.51
440.82	870.68
441.01	980.68
441.19	739.61
441.38	753.65
441.57	805.14
441.75	1186.65
441.94	1156.22
442.12	842.59
442.31	837.91
442.50	835.57
442.68	863.66
442.87	788.76
443.05	791.10
443.24	908.13
443.43	1027.50
443.61	1090.69
443.80	812.17
443.98	767.70
444.17	781.74
444.35	999.41
444.54	828.55
444.73	910.47
444.91	1067.28
445.10	718.54
445.28	695.14
445.47	800.46
445.65	870.68
445.84	770.04
446.02	887.06
446.21	732.59
446.39	826.21
446.58	947.92
446.77	784.08
446.95	807.48
447.14	903.45
447.32	1212.40
447.51	823.87
447.69	887.06
447.88	891.74
448.06	1247.51
448.25	997.07
448.43	779.40
448.62	716.20
448.80	1015.79
448.99	1097.71
449.17	779.40
449.36	753.65
449.54	1088.35
449.73	758.33
449.91	987.71
450.10	882.38
450.28	1406.66
450.46	1383.26
450.65	1132.82
450.83	994.73
451.02	917.49
451.20	976.00
451.39	894.08
451.57	858.98
451.76	798.12
451.94	926.85
452.13	1090.69
452.31	1137.50
452.49	1034.52
452.68	758.33
452.86	973.66
453.05	1275.59
453.23	844.93
453.42	758.33
453.60	917.49
453.78	1006.43
453.97	744.29
454.15	678.76
454.34	851.96
454.52	821.53
454.70	1151.54
454.89	1018.13
455.07	901.11
455.26	954.94
455.44	1020.47
455.62	828.55
455.81	985.37
455.99	968.98
456.17	1029.84
456.36	894.08
456.54	954.94
456.73	856.64
456.91	882.38
457.09	983.02
457.28	1172.61
457.46	896.43
457.64	1135.16
457.83	884.72
458.01	823.87
458.19	957.28
458.38	870.68
458.56	959.62
458.74	767.70
458.93	976.00
459.11	1001.75
459.29	861.32
459.48	978.34
459.66	1263.89
459.84	1198.35
460.03	1858.39
460.21	1088.35
460.39	910.47
460.57	1238.14
460.76	980.68
460.94	1004.09
461.12	1420.71
461.31	1310.70
461.49	933.87
461.67	933.87
461.85	990.05
462.04	931.53
462.22	5961.34
462.40	1181.97
462.59	1284.95
462.77	889.40
462.95	1064.94
463.13	753.65
463.32	1149.20
463.50	1027.50
463.68	1069.62
463.86	931.53
464.05	985.37
464.23	1235.80
464.41	1050.90
464.59	837.91
464.78	854.30
464.96	798.12
465.14	1018.13
465.32	938.55
465.50	1125.80
465.69	1116.44
465.87	847.27
466.05	1008.77
466.23	767.70
466.41	889.40
466.60	926.85
466.78	905.79
466.96	1153.88
467.14	1006.43
467.32	1104.73
467.51	1004.09
467.69	1104.73
467.87	1296.66
468.05	1048.56
468.23	1355.17
468.41	1088.35
468.60	1013.45
468.78	1069.62
468.96	1167.93
469.14	1121.12
469.32	837.91
469.50	842.59
469.69	1093.03
469.87	1001.75
470.05	1104.73
470.23	1004.09
470.41	819.19
470.59	1015.79
470.77	1156.22
470.95	1034.52
471.14	1128.14
471.32	1015.79
471.50	1296.66
471.68	1062.60
471.86	1116.44
472.04	833.23
472.22	1027.50
472.40	854.30
472.58	926.85
472.77	929.19
472.95	947.92
473.13	1390.28
473.31	1263.89
473.49	875.36
473.67	912.81
473.85	1207.72
474.03	1128.14
474.21	1121.12
474.39	1390.28
474.57	1434.75
474.75	1170.27
474.93	938.55
475.12	861.32
475.30	880.04
475.48	1006.43
475.66	999.41
475.84	966.64
476.02	1060.26
476.20	1177.29
476.38	1039.20
476.56	1680.50
476.74	990.05
476.92	1074.31
477.10	1057.92
477.28	1214.74
477.46	1015.79
477.64	1203.04
477.82	1135.16
478.00	1071.97
478.18	1137.50
478.36	1123.46
478.54	994.73
478.72	966.64
478.90	1071.97
479.08	1163.25
479.26	1041.54
479.44	1081.33
479.62	1055.58
479.80	1097.71
479.98	910.47
480.16	1025.15
480.34	1359.85
480.52	945.58
480.70	1212.40
480.88	1064.94
481.06	1034.52
481.24	1006.43
481.41	1086.01
481.59	1254.53
481.77	1144.52
481.95	1130.48
482.13	1465.18
482.31	1247.51
482.49	971.32
482.67	1277.93
482.85	1287.29
483.03	1188.99
483.21	1137.50
483.39	1109.41
483.57	1174.95
483.74	1495.60
483.92	1188.99
484.10	1018.13
484.28	1378.58
484.46	1710.93
484.64	1034.52
484.82	1284.95
485.00	1146.86
485.18	1165.59
485.35	1137.50
485.53	929.19
485.71	1289.64
485.89	903.45
486.07	1078.99
486.25	1671.14
486.43	1254.53
486.61	1350.49
486.78	1266.23
486.96	1013.45
487.14	1205.38
487.32	1137.50
487.50	1172.61
487.68	1406.66
487.85	1121.12
488.03	1467.52
488.21	1593.90
488.39	1259.21
488.57	1387.94
488.75	1238.14
488.92	4014.02
489.10	1472.20
489.28	1708.59
489.46	1174.95
489.64	1273.25
489.81	1336.45
489.99	1551.78
490.17	1355.17
490.35	1963.71
490.53	1341.13
490.70	1249.85
490.88	1556.46
491.06	1249.85
491.24	1544.75
491.41	1614.97
491.59	1416.02
491.77	1181.97
491.95	1125.80
492.13	1179.63
492.30	1373.89
492.48	1263.89
492.66	1390.28
492.84	1254.53
493.01	1472.20
493.19	1245.16
493.37	1767.10
493.54	1547.09
493.72	1507.30
493.90	1383.26
494.08	1369.21
494.25	1511.99
494.43	1502.62
494.61	1357.51
494.79	1287.29
494.96	1268.57
495.14	1533.05
495.32	1385.60
495.49	1526.03
495.67	1451.13
495.85	1315.38
496.02	1394.96
496.20	1614.97
496.38	1561.14
496.55	1418.36
496.73	1561.14
496.91	1411.34
497.09	1617.31
497.26	1453.47
497.44	1467.52
497.62	1446.45
497.79	1469.86
497.97	1577.52
498.14	1579.86
498.32	1549.43
498.50	1636.03
498.67	1350.49
498.85	1488.58
499.03	1434.75
499.20	1401.98
499.38	1462.83
499.56	1530.71
499.73	1886.47
499.91	1682.85
500.08	1647.74
500.26	1476.88
500.44	1394.96
500.61	1565.82
500.79	1458.15
500.97	1671.14
501.14	1790.51
501.32	1533.05
501.49	1736.68
501.67	1451.13
501.84	1481.56
502.02	1331.76
502.20	1834.98
502.37	1575.18
502.55	1373.89
502.72	1526.03
502.90	1668.80
503.07	1563.48
503.25	1629.01
503.43	1490.92
503.60	1593.90
503.78	1652.42
503.95	1507.30
504.13	1385.60
504.30	1629.01
504.48	1771.79
504.65	1832.64
504.83	1729.66
505.01	1577.52
505.18	1643.06
505.36	1617.31
505.53	1544.75
505.71	1416.02
505.88	1715.61
506.06	1596.25
506.23	1455.81
506.41	1369.21
506.58	1671.14
506.76	1626.67
506.93	1584.54
507.11	1605.61
507.28	1434.75
507.46	1497.94
507.63	1591.56
507.81	1570.50
507.98	1596.25
508.16	1533.05
508.33	1624.33
508.50	1619.65
508.68	1556.46
508.85	1666.46
509.03	1544.75
509.20	1504.96
509.38	1558.80
509.55	1844.34
509.73	1755.40
509.90	1853.70
510.08	1493.26
510.25	1722.63
510.42	1514.33
510.60	1631.35
510.77	1661.78
510.95	1860.73
511.12	1727.32
511.30	1984.77
511.47	2010.52
511.64	2174.36
511.82	1748.38
511.99	1610.29
512.17	1685.19
512.34	1404.32
512.51	1598.59
512.69	1533.05
512.86	1830.30
513.04	1509.65
513.21	1689.87
513.38	1516.67
513.56	1439.43
513.73	1451.13
513.90	1441.77
514.08	1467.52
514.25	1722.63
514.43	1746.04
514.60	1495.60
514.77	1631.35
514.95	1699.23
515.12	1612.63
515.29	1687.53
515.47	1771.79
515.64	1654.76
515.81	1643.06
515.99	1823.28
516.16	1713.27
516.33	1699.23
516.51	1434.75
516.68	1303.68
516.85	1310.70
517.03	1320.06
517.20	1678.16
517.37	1654.76
517.54	1689.87
517.72	1540.07
517.89	1303.68
518.06	1235.80
518.24	1893.49
518.41	1991.80
518.58	1820.94
518.75	1654.76
518.93	1727.32
519.10	1650.08
519.27	1631.35
519.45	1734.34
519.62	1647.74
519.79	1750.72
519.96	1458.15
520.14	1614.97
520.31	1982.43
520.48	1682.85
520.65	1816.26
520.83	1905.20
521.00	1842.00
521.17	1717.95
521.34	1572.84
521.52	1694.55
521.69	1678.16
521.86	1640.72
522.03	1806.89
522.20	2043.29
522.38	1593.90
522.55	1650.08
522.72	1373.89
522.89	1818.60
523.07	2012.86
523.24	1626.67
523.41	1621.99
523.58	1638.38
523.75	1699.23
523.92	1582.20
524.10	1813.92
524.27	1654.76
524.44	1614.97
524.61	2038.61
524.78	1598.59
524.96	1736.68
525.13	1722.63
525.30	2050.31
525.47	1874.77
525.64	1844.34
525.81	1760.08
525.98	1678.16
526.16	1544.75
526.33	1451.13
526.50	1383.26
526.67	1387.94
526.84	1425.39
527.01	1600.93
527.18	1710.93
527.36	1692.21
527.53	1612.63
527.70	1949.67
527.87	1717.95
528.04	2193.08
528.21	1570.50
528.38	1961.37
528.55	1872.43
528.72	2085.42
528.89	2097.12
529.07	1687.53
529.24	1701.57
529.41	2047.97
529.58	1689.87
529.75	1614.97
529.92	1818.60
530.09	1760.08
530.26	1949.67
530.43	1853.70
530.60	1820.94
530.77	1755.40
530.94	1973.07
531.11	1863.07
531.28	1629.01
531.46	1582.20
531.63	1757.74
531.80	1685.19
531.97	1839.66
532.14	1785.83
532.31	1715.61
532.48	1956.69
532.65	2162.66
532.82	2293.72
532.99	2424.80
533.16	2122.87
533.33	1940.30
533.50	1980.09
533.67	1987.11
533.84	2581.61
534.01	2703.32
534.18	2349.90
534.35	2186.06
534.52	1937.96
534.69	2422.45
534.86	1811.57
535.03	1682.85
535.20	1727.32
535.37	1956.69
535.54	1764.76
535.71	1741.36
535.88	2125.21
536.05	1666.46
536.22	1842.00
536.38	1610.29
536.55	1715.61
536.72	1919.24
536.89	1570.50
537.06	1750.72
537.23	1724.97
537.40	1643.06
537.57	1631.35
537.74	1872.43
537.91	1806.89
538.08	1764.76
538.25	1792.85
538.42	1605.61
538.59	1834.98
538.75	1713.27
538.92	1664.12
539.09	1914.56
539.26	1804.55
539.43	2913.97
539.60	5224.08
539.77	8922.12
539.94	9554.07
540.11	6207.10
540.28	4339.35
540.44	3225.26
540.61	2188.40
540.78	1699.23
540.95	1582.20
541.12	2069.03
541.29	1654.76
541.46	1930.94
541.62	1746.04
541.79	1533.05
541.96	1535.39
542.13	1675.82
542.30	1650.08
542.47	1837.32
542.63	1685.19
542.80	1792.85
542.97	1944.99
543.14	1720.29
543.31	1769.44
543.48	1755.40
543.64	1750.72
543.81	1717.95
543.98	1558.80
544.15	1582.20
544.32	1664.12
544.48	1631.35
544.65	1673.48
544.82	1535.39
544.99	1732.00
545.16	1926.26
545.32	1554.12
545.49	1638.38
545.66	1645.40
545.83	1507.30
546.00	1554.12
546.16	1558.80
546.33	1640.72
546.50	1689.87
546.67	1858.39
546.83	1797.53
547.00	1668.80
547.17	1542.41
547.34	1547.09
547.50	1729.66
547.67	1638.38
547.84	1469.86
548.00	1825.62
548.17	1558.80
548.34	1692.21
548.51	1959.03
548.67	1933.28
548.84	1713.27
549.01	1701.57
549.18	1820.94
549.34	1746.04
549.51	1867.75
549.68	1762.42
549.84	1647.74
550.01	1497.94
550.18	2586.29
550.34	2303.09
550.51	1701.57
550.68	2155.63
550.84	1621.99
551.01	1760.08
551.18	1811.57
551.34	1638.38
551.51	1638.38
551.68	1619.65
551.84	1743.70
552.01	1661.78
552.18	1598.59
552.34	1715.61
552.51	1694.55
552.68	1802.21
552.84	1579.86
553.01	1724.97
553.18	1694.55
553.34	1664.12
553.51	1366.87
553.67	1757.74
553.84	2120.53
554.01	1783.49
554.17	1755.40
554.34	1523.69
554.51	1830.30
554.67	1849.02
554.84	1757.74
555.00	1680.50
555.17	1696.89
555.33	1933.28
555.50	1764.76
555.67	1858.39
555.83	1591.56
556.00	1736.68
556.16	3330.58
556.33	1811.57
556.50	1661.78
556.66	1577.52
556.83	1629.01
556.99	1659.44
557.16	1781.15
557.32	1617.31
557.49	1579.86
557.65	1554.12
557.82	1544.75
557.98	1624.33
558.15	1554.12
558.32	1593.90
558.48	1542.41
558.65	1621.99
558.81	1776.47
558.98	1530.71
559.14	1776.47
559.31	1570.50
559.47	1790.51
559.64	1469.86
559.80	1781.15
559.97	1427.73
560.13	1596.25
560.30	1458.15
560.46	1533.05
560.63	1488.58
560.79	1509.65
560.96	1687.53
561.12	1514.33
561.29	1640.72
561.45	1486.24
561.61	1692.21
561.78	2361.60
561.94	1535.39
562.11	1507.30
562.27	1736.68
562.44	1500.28
562.60	1540.07
562.77	1511.99
562.93	2270.32
563.10	1584.54
563.26	1526.03
563.42	1757.74
563.59	1624.33
563.75	1453.47
563.92	1811.57
564.08	1760.08
564.24	1837.32
564.41	2073.71
564.57	1411.34
564.74	1502.62
564.90	1715.61
565.07	1813.92
565.23	1970.73
565.39	1771.79
565.56	1970.73
565.72	1643.06
565.88	1638.38
566.05	1568.16
566.21	1605.61
566.38	1825.62
566.54	1659.44
566.70	1521.35
566.87	1614.97
567.03	1315.38
567.19	1631.35
567.36	1626.67
567.52	1575.18
567.68	1687.53
567.85	1650.08
568.01	1504.96
568.17	1413.68
568.34	1526.03
568.50	1914.56
568.66	1549.43
568.83	2385.01
568.99	1633.69
569.15	1853.70
569.32	1497.94
569.48	1507.30
569.64	1341.13
569.81	1607.95
569.97	1416.02
570.13	1696.89
570.30	1451.13
570.46	1418.36
570.62	1441.77
570.78	1420.71
570.95	1322.40
571.11	1961.37
571.27	1966.05
571.43	1504.96
571.60	1902.86
571.76	1603.27
571.92	1621.99
572.09	1544.75
572.25	1551.78
572.41	1556.46
572.57	1619.65
572.74	1975.41
572.90	1842.00
573.06	1839.66
573.22	1626.67
573.38	1790.51
573.55	1774.13
573.71	1680.50
573.87	1701.57
574.03	1554.12
574.20	1593.90
574.36	2033.93
574.52	1984.77
574.68	2228.19
574.84	2179.04
575.01	1694.55
575.17	1820.94
575.33	1596.25
575.49	1923.92
575.65	1954.35
575.82	2237.55
575.98	3318.88
576.14	4262.12
576.30	4465.74
576.46	3496.76
576.62	2663.53
576.79	2457.56
576.95	2333.51
577.11	1706.25
577.27	1629.01
577.43	2050.31
577.59	1961.37
577.75	1783.49
577.92	1799.87
578.08	1675.82
578.24	1650.08
578.40	2029.24
578.56	2127.55
578.72	2047.97
578.88	1933.28
579.04	1781.15
579.21	1846.68
579.37	1849.02
579.53	1802.21
579.69	2195.42
579.85	1858.39
580.01	2253.94
580.17	2064.35
580.33	2307.77
580.49	2260.96
580.65	2303.09
580.82	2078.40
580.98	2097.12
581.14	2008.18
581.30	2480.97
581.46	2569.91
581.62	3410.16
581.78	3627.83
581.94	3637.19
582.10	2899.92
582.26	2729.06
582.42	2485.65
582.58	2754.81
582.74	2509.05
582.90	2693.96
583.06	2834.39
583.22	2724.38
583.38	2827.37
583.54	2904.60
583.70	3796.35
583.86	3964.87
584.02	4447.02
584.18	5451.11
584.34	6736.06
584.50	16570.99
584.66	65535.00
584.82	65535.00
584.98	65535.00
585.14	65535.00
585.30	65535.00
585.46	65535.00
585.62	65535.00
585.78	55391.12
585.94	18892.80
586.10	9083.62
586.26	6190.72
586.42	5128.11
586.58	4128.70
586.74	3637.19
586.90	3527.19
587.06	3478.04
587.22	3225.26
587.38	2967.80
587.54	5966.03
587.70	18424.70
587.86	33759.89
588.02	41319.82
588.18	28350.91
588.34	16851.86
588.49	10640.08
588.65	7040.33
588.81	3777.62
588.97	2244.57
589.13	2069.03
589.29	1881.79
589.45	2101.80
589.61	2001.16
589.77	2443.52
589.93	2581.61
590.08	2841.41
590.24	2619.06
590.40	2644.81
590.56	2572.25
590.72	2150.95
590.88	1893.49
591.04	2085.42
591.20	1973.07
591.35	2366.28
591.51	1970.73
591.67	1757.74
591.83	1781.15
591.99	1923.92
592.15	1961.37
592.31	1881.79
592.46	1790.51
592.62	2010.52
592.78	1629.01
592.94	1713.27
593.10	1788.17
593.26	1898.17
593.41	2200.10
593.57	2305.43
593.73	3108.23
593.89	14548.77
594.05	39651.02
594.20	57675.48
594.36	57268.23
594.52	41642.81
594.68	25439.28
594.84	17015.69
594.99	9486.19
595.15	4482.13
595.31	2839.07
595.47	2616.72
595.62	1921.58
595.78	2047.97
595.94	1872.43
596.10	2207.13
596.25	2223.51
596.41	2232.87
596.57	1849.02
596.73	1914.56
596.88	2935.03
597.04	7307.15
597.20	13219.35
597.36	17233.36
597.51	12631.87
597.67	8116.98
597.83	5757.72
597.99	4255.09
598.14	2677.57
598.30	2415.43
598.46	1942.64
598.61	2377.98
598.77	2017.54
598.93	1870.09
599.09	1715.61
599.24	1778.81
599.40	1905.20
599.56	1528.37
599.71	1729.66
599.87	1638.38
600.03	1624.33
600.18	1610.29
600.34	1785.83
600.50	1516.67
