SpectraSuite Data File
++++++++++++++++++++++++++++++++++++
Date: Fri Oct 04 11:33:51 GMT-05:00 2013
User: price-jones
Dark Spectrum Present: No
Reference Spectrum Present: No
Number of Sampled Component Spectra: 1
Spectrometers: USB2+H05261
Integration Time (usec): 100000 (USB2+H05261)
Spectra Averaged: 1 (USB2+H05261)
Boxcar Smoothing: 0 (USB2+H05261)
Correct for Electrical Dark: No (USB2+H05261)
Strobe/Lamp Enabled: No (USB2+H05261)
Correct for Detector Non-linearity: No (USB2+H05261)
Correct for Stray Light: No (USB2+H05261)
Number of Pixels in Processed Spectrum: 2048
>>>>>Begin Processed Spectral Data<<<<<
365.73	140.43
365.92	140.43
366.12	140.43
366.32	0.00
366.52	2.34
366.72	32.77
366.91	11.70
367.11	0.00
367.31	0.00
367.51	9.36
367.70	0.00
367.90	0.00
368.10	0.00
368.30	0.00
368.49	0.00
368.69	7.02
368.89	0.00
369.09	9.36
369.28	32.77
369.48	0.00
369.68	0.00
369.87	0.00
370.07	0.00
370.27	72.56
370.47	98.30
370.66	74.90
370.86	63.19
371.06	121.71
371.25	142.77
371.45	11.70
371.65	67.88
371.84	51.49
372.04	102.98
372.24	121.71
372.44	98.30
372.63	182.56
372.83	210.65
373.03	121.71
373.22	81.92
373.42	142.77
373.62	124.05
373.81	147.45
374.01	117.03
374.21	191.92
374.40	149.79
374.60	142.77
374.79	224.69
374.99	161.50
375.19	133.41
375.38	107.66
375.58	243.42
375.78	152.13
375.97	124.05
376.17	224.69
376.37	161.50
376.56	145.11
376.76	149.79
376.95	156.82
377.15	168.52
377.35	152.13
377.54	142.77
377.74	114.69
377.93	131.07
378.13	159.16
378.33	156.82
378.52	121.71
378.72	215.33
378.91	105.32
379.11	182.56
379.31	74.90
379.50	105.32
379.70	184.90
379.89	201.29
380.09	114.69
380.28	110.01
380.48	149.79
380.68	133.41
380.87	95.96
381.07	131.07
381.26	126.39
381.46	119.37
381.65	161.50
381.85	91.28
382.04	205.97
382.24	173.20
382.43	215.33
382.63	147.45
382.83	112.35
383.02	184.90
383.22	166.18
383.41	135.75
383.61	163.84
383.80	112.35
384.00	133.41
384.19	163.84
384.39	128.73
384.58	156.82
384.78	198.95
384.97	86.60
385.17	100.64
385.36	86.60
385.56	140.43
385.75	105.32
385.95	133.41
386.14	191.92
386.34	138.09
386.53	161.50
386.72	105.32
386.92	180.22
387.11	107.66
387.31	131.07
387.50	56.17
387.70	121.71
387.89	70.22
388.09	135.75
388.28	133.41
388.48	135.75
388.67	159.16
388.86	93.62
389.06	138.09
389.25	196.60
389.45	196.60
389.64	149.79
389.84	220.01
390.03	184.90
390.22	79.58
390.42	149.79
390.61	135.75
390.81	65.54
391.00	175.54
391.19	168.52
391.39	149.79
391.58	208.31
391.78	168.52
391.97	159.16
392.16	184.90
392.36	170.86
392.55	159.16
392.75	135.75
392.94	135.75
393.13	184.90
393.33	166.18
393.52	166.18
393.71	173.20
393.91	196.60
394.10	189.58
394.29	86.60
394.49	128.73
394.68	222.35
394.88	177.88
395.07	159.16
395.26	133.41
395.46	182.56
395.65	177.88
395.84	163.84
396.04	257.46
396.23	147.45
396.42	177.88
396.62	156.82
396.81	229.37
397.00	250.44
397.19	163.84
397.39	131.07
397.58	201.29
397.77	159.16
397.97	142.77
398.16	114.69
398.35	243.42
398.55	159.16
398.74	149.79
398.93	217.67
399.12	65.54
399.32	138.09
399.51	98.30
399.70	227.03
399.90	112.35
400.09	74.90
400.28	149.79
400.47	203.63
400.67	220.01
400.86	177.88
401.05	140.43
401.24	77.24
401.44	184.90
401.63	177.88
401.82	145.11
402.01	149.79
402.21	159.16
402.40	140.43
402.59	168.52
402.78	208.31
402.97	166.18
403.17	203.63
403.36	161.50
403.55	198.95
403.74	154.48
403.93	170.86
404.13	234.05
404.32	156.82
404.51	205.97
404.70	149.79
404.89	210.65
405.09	198.95
405.28	187.24
405.47	187.24
405.66	117.03
405.85	142.77
406.05	184.90
406.24	191.92
406.43	147.45
406.62	140.43
406.81	159.16
407.00	203.63
407.20	166.18
407.39	161.50
407.58	110.01
407.77	173.20
407.96	124.05
408.15	203.63
408.34	234.05
408.54	173.20
408.73	201.29
408.92	161.50
409.11	126.39
409.30	180.22
409.49	88.94
409.68	184.90
409.87	173.20
410.07	182.56
410.26	100.64
410.45	159.16
410.64	147.45
410.83	234.05
411.02	145.11
411.21	231.71
411.40	161.50
411.59	79.58
411.78	177.88
411.98	138.09
412.17	142.77
412.36	241.08
412.55	133.41
412.74	152.13
412.93	191.92
413.12	147.45
413.31	107.66
413.50	194.26
413.69	217.67
413.88	215.33
414.07	205.97
414.26	255.12
414.45	156.82
414.64	257.46
414.83	182.56
415.02	217.67
415.22	250.44
415.41	196.60
415.60	203.63
415.79	159.16
415.98	170.86
416.17	173.20
416.36	147.45
416.55	154.48
416.74	163.84
416.93	243.42
417.12	234.05
417.31	133.41
417.50	117.03
417.69	201.29
417.88	269.16
418.07	222.35
418.26	191.92
418.45	205.97
418.64	257.46
418.83	264.48
419.02	161.50
419.21	135.75
419.39	147.45
419.58	161.50
419.77	175.54
419.96	264.48
420.15	259.80
420.34	142.77
420.53	210.65
420.72	262.14
420.91	147.45
421.10	107.66
421.29	124.05
421.48	142.77
421.67	194.26
421.86	191.92
422.05	168.52
422.24	140.43
422.43	149.79
422.61	102.98
422.80	163.84
422.99	196.60
423.18	133.41
423.37	234.05
423.56	149.79
423.75	173.20
423.94	124.05
424.13	112.35
424.32	187.24
424.50	180.22
424.69	180.22
424.88	203.63
425.07	124.05
425.26	184.90
425.45	227.03
425.64	220.01
425.83	191.92
426.01	180.22
426.20	212.99
426.39	184.90
426.58	243.42
426.77	161.50
426.96	194.26
427.15	180.22
427.33	154.48
427.52	196.60
427.71	182.56
427.90	187.24
428.09	166.18
428.28	168.52
428.46	166.18
428.65	121.71
428.84	191.92
429.03	187.24
429.22	208.31
429.40	205.97
429.59	187.24
429.78	135.75
429.97	205.97
430.16	220.01
430.34	177.88
430.53	161.50
430.72	147.45
430.91	205.97
431.10	119.37
431.28	170.86
431.47	198.95
431.66	191.92
431.85	168.52
432.03	227.03
432.22	212.99
432.41	100.64
432.60	222.35
432.79	194.26
432.97	271.50
433.16	229.37
433.35	215.33
433.54	184.90
433.72	201.29
433.91	248.10
434.10	184.90
434.28	215.33
434.47	177.88
434.66	189.58
434.85	184.90
435.03	198.95
435.22	358.10
435.41	407.25
435.59	393.21
435.78	262.14
435.97	215.33
436.16	177.88
436.34	238.73
436.53	227.03
436.72	119.37
436.90	102.98
437.09	145.11
437.28	187.24
437.46	110.01
437.65	152.13
437.84	238.73
438.02	168.52
438.21	259.80
438.40	166.18
438.58	198.95
438.77	245.76
438.96	173.20
439.14	191.92
439.33	229.37
439.52	194.26
439.70	168.52
439.89	140.43
440.08	236.39
440.26	198.95
440.45	154.48
440.63	222.35
440.82	168.52
441.01	149.79
441.19	205.97
441.38	142.77
441.57	210.65
441.75	182.56
441.94	175.54
442.12	248.10
442.31	184.90
442.50	187.24
442.68	135.75
442.87	245.76
443.05	173.20
443.24	180.22
443.43	217.67
443.61	201.29
443.80	196.60
443.98	208.31
444.17	180.22
444.35	203.63
444.54	124.05
444.73	180.22
444.91	229.37
445.10	107.66
445.28	147.45
445.47	212.99
445.65	229.37
445.84	217.67
446.02	131.07
446.21	201.29
446.39	133.41
446.58	161.50
446.77	189.58
446.95	166.18
447.14	203.63
447.32	184.90
447.51	189.58
447.69	234.05
447.88	152.13
448.06	222.35
448.25	140.43
448.43	180.22
448.62	182.56
448.80	163.84
448.99	248.10
449.17	187.24
449.36	217.67
449.54	234.05
449.73	215.33
449.91	182.56
450.10	227.03
450.28	308.95
450.46	259.80
450.65	259.80
450.83	217.67
451.02	194.26
451.20	201.29
451.39	234.05
451.57	187.24
451.76	163.84
451.94	133.41
452.13	238.73
452.31	147.45
452.49	222.35
452.68	126.39
452.86	208.31
453.05	315.97
453.23	177.88
453.42	110.01
453.60	229.37
453.78	180.22
453.97	163.84
454.15	154.48
454.34	208.31
454.52	205.97
454.70	238.73
454.89	191.92
455.07	138.09
455.26	283.20
455.44	262.14
455.62	205.97
455.81	173.20
455.99	159.16
456.17	177.88
456.36	189.58
456.54	191.92
456.73	177.88
456.91	250.44
457.09	201.29
457.28	224.69
457.46	203.63
457.64	180.22
457.83	245.76
458.01	163.84
458.19	168.52
458.38	149.79
458.56	161.50
458.74	182.56
458.93	159.16
459.11	154.48
459.29	220.01
459.48	168.52
459.66	198.95
459.84	180.22
460.03	262.14
460.21	205.97
460.39	198.95
460.57	175.54
460.76	140.43
460.94	203.63
461.12	205.97
461.31	306.61
461.49	168.52
461.67	140.43
461.85	187.24
462.04	149.79
462.22	636.63
462.40	266.82
462.59	210.65
462.77	208.31
462.95	154.48
463.13	250.44
463.32	177.88
463.50	161.50
463.68	149.79
463.86	147.45
464.05	227.03
464.23	154.48
464.41	241.08
464.59	212.99
464.78	156.82
464.96	119.37
465.14	135.75
465.32	177.88
465.50	170.86
465.69	180.22
465.87	168.52
466.05	135.75
466.23	210.65
466.41	245.76
466.60	194.26
466.78	196.60
466.96	177.88
467.14	224.69
467.32	163.84
467.51	236.39
467.69	227.03
467.87	250.44
468.05	220.01
468.23	189.58
468.41	177.88
468.60	234.05
468.78	149.79
468.96	205.97
469.14	234.05
469.32	236.39
469.50	156.82
469.69	266.82
469.87	220.01
470.05	238.73
470.23	238.73
470.41	220.01
470.59	205.97
470.77	229.37
470.95	266.82
471.14	220.01
471.32	250.44
471.50	191.92
471.68	220.01
471.86	154.48
472.04	147.45
472.22	149.79
472.40	154.48
472.58	168.52
472.77	198.95
472.95	131.07
473.13	224.69
473.31	170.86
473.49	114.69
473.67	217.67
473.85	142.77
474.03	152.13
474.21	182.56
474.39	220.01
474.57	191.92
474.75	198.95
474.93	222.35
475.12	205.97
475.30	140.43
475.48	168.52
475.66	177.88
475.84	156.82
476.02	191.92
476.20	220.01
476.38	168.52
476.56	227.03
476.74	149.79
476.92	198.95
477.10	245.76
477.28	163.84
477.46	201.29
477.64	245.76
477.82	248.10
478.00	215.33
478.18	238.73
478.36	156.82
478.54	161.50
478.72	177.88
478.90	215.33
479.08	180.22
479.26	243.42
479.44	180.22
479.62	196.60
479.80	222.35
479.98	152.13
480.16	154.48
480.34	142.77
480.52	177.88
480.70	224.69
480.88	159.16
481.06	175.54
481.24	156.82
481.41	222.35
481.59	243.42
481.77	322.99
481.95	121.71
482.13	234.05
482.31	229.37
482.49	147.45
482.67	187.24
482.85	201.29
483.03	241.08
483.21	217.67
483.39	217.67
483.57	264.48
483.74	313.63
483.92	175.54
484.10	159.16
484.28	294.91
484.46	285.55
484.64	231.71
484.82	271.50
485.00	259.80
485.18	241.08
485.35	231.71
485.53	177.88
485.71	163.84
485.89	238.73
486.07	236.39
486.25	271.50
486.43	255.12
486.61	271.50
486.78	220.01
486.96	215.33
487.14	255.12
487.32	245.76
487.50	250.44
487.68	318.31
487.85	212.99
488.03	236.39
488.21	311.29
488.39	175.54
488.57	280.86
488.75	217.67
488.92	568.75
489.10	271.50
489.28	315.97
489.46	231.71
489.64	220.01
489.81	227.03
489.99	259.80
490.17	262.14
490.35	407.25
490.53	259.80
490.70	255.12
490.88	212.99
491.06	191.92
491.24	252.78
491.41	252.78
491.59	266.82
491.77	194.26
491.95	224.69
492.13	234.05
492.30	215.33
492.48	236.39
492.66	227.03
492.84	191.92
493.01	252.78
493.19	245.76
493.37	339.38
493.54	252.78
493.72	259.80
493.90	259.80
494.08	236.39
494.25	330.02
494.43	278.52
494.61	236.39
494.79	252.78
494.96	168.52
495.14	238.73
495.32	259.80
495.49	266.82
495.67	283.20
495.85	220.01
496.02	299.59
496.20	351.08
496.38	285.55
496.55	187.24
496.73	262.14
496.91	238.73
497.09	217.67
497.26	203.63
497.44	222.35
497.62	283.20
497.79	327.68
497.97	271.50
498.14	184.90
498.32	280.86
498.50	266.82
498.67	210.65
498.85	189.58
499.03	196.60
499.20	224.69
499.38	306.61
499.56	217.67
499.73	241.08
499.91	276.18
500.08	294.91
500.26	248.10
500.44	152.13
500.61	231.71
500.79	290.23
500.97	257.46
501.14	273.84
501.32	236.39
501.49	278.52
501.67	266.82
501.84	248.10
502.02	306.61
502.20	245.76
502.37	259.80
502.55	276.18
502.72	145.11
502.90	248.10
503.07	266.82
503.25	362.78
503.43	292.57
503.60	201.29
503.78	224.69
503.95	222.35
504.13	264.48
504.30	287.89
504.48	297.25
504.65	308.95
504.83	292.57
505.01	273.84
505.18	299.59
505.36	250.44
505.53	238.73
505.71	271.50
505.88	248.10
506.06	301.93
506.23	215.33
506.41	283.20
506.58	297.25
506.76	245.76
506.93	208.31
507.11	215.33
507.28	231.71
507.46	205.97
507.63	224.69
507.81	217.67
507.98	241.08
508.16	241.08
508.33	227.03
508.50	287.89
508.68	264.48
508.85	245.76
509.03	255.12
509.20	220.01
509.38	227.03
509.55	301.93
509.73	294.91
509.90	287.89
510.08	201.29
510.25	271.50
510.42	322.99
510.60	255.12
510.77	308.95
510.95	285.55
511.12	287.89
511.30	297.25
511.47	229.37
511.64	337.04
511.82	301.93
511.99	227.03
512.17	259.80
512.34	161.50
512.51	205.97
512.69	259.80
512.86	294.91
513.04	224.69
513.21	243.42
513.38	222.35
513.56	278.52
513.73	217.67
513.90	236.39
514.08	285.55
514.25	301.93
514.43	264.48
514.60	220.01
514.77	257.46
514.95	220.01
515.12	297.25
515.29	177.88
515.47	250.44
515.64	285.55
515.81	201.29
515.99	280.86
516.16	292.57
516.33	224.69
516.51	187.24
516.68	234.05
516.85	227.03
517.03	245.76
517.20	327.68
517.37	322.99
517.54	215.33
517.72	184.90
517.89	222.35
518.06	236.39
518.24	266.82
518.41	351.08
518.58	264.48
518.75	222.35
518.93	259.80
519.10	271.50
519.27	308.95
519.45	266.82
519.62	262.14
519.79	271.50
519.96	278.52
520.14	234.05
520.31	290.23
520.48	278.52
520.65	318.31
520.83	217.67
521.00	290.23
521.17	201.29
521.34	220.01
521.52	238.73
521.69	313.63
521.86	245.76
522.03	283.20
522.20	259.80
522.38	318.31
522.55	264.48
522.72	257.46
522.89	311.29
523.07	301.93
523.24	294.91
523.41	250.44
523.58	299.59
523.75	276.18
523.92	257.46
524.10	203.63
524.27	285.55
524.44	238.73
524.61	205.97
524.78	299.59
524.96	273.84
525.13	243.42
525.30	243.42
525.47	231.71
525.64	248.10
525.81	285.55
525.98	208.31
526.16	222.35
526.33	220.01
526.50	297.25
526.67	257.46
526.84	257.46
527.01	252.78
527.18	269.16
527.36	229.37
527.53	196.60
527.70	229.37
527.87	320.65
528.04	372.15
528.21	173.20
528.38	278.52
528.55	255.12
528.72	311.29
528.89	276.18
529.07	215.33
529.24	269.16
529.41	280.86
529.58	212.99
529.75	273.84
529.92	283.20
530.09	241.08
530.26	210.65
530.43	257.46
530.60	238.73
530.77	170.86
530.94	290.23
531.11	234.05
531.28	290.23
531.46	259.80
531.63	241.08
531.80	255.12
531.97	243.42
532.14	255.12
532.31	285.55
532.48	308.95
532.65	358.10
532.82	358.10
532.99	381.51
533.16	346.40
533.33	315.97
533.50	358.10
533.67	355.76
533.84	318.31
534.01	463.43
534.18	400.23
534.35	395.55
534.52	318.31
534.69	301.93
534.86	198.95
535.03	304.27
535.20	334.70
535.37	241.08
535.54	231.71
535.71	276.18
535.88	266.82
536.05	276.18
536.22	299.59
536.38	269.16
536.55	311.29
536.72	301.93
536.89	220.01
537.06	285.55
537.23	332.36
537.40	318.31
537.57	257.46
537.74	304.27
537.91	348.74
538.08	313.63
538.25	290.23
538.42	318.31
538.59	304.27
538.75	304.27
538.92	330.02
539.09	351.08
539.26	297.25
539.43	631.94
539.60	943.24
539.77	1416.02
539.94	1474.54
540.11	1013.45
540.28	770.04
540.44	559.39
540.61	458.74
540.78	388.53
540.95	449.38
541.12	428.32
541.29	430.66
541.46	454.06
541.62	535.98
541.79	486.83
541.96	505.56
542.13	397.89
542.30	379.17
542.47	543.00
542.63	454.06
542.80	346.40
542.97	400.23
543.14	458.74
543.31	496.19
543.48	447.04
543.64	484.49
543.81	418.96
543.98	486.83
544.15	393.21
544.32	430.66
544.48	407.25
544.65	442.36
544.82	379.17
544.99	404.91
545.16	465.77
545.32	416.62
545.49	589.82
545.66	718.54
545.83	746.63
546.00	767.70
546.16	566.41
546.33	472.79
546.50	376.83
546.67	390.87
546.83	348.74
547.00	318.31
547.17	334.70
547.34	372.15
547.50	379.17
547.67	381.51
547.84	376.83
548.00	341.72
548.17	332.36
548.34	348.74
548.51	330.02
548.67	428.32
548.84	311.29
549.01	390.87
549.18	325.33
549.34	334.70
549.51	449.38
549.68	379.17
549.84	325.33
550.01	393.21
550.18	435.34
550.34	411.93
550.51	339.38
550.68	383.85
550.84	264.48
551.01	360.44
551.18	306.61
551.34	273.84
551.51	290.23
551.68	308.95
551.84	287.89
552.01	360.44
552.18	252.78
552.34	299.59
552.51	276.18
552.68	311.29
552.84	280.86
553.01	313.63
553.18	304.27
553.34	264.48
553.51	271.50
553.67	313.63
553.84	325.33
554.01	318.31
554.17	290.23
554.34	304.27
554.51	301.93
554.67	318.31
554.84	308.95
555.00	287.89
555.17	369.80
555.33	252.78
555.50	252.78
555.67	337.04
555.83	311.29
556.00	330.02
556.16	411.93
556.33	346.40
556.50	259.80
556.66	332.36
556.83	262.14
556.99	262.14
557.16	301.93
557.32	346.40
557.49	243.42
557.65	245.76
557.82	269.16
557.98	318.31
558.15	220.01
558.32	318.31
558.48	236.39
558.65	229.37
558.81	297.25
558.98	231.71
559.14	278.52
559.31	311.29
559.47	283.20
559.64	154.48
559.80	269.16
559.97	255.12
560.13	245.76
560.30	257.46
560.46	259.80
560.63	245.76
560.79	304.27
560.96	266.82
561.12	252.78
561.29	252.78
561.45	208.31
561.61	278.52
561.78	259.80
561.94	330.02
562.11	273.84
562.27	255.12
562.44	304.27
562.60	231.71
562.77	250.44
562.93	369.80
563.10	252.78
563.26	269.16
563.42	278.52
563.59	330.02
563.75	299.59
563.92	315.97
564.08	224.69
564.24	255.12
564.41	330.02
564.57	198.95
564.74	243.42
564.90	212.99
565.07	238.73
565.23	407.25
565.39	301.93
565.56	297.25
565.72	273.84
565.88	252.78
566.05	276.18
566.21	299.59
566.38	215.33
566.54	208.31
566.70	229.37
566.87	184.90
567.03	196.60
567.19	262.14
567.36	301.93
567.52	315.97
567.68	337.04
567.85	245.76
568.01	196.60
568.17	198.95
568.34	257.46
568.50	292.57
568.66	348.74
568.83	320.65
568.99	196.60
569.15	315.97
569.32	280.86
569.48	269.16
569.64	245.76
569.81	280.86
569.97	212.99
570.13	318.31
570.30	271.50
570.46	194.26
570.62	187.24
570.78	334.70
570.95	264.48
571.11	353.42
571.27	238.73
571.43	285.55
571.60	337.04
571.76	292.57
571.92	250.44
572.09	196.60
572.25	266.82
572.41	231.71
572.57	187.24
572.74	290.23
572.90	283.20
573.06	257.46
573.22	241.08
573.38	264.48
573.55	262.14
573.71	306.61
573.87	273.84
574.03	198.95
574.20	227.03
574.36	299.59
574.52	322.99
574.68	271.50
574.84	308.95
575.01	299.59
575.17	320.65
575.33	330.02
575.49	318.31
575.65	365.12
575.82	313.63
575.98	554.71
576.14	599.18
576.30	716.20
576.46	498.53
576.62	456.40
576.79	519.60
576.95	390.87
577.11	325.33
577.27	308.95
577.43	355.76
577.59	280.86
577.75	271.50
577.92	351.08
578.08	224.69
578.24	191.92
578.40	348.74
578.56	344.06
578.72	428.32
578.88	346.40
579.04	344.06
579.21	344.06
579.37	327.68
579.53	404.91
579.69	332.36
579.85	346.40
580.01	418.96
580.17	393.21
580.33	451.72
580.49	404.91
580.65	407.25
580.82	346.40
580.98	407.25
581.14	348.74
581.30	388.53
581.46	416.62
581.62	507.90
581.78	643.65
581.94	566.41
582.10	477.47
582.26	477.47
582.42	433.00
582.58	451.72
582.74	479.81
582.90	454.06
583.06	416.62
583.22	477.47
583.38	507.90
583.54	573.43
583.70	636.63
583.86	746.63
584.02	648.33
584.18	908.13
584.34	1139.84
584.50	2605.02
584.66	19468.58
584.82	49759.79
584.98	60285.18
585.14	56708.84
585.30	40322.75
585.46	24205.82
585.62	14609.62
585.78	6923.30
585.94	2867.16
586.10	1453.47
586.26	931.53
586.42	772.38
586.58	681.10
586.74	674.07
586.90	596.84
587.06	594.50
587.22	650.67
587.38	568.75
587.54	1062.60
587.70	2813.32
587.86	4704.48
588.02	5245.14
588.18	3726.13
588.34	2420.11
588.49	1696.89
588.65	1050.90
588.81	638.97
588.97	451.72
589.13	447.04
589.29	311.29
589.45	397.89
589.61	271.50
589.77	451.72
589.93	400.23
590.08	498.53
590.24	477.47
590.40	428.32
590.56	409.59
590.72	411.93
590.88	325.33
591.04	337.04
591.20	292.57
591.35	330.02
591.51	306.61
591.67	280.86
591.83	369.80
591.99	320.65
592.15	344.06
592.31	358.10
592.46	313.63
592.62	306.61
592.78	365.12
592.94	395.55
593.10	280.86
593.26	287.89
593.41	353.42
593.57	470.45
593.73	533.64
593.89	2258.62
594.05	6052.63
594.20	8961.91
594.36	8381.46
594.52	5394.93
594.68	3534.21
594.84	2317.13
594.99	1357.51
595.15	671.73
595.31	437.68
595.47	442.36
595.62	245.76
595.78	339.38
595.94	428.32
596.10	444.70
596.25	311.29
596.41	437.68
596.57	386.19
596.73	404.91
596.88	489.17
597.04	1224.10
597.20	2104.14
597.36	2298.41
597.51	1685.19
597.67	1184.31
597.83	891.74
597.99	730.25
598.14	484.49
598.30	353.42
598.46	423.64
598.61	367.46
598.77	330.02
598.93	318.31
599.09	330.02
599.24	320.65
599.40	360.44
599.56	245.76
599.71	271.50
599.87	320.65
600.03	215.33
600.18	325.33
600.34	299.59
600.50	294.91
600.65	276.18
600.81	334.70
600.97	292.57
601.12	266.82
601.28	269.16
601.44	255.12
601.59	259.80
601.75	344.06
601.91	337.04
602.06	203.63
602.22	407.25
602.37	538.32
602.53	1486.24
602.69	2286.70
602.84	2377.98
603.00	1732.00
603.16	1226.44
603.31	882.38
603.47	594.50
603.62	383.85
603.78	355.76
603.94	322.99
604.09	334.70
604.25	292.57
604.40	358.10
604.56	252.78
604.71	266.82
604.87	344.06
605.03	346.40
605.18	283.20
605.34	348.74
605.49	400.23
605.65	341.72
605.80	362.78
605.96	341.72
606.12	325.33
606.27	367.46
606.43	386.19
606.58	447.04
606.74	763.01
606.89	2846.09
607.05	5696.86
607.20	7499.08
607.36	6310.08
607.51	4072.53
607.67	2715.02
607.82	1900.52
607.98	1146.86
608.13	695.14
608.29	472.79
608.44	528.96
608.60	433.00
608.75	505.56
608.91	1008.77
609.06	4379.14
609.22	9556.41
609.37	12896.35
609.53	11176.06
609.68	7592.70
609.84	4978.32
609.99	3346.97
610.15	2031.58
