SpectraSuite Data File
++++++++++++++++++++++++++++++++++++
Date: Fri Oct 04 11:34:08 GMT-05:00 2013
User: price-jones
Dark Spectrum Present: No
Reference Spectrum Present: No
Number of Sampled Component Spectra: 1
Spectrometers: USB2+H05261
Integration Time (usec): 100000 (USB2+H05261)
Spectra Averaged: 1 (USB2+H05261)
Boxcar Smoothing: 0 (USB2+H05261)
Correct for Electrical Dark: No (USB2+H05261)
Strobe/Lamp Enabled: No (USB2+H05261)
Correct for Detector Non-linearity: No (USB2+H05261)
Correct for Stray Light: No (USB2+H05261)
Number of Pixels in Processed Spectrum: 2048
>>>>>Begin Processed Spectral Data<<<<<
365.73	107.66
365.92	107.66
366.12	107.66
366.32	0.00
366.52	0.00
366.72	18.72
366.91	0.00
367.11	0.00
367.31	4.68
367.51	14.04
367.70	0.00
367.90	9.36
368.10	0.00
368.30	4.68
368.49	0.00
368.69	0.00
368.89	0.00
369.09	0.00
369.28	0.00
369.48	0.00
369.68	63.19
369.87	42.13
370.07	0.00
370.27	58.51
370.47	117.03
370.66	60.85
370.86	44.47
371.06	166.18
371.25	110.01
371.45	53.83
371.65	138.09
371.84	107.66
372.04	51.49
372.24	81.92
372.44	145.11
372.63	135.75
372.83	168.52
373.03	203.63
373.22	81.92
373.42	156.82
373.62	126.39
373.81	180.22
374.01	212.99
374.21	142.77
374.40	152.13
374.60	241.08
374.79	173.20
374.99	154.48
375.19	117.03
375.38	180.22
375.58	114.69
375.78	154.48
375.97	128.73
376.17	187.24
376.37	117.03
376.56	128.73
376.76	147.45
376.95	117.03
377.15	175.54
377.35	175.54
377.54	110.01
377.74	156.82
377.93	81.92
378.13	107.66
378.33	191.92
378.52	14.04
378.72	166.18
378.91	168.52
379.11	138.09
379.31	95.96
379.50	112.35
379.70	95.96
379.89	128.73
380.09	124.05
380.28	177.88
380.48	88.94
380.68	149.79
380.87	117.03
381.07	154.48
381.26	133.41
381.46	149.79
381.65	131.07
381.85	112.35
382.04	112.35
382.24	154.48
382.43	177.88
382.63	60.85
382.83	184.90
383.02	154.48
383.22	152.13
383.41	187.24
383.61	35.11
383.80	121.71
384.00	168.52
384.19	149.79
384.39	166.18
384.58	161.50
384.78	142.77
384.97	149.79
385.17	187.24
385.36	117.03
385.56	159.16
385.75	152.13
385.95	112.35
386.14	168.52
386.34	117.03
386.53	133.41
386.72	65.54
386.92	84.26
387.11	142.77
387.31	138.09
387.50	135.75
387.70	152.13
387.89	140.43
388.09	140.43
388.28	102.98
388.48	56.17
388.67	121.71
388.86	128.73
389.06	166.18
389.25	110.01
389.45	175.54
389.64	100.64
389.84	114.69
390.03	149.79
390.22	168.52
390.42	147.45
390.61	114.69
390.81	203.63
391.00	194.26
391.19	168.52
391.39	100.64
391.58	217.67
391.78	147.45
391.97	128.73
392.16	72.56
392.36	135.75
392.55	208.31
392.75	173.20
392.94	166.18
393.13	201.29
393.33	51.49
393.52	49.15
393.71	187.24
393.91	163.84
394.10	173.20
394.29	102.98
394.49	156.82
394.68	154.48
394.88	245.76
395.07	149.79
395.26	145.11
395.46	201.29
395.65	79.58
395.84	133.41
396.04	194.26
396.23	175.54
396.42	159.16
396.62	117.03
396.81	135.75
397.00	114.69
397.19	117.03
397.39	173.20
397.58	194.26
397.77	128.73
397.97	138.09
398.16	166.18
398.35	135.75
398.55	173.20
398.74	170.86
398.93	187.24
399.12	191.92
399.32	191.92
399.51	238.73
399.70	140.43
399.90	173.20
400.09	163.84
400.28	187.24
400.47	145.11
400.67	91.28
400.86	194.26
401.05	175.54
401.24	149.79
401.44	163.84
401.63	154.48
401.82	156.82
402.01	119.37
402.21	161.50
402.40	208.31
402.59	138.09
402.78	154.48
402.97	147.45
403.17	168.52
403.36	114.69
403.55	124.05
403.74	145.11
403.93	100.64
404.13	145.11
404.32	91.28
404.51	124.05
404.70	138.09
404.89	95.96
405.09	224.69
405.28	131.07
405.47	135.75
405.66	177.88
405.85	191.92
406.05	205.97
406.24	147.45
406.43	198.95
406.62	126.39
406.81	166.18
407.00	170.86
407.20	215.33
407.39	161.50
407.58	84.26
407.77	156.82
407.96	138.09
408.15	198.95
408.34	112.35
408.54	95.96
408.73	198.95
408.92	173.20
409.11	208.31
409.30	112.35
409.49	81.92
409.68	191.92
409.87	227.03
410.07	131.07
410.26	215.33
410.45	140.43
410.64	140.43
410.83	124.05
411.02	201.29
411.21	161.50
411.40	184.90
411.59	154.48
411.78	88.94
411.98	205.97
412.17	142.77
412.36	112.35
412.55	133.41
412.74	177.88
412.93	231.71
413.12	138.09
413.31	189.58
413.50	145.11
413.69	203.63
413.88	210.65
414.07	102.98
414.26	124.05
414.45	149.79
414.64	170.86
414.83	149.79
415.02	194.26
415.22	212.99
415.41	180.22
415.60	229.37
415.79	161.50
415.98	217.67
416.17	236.39
416.36	126.39
416.55	145.11
416.74	159.16
416.93	142.77
417.12	231.71
417.31	166.18
417.50	168.52
417.69	201.29
417.88	177.88
418.07	126.39
418.26	154.48
418.45	117.03
418.64	152.13
418.83	196.60
419.02	142.77
419.21	154.48
419.39	102.98
419.58	238.73
419.77	114.69
419.96	168.52
420.15	191.92
420.34	133.41
420.53	182.56
420.72	156.82
420.91	126.39
421.10	177.88
421.29	194.26
421.48	156.82
421.67	114.69
421.86	154.48
422.05	182.56
422.24	187.24
422.43	175.54
422.61	117.03
422.80	147.45
422.99	161.50
423.18	212.99
423.37	201.29
423.56	177.88
423.75	184.90
423.94	112.35
424.13	149.79
424.32	145.11
424.50	133.41
424.69	196.60
424.88	173.20
425.07	154.48
425.26	189.58
425.45	166.18
425.64	147.45
425.83	156.82
426.01	149.79
426.20	152.13
426.39	198.95
426.58	105.32
426.77	180.22
426.96	189.58
427.15	142.77
427.33	154.48
427.52	154.48
427.71	248.10
427.90	205.97
428.09	135.75
428.28	182.56
428.46	191.92
428.65	180.22
428.84	177.88
429.03	161.50
429.22	198.95
429.40	163.84
429.59	182.56
429.78	262.14
429.97	124.05
430.16	138.09
430.34	182.56
430.53	212.99
430.72	222.35
430.91	152.13
431.10	245.76
431.28	149.79
431.47	177.88
431.66	135.75
431.85	205.97
432.03	149.79
432.22	231.71
432.41	170.86
432.60	266.82
432.79	166.18
432.97	189.58
433.16	154.48
433.35	126.39
433.54	217.67
433.72	217.67
433.91	231.71
434.10	238.73
434.28	177.88
434.47	222.35
434.66	170.86
434.85	154.48
435.03	180.22
435.22	290.23
435.41	365.12
435.59	315.97
435.78	381.51
435.97	229.37
436.16	229.37
436.34	128.73
436.53	177.88
436.72	156.82
436.90	201.29
437.09	222.35
437.28	217.67
437.46	194.26
437.65	88.94
437.84	145.11
438.02	184.90
438.21	161.50
438.40	114.69
438.58	107.66
438.77	124.05
438.96	187.24
439.14	159.16
439.33	159.16
439.52	74.90
439.70	163.84
439.89	147.45
440.08	203.63
440.26	205.97
440.45	222.35
440.63	140.43
440.82	131.07
441.01	154.48
441.19	220.01
441.38	184.90
441.57	156.82
441.75	194.26
441.94	280.86
442.12	131.07
442.31	222.35
442.50	100.64
442.68	156.82
442.87	166.18
443.05	182.56
443.24	184.90
443.43	189.58
443.61	212.99
443.80	198.95
443.98	231.71
444.17	215.33
444.35	201.29
444.54	187.24
444.73	175.54
444.91	262.14
445.10	184.90
445.28	180.22
445.47	152.13
445.65	184.90
445.84	196.60
446.02	212.99
446.21	86.60
446.39	145.11
446.58	107.66
446.77	191.92
446.95	180.22
447.14	217.67
447.32	241.08
447.51	194.26
447.69	215.33
447.88	215.33
448.06	191.92
448.25	114.69
448.43	161.50
448.62	114.69
448.80	208.31
448.99	212.99
449.17	145.11
449.36	119.37
449.54	236.39
449.73	163.84
449.91	166.18
450.10	234.05
450.28	236.39
450.46	257.46
450.65	229.37
450.83	138.09
451.02	175.54
451.20	187.24
451.39	145.11
451.57	191.92
451.76	147.45
451.94	107.66
452.13	205.97
452.31	173.20
452.49	212.99
452.68	198.95
452.86	191.92
453.05	217.67
453.23	184.90
453.42	187.24
453.60	189.58
453.78	252.78
453.97	208.31
454.15	217.67
454.34	182.56
454.52	149.79
454.70	189.58
454.89	203.63
455.07	154.48
455.26	243.42
455.44	184.90
455.62	205.97
455.81	224.69
455.99	236.39
456.17	227.03
456.36	196.60
456.54	182.56
456.73	154.48
456.91	203.63
457.09	255.12
457.28	184.90
457.46	229.37
457.64	161.50
457.83	189.58
458.01	175.54
458.19	217.67
458.38	187.24
458.56	236.39
458.74	100.64
458.93	156.82
459.11	210.65
459.29	159.16
459.48	142.77
459.66	257.46
459.84	227.03
460.03	276.18
460.21	257.46
460.39	138.09
460.57	182.56
460.76	152.13
460.94	224.69
461.12	170.86
461.31	152.13
461.49	184.90
461.67	215.33
461.85	180.22
462.04	215.33
462.22	641.31
462.40	224.69
462.59	229.37
462.77	236.39
462.95	177.88
463.13	100.64
463.32	222.35
463.50	229.37
463.68	212.99
463.86	217.67
464.05	215.33
464.23	215.33
464.41	229.37
464.59	126.39
464.78	208.31
464.96	168.52
465.14	229.37
465.32	280.86
465.50	170.86
465.69	156.82
465.87	182.56
466.05	145.11
466.23	180.22
466.41	180.22
466.60	170.86
466.78	222.35
466.96	227.03
467.14	191.92
467.32	262.14
467.51	194.26
467.69	184.90
467.87	306.61
468.05	182.56
468.23	201.29
468.41	184.90
468.60	119.37
468.78	156.82
468.96	224.69
469.14	184.90
469.32	184.90
469.50	149.79
469.69	154.48
469.87	196.60
470.05	177.88
470.23	135.75
470.41	138.09
470.59	191.92
470.77	145.11
470.95	196.60
471.14	163.84
471.32	163.84
471.50	161.50
471.68	243.42
471.86	138.09
472.04	208.31
472.22	238.73
472.40	177.88
472.58	191.92
472.77	149.79
472.95	234.05
473.13	189.58
473.31	154.48
473.49	184.90
473.67	175.54
473.85	154.48
474.03	224.69
474.21	168.52
474.39	180.22
474.57	262.14
474.75	231.71
474.93	248.10
475.12	147.45
475.30	273.84
475.48	245.76
475.66	220.01
475.84	208.31
476.02	175.54
476.20	241.08
476.38	248.10
476.56	257.46
476.74	194.26
476.92	212.99
477.10	208.31
477.28	297.25
477.46	241.08
477.64	241.08
477.82	133.41
478.00	212.99
478.18	156.82
478.36	222.35
478.54	168.52
478.72	187.24
478.90	234.05
479.08	243.42
479.26	236.39
479.44	173.20
479.62	191.92
479.80	208.31
479.98	220.01
480.16	234.05
480.34	175.54
480.52	194.26
480.70	180.22
480.88	234.05
481.06	177.88
481.24	241.08
481.41	215.33
481.59	292.57
481.77	184.90
481.95	156.82
482.13	227.03
482.31	149.79
482.49	138.09
482.67	248.10
482.85	299.59
483.03	166.18
483.21	234.05
483.39	194.26
483.57	194.26
483.74	208.31
483.92	215.33
484.10	152.13
484.28	255.12
484.46	229.37
484.64	191.92
484.82	177.88
485.00	201.29
485.18	182.56
485.35	227.03
485.53	238.73
485.71	234.05
485.89	187.24
486.07	236.39
486.25	301.93
486.43	276.18
486.61	248.10
486.78	243.42
486.96	194.26
487.14	210.65
487.32	262.14
487.50	255.12
487.68	248.10
487.85	271.50
488.03	318.31
488.21	266.82
488.39	248.10
488.57	266.82
488.75	215.33
488.92	512.58
489.10	264.48
489.28	273.84
489.46	215.33
489.64	222.35
489.81	236.39
489.99	180.22
490.17	184.90
490.35	304.27
490.53	220.01
490.70	222.35
490.88	257.46
491.06	198.95
491.24	212.99
491.41	245.76
491.59	215.33
491.77	210.65
491.95	271.50
492.13	262.14
492.30	245.76
492.48	280.86
492.66	234.05
492.84	210.65
493.01	234.05
493.19	252.78
493.37	187.24
493.54	208.31
493.72	250.44
493.90	236.39
494.08	245.76
494.25	271.50
494.43	332.36
494.61	227.03
494.79	245.76
494.96	194.26
495.14	269.16
495.32	227.03
495.49	175.54
495.67	255.12
495.85	210.65
496.02	278.52
496.20	397.89
496.38	248.10
496.55	222.35
496.73	205.97
496.91	229.37
497.09	257.46
497.26	311.29
497.44	259.80
497.62	250.44
497.79	276.18
497.97	245.76
498.14	255.12
498.32	229.37
498.50	224.69
498.67	212.99
498.85	191.92
499.03	210.65
499.20	276.18
499.38	248.10
499.56	269.16
499.73	299.59
499.91	220.01
500.08	259.80
500.26	212.99
500.44	166.18
500.61	259.80
500.79	238.73
500.97	271.50
501.14	257.46
501.32	278.52
501.49	212.99
501.67	257.46
501.84	229.37
502.02	227.03
502.20	205.97
502.37	299.59
502.55	264.48
502.72	212.99
502.90	341.72
503.07	276.18
503.25	215.33
503.43	210.65
503.60	217.67
503.78	257.46
503.95	231.71
504.13	229.37
504.30	238.73
504.48	191.92
504.65	245.76
504.83	201.29
505.01	245.76
505.18	276.18
505.36	271.50
505.53	304.27
505.71	163.84
505.88	266.82
506.06	285.55
506.23	259.80
506.41	187.24
506.58	212.99
506.76	322.99
506.93	304.27
507.11	250.44
507.28	311.29
507.46	241.08
507.63	229.37
507.81	175.54
507.98	278.52
508.16	208.31
508.33	313.63
508.50	198.95
508.68	306.61
508.85	222.35
509.03	173.20
509.20	278.52
509.38	220.01
509.55	203.63
509.73	208.31
509.90	210.65
510.08	330.02
510.25	322.99
510.42	248.10
510.60	243.42
510.77	250.44
510.95	280.86
511.12	290.23
511.30	266.82
511.47	217.67
511.64	278.52
511.82	210.65
511.99	229.37
512.17	255.12
512.34	212.99
512.51	194.26
512.69	205.97
512.86	262.14
513.04	166.18
513.21	191.92
513.38	224.69
513.56	238.73
513.73	184.90
513.90	161.50
514.08	189.58
514.25	278.52
514.43	259.80
514.60	220.01
514.77	198.95
514.95	287.89
515.12	241.08
515.29	294.91
515.47	266.82
515.64	250.44
515.81	227.03
515.99	304.27
516.16	187.24
516.33	332.36
516.51	236.39
516.68	182.56
516.85	252.78
517.03	224.69
517.20	299.59
517.37	259.80
517.54	287.89
517.72	262.14
517.89	180.22
518.06	234.05
518.24	236.39
518.41	325.33
518.58	191.92
518.75	210.65
518.93	262.14
519.10	271.50
519.27	194.26
519.45	290.23
519.62	325.33
519.79	243.42
519.96	264.48
520.14	264.48
520.31	330.02
520.48	238.73
520.65	287.89
520.83	229.37
521.00	290.23
521.17	243.42
521.34	201.29
521.52	215.33
521.69	238.73
521.86	215.33
522.03	243.42
522.20	255.12
522.38	238.73
522.55	330.02
522.72	266.82
522.89	229.37
523.07	299.59
523.24	285.55
523.41	238.73
523.58	269.16
523.75	215.33
523.92	191.92
524.10	227.03
524.27	306.61
524.44	241.08
524.61	346.40
524.78	257.46
524.96	224.69
525.13	238.73
525.30	255.12
525.47	290.23
525.64	271.50
525.81	229.37
525.98	217.67
526.16	252.78
526.33	231.71
526.50	217.67
526.67	262.14
526.84	180.22
527.01	227.03
527.18	290.23
527.36	259.80
527.53	257.46
527.70	327.68
527.87	224.69
528.04	367.46
528.21	257.46
528.38	177.88
528.55	376.83
528.72	203.63
528.89	264.48
529.07	210.65
529.24	290.23
529.41	180.22
529.58	212.99
529.75	287.89
529.92	250.44
530.09	224.69
530.26	285.55
530.43	248.10
530.60	299.59
530.77	210.65
530.94	259.80
531.11	304.27
531.28	212.99
531.46	264.48
531.63	306.61
531.80	292.57
531.97	217.67
532.14	304.27
532.31	194.26
532.48	283.20
532.65	301.93
532.82	194.26
532.99	187.24
533.16	262.14
533.33	266.82
533.50	313.63
533.67	276.18
533.84	248.10
534.01	248.10
534.18	259.80
534.35	241.08
534.52	205.97
534.69	332.36
534.86	290.23
535.03	236.39
535.20	294.91
535.37	212.99
535.54	315.97
535.71	262.14
535.88	290.23
536.05	222.35
536.22	264.48
536.38	266.82
536.55	346.40
536.72	327.68
536.89	224.69
537.06	217.67
537.23	315.97
537.40	283.20
537.57	278.52
537.74	337.04
537.91	318.31
538.08	327.68
538.25	250.44
538.42	198.95
538.59	322.99
538.75	330.02
538.92	311.29
539.09	322.99
539.26	327.68
539.43	273.84
539.60	297.25
539.77	339.38
539.94	313.63
540.11	395.55
540.28	334.70
540.44	327.68
540.61	383.85
540.78	367.46
540.95	355.76
541.12	507.90
541.29	433.00
541.46	524.28
541.62	477.47
541.79	425.98
541.96	444.70
542.13	463.43
542.30	437.68
542.47	393.21
542.63	423.64
542.80	351.08
542.97	449.38
543.14	486.83
543.31	433.00
543.48	407.25
543.64	397.89
543.81	369.80
543.98	479.81
544.15	379.17
544.32	433.00
544.48	447.04
544.65	393.21
544.82	411.93
544.99	367.46
545.16	447.04
545.32	367.46
545.49	638.97
545.66	720.88
545.83	882.38
546.00	653.01
546.16	498.53
546.33	477.47
546.50	379.17
546.67	411.93
546.83	376.83
547.00	383.85
547.17	344.06
547.34	379.17
547.50	255.12
547.67	332.36
547.84	313.63
548.00	344.06
548.17	304.27
548.34	290.23
548.51	280.86
548.67	423.64
548.84	322.99
549.01	372.15
549.18	327.68
549.34	330.02
549.51	318.31
549.68	369.80
549.84	358.10
550.01	283.20
550.18	390.87
550.34	374.49
550.51	297.25
550.68	355.76
550.84	294.91
551.01	231.71
551.18	250.44
551.34	285.55
551.51	264.48
551.68	278.52
551.84	311.29
552.01	330.02
552.18	318.31
552.34	259.80
552.51	299.59
552.68	299.59
552.84	266.82
553.01	252.78
553.18	311.29
553.34	245.76
553.51	250.44
553.67	311.29
553.84	266.82
554.01	299.59
554.17	257.46
554.34	217.67
554.51	290.23
554.67	280.86
554.84	269.16
555.00	266.82
555.17	297.25
555.33	255.12
555.50	259.80
555.67	273.84
555.83	280.86
556.00	280.86
556.16	447.04
556.33	290.23
556.50	231.71
556.66	278.52
556.83	154.48
556.99	215.33
557.16	215.33
557.32	294.91
557.49	220.01
557.65	208.31
557.82	220.01
557.98	252.78
558.15	184.90
558.32	229.37
558.48	229.37
558.65	217.67
558.81	224.69
558.98	212.99
559.14	257.46
559.31	271.50
559.47	290.23
559.64	208.31
559.80	285.55
559.97	229.37
560.13	252.78
560.30	285.55
560.46	187.24
560.63	198.95
560.79	173.20
560.96	259.80
561.12	248.10
561.29	287.89
561.45	245.76
561.61	287.89
561.78	315.97
561.94	266.82
562.11	285.55
562.27	229.37
562.44	262.14
562.60	325.33
562.77	271.50
562.93	306.61
563.10	255.12
563.26	196.60
563.42	224.69
563.59	334.70
563.75	276.18
563.92	241.08
564.08	290.23
564.24	322.99
564.41	245.76
564.57	180.22
564.74	177.88
564.90	273.84
565.07	241.08
565.23	243.42
565.39	243.42
565.56	229.37
565.72	245.76
565.88	229.37
566.05	208.31
566.21	273.84
566.38	313.63
566.54	163.84
566.70	149.79
566.87	262.14
567.03	245.76
567.19	252.78
567.36	205.97
567.52	271.50
567.68	280.86
567.85	243.42
568.01	259.80
568.17	236.39
568.34	245.76
568.50	297.25
568.66	205.97
568.83	322.99
568.99	276.18
569.15	231.71
569.32	121.71
569.48	243.42
569.64	198.95
569.81	212.99
569.97	168.52
570.13	194.26
570.30	250.44
570.46	304.27
570.62	205.97
570.78	241.08
570.95	194.26
571.11	280.86
571.27	257.46
571.43	285.55
571.60	215.33
571.76	203.63
571.92	234.05
572.09	229.37
572.25	196.60
572.41	292.57
572.57	290.23
572.74	269.16
572.90	278.52
573.06	241.08
573.22	229.37
573.38	266.82
573.55	208.31
573.71	299.59
573.87	287.89
574.03	252.78
574.20	227.03
574.36	287.89
574.52	264.48
574.68	290.23
574.84	231.71
575.01	217.67
575.17	283.20
575.33	210.65
575.49	252.78
575.65	248.10
575.82	241.08
575.98	311.29
576.14	215.33
576.30	278.52
576.46	294.91
576.62	339.38
576.79	355.76
576.95	304.27
577.11	262.14
577.27	271.50
577.43	264.48
577.59	292.57
577.75	292.57
577.92	276.18
578.08	294.91
578.24	208.31
578.40	299.59
578.56	252.78
578.72	334.70
578.88	339.38
579.04	262.14
579.21	250.44
579.37	273.84
579.53	252.78
579.69	269.16
579.85	308.95
580.01	269.16
580.17	285.55
580.33	308.95
580.49	271.50
580.65	322.99
580.82	285.55
580.98	210.65
581.14	245.76
581.30	266.82
581.46	264.48
581.62	313.63
581.78	243.42
581.94	301.93
582.10	234.05
582.26	255.12
582.42	290.23
582.58	334.70
582.74	259.80
582.90	367.46
583.06	266.82
583.22	264.48
583.38	292.57
583.54	313.63
583.70	381.51
583.86	292.57
584.02	245.76
584.18	315.97
584.34	304.27
584.50	257.46
584.66	655.35
584.82	1233.46
584.98	1617.31
585.14	1446.45
585.30	1076.65
585.46	760.67
585.62	489.17
585.78	418.96
585.94	250.44
586.10	362.78
586.26	311.29
586.42	294.91
586.58	320.65
586.74	318.31
586.90	304.27
587.06	313.63
587.22	327.68
587.38	280.86
587.54	339.38
587.70	395.55
587.86	308.95
588.02	304.27
588.18	327.68
588.34	320.65
588.49	285.55
588.65	269.16
588.81	271.50
588.97	285.55
589.13	311.29
589.29	255.12
589.45	271.50
589.61	229.37
589.77	315.97
589.93	241.08
590.08	241.08
590.24	294.91
590.40	201.29
590.56	351.08
590.72	313.63
590.88	266.82
591.04	290.23
591.20	198.95
591.35	276.18
591.51	142.77
591.67	278.52
591.83	252.78
591.99	285.55
592.15	196.60
592.31	285.55
592.46	306.61
592.62	390.87
592.78	276.18
592.94	229.37
593.10	287.89
593.26	339.38
593.41	287.89
593.57	313.63
593.73	257.46
593.89	332.36
594.05	395.55
594.20	442.36
594.36	475.13
594.52	360.44
594.68	304.27
594.84	395.55
594.99	290.23
595.15	320.65
595.31	234.05
595.47	362.78
595.62	229.37
595.78	259.80
595.94	372.15
596.10	297.25
596.25	299.59
596.41	241.08
596.57	201.29
596.73	306.61
596.88	283.20
597.04	229.37
597.20	280.86
597.36	292.57
597.51	297.25
597.67	227.03
597.83	285.55
597.99	353.42
598.14	205.97
598.30	208.31
598.46	194.26
598.61	180.22
598.77	252.78
598.93	264.48
599.09	346.40
599.24	212.99
599.40	266.82
599.56	299.59
599.71	257.46
599.87	227.03
600.03	299.59
600.18	229.37
600.34	196.60
600.50	252.78
600.65	241.08
600.81	304.27
600.97	257.46
601.12	280.86
601.28	320.65
601.44	255.12
601.59	224.69
601.75	278.52
601.91	196.60
602.06	290.23
602.22	259.80
602.37	250.44
602.53	229.37
602.69	337.04
602.84	234.05
603.00	276.18
603.16	353.42
603.31	327.68
603.47	241.08
603.62	273.84
603.78	262.14
603.94	362.78
604.09	248.10
604.25	245.76
604.40	280.86
604.56	236.39
604.71	243.42
604.87	238.73
605.03	255.12
605.18	180.22
605.34	250.44
605.49	262.14
605.65	280.86
605.80	166.18
605.96	276.18
606.12	257.46
606.27	292.57
606.43	259.80
606.58	332.36
606.74	243.42
606.89	337.04
607.05	383.85
607.20	383.85
607.36	451.72
607.51	404.91
607.67	369.80
607.82	299.59
607.98	290.23
608.13	318.31
608.29	250.44
608.44	294.91
608.60	287.89
608.75	271.50
608.91	262.14
609.06	397.89
609.22	566.41
609.37	601.52
609.53	547.69
609.68	519.60
609.84	383.85
609.99	433.00
610.15	517.26
610.30	447.04
610.46	461.09
610.61	594.50
610.76	594.50
