SpectraSuite Data File
++++++++++++++++++++++++++++++++++++
Date: Fri Oct 04 11:33:59 GMT-05:00 2013
User: price-jones
Dark Spectrum Present: No
Reference Spectrum Present: No
Number of Sampled Component Spectra: 1
Spectrometers: USB2+H05261
Integration Time (usec): 100000 (USB2+H05261)
Spectra Averaged: 1 (USB2+H05261)
Boxcar Smoothing: 0 (USB2+H05261)
Correct for Electrical Dark: No (USB2+H05261)
Strobe/Lamp Enabled: No (USB2+H05261)
Correct for Detector Non-linearity: No (USB2+H05261)
Correct for Stray Light: No (USB2+H05261)
Number of Pixels in Processed Spectrum: 2048
>>>>>Begin Processed Spectral Data<<<<<
365.73	65.54
365.92	65.54
366.12	65.54
366.32	11.70
366.52	0.00
366.72	0.00
366.91	0.00
367.11	0.00
367.31	0.00
367.51	4.68
367.70	0.00
367.90	0.00
368.10	0.00
368.30	0.00
368.49	0.00
368.69	0.00
368.89	0.00
369.09	16.38
369.28	42.13
369.48	2.34
369.68	21.06
369.87	63.19
370.07	30.43
370.27	23.41
370.47	102.98
370.66	0.00
370.86	77.24
371.06	65.54
371.25	110.01
371.45	117.03
371.65	121.71
371.84	91.28
372.04	84.26
372.24	107.66
372.44	77.24
372.63	65.54
372.83	168.52
373.03	79.58
373.22	88.94
373.42	149.79
373.62	184.90
373.81	100.64
374.01	201.29
374.21	191.92
374.40	105.32
374.60	161.50
374.79	140.43
374.99	250.44
375.19	173.20
375.38	131.07
375.58	191.92
375.78	173.20
375.97	114.69
376.17	201.29
376.37	180.22
376.56	140.43
376.76	117.03
376.95	58.51
377.15	168.52
377.35	140.43
377.54	177.88
377.74	110.01
377.93	208.31
378.13	152.13
378.33	133.41
378.52	170.86
378.72	182.56
378.91	86.60
379.11	105.32
379.31	100.64
379.50	133.41
379.70	161.50
379.89	161.50
380.09	81.92
380.28	119.37
380.48	154.48
380.68	149.79
380.87	58.51
381.07	142.77
381.26	180.22
381.46	196.60
381.65	95.96
381.85	102.98
382.04	168.52
382.24	168.52
382.43	128.73
382.63	140.43
382.83	93.62
383.02	170.86
383.22	128.73
383.41	100.64
383.61	222.35
383.80	100.64
384.00	42.13
384.19	177.88
384.39	224.69
384.58	100.64
384.78	117.03
384.97	140.43
385.17	208.31
385.36	147.45
385.56	182.56
385.75	175.54
385.95	114.69
386.14	173.20
386.34	124.05
386.53	187.24
386.72	147.45
386.92	175.54
387.11	126.39
387.31	238.73
387.50	182.56
387.70	112.35
387.89	191.92
388.09	189.58
388.28	98.30
388.48	161.50
388.67	156.82
388.86	194.26
389.06	189.58
389.25	159.16
389.45	145.11
389.64	166.18
389.84	182.56
390.03	156.82
390.22	135.75
390.42	133.41
390.61	117.03
390.81	147.45
391.00	112.35
391.19	154.48
391.39	114.69
391.58	236.39
391.78	191.92
391.97	173.20
392.16	117.03
392.36	217.67
392.55	196.60
392.75	170.86
392.94	98.30
393.13	159.16
393.33	117.03
393.52	210.65
393.71	205.97
393.91	138.09
394.10	84.26
394.29	140.43
394.49	173.20
394.68	182.56
394.88	152.13
395.07	175.54
395.26	182.56
395.46	177.88
395.65	194.26
395.84	175.54
396.04	201.29
396.23	124.05
396.42	187.24
396.62	145.11
396.81	138.09
397.00	107.66
397.19	119.37
397.39	142.77
397.58	208.31
397.77	142.77
397.97	98.30
398.16	191.92
398.35	236.39
398.55	145.11
398.74	163.84
398.93	156.82
399.12	107.66
399.32	107.66
399.51	191.92
399.70	149.79
399.90	159.16
400.09	138.09
400.28	194.26
400.47	107.66
400.67	126.39
400.86	184.90
401.05	168.52
401.24	191.92
401.44	212.99
401.63	198.95
401.82	112.35
402.01	39.79
402.21	138.09
402.40	170.86
402.59	184.90
402.78	112.35
402.97	114.69
403.17	191.92
403.36	191.92
403.55	91.28
403.74	95.96
403.93	159.16
404.13	208.31
404.32	147.45
404.51	161.50
404.70	142.77
404.89	102.98
405.09	205.97
405.28	81.92
405.47	110.01
405.66	196.60
405.85	182.56
406.05	187.24
406.24	173.20
406.43	163.84
406.62	156.82
406.81	217.67
407.00	86.60
407.20	91.28
407.39	121.71
407.58	107.66
407.77	154.48
407.96	198.95
408.15	210.65
408.34	191.92
408.54	135.75
408.73	131.07
408.92	65.54
409.11	189.58
409.30	156.82
409.49	203.63
409.68	107.66
409.87	156.82
410.07	131.07
410.26	133.41
410.45	149.79
410.64	107.66
410.83	119.37
411.02	208.31
411.21	175.54
411.40	161.50
411.59	177.88
411.78	135.75
411.98	121.71
412.17	117.03
412.36	117.03
412.55	117.03
412.74	208.31
412.93	191.92
413.12	131.07
413.31	131.07
413.50	170.86
413.69	145.11
413.88	184.90
414.07	184.90
414.26	145.11
414.45	105.32
414.64	201.29
414.83	163.84
415.02	210.65
415.22	191.92
415.41	222.35
415.60	201.29
415.79	205.97
415.98	128.73
416.17	152.13
416.36	220.01
416.55	110.01
416.74	147.45
416.93	175.54
417.12	100.64
417.31	135.75
417.50	140.43
417.69	194.26
417.88	191.92
418.07	102.98
418.26	152.13
418.45	166.18
418.64	205.97
418.83	128.73
419.02	147.45
419.21	156.82
419.39	147.45
419.58	145.11
419.77	128.73
419.96	182.56
420.15	220.01
420.34	210.65
420.53	65.54
420.72	236.39
420.91	133.41
421.10	159.16
421.29	161.50
421.48	196.60
421.67	217.67
421.86	154.48
422.05	131.07
422.24	121.71
422.43	215.33
422.61	79.58
422.80	175.54
422.99	196.60
423.18	65.54
423.37	243.42
423.56	147.45
423.75	241.08
423.94	210.65
424.13	177.88
424.32	131.07
424.50	107.66
424.69	227.03
424.88	140.43
425.07	166.18
425.26	147.45
425.45	227.03
425.64	189.58
425.83	257.46
426.01	177.88
426.20	173.20
426.39	98.30
426.58	182.56
426.77	198.95
426.96	147.45
427.15	182.56
427.33	163.84
427.52	168.52
427.71	145.11
427.90	248.10
428.09	98.30
428.28	86.60
428.46	117.03
428.65	210.65
428.84	177.88
429.03	159.16
429.22	161.50
429.40	168.52
429.59	79.58
429.78	245.76
429.97	145.11
430.16	117.03
430.34	117.03
430.53	156.82
430.72	114.69
430.91	166.18
431.10	126.39
431.28	154.48
431.47	142.77
431.66	114.69
431.85	175.54
432.03	138.09
432.22	198.95
432.41	222.35
432.60	152.13
432.79	142.77
432.97	189.58
433.16	110.01
433.35	191.92
433.54	88.94
433.72	180.22
433.91	138.09
434.10	152.13
434.28	229.37
434.47	217.67
434.66	306.61
434.85	255.12
435.03	191.92
435.22	320.65
435.41	355.76
435.59	322.99
435.78	318.31
435.97	210.65
436.16	191.92
436.34	189.58
436.53	170.86
436.72	234.05
436.90	210.65
437.09	191.92
437.28	196.60
437.46	117.03
437.65	163.84
437.84	170.86
438.02	107.66
438.21	212.99
438.40	173.20
438.58	152.13
438.77	210.65
438.96	224.69
439.14	203.63
439.33	229.37
439.52	170.86
439.70	168.52
439.89	222.35
440.08	159.16
440.26	210.65
440.45	194.26
440.63	119.37
440.82	126.39
441.01	81.92
441.19	147.45
441.38	142.77
441.57	161.50
441.75	166.18
441.94	180.22
442.12	215.33
442.31	212.99
442.50	154.48
442.68	166.18
442.87	156.82
443.05	210.65
443.24	227.03
443.43	203.63
443.61	215.33
443.80	205.97
443.98	135.75
444.17	126.39
444.35	198.95
444.54	194.26
444.73	196.60
444.91	145.11
445.10	161.50
445.28	154.48
445.47	175.54
445.65	124.05
445.84	212.99
446.02	191.92
446.21	156.82
446.39	107.66
446.58	255.12
446.77	212.99
446.95	217.67
447.14	187.24
447.32	205.97
447.51	159.16
447.69	201.29
447.88	187.24
448.06	259.80
448.25	149.79
448.43	161.50
448.62	215.33
448.80	194.26
448.99	191.92
449.17	166.18
449.36	180.22
449.54	154.48
449.73	205.97
449.91	210.65
450.10	217.67
450.28	250.44
450.46	264.48
450.65	229.37
450.83	201.29
451.02	234.05
451.20	135.75
451.39	180.22
451.57	156.82
451.76	184.90
451.94	208.31
452.13	210.65
452.31	229.37
452.49	231.71
452.68	198.95
452.86	117.03
453.05	243.42
453.23	234.05
453.42	187.24
453.60	147.45
453.78	182.56
453.97	147.45
454.15	133.41
454.34	177.88
454.52	166.18
454.70	177.88
454.89	131.07
455.07	266.82
455.26	264.48
455.44	159.16
455.62	180.22
455.81	173.20
455.99	175.54
456.17	264.48
456.36	236.39
456.54	177.88
456.73	196.60
456.91	156.82
457.09	189.58
457.28	212.99
457.46	212.99
457.64	222.35
457.83	252.78
458.01	173.20
458.19	184.90
458.38	180.22
458.56	224.69
458.74	236.39
458.93	234.05
459.11	133.41
459.29	201.29
459.48	121.71
459.66	175.54
459.84	205.97
460.03	332.36
460.21	203.63
460.39	203.63
460.57	222.35
460.76	154.48
460.94	215.33
461.12	243.42
461.31	287.89
461.49	227.03
461.67	168.52
461.85	234.05
462.04	182.56
462.22	692.80
462.40	198.95
462.59	229.37
462.77	187.24
462.95	189.58
463.13	145.11
463.32	189.58
463.50	220.01
463.68	159.16
463.86	205.97
464.05	217.67
464.23	227.03
464.41	220.01
464.59	194.26
464.78	187.24
464.96	180.22
465.14	170.86
465.32	184.90
465.50	198.95
465.69	194.26
465.87	126.39
466.05	196.60
466.23	163.84
466.41	208.31
466.60	189.58
466.78	224.69
466.96	208.31
467.14	234.05
467.32	224.69
467.51	250.44
467.69	198.95
467.87	236.39
468.05	196.60
468.23	198.95
468.41	203.63
468.60	238.73
468.78	131.07
468.96	187.24
469.14	173.20
469.32	217.67
469.50	152.13
469.69	224.69
469.87	248.10
470.05	215.33
470.23	234.05
470.41	154.48
470.59	189.58
470.77	168.52
470.95	140.43
471.14	252.78
471.32	135.75
471.50	262.14
471.68	269.16
471.86	238.73
472.04	149.79
472.22	212.99
472.40	177.88
472.58	222.35
472.77	147.45
472.95	238.73
473.13	306.61
473.31	184.90
473.49	180.22
473.67	212.99
473.85	227.03
474.03	184.90
474.21	201.29
474.39	177.88
474.57	236.39
474.75	234.05
474.93	74.90
475.12	152.13
475.30	152.13
475.48	294.91
475.66	205.97
475.84	161.50
476.02	259.80
476.20	210.65
476.38	259.80
476.56	208.31
476.74	217.67
476.92	227.03
477.10	201.29
477.28	189.58
477.46	196.60
477.64	222.35
477.82	234.05
478.00	264.48
478.18	201.29
478.36	208.31
478.54	173.20
478.72	159.16
478.90	163.84
479.08	236.39
479.26	217.67
479.44	184.90
479.62	170.86
479.80	205.97
479.98	245.76
480.16	189.58
480.34	177.88
480.52	152.13
480.70	212.99
480.88	166.18
481.06	201.29
481.24	189.58
481.41	189.58
481.59	189.58
481.77	269.16
481.95	203.63
482.13	248.10
482.31	191.92
482.49	161.50
482.67	236.39
482.85	294.91
483.03	173.20
483.21	259.80
483.39	173.20
483.57	229.37
483.74	252.78
483.92	156.82
484.10	217.67
484.28	257.46
484.46	224.69
484.64	194.26
484.82	198.95
485.00	196.60
485.18	238.73
485.35	241.08
485.53	227.03
485.71	273.84
485.89	163.84
486.07	180.22
486.25	294.91
486.43	257.46
486.61	248.10
486.78	133.41
486.96	201.29
487.14	266.82
487.32	198.95
487.50	227.03
487.68	231.71
487.85	271.50
488.03	306.61
488.21	264.48
488.39	276.18
488.57	238.73
488.75	278.52
488.92	456.40
489.10	252.78
489.28	234.05
489.46	243.42
489.64	287.89
489.81	224.69
489.99	269.16
490.17	238.73
490.35	313.63
490.53	248.10
490.70	222.35
490.88	292.57
491.06	166.18
491.24	315.97
491.41	287.89
491.59	266.82
491.77	198.95
491.95	250.44
492.13	135.75
492.30	301.93
492.48	231.71
492.66	234.05
492.84	262.14
493.01	276.18
493.19	259.80
493.37	245.76
493.54	238.73
493.72	276.18
493.90	280.86
494.08	180.22
494.25	257.46
494.43	224.69
494.61	198.95
494.79	236.39
494.96	220.01
495.14	304.27
495.32	166.18
495.49	257.46
495.67	194.26
495.85	224.69
496.02	173.20
496.20	337.04
496.38	271.50
496.55	264.48
496.73	259.80
496.91	222.35
497.09	278.52
497.26	194.26
497.44	297.25
497.62	220.01
497.79	168.52
497.97	236.39
498.14	283.20
498.32	248.10
498.50	187.24
498.67	175.54
498.85	224.69
499.03	262.14
499.20	231.71
499.38	234.05
499.56	259.80
499.73	308.95
499.91	217.67
500.08	231.71
500.26	269.16
500.44	229.37
500.61	170.86
500.79	215.33
500.97	269.16
501.14	276.18
501.32	184.90
501.49	346.40
501.67	297.25
501.84	184.90
502.02	156.82
502.20	271.50
502.37	203.63
502.55	245.76
502.72	168.52
502.90	283.20
503.07	311.29
503.25	182.56
503.43	173.20
503.60	248.10
503.78	201.29
503.95	184.90
504.13	280.86
504.30	273.84
504.48	290.23
504.65	257.46
504.83	264.48
505.01	196.60
505.18	313.63
505.36	269.16
505.53	334.70
505.71	234.05
505.88	341.72
506.06	259.80
506.23	259.80
506.41	205.97
506.58	203.63
506.76	215.33
506.93	220.01
507.11	119.37
507.28	222.35
507.46	182.56
507.63	198.95
507.81	208.31
507.98	187.24
508.16	285.55
508.33	220.01
508.50	231.71
508.68	212.99
508.85	187.24
509.03	212.99
509.20	220.01
509.38	241.08
509.55	297.25
509.73	231.71
509.90	315.97
510.08	276.18
510.25	311.29
510.42	297.25
510.60	266.82
510.77	215.33
510.95	311.29
511.12	241.08
511.30	285.55
511.47	306.61
511.64	271.50
511.82	243.42
511.99	152.13
512.17	208.31
512.34	273.84
512.51	236.39
512.69	210.65
512.86	236.39
513.04	236.39
513.21	278.52
513.38	276.18
513.56	208.31
513.73	224.69
513.90	278.52
514.08	154.48
514.25	212.99
514.43	301.93
514.60	238.73
514.77	236.39
514.95	292.57
515.12	224.69
515.29	191.92
515.47	238.73
515.64	234.05
515.81	203.63
515.99	264.48
516.16	236.39
516.33	325.33
516.51	229.37
516.68	255.12
516.85	159.16
517.03	306.61
517.20	198.95
517.37	234.05
517.54	217.67
517.72	264.48
517.89	234.05
518.06	215.33
518.24	224.69
518.41	229.37
518.58	217.67
518.75	259.80
518.93	220.01
519.10	257.46
519.27	269.16
519.45	234.05
519.62	196.60
519.79	243.42
519.96	278.52
520.14	311.29
520.31	278.52
520.48	250.44
520.65	220.01
520.83	280.86
521.00	294.91
521.17	198.95
521.34	250.44
521.52	222.35
521.69	252.78
521.86	252.78
522.03	285.55
522.20	308.95
522.38	187.24
522.55	278.52
522.72	262.14
522.89	294.91
523.07	227.03
523.24	212.99
523.41	262.14
523.58	248.10
523.75	273.84
523.92	212.99
524.10	271.50
524.27	276.18
524.44	189.58
524.61	252.78
524.78	241.08
524.96	262.14
525.13	278.52
525.30	220.01
525.47	330.02
525.64	306.61
525.81	301.93
525.98	201.29
526.16	231.71
526.33	259.80
526.50	212.99
526.67	294.91
526.84	320.65
527.01	238.73
527.18	278.52
527.36	250.44
527.53	257.46
527.70	315.97
527.87	320.65
528.04	360.44
528.21	248.10
528.38	266.82
528.55	252.78
528.72	327.68
528.89	276.18
529.07	217.67
529.24	273.84
529.41	292.57
529.58	243.42
529.75	245.76
529.92	280.86
530.09	315.97
530.26	346.40
530.43	222.35
530.60	224.69
530.77	259.80
530.94	327.68
531.11	285.55
531.28	294.91
531.46	266.82
531.63	215.33
531.80	227.03
531.97	283.20
532.14	266.82
532.31	208.31
532.48	301.93
532.65	191.92
532.82	287.89
532.99	280.86
533.16	236.39
533.33	318.31
533.50	301.93
533.67	222.35
533.84	292.57
534.01	294.91
534.18	255.12
534.35	332.36
534.52	259.80
534.69	325.33
534.86	255.12
535.03	248.10
535.20	278.52
535.37	238.73
535.54	280.86
535.71	250.44
535.88	313.63
536.05	222.35
536.22	292.57
536.38	301.93
536.55	304.27
536.72	229.37
536.89	287.89
537.06	273.84
537.23	285.55
537.40	308.95
537.57	313.63
537.74	341.72
537.91	320.65
538.08	255.12
538.25	306.61
538.42	205.97
538.59	220.01
538.75	327.68
538.92	250.44
539.09	311.29
539.26	325.33
539.43	376.83
539.60	379.17
539.77	444.70
539.94	376.83
540.11	388.53
540.28	430.66
540.44	421.30
540.61	395.55
540.78	379.17
540.95	332.36
541.12	503.22
541.29	449.38
541.46	526.62
541.62	458.74
541.79	447.04
541.96	360.44
542.13	475.13
542.30	430.66
542.47	397.89
542.63	463.43
542.80	353.42
542.97	468.11
543.14	512.58
543.31	416.62
543.48	397.89
543.64	451.72
543.81	416.62
543.98	332.36
544.15	362.78
544.32	451.72
544.48	465.77
544.65	341.72
544.82	379.17
544.99	381.51
545.16	400.23
545.32	414.27
545.49	641.31
545.66	786.42
545.83	856.64
546.00	699.82
546.16	606.20
546.33	528.96
546.50	376.83
546.67	451.72
546.83	440.02
547.00	353.42
547.17	334.70
547.34	297.25
547.50	362.78
547.67	386.19
547.84	393.21
548.00	353.42
548.17	334.70
548.34	341.72
548.51	355.76
548.67	372.15
548.84	315.97
549.01	332.36
549.18	388.53
549.34	362.78
549.51	341.72
549.68	330.02
549.84	287.89
550.01	301.93
550.18	472.79
550.34	325.33
550.51	287.89
550.68	358.10
550.84	311.29
551.01	299.59
551.18	308.95
551.34	311.29
551.51	276.18
551.68	243.42
551.84	292.57
552.01	259.80
552.18	313.63
552.34	273.84
552.51	245.76
552.68	280.86
552.84	252.78
553.01	283.20
553.18	276.18
553.34	294.91
553.51	297.25
553.67	339.38
553.84	283.20
554.01	297.25
554.17	294.91
554.34	266.82
554.51	252.78
554.67	273.84
554.84	337.04
555.00	285.55
555.17	273.84
555.33	264.48
555.50	301.93
555.67	280.86
555.83	238.73
556.00	266.82
556.16	339.38
556.33	301.93
556.50	248.10
556.66	283.20
556.83	208.31
556.99	229.37
557.16	259.80
557.32	227.03
557.49	285.55
557.65	255.12
557.82	236.39
557.98	276.18
558.15	236.39
558.32	280.86
558.48	294.91
558.65	187.24
558.81	308.95
558.98	194.26
559.14	224.69
559.31	262.14
559.47	339.38
559.64	250.44
559.80	262.14
559.97	264.48
560.13	255.12
560.30	229.37
560.46	173.20
560.63	252.78
560.79	217.67
560.96	203.63
561.12	205.97
561.29	241.08
561.45	255.12
561.61	257.46
561.78	280.86
561.94	266.82
562.11	241.08
562.27	294.91
562.44	210.65
562.60	241.08
562.77	236.39
562.93	250.44
563.10	266.82
563.26	236.39
563.42	245.76
563.59	264.48
563.75	215.33
563.92	250.44
564.08	198.95
564.24	311.29
564.41	198.95
564.57	290.23
564.74	224.69
564.90	177.88
565.07	234.05
565.23	241.08
565.39	252.78
565.56	173.20
565.72	248.10
565.88	243.42
566.05	252.78
566.21	294.91
566.38	236.39
566.54	198.95
566.70	264.48
566.87	304.27
567.03	255.12
567.19	269.16
567.36	297.25
567.52	170.86
567.68	212.99
567.85	294.91
568.01	245.76
568.17	248.10
568.34	236.39
568.50	311.29
568.66	257.46
568.83	290.23
568.99	271.50
569.15	278.52
569.32	208.31
569.48	292.57
569.64	311.29
569.81	278.52
569.97	271.50
570.13	189.58
570.30	245.76
570.46	294.91
570.62	215.33
570.78	210.65
570.95	238.73
571.11	203.63
571.27	273.84
571.43	180.22
571.60	220.01
571.76	201.29
571.92	322.99
572.09	222.35
572.25	234.05
572.41	257.46
572.57	266.82
572.74	280.86
572.90	222.35
573.06	273.84
573.22	285.55
573.38	294.91
573.55	194.26
573.71	285.55
573.87	311.29
574.03	306.61
574.20	194.26
574.36	248.10
574.52	191.92
574.68	294.91
574.84	217.67
575.01	198.95
575.17	231.71
575.33	255.12
575.49	262.14
575.65	285.55
575.82	283.20
575.98	355.76
576.14	344.06
576.30	283.20
576.46	308.95
576.62	383.85
576.79	304.27
576.95	334.70
577.11	262.14
577.27	294.91
577.43	297.25
577.59	250.44
577.75	297.25
577.92	210.65
578.08	273.84
578.24	152.13
578.40	266.82
578.56	374.49
578.72	372.15
578.88	376.83
579.04	292.57
579.21	285.55
579.37	198.95
579.53	304.27
579.69	315.97
579.85	194.26
580.01	313.63
580.17	299.59
580.33	273.84
580.49	231.71
580.65	245.76
580.82	224.69
580.98	290.23
581.14	264.48
581.30	283.20
581.46	327.68
581.62	313.63
581.78	344.06
581.94	322.99
582.10	208.31
582.26	250.44
582.42	278.52
582.58	308.95
582.74	262.14
582.90	248.10
583.06	327.68
583.22	322.99
583.38	355.76
583.54	234.05
583.70	374.49
583.86	248.10
584.02	290.23
584.18	402.57
584.34	360.44
584.50	423.64
584.66	1324.74
584.82	2764.17
584.98	3810.39
585.14	3344.63
585.30	2246.91
585.46	1409.00
585.62	980.68
585.78	564.07
585.94	386.19
586.10	339.38
586.26	322.99
586.42	358.10
586.58	313.63
586.74	292.57
586.90	276.18
587.06	374.49
587.22	297.25
587.38	318.31
587.54	337.04
587.70	468.11
587.86	486.83
588.02	496.19
588.18	482.15
588.34	386.19
588.49	322.99
588.65	294.91
588.81	273.84
588.97	196.60
589.13	229.37
589.29	266.82
589.45	283.20
589.61	210.65
589.77	243.42
589.93	229.37
590.08	212.99
590.24	196.60
590.40	198.95
590.56	304.27
590.72	257.46
590.88	259.80
591.04	252.78
591.20	346.40
591.35	311.29
591.51	271.50
591.67	269.16
591.83	285.55
591.99	330.02
592.15	292.57
592.31	222.35
592.46	276.18
592.62	308.95
592.78	177.88
592.94	355.76
593.10	290.23
593.26	245.76
593.41	208.31
593.57	238.73
593.73	294.91
593.89	461.09
594.05	524.28
594.20	732.59
594.36	702.16
594.52	578.11
594.68	435.34
594.84	346.40
594.99	297.25
595.15	201.29
595.31	290.23
595.47	271.50
595.62	276.18
595.78	182.56
595.94	250.44
596.10	234.05
596.25	255.12
596.41	313.63
596.57	297.25
596.73	334.70
596.88	220.01
597.04	376.83
597.20	271.50
597.36	386.19
597.51	264.48
597.67	334.70
597.83	248.10
597.99	353.42
598.14	262.14
598.30	278.52
598.46	234.05
598.61	255.12
598.77	294.91
598.93	271.50
599.09	203.63
599.24	308.95
599.40	292.57
599.56	276.18
599.71	252.78
599.87	245.76
600.03	248.10
600.18	222.35
600.34	341.72
600.50	243.42
600.65	224.69
600.81	280.86
600.97	255.12
601.12	245.76
601.28	299.59
601.44	297.25
601.59	234.05
601.75	273.84
601.91	311.29
602.06	255.12
602.22	304.27
602.37	297.25
602.53	322.99
602.69	341.72
602.84	358.10
603.00	318.31
603.16	283.20
603.31	248.10
603.47	203.63
603.62	241.08
603.78	346.40
603.94	271.50
604.09	217.67
604.25	229.37
604.40	271.50
604.56	243.42
604.71	212.99
604.87	208.31
605.03	294.91
605.18	308.95
605.34	318.31
605.49	177.88
605.65	229.37
605.80	299.59
605.96	311.29
606.12	330.02
606.27	252.78
606.43	241.08
606.58	250.44
606.74	297.25
606.89	400.23
607.05	582.79
607.20	606.20
607.36	573.43
607.51	442.36
607.67	411.93
607.82	379.17
607.98	339.38
608.13	294.91
608.29	297.25
608.44	341.72
608.60	299.59
608.75	400.23
608.91	292.57
609.06	528.96
609.22	877.70
609.37	1006.43
609.53	894.08
609.68	748.97
609.84	624.92
609.99	535.98
610.15	435.34
610.30	493.85
610.46	575.77
610.61	608.54
610.76	695.14
610.92	819.19
