SpectraSuite Data File
++++++++++++++++++++++++++++++++++++
Date: Fri Oct 04 11:34:03 GMT-05:00 2013
User: price-jones
Dark Spectrum Present: No
Reference Spectrum Present: No
Number of Sampled Component Spectra: 1
Spectrometers: USB2+H05261
Integration Time (usec): 100000 (USB2+H05261)
Spectra Averaged: 1 (USB2+H05261)
Boxcar Smoothing: 0 (USB2+H05261)
Correct for Electrical Dark: No (USB2+H05261)
Strobe/Lamp Enabled: No (USB2+H05261)
Correct for Detector Non-linearity: No (USB2+H05261)
Correct for Stray Light: No (USB2+H05261)
Number of Pixels in Processed Spectrum: 2048
>>>>>Begin Processed Spectral Data<<<<<
365.73	58.51
365.92	58.51
366.12	58.51
366.32	25.75
366.52	0.00
366.72	0.00
366.91	25.75
367.11	0.00
367.31	0.00
367.51	0.00
367.70	0.00
367.90	58.51
368.10	60.85
368.30	0.00
368.49	0.00
368.69	0.00
368.89	0.00
369.09	0.00
369.28	0.00
369.48	0.00
369.68	0.00
369.87	23.41
370.07	0.00
370.27	37.45
370.47	18.72
370.66	18.72
370.86	100.64
371.06	21.06
371.25	135.75
371.45	84.26
371.65	95.96
371.84	84.26
372.04	84.26
372.24	119.37
372.44	72.56
372.63	142.77
372.83	91.28
373.03	156.82
373.22	86.60
373.42	114.69
373.62	147.45
373.81	210.65
374.01	196.60
374.21	182.56
374.40	166.18
374.60	156.82
374.79	189.58
374.99	128.73
375.19	175.54
375.38	133.41
375.58	236.39
375.78	135.75
375.97	131.07
376.17	135.75
376.37	159.16
376.56	58.51
376.76	110.01
376.95	126.39
377.15	126.39
377.35	98.30
377.54	119.37
377.74	156.82
377.93	189.58
378.13	173.20
378.33	119.37
378.52	84.26
378.72	177.88
378.91	156.82
379.11	159.16
379.31	191.92
379.50	142.77
379.70	133.41
379.89	126.39
380.09	100.64
380.28	147.45
380.48	140.43
380.68	128.73
380.87	98.30
381.07	102.98
381.26	168.52
381.46	149.79
381.65	124.05
381.85	100.64
382.04	145.11
382.24	152.13
382.43	177.88
382.63	133.41
382.83	124.05
383.02	126.39
383.22	156.82
383.41	161.50
383.61	51.49
383.80	63.19
384.00	145.11
384.19	147.45
384.39	81.92
384.58	142.77
384.78	163.84
384.97	121.71
385.17	149.79
385.36	124.05
385.56	142.77
385.75	131.07
385.95	131.07
386.14	194.26
386.34	173.20
386.53	159.16
386.72	154.48
386.92	175.54
387.11	236.39
387.31	161.50
387.50	44.47
387.70	124.05
387.89	102.98
388.09	128.73
388.28	79.58
388.48	77.24
388.67	79.58
388.86	168.52
389.06	166.18
389.25	173.20
389.45	131.07
389.64	117.03
389.84	187.24
390.03	102.98
390.22	159.16
390.42	81.92
390.61	147.45
390.81	91.28
391.00	142.77
391.19	163.84
391.39	128.73
391.58	166.18
391.78	110.01
391.97	166.18
392.16	117.03
392.36	187.24
392.55	215.33
392.75	142.77
392.94	79.58
393.13	131.07
393.33	105.32
393.52	145.11
393.71	210.65
393.91	121.71
394.10	175.54
394.29	112.35
394.49	187.24
394.68	264.48
394.88	196.60
395.07	156.82
395.26	138.09
395.46	131.07
395.65	128.73
395.84	163.84
396.04	126.39
396.23	131.07
396.42	126.39
396.62	114.69
396.81	142.77
397.00	135.75
397.19	51.49
397.39	107.66
397.58	163.84
397.77	128.73
397.97	133.41
398.16	175.54
398.35	147.45
398.55	159.16
398.74	140.43
398.93	170.86
399.12	184.90
399.32	173.20
399.51	32.77
399.70	173.20
399.90	114.69
400.09	119.37
400.28	191.92
400.47	175.54
400.67	124.05
400.86	203.63
401.05	56.17
401.24	156.82
401.44	262.14
401.63	159.16
401.82	182.56
402.01	154.48
402.21	198.95
402.40	152.13
402.59	180.22
402.78	208.31
402.97	142.77
403.17	177.88
403.36	131.07
403.55	161.50
403.74	194.26
403.93	245.76
404.13	287.89
404.32	189.58
404.51	170.86
404.70	201.29
404.89	180.22
405.09	187.24
405.28	222.35
405.47	133.41
405.66	173.20
405.85	131.07
406.05	145.11
406.24	161.50
406.43	203.63
406.62	215.33
406.81	191.92
407.00	161.50
407.20	124.05
407.39	149.79
407.58	88.94
407.77	110.01
407.96	173.20
408.15	161.50
408.34	135.75
408.54	140.43
408.73	145.11
408.92	187.24
409.11	154.48
409.30	227.03
409.49	140.43
409.68	81.92
409.87	147.45
410.07	152.13
410.26	203.63
410.45	128.73
410.64	84.26
410.83	117.03
411.02	93.62
411.21	168.52
411.40	215.33
411.59	152.13
411.78	175.54
411.98	65.54
412.17	147.45
412.36	140.43
412.55	191.92
412.74	135.75
412.93	208.31
413.12	170.86
413.31	166.18
413.50	142.77
413.69	180.22
413.88	138.09
414.07	117.03
414.26	98.30
414.45	173.20
414.64	147.45
414.83	161.50
415.02	145.11
415.22	220.01
415.41	222.35
415.60	128.73
415.79	196.60
415.98	205.97
416.17	168.52
416.36	154.48
416.55	147.45
416.74	142.77
416.93	184.90
417.12	173.20
417.31	170.86
417.50	154.48
417.69	231.71
417.88	135.75
418.07	142.77
418.26	229.37
418.45	147.45
418.64	271.50
418.83	234.05
419.02	220.01
419.21	184.90
419.39	227.03
419.58	203.63
419.77	189.58
419.96	168.52
420.15	161.50
420.34	154.48
420.53	203.63
420.72	196.60
420.91	166.18
421.10	212.99
421.29	201.29
421.48	159.16
421.67	107.66
421.86	140.43
422.05	173.20
422.24	154.48
422.43	189.58
422.61	184.90
422.80	142.77
422.99	140.43
423.18	161.50
423.37	184.90
423.56	208.31
423.75	187.24
423.94	163.84
424.13	149.79
424.32	173.20
424.50	198.95
424.69	140.43
424.88	187.24
425.07	117.03
425.26	205.97
425.45	245.76
425.64	184.90
425.83	243.42
426.01	224.69
426.20	168.52
426.39	152.13
426.58	117.03
426.77	191.92
426.96	138.09
427.15	241.08
427.33	156.82
427.52	88.94
427.71	175.54
427.90	140.43
428.09	182.56
428.28	163.84
428.46	182.56
428.65	198.95
428.84	102.98
429.03	198.95
429.22	163.84
429.40	166.18
429.59	112.35
429.78	222.35
429.97	149.79
430.16	182.56
430.34	191.92
430.53	114.69
430.72	128.73
430.91	159.16
431.10	175.54
431.28	154.48
431.47	182.56
431.66	154.48
431.85	152.13
432.03	175.54
432.22	264.48
432.41	147.45
432.60	243.42
432.79	245.76
432.97	273.84
433.16	276.18
433.35	248.10
433.54	238.73
433.72	166.18
433.91	259.80
434.10	184.90
434.28	327.68
434.47	257.46
434.66	152.13
434.85	177.88
435.03	243.42
435.22	472.79
435.41	484.49
435.59	510.24
435.78	383.85
435.97	280.86
436.16	208.31
436.34	208.31
436.53	285.55
436.72	205.97
436.90	187.24
437.09	187.24
437.28	168.52
437.46	105.32
437.65	248.10
437.84	180.22
438.02	250.44
438.21	175.54
438.40	184.90
438.58	159.16
438.77	210.65
438.96	119.37
439.14	175.54
439.33	217.67
439.52	227.03
439.70	156.82
439.89	222.35
440.08	234.05
440.26	124.05
440.45	231.71
440.63	227.03
440.82	229.37
441.01	145.11
441.19	168.52
441.38	131.07
441.57	147.45
441.75	243.42
441.94	161.50
442.12	175.54
442.31	170.86
442.50	220.01
442.68	191.92
442.87	208.31
443.05	205.97
443.24	220.01
443.43	278.52
443.61	205.97
443.80	175.54
443.98	180.22
444.17	170.86
444.35	145.11
444.54	168.52
444.73	191.92
444.91	250.44
445.10	173.20
445.28	107.66
445.47	147.45
445.65	166.18
445.84	215.33
446.02	149.79
446.21	159.16
446.39	145.11
446.58	180.22
446.77	140.43
446.95	180.22
447.14	248.10
447.32	311.29
447.51	180.22
447.69	215.33
447.88	262.14
448.06	191.92
448.25	170.86
448.43	201.29
448.62	196.60
448.80	243.42
448.99	250.44
449.17	203.63
449.36	184.90
449.54	210.65
449.73	215.33
449.91	173.20
450.10	224.69
450.28	241.08
450.46	269.16
450.65	205.97
450.83	231.71
451.02	224.69
451.20	149.79
451.39	177.88
451.57	208.31
451.76	98.30
451.94	212.99
452.13	131.07
452.31	234.05
452.49	198.95
452.68	140.43
452.86	250.44
453.05	168.52
453.23	159.16
453.42	220.01
453.60	210.65
453.78	175.54
453.97	210.65
454.15	191.92
454.34	196.60
454.52	203.63
454.70	210.65
454.89	241.08
455.07	217.67
455.26	196.60
455.44	166.18
455.62	191.92
455.81	177.88
455.99	198.95
456.17	278.52
456.36	194.26
456.54	177.88
456.73	243.42
456.91	152.13
457.09	269.16
457.28	149.79
457.46	271.50
457.64	175.54
457.83	149.79
458.01	163.84
458.19	215.33
458.38	135.75
458.56	170.86
458.74	180.22
458.93	140.43
459.11	245.76
459.29	196.60
459.48	170.86
459.66	198.95
459.84	271.50
460.03	234.05
460.21	222.35
460.39	220.01
460.57	182.56
460.76	215.33
460.94	245.76
461.12	196.60
461.31	220.01
461.49	208.31
461.67	175.54
461.85	210.65
462.04	180.22
462.22	667.05
462.40	236.39
462.59	266.82
462.77	163.84
462.95	168.52
463.13	201.29
463.32	259.80
463.50	175.54
463.68	182.56
463.86	220.01
464.05	194.26
464.23	243.42
464.41	184.90
464.59	166.18
464.78	140.43
464.96	161.50
465.14	229.37
465.32	154.48
465.50	229.37
465.69	203.63
465.87	187.24
466.05	180.22
466.23	222.35
466.41	212.99
466.60	182.56
466.78	234.05
466.96	210.65
467.14	212.99
467.32	168.52
467.51	168.52
467.69	198.95
467.87	217.67
468.05	205.97
468.23	264.48
468.41	194.26
468.60	147.45
468.78	184.90
468.96	149.79
469.14	238.73
469.32	203.63
469.50	142.77
469.69	245.76
469.87	177.88
470.05	229.37
470.23	236.39
470.41	180.22
470.59	159.16
470.77	142.77
470.95	212.99
471.14	283.20
471.32	175.54
471.50	154.48
471.68	180.22
471.86	229.37
472.04	203.63
472.22	147.45
472.40	133.41
472.58	149.79
472.77	283.20
472.95	194.26
473.13	304.27
473.31	215.33
473.49	196.60
473.67	135.75
473.85	175.54
474.03	194.26
474.21	163.84
474.39	208.31
474.57	196.60
474.75	210.65
474.93	194.26
475.12	257.46
475.30	147.45
475.48	278.52
475.66	166.18
475.84	208.31
476.02	217.67
476.20	227.03
476.38	140.43
476.56	332.36
476.74	166.18
476.92	243.42
477.10	159.16
477.28	222.35
477.46	173.20
477.64	215.33
477.82	191.92
478.00	212.99
478.18	187.24
478.36	154.48
478.54	224.69
478.72	241.08
478.90	182.56
479.08	245.76
479.26	184.90
479.44	198.95
479.62	124.05
479.80	145.11
479.98	224.69
480.16	241.08
480.34	191.92
480.52	229.37
480.70	220.01
480.88	201.29
481.06	205.97
481.24	196.60
481.41	243.42
481.59	255.12
481.77	292.57
481.95	266.82
482.13	276.18
482.31	234.05
482.49	117.03
482.67	257.46
482.85	243.42
483.03	301.93
483.21	241.08
483.39	234.05
483.57	248.10
483.74	301.93
483.92	252.78
484.10	154.48
484.28	203.63
484.46	259.80
484.64	231.71
484.82	234.05
485.00	236.39
485.18	285.55
485.35	177.88
485.53	262.14
485.71	234.05
485.89	245.76
486.07	173.20
486.25	255.12
486.43	250.44
486.61	217.67
486.78	229.37
486.96	294.91
487.14	217.67
487.32	259.80
487.50	257.46
487.68	250.44
487.85	236.39
488.03	243.42
488.21	285.55
488.39	236.39
488.57	227.03
488.75	245.76
488.92	524.28
489.10	285.55
489.28	269.16
489.46	266.82
489.64	269.16
489.81	262.14
489.99	278.52
490.17	203.63
490.35	292.57
490.53	271.50
490.70	236.39
490.88	222.35
491.06	344.06
491.24	243.42
491.41	252.78
491.59	283.20
491.77	243.42
491.95	177.88
492.13	229.37
492.30	273.84
492.48	229.37
492.66	187.24
492.84	215.33
493.01	236.39
493.19	306.61
493.37	327.68
493.54	234.05
493.72	311.29
493.90	285.55
494.08	243.42
494.25	217.67
494.43	334.70
494.61	301.93
494.79	224.69
494.96	184.90
495.14	297.25
495.32	278.52
495.49	259.80
495.67	173.20
495.85	285.55
496.02	196.60
496.20	269.16
496.38	241.08
496.55	252.78
496.73	234.05
496.91	294.91
497.09	273.84
497.26	229.37
497.44	262.14
497.62	257.46
497.79	287.89
497.97	327.68
498.14	322.99
498.32	248.10
498.50	264.48
498.67	259.80
498.85	252.78
499.03	201.29
499.20	203.63
499.38	231.71
499.56	224.69
499.73	285.55
499.91	250.44
500.08	283.20
500.26	224.69
500.44	201.29
500.61	215.33
500.79	292.57
500.97	294.91
501.14	266.82
501.32	355.76
501.49	198.95
501.67	252.78
501.84	227.03
502.02	280.86
502.20	257.46
502.37	252.78
502.55	173.20
502.72	224.69
502.90	250.44
503.07	334.70
503.25	264.48
503.43	229.37
503.60	259.80
503.78	252.78
503.95	280.86
504.13	301.93
504.30	327.68
504.48	308.95
504.65	287.89
504.83	203.63
505.01	203.63
505.18	210.65
505.36	212.99
505.53	306.61
505.71	182.56
505.88	306.61
506.06	220.01
506.23	189.58
506.41	266.82
506.58	224.69
506.76	280.86
506.93	191.92
507.11	196.60
507.28	227.03
507.46	266.82
507.63	250.44
507.81	241.08
507.98	252.78
508.16	341.72
508.33	301.93
508.50	283.20
508.68	320.65
508.85	308.95
509.03	304.27
509.20	285.55
509.38	269.16
509.55	266.82
509.73	231.71
509.90	311.29
510.08	252.78
510.25	241.08
510.42	276.18
510.60	252.78
510.77	266.82
510.95	292.57
511.12	334.70
511.30	250.44
511.47	294.91
511.64	208.31
511.82	311.29
511.99	299.59
512.17	353.42
512.34	276.18
512.51	271.50
512.69	259.80
512.86	222.35
513.04	217.67
513.21	299.59
513.38	264.48
513.56	203.63
513.73	250.44
513.90	252.78
514.08	245.76
514.25	330.02
514.43	248.10
514.60	280.86
514.77	217.67
514.95	325.33
515.12	234.05
515.29	252.78
515.47	292.57
515.64	283.20
515.81	348.74
515.99	358.10
516.16	236.39
516.33	332.36
516.51	285.55
516.68	212.99
516.85	238.73
517.03	182.56
517.20	241.08
517.37	271.50
517.54	220.01
517.72	241.08
517.89	184.90
518.06	205.97
518.24	255.12
518.41	269.16
518.58	332.36
518.75	330.02
518.93	318.31
519.10	269.16
519.27	238.73
519.45	241.08
519.62	250.44
519.79	255.12
519.96	201.29
520.14	334.70
520.31	280.86
520.48	313.63
520.65	208.31
520.83	341.72
521.00	273.84
521.17	245.76
521.34	269.16
521.52	290.23
521.69	308.95
521.86	220.01
522.03	227.03
522.20	337.04
522.38	299.59
522.55	266.82
522.72	217.67
522.89	257.46
523.07	327.68
523.24	283.20
523.41	252.78
523.58	283.20
523.75	177.88
523.92	231.71
524.10	259.80
524.27	313.63
524.44	315.97
524.61	301.93
524.78	241.08
524.96	339.38
525.13	304.27
525.30	241.08
525.47	255.12
525.64	241.08
525.81	320.65
525.98	262.14
526.16	222.35
526.33	308.95
526.50	285.55
526.67	234.05
526.84	201.29
527.01	231.71
527.18	196.60
527.36	273.84
527.53	259.80
527.70	299.59
527.87	287.89
528.04	351.08
528.21	229.37
528.38	294.91
528.55	292.57
528.72	250.44
528.89	304.27
529.07	278.52
529.24	327.68
529.41	243.42
529.58	262.14
529.75	250.44
529.92	337.04
530.09	259.80
530.26	262.14
530.43	243.42
530.60	182.56
530.77	311.29
530.94	278.52
531.11	304.27
531.28	229.37
531.46	315.97
531.63	278.52
531.80	315.97
531.97	290.23
532.14	273.84
532.31	337.04
532.48	304.27
532.65	374.49
532.82	402.57
532.99	348.74
533.16	320.65
533.33	318.31
533.50	346.40
533.67	358.10
533.84	421.30
534.01	447.04
534.18	444.70
534.35	322.99
534.52	292.57
534.69	379.17
534.86	348.74
535.03	290.23
535.20	257.46
535.37	304.27
535.54	299.59
535.71	313.63
535.88	311.29
536.05	269.16
536.22	210.65
536.38	318.31
536.55	320.65
536.72	334.70
536.89	264.48
537.06	278.52
537.23	308.95
537.40	243.42
537.57	234.05
537.74	245.76
537.91	269.16
538.08	411.93
538.25	280.86
538.42	362.78
538.59	372.15
538.75	311.29
538.92	383.85
539.09	360.44
539.26	383.85
539.43	571.09
539.60	1043.88
539.77	1556.46
539.94	1568.16
540.11	999.41
540.28	755.99
540.44	692.80
540.61	510.24
540.78	545.34
540.95	477.47
541.12	564.07
541.29	564.07
541.46	704.50
541.62	575.77
541.79	561.73
541.96	554.71
542.13	547.69
542.30	568.75
542.47	566.41
542.63	564.07
542.80	484.49
542.97	550.03
543.14	540.66
543.31	547.69
543.48	447.04
543.64	500.87
543.81	479.81
543.98	486.83
544.15	484.49
544.32	475.13
544.48	599.18
544.65	475.13
544.82	456.40
544.99	463.43
545.16	589.82
545.32	533.64
545.49	821.53
545.66	1071.97
545.83	1153.88
546.00	891.74
546.16	716.20
546.33	674.07
546.50	557.05
546.67	430.66
546.83	437.68
547.00	496.19
547.17	397.89
547.34	351.08
547.50	386.19
547.67	444.70
547.84	500.87
548.00	390.87
548.17	379.17
548.34	437.68
548.51	423.64
548.67	437.68
548.84	306.61
549.01	397.89
549.18	369.80
549.34	355.76
549.51	447.04
549.68	423.64
549.84	341.72
550.01	388.53
550.18	554.71
550.34	447.04
550.51	381.51
550.68	337.04
550.84	301.93
551.01	411.93
551.18	379.17
551.34	325.33
551.51	306.61
551.68	379.17
551.84	315.97
552.01	367.46
552.18	304.27
552.34	332.36
552.51	355.76
552.68	395.55
552.84	320.65
553.01	358.10
553.18	379.17
553.34	294.91
553.51	234.05
553.67	339.38
553.84	374.49
554.01	355.76
554.17	259.80
554.34	301.93
554.51	313.63
554.67	355.76
554.84	292.57
555.00	299.59
555.17	266.82
555.33	205.97
555.50	353.42
555.67	393.21
555.83	311.29
556.00	318.31
556.16	475.13
556.33	337.04
556.50	227.03
556.66	346.40
556.83	255.12
556.99	264.48
557.16	262.14
557.32	269.16
557.49	271.50
557.65	217.67
557.82	280.86
557.98	308.95
558.15	334.70
558.32	255.12
558.48	315.97
558.65	236.39
558.81	269.16
558.98	259.80
559.14	308.95
559.31	297.25
559.47	271.50
559.64	259.80
559.80	334.70
559.97	212.99
560.13	318.31
560.30	276.18
560.46	243.42
560.63	248.10
560.79	236.39
560.96	299.59
561.12	243.42
561.29	278.52
561.45	241.08
561.61	327.68
561.78	353.42
561.94	229.37
562.11	182.56
562.27	304.27
562.44	243.42
562.60	269.16
562.77	198.95
562.93	266.82
563.10	304.27
563.26	278.52
563.42	208.31
563.59	236.39
563.75	201.29
563.92	290.23
564.08	292.57
564.24	294.91
564.41	297.25
564.57	283.20
564.74	325.33
564.90	355.76
565.07	259.80
565.23	236.39
565.39	243.42
565.56	255.12
565.72	273.84
565.88	306.61
566.05	269.16
566.21	245.76
566.38	276.18
566.54	250.44
566.70	266.82
566.87	273.84
567.03	142.77
567.19	241.08
567.36	259.80
567.52	259.80
567.68	257.46
567.85	280.86
568.01	257.46
568.17	236.39
568.34	273.84
568.50	273.84
568.66	266.82
568.83	362.78
568.99	269.16
569.15	245.76
569.32	290.23
569.48	271.50
569.64	245.76
569.81	203.63
569.97	255.12
570.13	278.52
570.30	283.20
570.46	236.39
570.62	170.86
570.78	252.78
570.95	198.95
571.11	257.46
571.27	381.51
571.43	248.10
571.60	238.73
571.76	252.78
571.92	287.89
572.09	212.99
572.25	212.99
572.41	231.71
572.57	234.05
572.74	301.93
572.90	283.20
573.06	212.99
573.22	227.03
573.38	238.73
573.55	325.33
573.71	322.99
573.87	337.04
574.03	313.63
574.20	266.82
574.36	318.31
574.52	306.61
574.68	334.70
574.84	330.02
575.01	322.99
575.17	339.38
575.33	227.03
575.49	299.59
575.65	285.55
575.82	360.44
575.98	540.66
576.14	629.60
576.30	732.59
576.46	627.26
576.62	613.22
576.79	456.40
576.95	517.26
577.11	332.36
577.27	372.15
577.43	332.36
577.59	351.08
577.75	273.84
577.92	315.97
578.08	358.10
578.24	280.86
578.40	341.72
578.56	372.15
578.72	409.59
578.88	491.51
579.04	498.53
579.21	428.32
579.37	313.63
579.53	341.72
579.69	337.04
579.85	390.87
580.01	386.19
580.17	454.06
580.33	463.43
580.49	379.17
580.65	423.64
580.82	447.04
580.98	369.80
581.14	327.68
581.30	376.83
581.46	500.87
581.62	580.45
581.78	622.58
581.94	617.90
582.10	573.43
582.26	496.19
582.42	430.66
582.58	489.17
582.74	521.94
582.90	559.39
583.06	550.03
583.22	470.45
583.38	472.79
583.54	601.52
583.70	641.31
583.86	758.33
584.02	688.12
584.18	884.72
584.34	1146.86
584.50	2698.64
584.66	19335.17
584.82	51931.81
584.98	63295.11
585.14	60589.45
585.30	45223.83
585.46	27330.44
585.62	16791.00
585.78	7878.24
585.94	3119.93
586.10	1607.95
586.26	1032.18
586.42	903.45
586.58	774.72
586.74	704.50
586.90	664.71
587.06	727.91
587.22	704.50
587.38	573.43
587.54	1055.58
587.70	3122.27
587.86	5327.06
588.02	5966.03
588.18	4292.54
588.34	2815.66
588.49	1879.45
588.65	1315.38
588.81	692.80
588.97	425.98
589.13	379.17
589.29	332.36
589.45	397.89
589.61	388.53
589.77	468.11
589.93	524.28
590.08	456.40
590.24	454.06
590.40	475.13
590.56	463.43
590.72	468.11
590.88	346.40
591.04	374.49
591.20	428.32
591.35	411.93
591.51	411.93
591.67	334.70
591.83	379.17
591.99	428.32
592.15	381.51
592.31	388.53
592.46	386.19
592.62	376.83
592.78	400.23
592.94	437.68
593.10	322.99
593.26	409.59
593.41	425.98
593.57	468.11
593.73	599.18
593.89	2312.45
594.05	6593.29
594.20	9956.64
594.36	9640.67
594.52	6401.37
594.68	3964.87
594.84	2757.15
594.99	1474.54
595.15	793.44
595.31	573.43
595.47	400.23
595.62	365.12
595.78	393.21
595.94	395.55
596.10	470.45
596.25	372.15
596.41	414.27
596.57	320.65
596.73	280.86
596.88	599.18
597.04	1289.64
597.20	2179.04
597.36	2600.34
597.51	1877.11
597.67	1336.45
597.83	999.41
597.99	720.88
598.14	482.15
598.30	374.49
598.46	327.68
598.61	423.64
598.77	395.55
598.93	393.21
599.09	353.42
599.24	344.06
599.40	355.76
599.56	304.27
599.71	400.23
599.87	334.70
600.03	290.23
600.18	320.65
600.34	308.95
600.50	344.06
600.65	325.33
600.81	353.42
600.97	276.18
601.12	227.03
601.28	252.78
601.44	351.08
601.59	376.83
601.75	287.89
601.91	308.95
602.06	290.23
602.22	414.27
602.37	713.86
602.53	1600.93
602.69	2483.31
602.84	2745.45
603.00	1989.46
603.16	1502.62
603.31	992.39
603.47	734.93
603.62	472.79
603.78	355.76
603.94	397.89
604.09	304.27
604.25	353.42
604.40	320.65
604.56	313.63
604.71	325.33
604.87	315.97
605.03	330.02
605.18	294.91
605.34	301.93
605.49	292.57
605.65	372.15
605.80	337.04
605.96	306.61
606.12	388.53
606.27	374.49
606.43	414.27
606.58	458.74
606.74	765.36
606.89	2930.35
607.05	6057.31
607.20	8301.88
607.36	7155.02
607.51	5006.41
607.67	3220.58
607.82	2209.47
607.98	1252.19
608.13	746.63
608.29	589.82
608.44	533.64
608.60	468.11
608.75	571.09
608.91	980.68
609.06	4575.75
609.22	10691.57
609.37	14953.68
609.53	13139.77
609.68	8975.95
609.84	5806.87
609.99	3988.27
610.15	2338.20
