SpectraSuite Data File
++++++++++++++++++++++++++++++++++++
Date: Fri Oct 04 11:34:03 GMT-05:00 2013
User: price-jones
Dark Spectrum Present: No
Reference Spectrum Present: No
Number of Sampled Component Spectra: 1
Spectrometers: USB2+H05261
Integration Time (usec): 100000 (USB2+H05261)
Spectra Averaged: 1 (USB2+H05261)
Boxcar Smoothing: 0 (USB2+H05261)
Correct for Electrical Dark: No (USB2+H05261)
Strobe/Lamp Enabled: No (USB2+H05261)
Correct for Detector Non-linearity: No (USB2+H05261)
Correct for Stray Light: No (USB2+H05261)
Number of Pixels in Processed Spectrum: 2048
>>>>>Begin Processed Spectral Data<<<<<
365.73	81.92
365.92	81.92
366.12	81.92
366.32	0.00
366.52	0.00
366.72	37.45
366.91	2.34
367.11	0.00
367.31	0.00
367.51	0.00
367.70	0.00
367.90	0.00
368.10	7.02
368.30	0.00
368.49	0.00
368.69	63.19
368.89	0.00
369.09	0.00
369.28	11.70
369.48	58.51
369.68	0.00
369.87	28.09
370.07	88.94
370.27	98.30
370.47	88.94
370.66	35.11
370.86	16.38
371.06	95.96
371.25	107.66
371.45	60.85
371.65	84.26
371.84	117.03
372.04	44.47
372.24	163.84
372.44	161.50
372.63	100.64
372.83	210.65
373.03	114.69
373.22	114.69
373.42	126.39
373.62	107.66
373.81	173.20
374.01	208.31
374.21	215.33
374.40	201.29
374.60	184.90
374.79	163.84
374.99	107.66
375.19	187.24
375.38	140.43
375.58	117.03
375.78	184.90
375.97	147.45
376.17	220.01
376.37	102.98
376.56	147.45
376.76	145.11
376.95	117.03
377.15	147.45
377.35	140.43
377.54	161.50
377.74	173.20
377.93	110.01
378.13	159.16
378.33	149.79
378.52	154.48
378.72	220.01
378.91	161.50
379.11	142.77
379.31	163.84
379.50	147.45
379.70	135.75
379.89	154.48
380.09	114.69
380.28	159.16
380.48	187.24
380.68	205.97
380.87	145.11
381.07	77.24
381.26	198.95
381.46	161.50
381.65	124.05
381.85	152.13
382.04	93.62
382.24	161.50
382.43	149.79
382.63	126.39
382.83	119.37
383.02	145.11
383.22	93.62
383.41	126.39
383.61	131.07
383.80	138.09
384.00	70.22
384.19	187.24
384.39	105.32
384.58	184.90
384.78	152.13
384.97	152.13
385.17	201.29
385.36	159.16
385.56	182.56
385.75	110.01
385.95	93.62
386.14	163.84
386.34	117.03
386.53	156.82
386.72	205.97
386.92	187.24
387.11	198.95
387.31	175.54
387.50	119.37
387.70	117.03
387.89	163.84
388.09	110.01
388.28	70.22
388.48	126.39
388.67	215.33
388.86	152.13
389.06	182.56
389.25	168.52
389.45	133.41
389.64	98.30
389.84	138.09
390.03	220.01
390.22	145.11
390.42	194.26
390.61	60.85
390.81	131.07
391.00	149.79
391.19	257.46
391.39	142.77
391.58	147.45
391.78	138.09
391.97	147.45
392.16	189.58
392.36	196.60
392.55	133.41
392.75	140.43
392.94	154.48
393.13	173.20
393.33	131.07
393.52	196.60
393.71	222.35
393.91	229.37
394.10	114.69
394.29	133.41
394.49	175.54
394.68	142.77
394.88	205.97
395.07	196.60
395.26	114.69
395.46	84.26
395.65	208.31
395.84	140.43
396.04	217.67
396.23	154.48
396.42	81.92
396.62	124.05
396.81	142.77
397.00	117.03
397.19	217.67
397.39	194.26
397.58	112.35
397.77	159.16
397.97	191.92
398.16	177.88
398.35	100.64
398.55	156.82
398.74	140.43
398.93	121.71
399.12	203.63
399.32	166.18
399.51	175.54
399.70	133.41
399.90	91.28
400.09	105.32
400.28	184.90
400.47	170.86
400.67	128.73
400.86	119.37
401.05	205.97
401.24	187.24
401.44	152.13
401.63	266.82
401.82	161.50
402.01	159.16
402.21	147.45
402.40	166.18
402.59	175.54
402.78	208.31
402.97	135.75
403.17	133.41
403.36	138.09
403.55	154.48
403.74	159.16
403.93	210.65
404.13	255.12
404.32	299.59
404.51	287.89
404.70	168.52
404.89	159.16
405.09	124.05
405.28	147.45
405.47	98.30
405.66	201.29
405.85	175.54
406.05	196.60
406.24	135.75
406.43	166.18
406.62	238.73
406.81	184.90
407.00	196.60
407.20	168.52
407.39	175.54
407.58	135.75
407.77	241.08
407.96	184.90
408.15	173.20
408.34	133.41
408.54	124.05
408.73	182.56
408.92	154.48
409.11	147.45
409.30	154.48
409.49	210.65
409.68	196.60
409.87	180.22
410.07	166.18
410.26	135.75
410.45	229.37
410.64	60.85
410.83	177.88
411.02	152.13
411.21	173.20
411.40	166.18
411.59	194.26
411.78	175.54
411.98	217.67
412.17	201.29
412.36	170.86
412.55	154.48
412.74	112.35
412.93	191.92
413.12	133.41
413.31	159.16
413.50	110.01
413.69	133.41
413.88	163.84
414.07	168.52
414.26	149.79
414.45	145.11
414.64	154.48
414.83	180.22
415.02	105.32
415.22	117.03
415.41	177.88
415.60	166.18
415.79	149.79
415.98	243.42
416.17	187.24
416.36	196.60
416.55	156.82
416.74	184.90
416.93	170.86
417.12	196.60
417.31	196.60
417.50	138.09
417.69	238.73
417.88	154.48
418.07	180.22
418.26	234.05
418.45	145.11
418.64	217.67
418.83	210.65
419.02	222.35
419.21	234.05
419.39	184.90
419.58	182.56
419.77	220.01
419.96	280.86
420.15	224.69
420.34	105.32
420.53	121.71
420.72	180.22
420.91	147.45
421.10	121.71
421.29	145.11
421.48	133.41
421.67	168.52
421.86	166.18
422.05	250.44
422.24	149.79
422.43	117.03
422.61	215.33
422.80	138.09
422.99	196.60
423.18	203.63
423.37	217.67
423.56	124.05
423.75	220.01
423.94	152.13
424.13	205.97
424.32	152.13
424.50	145.11
424.69	184.90
424.88	182.56
425.07	182.56
425.26	152.13
425.45	252.78
425.64	264.48
425.83	231.71
426.01	259.80
426.20	194.26
426.39	177.88
426.58	198.95
426.77	189.58
426.96	180.22
427.15	196.60
427.33	124.05
427.52	86.60
427.71	156.82
427.90	196.60
428.09	205.97
428.28	173.20
428.46	159.16
428.65	194.26
428.84	161.50
429.03	177.88
429.22	93.62
429.40	145.11
429.59	135.75
429.78	203.63
429.97	187.24
430.16	191.92
430.34	191.92
430.53	198.95
430.72	102.98
430.91	156.82
431.10	149.79
431.28	222.35
431.47	236.39
431.66	224.69
431.85	154.48
432.03	163.84
432.22	210.65
432.41	163.84
432.60	196.60
432.79	220.01
432.97	311.29
433.16	322.99
433.35	313.63
433.54	203.63
433.72	198.95
433.91	227.03
434.10	189.58
434.28	222.35
434.47	212.99
434.66	220.01
434.85	170.86
435.03	217.67
435.22	341.72
435.41	510.24
435.59	524.28
435.78	379.17
435.97	276.18
436.16	231.71
436.34	154.48
436.53	203.63
436.72	152.13
436.90	248.10
437.09	140.43
437.28	175.54
437.46	135.75
437.65	180.22
437.84	201.29
438.02	187.24
438.21	234.05
438.40	168.52
438.58	170.86
438.77	189.58
438.96	154.48
439.14	222.35
439.33	163.84
439.52	140.43
439.70	194.26
439.89	184.90
440.08	170.86
440.26	203.63
440.45	201.29
440.63	205.97
440.82	173.20
441.01	191.92
441.19	201.29
441.38	201.29
441.57	124.05
441.75	189.58
441.94	161.50
442.12	217.67
442.31	86.60
442.50	152.13
442.68	128.73
442.87	196.60
443.05	224.69
443.24	257.46
443.43	208.31
443.61	149.79
443.80	156.82
443.98	236.39
444.17	229.37
444.35	215.33
444.54	149.79
444.73	175.54
444.91	205.97
445.10	175.54
445.28	170.86
445.47	205.97
445.65	189.58
445.84	168.52
446.02	220.01
446.21	182.56
446.39	147.45
446.58	147.45
446.77	145.11
446.95	135.75
447.14	184.90
447.32	250.44
447.51	205.97
447.69	152.13
447.88	194.26
448.06	168.52
448.25	182.56
448.43	191.92
448.62	184.90
448.80	159.16
448.99	238.73
449.17	189.58
449.36	177.88
449.54	184.90
449.73	177.88
449.91	252.78
450.10	166.18
450.28	271.50
450.46	145.11
450.65	234.05
450.83	227.03
451.02	201.29
451.20	208.31
451.39	163.84
451.57	142.77
451.76	194.26
451.94	250.44
452.13	229.37
452.31	255.12
452.49	220.01
452.68	173.20
452.86	292.57
453.05	297.25
453.23	180.22
453.42	189.58
453.60	220.01
453.78	117.03
453.97	110.01
454.15	201.29
454.34	208.31
454.52	154.48
454.70	210.65
454.89	210.65
455.07	222.35
455.26	142.77
455.44	191.92
455.62	175.54
455.81	180.22
455.99	229.37
456.17	257.46
456.36	180.22
456.54	114.69
456.73	238.73
456.91	154.48
457.09	229.37
457.28	184.90
457.46	149.79
457.64	215.33
457.83	156.82
458.01	184.90
458.19	191.92
458.38	180.22
458.56	229.37
458.74	117.03
458.93	203.63
459.11	163.84
459.29	205.97
459.48	212.99
459.66	182.56
459.84	252.78
460.03	259.80
460.21	236.39
460.39	210.65
460.57	250.44
460.76	177.88
460.94	177.88
461.12	231.71
461.31	252.78
461.49	210.65
461.67	140.43
461.85	231.71
462.04	217.67
462.22	664.71
462.40	229.37
462.59	184.90
462.77	205.97
462.95	191.92
463.13	241.08
463.32	217.67
463.50	170.86
463.68	198.95
463.86	131.07
464.05	140.43
464.23	292.57
464.41	301.93
464.59	238.73
464.78	198.95
464.96	180.22
465.14	203.63
465.32	177.88
465.50	217.67
465.69	271.50
465.87	156.82
466.05	163.84
466.23	170.86
466.41	257.46
466.60	229.37
466.78	196.60
466.96	241.08
467.14	245.76
467.32	224.69
467.51	187.24
467.69	236.39
467.87	259.80
468.05	201.29
468.23	220.01
468.41	210.65
468.60	175.54
468.78	241.08
468.96	250.44
469.14	266.82
469.32	234.05
469.50	170.86
469.69	175.54
469.87	215.33
470.05	180.22
470.23	145.11
470.41	177.88
470.59	255.12
470.77	173.20
470.95	145.11
471.14	177.88
471.32	187.24
471.50	311.29
471.68	250.44
471.86	191.92
472.04	212.99
472.22	196.60
472.40	205.97
472.58	238.73
472.77	175.54
472.95	140.43
473.13	276.18
473.31	215.33
473.49	124.05
473.67	182.56
473.85	145.11
474.03	264.48
474.21	210.65
474.39	262.14
474.57	264.48
474.75	229.37
474.93	212.99
475.12	198.95
475.30	208.31
475.48	161.50
475.66	147.45
475.84	229.37
476.02	138.09
476.20	215.33
476.38	234.05
476.56	264.48
476.74	227.03
476.92	220.01
477.10	227.03
477.28	217.67
477.46	147.45
477.64	220.01
477.82	262.14
478.00	177.88
478.18	276.18
478.36	196.60
478.54	224.69
478.72	201.29
478.90	238.73
479.08	220.01
479.26	191.92
479.44	215.33
479.62	196.60
479.80	217.67
479.98	276.18
480.16	212.99
480.34	229.37
480.52	234.05
480.70	215.33
480.88	227.03
481.06	255.12
481.24	170.86
481.41	210.65
481.59	215.33
481.77	205.97
481.95	255.12
482.13	215.33
482.31	189.58
482.49	198.95
482.67	280.86
482.85	217.67
483.03	259.80
483.21	264.48
483.39	227.03
483.57	236.39
483.74	241.08
483.92	248.10
484.10	212.99
484.28	262.14
484.46	264.48
484.64	273.84
484.82	210.65
485.00	220.01
485.18	191.92
485.35	330.02
485.53	191.92
485.71	236.39
485.89	154.48
486.07	229.37
486.25	315.97
486.43	222.35
486.61	177.88
486.78	201.29
486.96	182.56
487.14	320.65
487.32	273.84
487.50	231.71
487.68	287.89
487.85	318.31
488.03	311.29
488.21	308.95
488.39	283.20
488.57	250.44
488.75	252.78
488.92	559.39
489.10	224.69
489.28	322.99
489.46	222.35
489.64	318.31
489.81	276.18
489.99	322.99
490.17	318.31
490.35	280.86
490.53	248.10
490.70	287.89
490.88	283.20
491.06	313.63
491.24	217.67
491.41	227.03
491.59	252.78
491.77	238.73
491.95	257.46
492.13	222.35
492.30	264.48
492.48	173.20
492.66	241.08
492.84	152.13
493.01	248.10
493.19	222.35
493.37	311.29
493.54	257.46
493.72	322.99
493.90	283.20
494.08	217.67
494.25	250.44
494.43	320.65
494.61	330.02
494.79	266.82
494.96	229.37
495.14	210.65
495.32	255.12
495.49	280.86
495.67	215.33
495.85	257.46
496.02	243.42
496.20	194.26
496.38	259.80
496.55	252.78
496.73	191.92
496.91	266.82
497.09	320.65
497.26	280.86
497.44	278.52
497.62	304.27
497.79	252.78
497.97	196.60
498.14	238.73
498.32	220.01
498.50	238.73
498.67	198.95
498.85	285.55
499.03	252.78
499.20	313.63
499.38	217.67
499.56	220.01
499.73	285.55
499.91	287.89
500.08	273.84
500.26	264.48
500.44	243.42
500.61	236.39
500.79	273.84
500.97	259.80
501.14	304.27
501.32	322.99
501.49	280.86
501.67	243.42
501.84	266.82
502.02	250.44
502.20	306.61
502.37	187.24
502.55	294.91
502.72	250.44
502.90	318.31
503.07	229.37
503.25	346.40
503.43	227.03
503.60	322.99
503.78	266.82
503.95	313.63
504.13	257.46
504.30	257.46
504.48	325.33
504.65	264.48
504.83	311.29
505.01	287.89
505.18	248.10
505.36	224.69
505.53	220.01
505.71	264.48
505.88	355.76
506.06	322.99
506.23	203.63
506.41	285.55
506.58	264.48
506.76	273.84
506.93	262.14
507.11	245.76
507.28	238.73
507.46	245.76
507.63	332.36
507.81	238.73
507.98	245.76
508.16	259.80
508.33	217.67
508.50	271.50
508.68	194.26
508.85	142.77
509.03	264.48
509.20	358.10
509.38	252.78
509.55	315.97
509.73	276.18
509.90	208.31
510.08	283.20
510.25	215.33
510.42	259.80
510.60	294.91
510.77	292.57
510.95	313.63
511.12	294.91
511.30	315.97
511.47	278.52
511.64	327.68
511.82	313.63
511.99	259.80
512.17	217.67
512.34	269.16
512.51	292.57
512.69	222.35
512.86	360.44
513.04	220.01
513.21	299.59
513.38	234.05
513.56	159.16
513.73	311.29
513.90	245.76
514.08	248.10
514.25	238.73
514.43	339.38
514.60	327.68
514.77	273.84
514.95	292.57
515.12	248.10
515.29	271.50
515.47	297.25
515.64	320.65
515.81	283.20
515.99	203.63
516.16	250.44
516.33	301.93
516.51	238.73
516.68	236.39
516.85	297.25
517.03	210.65
517.20	308.95
517.37	315.97
517.54	217.67
517.72	201.29
517.89	187.24
518.06	224.69
518.24	287.89
518.41	210.65
518.58	276.18
518.75	285.55
518.93	304.27
519.10	322.99
519.27	191.92
519.45	280.86
519.62	311.29
519.79	196.60
519.96	255.12
520.14	180.22
520.31	280.86
520.48	334.70
520.65	255.12
520.83	308.95
521.00	294.91
521.17	198.95
521.34	262.14
521.52	250.44
521.69	285.55
521.86	220.01
522.03	241.08
522.20	248.10
522.38	292.57
522.55	294.91
522.72	297.25
522.89	220.01
523.07	273.84
523.24	191.92
523.41	262.14
523.58	187.24
523.75	262.14
523.92	280.86
524.10	248.10
524.27	201.29
524.44	304.27
524.61	306.61
524.78	241.08
524.96	278.52
525.13	280.86
525.30	334.70
525.47	220.01
525.64	285.55
525.81	287.89
525.98	313.63
526.16	299.59
526.33	276.18
526.50	182.56
526.67	224.69
526.84	203.63
527.01	243.42
527.18	257.46
527.36	259.80
527.53	283.20
527.70	318.31
527.87	318.31
528.04	266.82
528.21	234.05
528.38	306.61
528.55	198.95
528.72	266.82
528.89	341.72
529.07	294.91
529.24	283.20
529.41	325.33
529.58	229.37
529.75	313.63
529.92	257.46
530.09	255.12
530.26	337.04
530.43	292.57
530.60	248.10
530.77	266.82
530.94	287.89
531.11	245.76
531.28	297.25
531.46	276.18
531.63	285.55
531.80	273.84
531.97	257.46
532.14	238.73
532.31	252.78
532.48	269.16
532.65	376.83
532.82	409.59
532.99	470.45
533.16	421.30
533.33	318.31
533.50	358.10
533.67	362.78
533.84	451.72
534.01	437.68
534.18	449.38
534.35	358.10
534.52	411.93
534.69	332.36
534.86	344.06
535.03	320.65
535.20	341.72
535.37	311.29
535.54	297.25
535.71	320.65
535.88	353.42
536.05	276.18
536.22	381.51
536.38	301.93
536.55	255.12
536.72	318.31
536.89	259.80
537.06	327.68
537.23	379.17
537.40	222.35
537.57	311.29
537.74	374.49
537.91	327.68
538.08	383.85
538.25	285.55
538.42	372.15
538.59	320.65
538.75	292.57
538.92	332.36
539.09	341.72
539.26	369.80
539.43	599.18
539.60	1156.22
539.77	1755.40
539.94	1748.38
540.11	1270.91
540.28	875.36
540.44	664.71
540.61	582.79
540.78	498.53
540.95	425.98
541.12	622.58
541.29	564.07
541.46	678.76
541.62	653.01
541.79	671.73
541.96	650.67
542.13	543.00
542.30	535.98
542.47	526.62
542.63	482.15
542.80	458.74
542.97	561.73
543.14	465.77
543.31	552.37
543.48	571.09
543.64	606.20
543.81	489.17
543.98	561.73
544.15	397.89
544.32	449.38
544.48	500.87
544.65	524.28
544.82	503.22
544.99	550.03
545.16	564.07
545.32	500.87
545.49	830.89
545.66	999.41
545.83	1116.44
546.00	1057.92
546.16	753.65
546.33	688.12
546.50	622.58
546.67	538.32
546.83	543.00
547.00	503.22
547.17	430.66
547.34	369.80
547.50	425.98
547.67	423.64
547.84	409.59
548.00	421.30
548.17	428.32
548.34	400.23
548.51	388.53
548.67	414.27
548.84	367.46
549.01	416.62
549.18	360.44
549.34	404.91
549.51	362.78
549.68	397.89
549.84	379.17
550.01	407.25
550.18	430.66
550.34	496.19
550.51	397.89
550.68	386.19
550.84	365.12
551.01	297.25
551.18	400.23
551.34	337.04
551.51	229.37
551.68	379.17
551.84	330.02
552.01	395.55
552.18	383.85
552.34	346.40
552.51	313.63
552.68	304.27
552.84	250.44
553.01	351.08
553.18	479.81
553.34	346.40
553.51	248.10
553.67	327.68
553.84	367.46
554.01	311.29
554.17	341.72
554.34	355.76
554.51	322.99
554.67	313.63
554.84	311.29
555.00	276.18
555.17	264.48
555.33	198.95
555.50	236.39
555.67	287.89
555.83	299.59
556.00	318.31
556.16	521.94
556.33	285.55
556.50	287.89
556.66	264.48
556.83	304.27
556.99	259.80
557.16	313.63
557.32	238.73
557.49	313.63
557.65	215.33
557.82	255.12
557.98	306.61
558.15	337.04
558.32	264.48
558.48	264.48
558.65	276.18
558.81	236.39
558.98	257.46
559.14	318.31
559.31	262.14
559.47	376.83
559.64	266.82
559.80	280.86
559.97	212.99
560.13	334.70
560.30	287.89
560.46	208.31
560.63	320.65
560.79	283.20
560.96	285.55
561.12	264.48
561.29	266.82
561.45	220.01
561.61	257.46
561.78	376.83
561.94	280.86
562.11	161.50
562.27	332.36
562.44	262.14
562.60	252.78
562.77	278.52
562.93	367.46
563.10	273.84
563.26	266.82
563.42	273.84
563.59	341.72
563.75	287.89
563.92	304.27
564.08	243.42
564.24	271.50
564.41	299.59
564.57	280.86
564.74	243.42
564.90	283.20
565.07	273.84
565.23	393.21
565.39	255.12
565.56	320.65
565.72	306.61
565.88	262.14
566.05	325.33
566.21	301.93
566.38	322.99
566.54	266.82
566.70	250.44
566.87	372.15
567.03	255.12
567.19	308.95
567.36	297.25
567.52	262.14
567.68	290.23
567.85	332.36
568.01	287.89
568.17	266.82
568.34	234.05
568.50	245.76
568.66	264.48
568.83	348.74
568.99	280.86
569.15	355.76
569.32	231.71
569.48	245.76
569.64	297.25
569.81	374.49
569.97	257.46
570.13	313.63
570.30	245.76
570.46	187.24
570.62	264.48
570.78	210.65
570.95	241.08
571.11	339.38
571.27	287.89
571.43	290.23
571.60	273.84
571.76	297.25
571.92	290.23
572.09	255.12
572.25	250.44
572.41	175.54
572.57	285.55
572.74	318.31
572.90	285.55
573.06	325.33
573.22	280.86
573.38	229.37
573.55	304.27
573.71	266.82
573.87	255.12
574.03	198.95
574.20	215.33
574.36	346.40
574.52	348.74
574.68	383.85
574.84	337.04
575.01	306.61
575.17	271.50
575.33	283.20
575.49	355.76
575.65	355.76
575.82	402.57
575.98	608.54
576.14	746.63
576.30	891.74
576.46	718.54
576.62	573.43
576.79	578.11
576.95	449.38
577.11	440.02
577.27	341.72
577.43	306.61
577.59	318.31
577.75	355.76
577.92	369.80
578.08	383.85
578.24	348.74
578.40	367.46
578.56	454.06
578.72	435.34
578.88	458.74
579.04	449.38
579.21	355.76
579.37	297.25
579.53	297.25
579.69	306.61
579.85	358.10
580.01	496.19
580.17	435.34
580.33	447.04
580.49	409.59
580.65	526.62
580.82	330.02
580.98	372.15
581.14	414.27
581.30	510.24
581.46	507.90
581.62	655.35
581.78	770.04
581.94	706.84
582.10	603.86
582.26	566.41
582.42	543.00
582.58	575.77
582.74	458.74
582.90	498.53
583.06	641.31
583.22	557.05
583.38	533.64
583.54	596.84
583.70	678.76
583.86	723.23
584.02	959.62
584.18	1088.35
584.34	1378.58
584.50	3117.59
584.66	23412.38
584.82	57095.03
584.98	65535.00
585.14	64030.04
585.30	50557.91
585.46	31091.68
585.62	19440.49
585.78	9135.11
585.94	3644.21
586.10	1809.23
586.26	1163.25
586.42	997.07
586.58	823.87
586.74	770.04
586.90	791.10
587.06	819.19
587.22	732.59
587.38	685.78
587.54	1338.79
587.70	3733.15
587.86	6272.64
588.02	6918.62
588.18	4903.42
588.34	3145.68
588.49	2047.97
588.65	1322.40
588.81	739.61
588.97	510.24
589.13	421.30
589.29	381.51
589.45	493.85
589.61	379.17
589.77	442.36
589.93	571.09
590.08	425.98
590.24	559.39
590.40	503.22
590.56	463.43
590.72	379.17
590.88	355.76
591.04	376.83
591.20	374.49
591.35	456.40
591.51	440.02
591.67	414.27
591.83	367.46
591.99	423.64
592.15	433.00
592.31	383.85
592.46	404.91
592.62	444.70
592.78	400.23
592.94	505.56
593.10	407.25
593.26	400.23
593.41	500.87
593.57	463.43
593.73	688.12
593.89	2904.60
594.05	7733.13
594.20	11791.62
594.36	11096.48
594.52	7258.00
594.68	4730.22
594.84	3152.70
594.99	1825.62
595.15	851.96
595.31	484.49
595.47	442.36
595.62	414.27
595.78	318.31
595.94	383.85
596.10	437.68
596.25	442.36
596.41	440.02
596.57	353.42
596.73	416.62
596.88	620.24
597.04	1472.20
597.20	2466.92
597.36	2818.00
597.51	2232.87
597.67	1469.86
597.83	1102.39
597.99	784.08
598.14	505.56
598.30	440.02
598.46	386.19
598.61	393.21
598.77	461.09
598.93	376.83
599.09	351.08
599.24	311.29
599.40	374.49
599.56	369.80
599.71	332.36
599.87	411.93
600.03	334.70
600.18	308.95
600.34	381.51
600.50	311.29
600.65	262.14
600.81	266.82
600.97	365.12
601.12	283.20
601.28	337.04
601.44	341.72
601.59	231.71
601.75	280.86
601.91	299.59
602.06	362.78
602.22	421.30
602.37	788.76
602.53	1743.70
602.69	2930.35
602.84	3094.19
603.00	2209.47
603.16	1516.67
603.31	1104.73
603.47	807.48
603.62	491.51
603.78	456.40
603.94	407.25
604.09	355.76
604.25	365.12
604.40	344.06
604.56	341.72
604.71	379.17
604.87	330.02
605.03	294.91
605.18	379.17
605.34	383.85
605.49	409.59
605.65	355.76
605.80	346.40
605.96	297.25
606.12	367.46
606.27	477.47
606.43	348.74
606.58	484.49
606.74	784.08
606.89	3548.25
607.05	7360.98
607.20	10078.35
607.36	8329.97
607.51	5614.95
607.67	3845.50
607.82	2511.39
607.98	1507.30
608.13	842.59
608.29	578.11
608.44	566.41
608.60	524.28
608.75	528.96
608.91	1256.87
609.06	5572.82
609.22	12697.41
609.37	17411.25
609.53	15250.93
609.68	10342.83
609.84	6778.19
609.99	4571.07
