SpectraSuite Data File
++++++++++++++++++++++++++++++++++++
Date: Fri Oct 04 12:13:45 GMT-05:00 2013
User: price-jones
Dark Spectrum Present: No
Reference Spectrum Present: No
Number of Sampled Component Spectra: 1
Spectrometers: USB2+H05261
Integration Time (usec): 10000 (USB2+H05261)
Spectra Averaged: 1 (USB2+H05261)
Boxcar Smoothing: 0 (USB2+H05261)
Correct for Electrical Dark: No (USB2+H05261)
Strobe/Lamp Enabled: No (USB2+H05261)
Correct for Detector Non-linearity: No (USB2+H05261)
Correct for Stray Light: No (USB2+H05261)
Number of Pixels in Processed Spectrum: 2048
>>>>>Begin Processed Spectral Data<<<<<
365.73	0.00
365.92	0.00
366.12	0.00
366.32	0.00
366.52	0.00
366.72	0.00
366.91	0.00
367.11	0.00
367.31	0.00
367.51	0.00
367.70	0.00
367.90	0.00
368.10	0.00
368.30	0.00
368.49	0.00
368.69	0.00
368.89	0.00
369.09	0.00
369.28	0.00
369.48	0.00
369.68	0.00
369.87	0.00
370.07	0.00
370.27	0.00
370.47	0.00
370.66	0.00
370.86	0.00
371.06	7.02
371.25	77.24
371.45	0.00
371.65	4.68
371.84	14.04
372.04	65.54
372.24	121.71
372.44	98.30
372.63	84.26
372.83	49.15
373.03	0.00
373.22	39.79
373.42	74.90
373.62	117.03
373.81	102.98
374.01	65.54
374.21	60.85
374.40	93.62
374.60	30.43
374.79	72.56
374.99	102.98
375.19	110.01
375.38	63.19
375.58	0.00
375.78	7.02
375.97	117.03
376.17	72.56
376.37	7.02
376.56	86.60
376.76	56.17
376.95	35.11
377.15	49.15
377.35	105.32
377.54	128.73
377.74	91.28
377.93	81.92
378.13	140.43
378.33	98.30
378.52	7.02
378.72	16.38
378.91	84.26
379.11	65.54
379.31	39.79
379.50	77.24
379.70	114.69
379.89	100.64
380.09	35.11
380.28	72.56
380.48	67.88
380.68	0.00
380.87	18.72
381.07	81.92
381.26	112.35
381.46	102.98
381.65	128.73
381.85	77.24
382.04	30.43
382.24	32.77
382.43	0.00
382.63	21.06
382.83	46.81
383.02	79.58
383.22	25.75
383.41	37.45
383.61	28.09
383.80	18.72
384.00	46.81
384.19	35.11
384.39	58.51
384.58	102.98
384.78	95.96
384.97	81.92
385.17	49.15
385.36	0.00
385.56	65.54
385.75	72.56
385.95	84.26
386.14	42.13
386.34	84.26
386.53	63.19
386.72	145.11
386.92	28.09
387.11	131.07
387.31	126.39
387.50	25.75
387.70	102.98
387.89	23.41
388.09	46.81
388.28	2.34
388.48	105.32
388.67	16.38
388.86	119.37
389.06	100.64
389.25	56.17
389.45	35.11
389.64	110.01
389.84	56.17
390.03	70.22
390.22	30.43
390.42	56.17
390.61	60.85
390.81	149.79
391.00	133.41
391.19	67.88
391.39	74.90
391.58	79.58
391.78	14.04
391.97	91.28
392.16	28.09
392.36	91.28
392.55	56.17
392.75	91.28
392.94	51.49
393.13	98.30
393.33	46.81
393.52	93.62
393.71	0.00
393.91	42.13
394.10	67.88
394.29	128.73
394.49	152.13
394.68	79.58
394.88	25.75
395.07	114.69
395.26	65.54
395.46	77.24
395.65	112.35
395.84	86.60
396.04	23.41
396.23	42.13
396.42	14.04
396.62	121.71
396.81	79.58
397.00	72.56
397.19	79.58
397.39	70.22
397.58	88.94
397.77	121.71
397.97	58.51
398.16	67.88
398.35	114.69
398.55	107.66
398.74	102.98
398.93	86.60
399.12	88.94
399.32	107.66
399.51	88.94
399.70	53.83
399.90	119.37
400.09	95.96
400.28	147.45
400.47	65.54
400.67	91.28
400.86	93.62
401.05	114.69
401.24	133.41
401.44	107.66
401.63	145.11
401.82	102.98
402.01	140.43
402.21	93.62
402.40	110.01
402.59	77.24
402.78	182.56
402.97	149.79
403.17	86.60
403.36	135.75
403.55	147.45
403.74	102.98
403.93	30.43
404.13	126.39
404.32	147.45
404.51	77.24
404.70	110.01
404.89	142.77
405.09	173.20
405.28	105.32
405.47	140.43
405.66	180.22
405.85	175.54
406.05	128.73
406.24	135.75
406.43	56.17
406.62	133.41
406.81	128.73
407.00	100.64
407.20	114.69
407.39	145.11
407.58	145.11
407.77	100.64
407.96	56.17
408.15	124.05
408.34	133.41
408.54	147.45
408.73	177.88
408.92	128.73
409.11	88.94
409.30	119.37
409.49	121.71
409.68	145.11
409.87	35.11
410.07	58.51
410.26	100.64
410.45	145.11
410.64	173.20
410.83	152.13
411.02	149.79
411.21	133.41
411.40	212.99
411.59	114.69
411.78	102.98
411.98	163.84
412.17	234.05
412.36	107.66
412.55	205.97
412.74	117.03
412.93	142.77
413.12	205.97
413.31	147.45
413.50	138.09
413.69	166.18
413.88	184.90
414.07	159.16
414.26	196.60
414.45	142.77
414.64	135.75
414.83	119.37
415.02	175.54
415.22	126.39
415.41	170.86
415.60	170.86
415.79	114.69
415.98	154.48
416.17	105.32
416.36	142.77
416.55	191.92
416.74	110.01
416.93	205.97
417.12	95.96
417.31	135.75
417.50	182.56
417.69	147.45
417.88	212.99
418.07	173.20
418.26	102.98
418.45	177.88
418.64	194.26
418.83	121.71
419.02	114.69
419.21	58.51
419.39	131.07
419.58	196.60
419.77	114.69
419.96	119.37
420.15	198.95
420.34	166.18
420.53	187.24
420.72	184.90
420.91	154.48
421.10	182.56
421.29	156.82
421.48	231.71
421.67	124.05
421.86	140.43
422.05	110.01
422.24	95.96
422.43	145.11
422.61	187.24
422.80	184.90
422.99	145.11
423.18	121.71
423.37	135.75
423.56	142.77
423.75	177.88
423.94	128.73
424.13	166.18
424.32	152.13
424.50	93.62
424.69	128.73
424.88	145.11
425.07	152.13
425.26	51.49
425.45	212.99
425.64	175.54
425.83	102.98
426.01	182.56
426.20	124.05
426.39	74.90
426.58	212.99
426.77	124.05
426.96	119.37
427.15	131.07
427.33	79.58
427.52	81.92
427.71	159.16
427.90	152.13
428.09	63.19
428.28	93.62
428.46	163.84
428.65	163.84
428.84	110.01
429.03	140.43
429.22	135.75
429.40	107.66
429.59	112.35
429.78	133.41
429.97	135.75
430.16	196.60
430.34	124.05
430.53	117.03
430.72	58.51
430.91	100.64
431.10	140.43
431.28	147.45
431.47	135.75
431.66	105.32
431.85	107.66
432.03	163.84
432.22	128.73
432.41	163.84
432.60	149.79
432.79	170.86
432.97	175.54
433.16	203.63
433.35	196.60
433.54	79.58
433.72	133.41
433.91	212.99
434.10	156.82
434.28	198.95
434.47	184.90
434.66	166.18
434.85	72.56
435.03	177.88
435.22	170.86
435.41	189.58
435.59	201.29
435.78	91.28
435.97	161.50
436.16	145.11
436.34	184.90
436.53	208.31
436.72	175.54
436.90	112.35
437.09	187.24
437.28	194.26
437.46	145.11
437.65	236.39
437.84	156.82
438.02	121.71
438.21	119.37
438.40	114.69
438.58	131.07
438.77	184.90
438.96	191.92
439.14	170.86
439.33	126.39
439.52	215.33
439.70	184.90
439.89	163.84
440.08	142.77
440.26	166.18
440.45	201.29
440.63	222.35
440.82	212.99
441.01	220.01
441.19	131.07
441.38	175.54
441.57	152.13
441.75	140.43
441.94	215.33
442.12	203.63
442.31	198.95
442.50	154.48
442.68	177.88
442.87	161.50
443.05	166.18
443.24	159.16
443.43	280.86
443.61	131.07
443.80	196.60
443.98	198.95
444.17	215.33
444.35	257.46
444.54	205.97
444.73	156.82
444.91	180.22
445.10	133.41
445.28	196.60
445.47	140.43
445.65	173.20
445.84	210.65
446.02	248.10
446.21	142.77
446.39	147.45
446.58	194.26
446.77	222.35
446.95	117.03
447.14	252.78
447.32	238.73
447.51	135.75
447.69	131.07
447.88	222.35
448.06	149.79
448.25	210.65
448.43	161.50
448.62	205.97
448.80	208.31
448.99	163.84
449.17	201.29
449.36	128.73
449.54	142.77
449.73	177.88
449.91	166.18
450.10	217.67
450.28	250.44
450.46	224.69
450.65	229.37
450.83	245.76
451.02	189.58
451.20	194.26
451.39	168.52
451.57	145.11
451.76	257.46
451.94	243.42
452.13	203.63
452.31	196.60
452.49	297.25
452.68	159.16
452.86	236.39
453.05	131.07
453.23	147.45
453.42	175.54
453.60	198.95
453.78	121.71
453.97	191.92
454.15	133.41
454.34	163.84
454.52	168.52
454.70	196.60
454.89	182.56
455.07	182.56
455.26	205.97
455.44	313.63
455.62	140.43
455.81	194.26
455.99	147.45
456.17	231.71
456.36	196.60
456.54	138.09
456.73	163.84
456.91	243.42
457.09	205.97
457.28	245.76
457.46	227.03
457.64	220.01
457.83	180.22
458.01	133.41
458.19	210.65
458.38	224.69
458.56	212.99
458.74	273.84
458.93	203.63
459.11	241.08
459.29	203.63
459.48	110.01
459.66	159.16
459.84	210.65
460.03	250.44
460.21	159.16
460.39	278.52
460.57	217.67
460.76	187.24
460.94	149.79
461.12	220.01
461.31	156.82
461.49	161.50
461.67	215.33
461.85	318.31
462.04	205.97
462.22	283.20
462.40	173.20
462.59	212.99
462.77	198.95
462.95	156.82
463.13	114.69
463.32	149.79
463.50	234.05
463.68	238.73
463.86	217.67
464.05	313.63
464.23	250.44
464.41	257.46
464.59	208.31
464.78	257.46
464.96	198.95
465.14	161.50
465.32	234.05
465.50	220.01
465.69	220.01
465.87	189.58
466.05	205.97
466.23	227.03
466.41	220.01
466.60	175.54
466.78	222.35
466.96	252.78
467.14	262.14
467.32	269.16
467.51	320.65
467.69	238.73
467.87	234.05
468.05	271.50
468.23	292.57
468.41	224.69
468.60	227.03
468.78	222.35
468.96	241.08
469.14	173.20
469.32	191.92
469.50	154.48
469.69	234.05
469.87	238.73
470.05	250.44
470.23	210.65
470.41	161.50
470.59	231.71
470.77	271.50
470.95	191.92
471.14	131.07
471.32	238.73
471.50	208.31
471.68	201.29
471.86	215.33
472.04	243.42
472.22	269.16
472.40	259.80
472.58	224.69
472.77	159.16
472.95	161.50
473.13	191.92
473.31	245.76
473.49	243.42
473.67	266.82
473.85	252.78
474.03	182.56
474.21	194.26
474.39	229.37
474.57	215.33
474.75	184.90
474.93	238.73
475.12	210.65
475.30	273.84
475.48	257.46
475.66	194.26
475.84	255.12
476.02	182.56
476.20	212.99
476.38	215.33
476.56	227.03
476.74	304.27
476.92	168.52
477.10	252.78
477.28	322.99
477.46	245.76
477.64	203.63
477.82	297.25
478.00	238.73
478.18	250.44
478.36	194.26
478.54	325.33
478.72	227.03
478.90	220.01
479.08	217.67
479.26	301.93
479.44	215.33
479.62	189.58
479.80	313.63
479.98	252.78
480.16	283.20
480.34	257.46
480.52	276.18
480.70	346.40
480.88	257.46
481.06	215.33
481.24	245.76
481.41	236.39
481.59	287.89
481.77	266.82
481.95	243.42
482.13	341.72
482.31	285.55
482.49	259.80
482.67	306.61
482.85	341.72
483.03	262.14
483.21	306.61
483.39	255.12
483.57	285.55
483.74	311.29
483.92	276.18
484.10	297.25
484.28	346.40
484.46	245.76
484.64	299.59
484.82	215.33
485.00	266.82
485.18	262.14
485.35	320.65
485.53	177.88
485.71	196.60
485.89	189.58
486.07	238.73
486.25	236.39
486.43	255.12
486.61	252.78
486.78	262.14
486.96	297.25
487.14	215.33
487.32	276.18
487.50	299.59
487.68	311.29
487.85	243.42
488.03	297.25
488.21	276.18
488.39	231.71
488.57	315.97
488.75	297.25
488.92	306.61
489.10	271.50
489.28	362.78
489.46	313.63
489.64	348.74
489.81	332.36
489.99	372.15
490.17	348.74
490.35	383.85
490.53	353.42
490.70	297.25
490.88	315.97
491.06	325.33
491.24	311.29
491.41	379.17
491.59	322.99
491.77	255.12
491.95	308.95
492.13	325.33
492.30	285.55
492.48	334.70
492.66	229.37
492.84	397.89
493.01	280.86
493.19	330.02
493.37	423.64
493.54	407.25
493.72	294.91
493.90	344.06
494.08	369.80
494.25	397.89
494.43	393.21
494.61	332.36
494.79	355.76
494.96	287.89
495.14	383.85
495.32	425.98
495.49	388.53
495.67	404.91
495.85	489.17
496.02	407.25
496.20	278.52
496.38	355.76
496.55	367.46
496.73	440.02
496.91	337.04
497.09	374.49
497.26	402.57
497.44	339.38
497.62	395.55
497.79	444.70
497.97	325.33
498.14	301.93
498.32	374.49
498.50	330.02
498.67	365.12
498.85	404.91
499.03	351.08
499.20	341.72
499.38	341.72
499.56	447.04
499.73	327.68
499.91	280.86
500.08	376.83
500.26	369.80
500.44	367.46
500.61	372.15
500.79	374.49
500.97	379.17
501.14	358.10
501.32	381.51
501.49	379.17
501.67	311.29
501.84	332.36
502.02	360.44
502.20	414.27
502.37	362.78
502.55	430.66
502.72	390.87
502.90	358.10
503.07	339.38
503.25	388.53
503.43	327.68
503.60	285.55
503.78	304.27
503.95	367.46
504.13	416.62
504.30	304.27
504.48	418.96
504.65	304.27
504.83	383.85
505.01	397.89
505.18	367.46
505.36	315.97
505.53	367.46
505.71	341.72
505.88	386.19
506.06	433.00
506.23	372.15
506.41	475.13
506.58	348.74
506.76	306.61
506.93	257.46
507.11	325.33
507.28	425.98
507.46	341.72
507.63	393.21
507.81	313.63
507.98	409.59
508.16	315.97
508.33	383.85
508.50	348.74
508.68	381.51
508.85	365.12
509.03	404.91
509.20	388.53
509.38	400.23
509.55	390.87
509.73	358.10
509.90	369.80
510.08	369.80
510.25	418.96
510.42	374.49
510.60	332.36
510.77	400.23
510.95	372.15
511.12	383.85
511.30	358.10
511.47	418.96
511.64	400.23
511.82	376.83
511.99	346.40
512.17	425.98
512.34	421.30
512.51	404.91
512.69	393.21
512.86	395.55
513.04	402.57
513.21	421.30
513.38	404.91
513.56	402.57
513.73	433.00
513.90	299.59
514.08	353.42
514.25	325.33
514.43	271.50
514.60	353.42
514.77	489.17
514.95	479.81
515.12	407.25
515.29	358.10
515.47	379.17
515.64	388.53
515.81	430.66
515.99	442.36
516.16	325.33
516.33	334.70
516.51	353.42
516.68	388.53
516.85	330.02
517.03	292.57
517.20	280.86
517.37	379.17
517.54	360.44
517.72	390.87
517.89	395.55
518.06	351.08
518.24	304.27
518.41	341.72
518.58	395.55
518.75	435.34
518.93	374.49
519.10	330.02
519.27	411.93
519.45	376.83
519.62	367.46
519.79	447.04
519.96	397.89
520.14	404.91
520.31	442.36
520.48	409.59
520.65	402.57
520.83	390.87
521.00	313.63
521.17	353.42
521.34	414.27
521.52	447.04
521.69	386.19
521.86	388.53
522.03	400.23
522.20	435.34
522.38	388.53
522.55	315.97
522.72	308.95
522.89	376.83
523.07	372.15
523.24	376.83
523.41	355.76
523.58	376.83
523.75	447.04
523.92	379.17
524.10	355.76
524.27	447.04
524.44	472.79
524.61	397.89
524.78	365.12
524.96	416.62
525.13	327.68
525.30	425.98
525.47	360.44
525.64	430.66
525.81	381.51
525.98	315.97
526.16	353.42
526.33	393.21
526.50	334.70
526.67	311.29
526.84	344.06
527.01	386.19
527.18	299.59
527.36	430.66
527.53	456.40
527.70	383.85
527.87	390.87
528.04	409.59
528.21	414.27
528.38	407.25
528.55	414.27
528.72	461.09
528.89	423.64
529.07	449.38
529.24	355.76
529.41	404.91
529.58	409.59
529.75	404.91
529.92	393.21
530.09	386.19
530.26	416.62
530.43	365.12
530.60	395.55
530.77	388.53
530.94	430.66
531.11	320.65
531.28	411.93
531.46	454.06
531.63	322.99
531.80	395.55
531.97	386.19
532.14	334.70
532.31	404.91
532.48	334.70
532.65	409.59
532.82	451.72
532.99	341.72
533.16	421.30
533.33	404.91
533.50	376.83
533.67	425.98
533.84	404.91
534.01	435.34
534.18	351.08
534.35	330.02
534.52	353.42
534.69	425.98
534.86	397.89
535.03	414.27
535.20	362.78
535.37	381.51
535.54	383.85
535.71	365.12
535.88	425.98
536.05	376.83
536.22	390.87
536.38	451.72
536.55	344.06
536.72	411.93
536.89	355.76
537.06	393.21
537.23	351.08
537.40	348.74
537.57	423.64
537.74	430.66
537.91	444.70
538.08	360.44
538.25	416.62
538.42	393.21
538.59	374.49
538.75	341.72
538.92	367.46
539.09	341.72
539.26	388.53
539.43	383.85
539.60	372.15
539.77	461.09
539.94	313.63
540.11	348.74
540.28	367.46
540.44	369.80
540.61	306.61
540.78	402.57
540.95	355.76
541.12	358.10
541.29	393.21
541.46	449.38
541.62	276.18
541.79	353.42
541.96	461.09
542.13	381.51
542.30	353.42
542.47	327.68
542.63	353.42
542.80	428.32
542.97	379.17
543.14	416.62
543.31	360.44
543.48	315.97
543.64	369.80
543.81	442.36
543.98	418.96
544.15	376.83
544.32	381.51
544.48	435.34
544.65	379.17
544.82	325.33
544.99	372.15
545.16	409.59
545.32	444.70
545.49	437.68
545.66	479.81
545.83	365.12
546.00	374.49
546.16	341.72
546.33	320.65
546.50	376.83
546.67	341.72
546.83	362.78
547.00	372.15
547.17	355.76
547.34	383.85
547.50	367.46
547.67	416.62
547.84	379.17
548.00	418.96
548.17	400.23
548.34	360.44
548.51	325.33
548.67	386.19
548.84	332.36
549.01	376.83
549.18	456.40
549.34	327.68
549.51	376.83
549.68	407.25
549.84	360.44
550.01	318.31
550.18	383.85
550.34	383.85
550.51	388.53
550.68	341.72
550.84	287.89
551.01	365.12
551.18	374.49
551.34	449.38
551.51	386.19
551.68	390.87
551.84	320.65
552.01	355.76
552.18	252.78
552.34	468.11
552.51	339.38
552.68	425.98
552.84	421.30
553.01	402.57
553.18	388.53
553.34	395.55
553.51	276.18
553.67	369.80
553.84	379.17
554.01	463.43
554.17	355.76
554.34	376.83
554.51	369.80
554.67	311.29
554.84	388.53
555.00	341.72
555.17	313.63
555.33	386.19
555.50	404.91
555.67	348.74
555.83	287.89
556.00	376.83
556.16	376.83
556.33	311.29
556.50	308.95
556.66	379.17
556.83	271.50
556.99	337.04
557.16	447.04
557.32	320.65
557.49	362.78
557.65	372.15
557.82	376.83
557.98	372.15
558.15	395.55
558.32	386.19
558.48	327.68
558.65	306.61
558.81	376.83
558.98	369.80
559.14	379.17
559.31	393.21
559.47	372.15
559.64	311.29
559.80	367.46
559.97	297.25
560.13	299.59
560.30	297.25
560.46	337.04
560.63	311.29
560.79	325.33
560.96	372.15
561.12	327.68
561.29	344.06
561.45	327.68
561.61	330.02
561.78	290.23
561.94	381.51
562.11	358.10
562.27	348.74
562.44	327.68
562.60	313.63
562.77	358.10
562.93	428.32
563.10	341.72
563.26	376.83
563.42	367.46
563.59	358.10
563.75	351.08
563.92	369.80
564.08	376.83
564.24	297.25
564.41	327.68
564.57	294.91
564.74	339.38
564.90	369.80
565.07	411.93
565.23	360.44
565.39	355.76
565.56	351.08
565.72	287.89
565.88	369.80
566.05	381.51
566.21	325.33
566.38	365.12
566.54	362.78
566.70	287.89
566.87	332.36
567.03	381.51
567.19	404.91
567.36	367.46
567.52	301.93
567.68	278.52
567.85	348.74
568.01	304.27
568.17	271.50
568.34	278.52
568.50	276.18
568.66	285.55
568.83	383.85
568.99	383.85
569.15	332.36
569.32	362.78
569.48	402.57
569.64	315.97
569.81	325.33
569.97	308.95
570.13	358.10
570.30	320.65
570.46	306.61
570.62	297.25
570.78	332.36
570.95	203.63
571.11	266.82
571.27	276.18
571.43	269.16
571.60	259.80
571.76	322.99
571.92	311.29
572.09	299.59
572.25	337.04
572.41	320.65
572.57	407.25
572.74	294.91
572.90	365.12
573.06	337.04
573.22	304.27
573.38	320.65
573.55	304.27
573.71	339.38
573.87	313.63
574.03	290.23
574.20	252.78
574.36	297.25
574.52	308.95
574.68	264.48
574.84	208.31
575.01	353.42
575.17	409.59
575.33	297.25
575.49	332.36
575.65	273.84
575.82	337.04
575.98	402.57
576.14	313.63
576.30	308.95
576.46	322.99
576.62	276.18
576.79	320.65
576.95	337.04
577.11	196.60
577.27	297.25
577.43	332.36
577.59	273.84
577.75	313.63
577.92	210.65
578.08	294.91
578.24	278.52
578.40	280.86
578.56	393.21
578.72	304.27
578.88	330.02
579.04	299.59
579.21	262.14
579.37	299.59
579.53	379.17
579.69	266.82
579.85	290.23
580.01	276.18
580.17	276.18
580.33	393.21
580.49	313.63
580.65	313.63
580.82	330.02
580.98	280.86
581.14	367.46
581.30	306.61
581.46	241.08
581.62	297.25
581.78	318.31
581.94	433.00
582.10	341.72
582.26	315.97
582.42	301.93
582.58	421.30
582.74	353.42
582.90	344.06
583.06	334.70
583.22	383.85
583.38	327.68
583.54	290.23
583.70	299.59
583.86	283.20
584.02	301.93
584.18	337.04
584.34	330.02
584.50	325.33
584.66	346.40
584.82	367.46
584.98	299.59
585.14	318.31
585.30	234.05
585.46	334.70
585.62	337.04
585.78	229.37
585.94	301.93
586.10	337.04
586.26	276.18
586.42	322.99
586.58	320.65
586.74	297.25
586.90	297.25
587.06	330.02
587.22	280.86
587.38	255.12
587.54	264.48
587.70	278.52
587.86	285.55
588.02	299.59
588.18	203.63
588.34	248.10
588.49	250.44
588.65	152.13
588.81	248.10
588.97	257.46
589.13	203.63
589.29	259.80
589.45	259.80
589.61	234.05
589.77	220.01
589.93	217.67
590.08	262.14
590.24	145.11
590.40	311.29
590.56	245.76
590.72	280.86
590.88	231.71
591.04	276.18
591.20	229.37
591.35	224.69
591.51	255.12
591.67	201.29
591.83	264.48
591.99	287.89
592.15	243.42
592.31	224.69
592.46	283.20
592.62	227.03
592.78	276.18
592.94	248.10
593.10	271.50
593.26	299.59
593.41	299.59
593.57	208.31
593.73	276.18
593.89	241.08
594.05	208.31
594.20	304.27
594.36	287.89
594.52	210.65
594.68	276.18
594.84	308.95
594.99	273.84
595.15	285.55
595.31	273.84
595.47	196.60
595.62	259.80
595.78	273.84
595.94	243.42
596.10	280.86
596.25	280.86
596.41	208.31
596.57	241.08
596.73	262.14
596.88	231.71
597.04	255.12
597.20	222.35
597.36	285.55
597.51	222.35
597.67	292.57
597.83	280.86
597.99	264.48
598.14	271.50
598.30	276.18
598.46	212.99
598.61	276.18
598.77	297.25
598.93	283.20
599.09	276.18
599.24	196.60
599.40	266.82
599.56	266.82
599.71	325.33
599.87	266.82
600.03	215.33
600.18	243.42
600.34	245.76
600.50	248.10
600.65	229.37
600.81	294.91
600.97	243.42
601.12	255.12
601.28	278.52
601.44	320.65
601.59	255.12
601.75	243.42
601.91	220.01
602.06	297.25
602.22	241.08
602.37	245.76
602.53	280.86
602.69	306.61
602.84	250.44
603.00	334.70
603.16	264.48
603.31	311.29
603.47	231.71
603.62	276.18
603.78	304.27
603.94	297.25
604.09	325.33
604.25	327.68
604.40	287.89
604.56	210.65
604.71	177.88
604.87	304.27
605.03	269.16
605.18	304.27
605.34	278.52
605.49	287.89
605.65	313.63
605.80	353.42
605.96	170.86
606.12	238.73
606.27	262.14
606.43	292.57
606.58	344.06
606.74	266.82
606.89	243.42
607.05	271.50
607.20	243.42
607.36	234.05
607.51	259.80
607.67	227.03
607.82	290.23
607.98	287.89
608.13	280.86
608.29	217.67
608.44	252.78
608.60	252.78
608.75	259.80
608.91	245.76
609.06	287.89
609.22	348.74
609.37	262.14
609.53	248.10
609.68	292.57
609.84	243.42
609.99	304.27
610.15	229.37
610.30	222.35
610.46	243.42
610.61	269.16
610.76	255.12
610.92	210.65
611.07	212.99
611.23	313.63
611.38	224.69
611.54	175.54
611.69	299.59
611.84	173.20
612.00	278.52
612.15	236.39
612.31	318.31
612.46	287.89
