SpectraSuite Data File
++++++++++++++++++++++++++++++++++++
Date: Fri Oct 04 11:33:58 GMT-05:00 2013
User: price-jones
Dark Spectrum Present: No
Reference Spectrum Present: No
Number of Sampled Component Spectra: 1
Spectrometers: USB2+H05261
Integration Time (usec): 100000 (USB2+H05261)
Spectra Averaged: 1 (USB2+H05261)
Boxcar Smoothing: 0 (USB2+H05261)
Correct for Electrical Dark: No (USB2+H05261)
Strobe/Lamp Enabled: No (USB2+H05261)
Correct for Detector Non-linearity: No (USB2+H05261)
Correct for Stray Light: No (USB2+H05261)
Number of Pixels in Processed Spectrum: 2048
>>>>>Begin Processed Spectral Data<<<<<
365.73	65.54
365.92	65.54
366.12	65.54
366.32	18.72
366.52	0.00
366.72	0.00
366.91	0.00
367.11	9.36
367.31	0.00
367.51	0.00
367.70	0.00
367.90	0.00
368.10	0.00
368.30	32.77
368.49	0.00
368.69	0.00
368.89	35.11
369.09	0.00
369.28	0.00
369.48	0.00
369.68	0.00
369.87	7.02
370.07	0.00
370.27	49.15
370.47	0.00
370.66	58.51
370.86	49.15
371.06	102.98
371.25	102.98
371.45	128.73
371.65	98.30
371.84	191.92
372.04	152.13
372.24	149.79
372.44	114.69
372.63	189.58
372.83	184.90
373.03	112.35
373.22	74.90
373.42	191.92
373.62	161.50
373.81	187.24
374.01	210.65
374.21	124.05
374.40	145.11
374.60	243.42
374.79	154.48
374.99	119.37
375.19	128.73
375.38	152.13
375.58	131.07
375.78	191.92
375.97	168.52
376.17	220.01
376.37	145.11
376.56	138.09
376.76	147.45
376.95	142.77
377.15	210.65
377.35	182.56
377.54	159.16
377.74	112.35
377.93	60.85
378.13	175.54
378.33	128.73
378.52	168.52
378.72	119.37
378.91	250.44
379.11	194.26
379.31	189.58
379.50	173.20
379.70	234.05
379.89	131.07
380.09	121.71
380.28	140.43
380.48	88.94
380.68	112.35
380.87	159.16
381.07	152.13
381.26	112.35
381.46	205.97
381.65	196.60
381.85	110.01
382.04	142.77
382.24	138.09
382.43	124.05
382.63	84.26
382.83	110.01
383.02	161.50
383.22	170.86
383.41	161.50
383.61	72.56
383.80	149.79
384.00	112.35
384.19	131.07
384.39	102.98
384.58	175.54
384.78	124.05
384.97	119.37
385.17	93.62
385.36	166.18
385.56	170.86
385.75	81.92
385.95	131.07
386.14	119.37
386.34	149.79
386.53	128.73
386.72	182.56
386.92	168.52
387.11	149.79
387.31	145.11
387.50	140.43
387.70	135.75
387.89	63.19
388.09	107.66
388.28	98.30
388.48	131.07
388.67	161.50
388.86	147.45
389.06	189.58
389.25	135.75
389.45	58.51
389.64	159.16
389.84	138.09
390.03	161.50
390.22	191.92
390.42	191.92
390.61	98.30
390.81	163.84
391.00	175.54
391.19	100.64
391.39	152.13
391.58	145.11
391.78	107.66
391.97	196.60
392.16	77.24
392.36	166.18
392.55	93.62
392.75	124.05
392.94	60.85
393.13	191.92
393.33	95.96
393.52	91.28
393.71	215.33
393.91	201.29
394.10	133.41
394.29	168.52
394.49	201.29
394.68	187.24
394.88	154.48
395.07	124.05
395.26	149.79
395.46	145.11
395.65	180.22
395.84	70.22
396.04	227.03
396.23	159.16
396.42	105.32
396.62	168.52
396.81	98.30
397.00	154.48
397.19	147.45
397.39	86.60
397.58	203.63
397.77	182.56
397.97	107.66
398.16	184.90
398.35	177.88
398.55	152.13
398.74	168.52
398.93	135.75
399.12	149.79
399.32	173.20
399.51	100.64
399.70	140.43
399.90	184.90
400.09	138.09
400.28	142.77
400.47	124.05
400.67	173.20
400.86	100.64
401.05	184.90
401.24	182.56
401.44	138.09
401.63	173.20
401.82	184.90
402.01	79.58
402.21	198.95
402.40	128.73
402.59	149.79
402.78	124.05
402.97	173.20
403.17	124.05
403.36	133.41
403.55	124.05
403.74	147.45
403.93	266.82
404.13	231.71
404.32	271.50
404.51	252.78
404.70	177.88
404.89	138.09
405.09	227.03
405.28	133.41
405.47	222.35
405.66	224.69
405.85	208.31
406.05	203.63
406.24	135.75
406.43	163.84
406.62	140.43
406.81	196.60
407.00	156.82
407.20	163.84
407.39	131.07
407.58	74.90
407.77	142.77
407.96	222.35
408.15	166.18
408.34	128.73
408.54	215.33
408.73	152.13
408.92	166.18
409.11	212.99
409.30	170.86
409.49	198.95
409.68	166.18
409.87	121.71
410.07	107.66
410.26	58.51
410.45	161.50
410.64	102.98
410.83	159.16
411.02	121.71
411.21	198.95
411.40	163.84
411.59	168.52
411.78	121.71
411.98	152.13
412.17	107.66
412.36	135.75
412.55	173.20
412.74	126.39
412.93	187.24
413.12	208.31
413.31	128.73
413.50	168.52
413.69	152.13
413.88	198.95
414.07	147.45
414.26	198.95
414.45	114.69
414.64	231.71
414.83	170.86
415.02	229.37
415.22	170.86
415.41	227.03
415.60	121.71
415.79	154.48
415.98	180.22
416.17	212.99
416.36	152.13
416.55	81.92
416.74	180.22
416.93	161.50
417.12	149.79
417.31	154.48
417.50	184.90
417.69	234.05
417.88	166.18
418.07	147.45
418.26	168.52
418.45	229.37
418.64	241.08
418.83	224.69
419.02	217.67
419.21	262.14
419.39	182.56
419.58	224.69
419.77	210.65
419.96	215.33
420.15	250.44
420.34	138.09
420.53	236.39
420.72	234.05
420.91	152.13
421.10	159.16
421.29	229.37
421.48	182.56
421.67	168.52
421.86	147.45
422.05	191.92
422.24	154.48
422.43	210.65
422.61	145.11
422.80	198.95
422.99	189.58
423.18	184.90
423.37	238.73
423.56	187.24
423.75	159.16
423.94	121.71
424.13	154.48
424.32	198.95
424.50	133.41
424.69	224.69
424.88	189.58
425.07	114.69
425.26	215.33
425.45	271.50
425.64	189.58
425.83	208.31
426.01	203.63
426.20	175.54
426.39	124.05
426.58	196.60
426.77	156.82
426.96	182.56
427.15	222.35
427.33	191.92
427.52	168.52
427.71	208.31
427.90	180.22
428.09	156.82
428.28	145.11
428.46	145.11
428.65	217.67
428.84	243.42
429.03	168.52
429.22	152.13
429.40	168.52
429.59	142.77
429.78	196.60
429.97	201.29
430.16	177.88
430.34	161.50
430.53	131.07
430.72	168.52
430.91	198.95
431.10	112.35
431.28	222.35
431.47	177.88
431.66	135.75
431.85	220.01
432.03	201.29
432.22	255.12
432.41	126.39
432.60	173.20
432.79	198.95
432.97	278.52
433.16	311.29
433.35	255.12
433.54	236.39
433.72	227.03
433.91	154.48
434.10	203.63
434.28	182.56
434.47	124.05
434.66	184.90
434.85	203.63
435.03	222.35
435.22	425.98
435.41	423.64
435.59	433.00
435.78	369.80
435.97	194.26
436.16	234.05
436.34	152.13
436.53	177.88
436.72	205.97
436.90	205.97
437.09	212.99
437.28	182.56
437.46	124.05
437.65	128.73
437.84	220.01
438.02	166.18
438.21	135.75
438.40	140.43
438.58	156.82
438.77	180.22
438.96	161.50
439.14	259.80
439.33	231.71
439.52	198.95
439.70	187.24
439.89	175.54
440.08	182.56
440.26	210.65
440.45	236.39
440.63	184.90
440.82	208.31
441.01	201.29
441.19	220.01
441.38	250.44
441.57	180.22
441.75	224.69
441.94	215.33
442.12	194.26
442.31	173.20
442.50	227.03
442.68	168.52
442.87	194.26
443.05	194.26
443.24	145.11
443.43	227.03
443.61	161.50
443.80	105.32
443.98	182.56
444.17	168.52
444.35	191.92
444.54	205.97
444.73	152.13
444.91	184.90
445.10	196.60
445.28	147.45
445.47	182.56
445.65	201.29
445.84	187.24
446.02	250.44
446.21	194.26
446.39	184.90
446.58	224.69
446.77	180.22
446.95	156.82
447.14	217.67
447.32	184.90
447.51	198.95
447.69	252.78
447.88	238.73
448.06	257.46
448.25	140.43
448.43	175.54
448.62	161.50
448.80	238.73
448.99	187.24
449.17	140.43
449.36	210.65
449.54	220.01
449.73	191.92
449.91	184.90
450.10	229.37
450.28	210.65
450.46	273.84
450.65	210.65
450.83	241.08
451.02	222.35
451.20	191.92
451.39	191.92
451.57	203.63
451.76	196.60
451.94	191.92
452.13	248.10
452.31	152.13
452.49	229.37
452.68	189.58
452.86	231.71
453.05	259.80
453.23	231.71
453.42	201.29
453.60	180.22
453.78	222.35
453.97	217.67
454.15	196.60
454.34	229.37
454.52	159.16
454.70	236.39
454.89	243.42
455.07	152.13
455.26	187.24
455.44	241.08
455.62	198.95
455.81	196.60
455.99	168.52
456.17	201.29
456.36	201.29
456.54	217.67
456.73	269.16
456.91	173.20
457.09	222.35
457.28	201.29
457.46	170.86
457.64	147.45
457.83	180.22
458.01	180.22
458.19	194.26
458.38	208.31
458.56	250.44
458.74	194.26
458.93	294.91
459.11	119.37
459.29	105.32
459.48	212.99
459.66	222.35
459.84	252.78
460.03	198.95
460.21	255.12
460.39	215.33
460.57	227.03
460.76	205.97
460.94	124.05
461.12	259.80
461.31	227.03
461.49	262.14
461.67	243.42
461.85	285.55
462.04	131.07
462.22	730.25
462.40	173.20
462.59	210.65
462.77	184.90
462.95	187.24
463.13	142.77
463.32	224.69
463.50	177.88
463.68	159.16
463.86	205.97
464.05	212.99
464.23	264.48
464.41	257.46
464.59	196.60
464.78	304.27
464.96	182.56
465.14	241.08
465.32	161.50
465.50	266.82
465.69	135.75
465.87	248.10
466.05	243.42
466.23	191.92
466.41	154.48
466.60	145.11
466.78	227.03
466.96	182.56
467.14	257.46
467.32	201.29
467.51	208.31
467.69	301.93
467.87	252.78
468.05	231.71
468.23	180.22
468.41	212.99
468.60	264.48
468.78	205.97
468.96	266.82
469.14	187.24
469.32	205.97
469.50	98.30
469.69	182.56
469.87	140.43
470.05	154.48
470.23	217.67
470.41	163.84
470.59	133.41
470.77	201.29
470.95	245.76
471.14	262.14
471.32	175.54
471.50	259.80
471.68	264.48
471.86	283.20
472.04	245.76
472.22	248.10
472.40	168.52
472.58	215.33
472.77	147.45
472.95	208.31
473.13	187.24
473.31	241.08
473.49	140.43
473.67	217.67
473.85	201.29
474.03	252.78
474.21	259.80
474.39	201.29
474.57	198.95
474.75	241.08
474.93	191.92
475.12	133.41
475.30	166.18
475.48	133.41
475.66	138.09
475.84	238.73
476.02	189.58
476.20	257.46
476.38	182.56
476.56	224.69
476.74	184.90
476.92	168.52
477.10	156.82
477.28	241.08
477.46	203.63
477.64	266.82
477.82	234.05
478.00	189.58
478.18	114.69
478.36	156.82
478.54	182.56
478.72	175.54
478.90	147.45
479.08	227.03
479.26	252.78
479.44	255.12
479.62	175.54
479.80	278.52
479.98	201.29
480.16	212.99
480.34	315.97
480.52	198.95
480.70	236.39
480.88	121.71
481.06	208.31
481.24	248.10
481.41	210.65
481.59	227.03
481.77	208.31
481.95	269.16
482.13	306.61
482.31	156.82
482.49	234.05
482.67	255.12
482.85	276.18
483.03	266.82
483.21	273.84
483.39	220.01
483.57	332.36
483.74	245.76
483.92	264.48
484.10	220.01
484.28	315.97
484.46	322.99
484.64	180.22
484.82	292.57
485.00	276.18
485.18	276.18
485.35	259.80
485.53	205.97
485.71	276.18
485.89	180.22
486.07	252.78
486.25	283.20
486.43	276.18
486.61	227.03
486.78	217.67
486.96	266.82
487.14	194.26
487.32	194.26
487.50	234.05
487.68	238.73
487.85	177.88
488.03	306.61
488.21	344.06
488.39	229.37
488.57	332.36
488.75	220.01
488.92	442.36
489.10	285.55
489.28	273.84
489.46	245.76
489.64	208.31
489.81	203.63
489.99	273.84
490.17	224.69
490.35	285.55
490.53	245.76
490.70	250.44
490.88	208.31
491.06	301.93
491.24	276.18
491.41	245.76
491.59	196.60
491.77	337.04
491.95	252.78
492.13	147.45
492.30	166.18
492.48	210.65
492.66	229.37
492.84	262.14
493.01	212.99
493.19	280.86
493.37	276.18
493.54	198.95
493.72	243.42
493.90	222.35
494.08	227.03
494.25	180.22
494.43	297.25
494.61	327.68
494.79	210.65
494.96	159.16
495.14	241.08
495.32	224.69
495.49	276.18
495.67	229.37
495.85	227.03
496.02	252.78
496.20	311.29
496.38	220.01
496.55	297.25
496.73	285.55
496.91	292.57
497.09	243.42
497.26	271.50
497.44	250.44
497.62	276.18
497.79	220.01
497.97	224.69
498.14	243.42
498.32	283.20
498.50	166.18
498.67	266.82
498.85	212.99
499.03	236.39
499.20	255.12
499.38	220.01
499.56	224.69
499.73	248.10
499.91	229.37
500.08	292.57
500.26	271.50
500.44	227.03
500.61	308.95
500.79	191.92
500.97	299.59
501.14	287.89
501.32	334.70
501.49	290.23
501.67	210.65
501.84	280.86
502.02	257.46
502.20	311.29
502.37	236.39
502.55	299.59
502.72	184.90
502.90	290.23
503.07	198.95
503.25	168.52
503.43	313.63
503.60	264.48
503.78	297.25
503.95	339.38
504.13	180.22
504.30	252.78
504.48	332.36
504.65	236.39
504.83	234.05
505.01	262.14
505.18	283.20
505.36	255.12
505.53	248.10
505.71	203.63
505.88	264.48
506.06	259.80
506.23	287.89
506.41	147.45
506.58	264.48
506.76	241.08
506.93	238.73
507.11	306.61
507.28	264.48
507.46	271.50
507.63	205.97
507.81	257.46
507.98	318.31
508.16	264.48
508.33	241.08
508.50	308.95
508.68	273.84
508.85	177.88
509.03	257.46
509.20	287.89
509.38	236.39
509.55	297.25
509.73	308.95
509.90	278.52
510.08	308.95
510.25	320.65
510.42	205.97
510.60	280.86
510.77	224.69
510.95	255.12
511.12	273.84
511.30	278.52
511.47	257.46
511.64	372.15
511.82	299.59
511.99	229.37
512.17	236.39
512.34	208.31
512.51	229.37
512.69	201.29
512.86	355.76
513.04	231.71
513.21	283.20
513.38	128.73
513.56	222.35
513.73	271.50
513.90	229.37
514.08	250.44
514.25	255.12
514.43	255.12
514.60	283.20
514.77	222.35
514.95	241.08
515.12	271.50
515.29	306.61
515.47	222.35
515.64	191.92
515.81	264.48
515.99	257.46
516.16	191.92
516.33	294.91
516.51	269.16
516.68	297.25
516.85	166.18
517.03	250.44
517.20	283.20
517.37	262.14
517.54	238.73
517.72	283.20
517.89	189.58
518.06	241.08
518.24	264.48
518.41	301.93
518.58	301.93
518.75	234.05
518.93	276.18
519.10	278.52
519.27	224.69
519.45	269.16
519.62	241.08
519.79	313.63
519.96	271.50
520.14	292.57
520.31	308.95
520.48	299.59
520.65	330.02
520.83	294.91
521.00	248.10
521.17	297.25
521.34	322.99
521.52	283.20
521.69	292.57
521.86	264.48
522.03	297.25
522.20	287.89
522.38	203.63
522.55	283.20
522.72	177.88
522.89	215.33
523.07	290.23
523.24	322.99
523.41	243.42
523.58	238.73
523.75	292.57
523.92	245.76
524.10	252.78
524.27	264.48
524.44	245.76
524.61	313.63
524.78	262.14
524.96	259.80
525.13	243.42
525.30	313.63
525.47	231.71
525.64	330.02
525.81	315.97
525.98	229.37
526.16	227.03
526.33	194.26
526.50	220.01
526.67	212.99
526.84	236.39
527.01	262.14
527.18	290.23
527.36	334.70
527.53	222.35
527.70	297.25
527.87	262.14
528.04	339.38
528.21	346.40
528.38	353.42
528.55	280.86
528.72	308.95
528.89	255.12
529.07	266.82
529.24	238.73
529.41	353.42
529.58	325.33
529.75	308.95
529.92	311.29
530.09	248.10
530.26	313.63
530.43	234.05
530.60	255.12
530.77	341.72
530.94	297.25
531.11	313.63
531.28	280.86
531.46	231.71
531.63	292.57
531.80	301.93
531.97	259.80
532.14	306.61
532.31	308.95
532.48	376.83
532.65	327.68
532.82	341.72
532.99	315.97
533.16	304.27
533.33	337.04
533.50	362.78
533.67	332.36
533.84	402.57
534.01	416.62
534.18	414.27
534.35	435.34
534.52	334.70
534.69	269.16
534.86	245.76
535.03	283.20
535.20	278.52
535.37	297.25
535.54	297.25
535.71	278.52
535.88	304.27
536.05	243.42
536.22	294.91
536.38	262.14
536.55	308.95
536.72	393.21
536.89	313.63
537.06	304.27
537.23	308.95
537.40	283.20
537.57	269.16
537.74	304.27
537.91	327.68
538.08	271.50
538.25	297.25
538.42	334.70
538.59	327.68
538.75	322.99
538.92	339.38
539.09	285.55
539.26	332.36
539.43	489.17
539.60	938.55
539.77	1245.16
539.94	1291.98
540.11	917.49
540.28	660.03
540.44	561.73
540.61	500.87
540.78	407.25
540.95	496.19
541.12	568.75
541.29	599.18
541.46	575.77
541.62	589.82
541.79	599.18
541.96	533.64
542.13	505.56
542.30	503.22
542.47	470.45
542.63	491.51
542.80	524.28
542.97	599.18
543.14	456.40
543.31	543.00
543.48	517.26
543.64	498.53
543.81	503.22
543.98	475.13
544.15	470.45
544.32	479.81
544.48	489.17
544.65	496.19
544.82	486.83
544.99	512.58
545.16	564.07
545.32	557.05
545.49	713.86
545.66	966.64
545.83	968.98
546.00	959.62
546.16	744.29
546.33	629.60
546.50	554.71
546.67	491.51
546.83	390.87
547.00	433.00
547.17	447.04
547.34	376.83
547.50	383.85
547.67	407.25
547.84	376.83
548.00	369.80
548.17	416.62
548.34	444.70
548.51	423.64
548.67	381.51
548.84	428.32
549.01	433.00
549.18	437.68
549.34	428.32
549.51	379.17
549.68	397.89
549.84	294.91
550.01	369.80
550.18	444.70
550.34	407.25
550.51	351.08
550.68	386.19
550.84	330.02
551.01	390.87
551.18	379.17
551.34	353.42
551.51	285.55
551.68	229.37
551.84	362.78
552.01	365.12
552.18	337.04
552.34	332.36
552.51	397.89
552.68	315.97
552.84	278.52
553.01	315.97
553.18	351.08
553.34	308.95
553.51	313.63
553.67	315.97
553.84	320.65
554.01	330.02
554.17	283.20
554.34	287.89
554.51	330.02
554.67	245.76
554.84	248.10
555.00	306.61
555.17	266.82
555.33	313.63
555.50	250.44
555.67	294.91
555.83	367.46
556.00	299.59
556.16	456.40
556.33	315.97
556.50	238.73
556.66	205.97
556.83	264.48
556.99	241.08
557.16	294.91
557.32	161.50
557.49	339.38
557.65	217.67
557.82	224.69
557.98	294.91
558.15	182.56
558.32	315.97
558.48	243.42
558.65	250.44
558.81	264.48
558.98	365.12
559.14	301.93
559.31	362.78
559.47	278.52
559.64	262.14
559.80	271.50
559.97	259.80
560.13	306.61
560.30	292.57
560.46	264.48
560.63	231.71
560.79	257.46
560.96	220.01
561.12	220.01
561.29	234.05
561.45	339.38
561.61	334.70
561.78	325.33
561.94	266.82
562.11	264.48
562.27	353.42
562.44	250.44
562.60	234.05
562.77	269.16
562.93	227.03
563.10	297.25
563.26	234.05
563.42	294.91
563.59	250.44
563.75	241.08
563.92	276.18
564.08	313.63
564.24	337.04
564.41	337.04
564.57	271.50
564.74	294.91
564.90	358.10
565.07	287.89
565.23	212.99
565.39	318.31
565.56	327.68
565.72	292.57
565.88	297.25
566.05	250.44
566.21	248.10
566.38	248.10
566.54	248.10
566.70	215.33
566.87	257.46
567.03	227.03
567.19	264.48
567.36	278.52
567.52	269.16
567.68	330.02
567.85	257.46
568.01	292.57
568.17	217.67
568.34	231.71
568.50	236.39
568.66	325.33
568.83	383.85
568.99	262.14
569.15	308.95
569.32	212.99
569.48	330.02
569.64	334.70
569.81	241.08
569.97	238.73
570.13	311.29
570.30	273.84
570.46	236.39
570.62	203.63
570.78	210.65
570.95	229.37
571.11	248.10
571.27	252.78
571.43	236.39
571.60	301.93
571.76	271.50
571.92	283.20
572.09	271.50
572.25	311.29
572.41	285.55
572.57	220.01
572.74	271.50
572.90	348.74
573.06	196.60
573.22	243.42
573.38	252.78
573.55	259.80
573.71	252.78
573.87	280.86
574.03	283.20
574.20	306.61
574.36	322.99
574.52	264.48
574.68	292.57
574.84	308.95
575.01	222.35
575.17	327.68
575.33	299.59
575.49	311.29
575.65	245.76
575.82	276.18
575.98	564.07
576.14	650.67
576.30	645.99
576.46	608.54
576.62	578.11
576.79	489.17
576.95	491.51
577.11	344.06
577.27	348.74
577.43	306.61
577.59	320.65
577.75	315.97
577.92	290.23
578.08	222.35
578.24	238.73
578.40	252.78
578.56	369.80
578.72	454.06
578.88	505.56
579.04	367.46
579.21	458.74
579.37	280.86
579.53	376.83
579.69	404.91
579.85	341.72
580.01	496.19
580.17	383.85
580.33	433.00
580.49	454.06
580.65	369.80
580.82	458.74
580.98	435.34
581.14	318.31
581.30	409.59
581.46	388.53
581.62	531.30
581.78	543.00
581.94	491.51
582.10	444.70
582.26	440.02
582.42	442.36
582.58	477.47
582.74	435.34
582.90	475.13
583.06	486.83
583.22	472.79
583.38	496.19
583.54	550.03
583.70	730.25
583.86	547.69
584.02	716.20
584.18	805.14
584.34	1097.71
584.50	2546.50
584.66	18153.20
584.82	45509.38
584.98	56193.92
585.14	52275.87
585.30	33773.93
585.46	20788.64
585.62	12741.88
585.78	6153.27
585.94	2532.46
586.10	1299.00
586.26	858.98
586.42	814.51
586.58	615.56
586.74	568.75
586.90	519.60
587.06	566.41
587.22	596.84
587.38	589.82
587.54	1015.79
587.70	2693.96
587.86	4215.30
588.02	4498.51
588.18	3304.84
588.34	2104.14
588.49	1416.02
588.65	905.79
588.81	627.26
588.97	404.91
589.13	362.78
589.29	367.46
589.45	351.08
589.61	346.40
589.77	447.04
589.93	407.25
590.08	489.17
590.24	411.93
590.40	468.11
590.56	414.27
590.72	386.19
590.88	351.08
591.04	362.78
591.20	376.83
591.35	308.95
591.51	381.51
591.67	355.76
591.83	402.57
591.99	388.53
592.15	390.87
592.31	358.10
592.46	379.17
592.62	454.06
592.78	372.15
592.94	454.06
593.10	449.38
593.26	404.91
593.41	360.44
593.57	400.23
593.73	601.52
593.89	2415.43
594.05	5713.25
594.20	7932.08
594.36	7108.21
594.52	4889.38
594.68	3152.70
594.84	2225.85
594.99	1306.02
595.15	699.82
595.31	430.66
595.47	372.15
595.62	318.31
595.78	393.21
595.94	348.74
596.10	330.02
596.25	365.12
596.41	304.27
596.57	285.55
596.73	287.89
596.88	514.92
597.04	1210.06
597.20	1795.19
597.36	1994.14
597.51	1521.35
597.67	1167.93
597.83	814.51
597.99	535.98
598.14	362.78
598.30	376.83
598.46	322.99
598.61	397.89
598.77	351.08
598.93	374.49
599.09	381.51
599.24	276.18
599.40	374.49
599.56	365.12
599.71	290.23
599.87	327.68
600.03	362.78
600.18	322.99
600.34	278.52
600.50	283.20
600.65	255.12
600.81	454.06
600.97	271.50
601.12	250.44
601.28	264.48
601.44	341.72
601.59	248.10
601.75	220.01
601.91	229.37
602.06	264.48
602.22	383.85
602.37	711.52
602.53	1338.79
602.69	2024.56
602.84	2059.67
603.00	1577.52
603.16	1093.03
603.31	856.64
603.47	613.22
603.62	407.25
603.78	362.78
603.94	290.23
604.09	294.91
604.25	320.65
604.40	369.80
604.56	327.68
604.71	306.61
604.87	264.48
605.03	278.52
605.18	243.42
605.34	283.20
605.49	337.04
605.65	348.74
605.80	334.70
605.96	285.55
606.12	348.74
606.27	327.68
606.43	397.89
606.58	451.72
606.74	765.36
606.89	2677.57
607.05	5247.48
607.20	6544.14
607.36	5523.66
607.51	3850.18
607.67	2497.35
607.82	1678.16
607.98	1083.67
608.13	641.31
608.29	531.30
608.44	458.74
608.60	557.05
608.75	617.90
608.91	999.41
609.06	4184.88
609.22	8681.05
609.37	11302.45
609.53	9919.19
609.68	6820.32
609.84	4596.81
609.99	3082.49
610.15	1919.24
