SpectraSuite Data File
++++++++++++++++++++++++++++++++++++
Date: Fri Oct 04 11:33:50 GMT-05:00 2013
User: price-jones
Dark Spectrum Present: No
Reference Spectrum Present: No
Number of Sampled Component Spectra: 1
Spectrometers: USB2+H05261
Integration Time (usec): 100000 (USB2+H05261)
Spectra Averaged: 1 (USB2+H05261)
Boxcar Smoothing: 0 (USB2+H05261)
Correct for Electrical Dark: No (USB2+H05261)
Strobe/Lamp Enabled: No (USB2+H05261)
Correct for Detector Non-linearity: No (USB2+H05261)
Correct for Stray Light: No (USB2+H05261)
Number of Pixels in Processed Spectrum: 2048
>>>>>Begin Processed Spectral Data<<<<<
365.73	77.24
365.92	77.24
366.12	77.24
366.32	11.70
366.52	14.04
366.72	49.15
366.91	0.00
367.11	0.00
367.31	30.43
367.51	0.00
367.70	0.00
367.90	18.72
368.10	0.00
368.30	0.00
368.49	0.00
368.69	79.58
368.89	0.00
369.09	0.00
369.28	0.00
369.48	0.00
369.68	0.00
369.87	23.41
370.07	23.41
370.27	102.98
370.47	77.24
370.66	2.34
370.86	72.56
371.06	49.15
371.25	56.17
371.45	51.49
371.65	65.54
371.84	145.11
372.04	102.98
372.24	98.30
372.44	105.32
372.63	107.66
372.83	184.90
373.03	119.37
373.22	63.19
373.42	102.98
373.62	182.56
373.81	105.32
374.01	152.13
374.21	161.50
374.40	173.20
374.60	222.35
374.79	93.62
374.99	189.58
375.19	166.18
375.38	112.35
375.58	182.56
375.78	163.84
375.97	93.62
376.17	252.78
376.37	191.92
376.56	241.08
376.76	187.24
376.95	187.24
377.15	117.03
377.35	102.98
377.54	182.56
377.74	91.28
377.93	124.05
378.13	142.77
378.33	224.69
378.52	107.66
378.72	194.26
378.91	189.58
379.11	191.92
379.31	168.52
379.50	60.85
379.70	152.13
379.89	191.92
380.09	95.96
380.28	117.03
380.48	147.45
380.68	72.56
380.87	114.69
381.07	159.16
381.26	203.63
381.46	147.45
381.65	126.39
381.85	133.41
382.04	100.64
382.24	126.39
382.43	135.75
382.63	81.92
382.83	114.69
383.02	81.92
383.22	86.60
383.41	110.01
383.61	117.03
383.80	95.96
384.00	208.31
384.19	177.88
384.39	110.01
384.58	91.28
384.78	98.30
384.97	194.26
385.17	112.35
385.36	124.05
385.56	177.88
385.75	102.98
385.95	163.84
386.14	163.84
386.34	117.03
386.53	91.28
386.72	133.41
386.92	170.86
387.11	224.69
387.31	135.75
387.50	102.98
387.70	128.73
387.89	133.41
388.09	110.01
388.28	154.48
388.48	182.56
388.67	187.24
388.86	182.56
389.06	149.79
389.25	149.79
389.45	149.79
389.64	135.75
389.84	126.39
390.03	131.07
390.22	182.56
390.42	93.62
390.61	252.78
390.81	152.13
391.00	100.64
391.19	231.71
391.39	173.20
391.58	182.56
391.78	138.09
391.97	124.05
392.16	102.98
392.36	175.54
392.55	70.22
392.75	189.58
392.94	105.32
393.13	175.54
393.33	152.13
393.52	135.75
393.71	196.60
393.91	124.05
394.10	152.13
394.29	145.11
394.49	131.07
394.68	203.63
394.88	142.77
395.07	110.01
395.26	88.94
395.46	100.64
395.65	147.45
395.84	203.63
396.04	184.90
396.23	154.48
396.42	133.41
396.62	142.77
396.81	128.73
397.00	173.20
397.19	196.60
397.39	65.54
397.58	156.82
397.77	152.13
397.97	107.66
398.16	187.24
398.35	173.20
398.55	191.92
398.74	135.75
398.93	227.03
399.12	100.64
399.32	194.26
399.51	145.11
399.70	88.94
399.90	166.18
400.09	227.03
400.28	203.63
400.47	201.29
400.67	222.35
400.86	138.09
401.05	198.95
401.24	196.60
401.44	145.11
401.63	187.24
401.82	187.24
402.01	124.05
402.21	177.88
402.40	152.13
402.59	124.05
402.78	138.09
402.97	191.92
403.17	170.86
403.36	177.88
403.55	117.03
403.74	154.48
403.93	147.45
404.13	220.01
404.32	224.69
404.51	250.44
404.70	241.08
404.89	156.82
405.09	175.54
405.28	177.88
405.47	156.82
405.66	170.86
405.85	224.69
406.05	227.03
406.24	91.28
406.43	182.56
406.62	152.13
406.81	191.92
407.00	142.77
407.20	156.82
407.39	180.22
407.58	117.03
407.77	112.35
407.96	208.31
408.15	145.11
408.34	201.29
408.54	222.35
408.73	170.86
408.92	196.60
409.11	173.20
409.30	180.22
409.49	88.94
409.68	149.79
409.87	182.56
410.07	187.24
410.26	93.62
410.45	138.09
410.64	201.29
410.83	107.66
411.02	140.43
411.21	241.08
411.40	205.97
411.59	180.22
411.78	98.30
411.98	95.96
412.17	95.96
412.36	159.16
412.55	154.48
412.74	180.22
412.93	175.54
413.12	95.96
413.31	182.56
413.50	269.16
413.69	95.96
413.88	189.58
414.07	147.45
414.26	105.32
414.45	173.20
414.64	168.52
414.83	175.54
415.02	262.14
415.22	208.31
415.41	191.92
415.60	152.13
415.79	175.54
415.98	175.54
416.17	110.01
416.36	128.73
416.55	266.82
416.74	159.16
416.93	128.73
417.12	117.03
417.31	112.35
417.50	138.09
417.69	198.95
417.88	135.75
418.07	110.01
418.26	201.29
418.45	175.54
418.64	191.92
418.83	131.07
419.02	149.79
419.21	163.84
419.39	152.13
419.58	135.75
419.77	177.88
419.96	175.54
420.15	154.48
420.34	196.60
420.53	168.52
420.72	119.37
420.91	58.51
421.10	161.50
421.29	191.92
421.48	159.16
421.67	180.22
421.86	124.05
422.05	93.62
422.24	86.60
422.43	182.56
422.61	163.84
422.80	166.18
422.99	142.77
423.18	79.58
423.37	196.60
423.56	184.90
423.75	205.97
423.94	121.71
424.13	182.56
424.32	159.16
424.50	140.43
424.69	126.39
424.88	154.48
425.07	145.11
425.26	196.60
425.45	191.92
425.64	201.29
425.83	173.20
426.01	238.73
426.20	187.24
426.39	161.50
426.58	133.41
426.77	140.43
426.96	203.63
427.15	119.37
427.33	175.54
427.52	182.56
427.71	168.52
427.90	124.05
428.09	131.07
428.28	98.30
428.46	220.01
428.65	191.92
428.84	168.52
429.03	212.99
429.22	121.71
429.40	142.77
429.59	159.16
429.78	236.39
429.97	81.92
430.16	159.16
430.34	159.16
430.53	149.79
430.72	222.35
430.91	201.29
431.10	166.18
431.28	203.63
431.47	229.37
431.66	205.97
431.85	126.39
432.03	107.66
432.22	259.80
432.41	236.39
432.60	217.67
432.79	194.26
432.97	182.56
433.16	175.54
433.35	182.56
433.54	147.45
433.72	182.56
433.91	170.86
434.10	222.35
434.28	140.43
434.47	203.63
434.66	231.71
434.85	128.73
435.03	215.33
435.22	320.65
435.41	290.23
435.59	271.50
435.78	238.73
435.97	255.12
436.16	156.82
436.34	180.22
436.53	189.58
436.72	238.73
436.90	224.69
437.09	119.37
437.28	114.69
437.46	231.71
437.65	220.01
437.84	245.76
438.02	145.11
438.21	145.11
438.40	166.18
438.58	159.16
438.77	203.63
438.96	255.12
439.14	194.26
439.33	159.16
439.52	180.22
439.70	117.03
439.89	110.01
440.08	203.63
440.26	220.01
440.45	257.46
440.63	175.54
440.82	215.33
441.01	210.65
441.19	147.45
441.38	168.52
441.57	93.62
441.75	203.63
441.94	208.31
442.12	266.82
442.31	212.99
442.50	180.22
442.68	112.35
442.87	212.99
443.05	208.31
443.24	140.43
443.43	201.29
443.61	168.52
443.80	238.73
443.98	159.16
444.17	163.84
444.35	173.20
444.54	166.18
444.73	180.22
444.91	135.75
445.10	107.66
445.28	147.45
445.47	245.76
445.65	177.88
445.84	229.37
446.02	124.05
446.21	227.03
446.39	241.08
446.58	234.05
446.77	149.79
446.95	220.01
447.14	142.77
447.32	196.60
447.51	210.65
447.69	142.77
447.88	166.18
448.06	285.55
448.25	208.31
448.43	208.31
448.62	133.41
448.80	191.92
448.99	262.14
449.17	95.96
449.36	189.58
449.54	149.79
449.73	198.95
449.91	227.03
450.10	241.08
450.28	220.01
450.46	294.91
450.65	203.63
450.83	248.10
451.02	154.48
451.20	161.50
451.39	252.78
451.57	110.01
451.76	173.20
451.94	119.37
452.13	161.50
452.31	194.26
452.49	250.44
452.68	194.26
452.86	142.77
453.05	168.52
453.23	182.56
453.42	210.65
453.60	154.48
453.78	138.09
453.97	159.16
454.15	142.77
454.34	147.45
454.52	168.52
454.70	280.86
454.89	208.31
455.07	135.75
455.26	229.37
455.44	259.80
455.62	182.56
455.81	168.52
455.99	250.44
456.17	212.99
456.36	135.75
456.54	196.60
456.73	189.58
456.91	159.16
457.09	166.18
457.28	159.16
457.46	166.18
457.64	217.67
457.83	119.37
458.01	243.42
458.19	203.63
458.38	140.43
458.56	163.84
458.74	140.43
458.93	168.52
459.11	163.84
459.29	133.41
459.48	238.73
459.66	198.95
459.84	198.95
460.03	273.84
460.21	320.65
460.39	124.05
460.57	152.13
460.76	152.13
460.94	203.63
461.12	184.90
461.31	241.08
461.49	203.63
461.67	182.56
461.85	196.60
462.04	243.42
462.22	599.18
462.40	208.31
462.59	180.22
462.77	156.82
462.95	117.03
463.13	145.11
463.32	170.86
463.50	231.71
463.68	259.80
463.86	166.18
464.05	262.14
464.23	262.14
464.41	241.08
464.59	180.22
464.78	119.37
464.96	133.41
465.14	163.84
465.32	243.42
465.50	175.54
465.69	224.69
465.87	161.50
466.05	208.31
466.23	105.32
466.41	201.29
466.60	175.54
466.78	227.03
466.96	215.33
467.14	114.69
467.32	189.58
467.51	229.37
467.69	159.16
467.87	173.20
468.05	238.73
468.23	248.10
468.41	234.05
468.60	175.54
468.78	163.84
468.96	208.31
469.14	194.26
469.32	168.52
469.50	154.48
469.69	205.97
469.87	163.84
470.05	227.03
470.23	280.86
470.41	145.11
470.59	177.88
470.77	198.95
470.95	170.86
471.14	276.18
471.32	252.78
471.50	187.24
471.68	215.33
471.86	229.37
472.04	70.22
472.22	175.54
472.40	180.22
472.58	98.30
472.77	184.90
472.95	231.71
473.13	250.44
473.31	269.16
473.49	234.05
473.67	245.76
473.85	203.63
474.03	252.78
474.21	175.54
474.39	231.71
474.57	238.73
474.75	229.37
474.93	187.24
475.12	229.37
475.30	187.24
475.48	236.39
475.66	154.48
475.84	175.54
476.02	266.82
476.20	189.58
476.38	161.50
476.56	292.57
476.74	212.99
476.92	177.88
477.10	194.26
477.28	194.26
477.46	234.05
477.64	255.12
477.82	234.05
478.00	182.56
478.18	170.86
478.36	159.16
478.54	124.05
478.72	194.26
478.90	177.88
479.08	252.78
479.26	126.39
479.44	271.50
479.62	222.35
479.80	145.11
479.98	119.37
480.16	252.78
480.34	255.12
480.52	184.90
480.70	161.50
480.88	266.82
481.06	124.05
481.24	220.01
481.41	196.60
481.59	163.84
481.77	236.39
481.95	217.67
482.13	203.63
482.31	126.39
482.49	194.26
482.67	269.16
482.85	273.84
483.03	220.01
483.21	245.76
483.39	163.84
483.57	191.92
483.74	175.54
483.92	255.12
484.10	182.56
484.28	227.03
484.46	325.33
484.64	177.88
484.82	231.71
485.00	224.69
485.18	224.69
485.35	257.46
485.53	212.99
485.71	236.39
485.89	168.52
486.07	255.12
486.25	222.35
486.43	278.52
486.61	210.65
486.78	245.76
486.96	203.63
487.14	215.33
487.32	220.01
487.50	215.33
487.68	231.71
487.85	248.10
488.03	252.78
488.21	245.76
488.39	229.37
488.57	262.14
488.75	243.42
488.92	447.04
489.10	245.76
489.28	294.91
489.46	229.37
489.64	276.18
489.81	257.46
489.99	271.50
490.17	257.46
490.35	220.01
490.53	229.37
490.70	222.35
490.88	229.37
491.06	196.60
491.24	259.80
491.41	234.05
491.59	196.60
491.77	126.39
491.95	163.84
492.13	248.10
492.30	236.39
492.48	194.26
492.66	187.24
492.84	215.33
493.01	297.25
493.19	154.48
493.37	257.46
493.54	255.12
493.72	196.60
493.90	304.27
494.08	301.93
494.25	189.58
494.43	301.93
494.61	189.58
494.79	220.01
494.96	210.65
495.14	252.78
495.32	266.82
495.49	187.24
495.67	283.20
495.85	252.78
496.02	184.90
496.20	203.63
496.38	236.39
496.55	215.33
496.73	224.69
496.91	252.78
497.09	262.14
497.26	196.60
497.44	227.03
497.62	252.78
497.79	205.97
497.97	257.46
498.14	236.39
498.32	255.12
498.50	229.37
498.67	220.01
498.85	198.95
499.03	266.82
499.20	201.29
499.38	236.39
499.56	257.46
499.73	238.73
499.91	269.16
500.08	269.16
500.26	276.18
500.44	131.07
500.61	269.16
500.79	266.82
500.97	278.52
501.14	262.14
501.32	259.80
501.49	285.55
501.67	236.39
501.84	245.76
502.02	208.31
502.20	257.46
502.37	271.50
502.55	250.44
502.72	227.03
502.90	271.50
503.07	252.78
503.25	248.10
503.43	159.16
503.60	238.73
503.78	297.25
503.95	283.20
504.13	217.67
504.30	287.89
504.48	287.89
504.65	294.91
504.83	271.50
505.01	243.42
505.18	187.24
505.36	210.65
505.53	142.77
505.71	285.55
505.88	308.95
506.06	280.86
506.23	222.35
506.41	287.89
506.58	238.73
506.76	276.18
506.93	205.97
507.11	201.29
507.28	311.29
507.46	182.56
507.63	175.54
507.81	198.95
507.98	292.57
508.16	145.11
508.33	273.84
508.50	318.31
508.68	278.52
508.85	234.05
509.03	308.95
509.20	194.26
509.38	203.63
509.55	290.23
509.73	290.23
509.90	262.14
510.08	252.78
510.25	313.63
510.42	264.48
510.60	220.01
510.77	280.86
510.95	173.20
511.12	227.03
511.30	313.63
511.47	220.01
511.64	322.99
511.82	308.95
511.99	234.05
512.17	166.18
512.34	208.31
512.51	166.18
512.69	255.12
512.86	273.84
513.04	196.60
513.21	245.76
513.38	205.97
513.56	255.12
513.73	311.29
513.90	248.10
514.08	271.50
514.25	292.57
514.43	259.80
514.60	182.56
514.77	273.84
514.95	238.73
515.12	175.54
515.29	278.52
515.47	290.23
515.64	212.99
515.81	257.46
515.99	259.80
516.16	222.35
516.33	210.65
516.51	252.78
516.68	266.82
516.85	166.18
517.03	243.42
517.20	243.42
517.37	161.50
517.54	264.48
517.72	194.26
517.89	234.05
518.06	205.97
518.24	245.76
518.41	299.59
518.58	280.86
518.75	205.97
518.93	306.61
519.10	264.48
519.27	220.01
519.45	222.35
519.62	194.26
519.79	212.99
519.96	175.54
520.14	243.42
520.31	241.08
520.48	271.50
520.65	255.12
520.83	315.97
521.00	276.18
521.17	250.44
521.34	236.39
521.52	241.08
521.69	285.55
521.86	262.14
522.03	252.78
522.20	344.06
522.38	210.65
522.55	224.69
522.72	212.99
522.89	189.58
523.07	259.80
523.24	257.46
523.41	217.67
523.58	227.03
523.75	180.22
523.92	215.33
524.10	283.20
524.27	229.37
524.44	311.29
524.61	341.72
524.78	217.67
524.96	215.33
525.13	308.95
525.30	283.20
525.47	273.84
525.64	269.16
525.81	250.44
525.98	224.69
526.16	276.18
526.33	257.46
526.50	187.24
526.67	283.20
526.84	245.76
527.01	248.10
527.18	283.20
527.36	210.65
527.53	269.16
527.70	180.22
527.87	234.05
528.04	322.99
528.21	201.29
528.38	238.73
528.55	255.12
528.72	280.86
528.89	290.23
529.07	259.80
529.24	294.91
529.41	348.74
529.58	297.25
529.75	196.60
529.92	248.10
530.09	217.67
530.26	196.60
530.43	196.60
530.60	311.29
530.77	255.12
530.94	290.23
531.11	198.95
531.28	215.33
531.46	248.10
531.63	262.14
531.80	231.71
531.97	280.86
532.14	292.57
532.31	285.55
532.48	238.73
532.65	313.63
532.82	327.68
532.99	313.63
533.16	245.76
533.33	252.78
533.50	276.18
533.67	229.37
533.84	294.91
534.01	241.08
534.18	215.33
534.35	245.76
534.52	334.70
534.69	325.33
534.86	180.22
535.03	243.42
535.20	266.82
535.37	358.10
535.54	315.97
535.71	320.65
535.88	290.23
536.05	252.78
536.22	290.23
536.38	287.89
536.55	243.42
536.72	320.65
536.89	217.67
537.06	278.52
537.23	297.25
537.40	241.08
537.57	264.48
537.74	318.31
537.91	360.44
538.08	280.86
538.25	306.61
538.42	308.95
538.59	344.06
538.75	276.18
538.92	287.89
539.09	322.99
539.26	351.08
539.43	337.04
539.60	489.17
539.77	603.86
539.94	578.11
540.11	468.11
540.28	458.74
540.44	346.40
540.61	344.06
540.78	395.55
540.95	418.96
541.12	484.49
541.29	404.91
541.46	557.05
541.62	463.43
541.79	404.91
541.96	414.27
542.13	423.64
542.30	421.30
542.47	468.11
542.63	416.62
542.80	449.38
542.97	484.49
543.14	470.45
543.31	376.83
543.48	407.25
543.64	430.66
543.81	400.23
543.98	465.77
544.15	402.57
544.32	414.27
544.48	430.66
544.65	437.68
544.82	458.74
544.99	341.72
545.16	442.36
545.32	449.38
545.49	599.18
545.66	744.29
545.83	741.95
546.00	678.76
546.16	578.11
546.33	470.45
546.50	442.36
546.67	409.59
546.83	395.55
547.00	400.23
547.17	344.06
547.34	404.91
547.50	409.59
547.67	404.91
547.84	315.97
548.00	351.08
548.17	341.72
548.34	383.85
548.51	381.51
548.67	411.93
548.84	250.44
549.01	330.02
549.18	379.17
549.34	376.83
549.51	346.40
549.68	297.25
549.84	355.76
550.01	278.52
550.18	374.49
550.34	355.76
550.51	362.78
550.68	381.51
550.84	348.74
551.01	365.12
551.18	308.95
551.34	334.70
551.51	236.39
551.68	278.52
551.84	322.99
552.01	301.93
552.18	306.61
552.34	301.93
552.51	308.95
552.68	273.84
552.84	250.44
553.01	315.97
553.18	252.78
553.34	346.40
553.51	283.20
553.67	180.22
553.84	262.14
554.01	313.63
554.17	264.48
554.34	290.23
554.51	358.10
554.67	337.04
554.84	259.80
555.00	311.29
555.17	224.69
555.33	255.12
555.50	313.63
555.67	266.82
555.83	238.73
556.00	280.86
556.16	376.83
556.33	180.22
556.50	278.52
556.66	250.44
556.83	210.65
556.99	252.78
557.16	252.78
557.32	287.89
557.49	227.03
557.65	205.97
557.82	241.08
557.98	255.12
558.15	229.37
558.32	231.71
558.48	236.39
558.65	205.97
558.81	325.33
558.98	187.24
559.14	290.23
559.31	252.78
559.47	220.01
559.64	276.18
559.80	301.93
559.97	180.22
560.13	269.16
560.30	234.05
560.46	224.69
560.63	264.48
560.79	339.38
560.96	196.60
561.12	243.42
561.29	299.59
561.45	243.42
561.61	212.99
561.78	358.10
561.94	231.71
562.11	236.39
562.27	290.23
562.44	170.86
562.60	252.78
562.77	292.57
562.93	276.18
563.10	234.05
563.26	271.50
563.42	234.05
563.59	294.91
563.75	250.44
563.92	259.80
564.08	229.37
564.24	234.05
564.41	301.93
564.57	266.82
564.74	243.42
564.90	248.10
565.07	212.99
565.23	290.23
565.39	210.65
565.56	311.29
565.72	229.37
565.88	245.76
566.05	292.57
566.21	234.05
566.38	269.16
566.54	259.80
566.70	257.46
566.87	227.03
567.03	201.29
567.19	231.71
567.36	257.46
567.52	264.48
567.68	304.27
567.85	318.31
568.01	259.80
568.17	212.99
568.34	236.39
568.50	278.52
568.66	227.03
568.83	337.04
568.99	215.33
569.15	285.55
569.32	245.76
569.48	299.59
569.64	290.23
569.81	257.46
569.97	220.01
570.13	196.60
570.30	215.33
570.46	170.86
570.62	241.08
570.78	224.69
570.95	299.59
571.11	327.68
571.27	269.16
571.43	208.31
571.60	269.16
571.76	203.63
571.92	220.01
572.09	248.10
572.25	229.37
572.41	301.93
572.57	217.67
572.74	290.23
572.90	170.86
573.06	287.89
573.22	180.22
573.38	301.93
573.55	245.76
573.71	224.69
573.87	318.31
574.03	212.99
574.20	297.25
574.36	276.18
574.52	205.97
574.68	217.67
574.84	266.82
575.01	276.18
575.17	262.14
575.33	224.69
575.49	290.23
575.65	198.95
575.82	243.42
575.98	355.76
576.14	334.70
576.30	407.25
576.46	416.62
576.62	374.49
576.79	372.15
576.95	402.57
577.11	271.50
577.27	245.76
577.43	285.55
577.59	294.91
577.75	259.80
577.92	248.10
578.08	262.14
578.24	238.73
578.40	351.08
578.56	344.06
578.72	339.38
578.88	393.21
579.04	322.99
579.21	322.99
579.37	217.67
579.53	315.97
579.69	294.91
579.85	264.48
580.01	365.12
580.17	337.04
580.33	285.55
580.49	276.18
580.65	327.68
580.82	337.04
580.98	304.27
581.14	278.52
581.30	320.65
581.46	334.70
581.62	421.30
581.78	330.02
581.94	409.59
582.10	287.89
582.26	325.33
582.42	304.27
582.58	320.65
582.74	327.68
582.90	346.40
583.06	280.86
583.22	388.53
583.38	355.76
583.54	341.72
583.70	374.49
583.86	404.91
584.02	381.51
584.18	559.39
584.34	538.32
584.50	994.73
584.66	6483.28
584.82	14916.23
584.98	18920.89
585.14	16093.52
585.30	10216.44
585.46	6258.59
585.62	3960.19
585.78	1973.07
585.94	959.62
586.10	587.47
586.26	573.43
586.42	447.04
586.58	454.06
586.74	315.97
586.90	425.98
587.06	414.27
587.22	404.91
587.38	369.80
587.54	545.34
587.70	1128.14
587.86	1561.14
588.02	1554.12
588.18	1130.48
588.34	842.59
588.49	545.34
588.65	468.11
588.81	320.65
588.97	266.82
589.13	327.68
589.29	292.57
589.45	264.48
589.61	257.46
589.77	388.53
589.93	383.85
590.08	334.70
590.24	308.95
590.40	257.46
590.56	290.23
590.72	266.82
590.88	292.57
591.04	287.89
591.20	271.50
591.35	332.36
591.51	241.08
591.67	280.86
591.83	304.27
591.99	294.91
592.15	341.72
592.31	273.84
592.46	299.59
592.62	355.76
592.78	266.82
592.94	311.29
593.10	245.76
593.26	320.65
593.41	374.49
593.57	353.42
593.73	430.66
593.89	966.64
594.05	1872.43
594.20	2441.18
594.36	2303.09
594.52	1542.41
594.68	1165.59
594.84	802.80
594.99	493.85
595.15	344.06
595.31	339.38
595.47	351.08
595.62	250.44
595.78	325.33
595.94	301.93
596.10	276.18
596.25	264.48
596.41	259.80
596.57	271.50
596.73	308.95
596.88	369.80
597.04	571.09
597.20	716.20
597.36	748.97
597.51	615.56
597.67	472.79
597.83	411.93
597.99	379.17
598.14	278.52
598.30	280.86
598.46	222.35
598.61	299.59
598.77	278.52
598.93	264.48
599.09	245.76
599.24	327.68
599.40	322.99
599.56	353.42
599.71	231.71
599.87	299.59
600.03	318.31
600.18	276.18
600.34	339.38
600.50	229.37
600.65	259.80
600.81	252.78
600.97	205.97
601.12	236.39
601.28	266.82
601.44	236.39
601.59	238.73
601.75	278.52
601.91	224.69
602.06	337.04
602.22	344.06
602.37	407.25
602.53	578.11
602.69	807.48
602.84	727.91
603.00	575.77
603.16	517.26
603.31	374.49
603.47	322.99
603.62	280.86
603.78	208.31
603.94	290.23
604.09	255.12
604.25	285.55
604.40	322.99
604.56	212.99
604.71	266.82
604.87	264.48
605.03	248.10
605.18	308.95
605.34	252.78
605.49	266.82
605.65	325.33
605.80	259.80
605.96	273.84
606.12	273.84
606.27	231.71
606.43	229.37
606.58	264.48
606.74	486.83
606.89	1114.10
607.05	1860.73
607.20	2062.01
607.36	1692.21
607.51	1179.63
607.67	973.66
607.82	671.73
607.98	517.26
608.13	360.44
608.29	339.38
608.44	381.51
608.60	269.16
608.75	283.20
608.91	615.56
609.06	1668.80
609.22	2871.84
609.37	3543.57
609.53	2991.20
609.68	2087.76
609.84	1537.73
609.99	1081.33
610.15	805.14
610.30	636.63
610.46	514.92
610.61	606.20
