SpectraSuite Data File
++++++++++++++++++++++++++++++++++++
Date: Fri Oct 04 12:14:01 GMT-05:00 2013
User: price-jones
Dark Spectrum Present: No
Reference Spectrum Present: No
Number of Sampled Component Spectra: 1
Spectrometers: USB2+H05261
Integration Time (usec): 1000000 (USB2+H05261)
Spectra Averaged: 1 (USB2+H05261)
Boxcar Smoothing: 0 (USB2+H05261)
Correct for Electrical Dark: No (USB2+H05261)
Strobe/Lamp Enabled: No (USB2+H05261)
Correct for Detector Non-linearity: No (USB2+H05261)
Correct for Stray Light: No (USB2+H05261)
Number of Pixels in Processed Spectrum: 2048
>>>>>Begin Processed Spectral Data<<<<<
365.73	0.00
365.92	0.00
366.12	0.00
366.32	0.00
366.52	0.00
366.72	318.31
366.91	142.77
367.11	229.37
367.31	217.67
367.51	341.72
367.70	358.10
367.90	505.56
368.10	278.52
368.30	360.44
368.49	128.73
368.69	421.30
368.89	325.33
369.09	203.63
369.28	283.20
369.48	110.01
369.68	243.42
369.87	393.21
370.07	212.99
370.27	627.26
370.47	374.49
370.66	367.46
370.86	496.19
371.06	765.36
371.25	940.90
371.45	418.96
371.65	669.39
371.84	402.57
372.04	266.82
372.24	472.79
372.44	433.00
372.63	519.60
372.83	830.89
373.03	505.56
373.22	379.17
373.42	346.40
373.62	472.79
373.81	617.90
374.01	713.86
374.21	678.76
374.40	517.26
374.60	779.40
374.79	512.58
374.99	395.55
375.19	533.64
375.38	638.97
375.58	538.32
375.78	734.93
375.97	638.97
376.17	877.70
376.37	404.91
376.56	620.24
376.76	388.53
376.95	344.06
377.15	638.97
377.35	606.20
377.54	648.33
377.74	425.98
377.93	416.62
378.13	470.45
378.33	695.14
378.52	500.87
378.72	671.73
378.91	748.97
379.11	402.57
379.31	416.62
379.50	367.46
379.70	709.18
379.89	638.97
380.09	397.89
380.28	271.50
380.48	550.03
380.68	397.89
380.87	386.19
381.07	552.37
381.26	858.98
381.46	711.52
381.65	582.79
381.85	411.93
382.04	472.79
382.24	606.20
382.43	503.22
382.63	395.55
382.83	435.34
383.02	690.46
383.22	802.80
383.41	400.23
383.61	470.45
383.80	451.72
384.00	449.38
384.19	418.96
384.39	564.07
384.58	477.47
384.78	662.37
384.97	589.82
385.17	484.49
385.36	514.92
385.56	603.86
385.75	308.95
385.95	531.30
386.14	648.33
386.34	383.85
386.53	571.09
386.72	454.06
386.92	732.59
387.11	610.88
387.31	594.50
387.50	304.27
387.70	381.51
387.89	472.79
388.09	341.72
388.28	299.59
388.48	425.98
388.67	692.80
388.86	458.74
389.06	484.49
389.25	547.69
389.45	470.45
389.64	484.49
389.84	706.84
390.03	603.86
390.22	601.52
390.42	472.79
390.61	484.49
390.81	369.80
391.00	573.43
391.19	753.65
391.39	498.53
391.58	671.73
391.78	484.49
391.97	571.09
392.16	278.52
392.36	748.97
392.55	713.86
392.75	451.72
392.94	482.15
393.13	596.84
393.33	308.95
393.52	351.08
393.71	770.04
393.91	510.24
394.10	367.46
394.29	461.09
394.49	524.28
394.68	702.16
394.88	866.00
395.07	695.14
395.26	528.96
395.46	540.66
395.65	751.31
395.84	580.45
396.04	1153.88
396.23	538.32
396.42	489.17
396.62	641.31
396.81	610.88
397.00	540.66
397.19	620.24
397.39	540.66
397.58	821.53
397.77	493.85
397.97	627.26
398.16	528.96
398.35	699.82
398.55	435.34
398.74	510.24
398.93	723.23
399.12	486.83
399.32	622.58
399.51	557.05
399.70	706.84
399.90	702.16
400.09	615.56
400.28	760.67
400.47	503.22
400.67	706.84
400.86	594.50
401.05	751.31
401.24	748.97
401.44	678.76
401.63	760.67
401.82	858.98
402.01	514.92
402.21	599.18
402.40	564.07
402.59	594.50
402.78	496.19
402.97	547.69
403.17	533.64
403.36	622.58
403.55	550.03
403.74	648.33
403.93	688.12
404.13	826.21
404.32	655.35
404.51	580.45
404.70	917.49
404.89	519.60
405.09	968.98
405.28	557.05
405.47	388.53
405.66	664.71
405.85	765.36
406.05	606.20
406.24	493.85
406.43	655.35
406.62	737.27
406.81	1139.84
407.00	861.32
407.20	643.65
407.39	573.43
407.58	496.19
407.77	725.57
407.96	978.34
408.15	807.48
408.34	713.86
408.54	622.58
408.73	690.46
408.92	634.29
409.11	727.91
409.30	856.64
409.49	454.06
409.68	610.88
409.87	643.65
410.07	433.00
410.26	676.41
410.45	568.75
410.64	573.43
410.83	662.37
411.02	484.49
411.21	765.36
411.40	788.76
411.59	653.01
411.78	601.52
411.98	627.26
412.17	479.81
412.36	594.50
412.55	552.37
412.74	702.16
412.93	964.30
413.12	498.53
413.31	816.85
413.50	692.80
413.69	671.73
413.88	957.28
414.07	760.67
414.26	678.76
414.45	533.64
414.64	826.21
414.83	765.36
415.02	690.46
415.22	823.87
415.41	957.28
415.60	737.27
415.79	751.31
415.98	980.68
416.17	770.04
416.36	713.86
416.55	582.79
416.74	716.20
416.93	884.72
417.12	627.26
417.31	695.14
417.50	758.33
417.69	1184.31
417.88	961.96
418.07	763.01
418.26	812.17
418.45	718.54
418.64	1196.01
418.83	1114.10
419.02	968.98
419.21	943.24
419.39	877.70
419.58	763.01
419.77	699.82
419.96	1011.11
420.15	1118.78
420.34	699.82
420.53	791.10
420.72	950.26
420.91	732.59
421.10	720.88
421.29	737.27
421.48	842.59
421.67	887.06
421.86	624.92
422.05	772.38
422.24	716.20
422.43	713.86
422.61	557.05
422.80	627.26
422.99	697.48
423.18	622.58
423.37	1076.65
423.56	854.30
423.75	826.21
423.94	564.07
424.13	751.31
424.32	631.94
424.50	709.18
424.69	669.39
424.88	880.04
425.07	664.71
425.26	840.25
425.45	1034.52
425.64	931.53
425.83	987.71
426.01	1104.73
426.20	901.11
426.39	685.78
426.58	667.05
426.77	793.44
426.96	910.47
427.15	880.04
427.33	774.72
427.52	737.27
427.71	760.67
427.90	720.88
428.09	608.54
428.28	573.43
428.46	631.94
428.65	819.19
428.84	894.08
429.03	1118.78
429.22	688.12
429.40	629.60
429.59	519.60
429.78	1158.57
429.97	627.26
430.16	615.56
430.34	709.18
430.53	601.52
430.72	587.47
430.91	891.74
431.10	629.60
431.28	849.61
431.47	947.92
431.66	849.61
431.85	791.10
432.03	760.67
432.22	1165.59
432.41	800.46
432.60	1020.47
432.79	830.89
432.97	1282.61
433.16	1172.61
433.35	964.30
433.54	873.02
433.72	978.34
433.91	1006.43
434.10	753.65
434.28	966.64
434.47	802.80
434.66	1032.18
434.85	741.95
435.03	851.96
435.22	1057.92
435.41	1142.18
435.59	929.19
435.78	1015.79
435.97	634.29
436.16	1027.50
436.34	772.38
436.53	786.42
436.72	966.64
436.90	997.07
437.09	849.61
437.28	805.14
437.46	730.25
437.65	950.26
437.84	929.19
438.02	851.96
438.21	793.44
438.40	660.03
438.58	645.99
438.77	823.87
438.96	847.27
439.14	732.59
439.33	917.49
439.52	699.82
439.70	819.19
439.89	950.26
440.08	805.14
440.26	826.21
440.45	1114.10
440.63	809.83
440.82	814.51
441.01	866.00
441.19	812.17
441.38	767.70
441.57	802.80
441.75	1069.62
441.94	1086.01
442.12	826.21
442.31	861.32
442.50	919.83
442.68	823.87
442.87	880.04
443.05	809.83
443.24	912.81
443.43	1081.33
443.61	1198.35
443.80	849.61
443.98	788.76
444.17	809.83
444.35	1046.22
444.54	915.15
444.73	835.57
444.91	1130.48
445.10	653.01
445.28	711.52
445.47	945.58
445.65	870.68
445.84	760.67
446.02	814.51
446.21	767.70
446.39	767.70
446.58	894.08
446.77	741.95
446.95	912.81
447.14	915.15
447.32	1214.74
447.51	936.21
447.69	858.98
447.88	903.45
448.06	1231.12
448.25	1034.52
448.43	844.93
448.62	788.76
448.80	910.47
448.99	1076.65
449.17	777.06
449.36	774.72
449.54	999.41
449.73	828.55
449.91	1071.97
450.10	854.30
450.28	1409.00
450.46	1306.02
450.65	1116.44
450.83	1018.13
451.02	882.38
451.20	919.83
451.39	802.80
451.57	840.25
451.76	777.06
451.94	903.45
452.13	978.34
452.31	1109.41
452.49	1046.22
452.68	699.82
452.86	931.53
453.05	1256.87
453.23	891.74
453.42	770.04
453.60	828.55
453.78	952.60
453.97	739.61
454.15	753.65
454.34	748.97
454.52	851.96
454.70	1252.19
454.89	1043.88
455.07	842.59
455.26	1027.50
455.44	1137.50
455.62	842.59
455.81	1020.47
455.99	1018.13
456.17	1095.37
456.36	880.04
456.54	929.19
456.73	842.59
456.91	748.97
457.09	957.28
457.28	1137.50
457.46	933.87
457.64	1149.20
457.83	896.43
458.01	858.98
458.19	999.41
458.38	807.48
458.56	856.64
458.74	763.01
458.93	1011.11
459.11	931.53
459.29	816.85
459.48	1114.10
459.66	1320.06
459.84	1074.31
460.03	1755.40
460.21	1083.67
460.39	954.94
460.57	1226.44
460.76	976.00
460.94	943.24
461.12	1413.68
461.31	1252.19
461.49	910.47
461.67	823.87
461.85	950.26
462.04	973.66
462.22	5792.83
462.40	1231.12
462.59	1263.89
462.77	999.41
462.95	1069.62
463.13	856.64
463.32	1158.57
463.50	1015.79
463.68	1025.15
463.86	976.00
464.05	889.40
464.23	1256.87
464.41	1128.14
464.59	898.77
464.78	898.77
464.96	798.12
465.14	877.70
465.32	880.04
465.50	1132.82
465.69	1083.67
465.87	744.29
466.05	1064.94
466.23	791.10
466.41	837.91
466.60	889.40
466.78	1036.86
466.96	1203.04
467.14	1142.18
467.32	1249.85
467.51	1013.45
467.69	1060.26
467.87	1259.21
468.05	971.32
468.23	1334.11
468.41	1069.62
468.60	875.36
468.78	964.30
468.96	1210.06
469.14	1111.75
469.32	777.06
469.50	854.30
469.69	1088.35
469.87	966.64
470.05	1020.47
470.23	990.05
470.41	905.79
470.59	870.68
470.77	1029.84
470.95	966.64
471.14	1158.57
471.32	1020.47
471.50	1252.19
471.68	1132.82
471.86	1062.60
472.04	861.32
472.22	1029.84
472.40	746.63
472.58	828.55
472.77	856.64
472.95	999.41
473.13	1474.54
473.31	1200.69
473.49	1004.09
473.67	844.93
473.85	1212.40
474.03	1128.14
474.21	1025.15
474.39	1348.15
474.57	1437.09
474.75	1109.41
474.93	952.60
475.12	812.17
475.30	856.64
475.48	1022.81
475.66	971.32
475.84	1074.31
476.02	987.71
476.20	1165.59
476.38	994.73
476.56	1547.09
476.74	1041.54
476.92	1102.39
477.10	1053.24
477.28	1132.82
477.46	933.87
477.64	1233.46
477.82	1055.58
478.00	980.68
478.18	1205.38
478.36	1041.54
478.54	957.28
478.72	983.02
478.90	992.39
479.08	1107.07
479.26	1074.31
479.44	931.53
479.62	1004.09
479.80	931.53
479.98	964.30
480.16	1036.86
480.34	1242.82
480.52	983.02
480.70	1203.04
480.88	940.90
481.06	980.68
481.24	1071.97
481.41	1102.39
481.59	1277.93
481.77	1055.58
481.95	1181.97
482.13	1413.68
482.31	1132.82
482.49	1088.35
482.67	1256.87
482.85	1261.55
483.03	1240.48
483.21	1188.99
483.39	1104.73
483.57	1198.35
483.74	1467.52
483.92	1172.61
484.10	971.32
484.28	1437.09
484.46	1739.02
484.64	1116.44
484.82	1149.20
485.00	1130.48
485.18	1128.14
485.35	1228.78
485.53	940.90
485.71	1341.13
485.89	924.51
486.07	1011.11
486.25	1603.27
486.43	1313.04
486.61	1261.55
486.78	1254.53
486.96	1001.75
487.14	1214.74
487.32	1310.70
487.50	1226.44
487.68	1411.34
487.85	1102.39
488.03	1399.64
488.21	1619.65
488.39	1144.52
488.57	1357.51
488.75	1149.20
488.92	4002.32
489.10	1507.30
489.28	1774.13
489.46	1095.37
489.64	1210.06
489.81	1380.92
489.99	1465.18
490.17	1352.83
490.35	1907.54
490.53	1284.95
490.70	1212.40
490.88	1399.64
491.06	1268.57
491.24	1420.71
491.41	1678.16
491.59	1495.60
491.77	1249.85
491.95	1210.06
492.13	1196.01
492.30	1275.59
492.48	1390.28
492.66	1334.11
492.84	1261.55
493.01	1362.19
493.19	1280.27
493.37	1823.28
493.54	1528.37
493.72	1460.49
493.90	1352.83
494.08	1313.04
494.25	1570.50
494.43	1542.41
494.61	1418.36
494.79	1296.66
494.96	1275.59
495.14	1490.92
495.32	1425.39
495.49	1523.69
495.67	1526.03
495.85	1430.07
496.02	1306.02
496.20	1575.18
496.38	1554.12
496.55	1497.94
496.73	1490.92
496.91	1404.32
497.09	1502.62
497.26	1394.96
497.44	1362.19
497.62	1430.07
497.79	1507.30
497.97	1502.62
498.14	1511.99
498.32	1519.01
498.50	1521.35
498.67	1355.17
498.85	1526.03
499.03	1380.92
499.20	1519.01
499.38	1458.15
499.56	1540.07
499.73	1825.62
499.91	1643.06
500.08	1717.95
500.26	1493.26
500.44	1397.30
500.61	1511.99
500.79	1383.26
500.97	1593.90
501.14	1797.53
501.32	1516.67
501.49	1790.51
501.67	1427.73
501.84	1572.84
502.02	1329.42
502.20	1769.44
502.37	1579.86
502.55	1472.20
502.72	1528.37
502.90	1659.44
503.07	1565.82
503.25	1638.38
503.43	1308.36
503.60	1542.41
503.78	1598.59
503.95	1519.01
504.13	1458.15
504.30	1673.48
504.48	1701.57
504.65	1954.35
504.83	1823.28
505.01	1542.41
505.18	1694.55
505.36	1572.84
505.53	1554.12
505.71	1472.20
505.88	1888.81
506.06	1537.73
506.23	1542.41
506.41	1420.71
506.58	1631.35
506.76	1579.86
506.93	1509.65
507.11	1640.72
507.28	1528.37
507.46	1516.67
507.63	1593.90
507.81	1437.09
507.98	1603.27
508.16	1600.93
508.33	1586.88
508.50	1727.32
508.68	1584.54
508.85	1603.27
509.03	1563.48
509.20	1551.78
509.38	1717.95
509.55	1783.49
509.73	1804.55
509.90	1853.70
510.08	1490.92
510.25	1771.79
510.42	1561.14
510.60	1607.95
510.77	1757.74
510.95	1907.54
511.12	1664.12
511.30	1919.24
511.47	1954.35
511.64	2204.78
511.82	1605.61
511.99	1610.29
512.17	1680.50
512.34	1418.36
512.51	1511.99
512.69	1460.49
512.86	1851.36
513.04	1406.66
513.21	1687.53
513.38	1483.90
513.56	1507.30
513.73	1565.82
513.90	1411.34
514.08	1444.11
514.25	1607.95
514.43	1654.76
514.60	1547.09
514.77	1619.65
514.95	1680.50
515.12	1556.46
515.29	1614.97
515.47	1699.23
515.64	1617.31
515.81	1671.14
515.99	2008.18
516.16	1650.08
516.33	1746.04
516.51	1448.79
516.68	1296.66
516.85	1310.70
517.03	1469.86
517.20	1643.06
517.37	1685.19
517.54	1778.81
517.72	1537.73
517.89	1348.15
518.06	1359.85
518.24	2071.37
518.41	1989.46
518.58	1713.27
518.75	1535.39
518.93	1614.97
519.10	1689.87
519.27	1551.78
519.45	1650.08
519.62	1603.27
519.79	1696.89
519.96	1462.83
520.14	1776.47
520.31	1956.69
520.48	1624.33
520.65	1701.57
520.83	1818.60
521.00	1797.53
521.17	1673.48
521.34	1673.48
521.52	1652.42
521.69	1685.19
521.86	1757.74
522.03	1813.92
522.20	1949.67
522.38	1638.38
522.55	1638.38
522.72	1458.15
522.89	1781.15
523.07	2026.90
523.24	1722.63
523.41	1647.74
523.58	1558.80
523.75	1661.78
523.92	1544.75
524.10	1732.00
524.27	1600.93
524.44	1659.44
524.61	1813.92
524.78	1563.48
524.96	1774.13
525.13	1741.36
525.30	1893.49
525.47	1797.53
525.64	1746.04
525.81	1678.16
525.98	1600.93
526.16	1514.33
526.33	1376.24
526.50	1476.88
526.67	1362.19
526.84	1345.81
527.01	1514.33
527.18	1675.82
527.36	1650.08
527.53	1584.54
527.70	1916.90
527.87	1703.91
528.04	2045.63
528.21	1638.38
528.38	1998.82
528.55	1947.33
528.72	2073.71
528.89	2146.27
529.07	1717.95
529.24	1703.91
529.41	2050.31
529.58	1816.26
529.75	1685.19
529.92	1797.53
530.09	1811.57
530.26	1902.86
530.43	1816.26
530.60	1666.46
530.77	1764.76
530.94	1858.39
531.11	1743.70
531.28	1631.35
531.46	1568.16
531.63	1781.15
531.80	1729.66
531.97	1785.83
532.14	1762.42
532.31	1717.95
532.48	1895.83
532.65	2031.58
532.82	2129.89
532.99	2202.44
533.16	1921.58
533.33	1891.15
533.50	1762.42
533.67	1874.77
533.84	2413.09
534.01	2485.65
534.18	2143.93
534.35	2024.56
534.52	1844.34
534.69	2415.43
534.86	1741.36
535.03	1659.44
535.20	1685.19
535.37	1942.64
535.54	1846.68
535.71	1813.92
535.88	2127.55
536.05	1680.50
536.22	1802.21
536.38	1600.93
536.55	1678.16
536.72	1940.30
536.89	1448.79
537.06	1657.10
537.23	1600.93
537.40	1661.78
537.57	1633.69
537.74	1888.81
537.91	1842.00
538.08	1708.59
538.25	1912.22
538.42	1638.38
538.59	1797.53
538.75	1708.59
538.92	1696.89
539.09	2001.16
539.26	1682.85
539.43	2539.48
539.60	4414.25
539.77	6778.19
539.94	7222.89
540.11	4875.34
540.28	3564.64
540.44	2906.95
540.61	1923.92
540.78	1694.55
540.95	1556.46
541.12	2083.08
541.29	1647.74
541.46	2017.54
541.62	1710.93
541.79	1589.22
541.96	1586.88
542.13	1542.41
542.30	1521.35
542.47	1778.81
542.63	1657.10
542.80	1743.70
542.97	1912.22
543.14	1664.12
543.31	1839.66
543.48	1746.04
543.64	1755.40
543.81	1680.50
543.98	1614.97
544.15	1514.33
544.32	1533.05
544.48	1734.34
544.65	1636.03
544.82	1617.31
544.99	1612.63
545.16	1888.81
545.32	1647.74
545.49	1762.42
545.66	1680.50
545.83	1516.67
546.00	1469.86
546.16	1575.18
546.33	1521.35
546.50	1549.43
546.67	1954.35
546.83	1933.28
547.00	1694.55
547.17	1549.43
547.34	1586.88
547.50	1692.21
547.67	1650.08
547.84	1537.73
548.00	1818.60
548.17	1579.86
548.34	1579.86
548.51	1970.73
548.67	1870.09
548.84	1509.65
549.01	1671.14
549.18	1834.98
549.34	1760.08
549.51	1629.01
549.68	1884.13
549.84	1736.68
550.01	1537.73
550.18	2553.52
550.34	2368.62
550.51	1839.66
550.68	2108.82
550.84	1645.40
551.01	1699.23
551.18	1741.36
551.34	1636.03
551.51	1654.76
551.68	1596.25
551.84	1823.28
552.01	1591.56
552.18	1577.52
552.34	1624.33
552.51	1739.02
552.68	1673.48
552.84	1596.25
553.01	1717.95
553.18	1867.75
553.34	1577.52
553.51	1486.24
553.67	1743.70
553.84	2015.20
554.01	1776.47
554.17	1755.40
554.34	1577.52
554.51	1736.68
554.67	1884.13
554.84	1820.94
555.00	1746.04
555.17	1816.26
555.33	1839.66
555.50	1722.63
555.67	1767.10
555.83	1542.41
556.00	1666.46
556.16	3325.90
556.33	1888.81
556.50	1614.97
556.66	1577.52
556.83	1556.46
556.99	1626.67
557.16	1675.82
557.32	1519.01
557.49	1561.14
557.65	1483.90
557.82	1511.99
557.98	1586.88
558.15	1551.78
558.32	1652.42
558.48	1481.56
558.65	1572.84
558.81	1788.17
558.98	1577.52
559.14	1696.89
559.31	1612.63
559.47	1748.38
559.64	1509.65
559.80	1760.08
559.97	1441.77
560.13	1582.20
560.30	1350.49
560.46	1533.05
560.63	1554.12
560.79	1661.78
560.96	1659.44
561.12	1514.33
561.29	1664.12
561.45	1444.11
561.61	1624.33
561.78	2492.67
561.94	1495.60
562.11	1556.46
562.27	1666.46
562.44	1579.86
562.60	1600.93
562.77	1586.88
562.93	2298.41
563.10	1678.16
563.26	1593.90
563.42	1823.28
563.59	1603.27
563.75	1479.22
563.92	1860.73
564.08	1743.70
564.24	1853.70
564.41	2099.46
564.57	1533.05
564.74	1556.46
564.90	1668.80
565.07	1872.43
565.23	1856.04
565.39	1722.63
565.56	1827.96
565.72	1633.69
565.88	1598.59
566.05	1474.54
566.21	1453.47
566.38	1680.50
566.54	1605.61
566.70	1575.18
566.87	1575.18
567.03	1364.53
567.19	1533.05
567.36	1710.93
567.52	1530.71
567.68	1764.76
567.85	1746.04
568.01	1474.54
568.17	1362.19
568.34	1444.11
568.50	1858.39
568.66	1444.11
568.83	2242.23
568.99	1483.90
569.15	2001.16
569.32	1533.05
569.48	1596.25
569.64	1418.36
569.81	1542.41
569.97	1483.90
570.13	1600.93
570.30	1418.36
570.46	1483.90
570.62	1476.88
570.78	1434.75
570.95	1270.91
571.11	1989.46
571.27	2026.90
571.43	1423.05
571.60	1778.81
571.76	1521.35
571.92	1535.39
572.09	1451.13
572.25	1537.73
572.41	1561.14
572.57	1516.67
572.74	1912.22
572.90	1734.34
573.06	1818.60
573.22	1771.79
573.38	1811.57
573.55	1755.40
573.71	1797.53
573.87	1584.54
574.03	1486.24
574.20	1504.96
574.36	1928.60
574.52	1771.79
574.68	1914.56
574.84	1994.14
575.01	1720.29
575.17	1764.76
575.33	1474.54
575.49	1727.32
575.65	1888.81
575.82	2043.29
575.98	3007.59
576.14	3239.30
576.30	3548.25
576.46	2958.44
576.62	2387.35
576.79	2127.55
576.95	2181.38
577.11	1526.03
577.27	1626.67
577.43	1891.15
577.59	1921.58
577.75	1856.04
577.92	1535.39
578.08	1610.29
578.24	1584.54
578.40	1916.90
578.56	1966.05
578.72	1956.69
578.88	1851.36
579.04	1778.81
579.21	1837.32
579.37	1629.01
579.53	1715.61
579.69	2085.42
579.85	1746.04
580.01	2057.33
580.17	2010.52
580.33	1944.99
580.49	2008.18
580.65	2104.14
580.82	1937.96
580.98	1783.49
581.14	1827.96
581.30	2174.36
581.46	2272.66
581.62	2878.86
581.78	3129.30
581.94	3023.97
582.10	2408.41
582.26	2354.58
582.42	2181.38
582.58	2230.53
582.74	2066.69
582.90	2298.41
583.06	2373.30
583.22	2319.47
583.38	2333.51
583.54	2401.39
583.70	3096.53
583.86	3419.52
584.02	3655.92
584.18	4400.21
584.34	5170.24
584.50	12678.68
584.66	62922.96
584.82	65535.00
584.98	65535.00
585.14	65535.00
585.30	65535.00
585.46	65535.00
585.62	64832.84
585.78	35274.21
585.94	13628.94
586.10	6920.96
586.26	4727.88
586.42	4159.13
586.58	3508.46
586.74	2970.14
586.90	2916.31
587.06	2923.33
587.22	2719.70
587.38	2471.61
587.54	4767.67
587.70	13973.00
587.86	24769.89
588.02	29280.10
588.18	20191.80
588.34	12739.54
588.49	8248.05
588.65	5343.44
588.81	3089.51
588.97	2005.84
589.13	1699.23
589.29	1778.81
589.45	1863.07
589.61	1743.70
589.77	2242.23
589.93	2202.44
590.08	2331.17
590.24	2312.45
590.40	2232.87
590.56	2244.57
590.72	1827.96
590.88	1661.78
591.04	1942.64
591.20	1727.32
591.35	2155.63
591.51	1755.40
591.67	1486.24
591.83	1636.03
591.99	1774.13
592.15	1776.47
592.31	1760.08
592.46	1593.90
592.62	1849.02
592.78	1535.39
592.94	1568.16
593.10	1612.63
593.26	1626.67
593.41	1987.11
593.57	1998.82
593.73	2626.08
593.89	10906.90
594.05	30476.12
594.20	47271.80
594.36	45635.77
594.52	29626.50
594.68	18293.63
594.84	12507.82
594.99	7295.45
595.15	3641.87
595.31	2569.91
595.47	2389.69
595.62	1846.68
595.78	1790.51
595.94	1713.27
596.10	2122.87
596.25	2022.22
596.41	2076.06
596.57	1703.91
596.73	1664.12
596.88	2616.72
597.04	5818.57
597.20	9778.76
597.36	12351.01
597.51	9336.40
597.67	6279.66
597.83	4315.95
597.99	3445.27
598.14	2253.94
598.30	2122.87
598.46	1830.30
598.61	2047.97
598.77	1937.96
598.93	1626.67
599.09	1640.72
599.24	1743.70
599.40	1839.66
599.56	1547.09
599.71	1605.61
599.87	1535.39
600.03	1652.42
600.18	1481.56
600.34	1579.86
600.50	1416.02
600.65	1348.15
600.81	1696.89
