SpectraSuite Data File
++++++++++++++++++++++++++++++++++++
Date: Fri Oct 04 11:34:04 GMT-05:00 2013
User: price-jones
Dark Spectrum Present: No
Reference Spectrum Present: No
Number of Sampled Component Spectra: 1
Spectrometers: USB2+H05261
Integration Time (usec): 100000 (USB2+H05261)
Spectra Averaged: 1 (USB2+H05261)
Boxcar Smoothing: 0 (USB2+H05261)
Correct for Electrical Dark: No (USB2+H05261)
Strobe/Lamp Enabled: No (USB2+H05261)
Correct for Detector Non-linearity: No (USB2+H05261)
Correct for Stray Light: No (USB2+H05261)
Number of Pixels in Processed Spectrum: 2048
>>>>>Begin Processed Spectral Data<<<<<
365.73	65.54
365.92	65.54
366.12	65.54
366.32	49.15
366.52	0.00
366.72	0.00
366.91	0.00
367.11	0.00
367.31	0.00
367.51	0.00
367.70	37.45
367.90	0.00
368.10	0.00
368.30	0.00
368.49	0.00
368.69	0.00
368.89	14.04
369.09	37.45
369.28	0.00
369.48	0.00
369.68	0.00
369.87	67.88
370.07	44.47
370.27	30.43
370.47	74.90
370.66	98.30
370.86	35.11
371.06	114.69
371.25	189.58
371.45	39.79
371.65	152.13
371.84	124.05
372.04	74.90
372.24	126.39
372.44	107.66
372.63	30.43
372.83	196.60
373.03	149.79
373.22	114.69
373.42	119.37
373.62	128.73
373.81	124.05
374.01	161.50
374.21	180.22
374.40	168.52
374.60	180.22
374.79	126.39
374.99	168.52
375.19	126.39
375.38	208.31
375.58	196.60
375.78	133.41
375.97	138.09
376.17	236.39
376.37	205.97
376.56	173.20
376.76	44.47
376.95	81.92
377.15	173.20
377.35	212.99
377.54	205.97
377.74	156.82
377.93	102.98
378.13	74.90
378.33	98.30
378.52	126.39
378.72	210.65
378.91	180.22
379.11	154.48
379.31	126.39
379.50	112.35
379.70	128.73
379.89	220.01
380.09	128.73
380.28	163.84
380.48	168.52
380.68	154.48
380.87	159.16
381.07	126.39
381.26	102.98
381.46	91.28
381.65	107.66
381.85	65.54
382.04	107.66
382.24	180.22
382.43	135.75
382.63	133.41
382.83	81.92
383.02	93.62
383.22	159.16
383.41	65.54
383.61	184.90
383.80	184.90
384.00	175.54
384.19	110.01
384.39	105.32
384.58	112.35
384.78	124.05
384.97	175.54
385.17	147.45
385.36	131.07
385.56	161.50
385.75	145.11
385.95	128.73
386.14	147.45
386.34	105.32
386.53	175.54
386.72	189.58
386.92	140.43
387.11	149.79
387.31	114.69
387.50	177.88
387.70	95.96
387.89	182.56
388.09	56.17
388.28	170.86
388.48	175.54
388.67	119.37
388.86	102.98
389.06	124.05
389.25	182.56
389.45	194.26
389.64	107.66
389.84	140.43
390.03	182.56
390.22	166.18
390.42	117.03
390.61	121.71
390.81	205.97
391.00	175.54
391.19	121.71
391.39	102.98
391.58	168.52
391.78	124.05
391.97	189.58
392.16	105.32
392.36	203.63
392.55	175.54
392.75	173.20
392.94	135.75
393.13	168.52
393.33	124.05
393.52	117.03
393.71	142.77
393.91	182.56
394.10	88.94
394.29	163.84
394.49	37.45
394.68	180.22
394.88	117.03
395.07	180.22
395.26	74.90
395.46	135.75
395.65	140.43
395.84	175.54
396.04	161.50
396.23	154.48
396.42	159.16
396.62	21.06
396.81	117.03
397.00	142.77
397.19	133.41
397.39	117.03
397.58	205.97
397.77	142.77
397.97	147.45
398.16	105.32
398.35	262.14
398.55	201.29
398.74	161.50
398.93	159.16
399.12	135.75
399.32	152.13
399.51	142.77
399.70	196.60
399.90	42.13
400.09	112.35
400.28	154.48
400.47	145.11
400.67	119.37
400.86	117.03
401.05	135.75
401.24	117.03
401.44	161.50
401.63	175.54
401.82	128.73
402.01	142.77
402.21	149.79
402.40	156.82
402.59	93.62
402.78	184.90
402.97	156.82
403.17	217.67
403.36	133.41
403.55	154.48
403.74	168.52
403.93	201.29
404.13	161.50
404.32	201.29
404.51	189.58
404.70	184.90
404.89	156.82
405.09	126.39
405.28	117.03
405.47	170.86
405.66	196.60
405.85	149.79
406.05	168.52
406.24	159.16
406.43	161.50
406.62	180.22
406.81	138.09
407.00	224.69
407.20	156.82
407.39	131.07
407.58	217.67
407.77	234.05
407.96	191.92
408.15	100.64
408.34	210.65
408.54	208.31
408.73	154.48
408.92	88.94
409.11	170.86
409.30	175.54
409.49	98.30
409.68	175.54
409.87	95.96
410.07	135.75
410.26	145.11
410.45	187.24
410.64	166.18
410.83	168.52
411.02	110.01
411.21	208.31
411.40	159.16
411.59	124.05
411.78	145.11
411.98	117.03
412.17	133.41
412.36	220.01
412.55	98.30
412.74	215.33
412.93	215.33
413.12	140.43
413.31	163.84
413.50	72.56
413.69	79.58
413.88	205.97
414.07	168.52
414.26	93.62
414.45	217.67
414.64	175.54
414.83	114.69
415.02	196.60
415.22	133.41
415.41	177.88
415.60	110.01
415.79	131.07
415.98	166.18
416.17	152.13
416.36	152.13
416.55	107.66
416.74	110.01
416.93	173.20
417.12	105.32
417.31	105.32
417.50	168.52
417.69	191.92
417.88	173.20
418.07	224.69
418.26	154.48
418.45	175.54
418.64	203.63
418.83	196.60
419.02	173.20
419.21	201.29
419.39	154.48
419.58	131.07
419.77	135.75
419.96	217.67
420.15	220.01
420.34	152.13
420.53	215.33
420.72	86.60
420.91	149.79
421.10	203.63
421.29	140.43
421.48	112.35
421.67	182.56
421.86	121.71
422.05	168.52
422.24	180.22
422.43	194.26
422.61	212.99
422.80	224.69
422.99	175.54
423.18	175.54
423.37	222.35
423.56	245.76
423.75	149.79
423.94	149.79
424.13	81.92
424.32	142.77
424.50	119.37
424.69	194.26
424.88	184.90
425.07	170.86
425.26	149.79
425.45	236.39
425.64	255.12
425.83	156.82
426.01	224.69
426.20	168.52
426.39	161.50
426.58	161.50
426.77	126.39
426.96	191.92
427.15	301.93
427.33	175.54
427.52	100.64
427.71	88.94
427.90	184.90
428.09	182.56
428.28	163.84
428.46	95.96
428.65	180.22
428.84	131.07
429.03	227.03
429.22	102.98
429.40	128.73
429.59	117.03
429.78	212.99
429.97	180.22
430.16	140.43
430.34	119.37
430.53	191.92
430.72	84.26
430.91	159.16
431.10	168.52
431.28	201.29
431.47	149.79
431.66	140.43
431.85	138.09
432.03	238.73
432.22	175.54
432.41	180.22
432.60	187.24
432.79	72.56
432.97	145.11
433.16	173.20
433.35	128.73
433.54	201.29
433.72	81.92
433.91	196.60
434.10	142.77
434.28	166.18
434.47	147.45
434.66	187.24
434.85	114.69
435.03	159.16
435.22	306.61
435.41	358.10
435.59	351.08
435.78	325.33
435.97	238.73
436.16	215.33
436.34	147.45
436.53	124.05
436.72	121.71
436.90	191.92
437.09	234.05
437.28	180.22
437.46	182.56
437.65	161.50
437.84	140.43
438.02	189.58
438.21	180.22
438.40	234.05
438.58	220.01
438.77	201.29
438.96	121.71
439.14	135.75
439.33	175.54
439.52	138.09
439.70	210.65
439.89	142.77
440.08	191.92
440.26	187.24
440.45	243.42
440.63	220.01
440.82	168.52
441.01	170.86
441.19	156.82
441.38	252.78
441.57	159.16
441.75	170.86
441.94	163.84
442.12	170.86
442.31	257.46
442.50	189.58
442.68	203.63
442.87	231.71
443.05	189.58
443.24	138.09
443.43	201.29
443.61	273.84
443.80	196.60
443.98	142.77
444.17	177.88
444.35	196.60
444.54	212.99
444.73	245.76
444.91	187.24
445.10	184.90
445.28	161.50
445.47	110.01
445.65	159.16
445.84	159.16
446.02	110.01
446.21	205.97
446.39	250.44
446.58	191.92
446.77	184.90
446.95	170.86
447.14	161.50
447.32	278.52
447.51	241.08
447.69	131.07
447.88	159.16
448.06	208.31
448.25	168.52
448.43	175.54
448.62	194.26
448.80	173.20
448.99	194.26
449.17	147.45
449.36	152.13
449.54	194.26
449.73	138.09
449.91	292.57
450.10	196.60
450.28	184.90
450.46	290.23
450.65	243.42
450.83	119.37
451.02	124.05
451.20	205.97
451.39	149.79
451.57	180.22
451.76	140.43
451.94	100.64
452.13	201.29
452.31	210.65
452.49	215.33
452.68	234.05
452.86	222.35
453.05	231.71
453.23	201.29
453.42	145.11
453.60	245.76
453.78	166.18
453.97	177.88
454.15	208.31
454.34	145.11
454.52	182.56
454.70	215.33
454.89	154.48
455.07	255.12
455.26	135.75
455.44	161.50
455.62	168.52
455.81	184.90
455.99	212.99
456.17	180.22
456.36	203.63
456.54	154.48
456.73	212.99
456.91	257.46
457.09	201.29
457.28	224.69
457.46	175.54
457.64	220.01
457.83	210.65
458.01	161.50
458.19	128.73
458.38	156.82
458.56	196.60
458.74	107.66
458.93	135.75
459.11	156.82
459.29	250.44
459.48	208.31
459.66	220.01
459.84	184.90
460.03	243.42
460.21	163.84
460.39	124.05
460.57	182.56
460.76	205.97
460.94	201.29
461.12	262.14
461.31	257.46
461.49	177.88
461.67	180.22
461.85	175.54
462.04	145.11
462.22	578.11
462.40	222.35
462.59	175.54
462.77	182.56
462.95	156.82
463.13	191.92
463.32	189.58
463.50	205.97
463.68	184.90
463.86	215.33
464.05	119.37
464.23	168.52
464.41	205.97
464.59	138.09
464.78	128.73
464.96	205.97
465.14	283.20
465.32	217.67
465.50	234.05
465.69	227.03
465.87	117.03
466.05	208.31
466.23	177.88
466.41	182.56
466.60	203.63
466.78	201.29
466.96	173.20
467.14	170.86
467.32	196.60
467.51	215.33
467.69	217.67
467.87	210.65
468.05	117.03
468.23	205.97
468.41	250.44
468.60	168.52
468.78	227.03
468.96	236.39
469.14	262.14
469.32	107.66
469.50	191.92
469.69	166.18
469.87	177.88
470.05	187.24
470.23	135.75
470.41	182.56
470.59	170.86
470.77	234.05
470.95	198.95
471.14	252.78
471.32	196.60
471.50	170.86
471.68	208.31
471.86	177.88
472.04	154.48
472.22	198.95
472.40	168.52
472.58	203.63
472.77	166.18
472.95	182.56
473.13	280.86
473.31	252.78
473.49	229.37
473.67	203.63
473.85	278.52
474.03	215.33
474.21	208.31
474.39	276.18
474.57	184.90
474.75	212.99
474.93	163.84
475.12	117.03
475.30	152.13
475.48	220.01
475.66	273.84
475.84	210.65
476.02	198.95
476.20	227.03
476.38	283.20
476.56	163.84
476.74	168.52
476.92	184.90
477.10	147.45
477.28	217.67
477.46	250.44
477.64	191.92
477.82	227.03
478.00	220.01
478.18	161.50
478.36	227.03
478.54	177.88
478.72	107.66
478.90	191.92
479.08	215.33
479.26	156.82
479.44	198.95
479.62	184.90
479.80	119.37
479.98	119.37
480.16	229.37
480.34	168.52
480.52	264.48
480.70	236.39
480.88	159.16
481.06	257.46
481.24	191.92
481.41	189.58
481.59	257.46
481.77	184.90
481.95	161.50
482.13	212.99
482.31	149.79
482.49	175.54
482.67	252.78
482.85	205.97
483.03	271.50
483.21	208.31
483.39	168.52
483.57	262.14
483.74	182.56
483.92	224.69
484.10	220.01
484.28	224.69
484.46	231.71
484.64	273.84
484.82	182.56
485.00	131.07
485.18	161.50
485.35	173.20
485.53	222.35
485.71	266.82
485.89	210.65
486.07	154.48
486.25	313.63
486.43	217.67
486.61	236.39
486.78	238.73
486.96	166.18
487.14	205.97
487.32	280.86
487.50	205.97
487.68	250.44
487.85	278.52
488.03	250.44
488.21	299.59
488.39	255.12
488.57	238.73
488.75	173.20
488.92	423.64
489.10	264.48
489.28	205.97
489.46	222.35
489.64	201.29
489.81	243.42
489.99	194.26
490.17	238.73
490.35	301.93
490.53	245.76
490.70	177.88
490.88	285.55
491.06	266.82
491.24	306.61
491.41	224.69
491.59	236.39
491.77	210.65
491.95	227.03
492.13	170.86
492.30	276.18
492.48	259.80
492.66	236.39
492.84	210.65
493.01	280.86
493.19	252.78
493.37	374.49
493.54	266.82
493.72	241.08
493.90	273.84
494.08	269.16
494.25	262.14
494.43	208.31
494.61	271.50
494.79	184.90
494.96	191.92
495.14	248.10
495.32	220.01
495.49	212.99
495.67	290.23
495.85	292.57
496.02	224.69
496.20	280.86
496.38	212.99
496.55	231.71
496.73	259.80
496.91	224.69
497.09	266.82
497.26	191.92
497.44	234.05
497.62	304.27
497.79	266.82
497.97	227.03
498.14	245.76
498.32	217.67
498.50	276.18
498.67	173.20
498.85	243.42
499.03	243.42
499.20	252.78
499.38	276.18
499.56	217.67
499.73	248.10
499.91	320.65
500.08	262.14
500.26	182.56
500.44	149.79
500.61	238.73
500.79	180.22
500.97	222.35
501.14	257.46
501.32	187.24
501.49	257.46
501.67	194.26
501.84	173.20
502.02	229.37
502.20	262.14
502.37	285.55
502.55	224.69
502.72	215.33
502.90	234.05
503.07	348.74
503.25	271.50
503.43	236.39
503.60	250.44
503.78	297.25
503.95	231.71
504.13	201.29
504.30	217.67
504.48	273.84
504.65	308.95
504.83	222.35
505.01	283.20
505.18	292.57
505.36	133.41
505.53	210.65
505.71	262.14
505.88	252.78
506.06	154.48
506.23	201.29
506.41	311.29
506.58	194.26
506.76	222.35
506.93	227.03
507.11	212.99
507.28	166.18
507.46	231.71
507.63	224.69
507.81	250.44
507.98	208.31
508.16	236.39
508.33	252.78
508.50	170.86
508.68	210.65
508.85	280.86
509.03	252.78
509.20	248.10
509.38	224.69
509.55	294.91
509.73	241.08
509.90	269.16
510.08	278.52
510.25	276.18
510.42	224.69
510.60	170.86
510.77	201.29
510.95	257.46
511.12	220.01
511.30	248.10
511.47	255.12
511.64	278.52
511.82	217.67
511.99	156.82
512.17	208.31
512.34	245.76
512.51	255.12
512.69	266.82
512.86	292.57
513.04	220.01
513.21	255.12
513.38	234.05
513.56	269.16
513.73	194.26
513.90	245.76
514.08	287.89
514.25	210.65
514.43	241.08
514.60	159.16
514.77	259.80
514.95	264.48
515.12	201.29
515.29	278.52
515.47	287.89
515.64	236.39
515.81	262.14
515.99	250.44
516.16	259.80
516.33	252.78
516.51	227.03
516.68	238.73
516.85	203.63
517.03	229.37
517.20	285.55
517.37	208.31
517.54	205.97
517.72	248.10
517.89	201.29
518.06	196.60
518.24	273.84
518.41	215.33
518.58	278.52
518.75	280.86
518.93	231.71
519.10	257.46
519.27	264.48
519.45	358.10
519.62	236.39
519.79	285.55
519.96	245.76
520.14	278.52
520.31	243.42
520.48	224.69
520.65	234.05
520.83	301.93
521.00	285.55
521.17	180.22
521.34	271.50
521.52	273.84
521.69	283.20
521.86	234.05
522.03	224.69
522.20	346.40
522.38	264.48
522.55	236.39
522.72	168.52
522.89	264.48
523.07	280.86
523.24	241.08
523.41	177.88
523.58	194.26
523.75	236.39
523.92	266.82
524.10	255.12
524.27	290.23
524.44	175.54
524.61	273.84
524.78	252.78
524.96	257.46
525.13	255.12
525.30	311.29
525.47	259.80
525.64	271.50
525.81	252.78
525.98	276.18
526.16	231.71
526.33	273.84
526.50	227.03
526.67	163.84
526.84	257.46
527.01	308.95
527.18	266.82
527.36	250.44
527.53	269.16
527.70	252.78
527.87	276.18
528.04	250.44
528.21	283.20
528.38	278.52
528.55	294.91
528.72	308.95
528.89	369.80
529.07	217.67
529.24	327.68
529.41	322.99
529.58	198.95
529.75	259.80
529.92	245.76
530.09	184.90
530.26	285.55
530.43	292.57
530.60	301.93
530.77	322.99
530.94	266.82
531.11	252.78
531.28	332.36
531.46	245.76
531.63	264.48
531.80	262.14
531.97	229.37
532.14	273.84
532.31	315.97
532.48	311.29
532.65	297.25
532.82	229.37
532.99	266.82
533.16	255.12
533.33	236.39
533.50	299.59
533.67	238.73
533.84	313.63
534.01	311.29
534.18	315.97
534.35	248.10
534.52	348.74
534.69	322.99
534.86	313.63
535.03	187.24
535.20	304.27
535.37	327.68
535.54	327.68
535.71	278.52
535.88	299.59
536.05	276.18
536.22	257.46
536.38	348.74
536.55	383.85
536.72	332.36
536.89	215.33
537.06	287.89
537.23	304.27
537.40	311.29
537.57	227.03
537.74	273.84
537.91	248.10
538.08	334.70
538.25	304.27
538.42	269.16
538.59	283.20
538.75	248.10
538.92	301.93
539.09	304.27
539.26	299.59
539.43	344.06
539.60	355.76
539.77	360.44
539.94	348.74
540.11	334.70
540.28	456.40
540.44	418.96
540.61	421.30
540.78	348.74
540.95	386.19
541.12	407.25
541.29	411.93
541.46	414.27
541.62	418.96
541.79	477.47
541.96	351.08
542.13	440.02
542.30	337.04
542.47	430.66
542.63	461.09
542.80	440.02
542.97	477.47
543.14	489.17
543.31	444.70
543.48	400.23
543.64	416.62
543.81	390.87
543.98	386.19
544.15	325.33
544.32	472.79
544.48	461.09
544.65	409.59
544.82	365.12
544.99	449.38
545.16	475.13
545.32	381.51
545.49	653.01
545.66	805.14
545.83	706.84
546.00	648.33
546.16	582.79
546.33	411.93
546.50	400.23
546.67	407.25
546.83	355.76
547.00	308.95
547.17	257.46
547.34	372.15
547.50	297.25
547.67	346.40
547.84	346.40
548.00	269.16
548.17	325.33
548.34	369.80
548.51	388.53
548.67	393.21
548.84	337.04
549.01	290.23
549.18	365.12
549.34	318.31
549.51	308.95
549.68	276.18
549.84	344.06
550.01	341.72
550.18	416.62
550.34	344.06
550.51	311.29
550.68	325.33
550.84	259.80
551.01	339.38
551.18	351.08
551.34	262.14
551.51	292.57
551.68	306.61
551.84	299.59
552.01	234.05
552.18	327.68
552.34	182.56
552.51	339.38
552.68	257.46
552.84	304.27
553.01	325.33
553.18	266.82
553.34	259.80
553.51	243.42
553.67	327.68
553.84	318.31
554.01	266.82
554.17	273.84
554.34	201.29
554.51	276.18
554.67	271.50
554.84	227.03
555.00	292.57
555.17	276.18
555.33	252.78
555.50	325.33
555.67	297.25
555.83	243.42
556.00	280.86
556.16	444.70
556.33	210.65
556.50	294.91
556.66	234.05
556.83	290.23
556.99	266.82
557.16	217.67
557.32	271.50
557.49	222.35
557.65	269.16
557.82	320.65
557.98	250.44
558.15	299.59
558.32	222.35
558.48	217.67
558.65	238.73
558.81	229.37
558.98	278.52
559.14	308.95
559.31	224.69
559.47	201.29
559.64	259.80
559.80	203.63
559.97	262.14
560.13	264.48
560.30	182.56
560.46	210.65
560.63	208.31
560.79	252.78
560.96	255.12
561.12	262.14
561.29	271.50
561.45	250.44
561.61	276.18
561.78	372.15
561.94	325.33
562.11	285.55
562.27	273.84
562.44	273.84
562.60	266.82
562.77	252.78
562.93	248.10
563.10	299.59
563.26	241.08
563.42	306.61
563.59	236.39
563.75	184.90
563.92	252.78
564.08	301.93
564.24	224.69
564.41	280.86
564.57	217.67
564.74	276.18
564.90	229.37
565.07	308.95
565.23	248.10
565.39	231.71
565.56	184.90
565.72	210.65
565.88	243.42
566.05	177.88
566.21	224.69
566.38	313.63
566.54	255.12
566.70	280.86
566.87	238.73
567.03	259.80
567.19	229.37
567.36	248.10
567.52	220.01
567.68	238.73
567.85	271.50
568.01	273.84
568.17	198.95
568.34	177.88
568.50	248.10
568.66	271.50
568.83	386.19
568.99	231.71
569.15	250.44
569.32	266.82
569.48	215.33
569.64	229.37
569.81	220.01
569.97	234.05
570.13	276.18
570.30	278.52
570.46	294.91
570.62	189.58
570.78	217.67
570.95	222.35
571.11	315.97
571.27	311.29
571.43	220.01
571.60	308.95
571.76	266.82
571.92	184.90
572.09	189.58
572.25	220.01
572.41	245.76
572.57	248.10
572.74	210.65
572.90	297.25
573.06	266.82
573.22	259.80
573.38	257.46
573.55	271.50
573.71	252.78
573.87	208.31
574.03	238.73
574.20	262.14
574.36	273.84
574.52	241.08
574.68	257.46
574.84	299.59
575.01	250.44
575.17	191.92
575.33	238.73
575.49	266.82
575.65	297.25
575.82	262.14
575.98	266.82
576.14	231.71
576.30	269.16
576.46	330.02
576.62	388.53
576.79	376.83
576.95	332.36
577.11	290.23
577.27	227.03
577.43	259.80
577.59	269.16
577.75	341.72
577.92	241.08
578.08	182.56
578.24	184.90
578.40	241.08
578.56	322.99
578.72	418.96
578.88	313.63
579.04	330.02
579.21	292.57
579.37	311.29
579.53	262.14
579.69	276.18
579.85	292.57
580.01	320.65
580.17	337.04
580.33	292.57
580.49	271.50
580.65	290.23
580.82	299.59
580.98	227.03
581.14	159.16
581.30	276.18
581.46	205.97
581.62	245.76
581.78	285.55
581.94	266.82
582.10	255.12
582.26	308.95
582.42	306.61
582.58	264.48
582.74	358.10
582.90	271.50
583.06	304.27
583.22	334.70
583.38	210.65
583.54	184.90
583.70	315.97
583.86	330.02
584.02	294.91
584.18	369.80
584.34	227.03
584.50	311.29
584.66	608.54
584.82	1071.97
584.98	1338.79
585.14	1167.93
585.30	884.72
585.46	608.54
585.62	425.98
585.78	318.31
585.94	351.08
586.10	304.27
586.26	241.08
586.42	294.91
586.58	318.31
586.74	280.86
586.90	264.48
587.06	330.02
587.22	280.86
587.38	341.72
587.54	236.39
587.70	367.46
587.86	381.51
588.02	362.78
588.18	313.63
588.34	346.40
588.49	264.48
588.65	210.65
588.81	227.03
588.97	255.12
589.13	220.01
589.29	280.86
589.45	189.58
589.61	255.12
589.77	241.08
589.93	283.20
590.08	234.05
590.24	208.31
590.40	285.55
590.56	229.37
590.72	271.50
590.88	315.97
591.04	220.01
591.20	325.33
591.35	276.18
591.51	266.82
591.67	222.35
591.83	229.37
591.99	278.52
592.15	259.80
592.31	290.23
592.46	294.91
592.62	294.91
592.78	271.50
592.94	278.52
593.10	315.97
593.26	241.08
593.41	346.40
593.57	245.76
593.73	250.44
593.89	266.82
594.05	365.12
594.20	411.93
594.36	411.93
594.52	250.44
594.68	294.91
594.84	271.50
594.99	255.12
595.15	222.35
595.31	330.02
595.47	306.61
595.62	201.29
595.78	201.29
595.94	292.57
596.10	264.48
596.25	252.78
596.41	238.73
596.57	194.26
596.73	196.60
596.88	266.82
597.04	292.57
597.20	262.14
597.36	283.20
597.51	257.46
597.67	252.78
597.83	234.05
597.99	304.27
598.14	241.08
598.30	322.99
598.46	271.50
598.61	327.68
598.77	255.12
598.93	278.52
599.09	337.04
599.24	304.27
599.40	269.16
599.56	292.57
599.71	311.29
599.87	217.67
600.03	224.69
600.18	269.16
600.34	285.55
600.50	330.02
600.65	173.20
600.81	177.88
600.97	224.69
601.12	224.69
601.28	243.42
601.44	278.52
601.59	257.46
601.75	187.24
601.91	224.69
602.06	290.23
602.22	339.38
602.37	287.89
602.53	318.31
602.69	245.76
602.84	187.24
603.00	285.55
603.16	332.36
603.31	283.20
603.47	231.71
603.62	198.95
603.78	201.29
603.94	205.97
604.09	278.52
604.25	318.31
604.40	220.01
604.56	212.99
604.71	234.05
604.87	238.73
605.03	229.37
605.18	222.35
605.34	287.89
605.49	224.69
605.65	308.95
605.80	210.65
605.96	259.80
606.12	278.52
606.27	283.20
606.43	278.52
606.58	322.99
606.74	252.78
606.89	229.37
607.05	250.44
607.20	404.91
607.36	341.72
607.51	348.74
607.67	215.33
607.82	297.25
607.98	301.93
608.13	201.29
608.29	257.46
608.44	374.49
608.60	241.08
608.75	381.51
608.91	355.76
609.06	372.15
609.22	461.09
609.37	433.00
609.53	395.55
609.68	477.47
609.84	404.91
609.99	423.64
610.15	430.66
610.30	442.36
610.46	543.00
610.61	514.92
610.76	608.54
610.92	767.70
