SpectraSuite Data File
++++++++++++++++++++++++++++++++++++
Date: Fri Oct 04 11:34:07 GMT-05:00 2013
User: price-jones
Dark Spectrum Present: No
Reference Spectrum Present: No
Number of Sampled Component Spectra: 1
Spectrometers: USB2+H05261
Integration Time (usec): 100000 (USB2+H05261)
Spectra Averaged: 1 (USB2+H05261)
Boxcar Smoothing: 0 (USB2+H05261)
Correct for Electrical Dark: No (USB2+H05261)
Strobe/Lamp Enabled: No (USB2+H05261)
Correct for Detector Non-linearity: No (USB2+H05261)
Correct for Stray Light: No (USB2+H05261)
Number of Pixels in Processed Spectrum: 2048
>>>>>Begin Processed Spectral Data<<<<<
365.73	39.79
365.92	39.79
366.12	39.79
366.32	21.06
366.52	21.06
366.72	16.38
366.91	0.00
367.11	0.00
367.31	0.00
367.51	0.00
367.70	0.00
367.90	0.00
368.10	0.00
368.30	0.00
368.49	0.00
368.69	0.00
368.89	14.04
369.09	0.00
369.28	9.36
369.48	2.34
369.68	67.88
369.87	0.00
370.07	0.00
370.27	70.22
370.47	39.79
370.66	16.38
370.86	72.56
371.06	105.32
371.25	173.20
371.45	60.85
371.65	166.18
371.84	133.41
372.04	95.96
372.24	131.07
372.44	112.35
372.63	149.79
372.83	133.41
373.03	140.43
373.22	196.60
373.42	156.82
373.62	154.48
373.81	133.41
374.01	98.30
374.21	187.24
374.40	177.88
374.60	180.22
374.79	152.13
374.99	121.71
375.19	163.84
375.38	182.56
375.58	168.52
375.78	161.50
375.97	182.56
376.17	255.12
376.37	81.92
376.56	72.56
376.76	159.16
376.95	105.32
377.15	187.24
377.35	152.13
377.54	145.11
377.74	128.73
377.93	131.07
378.13	203.63
378.33	205.97
378.52	128.73
378.72	121.71
378.91	133.41
379.11	117.03
379.31	212.99
379.50	147.45
379.70	220.01
379.89	163.84
380.09	88.94
380.28	128.73
380.48	114.69
380.68	102.98
380.87	135.75
381.07	168.52
381.26	145.11
381.46	147.45
381.65	102.98
381.85	126.39
382.04	67.88
382.24	163.84
382.43	163.84
382.63	168.52
382.83	180.22
383.02	198.95
383.22	117.03
383.41	121.71
383.61	159.16
383.80	128.73
384.00	159.16
384.19	105.32
384.39	121.71
384.58	102.98
384.78	166.18
384.97	156.82
385.17	163.84
385.36	124.05
385.56	184.90
385.75	170.86
385.95	198.95
386.14	154.48
386.34	95.96
386.53	131.07
386.72	159.16
386.92	149.79
387.11	180.22
387.31	210.65
387.50	142.77
387.70	105.32
387.89	105.32
388.09	102.98
388.28	161.50
388.48	156.82
388.67	131.07
388.86	114.69
389.06	156.82
389.25	121.71
389.45	124.05
389.64	84.26
389.84	147.45
390.03	128.73
390.22	175.54
390.42	117.03
390.61	156.82
390.81	175.54
391.00	46.81
391.19	121.71
391.39	163.84
391.58	147.45
391.78	98.30
391.97	98.30
392.16	126.39
392.36	135.75
392.55	81.92
392.75	46.81
392.94	121.71
393.13	117.03
393.33	220.01
393.52	95.96
393.71	112.35
393.91	159.16
394.10	161.50
394.29	135.75
394.49	177.88
394.68	177.88
394.88	194.26
395.07	119.37
395.26	105.32
395.46	166.18
395.65	149.79
395.84	121.71
396.04	159.16
396.23	98.30
396.42	126.39
396.62	117.03
396.81	79.58
397.00	161.50
397.19	121.71
397.39	159.16
397.58	184.90
397.77	147.45
397.97	119.37
398.16	117.03
398.35	145.11
398.55	140.43
398.74	84.26
398.93	170.86
399.12	161.50
399.32	187.24
399.51	161.50
399.70	145.11
399.90	191.92
400.09	220.01
400.28	166.18
400.47	236.39
400.67	117.03
400.86	187.24
401.05	215.33
401.24	177.88
401.44	205.97
401.63	224.69
401.82	154.48
402.01	46.81
402.21	156.82
402.40	102.98
402.59	177.88
402.78	140.43
402.97	210.65
403.17	203.63
403.36	168.52
403.55	142.77
403.74	140.43
403.93	124.05
404.13	212.99
404.32	220.01
404.51	152.13
404.70	215.33
404.89	135.75
405.09	140.43
405.28	100.64
405.47	98.30
405.66	131.07
405.85	217.67
406.05	161.50
406.24	145.11
406.43	201.29
406.62	145.11
406.81	198.95
407.00	135.75
407.20	142.77
407.39	245.76
407.58	217.67
407.77	156.82
407.96	189.58
408.15	140.43
408.34	189.58
408.54	114.69
408.73	161.50
408.92	145.11
409.11	201.29
409.30	133.41
409.49	131.07
409.68	95.96
409.87	119.37
410.07	173.20
410.26	161.50
410.45	91.28
410.64	145.11
410.83	114.69
411.02	173.20
411.21	210.65
411.40	210.65
411.59	149.79
411.78	140.43
411.98	142.77
412.17	166.18
412.36	154.48
412.55	152.13
412.74	126.39
412.93	196.60
413.12	114.69
413.31	191.92
413.50	114.69
413.69	163.84
413.88	149.79
414.07	119.37
414.26	189.58
414.45	191.92
414.64	170.86
414.83	166.18
415.02	149.79
415.22	128.73
415.41	159.16
415.60	112.35
415.79	182.56
415.98	149.79
416.17	133.41
416.36	189.58
416.55	128.73
416.74	135.75
416.93	114.69
417.12	196.60
417.31	65.54
417.50	81.92
417.69	198.95
417.88	187.24
418.07	149.79
418.26	163.84
418.45	138.09
418.64	102.98
418.83	121.71
419.02	100.64
419.21	91.28
419.39	163.84
419.58	81.92
419.77	110.01
419.96	201.29
420.15	105.32
420.34	234.05
420.53	110.01
420.72	198.95
420.91	124.05
421.10	88.94
421.29	248.10
421.48	196.60
421.67	205.97
421.86	173.20
422.05	124.05
422.24	170.86
422.43	191.92
422.61	102.98
422.80	159.16
422.99	201.29
423.18	184.90
423.37	224.69
423.56	135.75
423.75	156.82
423.94	145.11
424.13	191.92
424.32	138.09
424.50	196.60
424.69	182.56
424.88	252.78
425.07	166.18
425.26	208.31
425.45	86.60
425.64	196.60
425.83	203.63
426.01	180.22
426.20	138.09
426.39	166.18
426.58	128.73
426.77	212.99
426.96	152.13
427.15	208.31
427.33	128.73
427.52	227.03
427.71	283.20
427.90	203.63
428.09	119.37
428.28	175.54
428.46	196.60
428.65	220.01
428.84	124.05
429.03	189.58
429.22	142.77
429.40	156.82
429.59	203.63
429.78	191.92
429.97	220.01
430.16	191.92
430.34	128.73
430.53	194.26
430.72	170.86
430.91	142.77
431.10	159.16
431.28	210.65
431.47	145.11
431.66	163.84
431.85	189.58
432.03	182.56
432.22	194.26
432.41	142.77
432.60	182.56
432.79	163.84
432.97	208.31
433.16	187.24
433.35	81.92
433.54	203.63
433.72	173.20
433.91	105.32
434.10	105.32
434.28	124.05
434.47	135.75
434.66	217.67
434.85	166.18
435.03	212.99
435.22	327.68
435.41	313.63
435.59	374.49
435.78	290.23
435.97	177.88
436.16	259.80
436.34	121.71
436.53	119.37
436.72	189.58
436.90	189.58
437.09	215.33
437.28	112.35
437.46	168.52
437.65	107.66
437.84	231.71
438.02	175.54
438.21	119.37
438.40	196.60
438.58	128.73
438.77	182.56
438.96	231.71
439.14	159.16
439.33	196.60
439.52	161.50
439.70	210.65
439.89	173.20
440.08	229.37
440.26	170.86
440.45	224.69
440.63	215.33
440.82	243.42
441.01	194.26
441.19	102.98
441.38	159.16
441.57	205.97
441.75	212.99
441.94	212.99
442.12	220.01
442.31	170.86
442.50	184.90
442.68	145.11
442.87	196.60
443.05	198.95
443.24	241.08
443.43	184.90
443.61	229.37
443.80	182.56
443.98	180.22
444.17	201.29
444.35	175.54
444.54	205.97
444.73	110.01
444.91	224.69
445.10	180.22
445.28	170.86
445.47	203.63
445.65	138.09
445.84	196.60
446.02	257.46
446.21	212.99
446.39	205.97
446.58	168.52
446.77	205.97
446.95	243.42
447.14	212.99
447.32	142.77
447.51	121.71
447.69	187.24
447.88	100.64
448.06	184.90
448.25	231.71
448.43	170.86
448.62	177.88
448.80	238.73
448.99	166.18
449.17	138.09
449.36	189.58
449.54	227.03
449.73	234.05
449.91	194.26
450.10	145.11
450.28	236.39
450.46	229.37
450.65	212.99
450.83	245.76
451.02	189.58
451.20	184.90
451.39	140.43
451.57	135.75
451.76	217.67
451.94	191.92
452.13	107.66
452.31	252.78
452.49	208.31
452.68	166.18
452.86	180.22
453.05	231.71
453.23	220.01
453.42	203.63
453.60	187.24
453.78	173.20
453.97	210.65
454.15	259.80
454.34	236.39
454.52	163.84
454.70	210.65
454.89	262.14
455.07	149.79
455.26	173.20
455.44	203.63
455.62	191.92
455.81	145.11
455.99	152.13
456.17	287.89
456.36	187.24
456.54	236.39
456.73	152.13
456.91	180.22
457.09	189.58
457.28	205.97
457.46	215.33
457.64	243.42
457.83	210.65
458.01	147.45
458.19	187.24
458.38	208.31
458.56	182.56
458.74	170.86
458.93	234.05
459.11	229.37
459.29	156.82
459.48	227.03
459.66	194.26
459.84	201.29
460.03	203.63
460.21	203.63
460.39	189.58
460.57	180.22
460.76	173.20
460.94	194.26
461.12	175.54
461.31	236.39
461.49	245.76
461.67	184.90
461.85	203.63
462.04	217.67
462.22	645.99
462.40	222.35
462.59	166.18
462.77	170.86
462.95	222.35
463.13	236.39
463.32	278.52
463.50	173.20
463.68	205.97
463.86	217.67
464.05	208.31
464.23	283.20
464.41	245.76
464.59	236.39
464.78	182.56
464.96	173.20
465.14	133.41
465.32	180.22
465.50	222.35
465.69	201.29
465.87	182.56
466.05	231.71
466.23	131.07
466.41	285.55
466.60	241.08
466.78	145.11
466.96	229.37
467.14	184.90
467.32	262.14
467.51	245.76
467.69	184.90
467.87	208.31
468.05	163.84
468.23	189.58
468.41	152.13
468.60	198.95
468.78	147.45
468.96	191.92
469.14	212.99
469.32	140.43
469.50	175.54
469.69	159.16
469.87	208.31
470.05	131.07
470.23	187.24
470.41	140.43
470.59	154.48
470.77	201.29
470.95	227.03
471.14	156.82
471.32	208.31
471.50	250.44
471.68	210.65
471.86	212.99
472.04	205.97
472.22	173.20
472.40	215.33
472.58	166.18
472.77	217.67
472.95	248.10
473.13	205.97
473.31	264.48
473.49	163.84
473.67	184.90
473.85	234.05
474.03	264.48
474.21	234.05
474.39	238.73
474.57	224.69
474.75	196.60
474.93	156.82
475.12	201.29
475.30	243.42
475.48	154.48
475.66	215.33
475.84	205.97
476.02	227.03
476.20	227.03
476.38	140.43
476.56	271.50
476.74	133.41
476.92	212.99
477.10	187.24
477.28	264.48
477.46	222.35
477.64	215.33
477.82	203.63
478.00	201.29
478.18	227.03
478.36	224.69
478.54	131.07
478.72	191.92
478.90	184.90
479.08	234.05
479.26	217.67
479.44	156.82
479.62	217.67
479.80	212.99
479.98	198.95
480.16	166.18
480.34	229.37
480.52	220.01
480.70	142.77
480.88	154.48
481.06	196.60
481.24	203.63
481.41	180.22
481.59	208.31
481.77	182.56
481.95	138.09
482.13	292.57
482.31	198.95
482.49	133.41
482.67	208.31
482.85	180.22
483.03	198.95
483.21	166.18
483.39	252.78
483.57	222.35
483.74	177.88
483.92	194.26
484.10	177.88
484.28	238.73
484.46	280.86
484.64	224.69
484.82	173.20
485.00	194.26
485.18	156.82
485.35	135.75
485.53	217.67
485.71	252.78
485.89	184.90
486.07	241.08
486.25	294.91
486.43	245.76
486.61	198.95
486.78	229.37
486.96	149.79
487.14	187.24
487.32	189.58
487.50	271.50
487.68	271.50
487.85	269.16
488.03	308.95
488.21	208.31
488.39	264.48
488.57	234.05
488.75	236.39
488.92	500.87
489.10	236.39
489.28	292.57
489.46	191.92
489.64	273.84
489.81	191.92
489.99	229.37
490.17	252.78
490.35	313.63
490.53	257.46
490.70	229.37
490.88	297.25
491.06	257.46
491.24	294.91
491.41	252.78
491.59	243.42
491.77	220.01
491.95	264.48
492.13	229.37
492.30	266.82
492.48	168.52
492.66	234.05
492.84	205.97
493.01	292.57
493.19	229.37
493.37	259.80
493.54	283.20
493.72	259.80
493.90	201.29
494.08	276.18
494.25	325.33
494.43	215.33
494.61	257.46
494.79	231.71
494.96	175.54
495.14	273.84
495.32	250.44
495.49	269.16
495.67	236.39
495.85	175.54
496.02	269.16
496.20	234.05
496.38	252.78
496.55	266.82
496.73	236.39
496.91	215.33
497.09	227.03
497.26	238.73
497.44	222.35
497.62	191.92
497.79	283.20
497.97	205.97
498.14	159.16
498.32	189.58
498.50	224.69
498.67	196.60
498.85	255.12
499.03	273.84
499.20	283.20
499.38	163.84
499.56	245.76
499.73	224.69
499.91	236.39
500.08	252.78
500.26	215.33
500.44	294.91
500.61	327.68
500.79	231.71
500.97	259.80
501.14	325.33
501.32	287.89
501.49	266.82
501.67	248.10
501.84	250.44
502.02	182.56
502.20	222.35
502.37	273.84
502.55	187.24
502.72	229.37
502.90	227.03
503.07	227.03
503.25	210.65
503.43	198.95
503.60	250.44
503.78	222.35
503.95	210.65
504.13	149.79
504.30	243.42
504.48	255.12
504.65	271.50
504.83	252.78
505.01	264.48
505.18	252.78
505.36	224.69
505.53	294.91
505.71	252.78
505.88	308.95
506.06	257.46
506.23	257.46
506.41	278.52
506.58	248.10
506.76	236.39
506.93	259.80
507.11	255.12
507.28	189.58
507.46	194.26
507.63	191.92
507.81	149.79
507.98	201.29
508.16	285.55
508.33	318.31
508.50	182.56
508.68	271.50
508.85	234.05
509.03	222.35
509.20	320.65
509.38	205.97
509.55	301.93
509.73	222.35
509.90	355.76
510.08	273.84
510.25	346.40
510.42	297.25
510.60	198.95
510.77	255.12
510.95	252.78
511.12	257.46
511.30	175.54
511.47	311.29
511.64	229.37
511.82	201.29
511.99	276.18
512.17	238.73
512.34	255.12
512.51	318.31
512.69	241.08
512.86	248.10
513.04	278.52
513.21	234.05
513.38	252.78
513.56	252.78
513.73	229.37
513.90	255.12
514.08	285.55
514.25	255.12
514.43	187.24
514.60	315.97
514.77	217.67
514.95	299.59
515.12	248.10
515.29	208.31
515.47	269.16
515.64	231.71
515.81	238.73
515.99	285.55
516.16	304.27
516.33	266.82
516.51	252.78
516.68	252.78
516.85	229.37
517.03	273.84
517.20	283.20
517.37	243.42
517.54	245.76
517.72	266.82
517.89	166.18
518.06	222.35
518.24	280.86
518.41	315.97
518.58	271.50
518.75	201.29
518.93	201.29
519.10	294.91
519.27	234.05
519.45	322.99
519.62	208.31
519.79	278.52
519.96	222.35
520.14	259.80
520.31	294.91
520.48	252.78
520.65	299.59
520.83	241.08
521.00	252.78
521.17	285.55
521.34	222.35
521.52	177.88
521.69	250.44
521.86	194.26
522.03	220.01
522.20	269.16
522.38	273.84
522.55	264.48
522.72	250.44
522.89	248.10
523.07	292.57
523.24	212.99
523.41	234.05
523.58	262.14
523.75	259.80
523.92	257.46
524.10	308.95
524.27	259.80
524.44	238.73
524.61	203.63
524.78	257.46
524.96	243.42
525.13	278.52
525.30	306.61
525.47	292.57
525.64	283.20
525.81	304.27
525.98	276.18
526.16	191.92
526.33	245.76
526.50	311.29
526.67	241.08
526.84	180.22
527.01	196.60
527.18	222.35
527.36	285.55
527.53	241.08
527.70	245.76
527.87	292.57
528.04	252.78
528.21	292.57
528.38	283.20
528.55	299.59
528.72	325.33
528.89	353.42
529.07	222.35
529.24	287.89
529.41	360.44
529.58	367.46
529.75	231.71
529.92	280.86
530.09	322.99
530.26	257.46
530.43	220.01
530.60	297.25
530.77	231.71
530.94	262.14
531.11	290.23
531.28	290.23
531.46	271.50
531.63	248.10
531.80	287.89
531.97	255.12
532.14	203.63
532.31	271.50
532.48	313.63
532.65	238.73
532.82	276.18
532.99	262.14
533.16	283.20
533.33	304.27
533.50	290.23
533.67	280.86
533.84	372.15
534.01	292.57
534.18	306.61
534.35	280.86
534.52	276.18
534.69	234.05
534.86	273.84
535.03	308.95
535.20	285.55
535.37	287.89
535.54	337.04
535.71	201.29
535.88	297.25
536.05	255.12
536.22	346.40
536.38	287.89
536.55	315.97
536.72	250.44
536.89	257.46
537.06	257.46
537.23	236.39
537.40	280.86
537.57	290.23
537.74	287.89
537.91	311.29
538.08	248.10
538.25	266.82
538.42	301.93
538.59	280.86
538.75	325.33
538.92	332.36
539.09	330.02
539.26	332.36
539.43	320.65
539.60	477.47
539.77	404.91
539.94	510.24
540.11	454.06
540.28	421.30
540.44	505.56
540.61	376.83
540.78	409.59
540.95	414.27
541.12	442.36
541.29	514.92
541.46	444.70
541.62	449.38
541.79	440.02
541.96	505.56
542.13	395.55
542.30	505.56
542.47	430.66
542.63	458.74
542.80	489.17
542.97	430.66
543.14	388.53
543.31	395.55
543.48	428.32
543.64	423.64
543.81	517.26
543.98	468.11
544.15	456.40
544.32	435.34
544.48	463.43
544.65	486.83
544.82	393.21
544.99	517.26
545.16	444.70
545.32	423.64
545.49	585.13
545.66	784.08
545.83	837.91
546.00	732.59
546.16	671.73
546.33	470.45
546.50	531.30
546.67	496.19
546.83	493.85
547.00	461.09
547.17	360.44
547.34	372.15
547.50	430.66
547.67	402.57
547.84	308.95
548.00	376.83
548.17	348.74
548.34	322.99
548.51	388.53
548.67	376.83
548.84	327.68
549.01	315.97
549.18	315.97
549.34	299.59
549.51	337.04
549.68	285.55
549.84	297.25
550.01	294.91
550.18	386.19
550.34	444.70
550.51	369.80
550.68	365.12
550.84	283.20
551.01	341.72
551.18	334.70
551.34	255.12
551.51	358.10
551.68	271.50
551.84	297.25
552.01	273.84
552.18	383.85
552.34	322.99
552.51	283.20
552.68	299.59
552.84	299.59
553.01	297.25
553.18	308.95
553.34	238.73
553.51	236.39
553.67	308.95
553.84	299.59
554.01	285.55
554.17	311.29
554.34	290.23
554.51	334.70
554.67	269.16
554.84	313.63
555.00	304.27
555.17	255.12
555.33	313.63
555.50	269.16
555.67	344.06
555.83	252.78
556.00	304.27
556.16	358.10
556.33	292.57
556.50	306.61
556.66	313.63
556.83	264.48
556.99	273.84
557.16	187.24
557.32	229.37
557.49	187.24
557.65	287.89
557.82	285.55
557.98	294.91
558.15	234.05
558.32	238.73
558.48	236.39
558.65	227.03
558.81	308.95
558.98	311.29
559.14	215.33
559.31	236.39
559.47	248.10
559.64	311.29
559.80	318.31
559.97	175.54
560.13	252.78
560.30	285.55
560.46	215.33
560.63	198.95
560.79	248.10
560.96	215.33
561.12	266.82
561.29	337.04
561.45	248.10
561.61	208.31
561.78	348.74
561.94	248.10
562.11	238.73
562.27	341.72
562.44	269.16
562.60	262.14
562.77	252.78
562.93	259.80
563.10	297.25
563.26	222.35
563.42	292.57
563.59	299.59
563.75	220.01
563.92	273.84
564.08	224.69
564.24	308.95
564.41	362.78
564.57	231.71
564.74	318.31
564.90	208.31
565.07	278.52
565.23	252.78
565.39	215.33
565.56	269.16
565.72	245.76
565.88	227.03
566.05	189.58
566.21	229.37
566.38	210.65
566.54	224.69
566.70	248.10
566.87	231.71
567.03	280.86
567.19	252.78
567.36	322.99
567.52	243.42
567.68	220.01
567.85	285.55
568.01	276.18
568.17	238.73
568.34	262.14
568.50	301.93
568.66	262.14
568.83	341.72
568.99	278.52
569.15	266.82
569.32	177.88
569.48	217.67
569.64	189.58
569.81	294.91
569.97	334.70
570.13	227.03
570.30	217.67
570.46	252.78
570.62	212.99
570.78	217.67
570.95	196.60
571.11	294.91
571.27	252.78
571.43	234.05
571.60	238.73
571.76	236.39
571.92	271.50
572.09	212.99
572.25	227.03
572.41	297.25
572.57	252.78
572.74	255.12
572.90	304.27
573.06	365.12
573.22	269.16
573.38	217.67
573.55	311.29
573.71	212.99
573.87	203.63
574.03	210.65
574.20	194.26
574.36	273.84
574.52	278.52
574.68	257.46
574.84	287.89
575.01	283.20
575.17	301.93
575.33	212.99
575.49	264.48
575.65	301.93
575.82	262.14
575.98	287.89
576.14	325.33
576.30	322.99
576.46	388.53
576.62	423.64
576.79	308.95
576.95	339.38
577.11	297.25
577.27	234.05
577.43	292.57
577.59	259.80
577.75	344.06
577.92	304.27
578.08	269.16
578.24	159.16
578.40	395.55
578.56	369.80
578.72	330.02
578.88	442.36
579.04	332.36
579.21	290.23
579.37	306.61
579.53	327.68
579.69	299.59
579.85	290.23
580.01	313.63
580.17	266.82
580.33	222.35
580.49	259.80
580.65	301.93
580.82	292.57
580.98	290.23
581.14	294.91
581.30	330.02
581.46	224.69
581.62	360.44
581.78	423.64
581.94	306.61
582.10	322.99
582.26	308.95
582.42	353.42
582.58	346.40
582.74	294.91
582.90	327.68
583.06	362.78
583.22	369.80
583.38	306.61
583.54	271.50
583.70	292.57
583.86	337.04
584.02	365.12
584.18	468.11
584.34	376.83
584.50	828.55
584.66	4393.19
584.82	9685.14
584.98	12631.87
585.14	10855.40
585.30	6911.60
585.46	4428.29
585.62	2579.27
585.78	1425.39
585.94	758.33
586.10	479.81
586.26	372.15
586.42	369.80
586.58	355.76
586.74	358.10
586.90	358.10
587.06	383.85
587.22	330.02
587.38	353.42
587.54	472.79
587.70	837.91
587.86	1050.90
588.02	1053.24
588.18	926.85
588.34	641.31
588.49	491.51
588.65	313.63
588.81	276.18
588.97	313.63
589.13	248.10
589.29	266.82
589.45	322.99
589.61	301.93
589.77	322.99
589.93	229.37
590.08	320.65
590.24	273.84
590.40	313.63
590.56	334.70
590.72	264.48
590.88	283.20
591.04	262.14
591.20	315.97
591.35	248.10
591.51	241.08
591.67	259.80
591.83	280.86
591.99	327.68
592.15	362.78
592.31	341.72
592.46	308.95
592.62	301.93
592.78	322.99
592.94	287.89
593.10	290.23
593.26	278.52
593.41	318.31
593.57	276.18
593.73	344.06
593.89	741.95
594.05	1327.08
594.20	1715.61
594.36	1614.97
594.52	1116.44
594.68	788.76
594.84	587.47
594.99	447.04
595.15	360.44
595.31	334.70
595.47	257.46
595.62	227.03
595.78	301.93
595.94	262.14
596.10	276.18
596.25	248.10
596.41	311.29
596.57	280.86
596.73	266.82
596.88	330.02
597.04	414.27
597.20	580.45
597.36	573.43
597.51	519.60
597.67	444.70
597.83	374.49
597.99	421.30
598.14	334.70
598.30	301.93
598.46	320.65
598.61	294.91
598.77	313.63
598.93	337.04
599.09	271.50
599.24	287.89
599.40	311.29
599.56	292.57
599.71	290.23
599.87	184.90
600.03	278.52
600.18	285.55
600.34	276.18
600.50	187.24
600.65	278.52
600.81	243.42
600.97	215.33
601.12	264.48
601.28	294.91
601.44	234.05
601.59	236.39
601.75	313.63
601.91	252.78
602.06	208.31
602.22	285.55
602.37	353.42
602.53	440.02
602.69	610.88
602.84	524.28
603.00	547.69
603.16	400.23
603.31	372.15
603.47	313.63
603.62	198.95
603.78	196.60
603.94	301.93
604.09	266.82
604.25	252.78
604.40	177.88
604.56	224.69
604.71	236.39
604.87	198.95
605.03	208.31
605.18	283.20
605.34	236.39
605.49	273.84
605.65	315.97
605.80	248.10
605.96	341.72
606.12	365.12
606.27	255.12
606.43	325.33
606.58	292.57
606.74	353.42
606.89	856.64
607.05	1327.08
607.20	1416.02
607.36	1273.25
607.51	1015.79
607.67	741.95
607.82	624.92
607.98	449.38
608.13	301.93
608.29	369.80
608.44	369.80
608.60	367.46
608.75	395.55
608.91	517.26
609.06	1226.44
609.22	2052.65
609.37	2415.43
609.53	2136.91
609.68	1696.89
609.84	1266.23
609.99	875.36
610.15	746.63
610.30	624.92
610.46	528.96
610.61	613.22
