SpectraSuite Data File
++++++++++++++++++++++++++++++++++++
Date: Fri Oct 04 11:33:57 GMT-05:00 2013
User: price-jones
Dark Spectrum Present: No
Reference Spectrum Present: No
Number of Sampled Component Spectra: 1
Spectrometers: USB2+H05261
Integration Time (usec): 100000 (USB2+H05261)
Spectra Averaged: 1 (USB2+H05261)
Boxcar Smoothing: 0 (USB2+H05261)
Correct for Electrical Dark: No (USB2+H05261)
Strobe/Lamp Enabled: No (USB2+H05261)
Correct for Detector Non-linearity: No (USB2+H05261)
Correct for Stray Light: No (USB2+H05261)
Number of Pixels in Processed Spectrum: 2048
>>>>>Begin Processed Spectral Data<<<<<
365.73	124.05
365.92	124.05
366.12	124.05
366.32	39.79
366.52	0.00
366.72	63.19
366.91	0.00
367.11	0.00
367.31	0.00
367.51	0.00
367.70	0.00
367.90	0.00
368.10	0.00
368.30	0.00
368.49	21.06
368.69	9.36
368.89	0.00
369.09	0.00
369.28	0.00
369.48	9.36
369.68	32.77
369.87	4.68
370.07	18.72
370.27	11.70
370.47	88.94
370.66	0.00
370.86	65.54
371.06	117.03
371.25	149.79
371.45	107.66
371.65	133.41
371.84	49.15
372.04	93.62
372.24	105.32
372.44	88.94
372.63	156.82
372.83	152.13
373.03	159.16
373.22	131.07
373.42	65.54
373.62	163.84
373.81	184.90
374.01	110.01
374.21	217.67
374.40	93.62
374.60	131.07
374.79	100.64
374.99	168.52
375.19	180.22
375.38	248.10
375.58	147.45
375.78	170.86
375.97	149.79
376.17	173.20
376.37	187.24
376.56	184.90
376.76	133.41
376.95	133.41
377.15	149.79
377.35	177.88
377.54	166.18
377.74	166.18
377.93	156.82
378.13	128.73
378.33	154.48
378.52	194.26
378.72	182.56
378.91	205.97
379.11	163.84
379.31	102.98
379.50	149.79
379.70	203.63
379.89	100.64
380.09	67.88
380.28	142.77
380.48	145.11
380.68	152.13
380.87	117.03
381.07	119.37
381.26	140.43
381.46	215.33
381.65	175.54
381.85	114.69
382.04	121.71
382.24	145.11
382.43	119.37
382.63	135.75
382.83	86.60
383.02	177.88
383.22	210.65
383.41	128.73
383.61	147.45
383.80	131.07
384.00	119.37
384.19	149.79
384.39	175.54
384.58	187.24
384.78	198.95
384.97	161.50
385.17	166.18
385.36	191.92
385.56	112.35
385.75	84.26
385.95	98.30
386.14	177.88
386.34	126.39
386.53	124.05
386.72	180.22
386.92	196.60
387.11	159.16
387.31	182.56
387.50	114.69
387.70	79.58
387.89	138.09
388.09	152.13
388.28	149.79
388.48	110.01
388.67	121.71
388.86	119.37
389.06	79.58
389.25	138.09
389.45	88.94
389.64	229.37
389.84	173.20
390.03	128.73
390.22	154.48
390.42	102.98
390.61	81.92
390.81	93.62
391.00	154.48
391.19	187.24
391.39	126.39
391.58	124.05
391.78	70.22
391.97	53.83
392.16	145.11
392.36	156.82
392.55	196.60
392.75	166.18
392.94	140.43
393.13	147.45
393.33	135.75
393.52	95.96
393.71	126.39
393.91	196.60
394.10	131.07
394.29	149.79
394.49	173.20
394.68	166.18
394.88	196.60
395.07	196.60
395.26	168.52
395.46	182.56
395.65	154.48
395.84	126.39
396.04	187.24
396.23	131.07
396.42	91.28
396.62	126.39
396.81	121.71
397.00	84.26
397.19	126.39
397.39	121.71
397.58	212.99
397.77	105.32
397.97	187.24
398.16	145.11
398.35	72.56
398.55	105.32
398.74	84.26
398.93	182.56
399.12	112.35
399.32	117.03
399.51	110.01
399.70	215.33
399.90	175.54
400.09	133.41
400.28	149.79
400.47	100.64
400.67	161.50
400.86	105.32
401.05	149.79
401.24	198.95
401.44	184.90
401.63	133.41
401.82	184.90
402.01	175.54
402.21	217.67
402.40	126.39
402.59	128.73
402.78	131.07
402.97	159.16
403.17	121.71
403.36	105.32
403.55	128.73
403.74	252.78
403.93	238.73
404.13	238.73
404.32	196.60
404.51	257.46
404.70	184.90
404.89	131.07
405.09	93.62
405.28	203.63
405.47	117.03
405.66	159.16
405.85	194.26
406.05	81.92
406.24	156.82
406.43	184.90
406.62	154.48
406.81	217.67
407.00	166.18
407.20	128.73
407.39	229.37
407.58	175.54
407.77	147.45
407.96	238.73
408.15	173.20
408.34	149.79
408.54	95.96
408.73	194.26
408.92	227.03
409.11	159.16
409.30	229.37
409.49	156.82
409.68	135.75
409.87	142.77
410.07	117.03
410.26	100.64
410.45	208.31
410.64	140.43
410.83	124.05
411.02	170.86
411.21	131.07
411.40	198.95
411.59	180.22
411.78	161.50
411.98	187.24
412.17	119.37
412.36	175.54
412.55	212.99
412.74	142.77
412.93	210.65
413.12	133.41
413.31	271.50
413.50	135.75
413.69	203.63
413.88	168.52
414.07	152.13
414.26	201.29
414.45	182.56
414.64	194.26
414.83	119.37
415.02	154.48
415.22	276.18
415.41	154.48
415.60	168.52
415.79	168.52
415.98	180.22
416.17	121.71
416.36	177.88
416.55	149.79
416.74	117.03
416.93	215.33
417.12	138.09
417.31	177.88
417.50	173.20
417.69	208.31
417.88	217.67
418.07	198.95
418.26	194.26
418.45	175.54
418.64	262.14
418.83	245.76
419.02	245.76
419.21	191.92
419.39	243.42
419.58	173.20
419.77	191.92
419.96	196.60
420.15	222.35
420.34	159.16
420.53	194.26
420.72	184.90
420.91	138.09
421.10	191.92
421.29	119.37
421.48	212.99
421.67	248.10
421.86	107.66
422.05	110.01
422.24	149.79
422.43	196.60
422.61	168.52
422.80	198.95
422.99	215.33
423.18	203.63
423.37	168.52
423.56	152.13
423.75	126.39
423.94	133.41
424.13	152.13
424.32	119.37
424.50	81.92
424.69	198.95
424.88	168.52
425.07	145.11
425.26	156.82
425.45	287.89
425.64	227.03
425.83	255.12
426.01	161.50
426.20	243.42
426.39	170.86
426.58	91.28
426.77	212.99
426.96	166.18
427.15	140.43
427.33	201.29
427.52	220.01
427.71	114.69
427.90	205.97
428.09	205.97
428.28	138.09
428.46	177.88
428.65	220.01
428.84	241.08
429.03	205.97
429.22	212.99
429.40	168.52
429.59	184.90
429.78	191.92
429.97	215.33
430.16	159.16
430.34	142.77
430.53	105.32
430.72	32.77
430.91	135.75
431.10	131.07
431.28	250.44
431.47	215.33
431.66	149.79
431.85	189.58
432.03	142.77
432.22	166.18
432.41	133.41
432.60	187.24
432.79	170.86
432.97	269.16
433.16	194.26
433.35	252.78
433.54	182.56
433.72	156.82
433.91	259.80
434.10	210.65
434.28	243.42
434.47	161.50
434.66	180.22
434.85	208.31
435.03	210.65
435.22	311.29
435.41	437.68
435.59	390.87
435.78	322.99
435.97	196.60
436.16	184.90
436.34	154.48
436.53	138.09
436.72	210.65
436.90	154.48
437.09	234.05
437.28	95.96
437.46	149.79
437.65	163.84
437.84	112.35
438.02	140.43
438.21	133.41
438.40	191.92
438.58	180.22
438.77	161.50
438.96	156.82
439.14	159.16
439.33	159.16
439.52	91.28
439.70	184.90
439.89	175.54
440.08	198.95
440.26	217.67
440.45	222.35
440.63	159.16
440.82	257.46
441.01	124.05
441.19	189.58
441.38	208.31
441.57	159.16
441.75	227.03
441.94	191.92
442.12	205.97
442.31	173.20
442.50	159.16
442.68	266.82
442.87	215.33
443.05	112.35
443.24	131.07
443.43	191.92
443.61	182.56
443.80	156.82
443.98	175.54
444.17	166.18
444.35	163.84
444.54	168.52
444.73	147.45
444.91	170.86
445.10	187.24
445.28	149.79
445.47	212.99
445.65	217.67
445.84	154.48
446.02	180.22
446.21	161.50
446.39	168.52
446.58	198.95
446.77	252.78
446.95	184.90
447.14	227.03
447.32	156.82
447.51	177.88
447.69	180.22
447.88	194.26
448.06	205.97
448.25	191.92
448.43	161.50
448.62	184.90
448.80	250.44
448.99	203.63
449.17	154.48
449.36	262.14
449.54	166.18
449.73	198.95
449.91	245.76
450.10	166.18
450.28	262.14
450.46	210.65
450.65	238.73
450.83	229.37
451.02	238.73
451.20	126.39
451.39	182.56
451.57	248.10
451.76	198.95
451.94	241.08
452.13	175.54
452.31	133.41
452.49	210.65
452.68	196.60
452.86	168.52
453.05	234.05
453.23	110.01
453.42	215.33
453.60	138.09
453.78	163.84
453.97	196.60
454.15	187.24
454.34	126.39
454.52	189.58
454.70	229.37
454.89	184.90
455.07	236.39
455.26	217.67
455.44	236.39
455.62	124.05
455.81	212.99
455.99	264.48
456.17	191.92
456.36	229.37
456.54	269.16
456.73	203.63
456.91	142.77
457.09	156.82
457.28	152.13
457.46	201.29
457.64	262.14
457.83	205.97
458.01	145.11
458.19	210.65
458.38	201.29
458.56	177.88
458.74	175.54
458.93	259.80
459.11	215.33
459.29	124.05
459.48	131.07
459.66	208.31
459.84	203.63
460.03	243.42
460.21	187.24
460.39	198.95
460.57	269.16
460.76	191.92
460.94	198.95
461.12	236.39
461.31	203.63
461.49	252.78
461.67	201.29
461.85	184.90
462.04	166.18
462.22	641.31
462.40	229.37
462.59	271.50
462.77	152.13
462.95	212.99
463.13	196.60
463.32	215.33
463.50	154.48
463.68	161.50
463.86	168.52
464.05	177.88
464.23	168.52
464.41	210.65
464.59	187.24
464.78	194.26
464.96	194.26
465.14	173.20
465.32	191.92
465.50	161.50
465.69	208.31
465.87	126.39
466.05	166.18
466.23	138.09
466.41	210.65
466.60	194.26
466.78	163.84
466.96	210.65
467.14	170.86
467.32	294.91
467.51	187.24
467.69	140.43
467.87	180.22
468.05	102.98
468.23	229.37
468.41	222.35
468.60	170.86
468.78	194.26
468.96	191.92
469.14	196.60
469.32	212.99
469.50	135.75
469.69	184.90
469.87	194.26
470.05	194.26
470.23	173.20
470.41	154.48
470.59	152.13
470.77	217.67
470.95	198.95
471.14	187.24
471.32	152.13
471.50	194.26
471.68	182.56
471.86	222.35
472.04	259.80
472.22	196.60
472.40	168.52
472.58	238.73
472.77	217.67
472.95	163.84
473.13	201.29
473.31	236.39
473.49	145.11
473.67	187.24
473.85	245.76
474.03	208.31
474.21	224.69
474.39	156.82
474.57	212.99
474.75	210.65
474.93	250.44
475.12	248.10
475.30	210.65
475.48	173.20
475.66	187.24
475.84	142.77
476.02	182.56
476.20	166.18
476.38	212.99
476.56	362.78
476.74	187.24
476.92	217.67
477.10	154.48
477.28	217.67
477.46	273.84
477.64	212.99
477.82	168.52
478.00	208.31
478.18	175.54
478.36	227.03
478.54	182.56
478.72	227.03
478.90	210.65
479.08	138.09
479.26	231.71
479.44	229.37
479.62	212.99
479.80	234.05
479.98	245.76
480.16	205.97
480.34	234.05
480.52	227.03
480.70	243.42
480.88	212.99
481.06	208.31
481.24	257.46
481.41	215.33
481.59	201.29
481.77	250.44
481.95	264.48
482.13	278.52
482.31	182.56
482.49	198.95
482.67	210.65
482.85	337.04
483.03	222.35
483.21	231.71
483.39	238.73
483.57	173.20
483.74	245.76
483.92	222.35
484.10	224.69
484.28	292.57
484.46	273.84
484.64	212.99
484.82	271.50
485.00	299.59
485.18	161.50
485.35	285.55
485.53	266.82
485.71	187.24
485.89	182.56
486.07	208.31
486.25	337.04
486.43	245.76
486.61	250.44
486.78	271.50
486.96	201.29
487.14	285.55
487.32	231.71
487.50	243.42
487.68	269.16
487.85	255.12
488.03	280.86
488.21	276.18
488.39	259.80
488.57	306.61
488.75	287.89
488.92	475.13
489.10	325.33
489.28	330.02
489.46	257.46
489.64	189.58
489.81	255.12
489.99	250.44
490.17	198.95
490.35	311.29
490.53	229.37
490.70	271.50
490.88	231.71
491.06	205.97
491.24	241.08
491.41	294.91
491.59	339.38
491.77	201.29
491.95	292.57
492.13	273.84
492.30	285.55
492.48	238.73
492.66	276.18
492.84	231.71
493.01	212.99
493.19	283.20
493.37	257.46
493.54	222.35
493.72	234.05
493.90	276.18
494.08	191.92
494.25	177.88
494.43	248.10
494.61	241.08
494.79	177.88
494.96	250.44
495.14	327.68
495.32	259.80
495.49	243.42
495.67	273.84
495.85	290.23
496.02	212.99
496.20	245.76
496.38	294.91
496.55	241.08
496.73	224.69
496.91	287.89
497.09	273.84
497.26	234.05
497.44	259.80
497.62	278.52
497.79	250.44
497.97	257.46
498.14	264.48
498.32	276.18
498.50	245.76
498.67	266.82
498.85	297.25
499.03	280.86
499.20	308.95
499.38	266.82
499.56	299.59
499.73	276.18
499.91	278.52
500.08	250.44
500.26	315.97
500.44	278.52
500.61	238.73
500.79	212.99
500.97	231.71
501.14	280.86
501.32	287.89
501.49	311.29
501.67	292.57
501.84	245.76
502.02	318.31
502.20	196.60
502.37	290.23
502.55	278.52
502.72	353.42
502.90	234.05
503.07	287.89
503.25	203.63
503.43	313.63
503.60	252.78
503.78	259.80
503.95	285.55
504.13	224.69
504.30	301.93
504.48	294.91
504.65	224.69
504.83	283.20
505.01	198.95
505.18	257.46
505.36	238.73
505.53	220.01
505.71	252.78
505.88	257.46
506.06	241.08
506.23	285.55
506.41	243.42
506.58	269.16
506.76	231.71
506.93	220.01
507.11	271.50
507.28	241.08
507.46	215.33
507.63	245.76
507.81	208.31
507.98	313.63
508.16	250.44
508.33	262.14
508.50	285.55
508.68	234.05
508.85	271.50
509.03	217.67
509.20	257.46
509.38	252.78
509.55	306.61
509.73	330.02
509.90	229.37
510.08	198.95
510.25	308.95
510.42	255.12
510.60	229.37
510.77	313.63
510.95	301.93
511.12	194.26
511.30	212.99
511.47	294.91
511.64	346.40
511.82	248.10
511.99	175.54
512.17	238.73
512.34	203.63
512.51	285.55
512.69	201.29
512.86	285.55
513.04	308.95
513.21	299.59
513.38	231.71
513.56	222.35
513.73	241.08
513.90	196.60
514.08	245.76
514.25	262.14
514.43	299.59
514.60	238.73
514.77	250.44
514.95	297.25
515.12	236.39
515.29	278.52
515.47	294.91
515.64	257.46
515.81	217.67
515.99	348.74
516.16	243.42
516.33	362.78
516.51	159.16
516.68	163.84
516.85	266.82
517.03	266.82
517.20	278.52
517.37	210.65
517.54	264.48
517.72	220.01
517.89	166.18
518.06	229.37
518.24	266.82
518.41	330.02
518.58	231.71
518.75	215.33
518.93	262.14
519.10	255.12
519.27	337.04
519.45	241.08
519.62	283.20
519.79	241.08
519.96	245.76
520.14	290.23
520.31	330.02
520.48	294.91
520.65	196.60
520.83	337.04
521.00	241.08
521.17	304.27
521.34	231.71
521.52	332.36
521.69	259.80
521.86	318.31
522.03	271.50
522.20	313.63
522.38	379.17
522.55	327.68
522.72	255.12
522.89	273.84
523.07	365.12
523.24	273.84
523.41	255.12
523.58	311.29
523.75	292.57
523.92	220.01
524.10	170.86
524.27	276.18
524.44	243.42
524.61	315.97
524.78	210.65
524.96	308.95
525.13	269.16
525.30	318.31
525.47	290.23
525.64	276.18
525.81	271.50
525.98	217.67
526.16	234.05
526.33	208.31
526.50	287.89
526.67	212.99
526.84	257.46
527.01	255.12
527.18	322.99
527.36	292.57
527.53	269.16
527.70	294.91
527.87	297.25
528.04	255.12
528.21	290.23
528.38	227.03
528.55	283.20
528.72	276.18
528.89	407.25
529.07	330.02
529.24	299.59
529.41	369.80
529.58	250.44
529.75	341.72
529.92	259.80
530.09	327.68
530.26	290.23
530.43	280.86
530.60	271.50
530.77	234.05
530.94	257.46
531.11	322.99
531.28	184.90
531.46	236.39
531.63	294.91
531.80	245.76
531.97	311.29
532.14	287.89
532.31	276.18
532.48	278.52
532.65	372.15
532.82	344.06
532.99	386.19
533.16	367.46
533.33	421.30
533.50	358.10
533.67	320.65
533.84	418.96
534.01	428.32
534.18	369.80
534.35	325.33
534.52	297.25
534.69	322.99
534.86	269.16
535.03	315.97
535.20	325.33
535.37	264.48
535.54	287.89
535.71	313.63
535.88	285.55
536.05	299.59
536.22	243.42
536.38	304.27
536.55	259.80
536.72	395.55
536.89	290.23
537.06	255.12
537.23	346.40
537.40	285.55
537.57	313.63
537.74	292.57
537.91	397.89
538.08	248.10
538.25	374.49
538.42	358.10
538.59	294.91
538.75	332.36
538.92	285.55
539.09	383.85
539.26	332.36
539.43	571.09
539.60	917.49
539.77	1200.69
539.94	1245.16
540.11	896.43
540.28	657.69
540.44	568.75
540.61	498.53
540.78	402.57
540.95	468.11
541.12	514.92
541.29	540.66
541.46	503.22
541.62	514.92
541.79	531.30
541.96	482.15
542.13	503.22
542.30	491.51
542.47	482.15
542.63	489.17
542.80	491.51
542.97	491.51
543.14	468.11
543.31	416.62
543.48	402.57
543.64	465.77
543.81	484.49
543.98	479.81
544.15	388.53
544.32	482.15
544.48	493.85
544.65	475.13
544.82	411.93
544.99	440.02
545.16	493.85
545.32	400.23
545.49	662.37
545.66	903.45
545.83	973.66
546.00	858.98
546.16	711.52
546.33	543.00
546.50	500.87
546.67	486.83
546.83	362.78
547.00	304.27
547.17	374.49
547.34	337.04
547.50	437.68
547.67	395.55
547.84	351.08
548.00	404.91
548.17	372.15
548.34	362.78
548.51	369.80
548.67	442.36
548.84	379.17
549.01	327.68
549.18	365.12
549.34	407.25
549.51	341.72
549.68	341.72
549.84	322.99
550.01	330.02
550.18	430.66
550.34	348.74
550.51	313.63
550.68	353.42
550.84	351.08
551.01	327.68
551.18	245.76
551.34	299.59
551.51	383.85
551.68	294.91
551.84	358.10
552.01	353.42
552.18	259.80
552.34	315.97
552.51	304.27
552.68	376.83
552.84	304.27
553.01	407.25
553.18	294.91
553.34	348.74
553.51	388.53
553.67	245.76
553.84	360.44
554.01	278.52
554.17	278.52
554.34	271.50
554.51	299.59
554.67	358.10
554.84	325.33
555.00	262.14
555.17	308.95
555.33	292.57
555.50	231.71
555.67	287.89
555.83	250.44
556.00	262.14
556.16	400.23
556.33	266.82
556.50	294.91
556.66	276.18
556.83	236.39
556.99	250.44
557.16	203.63
557.32	245.76
557.49	299.59
557.65	292.57
557.82	271.50
557.98	229.37
558.15	264.48
558.32	344.06
558.48	308.95
558.65	208.31
558.81	266.82
558.98	250.44
559.14	318.31
559.31	269.16
559.47	292.57
559.64	332.36
559.80	306.61
559.97	159.16
560.13	271.50
560.30	248.10
560.46	266.82
560.63	271.50
560.79	322.99
560.96	332.36
561.12	301.93
561.29	299.59
561.45	250.44
561.61	290.23
561.78	297.25
561.94	245.76
562.11	243.42
562.27	351.08
562.44	285.55
562.60	175.54
562.77	210.65
562.93	411.93
563.10	294.91
563.26	222.35
563.42	299.59
563.59	311.29
563.75	250.44
563.92	273.84
564.08	299.59
564.24	388.53
564.41	379.17
564.57	212.99
564.74	273.84
564.90	255.12
565.07	346.40
565.23	229.37
565.39	250.44
565.56	271.50
565.72	285.55
565.88	304.27
566.05	215.33
566.21	257.46
566.38	311.29
566.54	346.40
566.70	217.67
566.87	259.80
567.03	337.04
567.19	313.63
567.36	250.44
567.52	367.46
567.68	332.36
567.85	299.59
568.01	170.86
568.17	231.71
568.34	252.78
568.50	294.91
568.66	191.92
568.83	353.42
568.99	224.69
569.15	231.71
569.32	278.52
569.48	273.84
569.64	224.69
569.81	234.05
569.97	259.80
570.13	262.14
570.30	238.73
570.46	259.80
570.62	245.76
570.78	234.05
570.95	177.88
571.11	234.05
571.27	358.10
571.43	217.67
571.60	311.29
571.76	266.82
571.92	255.12
572.09	222.35
572.25	266.82
572.41	262.14
572.57	149.79
572.74	315.97
572.90	234.05
573.06	231.71
573.22	292.57
573.38	255.12
573.55	315.97
573.71	311.29
573.87	271.50
574.03	217.67
574.20	259.80
574.36	311.29
574.52	315.97
574.68	306.61
574.84	332.36
575.01	306.61
575.17	304.27
575.33	205.97
575.49	264.48
575.65	318.31
575.82	402.57
575.98	512.58
576.14	631.94
576.30	580.45
576.46	606.20
576.62	592.16
576.79	521.94
576.95	456.40
577.11	365.12
577.27	292.57
577.43	287.89
577.59	337.04
577.75	327.68
577.92	330.02
578.08	271.50
578.24	280.86
578.40	362.78
578.56	437.68
578.72	381.51
578.88	404.91
579.04	358.10
579.21	313.63
579.37	294.91
579.53	360.44
579.69	393.21
579.85	444.70
580.01	458.74
580.17	353.42
580.33	322.99
580.49	411.93
580.65	381.51
580.82	355.76
580.98	332.36
581.14	360.44
581.30	367.46
581.46	482.15
581.62	479.81
581.78	535.98
581.94	528.96
582.10	491.51
582.26	451.72
582.42	437.68
582.58	418.96
582.74	327.68
582.90	409.59
583.06	491.51
583.22	489.17
583.38	454.06
583.54	535.98
583.70	575.77
583.86	638.97
584.02	641.31
584.18	791.10
584.34	929.19
584.50	2267.98
584.66	17029.74
584.82	42824.78
584.98	54340.22
585.14	50005.55
585.30	32072.36
585.46	19323.46
585.62	11922.69
585.78	5802.19
585.94	2450.54
586.10	1224.10
586.26	884.72
586.42	699.82
586.58	587.47
586.74	538.32
586.90	557.05
587.06	582.79
587.22	517.26
587.38	564.07
587.54	1036.86
587.70	2731.41
587.86	4053.81
588.02	4327.65
588.18	3103.55
588.34	1998.82
588.49	1345.81
588.65	887.06
588.81	580.45
588.97	355.76
589.13	313.63
589.29	297.25
589.45	386.19
589.61	383.85
589.77	425.98
589.93	472.79
590.08	425.98
590.24	449.38
590.40	444.70
590.56	367.46
590.72	383.85
590.88	369.80
591.04	444.70
591.20	337.04
591.35	379.17
591.51	358.10
591.67	386.19
591.83	325.33
591.99	430.66
592.15	365.12
592.31	341.72
592.46	318.31
592.62	393.21
592.78	297.25
592.94	372.15
593.10	374.49
593.26	383.85
593.41	360.44
593.57	404.91
593.73	559.39
593.89	2239.89
594.05	5144.50
594.20	7250.98
594.36	6764.15
594.52	4645.96
594.68	2991.20
594.84	2047.97
594.99	1172.61
595.15	538.32
595.31	414.27
595.47	386.19
595.62	341.72
595.78	334.70
595.94	355.76
596.10	435.34
596.25	395.55
596.41	383.85
596.57	332.36
596.73	304.27
596.88	580.45
597.04	1053.24
597.20	1682.85
597.36	1902.86
597.51	1448.79
597.67	1027.50
597.83	711.52
597.99	620.24
598.14	435.34
598.30	327.68
598.46	341.72
598.61	411.93
598.77	414.27
598.93	205.97
599.09	322.99
599.24	257.46
599.40	285.55
599.56	339.38
599.71	306.61
599.87	355.76
600.03	332.36
600.18	409.59
600.34	266.82
600.50	304.27
600.65	252.78
600.81	276.18
600.97	243.42
601.12	327.68
601.28	337.04
601.44	238.73
601.59	241.08
601.75	262.14
601.91	341.72
602.06	313.63
602.22	411.93
602.37	606.20
602.53	1373.89
602.69	1842.00
602.84	1853.70
603.00	1364.53
603.16	1100.05
603.31	763.01
603.47	596.84
603.62	390.87
603.78	393.21
603.94	334.70
604.09	292.57
604.25	362.78
604.40	339.38
604.56	278.52
604.71	259.80
604.87	243.42
605.03	283.20
605.18	276.18
605.34	393.21
605.49	280.86
605.65	421.30
605.80	304.27
605.96	276.18
606.12	318.31
606.27	376.83
606.43	390.87
606.58	358.10
606.74	697.48
606.89	2614.38
607.05	4905.76
607.20	6090.07
607.36	5043.85
607.51	3475.70
607.67	2307.77
607.82	1638.38
607.98	926.85
608.13	517.26
608.29	414.27
608.44	435.34
608.60	440.02
608.75	458.74
608.91	997.07
609.06	3840.82
609.22	8266.77
609.37	10480.92
609.53	9329.38
609.68	6413.07
609.84	4358.08
609.99	2841.41
610.15	1849.02
