SpectraSuite Data File
++++++++++++++++++++++++++++++++++++
Date: Fri Oct 04 11:33:53 GMT-05:00 2013
User: price-jones
Dark Spectrum Present: No
Reference Spectrum Present: No
Number of Sampled Component Spectra: 1
Spectrometers: USB2+H05261
Integration Time (usec): 100000 (USB2+H05261)
Spectra Averaged: 1 (USB2+H05261)
Boxcar Smoothing: 0 (USB2+H05261)
Correct for Electrical Dark: No (USB2+H05261)
Strobe/Lamp Enabled: No (USB2+H05261)
Correct for Detector Non-linearity: No (USB2+H05261)
Correct for Stray Light: No (USB2+H05261)
Number of Pixels in Processed Spectrum: 2048
>>>>>Begin Processed Spectral Data<<<<<
365.73	51.49
365.92	51.49
366.12	51.49
366.32	2.34
366.52	0.00
366.72	0.00
366.91	0.00
367.11	0.00
367.31	0.00
367.51	0.00
367.70	0.00
367.90	0.00
368.10	0.00
368.30	0.00
368.49	0.00
368.69	0.00
368.89	0.00
369.09	0.00
369.28	0.00
369.48	0.00
369.68	7.02
369.87	0.00
370.07	23.41
370.27	0.00
370.47	39.79
370.66	86.60
370.86	56.17
371.06	67.88
371.25	182.56
371.45	140.43
371.65	210.65
371.84	102.98
372.04	117.03
372.24	117.03
372.44	98.30
372.63	142.77
372.83	212.99
373.03	107.66
373.22	168.52
373.42	119.37
373.62	156.82
373.81	117.03
374.01	128.73
374.21	142.77
374.40	201.29
374.60	203.63
374.79	63.19
374.99	114.69
375.19	196.60
375.38	194.26
375.58	152.13
375.78	177.88
375.97	126.39
376.17	241.08
376.37	121.71
376.56	156.82
376.76	173.20
376.95	156.82
377.15	220.01
377.35	212.99
377.54	166.18
377.74	145.11
377.93	140.43
378.13	98.30
378.33	161.50
378.52	117.03
378.72	159.16
378.91	91.28
379.11	70.22
379.31	110.01
379.50	100.64
379.70	217.67
379.89	159.16
380.09	142.77
380.28	126.39
380.48	93.62
380.68	93.62
380.87	182.56
381.07	177.88
381.26	112.35
381.46	131.07
381.65	138.09
381.85	105.32
382.04	182.56
382.24	166.18
382.43	67.88
382.63	173.20
382.83	140.43
383.02	49.15
383.22	156.82
383.41	135.75
383.61	149.79
383.80	147.45
384.00	161.50
384.19	112.35
384.39	131.07
384.58	93.62
384.78	177.88
384.97	173.20
385.17	224.69
385.36	140.43
385.56	159.16
385.75	70.22
385.95	149.79
386.14	74.90
386.34	135.75
386.53	212.99
386.72	114.69
386.92	231.71
387.11	187.24
387.31	182.56
387.50	145.11
387.70	95.96
387.89	152.13
388.09	159.16
388.28	173.20
388.48	114.69
388.67	163.84
388.86	58.51
389.06	220.01
389.25	110.01
389.45	124.05
389.64	184.90
389.84	201.29
390.03	131.07
390.22	154.48
390.42	110.01
390.61	140.43
390.81	42.13
391.00	128.73
391.19	65.54
391.39	119.37
391.58	187.24
391.78	126.39
391.97	168.52
392.16	154.48
392.36	154.48
392.55	154.48
392.75	100.64
392.94	112.35
393.13	170.86
393.33	112.35
393.52	166.18
393.71	154.48
393.91	105.32
394.10	147.45
394.29	131.07
394.49	159.16
394.68	170.86
394.88	236.39
395.07	154.48
395.26	131.07
395.46	138.09
395.65	196.60
395.84	145.11
396.04	152.13
396.23	126.39
396.42	168.52
396.62	110.01
396.81	229.37
397.00	135.75
397.19	154.48
397.39	177.88
397.58	145.11
397.77	224.69
397.97	170.86
398.16	138.09
398.35	166.18
398.55	128.73
398.74	100.64
398.93	187.24
399.12	138.09
399.32	110.01
399.51	208.31
399.70	201.29
399.90	124.05
400.09	72.56
400.28	159.16
400.47	161.50
400.67	217.67
400.86	187.24
401.05	177.88
401.24	269.16
401.44	175.54
401.63	142.77
401.82	187.24
402.01	166.18
402.21	166.18
402.40	156.82
402.59	159.16
402.78	159.16
402.97	159.16
403.17	152.13
403.36	180.22
403.55	114.69
403.74	163.84
403.93	187.24
404.13	248.10
404.32	184.90
404.51	154.48
404.70	234.05
404.89	138.09
405.09	241.08
405.28	98.30
405.47	128.73
405.66	189.58
405.85	121.71
406.05	156.82
406.24	161.50
406.43	93.62
406.62	138.09
406.81	140.43
407.00	126.39
407.20	154.48
407.39	156.82
407.58	182.56
407.77	152.13
407.96	142.77
408.15	194.26
408.34	196.60
408.54	177.88
408.73	135.75
408.92	161.50
409.11	175.54
409.30	189.58
409.49	138.09
409.68	140.43
409.87	147.45
410.07	154.48
410.26	126.39
410.45	224.69
410.64	156.82
410.83	166.18
411.02	217.67
411.21	147.45
411.40	149.79
411.59	117.03
411.78	70.22
411.98	215.33
412.17	138.09
412.36	201.29
412.55	201.29
412.74	208.31
412.93	182.56
413.12	149.79
413.31	159.16
413.50	152.13
413.69	100.64
413.88	191.92
414.07	124.05
414.26	241.08
414.45	236.39
414.64	110.01
414.83	191.92
415.02	140.43
415.22	166.18
415.41	222.35
415.60	203.63
415.79	154.48
415.98	259.80
416.17	198.95
416.36	152.13
416.55	102.98
416.74	177.88
416.93	241.08
417.12	121.71
417.31	77.24
417.50	229.37
417.69	255.12
417.88	229.37
418.07	182.56
418.26	184.90
418.45	187.24
418.64	283.20
418.83	262.14
419.02	234.05
419.21	177.88
419.39	248.10
419.58	220.01
419.77	156.82
419.96	194.26
420.15	229.37
420.34	203.63
420.53	170.86
420.72	227.03
420.91	184.90
421.10	173.20
421.29	241.08
421.48	128.73
421.67	196.60
421.86	182.56
422.05	191.92
422.24	168.52
422.43	290.23
422.61	196.60
422.80	187.24
422.99	161.50
423.18	210.65
423.37	222.35
423.56	215.33
423.75	229.37
423.94	147.45
424.13	189.58
424.32	149.79
424.50	255.12
424.69	142.77
424.88	166.18
425.07	168.52
425.26	138.09
425.45	217.67
425.64	243.42
425.83	262.14
426.01	266.82
426.20	191.92
426.39	191.92
426.58	180.22
426.77	201.29
426.96	217.67
427.15	208.31
427.33	205.97
427.52	196.60
427.71	257.46
427.90	86.60
428.09	163.84
428.28	189.58
428.46	133.41
428.65	184.90
428.84	257.46
429.03	234.05
429.22	128.73
429.40	84.26
429.59	117.03
429.78	278.52
429.97	182.56
430.16	145.11
430.34	161.50
430.53	88.94
430.72	180.22
430.91	243.42
431.10	138.09
431.28	168.52
431.47	110.01
431.66	203.63
431.85	149.79
432.03	149.79
432.22	203.63
432.41	152.13
432.60	229.37
432.79	177.88
432.97	280.86
433.16	266.82
433.35	212.99
433.54	243.42
433.72	220.01
433.91	201.29
434.10	191.92
434.28	187.24
434.47	215.33
434.66	259.80
434.85	222.35
435.03	224.69
435.22	299.59
435.41	397.89
435.59	360.44
435.78	294.91
435.97	208.31
436.16	189.58
436.34	166.18
436.53	177.88
436.72	191.92
436.90	142.77
437.09	159.16
437.28	208.31
437.46	210.65
437.65	196.60
437.84	135.75
438.02	159.16
438.21	222.35
438.40	175.54
438.58	121.71
438.77	126.39
438.96	191.92
439.14	161.50
439.33	238.73
439.52	156.82
439.70	208.31
439.89	201.29
440.08	215.33
440.26	201.29
440.45	208.31
440.63	133.41
440.82	243.42
441.01	145.11
441.19	107.66
441.38	142.77
441.57	215.33
441.75	234.05
441.94	283.20
442.12	255.12
442.31	170.86
442.50	196.60
442.68	194.26
442.87	196.60
443.05	203.63
443.24	236.39
443.43	159.16
443.61	243.42
443.80	198.95
443.98	196.60
444.17	217.67
444.35	241.08
444.54	212.99
444.73	126.39
444.91	173.20
445.10	135.75
445.28	191.92
445.47	217.67
445.65	194.26
445.84	159.16
446.02	182.56
446.21	170.86
446.39	212.99
446.58	152.13
446.77	180.22
446.95	220.01
447.14	196.60
447.32	222.35
447.51	154.48
447.69	170.86
447.88	168.52
448.06	224.69
448.25	231.71
448.43	187.24
448.62	182.56
448.80	215.33
448.99	234.05
449.17	149.79
449.36	166.18
449.54	248.10
449.73	177.88
449.91	198.95
450.10	222.35
450.28	283.20
450.46	182.56
450.65	245.76
450.83	248.10
451.02	180.22
451.20	194.26
451.39	159.16
451.57	212.99
451.76	124.05
451.94	135.75
452.13	245.76
452.31	205.97
452.49	210.65
452.68	189.58
452.86	177.88
453.05	238.73
453.23	138.09
453.42	198.95
453.60	163.84
453.78	191.92
453.97	182.56
454.15	175.54
454.34	145.11
454.52	154.48
454.70	269.16
454.89	182.56
455.07	156.82
455.26	234.05
455.44	198.95
455.62	215.33
455.81	159.16
455.99	205.97
456.17	217.67
456.36	248.10
456.54	222.35
456.73	248.10
456.91	203.63
457.09	222.35
457.28	217.67
457.46	217.67
457.64	215.33
457.83	170.86
458.01	180.22
458.19	210.65
458.38	131.07
458.56	259.80
458.74	220.01
458.93	248.10
459.11	163.84
459.29	208.31
459.48	131.07
459.66	196.60
459.84	154.48
460.03	231.71
460.21	236.39
460.39	227.03
460.57	229.37
460.76	184.90
460.94	147.45
461.12	224.69
461.31	292.57
461.49	201.29
461.67	191.92
461.85	227.03
462.04	222.35
462.22	648.33
462.40	170.86
462.59	208.31
462.77	220.01
462.95	161.50
463.13	149.79
463.32	196.60
463.50	152.13
463.68	145.11
463.86	217.67
464.05	168.52
464.23	283.20
464.41	208.31
464.59	259.80
464.78	238.73
464.96	187.24
465.14	182.56
465.32	243.42
465.50	161.50
465.69	191.92
465.87	152.13
466.05	229.37
466.23	177.88
466.41	84.26
466.60	170.86
466.78	229.37
466.96	243.42
467.14	189.58
467.32	264.48
467.51	196.60
467.69	161.50
467.87	227.03
468.05	180.22
468.23	191.92
468.41	203.63
468.60	177.88
468.78	227.03
468.96	222.35
469.14	156.82
469.32	166.18
469.50	238.73
469.69	241.08
469.87	234.05
470.05	177.88
470.23	175.54
470.41	212.99
470.59	203.63
470.77	224.69
470.95	243.42
471.14	262.14
471.32	243.42
471.50	201.29
471.68	170.86
471.86	177.88
472.04	163.84
472.22	229.37
472.40	191.92
472.58	177.88
472.77	259.80
472.95	173.20
473.13	266.82
473.31	173.20
473.49	184.90
473.67	194.26
473.85	154.48
474.03	205.97
474.21	229.37
474.39	208.31
474.57	222.35
474.75	217.67
474.93	138.09
475.12	159.16
475.30	208.31
475.48	234.05
475.66	168.52
475.84	191.92
476.02	184.90
476.20	208.31
476.38	205.97
476.56	280.86
476.74	208.31
476.92	245.76
477.10	205.97
477.28	252.78
477.46	201.29
477.64	180.22
477.82	210.65
478.00	166.18
478.18	194.26
478.36	238.73
478.54	210.65
478.72	222.35
478.90	180.22
479.08	255.12
479.26	161.50
479.44	198.95
479.62	248.10
479.80	217.67
479.98	229.37
480.16	269.16
480.34	259.80
480.52	250.44
480.70	238.73
480.88	159.16
481.06	203.63
481.24	166.18
481.41	145.11
481.59	252.78
481.77	229.37
481.95	250.44
482.13	304.27
482.31	285.55
482.49	215.33
482.67	287.89
482.85	266.82
483.03	287.89
483.21	259.80
483.39	184.90
483.57	215.33
483.74	262.14
483.92	224.69
484.10	163.84
484.28	287.89
484.46	266.82
484.64	257.46
484.82	220.01
485.00	229.37
485.18	234.05
485.35	229.37
485.53	245.76
485.71	215.33
485.89	203.63
486.07	278.52
486.25	231.71
486.43	205.97
486.61	252.78
486.78	238.73
486.96	234.05
487.14	248.10
487.32	273.84
487.50	212.99
487.68	212.99
487.85	290.23
488.03	273.84
488.21	292.57
488.39	283.20
488.57	276.18
488.75	187.24
488.92	524.28
489.10	201.29
489.28	259.80
489.46	292.57
489.64	217.67
489.81	191.92
489.99	215.33
490.17	248.10
490.35	299.59
490.53	262.14
490.70	203.63
490.88	266.82
491.06	182.56
491.24	269.16
491.41	208.31
491.59	238.73
491.77	252.78
491.95	208.31
492.13	259.80
492.30	191.92
492.48	198.95
492.66	292.57
492.84	250.44
493.01	271.50
493.19	231.71
493.37	313.63
493.54	243.42
493.72	276.18
493.90	304.27
494.08	290.23
494.25	280.86
494.43	290.23
494.61	210.65
494.79	196.60
494.96	301.93
495.14	297.25
495.32	198.95
495.49	252.78
495.67	196.60
495.85	262.14
496.02	283.20
496.20	294.91
496.38	229.37
496.55	287.89
496.73	339.38
496.91	287.89
497.09	313.63
497.26	294.91
497.44	339.38
497.62	227.03
497.79	266.82
497.97	290.23
498.14	285.55
498.32	278.52
498.50	285.55
498.67	248.10
498.85	262.14
499.03	208.31
499.20	220.01
499.38	280.86
499.56	205.97
499.73	304.27
499.91	290.23
500.08	259.80
500.26	173.20
500.44	215.33
500.61	259.80
500.79	215.33
500.97	269.16
501.14	229.37
501.32	257.46
501.49	163.84
501.67	222.35
501.84	229.37
502.02	234.05
502.20	266.82
502.37	262.14
502.55	285.55
502.72	257.46
502.90	250.44
503.07	280.86
503.25	215.33
503.43	245.76
503.60	278.52
503.78	243.42
503.95	290.23
504.13	229.37
504.30	236.39
504.48	311.29
504.65	285.55
504.83	292.57
505.01	210.65
505.18	248.10
505.36	308.95
505.53	208.31
505.71	287.89
505.88	297.25
506.06	224.69
506.23	243.42
506.41	313.63
506.58	248.10
506.76	245.76
506.93	238.73
507.11	248.10
507.28	273.84
507.46	283.20
507.63	264.48
507.81	264.48
507.98	252.78
508.16	229.37
508.33	273.84
508.50	231.71
508.68	238.73
508.85	252.78
509.03	189.58
509.20	308.95
509.38	308.95
509.55	257.46
509.73	280.86
509.90	243.42
510.08	187.24
510.25	273.84
510.42	255.12
510.60	280.86
510.77	222.35
510.95	229.37
511.12	313.63
511.30	278.52
511.47	383.85
511.64	341.72
511.82	290.23
511.99	313.63
512.17	248.10
512.34	238.73
512.51	301.93
512.69	264.48
512.86	339.38
513.04	224.69
513.21	208.31
513.38	210.65
513.56	210.65
513.73	269.16
513.90	220.01
514.08	234.05
514.25	290.23
514.43	243.42
514.60	243.42
514.77	344.06
514.95	348.74
515.12	250.44
515.29	358.10
515.47	269.16
515.64	327.68
515.81	245.76
515.99	271.50
516.16	252.78
516.33	287.89
516.51	182.56
516.68	201.29
516.85	236.39
517.03	184.90
517.20	262.14
517.37	294.91
517.54	285.55
517.72	283.20
517.89	259.80
518.06	215.33
518.24	238.73
518.41	327.68
518.58	292.57
518.75	224.69
518.93	290.23
519.10	308.95
519.27	180.22
519.45	299.59
519.62	241.08
519.79	250.44
519.96	290.23
520.14	262.14
520.31	283.20
520.48	227.03
520.65	290.23
520.83	273.84
521.00	304.27
521.17	227.03
521.34	208.31
521.52	243.42
521.69	299.59
521.86	287.89
522.03	383.85
522.20	266.82
522.38	262.14
522.55	308.95
522.72	205.97
522.89	339.38
523.07	362.78
523.24	301.93
523.41	262.14
523.58	220.01
523.75	278.52
523.92	283.20
524.10	313.63
524.27	248.10
524.44	318.31
524.61	285.55
524.78	238.73
524.96	238.73
525.13	255.12
525.30	337.04
525.47	332.36
525.64	278.52
525.81	313.63
525.98	220.01
526.16	283.20
526.33	224.69
526.50	208.31
526.67	210.65
526.84	224.69
527.01	285.55
527.18	304.27
527.36	238.73
527.53	203.63
527.70	290.23
527.87	297.25
528.04	299.59
528.21	264.48
528.38	358.10
528.55	339.38
528.72	358.10
528.89	346.40
529.07	308.95
529.24	301.93
529.41	320.65
529.58	290.23
529.75	266.82
529.92	257.46
530.09	194.26
530.26	362.78
530.43	287.89
530.60	257.46
530.77	248.10
530.94	308.95
531.11	257.46
531.28	287.89
531.46	318.31
531.63	315.97
531.80	264.48
531.97	318.31
532.14	241.08
532.31	334.70
532.48	318.31
532.65	325.33
532.82	386.19
532.99	423.64
533.16	315.97
533.33	320.65
533.50	337.04
533.67	355.76
533.84	433.00
534.01	505.56
534.18	334.70
534.35	360.44
534.52	339.38
534.69	325.33
534.86	351.08
535.03	238.73
535.20	245.76
535.37	318.31
535.54	252.78
535.71	227.03
535.88	334.70
536.05	273.84
536.22	276.18
536.38	325.33
536.55	306.61
536.72	334.70
536.89	285.55
537.06	297.25
537.23	271.50
537.40	264.48
537.57	292.57
537.74	287.89
537.91	297.25
538.08	358.10
538.25	334.70
538.42	234.05
538.59	337.04
538.75	304.27
538.92	337.04
539.09	348.74
539.26	388.53
539.43	528.96
539.60	873.02
539.77	1425.39
539.94	1736.68
540.11	1100.05
540.28	734.93
540.44	589.82
540.61	489.17
540.78	425.98
540.95	465.77
541.12	500.87
541.29	519.60
541.46	526.62
541.62	486.83
541.79	538.32
541.96	521.94
542.13	482.15
542.30	475.13
542.47	425.98
542.63	479.81
542.80	486.83
542.97	524.28
543.14	470.45
543.31	510.24
543.48	503.22
543.64	475.13
543.81	367.46
543.98	458.74
544.15	454.06
544.32	465.77
544.48	463.43
544.65	374.49
544.82	433.00
544.99	418.96
545.16	461.09
545.32	435.34
545.49	648.33
545.66	837.91
545.83	800.46
546.00	674.07
546.16	613.22
546.33	472.79
546.50	437.68
546.67	477.47
546.83	463.43
547.00	397.89
547.17	306.61
547.34	353.42
547.50	407.25
547.67	421.30
547.84	355.76
548.00	374.49
548.17	301.93
548.34	304.27
548.51	390.87
548.67	325.33
548.84	308.95
549.01	330.02
549.18	367.46
549.34	458.74
549.51	397.89
549.68	367.46
549.84	337.04
550.01	341.72
550.18	437.68
550.34	447.04
550.51	362.78
550.68	344.06
550.84	278.52
551.01	297.25
551.18	395.55
551.34	308.95
551.51	285.55
551.68	259.80
551.84	330.02
552.01	236.39
552.18	250.44
552.34	341.72
552.51	311.29
552.68	304.27
552.84	304.27
553.01	294.91
553.18	264.48
553.34	250.44
553.51	339.38
553.67	301.93
553.84	379.17
554.01	322.99
554.17	217.67
554.34	266.82
554.51	318.31
554.67	294.91
554.84	278.52
555.00	266.82
555.17	297.25
555.33	273.84
555.50	262.14
555.67	252.78
555.83	243.42
556.00	297.25
556.16	535.98
556.33	390.87
556.50	283.20
556.66	215.33
556.83	259.80
556.99	266.82
557.16	397.89
557.32	292.57
557.49	238.73
557.65	175.54
557.82	252.78
557.98	245.76
558.15	255.12
558.32	278.52
558.48	191.92
558.65	299.59
558.81	276.18
558.98	243.42
559.14	315.97
559.31	264.48
559.47	297.25
559.64	306.61
559.80	262.14
559.97	241.08
560.13	297.25
560.30	290.23
560.46	355.76
560.63	224.69
560.79	311.29
560.96	297.25
561.12	276.18
561.29	278.52
561.45	248.10
561.61	241.08
561.78	313.63
561.94	257.46
562.11	304.27
562.27	285.55
562.44	215.33
562.60	276.18
562.77	229.37
562.93	337.04
563.10	283.20
563.26	236.39
563.42	290.23
563.59	330.02
563.75	269.16
563.92	292.57
564.08	248.10
564.24	320.65
564.41	306.61
564.57	241.08
564.74	257.46
564.90	280.86
565.07	313.63
565.23	271.50
565.39	318.31
565.56	320.65
565.72	276.18
565.88	252.78
566.05	315.97
566.21	313.63
566.38	325.33
566.54	311.29
566.70	280.86
566.87	234.05
567.03	311.29
567.19	252.78
567.36	311.29
567.52	243.42
567.68	269.16
567.85	304.27
568.01	294.91
568.17	332.36
568.34	285.55
568.50	341.72
568.66	320.65
568.83	327.68
568.99	294.91
569.15	327.68
569.32	264.48
569.48	351.08
569.64	248.10
569.81	271.50
569.97	264.48
570.13	311.29
570.30	241.08
570.46	252.78
570.62	217.67
570.78	217.67
570.95	278.52
571.11	395.55
571.27	287.89
571.43	365.12
571.60	280.86
571.76	292.57
571.92	283.20
572.09	283.20
572.25	264.48
572.41	304.27
572.57	266.82
572.74	290.23
572.90	262.14
573.06	299.59
573.22	353.42
573.38	257.46
573.55	287.89
573.71	196.60
573.87	273.84
574.03	227.03
574.20	208.31
574.36	294.91
574.52	365.12
574.68	320.65
574.84	325.33
575.01	341.72
575.17	301.93
575.33	280.86
575.49	407.25
575.65	297.25
575.82	304.27
575.98	496.19
576.14	718.54
576.30	828.55
576.46	737.27
576.62	533.64
576.79	519.60
576.95	458.74
577.11	372.15
577.27	379.17
577.43	430.66
577.59	341.72
577.75	344.06
577.92	367.46
578.08	217.67
578.24	273.84
578.40	379.17
578.56	425.98
578.72	306.61
578.88	465.77
579.04	418.96
579.21	393.21
579.37	376.83
579.53	355.76
579.69	454.06
579.85	353.42
580.01	433.00
580.17	496.19
580.33	383.85
580.49	461.09
580.65	418.96
580.82	337.04
580.98	348.74
581.14	320.65
581.30	383.85
581.46	360.44
581.62	585.13
581.78	664.71
581.94	674.07
582.10	533.64
582.26	521.94
582.42	503.22
582.58	512.58
582.74	468.11
582.90	407.25
583.06	440.02
583.22	498.53
583.38	433.00
583.54	517.26
583.70	653.01
583.86	690.46
584.02	746.63
584.18	947.92
584.34	1008.77
584.50	2340.54
584.66	15389.02
584.82	46693.69
584.98	63121.91
585.14	62979.14
585.30	47629.90
585.46	26902.12
585.62	16634.19
585.78	7880.58
585.94	3194.83
586.10	1519.01
586.26	1048.56
586.42	887.06
586.58	713.86
586.74	667.05
586.90	662.37
587.06	732.59
587.22	615.56
587.38	636.63
587.54	1039.20
587.70	2630.76
587.86	4793.42
588.02	6635.42
588.18	4662.35
588.34	2782.90
588.49	1727.32
588.65	1151.54
588.81	582.79
588.97	486.83
589.13	458.74
589.29	330.02
589.45	393.21
589.61	351.08
589.77	430.66
589.93	512.58
590.08	437.68
590.24	456.40
590.40	465.77
590.56	528.96
590.72	486.83
590.88	414.27
591.04	362.78
591.20	369.80
591.35	400.23
591.51	299.59
591.67	388.53
591.83	285.55
591.99	407.25
592.15	388.53
592.31	430.66
592.46	315.97
592.62	339.38
592.78	297.25
592.94	362.78
593.10	365.12
593.26	379.17
593.41	404.91
593.57	442.36
593.73	531.30
593.89	1923.92
594.05	5598.56
594.20	9877.06
594.36	10422.41
594.52	6471.58
594.68	4030.40
594.84	2607.36
594.99	1526.03
595.15	795.78
595.31	524.28
595.47	344.06
595.62	344.06
595.78	386.19
595.94	334.70
596.10	297.25
596.25	390.87
596.41	414.27
596.57	393.21
596.73	416.62
596.88	535.98
597.04	1163.25
597.20	1984.77
597.36	2616.72
597.51	2106.48
597.67	1369.21
597.83	971.32
597.99	723.23
598.14	507.90
598.30	369.80
598.46	433.00
598.61	360.44
598.77	407.25
598.93	351.08
599.09	379.17
599.24	381.51
599.40	351.08
599.56	348.74
599.71	376.83
599.87	266.82
600.03	322.99
600.18	262.14
600.34	379.17
600.50	341.72
600.65	299.59
600.81	322.99
600.97	297.25
601.12	351.08
601.28	290.23
601.44	297.25
601.59	175.54
601.75	297.25
601.91	355.76
602.06	313.63
602.22	409.59
602.37	573.43
602.53	1383.26
602.69	2335.85
602.84	2846.09
603.00	2134.57
603.16	1476.88
603.31	1086.01
603.47	720.88
603.62	404.91
603.78	327.68
603.94	266.82
604.09	374.49
604.25	376.83
604.40	369.80
604.56	283.20
604.71	241.08
604.87	351.08
605.03	287.89
605.18	259.80
605.34	318.31
605.49	372.15
605.65	376.83
605.80	271.50
605.96	315.97
606.12	381.51
606.27	409.59
606.43	362.78
606.58	402.57
606.74	699.82
606.89	2506.71
607.05	5657.07
607.20	9334.06
607.36	7616.10
607.51	4936.19
607.67	3166.74
607.82	2197.76
607.98	1219.42
608.13	636.63
608.29	578.11
608.44	475.13
608.60	592.16
608.75	608.54
608.91	1022.81
609.06	3801.03
609.22	9268.52
609.37	15138.58
609.53	13977.68
609.68	8990.00
609.84	5664.10
609.99	3971.89
610.15	2244.57
