SpectraSuite Data File
++++++++++++++++++++++++++++++++++++
Date: Fri Oct 04 11:33:45 GMT-05:00 2013
User: price-jones
Dark Spectrum Present: No
Reference Spectrum Present: No
Number of Sampled Component Spectra: 1
Spectrometers: USB2+H05261
Integration Time (usec): 100000 (USB2+H05261)
Spectra Averaged: 1 (USB2+H05261)
Boxcar Smoothing: 0 (USB2+H05261)
Correct for Electrical Dark: No (USB2+H05261)
Strobe/Lamp Enabled: No (USB2+H05261)
Correct for Detector Non-linearity: No (USB2+H05261)
Correct for Stray Light: No (USB2+H05261)
Number of Pixels in Processed Spectrum: 2048
>>>>>Begin Processed Spectral Data<<<<<
365.73	25.75
365.92	25.75
366.12	25.75
366.32	0.00
366.52	0.00
366.72	0.00
366.91	0.00
367.11	0.00
367.31	21.06
367.51	0.00
367.70	23.41
367.90	0.00
368.10	4.68
368.30	0.00
368.49	0.00
368.69	23.41
368.89	42.13
369.09	0.00
369.28	88.94
369.48	0.00
369.68	18.72
369.87	35.11
370.07	0.00
370.27	65.54
370.47	25.75
370.66	23.41
370.86	11.70
371.06	133.41
371.25	102.98
371.45	18.72
371.65	191.92
371.84	95.96
372.04	51.49
372.24	98.30
372.44	147.45
372.63	159.16
372.83	138.09
373.03	124.05
373.22	65.54
373.42	131.07
373.62	154.48
373.81	161.50
374.01	156.82
374.21	138.09
374.40	126.39
374.60	112.35
374.79	159.16
374.99	152.13
375.19	198.95
375.38	161.50
375.58	149.79
375.78	147.45
375.97	163.84
376.17	248.10
376.37	159.16
376.56	238.73
376.76	88.94
376.95	154.48
377.15	196.60
377.35	168.52
377.54	159.16
377.74	105.32
377.93	119.37
378.13	142.77
378.33	170.86
378.52	159.16
378.72	163.84
378.91	201.29
379.11	175.54
379.31	138.09
379.50	88.94
379.70	215.33
379.89	182.56
380.09	173.20
380.28	159.16
380.48	131.07
380.68	95.96
380.87	51.49
381.07	175.54
381.26	170.86
381.46	154.48
381.65	149.79
381.85	177.88
382.04	205.97
382.24	112.35
382.43	98.30
382.63	98.30
382.83	156.82
383.02	161.50
383.22	208.31
383.41	117.03
383.61	128.73
383.80	140.43
384.00	182.56
384.19	110.01
384.39	112.35
384.58	175.54
384.78	124.05
384.97	145.11
385.17	63.19
385.36	93.62
385.56	145.11
385.75	149.79
385.95	117.03
386.14	138.09
386.34	161.50
386.53	114.69
386.72	117.03
386.92	222.35
387.11	187.24
387.31	154.48
387.50	140.43
387.70	100.64
387.89	189.58
388.09	187.24
388.28	205.97
388.48	128.73
388.67	220.01
388.86	138.09
389.06	131.07
389.25	191.92
389.45	138.09
389.64	156.82
389.84	264.48
390.03	177.88
390.22	175.54
390.42	187.24
390.61	147.45
390.81	142.77
391.00	149.79
391.19	142.77
391.39	208.31
391.58	154.48
391.78	191.92
391.97	128.73
392.16	88.94
392.36	222.35
392.55	163.84
392.75	105.32
392.94	152.13
393.13	135.75
393.33	138.09
393.52	135.75
393.71	168.52
393.91	110.01
394.10	131.07
394.29	126.39
394.49	170.86
394.68	187.24
394.88	205.97
395.07	128.73
395.26	126.39
395.46	152.13
395.65	182.56
395.84	156.82
396.04	215.33
396.23	142.77
396.42	107.66
396.62	112.35
396.81	119.37
397.00	149.79
397.19	191.92
397.39	154.48
397.58	107.66
397.77	142.77
397.97	121.71
398.16	196.60
398.35	138.09
398.55	67.88
398.74	152.13
398.93	194.26
399.12	201.29
399.32	161.50
399.51	182.56
399.70	205.97
399.90	168.52
400.09	128.73
400.28	138.09
400.47	177.88
400.67	180.22
400.86	102.98
401.05	152.13
401.24	161.50
401.44	126.39
401.63	93.62
401.82	180.22
402.01	149.79
402.21	145.11
402.40	196.60
402.59	208.31
402.78	131.07
402.97	175.54
403.17	173.20
403.36	86.60
403.55	93.62
403.74	229.37
403.93	210.65
404.13	210.65
404.32	189.58
404.51	159.16
404.70	187.24
404.89	156.82
405.09	168.52
405.28	126.39
405.47	124.05
405.66	184.90
405.85	191.92
406.05	196.60
406.24	182.56
406.43	215.33
406.62	180.22
406.81	252.78
407.00	166.18
407.20	112.35
407.39	79.58
407.58	145.11
407.77	133.41
407.96	152.13
408.15	147.45
408.34	105.32
408.54	119.37
408.73	88.94
408.92	159.16
409.11	163.84
409.30	110.01
409.49	114.69
409.68	138.09
409.87	154.48
410.07	198.95
410.26	65.54
410.45	184.90
410.64	163.84
410.83	168.52
411.02	177.88
411.21	187.24
411.40	142.77
411.59	163.84
411.78	173.20
411.98	203.63
412.17	105.32
412.36	191.92
412.55	145.11
412.74	154.48
412.93	259.80
413.12	138.09
413.31	201.29
413.50	114.69
413.69	161.50
413.88	166.18
414.07	131.07
414.26	194.26
414.45	133.41
414.64	198.95
414.83	215.33
415.02	124.05
415.22	149.79
415.41	168.52
415.60	131.07
415.79	184.90
415.98	224.69
416.17	187.24
416.36	241.08
416.55	224.69
416.74	128.73
416.93	196.60
417.12	173.20
417.31	131.07
417.50	95.96
417.69	191.92
417.88	159.16
418.07	114.69
418.26	182.56
418.45	124.05
418.64	262.14
418.83	227.03
419.02	229.37
419.21	252.78
419.39	217.67
419.58	250.44
419.77	210.65
419.96	180.22
420.15	180.22
420.34	208.31
420.53	224.69
420.72	194.26
420.91	163.84
421.10	133.41
421.29	241.08
421.48	250.44
421.67	217.67
421.86	140.43
422.05	149.79
422.24	184.90
422.43	81.92
422.61	154.48
422.80	110.01
422.99	159.16
423.18	182.56
423.37	163.84
423.56	177.88
423.75	161.50
423.94	142.77
424.13	229.37
424.32	154.48
424.50	238.73
424.69	166.18
424.88	159.16
425.07	149.79
425.26	236.39
425.45	210.65
425.64	245.76
425.83	269.16
426.01	241.08
426.20	154.48
426.39	173.20
426.58	177.88
426.77	173.20
426.96	187.24
427.15	149.79
427.33	210.65
427.52	231.71
427.71	107.66
427.90	184.90
428.09	159.16
428.28	217.67
428.46	224.69
428.65	201.29
428.84	198.95
429.03	210.65
429.22	182.56
429.40	231.71
429.59	147.45
429.78	187.24
429.97	212.99
430.16	166.18
430.34	140.43
430.53	196.60
430.72	142.77
430.91	215.33
431.10	112.35
431.28	184.90
431.47	245.76
431.66	187.24
431.85	194.26
432.03	168.52
432.22	259.80
432.41	250.44
432.60	278.52
432.79	187.24
432.97	215.33
433.16	259.80
433.35	222.35
433.54	161.50
433.72	182.56
433.91	215.33
434.10	264.48
434.28	227.03
434.47	180.22
434.66	273.84
434.85	220.01
435.03	234.05
435.22	353.42
435.41	383.85
435.59	332.36
435.78	252.78
435.97	180.22
436.16	234.05
436.34	180.22
436.53	184.90
436.72	266.82
436.90	229.37
437.09	220.01
437.28	210.65
437.46	168.52
437.65	224.69
437.84	201.29
438.02	236.39
438.21	138.09
438.40	110.01
438.58	133.41
438.77	166.18
438.96	182.56
439.14	182.56
439.33	135.75
439.52	236.39
439.70	168.52
439.89	145.11
440.08	198.95
440.26	161.50
440.45	196.60
440.63	222.35
440.82	189.58
441.01	278.52
441.19	168.52
441.38	77.24
441.57	194.26
441.75	191.92
441.94	231.71
442.12	161.50
442.31	107.66
442.50	196.60
442.68	208.31
442.87	182.56
443.05	222.35
443.24	159.16
443.43	163.84
443.61	180.22
443.80	250.44
443.98	145.11
444.17	257.46
444.35	222.35
444.54	243.42
444.73	173.20
444.91	220.01
445.10	145.11
445.28	163.84
445.47	173.20
445.65	140.43
445.84	184.90
446.02	180.22
446.21	175.54
446.39	248.10
446.58	259.80
446.77	224.69
446.95	152.13
447.14	196.60
447.32	194.26
447.51	205.97
447.69	156.82
447.88	177.88
448.06	236.39
448.25	194.26
448.43	131.07
448.62	114.69
448.80	220.01
448.99	238.73
449.17	110.01
449.36	156.82
449.54	142.77
449.73	229.37
449.91	163.84
450.10	163.84
450.28	248.10
450.46	255.12
450.65	182.56
450.83	168.52
451.02	189.58
451.20	194.26
451.39	161.50
451.57	205.97
451.76	180.22
451.94	208.31
452.13	198.95
452.31	135.75
452.49	257.46
452.68	117.03
452.86	191.92
453.05	217.67
453.23	177.88
453.42	149.79
453.60	187.24
453.78	191.92
453.97	159.16
454.15	177.88
454.34	182.56
454.52	152.13
454.70	189.58
454.89	215.33
455.07	259.80
455.26	236.39
455.44	194.26
455.62	168.52
455.81	187.24
455.99	161.50
456.17	205.97
456.36	182.56
456.54	145.11
456.73	140.43
456.91	215.33
457.09	252.78
457.28	231.71
457.46	191.92
457.64	215.33
457.83	259.80
458.01	252.78
458.19	205.97
458.38	126.39
458.56	166.18
458.74	133.41
458.93	173.20
459.11	149.79
459.29	222.35
459.48	187.24
459.66	149.79
459.84	152.13
460.03	325.33
460.21	154.48
460.39	217.67
460.57	177.88
460.76	217.67
460.94	170.86
461.12	271.50
461.31	285.55
461.49	189.58
461.67	147.45
461.85	224.69
462.04	212.99
462.22	517.26
462.40	205.97
462.59	208.31
462.77	196.60
462.95	210.65
463.13	107.66
463.32	205.97
463.50	184.90
463.68	227.03
463.86	198.95
464.05	238.73
464.23	191.92
464.41	220.01
464.59	161.50
464.78	145.11
464.96	154.48
465.14	142.77
465.32	208.31
465.50	196.60
465.69	215.33
465.87	180.22
466.05	168.52
466.23	53.83
466.41	159.16
466.60	170.86
466.78	173.20
466.96	159.16
467.14	166.18
467.32	241.08
467.51	161.50
467.69	220.01
467.87	194.26
468.05	182.56
468.23	220.01
468.41	201.29
468.60	245.76
468.78	208.31
468.96	238.73
469.14	131.07
469.32	105.32
469.50	217.67
469.69	184.90
469.87	156.82
470.05	156.82
470.23	140.43
470.41	175.54
470.59	152.13
470.77	198.95
470.95	194.26
471.14	198.95
471.32	154.48
471.50	231.71
471.68	222.35
471.86	276.18
472.04	259.80
472.22	234.05
472.40	238.73
472.58	205.97
472.77	170.86
472.95	170.86
473.13	257.46
473.31	229.37
473.49	234.05
473.67	112.35
473.85	248.10
474.03	173.20
474.21	168.52
474.39	194.26
474.57	229.37
474.75	276.18
474.93	227.03
475.12	161.50
475.30	166.18
475.48	159.16
475.66	212.99
475.84	212.99
476.02	217.67
476.20	212.99
476.38	163.84
476.56	212.99
476.74	70.22
476.92	208.31
477.10	191.92
477.28	189.58
477.46	191.92
477.64	187.24
477.82	210.65
478.00	168.52
478.18	234.05
478.36	177.88
478.54	191.92
478.72	308.95
478.90	180.22
479.08	238.73
479.26	224.69
479.44	297.25
479.62	177.88
479.80	217.67
479.98	250.44
480.16	205.97
480.34	212.99
480.52	220.01
480.70	217.67
480.88	224.69
481.06	194.26
481.24	280.86
481.41	259.80
481.59	131.07
481.77	173.20
481.95	201.29
482.13	231.71
482.31	184.90
482.49	119.37
482.67	210.65
482.85	257.46
483.03	241.08
483.21	224.69
483.39	217.67
483.57	271.50
483.74	205.97
483.92	229.37
484.10	285.55
484.28	243.42
484.46	262.14
484.64	241.08
484.82	198.95
485.00	262.14
485.18	184.90
485.35	198.95
485.53	159.16
485.71	224.69
485.89	187.24
486.07	205.97
486.25	243.42
486.43	238.73
486.61	227.03
486.78	285.55
486.96	234.05
487.14	217.67
487.32	238.73
487.50	229.37
487.68	255.12
487.85	224.69
488.03	266.82
488.21	339.38
488.39	210.65
488.57	243.42
488.75	227.03
488.92	449.38
489.10	311.29
489.28	297.25
489.46	231.71
489.64	290.23
489.81	229.37
489.99	255.12
490.17	250.44
490.35	264.48
490.53	250.44
490.70	208.31
490.88	248.10
491.06	187.24
491.24	229.37
491.41	280.86
491.59	208.31
491.77	248.10
491.95	262.14
492.13	238.73
492.30	287.89
492.48	196.60
492.66	201.29
492.84	290.23
493.01	285.55
493.19	273.84
493.37	271.50
493.54	280.86
493.72	290.23
493.90	241.08
494.08	220.01
494.25	262.14
494.43	210.65
494.61	271.50
494.79	222.35
494.96	220.01
495.14	250.44
495.32	271.50
495.49	234.05
495.67	180.22
495.85	311.29
496.02	259.80
496.20	238.73
496.38	255.12
496.55	217.67
496.73	229.37
496.91	245.76
497.09	327.68
497.26	250.44
497.44	273.84
497.62	229.37
497.79	210.65
497.97	212.99
498.14	250.44
498.32	311.29
498.50	201.29
498.67	236.39
498.85	222.35
499.03	215.33
499.20	306.61
499.38	269.16
499.56	271.50
499.73	280.86
499.91	248.10
500.08	290.23
500.26	210.65
500.44	308.95
500.61	243.42
500.79	189.58
500.97	269.16
501.14	255.12
501.32	220.01
501.49	287.89
501.67	224.69
501.84	170.86
502.02	259.80
502.20	299.59
502.37	220.01
502.55	217.67
502.72	205.97
502.90	259.80
503.07	334.70
503.25	287.89
503.43	224.69
503.60	299.59
503.78	248.10
503.95	250.44
504.13	294.91
504.30	264.48
504.48	283.20
504.65	290.23
504.83	255.12
505.01	220.01
505.18	229.37
505.36	271.50
505.53	285.55
505.71	266.82
505.88	159.16
506.06	227.03
506.23	215.33
506.41	210.65
506.58	292.57
506.76	198.95
506.93	255.12
507.11	294.91
507.28	287.89
507.46	276.18
507.63	287.89
507.81	194.26
507.98	191.92
508.16	173.20
508.33	227.03
508.50	259.80
508.68	257.46
508.85	215.33
509.03	243.42
509.20	159.16
509.38	287.89
509.55	252.78
509.73	259.80
509.90	198.95
510.08	241.08
510.25	276.18
510.42	201.29
510.60	285.55
510.77	229.37
510.95	257.46
511.12	250.44
511.30	278.52
511.47	306.61
511.64	330.02
511.82	231.71
511.99	231.71
512.17	241.08
512.34	248.10
512.51	236.39
512.69	320.65
512.86	292.57
513.04	292.57
513.21	292.57
513.38	203.63
513.56	264.48
513.73	210.65
513.90	212.99
514.08	248.10
514.25	290.23
514.43	355.76
514.60	238.73
514.77	184.90
514.95	264.48
515.12	243.42
515.29	191.92
515.47	304.27
515.64	276.18
515.81	203.63
515.99	280.86
516.16	285.55
516.33	320.65
516.51	217.67
516.68	170.86
516.85	168.52
517.03	241.08
517.20	252.78
517.37	285.55
517.54	266.82
517.72	278.52
517.89	266.82
518.06	238.73
518.24	304.27
518.41	388.53
518.58	292.57
518.75	241.08
518.93	259.80
519.10	248.10
519.27	287.89
519.45	271.50
519.62	339.38
519.79	229.37
519.96	234.05
520.14	306.61
520.31	243.42
520.48	224.69
520.65	273.84
520.83	311.29
521.00	257.46
521.17	290.23
521.34	184.90
521.52	313.63
521.69	236.39
521.86	208.31
522.03	304.27
522.20	362.78
522.38	238.73
522.55	297.25
522.72	273.84
522.89	330.02
523.07	271.50
523.24	255.12
523.41	243.42
523.58	205.97
523.75	280.86
523.92	229.37
524.10	248.10
524.27	205.97
524.44	297.25
524.61	355.76
524.78	365.12
524.96	327.68
525.13	243.42
525.30	344.06
525.47	358.10
525.64	301.93
525.81	210.65
525.98	278.52
526.16	280.86
526.33	318.31
526.50	212.99
526.67	154.48
526.84	229.37
527.01	257.46
527.18	278.52
527.36	313.63
527.53	266.82
527.70	257.46
527.87	297.25
528.04	203.63
528.21	191.92
528.38	362.78
528.55	294.91
528.72	194.26
528.89	327.68
529.07	264.48
529.24	280.86
529.41	353.42
529.58	276.18
529.75	278.52
529.92	287.89
530.09	248.10
530.26	243.42
530.43	255.12
530.60	264.48
530.77	278.52
530.94	241.08
531.11	290.23
531.28	243.42
531.46	360.44
531.63	257.46
531.80	306.61
531.97	313.63
532.14	327.68
532.31	257.46
532.48	351.08
532.65	315.97
532.82	374.49
532.99	351.08
533.16	367.46
533.33	322.99
533.50	353.42
533.67	320.65
533.84	379.17
534.01	418.96
534.18	416.62
534.35	299.59
534.52	238.73
534.69	320.65
534.86	308.95
535.03	285.55
535.20	262.14
535.37	259.80
535.54	280.86
535.71	294.91
535.88	259.80
536.05	196.60
536.22	215.33
536.38	189.58
536.55	271.50
536.72	292.57
536.89	294.91
537.06	278.52
537.23	311.29
537.40	231.71
537.57	245.76
537.74	238.73
537.91	358.10
538.08	278.52
538.25	327.68
538.42	294.91
538.59	367.46
538.75	287.89
538.92	313.63
539.09	313.63
539.26	344.06
539.43	437.68
539.60	905.79
539.77	1369.21
539.94	1537.73
540.11	936.21
540.28	725.57
540.44	561.73
540.61	414.27
540.78	435.34
540.95	344.06
541.12	440.02
541.29	475.13
541.46	557.05
541.62	514.92
541.79	496.19
541.96	451.72
542.13	468.11
542.30	365.12
542.47	444.70
542.63	461.09
542.80	393.21
542.97	454.06
543.14	388.53
543.31	416.62
543.48	393.21
543.64	484.49
543.81	423.64
543.98	475.13
544.15	484.49
544.32	400.23
544.48	414.27
544.65	433.00
544.82	365.12
544.99	470.45
545.16	496.19
545.32	470.45
545.49	554.71
545.66	788.76
545.83	814.51
546.00	681.10
546.16	606.20
546.33	472.79
546.50	418.96
546.67	369.80
546.83	322.99
547.00	353.42
547.17	353.42
547.34	372.15
547.50	381.51
547.67	330.02
547.84	402.57
548.00	360.44
548.17	344.06
548.34	369.80
548.51	437.68
548.67	320.65
548.84	367.46
549.01	388.53
549.18	318.31
549.34	351.08
549.51	330.02
549.68	283.20
549.84	337.04
550.01	318.31
550.18	362.78
550.34	411.93
550.51	322.99
550.68	362.78
550.84	285.55
551.01	320.65
551.18	301.93
551.34	264.48
551.51	337.04
551.68	334.70
551.84	330.02
552.01	334.70
552.18	271.50
552.34	299.59
552.51	259.80
552.68	337.04
552.84	184.90
553.01	313.63
553.18	341.72
553.34	334.70
553.51	257.46
553.67	318.31
553.84	315.97
554.01	346.40
554.17	369.80
554.34	283.20
554.51	276.18
554.67	355.76
554.84	290.23
555.00	299.59
555.17	290.23
555.33	299.59
555.50	257.46
555.67	353.42
555.83	294.91
556.00	341.72
556.16	486.83
556.33	294.91
556.50	318.31
556.66	278.52
556.83	311.29
556.99	262.14
557.16	276.18
557.32	276.18
557.49	250.44
557.65	278.52
557.82	245.76
557.98	234.05
558.15	283.20
558.32	280.86
558.48	330.02
558.65	217.67
558.81	238.73
558.98	269.16
559.14	212.99
559.31	266.82
559.47	266.82
559.64	191.92
559.80	271.50
559.97	269.16
560.13	191.92
560.30	229.37
560.46	287.89
560.63	290.23
560.79	280.86
560.96	227.03
561.12	301.93
561.29	290.23
561.45	227.03
561.61	273.84
561.78	327.68
561.94	243.42
562.11	271.50
562.27	229.37
562.44	257.46
562.60	236.39
562.77	196.60
562.93	337.04
563.10	248.10
563.26	269.16
563.42	318.31
563.59	273.84
563.75	255.12
563.92	301.93
564.08	205.97
564.24	217.67
564.41	248.10
564.57	243.42
564.74	236.39
564.90	212.99
565.07	297.25
565.23	271.50
565.39	273.84
565.56	224.69
565.72	290.23
565.88	212.99
566.05	313.63
566.21	320.65
566.38	234.05
566.54	299.59
566.70	271.50
566.87	283.20
567.03	201.29
567.19	224.69
567.36	222.35
567.52	252.78
567.68	313.63
567.85	205.97
568.01	308.95
568.17	271.50
568.34	273.84
568.50	334.70
568.66	278.52
568.83	383.85
568.99	210.65
569.15	313.63
569.32	358.10
569.48	224.69
569.64	257.46
569.81	276.18
569.97	238.73
570.13	250.44
570.30	306.61
570.46	262.14
570.62	285.55
570.78	280.86
570.95	262.14
571.11	299.59
571.27	262.14
571.43	299.59
571.60	299.59
571.76	243.42
571.92	227.03
572.09	264.48
572.25	222.35
572.41	264.48
572.57	273.84
572.74	346.40
572.90	294.91
573.06	243.42
573.22	215.33
573.38	339.38
573.55	292.57
573.71	278.52
573.87	322.99
574.03	325.33
574.20	177.88
574.36	351.08
574.52	325.33
574.68	299.59
574.84	297.25
575.01	271.50
575.17	294.91
575.33	278.52
575.49	287.89
575.65	290.23
575.82	365.12
575.98	465.77
576.14	643.65
576.30	655.35
576.46	587.47
576.62	514.92
576.79	491.51
576.95	393.21
577.11	369.80
577.27	383.85
577.43	327.68
577.59	285.55
577.75	287.89
577.92	386.19
578.08	285.55
578.24	234.05
578.40	297.25
578.56	360.44
578.72	421.30
578.88	407.25
579.04	400.23
579.21	395.55
579.37	372.15
579.53	390.87
579.69	353.42
579.85	330.02
580.01	416.62
580.17	404.91
580.33	388.53
580.49	372.15
580.65	381.51
580.82	280.86
580.98	404.91
581.14	346.40
581.30	425.98
581.46	425.98
581.62	547.69
581.78	681.10
581.94	594.50
582.10	533.64
582.26	489.17
582.42	437.68
582.58	484.49
582.74	425.98
582.90	463.43
583.06	496.19
583.22	402.57
583.38	477.47
583.54	498.53
583.70	596.84
583.86	667.05
584.02	732.59
584.18	814.51
584.34	1011.11
584.50	2497.35
584.66	17247.41
584.82	47695.44
584.98	61413.32
585.14	59316.20
585.30	42930.11
585.46	25057.78
585.62	15403.07
585.78	7159.70
585.94	2906.95
586.10	1439.43
586.26	1036.86
586.42	837.91
586.58	655.35
586.74	587.47
586.90	674.07
587.06	655.35
587.22	627.26
587.38	580.45
587.54	1020.47
587.70	2649.49
587.86	4842.57
588.02	5757.72
588.18	3983.59
588.34	2576.93
588.49	1687.53
588.65	1050.90
588.81	610.88
588.97	458.74
589.13	430.66
589.29	353.42
589.45	386.19
589.61	322.99
589.77	423.64
589.93	379.17
590.08	428.32
590.24	458.74
590.40	416.62
590.56	440.02
590.72	421.30
590.88	351.08
591.04	330.02
591.20	400.23
591.35	365.12
591.51	257.46
591.67	348.74
591.83	332.36
591.99	411.93
592.15	339.38
592.31	283.20
592.46	341.72
592.62	341.72
592.78	334.70
592.94	397.89
593.10	367.46
593.26	318.31
593.41	416.62
593.57	332.36
593.73	538.32
593.89	2146.27
594.05	5666.44
594.20	9146.81
594.36	8950.21
594.52	6043.26
594.68	3751.88
594.84	2455.22
594.99	1380.92
595.15	741.95
595.31	435.34
595.47	407.25
595.62	367.46
595.78	365.12
595.94	337.04
596.10	379.17
596.25	358.10
596.41	353.42
596.57	322.99
596.73	330.02
596.88	482.15
597.04	1149.20
597.20	1989.46
597.36	2483.31
597.51	1905.20
597.67	1308.36
597.83	943.24
597.99	636.63
598.14	470.45
598.30	423.64
598.46	311.29
598.61	437.68
598.77	383.85
598.93	358.10
599.09	346.40
599.24	292.57
599.40	400.23
599.56	337.04
599.71	308.95
599.87	294.91
600.03	308.95
600.18	304.27
600.34	283.20
600.50	287.89
600.65	271.50
600.81	334.70
600.97	255.12
601.12	365.12
601.28	297.25
601.44	304.27
601.59	269.16
601.75	271.50
601.91	327.68
602.06	376.83
602.22	390.87
602.37	608.54
602.53	1378.58
602.69	2326.49
602.84	2471.61
603.00	1870.09
603.16	1277.93
603.31	922.17
603.47	627.26
603.62	458.74
603.78	437.68
603.94	351.08
604.09	313.63
604.25	243.42
604.40	304.27
604.56	318.31
604.71	362.78
604.87	252.78
605.03	264.48
605.18	280.86
605.34	278.52
605.49	276.18
605.65	346.40
605.80	339.38
605.96	318.31
606.12	423.64
606.27	348.74
606.43	500.87
606.58	456.40
606.74	774.72
606.89	2682.25
607.05	5689.84
607.20	7978.89
607.36	6759.47
607.51	4638.94
607.67	2946.73
607.82	1912.22
607.98	1137.50
608.13	683.44
608.29	486.83
608.44	491.51
608.60	498.53
608.75	568.75
608.91	987.71
609.06	4095.94
609.22	9249.80
609.37	13851.29
609.53	12233.98
609.68	8070.17
609.84	5277.91
609.99	3684.00
610.15	2015.20
