SpectraSuite Data File
++++++++++++++++++++++++++++++++++++
Date: Fri Oct 04 11:33:51 GMT-05:00 2013
User: price-jones
Dark Spectrum Present: No
Reference Spectrum Present: No
Number of Sampled Component Spectra: 1
Spectrometers: USB2+H05261
Integration Time (usec): 100000 (USB2+H05261)
Spectra Averaged: 1 (USB2+H05261)
Boxcar Smoothing: 0 (USB2+H05261)
Correct for Electrical Dark: No (USB2+H05261)
Strobe/Lamp Enabled: No (USB2+H05261)
Correct for Detector Non-linearity: No (USB2+H05261)
Correct for Stray Light: No (USB2+H05261)
Number of Pixels in Processed Spectrum: 2048
>>>>>Begin Processed Spectral Data<<<<<
365.73	49.15
365.92	49.15
366.12	49.15
366.32	0.00
366.52	0.00
366.72	11.70
366.91	11.70
367.11	18.72
367.31	0.00
367.51	0.00
367.70	0.00
367.90	0.00
368.10	7.02
368.30	0.00
368.49	0.00
368.69	4.68
368.89	0.00
369.09	4.68
369.28	0.00
369.48	0.00
369.68	7.02
369.87	0.00
370.07	0.00
370.27	0.00
370.47	44.47
370.66	110.01
370.86	60.85
371.06	95.96
371.25	77.24
371.45	98.30
371.65	140.43
371.84	93.62
372.04	117.03
372.24	105.32
372.44	149.79
372.63	154.48
372.83	142.77
373.03	147.45
373.22	140.43
373.42	168.52
373.62	145.11
373.81	133.41
374.01	119.37
374.21	170.86
374.40	177.88
374.60	154.48
374.79	102.98
374.99	128.73
375.19	128.73
375.38	210.65
375.58	184.90
375.78	142.77
375.97	140.43
376.17	173.20
376.37	131.07
376.56	212.99
376.76	170.86
376.95	95.96
377.15	107.66
377.35	112.35
377.54	145.11
377.74	105.32
377.93	154.48
378.13	170.86
378.33	114.69
378.52	124.05
378.72	126.39
378.91	128.73
379.11	152.13
379.31	110.01
379.50	159.16
379.70	112.35
379.89	117.03
380.09	145.11
380.28	105.32
380.48	124.05
380.68	77.24
380.87	138.09
381.07	88.94
381.26	112.35
381.46	149.79
381.65	142.77
381.85	133.41
382.04	63.19
382.24	124.05
382.43	154.48
382.63	126.39
382.83	112.35
383.02	177.88
383.22	189.58
383.41	147.45
383.61	107.66
383.80	196.60
384.00	84.26
384.19	163.84
384.39	180.22
384.58	107.66
384.78	236.39
384.97	166.18
385.17	170.86
385.36	110.01
385.56	128.73
385.75	35.11
385.95	119.37
386.14	212.99
386.34	133.41
386.53	102.98
386.72	138.09
386.92	133.41
387.11	100.64
387.31	138.09
387.50	84.26
387.70	88.94
387.89	194.26
388.09	81.92
388.28	86.60
388.48	145.11
388.67	128.73
388.86	222.35
389.06	126.39
389.25	152.13
389.45	100.64
389.64	198.95
389.84	170.86
390.03	238.73
390.22	114.69
390.42	131.07
390.61	170.86
390.81	126.39
391.00	142.77
391.19	194.26
391.39	159.16
391.58	102.98
391.78	196.60
391.97	49.15
392.16	182.56
392.36	187.24
392.55	138.09
392.75	145.11
392.94	133.41
393.13	198.95
393.33	224.69
393.52	217.67
393.71	72.56
393.91	163.84
394.10	152.13
394.29	152.13
394.49	152.13
394.68	128.73
394.88	163.84
395.07	124.05
395.26	110.01
395.46	105.32
395.65	98.30
395.84	191.92
396.04	203.63
396.23	166.18
396.42	112.35
396.62	86.60
396.81	203.63
397.00	156.82
397.19	170.86
397.39	203.63
397.58	210.65
397.77	119.37
397.97	152.13
398.16	84.26
398.35	180.22
398.55	170.86
398.74	131.07
398.93	182.56
399.12	149.79
399.32	117.03
399.51	163.84
399.70	133.41
399.90	231.71
400.09	100.64
400.28	161.50
400.47	81.92
400.67	142.77
400.86	114.69
401.05	124.05
401.24	220.01
401.44	133.41
401.63	170.86
401.82	124.05
402.01	98.30
402.21	159.16
402.40	182.56
402.59	152.13
402.78	133.41
402.97	154.48
403.17	114.69
403.36	119.37
403.55	112.35
403.74	189.58
403.93	231.71
404.13	135.75
404.32	152.13
404.51	212.99
404.70	154.48
404.89	168.52
405.09	114.69
405.28	135.75
405.47	74.90
405.66	149.79
405.85	205.97
406.05	147.45
406.24	42.13
406.43	124.05
406.62	189.58
406.81	173.20
407.00	231.71
407.20	173.20
407.39	131.07
407.58	173.20
407.77	182.56
407.96	212.99
408.15	112.35
408.34	168.52
408.54	152.13
408.73	138.09
408.92	194.26
409.11	147.45
409.30	152.13
409.49	133.41
409.68	138.09
409.87	168.52
410.07	70.22
410.26	149.79
410.45	149.79
410.64	173.20
410.83	74.90
411.02	140.43
411.21	175.54
411.40	138.09
411.59	121.71
411.78	159.16
411.98	177.88
412.17	131.07
412.36	166.18
412.55	229.37
412.74	128.73
412.93	198.95
413.12	184.90
413.31	191.92
413.50	184.90
413.69	196.60
413.88	184.90
414.07	147.45
414.26	166.18
414.45	177.88
414.64	133.41
414.83	189.58
415.02	154.48
415.22	194.26
415.41	227.03
415.60	138.09
415.79	177.88
415.98	119.37
416.17	175.54
416.36	210.65
416.55	140.43
416.74	212.99
416.93	203.63
417.12	180.22
417.31	149.79
417.50	177.88
417.69	168.52
417.88	156.82
418.07	114.69
418.26	182.56
418.45	152.13
418.64	166.18
418.83	126.39
419.02	201.29
419.21	166.18
419.39	163.84
419.58	159.16
419.77	91.28
419.96	201.29
420.15	170.86
420.34	147.45
420.53	138.09
420.72	196.60
420.91	175.54
421.10	170.86
421.29	168.52
421.48	180.22
421.67	117.03
421.86	198.95
422.05	205.97
422.24	121.71
422.43	173.20
422.61	205.97
422.80	175.54
422.99	222.35
423.18	140.43
423.37	175.54
423.56	215.33
423.75	184.90
423.94	161.50
424.13	175.54
424.32	119.37
424.50	152.13
424.69	138.09
424.88	163.84
425.07	135.75
425.26	212.99
425.45	212.99
425.64	175.54
425.83	140.43
426.01	234.05
426.20	203.63
426.39	217.67
426.58	91.28
426.77	175.54
426.96	234.05
427.15	149.79
427.33	238.73
427.52	149.79
427.71	145.11
427.90	159.16
428.09	145.11
428.28	163.84
428.46	154.48
428.65	149.79
428.84	182.56
429.03	170.86
429.22	175.54
429.40	212.99
429.59	168.52
429.78	161.50
429.97	168.52
430.16	182.56
430.34	212.99
430.53	117.03
430.72	208.31
430.91	196.60
431.10	126.39
431.28	161.50
431.47	236.39
431.66	170.86
431.85	126.39
432.03	173.20
432.22	236.39
432.41	191.92
432.60	187.24
432.79	163.84
432.97	182.56
433.16	161.50
433.35	149.79
433.54	168.52
433.72	210.65
433.91	180.22
434.10	166.18
434.28	166.18
434.47	189.58
434.66	159.16
434.85	110.01
435.03	159.16
435.22	315.97
435.41	341.72
435.59	315.97
435.78	234.05
435.97	231.71
436.16	161.50
436.34	119.37
436.53	198.95
436.72	208.31
436.90	231.71
437.09	149.79
437.28	140.43
437.46	170.86
437.65	184.90
437.84	110.01
438.02	177.88
438.21	166.18
438.40	166.18
438.58	180.22
438.77	166.18
438.96	191.92
439.14	95.96
439.33	173.20
439.52	159.16
439.70	149.79
439.89	173.20
440.08	147.45
440.26	138.09
440.45	180.22
440.63	224.69
440.82	168.52
441.01	161.50
441.19	154.48
441.38	191.92
441.57	234.05
441.75	215.33
441.94	189.58
442.12	198.95
442.31	126.39
442.50	194.26
442.68	208.31
442.87	215.33
443.05	252.78
443.24	208.31
443.43	142.77
443.61	238.73
443.80	175.54
443.98	208.31
444.17	159.16
444.35	205.97
444.54	180.22
444.73	210.65
444.91	201.29
445.10	126.39
445.28	124.05
445.47	255.12
445.65	191.92
445.84	182.56
446.02	189.58
446.21	161.50
446.39	217.67
446.58	210.65
446.77	173.20
446.95	175.54
447.14	234.05
447.32	159.16
447.51	201.29
447.69	189.58
447.88	217.67
448.06	166.18
448.25	196.60
448.43	133.41
448.62	131.07
448.80	175.54
448.99	166.18
449.17	142.77
449.36	205.97
449.54	152.13
449.73	135.75
449.91	227.03
450.10	180.22
450.28	315.97
450.46	198.95
450.65	208.31
450.83	177.88
451.02	222.35
451.20	138.09
451.39	124.05
451.57	124.05
451.76	280.86
451.94	191.92
452.13	198.95
452.31	224.69
452.49	173.20
452.68	128.73
452.86	238.73
453.05	306.61
453.23	133.41
453.42	138.09
453.60	112.35
453.78	189.58
453.97	170.86
454.15	138.09
454.34	168.52
454.52	227.03
454.70	222.35
454.89	201.29
455.07	189.58
455.26	166.18
455.44	189.58
455.62	133.41
455.81	152.13
455.99	210.65
456.17	255.12
456.36	191.92
456.54	166.18
456.73	191.92
456.91	117.03
457.09	198.95
457.28	180.22
457.46	276.18
457.64	170.86
457.83	194.26
458.01	180.22
458.19	212.99
458.38	166.18
458.56	220.01
458.74	163.84
458.93	175.54
459.11	245.76
459.29	170.86
459.48	222.35
459.66	208.31
459.84	175.54
460.03	292.57
460.21	175.54
460.39	205.97
460.57	159.16
460.76	133.41
460.94	198.95
461.12	180.22
461.31	166.18
461.49	217.67
461.67	191.92
461.85	138.09
462.04	231.71
462.22	667.05
462.40	170.86
462.59	243.42
462.77	259.80
462.95	262.14
463.13	156.82
463.32	231.71
463.50	177.88
463.68	156.82
463.86	166.18
464.05	149.79
464.23	276.18
464.41	208.31
464.59	194.26
464.78	168.52
464.96	177.88
465.14	257.46
465.32	201.29
465.50	194.26
465.69	236.39
465.87	126.39
466.05	257.46
466.23	212.99
466.41	227.03
466.60	189.58
466.78	196.60
466.96	208.31
467.14	168.52
467.32	149.79
467.51	147.45
467.69	205.97
467.87	220.01
468.05	238.73
468.23	287.89
468.41	156.82
468.60	201.29
468.78	203.63
468.96	161.50
469.14	201.29
469.32	159.16
469.50	140.43
469.69	135.75
469.87	217.67
470.05	163.84
470.23	168.52
470.41	149.79
470.59	177.88
470.77	168.52
470.95	177.88
471.14	208.31
471.32	124.05
471.50	245.76
471.68	248.10
471.86	168.52
472.04	112.35
472.22	210.65
472.40	152.13
472.58	210.65
472.77	170.86
472.95	201.29
473.13	166.18
473.31	201.29
473.49	147.45
473.67	208.31
473.85	208.31
474.03	227.03
474.21	189.58
474.39	231.71
474.57	177.88
474.75	238.73
474.93	222.35
475.12	196.60
475.30	163.84
475.48	203.63
475.66	128.73
475.84	205.97
476.02	220.01
476.20	241.08
476.38	152.13
476.56	234.05
476.74	175.54
476.92	119.37
477.10	154.48
477.28	208.31
477.46	220.01
477.64	238.73
477.82	177.88
478.00	212.99
478.18	159.16
478.36	166.18
478.54	121.71
478.72	175.54
478.90	205.97
479.08	217.67
479.26	238.73
479.44	201.29
479.62	166.18
479.80	168.52
479.98	203.63
480.16	184.90
480.34	241.08
480.52	205.97
480.70	201.29
480.88	205.97
481.06	119.37
481.24	170.86
481.41	201.29
481.59	259.80
481.77	262.14
481.95	147.45
482.13	191.92
482.31	170.86
482.49	220.01
482.67	159.16
482.85	252.78
483.03	220.01
483.21	238.73
483.39	196.60
483.57	217.67
483.74	283.20
483.92	212.99
484.10	182.56
484.28	201.29
484.46	215.33
484.64	205.97
484.82	184.90
485.00	133.41
485.18	250.44
485.35	229.37
485.53	201.29
485.71	170.86
485.89	220.01
486.07	201.29
486.25	311.29
486.43	285.55
486.61	201.29
486.78	180.22
486.96	276.18
487.14	189.58
487.32	210.65
487.50	262.14
487.68	327.68
487.85	269.16
488.03	224.69
488.21	273.84
488.39	257.46
488.57	215.33
488.75	229.37
488.92	538.32
489.10	278.52
489.28	212.99
489.46	201.29
489.64	250.44
489.81	229.37
489.99	248.10
490.17	271.50
490.35	292.57
490.53	217.67
490.70	208.31
490.88	248.10
491.06	259.80
491.24	231.71
491.41	210.65
491.59	278.52
491.77	194.26
491.95	205.97
492.13	205.97
492.30	236.39
492.48	262.14
492.66	269.16
492.84	224.69
493.01	238.73
493.19	154.48
493.37	297.25
493.54	229.37
493.72	337.04
493.90	224.69
494.08	231.71
494.25	196.60
494.43	255.12
494.61	259.80
494.79	299.59
494.96	238.73
495.14	236.39
495.32	353.42
495.49	325.33
495.67	257.46
495.85	170.86
496.02	210.65
496.20	173.20
496.38	191.92
496.55	236.39
496.73	243.42
496.91	208.31
497.09	231.71
497.26	299.59
497.44	259.80
497.62	189.58
497.79	255.12
497.97	224.69
498.14	208.31
498.32	180.22
498.50	201.29
498.67	227.03
498.85	273.84
499.03	294.91
499.20	210.65
499.38	236.39
499.56	264.48
499.73	320.65
499.91	266.82
500.08	322.99
500.26	248.10
500.44	287.89
500.61	208.31
500.79	163.84
500.97	241.08
501.14	283.20
501.32	276.18
501.49	266.82
501.67	280.86
501.84	248.10
502.02	278.52
502.20	264.48
502.37	243.42
502.55	301.93
502.72	194.26
502.90	257.46
503.07	208.31
503.25	250.44
503.43	241.08
503.60	212.99
503.78	264.48
503.95	212.99
504.13	187.24
504.30	248.10
504.48	250.44
504.65	285.55
504.83	227.03
505.01	198.95
505.18	231.71
505.36	234.05
505.53	255.12
505.71	250.44
505.88	215.33
506.06	215.33
506.23	198.95
506.41	220.01
506.58	262.14
506.76	269.16
506.93	212.99
507.11	259.80
507.28	255.12
507.46	198.95
507.63	159.16
507.81	278.52
507.98	238.73
508.16	184.90
508.33	301.93
508.50	273.84
508.68	287.89
508.85	248.10
509.03	187.24
509.20	198.95
509.38	168.52
509.55	308.95
509.73	360.44
509.90	257.46
510.08	215.33
510.25	231.71
510.42	255.12
510.60	271.50
510.77	257.46
510.95	287.89
511.12	285.55
511.30	227.03
511.47	301.93
511.64	241.08
511.82	184.90
511.99	234.05
512.17	276.18
512.34	264.48
512.51	224.69
512.69	201.29
512.86	276.18
513.04	266.82
513.21	241.08
513.38	255.12
513.56	245.76
513.73	250.44
513.90	217.67
514.08	196.60
514.25	255.12
514.43	278.52
514.60	215.33
514.77	255.12
514.95	231.71
515.12	182.56
515.29	175.54
515.47	241.08
515.64	306.61
515.81	285.55
515.99	276.18
516.16	252.78
516.33	264.48
516.51	245.76
516.68	252.78
516.85	234.05
517.03	276.18
517.20	269.16
517.37	264.48
517.54	276.18
517.72	215.33
517.89	159.16
518.06	170.86
518.24	278.52
518.41	313.63
518.58	234.05
518.75	194.26
518.93	276.18
519.10	287.89
519.27	255.12
519.45	208.31
519.62	250.44
519.79	212.99
519.96	262.14
520.14	234.05
520.31	245.76
520.48	283.20
520.65	264.48
520.83	269.16
521.00	290.23
521.17	297.25
521.34	255.12
521.52	322.99
521.69	292.57
521.86	276.18
522.03	217.67
522.20	334.70
522.38	212.99
522.55	231.71
522.72	248.10
522.89	248.10
523.07	304.27
523.24	227.03
523.41	229.37
523.58	248.10
523.75	220.01
523.92	290.23
524.10	259.80
524.27	217.67
524.44	198.95
524.61	255.12
524.78	161.50
524.96	327.68
525.13	283.20
525.30	301.93
525.47	266.82
525.64	259.80
525.81	182.56
525.98	285.55
526.16	159.16
526.33	229.37
526.50	276.18
526.67	198.95
526.84	175.54
527.01	248.10
527.18	184.90
527.36	257.46
527.53	325.33
527.70	266.82
527.87	266.82
528.04	287.89
528.21	205.97
528.38	280.86
528.55	262.14
528.72	315.97
528.89	418.96
529.07	227.03
529.24	231.71
529.41	278.52
529.58	257.46
529.75	273.84
529.92	332.36
530.09	266.82
530.26	353.42
530.43	273.84
530.60	311.29
530.77	250.44
530.94	276.18
531.11	243.42
531.28	220.01
531.46	250.44
531.63	285.55
531.80	234.05
531.97	259.80
532.14	262.14
532.31	255.12
532.48	205.97
532.65	273.84
532.82	276.18
532.99	245.76
533.16	304.27
533.33	250.44
533.50	278.52
533.67	306.61
533.84	341.72
534.01	315.97
534.18	250.44
534.35	250.44
534.52	332.36
534.69	318.31
534.86	292.57
535.03	285.55
535.20	294.91
535.37	276.18
535.54	229.37
535.71	245.76
535.88	229.37
536.05	266.82
536.22	292.57
536.38	252.78
536.55	285.55
536.72	320.65
536.89	301.93
537.06	327.68
537.23	278.52
537.40	215.33
537.57	273.84
537.74	322.99
537.91	337.04
538.08	334.70
538.25	315.97
538.42	344.06
538.59	299.59
538.75	269.16
538.92	285.55
539.09	358.10
539.26	320.65
539.43	416.62
539.60	510.24
539.77	535.98
539.94	517.26
540.11	397.89
540.28	395.55
540.44	430.66
540.61	372.15
540.78	411.93
540.95	397.89
541.12	528.96
541.29	465.77
541.46	423.64
541.62	402.57
541.79	430.66
541.96	372.15
542.13	404.91
542.30	514.92
542.47	451.72
542.63	440.02
542.80	390.87
542.97	416.62
543.14	451.72
543.31	351.08
543.48	418.96
543.64	421.30
543.81	454.06
543.98	369.80
544.15	423.64
544.32	416.62
544.48	430.66
544.65	388.53
544.82	330.02
544.99	346.40
545.16	418.96
545.32	491.51
545.49	664.71
545.66	706.84
545.83	730.25
546.00	641.31
546.16	636.63
546.33	479.81
546.50	437.68
546.67	498.53
546.83	376.83
547.00	346.40
547.17	355.76
547.34	404.91
547.50	353.42
547.67	236.39
547.84	325.33
548.00	332.36
548.17	306.61
548.34	337.04
548.51	411.93
548.67	367.46
548.84	283.20
549.01	311.29
549.18	358.10
549.34	318.31
549.51	376.83
549.68	304.27
549.84	351.08
550.01	304.27
550.18	397.89
550.34	334.70
550.51	337.04
550.68	383.85
550.84	327.68
551.01	276.18
551.18	320.65
551.34	341.72
551.51	332.36
551.68	271.50
551.84	308.95
552.01	255.12
552.18	337.04
552.34	276.18
552.51	245.76
552.68	320.65
552.84	304.27
553.01	327.68
553.18	257.46
553.34	290.23
553.51	269.16
553.67	327.68
553.84	360.44
554.01	299.59
554.17	198.95
554.34	198.95
554.51	320.65
554.67	287.89
554.84	285.55
555.00	285.55
555.17	332.36
555.33	280.86
555.50	241.08
555.67	332.36
555.83	205.97
556.00	266.82
556.16	379.17
556.33	320.65
556.50	163.84
556.66	320.65
556.83	243.42
556.99	299.59
557.16	287.89
557.32	318.31
557.49	280.86
557.65	191.92
557.82	266.82
557.98	266.82
558.15	238.73
558.32	290.23
558.48	250.44
558.65	234.05
558.81	250.44
558.98	273.84
559.14	285.55
559.31	229.37
559.47	234.05
559.64	208.31
559.80	262.14
559.97	252.78
560.13	276.18
560.30	276.18
560.46	273.84
560.63	241.08
560.79	243.42
560.96	252.78
561.12	227.03
561.29	278.52
561.45	264.48
561.61	292.57
561.78	341.72
561.94	252.78
562.11	236.39
562.27	285.55
562.44	238.73
562.60	245.76
562.77	203.63
562.93	339.38
563.10	212.99
563.26	255.12
563.42	301.93
563.59	348.74
563.75	236.39
563.92	252.78
564.08	264.48
564.24	271.50
564.41	276.18
564.57	257.46
564.74	234.05
564.90	299.59
565.07	287.89
565.23	306.61
565.39	227.03
565.56	187.24
565.72	227.03
565.88	203.63
566.05	273.84
566.21	234.05
566.38	212.99
566.54	245.76
566.70	252.78
566.87	229.37
567.03	276.18
567.19	255.12
567.36	306.61
567.52	264.48
567.68	231.71
567.85	271.50
568.01	255.12
568.17	238.73
568.34	231.71
568.50	245.76
568.66	257.46
568.83	306.61
568.99	191.92
569.15	245.76
569.32	220.01
569.48	194.26
569.64	220.01
569.81	255.12
569.97	180.22
570.13	248.10
570.30	278.52
570.46	217.67
570.62	217.67
570.78	222.35
570.95	194.26
571.11	290.23
571.27	243.42
571.43	189.58
571.60	278.52
571.76	229.37
571.92	140.43
572.09	238.73
572.25	243.42
572.41	212.99
572.57	229.37
572.74	297.25
572.90	238.73
573.06	210.65
573.22	250.44
573.38	276.18
573.55	259.80
573.71	271.50
573.87	229.37
574.03	348.74
574.20	191.92
574.36	266.82
574.52	234.05
574.68	208.31
574.84	285.55
575.01	236.39
575.17	269.16
575.33	262.14
575.49	290.23
575.65	245.76
575.82	269.16
575.98	397.89
576.14	297.25
576.30	266.82
576.46	362.78
576.62	344.06
576.79	362.78
576.95	358.10
577.11	262.14
577.27	255.12
577.43	315.97
577.59	341.72
577.75	222.35
577.92	257.46
578.08	273.84
578.24	273.84
578.40	269.16
578.56	255.12
578.72	341.72
578.88	327.68
579.04	299.59
579.21	367.46
579.37	245.76
579.53	308.95
579.69	271.50
579.85	264.48
580.01	327.68
580.17	245.76
580.33	337.04
580.49	297.25
580.65	236.39
580.82	266.82
580.98	266.82
581.14	264.48
581.30	318.31
581.46	325.33
581.62	332.36
581.78	229.37
581.94	318.31
582.10	299.59
582.26	372.15
582.42	285.55
582.58	379.17
582.74	306.61
582.90	369.80
583.06	353.42
583.22	318.31
583.38	285.55
583.54	325.33
583.70	360.44
583.86	353.42
584.02	404.91
584.18	423.64
584.34	465.77
584.50	814.51
584.66	4678.73
584.82	9769.40
584.98	11871.20
585.14	10097.07
585.30	6480.94
585.46	4205.94
585.62	2579.27
585.78	1437.09
585.94	683.44
586.10	388.53
586.26	400.23
586.42	472.79
586.58	430.66
586.74	367.46
586.90	287.89
587.06	381.51
587.22	327.68
587.38	341.72
587.54	538.32
587.70	847.27
587.86	1123.46
588.02	1100.05
588.18	727.91
588.34	648.33
588.49	423.64
588.65	416.62
588.81	285.55
588.97	248.10
589.13	245.76
589.29	220.01
589.45	283.20
589.61	217.67
589.77	360.44
589.93	255.12
590.08	348.74
590.24	280.86
590.40	273.84
590.56	334.70
590.72	262.14
590.88	243.42
591.04	252.78
591.20	241.08
591.35	308.95
591.51	264.48
591.67	259.80
591.83	308.95
591.99	229.37
592.15	292.57
592.31	311.29
592.46	311.29
592.62	311.29
592.78	271.50
592.94	344.06
593.10	334.70
593.26	220.01
593.41	259.80
593.57	236.39
593.73	411.93
593.89	800.46
594.05	1411.34
594.20	1596.25
594.36	1540.07
594.52	1172.61
594.68	784.08
594.84	627.26
594.99	320.65
595.15	313.63
595.31	248.10
595.47	322.99
595.62	201.29
595.78	222.35
595.94	322.99
596.10	285.55
596.25	266.82
596.41	280.86
596.57	191.92
596.73	280.86
596.88	290.23
597.04	416.62
597.20	585.13
597.36	585.13
597.51	447.04
597.67	390.87
597.83	365.12
597.99	241.08
598.14	248.10
598.30	262.14
598.46	236.39
598.61	280.86
598.77	306.61
598.93	217.67
599.09	334.70
599.24	313.63
599.40	322.99
599.56	212.99
599.71	266.82
599.87	184.90
600.03	334.70
600.18	283.20
600.34	257.46
600.50	224.69
600.65	236.39
600.81	220.01
600.97	299.59
601.12	229.37
601.28	278.52
601.44	290.23
601.59	161.50
601.75	205.97
601.91	201.29
602.06	255.12
602.22	374.49
602.37	374.49
602.53	493.85
602.69	613.22
602.84	538.32
603.00	477.47
603.16	472.79
603.31	374.49
603.47	285.55
603.62	231.71
603.78	262.14
603.94	224.69
604.09	283.20
604.25	227.03
604.40	283.20
604.56	198.95
604.71	330.02
604.87	252.78
605.03	294.91
605.18	313.63
605.34	292.57
605.49	248.10
605.65	297.25
605.80	301.93
605.96	184.90
606.12	285.55
606.27	276.18
606.43	266.82
606.58	301.93
606.74	376.83
606.89	898.77
607.05	1299.00
607.20	1399.64
607.36	1203.04
607.51	856.64
607.67	697.48
607.82	507.90
607.98	418.96
608.13	327.68
608.29	313.63
608.44	315.97
608.60	315.97
608.75	346.40
608.91	510.24
609.06	1263.89
609.22	1980.09
609.37	2258.62
609.53	2043.29
609.68	1434.75
609.84	1196.01
609.99	880.04
610.15	669.39
610.30	526.62
610.46	578.11
610.61	571.09
