SpectraSuite Data File
++++++++++++++++++++++++++++++++++++
Date: Fri Oct 04 11:34:02 GMT-05:00 2013
User: price-jones
Dark Spectrum Present: No
Reference Spectrum Present: No
Number of Sampled Component Spectra: 1
Spectrometers: USB2+H05261
Integration Time (usec): 100000 (USB2+H05261)
Spectra Averaged: 1 (USB2+H05261)
Boxcar Smoothing: 0 (USB2+H05261)
Correct for Electrical Dark: No (USB2+H05261)
Strobe/Lamp Enabled: No (USB2+H05261)
Correct for Detector Non-linearity: No (USB2+H05261)
Correct for Stray Light: No (USB2+H05261)
Number of Pixels in Processed Spectrum: 2048
>>>>>Begin Processed Spectral Data<<<<<
365.73	74.90
365.92	74.90
366.12	74.90
366.32	0.00
366.52	32.77
366.72	60.85
366.91	0.00
367.11	0.00
367.31	0.00
367.51	0.00
367.70	0.00
367.90	0.00
368.10	0.00
368.30	0.00
368.49	11.70
368.69	0.00
368.89	0.00
369.09	0.00
369.28	51.49
369.48	7.02
369.68	0.00
369.87	0.00
370.07	72.56
370.27	44.47
370.47	35.11
370.66	56.17
370.86	107.66
371.06	98.30
371.25	110.01
371.45	79.58
371.65	145.11
371.84	124.05
372.04	119.37
372.24	159.16
372.44	147.45
372.63	105.32
372.83	114.69
373.03	198.95
373.22	161.50
373.42	168.52
373.62	234.05
373.81	173.20
374.01	154.48
374.21	182.56
374.40	121.71
374.60	182.56
374.79	159.16
374.99	168.52
375.19	159.16
375.38	154.48
375.58	142.77
375.78	145.11
375.97	159.16
376.17	196.60
376.37	205.97
376.56	173.20
376.76	147.45
376.95	121.71
377.15	128.73
377.35	110.01
377.54	168.52
377.74	189.58
377.93	152.13
378.13	135.75
378.33	217.67
378.52	131.07
378.72	168.52
378.91	147.45
379.11	147.45
379.31	72.56
379.50	175.54
379.70	145.11
379.89	107.66
380.09	86.60
380.28	135.75
380.48	154.48
380.68	117.03
380.87	168.52
381.07	60.85
381.26	161.50
381.46	187.24
381.65	163.84
381.85	91.28
382.04	175.54
382.24	159.16
382.43	107.66
382.63	128.73
382.83	100.64
383.02	154.48
383.22	184.90
383.41	198.95
383.61	243.42
383.80	175.54
384.00	88.94
384.19	147.45
384.39	161.50
384.58	51.49
384.78	147.45
384.97	124.05
385.17	126.39
385.36	63.19
385.56	110.01
385.75	88.94
385.95	117.03
386.14	135.75
386.34	117.03
386.53	107.66
386.72	100.64
386.92	187.24
387.11	198.95
387.31	121.71
387.50	163.84
387.70	98.30
387.89	110.01
388.09	98.30
388.28	154.48
388.48	117.03
388.67	161.50
388.86	117.03
389.06	117.03
389.25	156.82
389.45	119.37
389.64	182.56
389.84	163.84
390.03	152.13
390.22	149.79
390.42	138.09
390.61	201.29
390.81	133.41
391.00	100.64
391.19	177.88
391.39	102.98
391.58	161.50
391.78	175.54
391.97	156.82
392.16	161.50
392.36	142.77
392.55	140.43
392.75	156.82
392.94	119.37
393.13	236.39
393.33	114.69
393.52	166.18
393.71	191.92
393.91	215.33
394.10	84.26
394.29	159.16
394.49	161.50
394.68	147.45
394.88	198.95
395.07	135.75
395.26	191.92
395.46	159.16
395.65	140.43
395.84	117.03
396.04	182.56
396.23	180.22
396.42	133.41
396.62	119.37
396.81	124.05
397.00	196.60
397.19	177.88
397.39	105.32
397.58	166.18
397.77	128.73
397.97	196.60
398.16	114.69
398.35	119.37
398.55	91.28
398.74	88.94
398.93	177.88
399.12	119.37
399.32	177.88
399.51	88.94
399.70	175.54
399.90	215.33
400.09	173.20
400.28	161.50
400.47	117.03
400.67	107.66
400.86	140.43
401.05	159.16
401.24	152.13
401.44	191.92
401.63	128.73
401.82	203.63
402.01	117.03
402.21	154.48
402.40	152.13
402.59	84.26
402.78	210.65
402.97	100.64
403.17	142.77
403.36	173.20
403.55	133.41
403.74	166.18
403.93	173.20
404.13	255.12
404.32	196.60
404.51	229.37
404.70	191.92
404.89	184.90
405.09	227.03
405.28	140.43
405.47	145.11
405.66	182.56
405.85	124.05
406.05	124.05
406.24	191.92
406.43	222.35
406.62	266.82
406.81	224.69
407.00	227.03
407.20	93.62
407.39	121.71
407.58	100.64
407.77	220.01
407.96	222.35
408.15	177.88
408.34	175.54
408.54	149.79
408.73	145.11
408.92	128.73
409.11	245.76
409.30	203.63
409.49	217.67
409.68	147.45
409.87	203.63
410.07	203.63
410.26	177.88
410.45	98.30
410.64	196.60
410.83	147.45
411.02	205.97
411.21	147.45
411.40	189.58
411.59	215.33
411.78	126.39
411.98	100.64
412.17	173.20
412.36	161.50
412.55	149.79
412.74	159.16
412.93	243.42
413.12	117.03
413.31	156.82
413.50	117.03
413.69	110.01
413.88	170.86
414.07	140.43
414.26	180.22
414.45	191.92
414.64	117.03
414.83	152.13
415.02	163.84
415.22	173.20
415.41	117.03
415.60	205.97
415.79	264.48
415.98	217.67
416.17	135.75
416.36	161.50
416.55	140.43
416.74	149.79
416.93	168.52
417.12	124.05
417.31	234.05
417.50	194.26
417.69	262.14
417.88	147.45
418.07	180.22
418.26	241.08
418.45	161.50
418.64	283.20
418.83	229.37
419.02	236.39
419.21	224.69
419.39	205.97
419.58	210.65
419.77	175.54
419.96	241.08
420.15	187.24
420.34	173.20
420.53	140.43
420.72	173.20
420.91	95.96
421.10	194.26
421.29	191.92
421.48	126.39
421.67	135.75
421.86	210.65
422.05	222.35
422.24	161.50
422.43	168.52
422.61	161.50
422.80	100.64
422.99	194.26
423.18	177.88
423.37	180.22
423.56	187.24
423.75	168.52
423.94	191.92
424.13	236.39
424.32	180.22
424.50	105.32
424.69	173.20
424.88	196.60
425.07	177.88
425.26	191.92
425.45	271.50
425.64	217.67
425.83	250.44
426.01	259.80
426.20	168.52
426.39	182.56
426.58	154.48
426.77	140.43
426.96	184.90
427.15	243.42
427.33	201.29
427.52	184.90
427.71	161.50
427.90	133.41
428.09	159.16
428.28	177.88
428.46	166.18
428.65	117.03
428.84	145.11
429.03	222.35
429.22	126.39
429.40	138.09
429.59	210.65
429.78	159.16
429.97	149.79
430.16	196.60
430.34	147.45
430.53	173.20
430.72	159.16
430.91	238.73
431.10	210.65
431.28	266.82
431.47	208.31
431.66	166.18
431.85	142.77
432.03	170.86
432.22	177.88
432.41	163.84
432.60	285.55
432.79	182.56
432.97	283.20
433.16	376.83
433.35	285.55
433.54	241.08
433.72	224.69
433.91	210.65
434.10	198.95
434.28	212.99
434.47	266.82
434.66	255.12
434.85	217.67
435.03	205.97
435.22	379.17
435.41	489.17
435.59	428.32
435.78	372.15
435.97	238.73
436.16	262.14
436.34	241.08
436.53	140.43
436.72	191.92
436.90	135.75
437.09	168.52
437.28	177.88
437.46	180.22
437.65	205.97
437.84	201.29
438.02	241.08
438.21	168.52
438.40	133.41
438.58	180.22
438.77	149.79
438.96	168.52
439.14	175.54
439.33	175.54
439.52	168.52
439.70	187.24
439.89	170.86
440.08	173.20
440.26	170.86
440.45	140.43
440.63	161.50
440.82	117.03
441.01	187.24
441.19	187.24
441.38	250.44
441.57	196.60
441.75	205.97
441.94	222.35
442.12	182.56
442.31	222.35
442.50	177.88
442.68	182.56
442.87	212.99
443.05	189.58
443.24	191.92
443.43	201.29
443.61	212.99
443.80	147.45
443.98	133.41
444.17	147.45
444.35	140.43
444.54	175.54
444.73	133.41
444.91	227.03
445.10	205.97
445.28	159.16
445.47	159.16
445.65	227.03
445.84	252.78
446.02	173.20
446.21	208.31
446.39	245.76
446.58	222.35
446.77	149.79
446.95	180.22
447.14	220.01
447.32	189.58
447.51	177.88
447.69	259.80
447.88	203.63
448.06	262.14
448.25	189.58
448.43	156.82
448.62	215.33
448.80	117.03
448.99	203.63
449.17	189.58
449.36	149.79
449.54	191.92
449.73	184.90
449.91	259.80
450.10	187.24
450.28	217.67
450.46	201.29
450.65	215.33
450.83	196.60
451.02	177.88
451.20	238.73
451.39	152.13
451.57	215.33
451.76	229.37
451.94	217.67
452.13	238.73
452.31	236.39
452.49	187.24
452.68	194.26
452.86	159.16
453.05	180.22
453.23	161.50
453.42	126.39
453.60	187.24
453.78	229.37
453.97	196.60
454.15	180.22
454.34	203.63
454.52	236.39
454.70	187.24
454.89	245.76
455.07	217.67
455.26	227.03
455.44	212.99
455.62	142.77
455.81	88.94
455.99	196.60
456.17	124.05
456.36	126.39
456.54	217.67
456.73	201.29
456.91	222.35
457.09	241.08
457.28	227.03
457.46	187.24
457.64	220.01
457.83	229.37
458.01	229.37
458.19	217.67
458.38	238.73
458.56	271.50
458.74	147.45
458.93	217.67
459.11	140.43
459.29	201.29
459.48	149.79
459.66	217.67
459.84	191.92
460.03	236.39
460.21	212.99
460.39	184.90
460.57	170.86
460.76	198.95
460.94	140.43
461.12	262.14
461.31	180.22
461.49	252.78
461.67	163.84
461.85	175.54
462.04	154.48
462.22	578.11
462.40	262.14
462.59	184.90
462.77	198.95
462.95	201.29
463.13	215.33
463.32	205.97
463.50	152.13
463.68	175.54
463.86	159.16
464.05	196.60
464.23	194.26
464.41	266.82
464.59	250.44
464.78	196.60
464.96	196.60
465.14	252.78
465.32	205.97
465.50	257.46
465.69	212.99
465.87	121.71
466.05	229.37
466.23	163.84
466.41	238.73
466.60	217.67
466.78	170.86
466.96	210.65
467.14	227.03
467.32	182.56
467.51	184.90
467.69	154.48
467.87	297.25
468.05	168.52
468.23	203.63
468.41	205.97
468.60	212.99
468.78	184.90
468.96	203.63
469.14	114.69
469.32	121.71
469.50	201.29
469.69	180.22
469.87	189.58
470.05	198.95
470.23	117.03
470.41	191.92
470.59	229.37
470.77	161.50
470.95	166.18
471.14	175.54
471.32	161.50
471.50	189.58
471.68	194.26
471.86	250.44
472.04	227.03
472.22	182.56
472.40	152.13
472.58	135.75
472.77	152.13
472.95	133.41
473.13	266.82
473.31	84.26
473.49	163.84
473.67	187.24
473.85	194.26
474.03	234.05
474.21	280.86
474.39	191.92
474.57	238.73
474.75	149.79
474.93	184.90
475.12	133.41
475.30	175.54
475.48	229.37
475.66	168.52
475.84	168.52
476.02	175.54
476.20	182.56
476.38	196.60
476.56	290.23
476.74	236.39
476.92	201.29
477.10	154.48
477.28	210.65
477.46	224.69
477.64	236.39
477.82	227.03
478.00	222.35
478.18	280.86
478.36	194.26
478.54	135.75
478.72	170.86
478.90	252.78
479.08	138.09
479.26	269.16
479.44	163.84
479.62	229.37
479.80	234.05
479.98	220.01
480.16	184.90
480.34	212.99
480.52	252.78
480.70	224.69
480.88	243.42
481.06	255.12
481.24	142.77
481.41	229.37
481.59	191.92
481.77	227.03
481.95	315.97
482.13	273.84
482.31	205.97
482.49	222.35
482.67	262.14
482.85	203.63
483.03	245.76
483.21	229.37
483.39	220.01
483.57	222.35
483.74	208.31
483.92	175.54
484.10	189.58
484.28	189.58
484.46	271.50
484.64	276.18
484.82	255.12
485.00	227.03
485.18	198.95
485.35	227.03
485.53	217.67
485.71	285.55
485.89	203.63
486.07	257.46
486.25	262.14
486.43	311.29
486.61	255.12
486.78	273.84
486.96	229.37
487.14	278.52
487.32	252.78
487.50	262.14
487.68	306.61
487.85	198.95
488.03	238.73
488.21	304.27
488.39	252.78
488.57	264.48
488.75	248.10
488.92	528.96
489.10	262.14
489.28	292.57
489.46	229.37
489.64	234.05
489.81	271.50
489.99	238.73
490.17	154.48
490.35	259.80
490.53	271.50
490.70	236.39
490.88	271.50
491.06	248.10
491.24	304.27
491.41	271.50
491.59	215.33
491.77	191.92
491.95	255.12
492.13	224.69
492.30	170.86
492.48	243.42
492.66	229.37
492.84	252.78
493.01	241.08
493.19	175.54
493.37	280.86
493.54	306.61
493.72	269.16
493.90	250.44
494.08	250.44
494.25	278.52
494.43	259.80
494.61	220.01
494.79	287.89
494.96	266.82
495.14	315.97
495.32	264.48
495.49	250.44
495.67	264.48
495.85	227.03
496.02	262.14
496.20	266.82
496.38	344.06
496.55	257.46
496.73	255.12
496.91	262.14
497.09	269.16
497.26	210.65
497.44	292.57
497.62	210.65
497.79	287.89
497.97	264.48
498.14	184.90
498.32	278.52
498.50	269.16
498.67	163.84
498.85	241.08
499.03	205.97
499.20	243.42
499.38	248.10
499.56	325.33
499.73	287.89
499.91	290.23
500.08	292.57
500.26	252.78
500.44	215.33
500.61	278.52
500.79	294.91
500.97	276.18
501.14	341.72
501.32	250.44
501.49	339.38
501.67	266.82
501.84	203.63
502.02	234.05
502.20	297.25
502.37	255.12
502.55	250.44
502.72	252.78
502.90	308.95
503.07	262.14
503.25	313.63
503.43	294.91
503.60	262.14
503.78	290.23
503.95	241.08
504.13	194.26
504.30	227.03
504.48	271.50
504.65	325.33
504.83	229.37
505.01	252.78
505.18	217.67
505.36	264.48
505.53	278.52
505.71	243.42
505.88	227.03
506.06	217.67
506.23	229.37
506.41	194.26
506.58	269.16
506.76	210.65
506.93	227.03
507.11	308.95
507.28	292.57
507.46	280.86
507.63	397.89
507.81	208.31
507.98	308.95
508.16	252.78
508.33	299.59
508.50	285.55
508.68	145.11
508.85	269.16
509.03	318.31
509.20	229.37
509.38	262.14
509.55	351.08
509.73	229.37
509.90	334.70
510.08	236.39
510.25	266.82
510.42	215.33
510.60	198.95
510.77	276.18
510.95	259.80
511.12	311.29
511.30	259.80
511.47	362.78
511.64	320.65
511.82	271.50
511.99	292.57
512.17	266.82
512.34	212.99
512.51	241.08
512.69	241.08
512.86	250.44
513.04	283.20
513.21	301.93
513.38	264.48
513.56	231.71
513.73	280.86
513.90	252.78
514.08	238.73
514.25	287.89
514.43	308.95
514.60	252.78
514.77	327.68
514.95	248.10
515.12	259.80
515.29	238.73
515.47	299.59
515.64	320.65
515.81	229.37
515.99	332.36
516.16	280.86
516.33	238.73
516.51	184.90
516.68	215.33
516.85	287.89
517.03	236.39
517.20	252.78
517.37	238.73
517.54	234.05
517.72	285.55
517.89	264.48
518.06	320.65
518.24	259.80
518.41	320.65
518.58	325.33
518.75	271.50
518.93	222.35
519.10	301.93
519.27	245.76
519.45	304.27
519.62	241.08
519.79	245.76
519.96	241.08
520.14	248.10
520.31	318.31
520.48	248.10
520.65	297.25
520.83	320.65
521.00	290.23
521.17	273.84
521.34	205.97
521.52	264.48
521.69	278.52
521.86	276.18
522.03	304.27
522.20	311.29
522.38	227.03
522.55	241.08
522.72	215.33
522.89	271.50
523.07	346.40
523.24	327.68
523.41	278.52
523.58	191.92
523.75	238.73
523.92	259.80
524.10	271.50
524.27	337.04
524.44	332.36
524.61	227.03
524.78	290.23
524.96	344.06
525.13	280.86
525.30	273.84
525.47	306.61
525.64	245.76
525.81	287.89
525.98	285.55
526.16	299.59
526.33	236.39
526.50	255.12
526.67	273.84
526.84	269.16
527.01	264.48
527.18	269.16
527.36	210.65
527.53	231.71
527.70	262.14
527.87	287.89
528.04	320.65
528.21	262.14
528.38	290.23
528.55	320.65
528.72	320.65
528.89	271.50
529.07	271.50
529.24	212.99
529.41	334.70
529.58	334.70
529.75	308.95
529.92	273.84
530.09	264.48
530.26	311.29
530.43	299.59
530.60	234.05
530.77	266.82
530.94	320.65
531.11	292.57
531.28	313.63
531.46	315.97
531.63	236.39
531.80	262.14
531.97	238.73
532.14	308.95
532.31	353.42
532.48	264.48
532.65	351.08
532.82	313.63
532.99	447.04
533.16	376.83
533.33	355.76
533.50	278.52
533.67	386.19
533.84	458.74
534.01	407.25
534.18	449.38
534.35	381.51
534.52	325.33
534.69	369.80
534.86	313.63
535.03	395.55
535.20	304.27
535.37	306.61
535.54	308.95
535.71	332.36
535.88	395.55
536.05	278.52
536.22	332.36
536.38	285.55
536.55	292.57
536.72	330.02
536.89	264.48
537.06	280.86
537.23	330.02
537.40	245.76
537.57	358.10
537.74	344.06
537.91	334.70
538.08	334.70
538.25	362.78
538.42	273.84
538.59	351.08
538.75	313.63
538.92	372.15
539.09	369.80
539.26	299.59
539.43	566.41
539.60	1128.14
539.77	1785.83
539.94	1872.43
540.11	1247.51
540.28	924.51
540.44	641.31
540.61	528.96
540.78	468.11
540.95	496.19
541.12	636.63
541.29	521.94
541.46	662.37
541.62	624.92
541.79	519.60
541.96	573.43
542.13	507.90
542.30	552.37
542.47	477.47
542.63	571.09
542.80	528.96
542.97	564.07
543.14	411.93
543.31	486.83
543.48	561.73
543.64	500.87
543.81	468.11
543.98	461.09
544.15	498.53
544.32	493.85
544.48	545.34
544.65	428.32
544.82	440.02
544.99	524.28
545.16	589.82
545.32	533.64
545.49	772.38
545.66	957.28
545.83	1093.03
546.00	976.00
546.16	716.20
546.33	578.11
546.50	521.94
546.67	566.41
546.83	496.19
547.00	503.22
547.17	425.98
547.34	353.42
547.50	421.30
547.67	433.00
547.84	322.99
548.00	430.66
548.17	409.59
548.34	383.85
548.51	414.27
548.67	493.85
548.84	435.34
549.01	351.08
549.18	372.15
549.34	353.42
549.51	318.31
549.68	327.68
549.84	325.33
550.01	313.63
550.18	451.72
550.34	383.85
550.51	369.80
550.68	348.74
550.84	259.80
551.01	334.70
551.18	280.86
551.34	358.10
551.51	374.49
551.68	334.70
551.84	287.89
552.01	301.93
552.18	353.42
552.34	285.55
552.51	276.18
552.68	313.63
552.84	245.76
553.01	339.38
553.18	262.14
553.34	278.52
553.51	287.89
553.67	262.14
553.84	271.50
554.01	306.61
554.17	322.99
554.34	266.82
554.51	301.93
554.67	241.08
554.84	276.18
555.00	411.93
555.17	311.29
555.33	306.61
555.50	276.18
555.67	262.14
555.83	280.86
556.00	313.63
556.16	479.81
556.33	294.91
556.50	306.61
556.66	327.68
556.83	243.42
556.99	210.65
557.16	271.50
557.32	243.42
557.49	248.10
557.65	245.76
557.82	346.40
557.98	250.44
558.15	224.69
558.32	255.12
558.48	205.97
558.65	257.46
558.81	283.20
558.98	257.46
559.14	229.37
559.31	229.37
559.47	255.12
559.64	283.20
559.80	231.71
559.97	327.68
560.13	255.12
560.30	222.35
560.46	248.10
560.63	299.59
560.79	280.86
560.96	318.31
561.12	266.82
561.29	285.55
561.45	217.67
561.61	299.59
561.78	297.25
561.94	269.16
562.11	262.14
562.27	332.36
562.44	234.05
562.60	231.71
562.77	304.27
562.93	322.99
563.10	262.14
563.26	341.72
563.42	299.59
563.59	252.78
563.75	259.80
563.92	252.78
564.08	308.95
564.24	294.91
564.41	313.63
564.57	248.10
564.74	287.89
564.90	250.44
565.07	257.46
565.23	409.59
565.39	276.18
565.56	330.02
565.72	269.16
565.88	283.20
566.05	306.61
566.21	304.27
566.38	266.82
566.54	369.80
566.70	257.46
566.87	283.20
567.03	227.03
567.19	264.48
567.36	313.63
567.52	238.73
567.68	266.82
567.85	250.44
568.01	222.35
568.17	255.12
568.34	234.05
568.50	369.80
568.66	248.10
568.83	369.80
568.99	168.52
569.15	325.33
569.32	299.59
569.48	264.48
569.64	297.25
569.81	191.92
569.97	271.50
570.13	220.01
570.30	224.69
570.46	248.10
570.62	332.36
570.78	285.55
570.95	231.71
571.11	252.78
571.27	322.99
571.43	266.82
571.60	299.59
571.76	262.14
571.92	294.91
572.09	248.10
572.25	257.46
572.41	222.35
572.57	320.65
572.74	276.18
572.90	388.53
573.06	252.78
573.22	180.22
573.38	257.46
573.55	318.31
573.71	252.78
573.87	348.74
574.03	184.90
574.20	287.89
574.36	390.87
574.52	376.83
574.68	355.76
574.84	325.33
575.01	266.82
575.17	287.89
575.33	308.95
575.49	313.63
575.65	292.57
575.82	395.55
575.98	561.73
576.14	793.44
576.30	837.91
576.46	725.57
576.62	561.73
576.79	535.98
576.95	538.32
577.11	395.55
577.27	365.12
577.43	353.42
577.59	287.89
577.75	372.15
577.92	285.55
578.08	325.33
578.24	374.49
578.40	369.80
578.56	428.32
578.72	496.19
578.88	489.17
579.04	365.12
579.21	416.62
579.37	428.32
579.53	395.55
579.69	449.38
579.85	404.91
580.01	444.70
580.17	400.23
580.33	451.72
580.49	414.27
580.65	430.66
580.82	374.49
580.98	423.64
581.14	337.04
581.30	433.00
581.46	475.13
581.62	676.41
581.78	671.73
581.94	746.63
582.10	594.50
582.26	507.90
582.42	447.04
582.58	456.40
582.74	517.26
582.90	601.52
583.06	521.94
583.22	477.47
583.38	505.56
583.54	587.47
583.70	772.38
583.86	777.06
584.02	894.08
584.18	952.60
584.34	1296.66
584.50	3159.72
584.66	21933.16
584.82	56750.97
584.98	65535.00
585.14	65535.00
585.30	53081.01
585.46	33029.64
585.62	20011.58
585.78	9380.87
585.94	3581.02
586.10	1806.89
586.26	1165.59
586.42	992.39
586.58	858.98
586.74	798.12
586.90	814.51
587.06	793.44
587.22	674.07
587.38	645.99
587.54	1245.16
587.70	3365.69
587.86	6125.18
588.02	7232.26
588.18	5268.55
588.34	3328.24
588.49	2200.10
588.65	1350.49
588.81	760.67
588.97	510.24
589.13	365.12
589.29	315.97
589.45	472.79
589.61	411.93
589.77	505.56
589.93	559.39
590.08	477.47
590.24	589.82
590.40	568.75
590.56	531.30
590.72	423.64
590.88	386.19
591.04	418.96
591.20	411.93
591.35	374.49
591.51	433.00
591.67	348.74
591.83	395.55
591.99	433.00
592.15	418.96
592.31	376.83
592.46	409.59
592.62	404.91
592.78	454.06
592.94	376.83
593.10	362.78
593.26	433.00
593.41	486.83
593.57	428.32
593.73	671.73
593.89	2710.34
594.05	7529.50
594.20	11978.86
594.36	11878.22
594.52	7599.72
594.68	4861.29
594.84	3311.86
594.99	1816.26
595.15	866.00
595.31	526.62
595.47	433.00
595.62	383.85
595.78	397.89
595.94	395.55
596.10	313.63
596.25	423.64
596.41	411.93
596.57	353.42
596.73	421.30
596.88	603.86
597.04	1439.43
597.20	2579.27
597.36	3005.25
597.51	2380.32
597.67	1610.29
597.83	1139.84
597.99	807.48
598.14	531.30
598.30	437.68
598.46	365.12
598.61	409.59
598.77	416.62
598.93	320.65
599.09	447.04
599.24	334.70
599.40	315.97
599.56	304.27
599.71	313.63
599.87	339.38
600.03	318.31
600.18	311.29
600.34	337.04
600.50	388.53
600.65	315.97
600.81	339.38
600.97	327.68
601.12	334.70
601.28	311.29
601.44	290.23
601.59	304.27
601.75	287.89
601.91	372.15
602.06	292.57
602.22	416.62
602.37	819.19
602.53	1743.70
602.69	2979.50
602.84	3281.43
603.00	2377.98
603.16	1610.29
603.31	1233.46
603.47	767.70
603.62	470.45
603.78	433.00
603.94	404.91
604.09	278.52
604.25	290.23
604.40	301.93
604.56	311.29
604.71	266.82
604.87	369.80
605.03	339.38
605.18	372.15
605.34	348.74
605.49	330.02
605.65	372.15
605.80	299.59
605.96	362.78
606.12	393.21
606.27	362.78
606.43	411.93
606.58	442.36
606.74	933.87
606.89	3365.69
607.05	7087.14
607.20	10408.36
607.36	8835.52
607.51	6029.22
607.67	3880.61
607.82	2544.16
607.98	1423.05
608.13	828.55
608.29	547.69
608.44	543.00
608.60	573.43
608.75	629.60
608.91	1266.23
609.06	4994.70
609.22	12645.91
609.37	18553.43
609.53	16020.97
609.68	10794.55
609.84	7042.67
609.99	4652.98
