SpectraSuite Data File
++++++++++++++++++++++++++++++++++++
Date: Fri Oct 04 11:33:54 GMT-05:00 2013
User: price-jones
Dark Spectrum Present: No
Reference Spectrum Present: No
Number of Sampled Component Spectra: 1
Spectrometers: USB2+H05261
Integration Time (usec): 100000 (USB2+H05261)
Spectra Averaged: 1 (USB2+H05261)
Boxcar Smoothing: 0 (USB2+H05261)
Correct for Electrical Dark: No (USB2+H05261)
Strobe/Lamp Enabled: No (USB2+H05261)
Correct for Detector Non-linearity: No (USB2+H05261)
Correct for Stray Light: No (USB2+H05261)
Number of Pixels in Processed Spectrum: 2048
>>>>>Begin Processed Spectral Data<<<<<
365.73	114.69
365.92	114.69
366.12	114.69
366.32	32.77
366.52	7.02
366.72	0.00
366.91	0.00
367.11	67.88
367.31	0.00
367.51	0.00
367.70	0.00
367.90	39.79
368.10	0.00
368.30	0.00
368.49	0.00
368.69	0.00
368.89	0.00
369.09	21.06
369.28	0.00
369.48	7.02
369.68	58.51
369.87	58.51
370.07	0.00
370.27	46.81
370.47	74.90
370.66	16.38
370.86	102.98
371.06	131.07
371.25	110.01
371.45	86.60
371.65	170.86
371.84	65.54
372.04	152.13
372.24	117.03
372.44	114.69
372.63	79.58
372.83	156.82
373.03	95.96
373.22	175.54
373.42	63.19
373.62	177.88
373.81	145.11
374.01	194.26
374.21	191.92
374.40	147.45
374.60	114.69
374.79	201.29
374.99	138.09
375.19	173.20
375.38	135.75
375.58	154.48
375.78	166.18
375.97	191.92
376.17	215.33
376.37	84.26
376.56	191.92
376.76	166.18
376.95	215.33
377.15	163.84
377.35	126.39
377.54	126.39
377.74	86.60
377.93	142.77
378.13	194.26
378.33	215.33
378.52	126.39
378.72	159.16
378.91	149.79
379.11	145.11
379.31	142.77
379.50	145.11
379.70	198.95
379.89	180.22
380.09	189.58
380.28	107.66
380.48	135.75
380.68	114.69
380.87	138.09
381.07	166.18
381.26	196.60
381.46	182.56
381.65	126.39
381.85	159.16
382.04	189.58
382.24	142.77
382.43	110.01
382.63	121.71
382.83	30.43
383.02	142.77
383.22	147.45
383.41	98.30
383.61	124.05
383.80	74.90
384.00	142.77
384.19	140.43
384.39	131.07
384.58	182.56
384.78	124.05
384.97	140.43
385.17	98.30
385.36	138.09
385.56	170.86
385.75	56.17
385.95	140.43
386.14	210.65
386.34	196.60
386.53	191.92
386.72	166.18
386.92	224.69
387.11	142.77
387.31	112.35
387.50	191.92
387.70	88.94
387.89	110.01
388.09	198.95
388.28	119.37
388.48	208.31
388.67	159.16
388.86	184.90
389.06	201.29
389.25	128.73
389.45	147.45
389.64	128.73
389.84	194.26
390.03	142.77
390.22	84.26
390.42	156.82
390.61	58.51
390.81	114.69
391.00	133.41
391.19	182.56
391.39	110.01
391.58	124.05
391.78	131.07
391.97	215.33
392.16	63.19
392.36	191.92
392.55	168.52
392.75	88.94
392.94	159.16
393.13	175.54
393.33	133.41
393.52	159.16
393.71	131.07
393.91	114.69
394.10	217.67
394.29	42.13
394.49	102.98
394.68	212.99
394.88	166.18
395.07	229.37
395.26	173.20
395.46	121.71
395.65	135.75
395.84	110.01
396.04	203.63
396.23	102.98
396.42	168.52
396.62	156.82
396.81	131.07
397.00	168.52
397.19	198.95
397.39	196.60
397.58	217.67
397.77	147.45
397.97	145.11
398.16	58.51
398.35	189.58
398.55	124.05
398.74	119.37
398.93	208.31
399.12	135.75
399.32	152.13
399.51	152.13
399.70	145.11
399.90	149.79
400.09	133.41
400.28	210.65
400.47	222.35
400.67	161.50
400.86	138.09
401.05	142.77
401.24	147.45
401.44	182.56
401.63	189.58
401.82	140.43
402.01	173.20
402.21	124.05
402.40	142.77
402.59	105.32
402.78	189.58
402.97	149.79
403.17	102.98
403.36	205.97
403.55	205.97
403.74	170.86
403.93	201.29
404.13	238.73
404.32	229.37
404.51	184.90
404.70	194.26
404.89	215.33
405.09	229.37
405.28	121.71
405.47	187.24
405.66	227.03
405.85	191.92
406.05	126.39
406.24	182.56
406.43	95.96
406.62	110.01
406.81	154.48
407.00	131.07
407.20	203.63
407.39	121.71
407.58	203.63
407.77	212.99
407.96	215.33
408.15	212.99
408.34	175.54
408.54	201.29
408.73	166.18
408.92	79.58
409.11	187.24
409.30	168.52
409.49	126.39
409.68	180.22
409.87	149.79
410.07	105.32
410.26	175.54
410.45	149.79
410.64	184.90
410.83	147.45
411.02	170.86
411.21	238.73
411.40	191.92
411.59	102.98
411.78	79.58
411.98	222.35
412.17	182.56
412.36	95.96
412.55	107.66
412.74	79.58
412.93	217.67
413.12	220.01
413.31	152.13
413.50	177.88
413.69	229.37
413.88	191.92
414.07	173.20
414.26	198.95
414.45	121.71
414.64	168.52
414.83	114.69
415.02	131.07
415.22	217.67
415.41	252.78
415.60	177.88
415.79	201.29
415.98	131.07
416.17	135.75
416.36	156.82
416.55	177.88
416.74	205.97
416.93	152.13
417.12	175.54
417.31	231.71
417.50	166.18
417.69	259.80
417.88	266.82
418.07	205.97
418.26	205.97
418.45	159.16
418.64	271.50
418.83	205.97
419.02	238.73
419.21	170.86
419.39	170.86
419.58	266.82
419.77	227.03
419.96	175.54
420.15	208.31
420.34	194.26
420.53	175.54
420.72	140.43
420.91	222.35
421.10	173.20
421.29	149.79
421.48	198.95
421.67	234.05
421.86	194.26
422.05	191.92
422.24	133.41
422.43	217.67
422.61	177.88
422.80	95.96
422.99	187.24
423.18	168.52
423.37	168.52
423.56	159.16
423.75	166.18
423.94	138.09
424.13	175.54
424.32	149.79
424.50	198.95
424.69	205.97
424.88	201.29
425.07	187.24
425.26	187.24
425.45	220.01
425.64	285.55
425.83	215.33
426.01	205.97
426.20	173.20
426.39	245.76
426.58	208.31
426.77	175.54
426.96	142.77
427.15	234.05
427.33	159.16
427.52	212.99
427.71	170.86
427.90	114.69
428.09	128.73
428.28	194.26
428.46	154.48
428.65	147.45
428.84	182.56
429.03	210.65
429.22	220.01
429.40	170.86
429.59	224.69
429.78	170.86
429.97	198.95
430.16	124.05
430.34	175.54
430.53	159.16
430.72	194.26
430.91	175.54
431.10	145.11
431.28	177.88
431.47	250.44
431.66	194.26
431.85	187.24
432.03	180.22
432.22	243.42
432.41	248.10
432.60	149.79
432.79	173.20
432.97	248.10
433.16	243.42
433.35	250.44
433.54	212.99
433.72	175.54
433.91	250.44
434.10	175.54
434.28	187.24
434.47	212.99
434.66	208.31
434.85	187.24
435.03	196.60
435.22	245.76
435.41	372.15
435.59	447.04
435.78	346.40
435.97	255.12
436.16	187.24
436.34	173.20
436.53	138.09
436.72	189.58
436.90	287.89
437.09	79.58
437.28	210.65
437.46	203.63
437.65	128.73
437.84	168.52
438.02	138.09
438.21	259.80
438.40	208.31
438.58	220.01
438.77	138.09
438.96	149.79
439.14	152.13
439.33	201.29
439.52	201.29
439.70	154.48
439.89	154.48
440.08	154.48
440.26	184.90
440.45	184.90
440.63	245.76
440.82	205.97
441.01	189.58
441.19	173.20
441.38	231.71
441.57	191.92
441.75	182.56
441.94	163.84
442.12	114.69
442.31	156.82
442.50	152.13
442.68	203.63
442.87	149.79
443.05	252.78
443.24	189.58
443.43	210.65
443.61	145.11
443.80	229.37
443.98	168.52
444.17	138.09
444.35	173.20
444.54	156.82
444.73	163.84
444.91	184.90
445.10	121.71
445.28	222.35
445.47	173.20
445.65	236.39
445.84	184.90
446.02	177.88
446.21	191.92
446.39	128.73
446.58	156.82
446.77	229.37
446.95	215.33
447.14	191.92
447.32	194.26
447.51	198.95
447.69	205.97
447.88	161.50
448.06	217.67
448.25	187.24
448.43	212.99
448.62	98.30
448.80	131.07
448.99	210.65
449.17	84.26
449.36	196.60
449.54	224.69
449.73	182.56
449.91	229.37
450.10	159.16
450.28	220.01
450.46	229.37
450.65	248.10
450.83	203.63
451.02	180.22
451.20	187.24
451.39	227.03
451.57	203.63
451.76	194.26
451.94	220.01
452.13	191.92
452.31	184.90
452.49	154.48
452.68	177.88
452.86	234.05
453.05	238.73
453.23	142.77
453.42	215.33
453.60	140.43
453.78	266.82
453.97	236.39
454.15	133.41
454.34	194.26
454.52	238.73
454.70	227.03
454.89	215.33
455.07	203.63
455.26	187.24
455.44	177.88
455.62	152.13
455.81	114.69
455.99	161.50
456.17	224.69
456.36	224.69
456.54	145.11
456.73	196.60
456.91	161.50
457.09	217.67
457.28	222.35
457.46	241.08
457.64	170.86
457.83	133.41
458.01	229.37
458.19	182.56
458.38	250.44
458.56	234.05
458.74	191.92
458.93	229.37
459.11	194.26
459.29	177.88
459.48	105.32
459.66	222.35
459.84	210.65
460.03	229.37
460.21	227.03
460.39	128.73
460.57	175.54
460.76	243.42
460.94	152.13
461.12	205.97
461.31	177.88
461.49	173.20
461.67	205.97
461.85	173.20
462.04	121.71
462.22	615.56
462.40	220.01
462.59	203.63
462.77	173.20
462.95	135.75
463.13	168.52
463.32	126.39
463.50	170.86
463.68	208.31
463.86	229.37
464.05	198.95
464.23	250.44
464.41	208.31
464.59	88.94
464.78	177.88
464.96	222.35
465.14	238.73
465.32	196.60
465.50	173.20
465.69	191.92
465.87	231.71
466.05	238.73
466.23	163.84
466.41	276.18
466.60	205.97
466.78	154.48
466.96	161.50
467.14	241.08
467.32	236.39
467.51	205.97
467.69	208.31
467.87	159.16
468.05	187.24
468.23	238.73
468.41	198.95
468.60	234.05
468.78	243.42
468.96	259.80
469.14	217.67
469.32	110.01
469.50	205.97
469.69	227.03
469.87	234.05
470.05	220.01
470.23	205.97
470.41	234.05
470.59	208.31
470.77	285.55
470.95	201.29
471.14	224.69
471.32	271.50
471.50	224.69
471.68	163.84
471.86	222.35
472.04	210.65
472.22	196.60
472.40	215.33
472.58	175.54
472.77	126.39
472.95	187.24
473.13	248.10
473.31	243.42
473.49	86.60
473.67	173.20
473.85	252.78
474.03	245.76
474.21	159.16
474.39	262.14
474.57	248.10
474.75	175.54
474.93	227.03
475.12	166.18
475.30	154.48
475.48	255.12
475.66	224.69
475.84	175.54
476.02	224.69
476.20	243.42
476.38	191.92
476.56	236.39
476.74	259.80
476.92	161.50
477.10	269.16
477.28	182.56
477.46	245.76
477.64	217.67
477.82	234.05
478.00	191.92
478.18	212.99
478.36	203.63
478.54	257.46
478.72	184.90
478.90	147.45
479.08	255.12
479.26	269.16
479.44	149.79
479.62	198.95
479.80	229.37
479.98	217.67
480.16	166.18
480.34	229.37
480.52	203.63
480.70	173.20
480.88	224.69
481.06	189.58
481.24	287.89
481.41	198.95
481.59	212.99
481.77	210.65
481.95	215.33
482.13	196.60
482.31	156.82
482.49	194.26
482.67	212.99
482.85	234.05
483.03	168.52
483.21	262.14
483.39	278.52
483.57	210.65
483.74	266.82
483.92	287.89
484.10	278.52
484.28	215.33
484.46	269.16
484.64	234.05
484.82	210.65
485.00	215.33
485.18	208.31
485.35	259.80
485.53	229.37
485.71	271.50
485.89	229.37
486.07	201.29
486.25	313.63
486.43	217.67
486.61	220.01
486.78	210.65
486.96	175.54
487.14	198.95
487.32	217.67
487.50	217.67
487.68	245.76
487.85	266.82
488.03	255.12
488.21	262.14
488.39	278.52
488.57	301.93
488.75	255.12
488.92	475.13
489.10	269.16
489.28	287.89
489.46	241.08
489.64	252.78
489.81	236.39
489.99	250.44
490.17	278.52
490.35	285.55
490.53	243.42
490.70	229.37
490.88	262.14
491.06	278.52
491.24	262.14
491.41	257.46
491.59	241.08
491.77	292.57
491.95	231.71
492.13	290.23
492.30	243.42
492.48	255.12
492.66	220.01
492.84	234.05
493.01	234.05
493.19	234.05
493.37	266.82
493.54	266.82
493.72	241.08
493.90	234.05
494.08	255.12
494.25	287.89
494.43	222.35
494.61	224.69
494.79	208.31
494.96	198.95
495.14	287.89
495.32	212.99
495.49	315.97
495.67	348.74
495.85	269.16
496.02	180.22
496.20	325.33
496.38	266.82
496.55	264.48
496.73	306.61
496.91	262.14
497.09	280.86
497.26	297.25
497.44	285.55
497.62	287.89
497.79	248.10
497.97	198.95
498.14	273.84
498.32	243.42
498.50	248.10
498.67	262.14
498.85	215.33
499.03	208.31
499.20	243.42
499.38	280.86
499.56	308.95
499.73	234.05
499.91	280.86
500.08	217.67
500.26	287.89
500.44	208.31
500.61	259.80
500.79	198.95
500.97	313.63
501.14	301.93
501.32	231.71
501.49	278.52
501.67	283.20
501.84	224.69
502.02	217.67
502.20	358.10
502.37	257.46
502.55	248.10
502.72	320.65
502.90	299.59
503.07	311.29
503.25	311.29
503.43	322.99
503.60	266.82
503.78	313.63
503.95	245.76
504.13	201.29
504.30	280.86
504.48	318.31
504.65	318.31
504.83	273.84
505.01	266.82
505.18	283.20
505.36	271.50
505.53	252.78
505.71	220.01
505.88	255.12
506.06	229.37
506.23	257.46
506.41	238.73
506.58	229.37
506.76	220.01
506.93	210.65
507.11	308.95
507.28	325.33
507.46	257.46
507.63	337.04
507.81	243.42
507.98	224.69
508.16	269.16
508.33	315.97
508.50	236.39
508.68	259.80
508.85	264.48
509.03	238.73
509.20	257.46
509.38	215.33
509.55	262.14
509.73	318.31
509.90	327.68
510.08	269.16
510.25	257.46
510.42	241.08
510.60	285.55
510.77	308.95
510.95	311.29
511.12	215.33
511.30	304.27
511.47	283.20
511.64	339.38
511.82	236.39
511.99	327.68
512.17	217.67
512.34	255.12
512.51	212.99
512.69	259.80
512.86	306.61
513.04	173.20
513.21	276.18
513.38	203.63
513.56	224.69
513.73	297.25
513.90	318.31
514.08	248.10
514.25	285.55
514.43	215.33
514.60	245.76
514.77	194.26
514.95	313.63
515.12	273.84
515.29	355.76
515.47	264.48
515.64	255.12
515.81	210.65
515.99	322.99
516.16	304.27
516.33	341.72
516.51	238.73
516.68	236.39
516.85	278.52
517.03	301.93
517.20	257.46
517.37	224.69
517.54	227.03
517.72	257.46
517.89	269.16
518.06	252.78
518.24	308.95
518.41	351.08
518.58	287.89
518.75	292.57
518.93	315.97
519.10	322.99
519.27	271.50
519.45	276.18
519.62	234.05
519.79	311.29
519.96	318.31
520.14	318.31
520.31	334.70
520.48	205.97
520.65	273.84
520.83	285.55
521.00	238.73
521.17	322.99
521.34	287.89
521.52	327.68
521.69	252.78
521.86	224.69
522.03	252.78
522.20	376.83
522.38	245.76
522.55	276.18
522.72	236.39
522.89	245.76
523.07	353.42
523.24	250.44
523.41	250.44
523.58	278.52
523.75	297.25
523.92	313.63
524.10	313.63
524.27	262.14
524.44	238.73
524.61	327.68
524.78	208.31
524.96	273.84
525.13	229.37
525.30	306.61
525.47	320.65
525.64	304.27
525.81	308.95
525.98	238.73
526.16	311.29
526.33	243.42
526.50	252.78
526.67	255.12
526.84	271.50
527.01	238.73
527.18	252.78
527.36	290.23
527.53	241.08
527.70	320.65
527.87	315.97
528.04	304.27
528.21	259.80
528.38	299.59
528.55	334.70
528.72	374.49
528.89	318.31
529.07	353.42
529.24	290.23
529.41	248.10
529.58	322.99
529.75	252.78
529.92	299.59
530.09	220.01
530.26	245.76
530.43	294.91
530.60	294.91
530.77	290.23
530.94	365.12
531.11	318.31
531.28	276.18
531.46	280.86
531.63	306.61
531.80	320.65
531.97	330.02
532.14	269.16
532.31	299.59
532.48	259.80
532.65	400.23
532.82	386.19
532.99	353.42
533.16	358.10
533.33	320.65
533.50	348.74
533.67	337.04
533.84	421.30
534.01	449.38
534.18	416.62
534.35	322.99
534.52	285.55
534.69	332.36
534.86	262.14
535.03	243.42
535.20	318.31
535.37	248.10
535.54	327.68
535.71	341.72
535.88	308.95
536.05	290.23
536.22	325.33
536.38	299.59
536.55	315.97
536.72	369.80
536.89	292.57
537.06	257.46
537.23	304.27
537.40	283.20
537.57	297.25
537.74	250.44
537.91	325.33
538.08	318.31
538.25	308.95
538.42	395.55
538.59	381.51
538.75	322.99
538.92	299.59
539.09	304.27
539.26	418.96
539.43	484.49
539.60	858.98
539.77	1308.36
539.94	1500.28
540.11	1027.50
540.28	763.01
540.44	514.92
540.61	435.34
540.78	454.06
540.95	428.32
541.12	503.22
541.29	524.28
541.46	538.32
541.62	535.98
541.79	468.11
541.96	489.17
542.13	475.13
542.30	496.19
542.47	514.92
542.63	477.47
542.80	444.70
542.97	484.49
543.14	482.15
543.31	491.51
543.48	484.49
543.64	468.11
543.81	482.15
543.98	435.34
544.15	505.56
544.32	514.92
544.48	461.09
544.65	383.85
544.82	374.49
544.99	418.96
545.16	407.25
545.32	545.34
545.49	664.71
545.66	837.91
545.83	896.43
546.00	723.23
546.16	683.44
546.33	559.39
546.50	479.81
546.67	461.09
546.83	365.12
547.00	367.46
547.17	409.59
547.34	379.17
547.50	367.46
547.67	491.51
547.84	344.06
548.00	365.12
548.17	372.15
548.34	411.93
548.51	332.36
548.67	395.55
548.84	383.85
549.01	341.72
549.18	339.38
549.34	348.74
549.51	304.27
549.68	418.96
549.84	283.20
550.01	311.29
550.18	465.77
550.34	341.72
550.51	360.44
550.68	355.76
550.84	353.42
551.01	348.74
551.18	348.74
551.34	395.55
551.51	245.76
551.68	334.70
551.84	355.76
552.01	334.70
552.18	325.33
552.34	322.99
552.51	308.95
552.68	306.61
552.84	276.18
553.01	325.33
553.18	355.76
553.34	234.05
553.51	271.50
553.67	381.51
553.84	322.99
554.01	339.38
554.17	285.55
554.34	402.57
554.51	262.14
554.67	320.65
554.84	402.57
555.00	301.93
555.17	290.23
555.33	320.65
555.50	278.52
555.67	259.80
555.83	292.57
556.00	269.16
556.16	496.19
556.33	353.42
556.50	322.99
556.66	264.48
556.83	292.57
556.99	273.84
557.16	369.80
557.32	292.57
557.49	322.99
557.65	381.51
557.82	301.93
557.98	283.20
558.15	330.02
558.32	245.76
558.48	290.23
558.65	304.27
558.81	229.37
558.98	224.69
559.14	262.14
559.31	205.97
559.47	315.97
559.64	304.27
559.80	271.50
559.97	194.26
560.13	301.93
560.30	280.86
560.46	262.14
560.63	280.86
560.79	245.76
560.96	217.67
561.12	285.55
561.29	238.73
561.45	245.76
561.61	290.23
561.78	276.18
561.94	269.16
562.11	245.76
562.27	294.91
562.44	294.91
562.60	245.76
562.77	222.35
562.93	355.76
563.10	292.57
563.26	180.22
563.42	308.95
563.59	236.39
563.75	299.59
563.92	259.80
564.08	212.99
564.24	325.33
564.41	322.99
564.57	201.29
564.74	280.86
564.90	257.46
565.07	285.55
565.23	313.63
565.39	294.91
565.56	301.93
565.72	250.44
565.88	290.23
566.05	262.14
566.21	276.18
566.38	283.20
566.54	241.08
566.70	241.08
566.87	280.86
567.03	252.78
567.19	241.08
567.36	217.67
567.52	243.42
567.68	271.50
567.85	348.74
568.01	231.71
568.17	257.46
568.34	210.65
568.50	266.82
568.66	255.12
568.83	407.25
568.99	248.10
569.15	250.44
569.32	264.48
569.48	311.29
569.64	290.23
569.81	222.35
569.97	215.33
570.13	304.27
570.30	255.12
570.46	276.18
570.62	273.84
570.78	217.67
570.95	259.80
571.11	330.02
571.27	330.02
571.43	276.18
571.60	276.18
571.76	311.29
571.92	308.95
572.09	227.03
572.25	238.73
572.41	271.50
572.57	285.55
572.74	322.99
572.90	283.20
573.06	252.78
573.22	271.50
573.38	227.03
573.55	285.55
573.71	322.99
573.87	334.70
574.03	264.48
574.20	325.33
574.36	330.02
574.52	306.61
574.68	409.59
574.84	374.49
575.01	262.14
575.17	292.57
575.33	250.44
575.49	351.08
575.65	348.74
575.82	395.55
575.98	493.85
576.14	631.94
576.30	688.12
576.46	671.73
576.62	575.77
576.79	535.98
576.95	482.15
577.11	388.53
577.27	353.42
577.43	330.02
577.59	313.63
577.75	262.14
577.92	297.25
578.08	259.80
578.24	306.61
578.40	390.87
578.56	355.76
578.72	379.17
578.88	383.85
579.04	292.57
579.21	278.52
579.37	348.74
579.53	285.55
579.69	369.80
579.85	360.44
580.01	322.99
580.17	367.46
580.33	320.65
580.49	409.59
580.65	418.96
580.82	388.53
580.98	409.59
581.14	369.80
581.30	440.02
581.46	451.72
581.62	510.24
581.78	585.13
581.94	589.82
582.10	451.72
582.26	521.94
582.42	475.13
582.58	484.49
582.74	442.36
582.90	475.13
583.06	465.77
583.22	479.81
583.38	503.22
583.54	386.19
583.70	535.98
583.86	617.90
584.02	664.71
584.18	863.66
584.34	1095.37
584.50	2125.21
584.66	13949.59
584.82	42000.91
584.98	60060.49
585.14	60079.21
585.30	43161.82
585.46	24161.35
585.62	15082.41
585.78	6871.81
585.94	2862.48
586.10	1551.78
586.26	950.26
586.42	800.46
586.58	643.65
586.74	667.05
586.90	535.98
587.06	638.97
587.22	592.16
587.38	594.50
587.54	917.49
587.70	2497.35
587.86	4458.72
588.02	5865.38
588.18	4091.26
588.34	2396.71
588.49	1563.48
588.65	1111.75
588.81	613.22
588.97	372.15
589.13	390.87
589.29	306.61
589.45	430.66
589.61	418.96
589.77	414.27
589.93	390.87
590.08	489.17
590.24	491.51
590.40	400.23
590.56	477.47
590.72	372.15
590.88	421.30
591.04	362.78
591.20	376.83
591.35	372.15
591.51	362.78
591.67	318.31
591.83	322.99
591.99	341.72
592.15	388.53
592.31	454.06
592.46	388.53
592.62	395.55
592.78	372.15
592.94	395.55
593.10	353.42
593.26	418.96
593.41	404.91
593.57	463.43
593.73	440.02
593.89	1820.94
594.05	5055.56
594.20	8875.31
594.36	9724.93
594.52	6012.84
594.68	3676.98
594.84	2480.97
594.99	1420.71
595.15	641.31
595.31	514.92
595.47	355.76
595.62	330.02
595.78	299.59
595.94	362.78
596.10	388.53
596.25	374.49
596.41	330.02
596.57	315.97
596.73	330.02
596.88	482.15
597.04	1022.81
597.20	1844.34
597.36	2523.10
597.51	1865.41
597.67	1207.72
597.83	837.91
597.99	606.20
598.14	461.09
598.30	440.02
598.46	388.53
598.61	456.40
598.77	330.02
598.93	397.89
599.09	318.31
599.24	376.83
599.40	285.55
599.56	362.78
599.71	402.57
599.87	344.06
600.03	327.68
600.18	318.31
600.34	327.68
600.50	339.38
600.65	292.57
600.81	351.08
600.97	269.16
601.12	290.23
601.28	313.63
601.44	280.86
601.59	351.08
601.75	299.59
601.91	325.33
602.06	259.80
602.22	409.59
602.37	606.20
602.53	1231.12
602.69	2239.89
602.84	2698.64
603.00	1851.36
603.16	1289.64
603.31	983.02
603.47	610.88
603.62	440.02
603.78	322.99
603.94	381.51
604.09	292.57
604.25	304.27
604.40	250.44
604.56	248.10
604.71	276.18
604.87	278.52
605.03	245.76
605.18	334.70
605.34	353.42
605.49	404.91
605.65	428.32
605.80	341.72
605.96	280.86
606.12	311.29
606.27	327.68
606.43	315.97
606.58	404.91
606.74	716.20
606.89	2331.17
607.05	5280.25
607.20	8135.70
607.36	6888.20
607.51	4524.26
607.67	2839.07
607.82	1982.43
607.98	1188.99
608.13	692.80
608.29	554.71
608.44	552.37
608.60	545.34
608.75	571.09
608.91	957.28
609.06	3375.05
609.22	8367.42
609.37	14075.98
609.53	13011.04
609.68	8435.29
609.84	5217.05
609.99	3616.13
610.15	2157.97
