SpectraSuite Data File
++++++++++++++++++++++++++++++++++++
Date: Fri Oct 04 12:13:33 GMT-05:00 2013
User: price-jones
Dark Spectrum Present: No
Reference Spectrum Present: No
Number of Sampled Component Spectra: 1
Spectrometers: USB2+H05261
Integration Time (usec): 10000 (USB2+H05261)
Spectra Averaged: 1 (USB2+H05261)
Boxcar Smoothing: 0 (USB2+H05261)
Correct for Electrical Dark: No (USB2+H05261)
Strobe/Lamp Enabled: No (USB2+H05261)
Correct for Detector Non-linearity: No (USB2+H05261)
Correct for Stray Light: No (USB2+H05261)
Number of Pixels in Processed Spectrum: 2048
>>>>>Begin Processed Spectral Data<<<<<
365.73	14.04
365.92	14.04
366.12	14.04
366.32	0.00
366.52	0.00
366.72	0.00
366.91	0.00
367.11	0.00
367.31	0.00
367.51	0.00
367.70	0.00
367.90	0.00
368.10	0.00
368.30	0.00
368.49	0.00
368.69	0.00
368.89	0.00
369.09	0.00
369.28	0.00
369.48	0.00
369.68	0.00
369.87	0.00
370.07	0.00
370.27	0.00
370.47	0.00
370.66	23.41
370.86	0.00
371.06	58.51
371.25	117.03
371.45	107.66
371.65	161.50
371.84	30.43
372.04	98.30
372.24	147.45
372.44	142.77
372.63	147.45
372.83	142.77
373.03	67.88
373.22	86.60
373.42	140.43
373.62	124.05
373.81	189.58
374.01	107.66
374.21	135.75
374.40	133.41
374.60	95.96
374.79	152.13
374.99	135.75
375.19	147.45
375.38	248.10
375.58	142.77
375.78	173.20
375.97	191.92
376.17	205.97
376.37	124.05
376.56	173.20
376.76	128.73
376.95	182.56
377.15	152.13
377.35	170.86
377.54	222.35
377.74	187.24
377.93	152.13
378.13	243.42
378.33	250.44
378.52	124.05
378.72	241.08
378.91	236.39
379.11	133.41
379.31	191.92
379.50	119.37
379.70	224.69
379.89	222.35
380.09	205.97
380.28	215.33
380.48	184.90
380.68	187.24
380.87	152.13
381.07	149.79
381.26	138.09
381.46	138.09
381.65	154.48
381.85	140.43
382.04	131.07
382.24	117.03
382.43	88.94
382.63	95.96
382.83	220.01
383.02	117.03
383.22	126.39
383.41	154.48
383.61	152.13
383.80	177.88
384.00	231.71
384.19	198.95
384.39	231.71
384.58	266.82
384.78	196.60
384.97	166.18
385.17	166.18
385.36	131.07
385.56	191.92
385.75	88.94
385.95	205.97
386.14	278.52
386.34	198.95
386.53	163.84
386.72	191.92
386.92	191.92
387.11	238.73
387.31	208.31
387.50	271.50
387.70	161.50
387.89	147.45
388.09	201.29
388.28	168.52
388.48	163.84
388.67	231.71
388.86	222.35
389.06	234.05
389.25	262.14
389.45	241.08
389.64	229.37
389.84	285.55
390.03	180.22
390.22	304.27
390.42	262.14
390.61	229.37
390.81	334.70
391.00	224.69
391.19	241.08
391.39	276.18
391.58	278.52
391.78	203.63
391.97	220.01
392.16	283.20
392.36	210.65
392.55	257.46
392.75	166.18
392.94	133.41
393.13	124.05
393.33	121.71
393.52	191.92
393.71	201.29
393.91	191.92
394.10	205.97
394.29	266.82
394.49	337.04
394.68	238.73
394.88	259.80
395.07	294.91
395.26	180.22
395.46	285.55
395.65	322.99
395.84	236.39
396.04	205.97
396.23	166.18
396.42	124.05
396.62	128.73
396.81	229.37
397.00	201.29
397.19	248.10
397.39	276.18
397.58	311.29
397.77	365.12
397.97	397.89
398.16	353.42
398.35	386.19
398.55	383.85
398.74	425.98
398.93	379.17
399.12	423.64
399.32	388.53
399.51	369.80
399.70	367.46
399.90	449.38
400.09	367.46
400.28	489.17
400.47	440.02
400.67	374.49
400.86	449.38
401.05	365.12
401.24	437.68
401.44	400.23
401.63	430.66
401.82	507.90
402.01	390.87
402.21	393.21
402.40	447.04
402.59	517.26
402.78	365.12
402.97	409.59
403.17	425.98
403.36	442.36
403.55	526.62
403.74	517.26
403.93	444.70
404.13	456.40
404.32	416.62
404.51	341.72
404.70	449.38
404.89	442.36
405.09	482.15
405.28	472.79
405.47	475.13
405.66	362.78
405.85	433.00
406.05	315.97
406.24	414.27
406.43	390.87
406.62	454.06
406.81	425.98
407.00	552.37
407.20	512.58
407.39	404.91
407.58	440.02
407.77	430.66
407.96	463.43
408.15	482.15
408.34	475.13
408.54	489.17
408.73	484.49
408.92	507.90
409.11	465.77
409.30	505.56
409.49	418.96
409.68	500.87
409.87	463.43
410.07	433.00
410.26	458.74
410.45	428.32
410.64	479.81
410.83	472.79
411.02	547.69
411.21	486.83
411.40	519.60
411.59	505.56
411.78	510.24
411.98	472.79
412.17	524.28
412.36	433.00
412.55	486.83
412.74	484.49
412.93	533.64
413.12	479.81
413.31	592.16
413.50	596.84
413.69	498.53
413.88	531.30
414.07	496.19
414.26	507.90
414.45	486.83
414.64	550.03
414.83	550.03
415.02	491.51
415.22	573.43
415.41	582.79
415.60	582.79
415.79	592.16
415.98	535.98
416.17	573.43
416.36	603.86
416.55	482.15
416.74	484.49
416.93	505.56
417.12	554.71
417.31	559.39
417.50	496.19
417.69	507.90
417.88	641.31
418.07	521.94
418.26	545.34
418.45	575.77
418.64	608.54
418.83	601.52
419.02	599.18
419.21	564.07
419.39	594.50
419.58	589.82
419.77	580.45
419.96	486.83
420.15	496.19
420.34	552.37
420.53	732.59
420.72	643.65
420.91	610.88
421.10	615.56
421.29	641.31
421.48	526.62
421.67	585.13
421.86	648.33
422.05	498.53
422.24	475.13
422.43	503.22
422.61	505.56
422.80	608.54
422.99	629.60
423.18	634.29
423.37	629.60
423.56	514.92
423.75	458.74
423.94	550.03
424.13	589.82
424.32	573.43
424.50	615.56
424.69	547.69
424.88	543.00
425.07	580.45
425.26	496.19
425.45	557.05
425.64	503.22
425.83	566.41
426.01	585.13
426.20	538.32
426.39	636.63
426.58	557.05
426.77	613.22
426.96	514.92
427.15	512.58
427.33	547.69
427.52	608.54
427.71	599.18
427.90	582.79
428.09	573.43
428.28	561.73
428.46	594.50
428.65	566.41
428.84	545.34
429.03	566.41
429.22	428.32
429.40	454.06
429.59	475.13
429.78	383.85
429.97	411.93
430.16	416.62
430.34	355.76
430.53	397.89
430.72	390.87
430.91	404.91
431.10	484.49
431.28	535.98
431.47	643.65
431.66	699.82
431.85	599.18
432.03	463.43
432.22	528.96
432.41	531.30
432.60	575.77
432.79	606.20
432.97	645.99
433.16	699.82
433.35	540.66
433.54	540.66
433.72	496.19
433.91	500.87
434.10	526.62
434.28	585.13
434.47	613.22
434.66	592.16
434.85	681.10
435.03	531.30
435.22	617.90
435.41	681.10
435.59	575.77
435.78	716.20
435.97	727.91
436.16	634.29
436.34	664.71
436.53	667.05
436.72	723.23
436.90	653.01
437.09	564.07
437.28	615.56
437.46	641.31
437.65	608.54
437.84	624.92
438.02	592.16
438.21	603.86
438.40	587.47
438.58	645.99
438.77	622.58
438.96	610.88
439.14	641.31
439.33	629.60
439.52	660.03
439.70	631.94
439.89	732.59
440.08	578.11
440.26	636.63
440.45	660.03
440.63	718.54
440.82	662.37
441.01	692.80
441.19	793.44
441.38	737.27
441.57	763.01
441.75	753.65
441.94	819.19
442.12	795.78
442.31	718.54
442.50	741.95
442.68	692.80
442.87	746.63
443.05	772.38
443.24	758.33
443.43	699.82
443.61	835.57
443.80	781.74
443.98	798.12
444.17	699.82
444.35	741.95
444.54	772.38
444.73	702.16
444.91	767.70
445.10	765.36
445.28	709.18
445.47	730.25
445.65	674.07
445.84	774.72
446.02	699.82
446.21	784.08
446.39	809.83
446.58	716.20
446.77	767.70
446.95	765.36
447.14	786.42
447.32	800.46
447.51	791.10
447.69	823.87
447.88	753.65
448.06	812.17
448.25	777.06
448.43	837.91
448.62	760.67
448.80	753.65
448.99	753.65
449.17	767.70
449.36	877.70
449.54	861.32
449.73	842.59
449.91	910.47
450.10	884.72
450.28	866.00
450.46	821.53
450.65	896.43
450.83	861.32
451.02	915.15
451.20	814.51
451.39	851.96
451.57	880.04
451.76	791.10
451.94	774.72
452.13	847.27
452.31	784.08
452.49	812.17
452.68	763.01
452.86	713.86
453.05	767.70
453.23	821.53
453.42	725.57
453.60	812.17
453.78	833.23
453.97	870.68
454.15	821.53
454.34	812.17
454.52	840.25
454.70	816.85
454.89	772.38
455.07	779.40
455.26	858.98
455.44	748.97
455.62	821.53
455.81	830.89
455.99	826.21
456.17	870.68
456.36	741.95
456.54	798.12
456.73	889.40
456.91	873.02
457.09	933.87
457.28	957.28
457.46	868.34
457.64	936.21
457.83	753.65
458.01	765.36
458.19	821.53
458.38	821.53
458.56	784.08
458.74	891.74
458.93	861.32
459.11	828.55
459.29	851.96
459.48	814.51
459.66	847.27
459.84	800.46
460.03	910.47
460.21	774.72
460.39	802.80
460.57	863.66
460.76	903.45
460.94	856.64
461.12	840.25
461.31	856.64
461.49	908.13
461.67	887.06
461.85	842.59
462.04	866.00
462.22	1004.09
462.40	919.83
462.59	875.36
462.77	851.96
462.95	887.06
463.13	866.00
463.32	887.06
463.50	926.85
463.68	901.11
463.86	903.45
464.05	880.04
464.23	849.61
464.41	905.79
464.59	863.66
464.78	856.64
464.96	973.66
465.14	861.32
465.32	840.25
465.50	880.04
465.69	933.87
465.87	919.83
466.05	779.40
466.23	819.19
466.41	786.42
466.60	833.23
466.78	826.21
466.96	866.00
467.14	873.02
467.32	842.59
467.51	880.04
467.69	837.91
467.87	819.19
468.05	910.47
468.23	821.53
468.41	840.25
468.60	884.72
468.78	882.38
468.96	837.91
469.14	915.15
469.32	861.32
469.50	842.59
469.69	814.51
469.87	791.10
470.05	788.76
470.23	779.40
470.41	793.44
470.59	887.06
470.77	931.53
470.95	844.93
471.14	844.93
471.32	833.23
471.50	940.90
471.68	961.96
471.86	929.19
472.04	922.17
472.22	1039.20
472.40	978.34
472.58	858.98
472.77	945.58
472.95	884.72
473.13	898.77
473.31	924.51
473.49	882.38
473.67	849.61
473.85	891.74
474.03	938.55
474.21	957.28
474.39	938.55
474.57	858.98
474.75	922.17
474.93	875.36
475.12	868.34
475.30	964.30
475.48	938.55
475.66	929.19
475.84	961.96
476.02	926.85
476.20	884.72
476.38	961.96
476.56	943.24
476.74	959.62
476.92	971.32
477.10	990.05
477.28	971.32
477.46	957.28
477.64	1032.18
477.82	1011.11
478.00	1114.10
478.18	1029.84
478.36	1071.97
478.54	1048.56
478.72	1039.20
478.90	1142.18
479.08	1043.88
479.26	1020.47
479.44	1228.78
479.62	1036.86
479.80	1097.71
479.98	1090.69
480.16	1025.15
480.34	997.07
480.52	1064.94
480.70	1018.13
480.88	1109.41
481.06	1008.77
481.24	1151.54
481.41	1170.27
481.59	1156.22
481.77	1184.31
481.95	1203.04
482.13	1088.35
482.31	1151.54
482.49	1172.61
482.67	1149.20
482.85	1174.95
483.03	1224.10
483.21	1200.69
483.39	1172.61
483.57	1245.16
483.74	1060.26
483.92	1177.29
484.10	1200.69
484.28	1142.18
484.46	1228.78
484.64	1235.80
484.82	1200.69
485.00	1198.35
485.18	1179.63
485.35	1139.84
485.53	1053.24
485.71	910.47
485.89	947.92
486.07	931.53
486.25	1111.75
486.43	1111.75
486.61	1160.91
486.78	1181.97
486.96	1165.59
487.14	1186.65
487.32	1268.57
487.50	1270.91
487.68	1160.91
487.85	1259.21
488.03	1254.53
488.21	1394.96
488.39	1261.55
488.57	1149.20
488.75	1177.29
488.92	1174.95
489.10	1327.08
489.28	1399.64
489.46	1409.00
489.64	1364.53
489.81	1483.90
489.99	1465.18
490.17	1472.20
490.35	1404.32
490.53	1359.85
490.70	1411.34
490.88	1437.09
491.06	1523.69
491.24	1378.58
491.41	1397.30
491.59	1404.32
491.77	1289.64
491.95	1378.58
492.13	1413.68
492.30	1537.73
492.48	1376.24
492.66	1533.05
492.84	1474.54
493.01	1493.26
493.19	1497.94
493.37	1497.94
493.54	1352.83
493.72	1462.83
493.90	1537.73
494.08	1502.62
494.25	1544.75
494.43	1490.92
494.61	1551.78
494.79	1575.18
494.96	1666.46
495.14	1497.94
495.32	1486.24
495.49	1474.54
495.67	1584.54
495.85	1636.03
496.02	1743.70
496.20	1558.80
496.38	1603.27
496.55	1645.40
496.73	1589.22
496.91	1661.78
497.09	1650.08
497.26	1729.66
497.44	1675.82
497.62	1589.22
497.79	1472.20
497.97	1519.01
498.14	1526.03
498.32	1675.82
498.50	1547.09
498.67	1645.40
498.85	1659.44
499.03	1689.87
499.20	1659.44
499.38	1757.74
499.56	1685.19
499.73	1523.69
499.91	1596.25
500.08	1617.31
500.26	1526.03
500.44	1561.14
500.61	1507.30
500.79	1631.35
500.97	1579.86
501.14	1568.16
501.32	1507.30
501.49	1563.48
501.67	1490.92
501.84	1621.99
502.02	1544.75
502.20	1626.67
502.37	1668.80
502.55	1650.08
502.72	1713.27
502.90	1673.48
503.07	1703.91
503.25	1554.12
503.43	1537.73
503.60	1481.56
503.78	1502.62
503.95	1500.28
504.13	1584.54
504.30	1652.42
504.48	1652.42
504.65	1582.20
504.83	1657.10
505.01	1692.21
505.18	1734.34
505.36	1750.72
505.53	1727.32
505.71	1764.76
505.88	1605.61
506.06	1816.26
506.23	1692.21
506.41	1692.21
506.58	1689.87
506.76	1589.22
506.93	1689.87
507.11	1633.69
507.28	1607.95
507.46	1645.40
507.63	1563.48
507.81	1678.16
507.98	1708.59
508.16	1682.85
508.33	1535.39
508.50	1671.14
508.68	1666.46
508.85	1724.97
509.03	1774.13
509.20	1837.32
509.38	1701.57
509.55	1668.80
509.73	1589.22
509.90	1647.74
510.08	1666.46
510.25	1746.04
510.42	1689.87
510.60	1561.14
510.77	1713.27
510.95	1741.36
511.12	1764.76
511.30	1764.76
511.47	1830.30
511.64	1734.34
511.82	1783.49
511.99	1743.70
512.17	1696.89
512.34	1699.23
512.51	1666.46
512.69	1654.76
512.86	1741.36
513.04	1727.32
513.21	1746.04
513.38	1682.85
513.56	1680.50
513.73	1694.55
513.90	1706.25
514.08	1650.08
514.25	1624.33
514.43	1701.57
514.60	1715.61
514.77	1696.89
514.95	1748.38
515.12	1771.79
515.29	1680.50
515.47	1699.23
515.64	1762.42
515.81	1657.10
515.99	1685.19
516.16	1561.14
516.33	1556.46
516.51	1458.15
516.68	1329.42
516.85	1486.24
517.03	1432.41
517.20	1556.46
517.37	1680.50
517.54	1692.21
517.72	1575.18
517.89	1488.58
518.06	1469.86
518.24	1483.90
518.41	1572.84
518.58	1722.63
518.75	1561.14
518.93	1689.87
519.10	1699.23
519.27	1589.22
519.45	1717.95
519.62	1659.44
519.79	1668.80
519.96	1748.38
520.14	1643.06
520.31	1596.25
520.48	1664.12
520.65	1549.43
520.83	1689.87
521.00	1741.36
521.17	1692.21
521.34	1673.48
521.52	1717.95
521.69	1619.65
521.86	1795.19
522.03	1809.23
522.20	1820.94
522.38	1617.31
522.55	1598.59
522.72	1591.56
522.89	1664.12
523.07	1722.63
523.24	1727.32
523.41	1739.02
523.58	1797.53
523.75	1898.17
523.92	1710.93
524.10	1753.06
524.27	1748.38
524.44	1804.55
524.61	1734.34
524.78	1760.08
524.96	1856.04
525.13	1935.62
525.30	1799.87
525.47	1753.06
525.64	1792.85
525.81	1727.32
525.98	1629.01
526.16	1668.80
526.33	1486.24
526.50	1629.01
526.67	1507.30
526.84	1570.50
527.01	1591.56
527.18	1621.99
527.36	1652.42
527.53	1703.91
527.70	1844.34
527.87	1736.68
528.04	1626.67
528.21	1760.08
528.38	1762.42
528.55	1804.55
528.72	1832.64
528.89	1856.04
529.07	1886.47
529.24	1792.85
529.41	1813.92
529.58	1783.49
529.75	1682.85
529.92	1666.46
530.09	1680.50
530.26	1837.32
530.43	1867.75
530.60	1713.27
530.77	1888.81
530.94	1760.08
531.11	1846.68
531.28	1762.42
531.46	1795.19
531.63	1797.53
531.80	1734.34
531.97	1732.00
532.14	1673.48
532.31	1577.52
532.48	1701.57
532.65	1600.93
532.82	1668.80
532.99	1720.29
533.16	1795.19
533.33	1764.76
533.50	1792.85
533.67	1767.10
533.84	1727.32
534.01	1797.53
534.18	1785.83
534.35	1654.76
534.52	1792.85
534.69	1797.53
534.86	1722.63
535.03	1844.34
535.20	1797.53
535.37	1818.60
535.54	1959.03
535.71	1863.07
535.88	1776.47
536.05	1778.81
536.22	1755.40
536.38	1724.97
536.55	1600.93
536.72	1640.72
536.89	1621.99
537.06	1640.72
537.23	1783.49
537.40	1799.87
537.57	1827.96
537.74	1802.21
537.91	1795.19
538.08	1811.57
538.25	1776.47
538.42	1795.19
538.59	1785.83
538.75	1650.08
538.92	1769.44
539.09	1722.63
539.26	1678.16
539.43	1671.14
539.60	1687.53
539.77	1708.59
539.94	1771.79
540.11	1645.40
540.28	1617.31
540.44	1652.42
540.61	1533.05
540.78	1652.42
540.95	1666.46
541.12	1544.75
541.29	1598.59
541.46	1673.48
541.62	1678.16
541.79	1699.23
541.96	1680.50
542.13	1668.80
542.30	1696.89
542.47	1715.61
542.63	1732.00
542.80	1767.10
542.97	1750.72
543.14	1671.14
543.31	1664.12
543.48	1586.88
543.64	1708.59
543.81	1818.60
543.98	1830.30
544.15	1776.47
544.32	1633.69
544.48	1666.46
544.65	1732.00
544.82	1710.93
544.99	1804.55
545.16	1607.95
545.32	1626.67
545.49	1706.25
545.66	1762.42
545.83	1671.14
546.00	1666.46
546.16	1657.10
546.33	1629.01
546.50	1741.36
546.67	1783.49
546.83	1736.68
547.00	1647.74
547.17	1598.59
547.34	1668.80
547.50	1582.20
547.67	1659.44
547.84	1551.78
548.00	1724.97
548.17	1727.32
548.34	1710.93
548.51	1680.50
548.67	1535.39
548.84	1778.81
549.01	1619.65
549.18	1734.34
549.34	1526.03
549.51	1680.50
549.68	1732.00
549.84	1664.12
550.01	1764.76
550.18	1715.61
550.34	1593.90
550.51	1720.29
550.68	1652.42
550.84	1755.40
551.01	1617.31
551.18	1593.90
551.34	1685.19
551.51	1673.48
551.68	1631.35
551.84	1668.80
552.01	1675.82
552.18	1689.87
552.34	1652.42
552.51	1526.03
552.68	1689.87
552.84	1455.81
553.01	1685.19
553.18	1600.93
553.34	1682.85
553.51	1528.37
553.67	1666.46
553.84	1724.97
554.01	1626.67
554.17	1675.82
554.34	1743.70
554.51	1743.70
554.67	1678.16
554.84	1797.53
555.00	1724.97
555.17	1708.59
555.33	1696.89
555.50	1610.29
555.67	1715.61
555.83	1671.14
556.00	1638.38
556.16	1654.76
556.33	1643.06
556.50	1589.22
556.66	1617.31
556.83	1558.80
556.99	1650.08
557.16	1703.91
557.32	1689.87
557.49	1689.87
557.65	1579.86
557.82	1598.59
557.98	1589.22
558.15	1638.38
558.32	1600.93
558.48	1504.96
558.65	1533.05
558.81	1586.88
558.98	1572.84
559.14	1509.65
559.31	1544.75
559.47	1472.20
559.64	1586.88
559.80	1582.20
559.97	1521.35
560.13	1619.65
560.30	1600.93
560.46	1673.48
560.63	1659.44
560.79	1764.76
560.96	1600.93
561.12	1570.50
561.29	1558.80
561.45	1572.84
561.61	1511.99
561.78	1582.20
561.94	1493.26
562.11	1568.16
562.27	1563.48
562.44	1621.99
562.60	1556.46
562.77	1533.05
562.93	1575.18
563.10	1696.89
563.26	1575.18
563.42	1647.74
563.59	1563.48
563.75	1626.67
563.92	1586.88
564.08	1586.88
564.24	1575.18
564.41	1582.20
564.57	1558.80
564.74	1579.86
564.90	1596.25
565.07	1565.82
565.23	1495.60
565.39	1378.58
565.56	1495.60
565.72	1469.86
565.88	1509.65
566.05	1490.92
566.21	1533.05
566.38	1593.90
566.54	1547.09
566.70	1554.12
566.87	1591.56
567.03	1437.09
567.19	1540.07
567.36	1568.16
567.52	1537.73
567.68	1469.86
567.85	1366.87
568.01	1458.15
568.17	1441.77
568.34	1394.96
568.50	1364.53
568.66	1359.85
568.83	1418.36
568.99	1493.26
569.15	1327.08
569.32	1476.88
569.48	1390.28
569.64	1423.05
569.81	1420.71
569.97	1366.87
570.13	1530.71
570.30	1362.19
570.46	1453.47
570.62	1355.17
570.78	1362.19
570.95	1334.11
571.11	1493.26
571.27	1385.60
571.43	1397.30
571.60	1427.73
571.76	1427.73
571.92	1476.88
572.09	1406.66
572.25	1497.94
572.41	1425.39
572.57	1404.32
572.74	1413.68
572.90	1427.73
573.06	1521.35
573.22	1420.71
573.38	1390.28
573.55	1376.24
573.71	1411.34
573.87	1511.99
574.03	1451.13
574.20	1315.38
574.36	1514.33
574.52	1387.94
574.68	1483.90
574.84	1357.51
575.01	1329.42
575.17	1294.32
575.33	1327.08
575.49	1268.57
575.65	1448.79
575.82	1430.07
575.98	1413.68
576.14	1299.00
576.30	1397.30
576.46	1465.18
576.62	1406.66
576.79	1366.87
576.95	1369.21
577.11	1331.76
577.27	1350.49
577.43	1329.42
577.59	1348.15
577.75	1387.94
577.92	1263.89
578.08	1364.53
578.24	1373.89
578.40	1404.32
578.56	1355.17
578.72	1387.94
578.88	1399.64
579.04	1357.51
579.21	1334.11
579.37	1345.81
579.53	1371.55
579.69	1399.64
579.85	1392.62
580.01	1334.11
580.17	1306.02
580.33	1306.02
580.49	1341.13
580.65	1378.58
580.82	1369.21
580.98	1406.66
581.14	1416.02
581.30	1343.47
581.46	1343.47
581.62	1364.53
581.78	1303.68
581.94	1376.24
582.10	1376.24
582.26	1390.28
582.42	1348.15
582.58	1385.60
582.74	1394.96
582.90	1306.02
583.06	1493.26
583.22	1416.02
583.38	1390.28
583.54	1317.72
583.70	1341.13
583.86	1352.83
584.02	1362.19
584.18	1427.73
584.34	1331.76
584.50	1371.55
584.66	1387.94
584.82	1294.32
584.98	1373.89
585.14	1427.73
585.30	1371.55
585.46	1259.21
585.62	1249.85
585.78	1364.53
585.94	1273.25
586.10	1336.45
586.26	1294.32
586.42	1266.23
586.58	1336.45
586.74	1397.30
586.90	1299.00
587.06	1378.58
587.22	1327.08
587.38	1287.29
587.54	1256.87
587.70	1284.95
587.86	1296.66
588.02	1210.06
588.18	1214.74
588.34	1130.48
588.49	1011.11
588.65	1083.67
588.81	1048.56
588.97	915.15
589.13	985.37
589.29	940.90
589.45	957.28
589.61	1057.92
589.77	1060.26
589.93	1069.62
590.08	1097.71
590.24	1114.10
590.40	1186.65
590.56	1299.00
590.72	997.07
590.88	1163.25
591.04	1107.07
591.20	1034.52
591.35	1067.28
591.51	1156.22
591.67	1167.93
591.83	1086.01
591.99	1043.88
592.15	1074.31
592.31	1076.65
592.46	1137.50
592.62	1137.50
592.78	1196.01
592.94	1165.59
593.10	1172.61
593.26	1217.08
593.41	1301.34
593.57	1160.91
593.73	1181.97
593.89	1095.37
594.05	1069.62
594.20	1132.82
594.36	1109.41
594.52	922.17
594.68	1081.33
594.84	1149.20
594.99	1167.93
595.15	1249.85
595.31	1132.82
595.47	1186.65
595.62	1219.42
595.78	1259.21
595.94	1191.33
596.10	1219.42
596.25	1172.61
596.41	1238.14
596.57	1004.09
596.73	1104.73
596.88	1125.80
597.04	1118.78
597.20	1130.48
597.36	1123.46
597.51	1078.99
597.67	1057.92
597.83	1214.74
597.99	1060.26
598.14	1263.89
598.30	1198.35
598.46	1212.40
598.61	1219.42
598.77	1160.91
598.93	1139.84
599.09	1191.33
599.24	1207.72
599.40	1224.10
599.56	1240.48
599.71	1233.46
599.87	1207.72
600.03	1081.33
600.18	1170.27
600.34	1167.93
600.50	1188.99
600.65	1259.21
600.81	1217.08
600.97	1184.31
601.12	1156.22
601.28	1121.12
601.44	1214.74
601.59	1123.46
601.75	1163.25
601.91	1196.01
602.06	1172.61
602.22	1170.27
602.37	1200.69
602.53	1238.14
602.69	1191.33
