SpectraSuite Data File
++++++++++++++++++++++++++++++++++++
Date: Fri Oct 04 11:33:49 GMT-05:00 2013
User: price-jones
Dark Spectrum Present: No
Reference Spectrum Present: No
Number of Sampled Component Spectra: 1
Spectrometers: USB2+H05261
Integration Time (usec): 100000 (USB2+H05261)
Spectra Averaged: 1 (USB2+H05261)
Boxcar Smoothing: 0 (USB2+H05261)
Correct for Electrical Dark: No (USB2+H05261)
Strobe/Lamp Enabled: No (USB2+H05261)
Correct for Detector Non-linearity: No (USB2+H05261)
Correct for Stray Light: No (USB2+H05261)
Number of Pixels in Processed Spectrum: 2048
>>>>>Begin Processed Spectral Data<<<<<
365.73	95.96
365.92	95.96
366.12	95.96
366.32	77.24
366.52	0.00
366.72	32.77
366.91	0.00
367.11	0.00
367.31	0.00
367.51	0.00
367.70	0.00
367.90	0.00
368.10	0.00
368.30	0.00
368.49	0.00
368.69	0.00
368.89	0.00
369.09	0.00
369.28	30.43
369.48	0.00
369.68	0.00
369.87	67.88
370.07	16.38
370.27	131.07
370.47	65.54
370.66	0.00
370.86	7.02
371.06	98.30
371.25	112.35
371.45	105.32
371.65	128.73
371.84	121.71
372.04	49.15
372.24	133.41
372.44	138.09
372.63	112.35
372.83	166.18
373.03	88.94
373.22	100.64
373.42	145.11
373.62	105.32
373.81	205.97
374.01	220.01
374.21	114.69
374.40	107.66
374.60	163.84
374.79	105.32
374.99	102.98
375.19	145.11
375.38	173.20
375.58	133.41
375.78	191.92
375.97	191.92
376.17	229.37
376.37	147.45
376.56	201.29
376.76	107.66
376.95	154.48
377.15	145.11
377.35	173.20
377.54	117.03
377.74	149.79
377.93	98.30
378.13	142.77
378.33	166.18
378.52	138.09
378.72	180.22
378.91	180.22
379.11	182.56
379.31	95.96
379.50	112.35
379.70	131.07
379.89	180.22
380.09	119.37
380.28	67.88
380.48	140.43
380.68	147.45
380.87	135.75
381.07	208.31
381.26	128.73
381.46	201.29
381.65	117.03
381.85	119.37
382.04	72.56
382.24	145.11
382.43	128.73
382.63	79.58
382.83	177.88
383.02	154.48
383.22	149.79
383.41	121.71
383.61	63.19
383.80	149.79
384.00	173.20
384.19	105.32
384.39	184.90
384.58	154.48
384.78	81.92
384.97	105.32
385.17	145.11
385.36	98.30
385.56	145.11
385.75	189.58
385.95	189.58
386.14	175.54
386.34	152.13
386.53	173.20
386.72	100.64
386.92	147.45
387.11	119.37
387.31	191.92
387.50	135.75
387.70	100.64
387.89	187.24
388.09	187.24
388.28	149.79
388.48	93.62
388.67	194.26
388.86	65.54
389.06	51.49
389.25	100.64
389.45	112.35
389.64	112.35
389.84	154.48
390.03	138.09
390.22	128.73
390.42	112.35
390.61	138.09
390.81	79.58
391.00	194.26
391.19	224.69
391.39	126.39
391.58	119.37
391.78	135.75
391.97	147.45
392.16	147.45
392.36	177.88
392.55	149.79
392.75	100.64
392.94	124.05
393.13	138.09
393.33	131.07
393.52	67.88
393.71	173.20
393.91	105.32
394.10	170.86
394.29	187.24
394.49	180.22
394.68	154.48
394.88	145.11
395.07	152.13
395.26	138.09
395.46	102.98
395.65	145.11
395.84	161.50
396.04	238.73
396.23	163.84
396.42	184.90
396.62	182.56
396.81	147.45
397.00	124.05
397.19	133.41
397.39	161.50
397.58	170.86
397.77	88.94
397.97	182.56
398.16	131.07
398.35	184.90
398.55	149.79
398.74	147.45
398.93	224.69
399.12	140.43
399.32	161.50
399.51	140.43
399.70	131.07
399.90	77.24
400.09	184.90
400.28	208.31
400.47	140.43
400.67	255.12
400.86	156.82
401.05	205.97
401.24	159.16
401.44	131.07
401.63	170.86
401.82	184.90
402.01	175.54
402.21	191.92
402.40	159.16
402.59	168.52
402.78	117.03
402.97	156.82
403.17	163.84
403.36	140.43
403.55	191.92
403.74	161.50
403.93	126.39
404.13	208.31
404.32	292.57
404.51	191.92
404.70	121.71
404.89	194.26
405.09	138.09
405.28	126.39
405.47	196.60
405.66	163.84
405.85	222.35
406.05	231.71
406.24	194.26
406.43	170.86
406.62	140.43
406.81	88.94
407.00	217.67
407.20	149.79
407.39	203.63
407.58	168.52
407.77	180.22
407.96	191.92
408.15	236.39
408.34	149.79
408.54	180.22
408.73	152.13
408.92	168.52
409.11	117.03
409.30	117.03
409.49	149.79
409.68	182.56
409.87	175.54
410.07	222.35
410.26	168.52
410.45	177.88
410.64	175.54
410.83	112.35
411.02	138.09
411.21	107.66
411.40	208.31
411.59	175.54
411.78	147.45
411.98	210.65
412.17	173.20
412.36	163.84
412.55	156.82
412.74	208.31
412.93	182.56
413.12	107.66
413.31	224.69
413.50	182.56
413.69	110.01
413.88	210.65
414.07	154.48
414.26	149.79
414.45	152.13
414.64	203.63
414.83	154.48
415.02	177.88
415.22	121.71
415.41	212.99
415.60	201.29
415.79	194.26
415.98	182.56
416.17	133.41
416.36	142.77
416.55	184.90
416.74	147.45
416.93	142.77
417.12	149.79
417.31	91.28
417.50	250.44
417.69	224.69
417.88	231.71
418.07	257.46
418.26	128.73
418.45	201.29
418.64	180.22
418.83	156.82
419.02	201.29
419.21	234.05
419.39	250.44
419.58	205.97
419.77	205.97
419.96	212.99
420.15	184.90
420.34	159.16
420.53	145.11
420.72	194.26
420.91	163.84
421.10	145.11
421.29	182.56
421.48	182.56
421.67	131.07
421.86	184.90
422.05	147.45
422.24	175.54
422.43	217.67
422.61	149.79
422.80	180.22
422.99	142.77
423.18	159.16
423.37	210.65
423.56	222.35
423.75	208.31
423.94	135.75
424.13	128.73
424.32	161.50
424.50	208.31
424.69	107.66
424.88	166.18
425.07	208.31
425.26	201.29
425.45	262.14
425.64	264.48
425.83	238.73
426.01	297.25
426.20	166.18
426.39	191.92
426.58	117.03
426.77	212.99
426.96	191.92
427.15	224.69
427.33	170.86
427.52	161.50
427.71	182.56
427.90	180.22
428.09	210.65
428.28	152.13
428.46	245.76
428.65	159.16
428.84	177.88
429.03	224.69
429.22	77.24
429.40	187.24
429.59	196.60
429.78	224.69
429.97	145.11
430.16	135.75
430.34	140.43
430.53	135.75
430.72	163.84
430.91	180.22
431.10	145.11
431.28	191.92
431.47	182.56
431.66	245.76
431.85	203.63
432.03	93.62
432.22	243.42
432.41	166.18
432.60	238.73
432.79	241.08
432.97	271.50
433.16	262.14
433.35	173.20
433.54	198.95
433.72	266.82
433.91	304.27
434.10	175.54
434.28	224.69
434.47	159.16
434.66	299.59
434.85	189.58
435.03	283.20
435.22	339.38
435.41	339.38
435.59	325.33
435.78	301.93
435.97	168.52
436.16	217.67
436.34	273.84
436.53	145.11
436.72	159.16
436.90	168.52
437.09	238.73
437.28	201.29
437.46	191.92
437.65	241.08
437.84	212.99
438.02	131.07
438.21	147.45
438.40	220.01
438.58	140.43
438.77	156.82
438.96	196.60
439.14	159.16
439.33	215.33
439.52	128.73
439.70	198.95
439.89	163.84
440.08	248.10
440.26	236.39
440.45	170.86
440.63	98.30
440.82	161.50
441.01	133.41
441.19	198.95
441.38	133.41
441.57	163.84
441.75	189.58
441.94	212.99
442.12	215.33
442.31	112.35
442.50	159.16
442.68	140.43
442.87	88.94
443.05	124.05
443.24	191.92
443.43	189.58
443.61	170.86
443.80	182.56
443.98	152.13
444.17	180.22
444.35	212.99
444.54	203.63
444.73	201.29
444.91	212.99
445.10	145.11
445.28	173.20
445.47	224.69
445.65	180.22
445.84	231.71
446.02	184.90
446.21	140.43
446.39	173.20
446.58	215.33
446.77	140.43
446.95	198.95
447.14	201.29
447.32	234.05
447.51	170.86
447.69	220.01
447.88	166.18
448.06	210.65
448.25	119.37
448.43	128.73
448.62	196.60
448.80	184.90
448.99	194.26
449.17	142.77
449.36	227.03
449.54	234.05
449.73	145.11
449.91	196.60
450.10	220.01
450.28	262.14
450.46	229.37
450.65	245.76
450.83	168.52
451.02	140.43
451.20	149.79
451.39	189.58
451.57	149.79
451.76	175.54
451.94	208.31
452.13	198.95
452.31	203.63
452.49	271.50
452.68	128.73
452.86	184.90
453.05	252.78
453.23	212.99
453.42	196.60
453.60	175.54
453.78	220.01
453.97	138.09
454.15	227.03
454.34	187.24
454.52	91.28
454.70	227.03
454.89	163.84
455.07	175.54
455.26	175.54
455.44	170.86
455.62	196.60
455.81	159.16
455.99	194.26
456.17	210.65
456.36	131.07
456.54	194.26
456.73	189.58
456.91	154.48
457.09	184.90
457.28	170.86
457.46	175.54
457.64	161.50
457.83	173.20
458.01	79.58
458.19	187.24
458.38	105.32
458.56	208.31
458.74	175.54
458.93	259.80
459.11	227.03
459.29	217.67
459.48	266.82
459.66	264.48
459.84	170.86
460.03	220.01
460.21	220.01
460.39	236.39
460.57	168.52
460.76	166.18
460.94	198.95
461.12	182.56
461.31	278.52
461.49	231.71
461.67	182.56
461.85	166.18
462.04	145.11
462.22	643.65
462.40	248.10
462.59	259.80
462.77	191.92
462.95	128.73
463.13	110.01
463.32	294.91
463.50	205.97
463.68	208.31
463.86	177.88
464.05	173.20
464.23	250.44
464.41	173.20
464.59	180.22
464.78	208.31
464.96	138.09
465.14	262.14
465.32	86.60
465.50	210.65
465.69	194.26
465.87	234.05
466.05	166.18
466.23	119.37
466.41	182.56
466.60	161.50
466.78	152.13
466.96	198.95
467.14	262.14
467.32	182.56
467.51	215.33
467.69	215.33
467.87	220.01
468.05	184.90
468.23	152.13
468.41	187.24
468.60	142.77
468.78	126.39
468.96	210.65
469.14	212.99
469.32	159.16
469.50	220.01
469.69	248.10
469.87	222.35
470.05	229.37
470.23	205.97
470.41	201.29
470.59	159.16
470.77	163.84
470.95	227.03
471.14	238.73
471.32	175.54
471.50	194.26
471.68	161.50
471.86	222.35
472.04	248.10
472.22	203.63
472.40	189.58
472.58	203.63
472.77	145.11
472.95	166.18
473.13	243.42
473.31	257.46
473.49	203.63
473.67	196.60
473.85	182.56
474.03	215.33
474.21	198.95
474.39	189.58
474.57	255.12
474.75	266.82
474.93	283.20
475.12	182.56
475.30	231.71
475.48	205.97
475.66	294.91
475.84	222.35
476.02	177.88
476.20	217.67
476.38	215.33
476.56	294.91
476.74	177.88
476.92	205.97
477.10	259.80
477.28	227.03
477.46	201.29
477.64	306.61
477.82	159.16
478.00	173.20
478.18	156.82
478.36	264.48
478.54	163.84
478.72	271.50
478.90	241.08
479.08	245.76
479.26	208.31
479.44	168.52
479.62	208.31
479.80	196.60
479.98	173.20
480.16	149.79
480.34	252.78
480.52	243.42
480.70	208.31
480.88	168.52
481.06	180.22
481.24	203.63
481.41	227.03
481.59	124.05
481.77	252.78
481.95	212.99
482.13	248.10
482.31	241.08
482.49	175.54
482.67	222.35
482.85	248.10
483.03	205.97
483.21	224.69
483.39	255.12
483.57	166.18
483.74	273.84
483.92	203.63
484.10	189.58
484.28	222.35
484.46	299.59
484.64	170.86
484.82	175.54
485.00	145.11
485.18	227.03
485.35	166.18
485.53	168.52
485.71	262.14
485.89	217.67
486.07	238.73
486.25	280.86
486.43	252.78
486.61	255.12
486.78	241.08
486.96	231.71
487.14	168.52
487.32	189.58
487.50	208.31
487.68	227.03
487.85	222.35
488.03	285.55
488.21	252.78
488.39	311.29
488.57	311.29
488.75	217.67
488.92	498.53
489.10	198.95
489.28	266.82
489.46	257.46
489.64	257.46
489.81	196.60
489.99	311.29
490.17	152.13
490.35	311.29
490.53	304.27
490.70	262.14
490.88	245.76
491.06	205.97
491.24	234.05
491.41	154.48
491.59	311.29
491.77	180.22
491.95	180.22
492.13	243.42
492.30	276.18
492.48	243.42
492.66	276.18
492.84	196.60
493.01	304.27
493.19	241.08
493.37	203.63
493.54	248.10
493.72	243.42
493.90	248.10
494.08	196.60
494.25	278.52
494.43	304.27
494.61	264.48
494.79	252.78
494.96	231.71
495.14	266.82
495.32	224.69
495.49	182.56
495.67	264.48
495.85	180.22
496.02	229.37
496.20	276.18
496.38	290.23
496.55	229.37
496.73	196.60
496.91	231.71
497.09	205.97
497.26	252.78
497.44	271.50
497.62	259.80
497.79	210.65
497.97	248.10
498.14	205.97
498.32	210.65
498.50	245.76
498.67	287.89
498.85	245.76
499.03	248.10
499.20	189.58
499.38	278.52
499.56	205.97
499.73	229.37
499.91	280.86
500.08	271.50
500.26	306.61
500.44	273.84
500.61	196.60
500.79	215.33
500.97	273.84
501.14	325.33
501.32	236.39
501.49	224.69
501.67	252.78
501.84	248.10
502.02	236.39
502.20	306.61
502.37	266.82
502.55	313.63
502.72	217.67
502.90	248.10
503.07	250.44
503.25	287.89
503.43	259.80
503.60	262.14
503.78	236.39
503.95	234.05
504.13	241.08
504.30	287.89
504.48	229.37
504.65	287.89
504.83	245.76
505.01	238.73
505.18	271.50
505.36	222.35
505.53	273.84
505.71	175.54
505.88	243.42
506.06	264.48
506.23	182.56
506.41	229.37
506.58	248.10
506.76	273.84
506.93	182.56
507.11	236.39
507.28	145.11
507.46	229.37
507.63	220.01
507.81	273.84
507.98	248.10
508.16	217.67
508.33	229.37
508.50	287.89
508.68	264.48
508.85	238.73
509.03	222.35
509.20	290.23
509.38	257.46
509.55	299.59
509.73	241.08
509.90	299.59
510.08	283.20
510.25	273.84
510.42	243.42
510.60	234.05
510.77	285.55
510.95	327.68
511.12	299.59
511.30	318.31
511.47	255.12
511.64	287.89
511.82	236.39
511.99	229.37
512.17	283.20
512.34	220.01
512.51	255.12
512.69	304.27
512.86	238.73
513.04	229.37
513.21	269.16
513.38	217.67
513.56	227.03
513.73	313.63
513.90	196.60
514.08	234.05
514.25	306.61
514.43	299.59
514.60	255.12
514.77	271.50
514.95	280.86
515.12	292.57
515.29	273.84
515.47	227.03
515.64	236.39
515.81	259.80
515.99	301.93
516.16	220.01
516.33	241.08
516.51	259.80
516.68	238.73
516.85	191.92
517.03	248.10
517.20	259.80
517.37	234.05
517.54	248.10
517.72	327.68
517.89	229.37
518.06	222.35
518.24	266.82
518.41	325.33
518.58	205.97
518.75	222.35
518.93	224.69
519.10	285.55
519.27	180.22
519.45	222.35
519.62	245.76
519.79	245.76
519.96	276.18
520.14	287.89
520.31	262.14
520.48	266.82
520.65	241.08
520.83	379.17
521.00	273.84
521.17	283.20
521.34	236.39
521.52	220.01
521.69	229.37
521.86	313.63
522.03	255.12
522.20	311.29
522.38	322.99
522.55	250.44
522.72	224.69
522.89	327.68
523.07	283.20
523.24	252.78
523.41	166.18
523.58	205.97
523.75	315.97
523.92	262.14
524.10	222.35
524.27	278.52
524.44	259.80
524.61	278.52
524.78	262.14
524.96	325.33
525.13	278.52
525.30	238.73
525.47	238.73
525.64	245.76
525.81	320.65
525.98	250.44
526.16	266.82
526.33	224.69
526.50	255.12
526.67	217.67
526.84	322.99
527.01	231.71
527.18	287.89
527.36	245.76
527.53	191.92
527.70	280.86
527.87	236.39
528.04	292.57
528.21	273.84
528.38	266.82
528.55	304.27
528.72	241.08
528.89	320.65
529.07	322.99
529.24	283.20
529.41	299.59
529.58	273.84
529.75	255.12
529.92	313.63
530.09	276.18
530.26	308.95
530.43	266.82
530.60	252.78
530.77	315.97
530.94	297.25
531.11	180.22
531.28	348.74
531.46	278.52
531.63	273.84
531.80	294.91
531.97	231.71
532.14	252.78
532.31	315.97
532.48	250.44
532.65	437.68
532.82	376.83
532.99	395.55
533.16	259.80
533.33	266.82
533.50	327.68
533.67	346.40
533.84	447.04
534.01	430.66
534.18	435.34
534.35	362.78
534.52	320.65
534.69	379.17
534.86	322.99
535.03	318.31
535.20	269.16
535.37	259.80
535.54	285.55
535.71	337.04
535.88	301.93
536.05	360.44
536.22	383.85
536.38	259.80
536.55	203.63
536.72	292.57
536.89	287.89
537.06	264.48
537.23	322.99
537.40	292.57
537.57	264.48
537.74	266.82
537.91	304.27
538.08	304.27
538.25	313.63
538.42	287.89
538.59	367.46
538.75	285.55
538.92	327.68
539.09	355.76
539.26	395.55
539.43	535.98
539.60	833.23
539.77	1406.66
539.94	1446.45
540.11	1015.79
540.28	669.39
540.44	587.47
540.61	465.77
540.78	308.95
540.95	435.34
541.12	458.74
541.29	491.51
541.46	547.69
541.62	435.34
541.79	486.83
541.96	491.51
542.13	400.23
542.30	390.87
542.47	430.66
542.63	500.87
542.80	477.47
542.97	423.64
543.14	428.32
543.31	454.06
543.48	465.77
543.64	425.98
543.81	472.79
543.98	407.25
544.15	458.74
544.32	437.68
544.48	409.59
544.65	383.85
544.82	451.72
544.99	411.93
545.16	493.85
545.32	521.94
545.49	514.92
545.66	823.87
545.83	812.17
546.00	697.48
546.16	533.64
546.33	524.28
546.50	463.43
546.67	491.51
546.83	433.00
547.00	421.30
547.17	362.78
547.34	341.72
547.50	351.08
547.67	369.80
547.84	348.74
548.00	430.66
548.17	388.53
548.34	344.06
548.51	386.19
548.67	379.17
548.84	320.65
549.01	381.51
549.18	308.95
549.34	297.25
549.51	334.70
549.68	381.51
549.84	262.14
550.01	304.27
550.18	425.98
550.34	440.02
550.51	348.74
550.68	266.82
550.84	311.29
551.01	341.72
551.18	283.20
551.34	318.31
551.51	276.18
551.68	234.05
551.84	311.29
552.01	290.23
552.18	224.69
552.34	325.33
552.51	332.36
552.68	306.61
552.84	304.27
553.01	362.78
553.18	330.02
553.34	212.99
553.51	285.55
553.67	259.80
553.84	283.20
554.01	283.20
554.17	304.27
554.34	280.86
554.51	322.99
554.67	306.61
554.84	290.23
555.00	362.78
555.17	327.68
555.33	320.65
555.50	327.68
555.67	278.52
555.83	255.12
556.00	320.65
556.16	486.83
556.33	280.86
556.50	266.82
556.66	269.16
556.83	229.37
556.99	276.18
557.16	243.42
557.32	217.67
557.49	285.55
557.65	217.67
557.82	217.67
557.98	287.89
558.15	315.97
558.32	322.99
558.48	241.08
558.65	278.52
558.81	252.78
558.98	173.20
559.14	308.95
559.31	283.20
559.47	334.70
559.64	231.71
559.80	297.25
559.97	180.22
560.13	259.80
560.30	315.97
560.46	299.59
560.63	276.18
560.79	257.46
560.96	280.86
561.12	276.18
561.29	259.80
561.45	287.89
561.61	285.55
561.78	374.49
561.94	205.97
562.11	278.52
562.27	299.59
562.44	236.39
562.60	234.05
562.77	278.52
562.93	278.52
563.10	196.60
563.26	287.89
563.42	292.57
563.59	322.99
563.75	224.69
563.92	220.01
564.08	198.95
564.24	273.84
564.41	313.63
564.57	220.01
564.74	243.42
564.90	276.18
565.07	271.50
565.23	299.59
565.39	348.74
565.56	318.31
565.72	330.02
565.88	238.73
566.05	285.55
566.21	304.27
566.38	308.95
566.54	266.82
566.70	252.78
566.87	255.12
567.03	227.03
567.19	271.50
567.36	243.42
567.52	205.97
567.68	241.08
567.85	320.65
568.01	287.89
568.17	299.59
568.34	198.95
568.50	262.14
568.66	196.60
568.83	304.27
568.99	299.59
569.15	346.40
569.32	241.08
569.48	287.89
569.64	292.57
569.81	262.14
569.97	276.18
570.13	283.20
570.30	276.18
570.46	257.46
570.62	208.31
570.78	222.35
570.95	191.92
571.11	252.78
571.27	231.71
571.43	208.31
571.60	184.90
571.76	236.39
571.92	259.80
572.09	285.55
572.25	236.39
572.41	266.82
572.57	292.57
572.74	238.73
572.90	262.14
573.06	280.86
573.22	278.52
573.38	297.25
573.55	292.57
573.71	248.10
573.87	273.84
574.03	269.16
574.20	250.44
574.36	383.85
574.52	292.57
574.68	348.74
574.84	360.44
575.01	276.18
575.17	322.99
575.33	273.84
575.49	283.20
575.65	297.25
575.82	388.53
575.98	500.87
576.14	643.65
576.30	692.80
576.46	585.13
576.62	531.30
576.79	500.87
576.95	470.45
577.11	299.59
577.27	276.18
577.43	313.63
577.59	353.42
577.75	269.16
577.92	280.86
578.08	278.52
578.24	273.84
578.40	325.33
578.56	402.57
578.72	423.64
578.88	430.66
579.04	334.70
579.21	327.68
579.37	395.55
579.53	294.91
579.69	365.12
579.85	341.72
580.01	374.49
580.17	344.06
580.33	369.80
580.49	386.19
580.65	360.44
580.82	374.49
580.98	397.89
581.14	313.63
581.30	430.66
581.46	400.23
581.62	582.79
581.78	645.99
581.94	667.05
582.10	425.98
582.26	444.70
582.42	468.11
582.58	461.09
582.74	479.81
582.90	456.40
583.06	479.81
583.22	404.91
583.38	491.51
583.54	456.40
583.70	636.63
583.86	664.71
584.02	713.86
584.18	784.08
584.34	1083.67
584.50	2356.92
584.66	16542.91
584.82	46192.81
584.98	61139.47
585.14	58571.91
585.30	41706.01
585.46	24306.46
585.62	14831.97
585.78	7045.01
585.94	2857.79
586.10	1416.02
586.26	851.96
586.42	788.76
586.58	737.27
586.74	603.86
586.90	617.90
587.06	657.69
587.22	568.75
587.38	585.13
587.54	985.37
587.70	2679.91
587.86	4456.38
588.02	5399.62
588.18	3946.14
588.34	2509.05
588.49	1654.76
588.65	936.21
588.81	594.50
588.97	407.25
589.13	397.89
589.29	332.36
589.45	468.11
589.61	330.02
589.77	355.76
589.93	358.10
590.08	409.59
590.24	435.34
590.40	411.93
590.56	479.81
590.72	353.42
590.88	386.19
591.04	369.80
591.20	362.78
591.35	397.89
591.51	381.51
591.67	421.30
591.83	372.15
591.99	367.46
592.15	351.08
592.31	301.93
592.46	353.42
592.62	409.59
592.78	318.31
592.94	437.68
593.10	367.46
593.26	308.95
593.41	337.04
593.57	360.44
593.73	512.58
593.89	2207.13
594.05	5582.18
594.20	8879.99
594.36	8933.82
594.52	5851.34
594.68	3576.34
594.84	2450.54
594.99	1411.34
595.15	748.97
595.31	505.56
595.47	411.93
595.62	344.06
595.78	325.33
595.94	318.31
596.10	379.17
596.25	381.51
596.41	346.40
596.57	381.51
596.73	311.29
596.88	491.51
597.04	1137.50
597.20	1893.49
597.36	2427.14
597.51	1727.32
597.67	1240.48
597.83	887.06
597.99	613.22
598.14	437.68
598.30	418.96
598.46	386.19
598.61	351.08
598.77	287.89
598.93	334.70
599.09	339.38
599.24	379.17
599.40	301.93
599.56	294.91
599.71	334.70
599.87	313.63
600.03	325.33
600.18	294.91
600.34	299.59
600.50	337.04
600.65	283.20
600.81	386.19
600.97	259.80
601.12	290.23
601.28	353.42
601.44	234.05
601.59	273.84
601.75	330.02
601.91	290.23
602.06	397.89
602.22	435.34
602.37	603.86
602.53	1385.60
602.69	2200.10
602.84	2534.80
603.00	1811.57
603.16	1193.67
603.31	957.28
603.47	683.44
603.62	451.72
603.78	346.40
603.94	386.19
604.09	376.83
604.25	348.74
604.40	358.10
604.56	365.12
604.71	330.02
604.87	212.99
605.03	297.25
605.18	238.73
605.34	346.40
605.49	372.15
605.65	353.42
605.80	322.99
605.96	337.04
606.12	411.93
606.27	262.14
606.43	435.34
606.58	376.83
606.74	741.95
606.89	2614.38
607.05	5493.24
607.20	7548.23
607.36	6403.71
607.51	4334.67
607.67	2799.28
607.82	2005.84
607.98	1174.95
608.13	676.41
608.29	533.64
608.44	433.00
608.60	447.04
608.75	535.98
608.91	924.51
609.06	4168.49
609.22	9046.17
609.37	12961.89
609.53	11438.20
609.68	7901.65
609.84	5107.05
609.99	3431.23
610.15	2054.99
