SpectraSuite Data File
++++++++++++++++++++++++++++++++++++
Date: Fri Oct 04 12:13:33 GMT-05:00 2013
User: price-jones
Dark Spectrum Present: No
Reference Spectrum Present: No
Number of Sampled Component Spectra: 1
Spectrometers: USB2+H05261
Integration Time (usec): 10000 (USB2+H05261)
Spectra Averaged: 1 (USB2+H05261)
Boxcar Smoothing: 0 (USB2+H05261)
Correct for Electrical Dark: No (USB2+H05261)
Strobe/Lamp Enabled: No (USB2+H05261)
Correct for Detector Non-linearity: No (USB2+H05261)
Correct for Stray Light: No (USB2+H05261)
Number of Pixels in Processed Spectrum: 2048
>>>>>Begin Processed Spectral Data<<<<<
365.73	0.00
365.92	0.00
366.12	0.00
366.32	0.00
366.52	0.00
366.72	0.00
366.91	0.00
367.11	0.00
367.31	0.00
367.51	0.00
367.70	0.00
367.90	0.00
368.10	0.00
368.30	0.00
368.49	0.00
368.69	0.00
368.89	0.00
369.09	0.00
369.28	0.00
369.48	0.00
369.68	0.00
369.87	0.00
370.07	0.00
370.27	0.00
370.47	0.00
370.66	49.15
370.86	30.43
371.06	77.24
371.25	88.94
371.45	70.22
371.65	53.83
371.84	77.24
372.04	117.03
372.24	105.32
372.44	58.51
372.63	56.17
372.83	56.17
373.03	114.69
373.22	91.28
373.42	35.11
373.62	145.11
373.81	124.05
374.01	135.75
374.21	131.07
374.40	93.62
374.60	147.45
374.79	128.73
374.99	133.41
375.19	149.79
375.38	189.58
375.58	95.96
375.78	100.64
375.97	163.84
376.17	201.29
376.37	210.65
376.56	215.33
376.76	163.84
376.95	187.24
377.15	154.48
377.35	187.24
377.54	201.29
377.74	180.22
377.93	252.78
378.13	205.97
378.33	156.82
378.52	154.48
378.72	168.52
378.91	191.92
379.11	135.75
379.31	152.13
379.50	107.66
379.70	170.86
379.89	124.05
380.09	140.43
380.28	138.09
380.48	194.26
380.68	243.42
380.87	243.42
381.07	208.31
381.26	95.96
381.46	110.01
381.65	100.64
381.85	154.48
382.04	175.54
382.24	201.29
382.43	166.18
382.63	180.22
382.83	67.88
383.02	105.32
383.22	117.03
383.41	126.39
383.61	86.60
383.80	112.35
384.00	229.37
384.19	159.16
384.39	194.26
384.58	175.54
384.78	131.07
384.97	177.88
385.17	170.86
385.36	65.54
385.56	149.79
385.75	161.50
385.95	229.37
386.14	170.86
386.34	175.54
386.53	142.77
386.72	156.82
386.92	124.05
387.11	131.07
387.31	149.79
387.50	121.71
387.70	126.39
387.89	147.45
388.09	135.75
388.28	182.56
388.48	205.97
388.67	271.50
388.86	163.84
389.06	236.39
389.25	271.50
389.45	250.44
389.64	180.22
389.84	234.05
390.03	241.08
390.22	210.65
390.42	243.42
390.61	203.63
390.81	180.22
391.00	234.05
391.19	266.82
391.39	224.69
391.58	156.82
391.78	205.97
391.97	241.08
392.16	201.29
392.36	231.71
392.55	117.03
392.75	112.35
392.94	39.79
393.13	133.41
393.33	81.92
393.52	168.52
393.71	182.56
393.91	203.63
394.10	170.86
394.29	255.12
394.49	285.55
394.68	243.42
394.88	320.65
395.07	212.99
395.26	250.44
395.46	280.86
395.65	294.91
395.84	191.92
396.04	168.52
396.23	154.48
396.42	147.45
396.62	124.05
396.81	198.95
397.00	222.35
397.19	285.55
397.39	334.70
397.58	280.86
397.77	290.23
397.97	287.89
398.16	301.93
398.35	311.29
398.55	292.57
398.74	332.36
398.93	367.46
399.12	409.59
399.32	332.36
399.51	365.12
399.70	287.89
399.90	369.80
400.09	315.97
400.28	360.44
400.47	393.21
400.67	397.89
400.86	402.57
401.05	301.93
401.24	414.27
401.44	379.17
401.63	376.83
401.82	465.77
402.01	423.64
402.21	404.91
402.40	414.27
402.59	414.27
402.78	379.17
402.97	381.51
403.17	409.59
403.36	463.43
403.55	397.89
403.74	433.00
403.93	344.06
404.13	383.85
404.32	404.91
404.51	372.15
404.70	337.04
404.89	397.89
405.09	372.15
405.28	414.27
405.47	390.87
405.66	435.34
405.85	337.04
406.05	353.42
406.24	346.40
406.43	365.12
406.62	337.04
406.81	376.83
407.00	332.36
407.20	386.19
407.39	344.06
407.58	388.53
407.77	379.17
407.96	465.77
408.15	451.72
408.34	451.72
408.54	423.64
408.73	404.91
408.92	461.09
409.11	451.72
409.30	374.49
409.49	397.89
409.68	383.85
409.87	386.19
410.07	407.25
410.26	425.98
410.45	458.74
410.64	421.30
410.83	423.64
411.02	418.96
411.21	456.40
411.40	514.92
411.59	482.15
411.78	496.19
411.98	454.06
412.17	463.43
412.36	496.19
412.55	388.53
412.74	500.87
412.93	493.85
413.12	442.36
413.31	451.72
413.50	451.72
413.69	543.00
413.88	505.56
414.07	498.53
414.26	477.47
414.45	533.64
414.64	425.98
414.83	514.92
415.02	482.15
415.22	479.81
415.41	472.79
415.60	496.19
415.79	528.96
415.98	531.30
416.17	540.66
416.36	517.26
416.55	514.92
416.74	528.96
416.93	538.32
417.12	517.26
417.31	503.22
417.50	514.92
417.69	538.32
417.88	580.45
418.07	505.56
418.26	477.47
418.45	442.36
418.64	528.96
418.83	521.94
419.02	498.53
419.21	493.85
419.39	456.40
419.58	496.19
419.77	486.83
419.96	507.90
420.15	496.19
420.34	461.09
420.53	543.00
420.72	594.50
420.91	545.34
421.10	547.69
421.29	519.60
421.48	519.60
421.67	571.09
421.86	592.16
422.05	517.26
422.24	545.34
422.43	524.28
422.61	498.53
422.80	601.52
422.99	547.69
423.18	510.24
423.37	423.64
423.56	425.98
423.75	505.56
423.94	461.09
424.13	479.81
424.32	456.40
424.50	475.13
424.69	477.47
424.88	454.06
425.07	411.93
425.26	475.13
425.45	458.74
425.64	545.34
425.83	484.49
426.01	491.51
426.20	505.56
426.39	547.69
426.58	447.04
426.77	461.09
426.96	491.51
427.15	538.32
427.33	477.47
427.52	521.94
427.71	524.28
427.90	484.49
428.09	454.06
428.28	580.45
428.46	428.32
428.65	451.72
428.84	447.04
429.03	421.30
429.22	458.74
429.40	489.17
429.59	458.74
429.78	428.32
429.97	353.42
430.16	353.42
430.34	388.53
430.53	435.34
430.72	360.44
430.91	430.66
431.10	472.79
431.28	554.71
431.47	631.94
431.66	631.94
431.85	568.75
432.03	463.43
432.22	458.74
432.41	498.53
432.60	493.85
432.79	613.22
432.97	606.20
433.16	564.07
433.35	571.09
433.54	461.09
433.72	418.96
433.91	395.55
434.10	489.17
434.28	557.05
434.47	538.32
434.66	589.82
434.85	451.72
435.03	545.34
435.22	568.75
435.41	610.88
435.59	510.24
435.78	606.20
435.97	582.79
436.16	594.50
436.34	624.92
436.53	718.54
436.72	589.82
436.90	559.39
437.09	592.16
437.28	496.19
437.46	617.90
437.65	512.58
437.84	578.11
438.02	486.83
438.21	517.26
438.40	564.07
438.58	514.92
438.77	599.18
438.96	514.92
439.14	613.22
439.33	592.16
439.52	589.82
439.70	643.65
439.89	671.73
440.08	564.07
440.26	545.34
440.45	540.66
440.63	678.76
440.82	601.52
441.01	636.63
441.19	655.35
441.38	653.01
441.57	699.82
441.75	685.78
441.94	725.57
442.12	732.59
442.31	610.88
442.50	697.48
442.68	704.50
442.87	697.48
443.05	702.16
443.24	657.69
443.43	706.84
443.61	770.04
443.80	657.69
443.98	660.03
444.17	692.80
444.35	730.25
444.54	755.99
444.73	737.27
444.91	683.44
445.10	564.07
445.28	615.56
445.47	601.52
445.65	664.71
445.84	676.41
446.02	603.86
446.21	589.82
446.39	662.37
446.58	641.31
446.77	690.46
446.95	620.24
447.14	706.84
447.32	725.57
447.51	765.36
447.69	641.31
447.88	695.14
448.06	620.24
448.25	711.52
448.43	758.33
448.62	678.76
448.80	704.50
448.99	669.39
449.17	667.05
449.36	688.12
449.54	744.29
449.73	814.51
449.91	763.01
450.10	795.78
450.28	781.74
450.46	786.42
450.65	763.01
450.83	723.23
451.02	770.04
451.20	744.29
451.39	760.67
451.57	713.86
451.76	671.73
451.94	744.29
452.13	690.46
452.31	739.61
452.49	702.16
452.68	699.82
452.86	667.05
453.05	685.78
453.23	751.31
453.42	744.29
453.60	615.56
453.78	737.27
453.97	711.52
454.15	660.03
454.34	704.50
454.52	683.44
454.70	699.82
454.89	788.76
455.07	681.10
455.26	655.35
455.44	753.65
455.62	730.25
455.81	748.97
455.99	709.18
456.17	727.91
456.36	727.91
456.54	763.01
456.73	779.40
456.91	695.14
457.09	835.57
457.28	833.23
457.46	816.85
457.64	765.36
457.83	709.18
458.01	760.67
458.19	723.23
458.38	716.20
458.56	758.33
458.74	716.20
458.93	755.99
459.11	709.18
459.29	830.89
459.48	709.18
459.66	716.20
459.84	669.39
460.03	748.97
460.21	753.65
460.39	695.14
460.57	765.36
460.76	802.80
460.94	858.98
461.12	772.38
461.31	777.06
461.49	772.38
461.67	788.76
461.85	833.23
462.04	767.70
462.22	870.68
462.40	777.06
462.59	837.91
462.77	779.40
462.95	809.83
463.13	765.36
463.32	847.27
463.50	837.91
463.68	828.55
463.86	772.38
464.05	830.89
464.23	751.31
464.41	770.04
464.59	748.97
464.78	786.42
464.96	744.29
465.14	718.54
465.32	751.31
465.50	734.93
465.69	877.70
465.87	730.25
466.05	767.70
466.23	784.08
466.41	688.12
466.60	765.36
466.78	685.78
466.96	688.12
467.14	823.87
467.32	791.10
467.51	732.59
467.69	755.99
467.87	779.40
468.05	798.12
468.23	779.40
468.41	840.25
468.60	744.29
468.78	774.72
468.96	777.06
469.14	835.57
469.32	903.45
469.50	730.25
469.69	847.27
469.87	784.08
470.05	809.83
470.23	772.38
470.41	718.54
470.59	767.70
470.77	788.76
470.95	739.61
471.14	887.06
471.32	809.83
471.50	798.12
471.68	777.06
471.86	833.23
472.04	835.57
472.22	875.36
472.40	866.00
472.58	763.01
472.77	758.33
472.95	751.31
473.13	763.01
473.31	777.06
473.49	814.51
473.67	816.85
473.85	791.10
474.03	791.10
474.21	791.10
474.39	791.10
474.57	844.93
474.75	861.32
474.93	882.38
475.12	868.34
475.30	833.23
475.48	933.87
475.66	814.51
475.84	849.61
476.02	802.80
476.20	884.72
476.38	807.48
476.56	912.81
476.74	919.83
476.92	940.90
477.10	847.27
477.28	875.36
477.46	919.83
477.64	908.13
477.82	882.38
478.00	896.43
478.18	924.51
478.36	922.17
478.54	840.25
478.72	884.72
478.90	950.26
479.08	861.32
479.26	952.60
479.44	961.96
479.62	973.66
479.80	1050.90
479.98	987.71
480.16	973.66
480.34	1004.09
480.52	961.96
480.70	983.02
480.88	931.53
481.06	1004.09
481.24	1013.45
481.41	1034.52
481.59	1008.77
481.77	1071.97
481.95	1043.88
482.13	976.00
482.31	922.17
482.49	1090.69
482.67	1022.81
482.85	1025.15
483.03	1153.88
483.21	1144.52
483.39	1034.52
483.57	1069.62
483.74	1076.65
483.92	1090.69
484.10	997.07
484.28	1074.31
484.46	1043.88
484.64	1100.05
484.82	1032.18
485.00	1062.60
485.18	1081.33
485.35	957.28
485.53	1025.15
485.71	770.04
485.89	823.87
486.07	767.70
486.25	997.07
486.43	1116.44
486.61	994.73
486.78	1060.26
486.96	1039.20
487.14	1022.81
487.32	1083.67
487.50	1107.07
487.68	1184.31
487.85	1188.99
488.03	1200.69
488.21	1132.82
488.39	1121.12
488.57	1116.44
488.75	1050.90
488.92	1203.04
489.10	1156.22
489.28	1266.23
489.46	1240.48
489.64	1170.27
489.81	1301.34
489.99	1291.98
490.17	1287.29
490.35	1310.70
490.53	1322.40
490.70	1259.21
490.88	1352.83
491.06	1210.06
491.24	1338.79
491.41	1245.16
491.59	1233.46
491.77	1263.89
491.95	1217.08
492.13	1179.63
492.30	1348.15
492.48	1397.30
492.66	1287.29
492.84	1299.00
493.01	1336.45
493.19	1280.27
493.37	1334.11
493.54	1341.13
493.72	1313.04
493.90	1355.17
494.08	1394.96
494.25	1373.89
494.43	1383.26
494.61	1427.73
494.79	1401.98
494.96	1371.55
495.14	1446.45
495.32	1409.00
495.49	1350.49
495.67	1362.19
495.85	1448.79
496.02	1502.62
496.20	1488.58
496.38	1441.77
496.55	1467.52
496.73	1357.51
496.91	1467.52
497.09	1481.56
497.26	1404.32
497.44	1589.22
497.62	1399.64
497.79	1448.79
497.97	1380.92
498.14	1343.47
498.32	1439.43
498.50	1514.33
498.67	1486.24
498.85	1504.96
499.03	1530.71
499.20	1483.90
499.38	1528.37
499.56	1469.86
499.73	1401.98
499.91	1589.22
500.08	1458.15
500.26	1399.64
500.44	1364.53
500.61	1420.71
500.79	1458.15
500.97	1427.73
501.14	1327.08
501.32	1270.91
501.49	1416.02
501.67	1350.49
501.84	1394.96
502.02	1479.22
502.20	1493.26
502.37	1439.43
502.55	1432.41
502.72	1423.05
502.90	1418.36
503.07	1399.64
503.25	1401.98
503.43	1371.55
503.60	1355.17
503.78	1345.81
503.95	1331.76
504.13	1490.92
504.30	1427.73
504.48	1418.36
504.65	1500.28
504.83	1453.47
505.01	1441.77
505.18	1493.26
505.36	1486.24
505.53	1528.37
505.71	1540.07
505.88	1544.75
506.06	1528.37
506.23	1504.96
506.41	1486.24
506.58	1556.46
506.76	1509.65
506.93	1451.13
507.11	1444.11
507.28	1465.18
507.46	1507.30
507.63	1441.77
507.81	1399.64
507.98	1406.66
508.16	1523.69
508.33	1495.60
508.50	1504.96
508.68	1540.07
508.85	1554.12
509.03	1507.30
509.20	1540.07
509.38	1533.05
509.55	1507.30
509.73	1453.47
509.90	1455.81
510.08	1636.03
510.25	1500.28
510.42	1582.20
510.60	1530.71
510.77	1441.77
510.95	1584.54
511.12	1619.65
511.30	1612.63
511.47	1621.99
511.64	1657.10
511.82	1619.65
511.99	1528.37
512.17	1563.48
512.34	1519.01
512.51	1556.46
512.69	1446.45
512.86	1533.05
513.04	1577.52
513.21	1509.65
513.38	1582.20
513.56	1453.47
513.73	1453.47
513.90	1380.92
514.08	1416.02
514.25	1481.56
514.43	1502.62
514.60	1476.88
514.77	1481.56
514.95	1490.92
515.12	1476.88
515.29	1582.20
515.47	1561.14
515.64	1577.52
515.81	1493.26
515.99	1488.58
516.16	1523.69
516.33	1249.85
516.51	1336.45
516.68	1261.55
516.85	1111.75
517.03	1198.35
517.20	1343.47
517.37	1493.26
517.54	1474.54
517.72	1535.39
517.89	1439.43
518.06	1397.30
518.24	1327.08
518.41	1425.39
518.58	1504.96
518.75	1514.33
518.93	1561.14
519.10	1432.41
519.27	1455.81
519.45	1582.20
519.62	1502.62
519.79	1544.75
519.96	1603.27
520.14	1596.25
520.31	1439.43
520.48	1493.26
520.65	1544.75
520.83	1446.45
521.00	1544.75
521.17	1542.41
521.34	1582.20
521.52	1624.33
521.69	1453.47
521.86	1577.52
522.03	1657.10
522.20	1561.14
522.38	1542.41
522.55	1411.34
522.72	1486.24
522.89	1476.88
523.07	1537.73
523.24	1568.16
523.41	1465.18
523.58	1568.16
523.75	1640.72
523.92	1636.03
524.10	1645.40
524.27	1612.63
524.44	1638.38
524.61	1535.39
524.78	1636.03
524.96	1570.50
525.13	1659.44
525.30	1584.54
525.47	1661.78
525.64	1643.06
525.81	1568.16
525.98	1441.77
526.16	1362.19
526.33	1472.20
526.50	1373.89
526.67	1378.58
526.84	1376.24
527.01	1399.64
527.18	1490.92
527.36	1551.78
527.53	1511.99
527.70	1605.61
527.87	1523.69
528.04	1607.95
528.21	1537.73
528.38	1605.61
528.55	1600.93
528.72	1701.57
528.89	1692.21
529.07	1636.03
529.24	1633.69
529.41	1589.22
529.58	1579.86
529.75	1621.99
529.92	1516.67
530.09	1519.01
530.26	1586.88
530.43	1680.50
530.60	1699.23
530.77	1617.31
530.94	1633.69
531.11	1673.48
531.28	1645.40
531.46	1629.01
531.63	1600.93
531.80	1558.80
531.97	1554.12
532.14	1540.07
532.31	1451.13
532.48	1418.36
532.65	1476.88
532.82	1455.81
532.99	1523.69
533.16	1544.75
533.33	1554.12
533.50	1549.43
533.67	1570.50
533.84	1458.15
534.01	1544.75
534.18	1521.35
534.35	1736.68
534.52	1633.69
534.69	1558.80
534.86	1507.30
535.03	1626.67
535.20	1650.08
535.37	1610.29
535.54	1724.97
535.71	1497.94
535.88	1591.56
536.05	1607.95
536.22	1483.90
536.38	1535.39
536.55	1519.01
536.72	1448.79
536.89	1535.39
537.06	1542.41
537.23	1561.14
537.40	1629.01
537.57	1486.24
537.74	1591.56
537.91	1593.90
538.08	1652.42
538.25	1563.48
538.42	1582.20
538.59	1694.55
538.75	1483.90
538.92	1535.39
539.09	1521.35
539.26	1521.35
539.43	1509.65
539.60	1481.56
539.77	1437.09
539.94	1554.12
540.11	1521.35
540.28	1448.79
540.44	1533.05
540.61	1486.24
540.78	1481.56
540.95	1533.05
541.12	1383.26
541.29	1444.11
541.46	1542.41
541.62	1519.01
541.79	1462.83
541.96	1476.88
542.13	1500.28
542.30	1540.07
542.47	1507.30
542.63	1495.60
542.80	1486.24
542.97	1556.46
543.14	1462.83
543.31	1406.66
543.48	1465.18
543.64	1537.73
543.81	1537.73
543.98	1561.14
544.15	1547.09
544.32	1563.48
544.48	1495.60
544.65	1490.92
544.82	1617.31
544.99	1605.61
545.16	1521.35
545.32	1521.35
545.49	1493.26
545.66	1575.18
545.83	1526.03
546.00	1455.81
546.16	1537.73
546.33	1404.32
546.50	1446.45
546.67	1596.25
546.83	1598.59
547.00	1474.54
547.17	1507.30
547.34	1362.19
547.50	1476.88
547.67	1493.26
547.84	1556.46
548.00	1462.83
548.17	1472.20
548.34	1551.78
548.51	1556.46
548.67	1516.67
548.84	1624.33
549.01	1469.86
549.18	1605.61
549.34	1540.07
549.51	1528.37
549.68	1519.01
549.84	1523.69
550.01	1488.58
550.18	1582.20
550.34	1523.69
550.51	1519.01
550.68	1521.35
550.84	1425.39
551.01	1460.49
551.18	1397.30
551.34	1502.62
551.51	1474.54
551.68	1572.84
551.84	1528.37
552.01	1558.80
552.18	1551.78
552.34	1493.26
552.51	1460.49
552.68	1497.94
552.84	1507.30
553.01	1535.39
553.18	1465.18
553.34	1535.39
553.51	1490.92
553.67	1526.03
553.84	1530.71
554.01	1406.66
554.17	1364.53
554.34	1561.14
554.51	1631.35
554.67	1621.99
554.84	1526.03
555.00	1474.54
555.17	1420.71
555.33	1521.35
555.50	1509.65
555.67	1458.15
555.83	1497.94
556.00	1420.71
556.16	1497.94
556.33	1462.83
556.50	1432.41
556.66	1411.34
556.83	1507.30
556.99	1490.92
557.16	1451.13
557.32	1427.73
557.49	1458.15
557.65	1406.66
557.82	1479.22
557.98	1418.36
558.15	1444.11
558.32	1373.89
558.48	1416.02
558.65	1378.58
558.81	1378.58
558.98	1320.06
559.14	1399.64
559.31	1383.26
559.47	1448.79
559.64	1479.22
559.80	1434.75
559.97	1352.83
560.13	1418.36
560.30	1483.90
560.46	1444.11
560.63	1476.88
560.79	1392.62
560.96	1404.32
561.12	1568.16
561.29	1345.81
561.45	1357.51
561.61	1399.64
561.78	1322.40
561.94	1387.94
562.11	1413.68
562.27	1310.70
562.44	1434.75
562.60	1380.92
562.77	1416.02
562.93	1369.21
563.10	1481.56
563.26	1401.98
563.42	1399.64
563.59	1423.05
563.75	1359.85
563.92	1256.87
564.08	1341.13
564.24	1373.89
564.41	1413.68
564.57	1380.92
564.74	1366.87
564.90	1425.39
565.07	1383.26
565.23	1404.32
565.39	1313.04
565.56	1299.00
565.72	1348.15
565.88	1329.42
566.05	1352.83
566.21	1266.23
566.38	1310.70
566.54	1369.21
566.70	1394.96
566.87	1320.06
567.03	1439.43
567.19	1317.72
567.36	1338.79
567.52	1331.76
567.68	1392.62
567.85	1301.34
568.01	1303.68
568.17	1287.29
568.34	1341.13
568.50	1341.13
568.66	1299.00
568.83	1280.27
568.99	1299.00
569.15	1338.79
569.32	1320.06
569.48	1413.68
569.64	1357.51
569.81	1242.82
569.97	1338.79
570.13	1306.02
570.30	1327.08
570.46	1291.98
570.62	1231.12
570.78	1184.31
570.95	1214.74
571.11	1303.68
571.27	1235.80
571.43	1348.15
571.60	1238.14
571.76	1343.47
571.92	1313.04
572.09	1196.01
572.25	1273.25
572.41	1338.79
572.57	1254.53
572.74	1240.48
572.90	1200.69
573.06	1224.10
573.22	1310.70
573.38	1313.04
573.55	1320.06
573.71	1385.60
573.87	1273.25
574.03	1301.34
574.20	1350.49
574.36	1303.68
574.52	1217.08
574.68	1228.78
574.84	1315.38
575.01	1249.85
575.17	1245.16
575.33	1266.23
575.49	1252.19
575.65	1200.69
575.82	1254.53
575.98	1130.48
576.14	1341.13
576.30	1277.93
576.46	1268.57
576.62	1268.57
576.79	1294.32
576.95	1214.74
577.11	1270.91
577.27	1210.06
577.43	1249.85
577.59	1273.25
577.75	1245.16
577.92	1291.98
578.08	1163.25
578.24	1254.53
578.40	1172.61
578.56	1254.53
578.72	1163.25
578.88	1226.44
579.04	1275.59
579.21	1320.06
579.37	1355.17
579.53	1252.19
579.69	1263.89
579.85	1198.35
580.01	1315.38
580.17	1217.08
580.33	1277.93
580.49	1376.24
580.65	1238.14
580.82	1277.93
580.98	1310.70
581.14	1217.08
581.30	1210.06
581.46	1156.22
581.62	1277.93
581.78	1324.74
581.94	1280.27
582.10	1151.54
582.26	1247.51
582.42	1256.87
582.58	1254.53
582.74	1261.55
582.90	1273.25
583.06	1245.16
583.22	1296.66
583.38	1235.80
583.54	1228.78
583.70	1224.10
583.86	1130.48
584.02	1205.38
584.18	1233.46
584.34	1224.10
584.50	1320.06
584.66	1238.14
584.82	1217.08
584.98	1277.93
585.14	1151.54
585.30	1165.59
585.46	1196.01
585.62	1144.52
585.78	1050.90
585.94	1184.31
586.10	1179.63
586.26	1181.97
586.42	1240.48
586.58	1186.65
586.74	1137.50
586.90	1203.04
587.06	1177.29
587.22	1160.91
587.38	1078.99
587.54	1013.45
587.70	1123.46
587.86	1100.05
588.02	1083.67
588.18	1025.15
588.34	1107.07
588.49	1055.58
588.65	919.83
588.81	868.34
588.97	880.04
589.13	816.85
589.29	901.11
589.45	863.66
589.61	896.43
589.77	919.83
589.93	959.62
590.08	1032.18
590.24	1055.58
590.40	1086.01
590.56	1020.47
590.72	1060.26
590.88	1095.37
591.04	1107.07
591.20	1121.12
591.35	952.60
591.51	1071.97
591.67	1067.28
591.83	1027.50
591.99	1034.52
592.15	1050.90
592.31	945.58
592.46	994.73
592.62	1025.15
592.78	987.71
592.94	997.07
593.10	1078.99
593.26	1018.13
593.41	1018.13
593.57	1088.35
593.73	1013.45
593.89	917.49
594.05	978.34
594.20	950.26
594.36	880.04
594.52	868.34
594.68	931.53
594.84	971.32
594.99	983.02
595.15	1022.81
595.31	1015.79
595.47	973.66
595.62	1027.50
595.78	1062.60
595.94	1057.92
596.10	1039.20
596.25	1071.97
596.41	915.15
596.57	999.41
596.73	1053.24
596.88	1046.22
597.04	1015.79
597.20	1050.90
597.36	1039.20
597.51	976.00
597.67	1036.86
597.83	1050.90
597.99	1001.75
598.14	1013.45
598.30	1064.94
598.46	1050.90
598.61	978.34
598.77	1111.75
598.93	1104.73
599.09	1064.94
599.24	1006.43
599.40	1100.05
599.56	1114.10
599.71	1100.05
599.87	1081.33
600.03	1011.11
600.18	990.05
600.34	1015.79
600.50	1081.33
600.65	1015.79
600.81	1100.05
600.97	1062.60
601.12	1064.94
601.28	1036.86
601.44	1039.20
601.59	1057.92
601.75	1081.33
601.91	1102.39
602.06	1109.41
602.22	1107.07
602.37	1090.69
602.53	1111.75
602.69	1130.48
602.84	1095.37
603.00	1076.65
603.16	1083.67
