SpectraSuite Data File
++++++++++++++++++++++++++++++++++++
Date: Fri Oct 04 11:34:01 GMT-05:00 2013
User: price-jones
Dark Spectrum Present: No
Reference Spectrum Present: No
Number of Sampled Component Spectra: 1
Spectrometers: USB2+H05261
Integration Time (usec): 100000 (USB2+H05261)
Spectra Averaged: 1 (USB2+H05261)
Boxcar Smoothing: 0 (USB2+H05261)
Correct for Electrical Dark: No (USB2+H05261)
Strobe/Lamp Enabled: No (USB2+H05261)
Correct for Detector Non-linearity: No (USB2+H05261)
Correct for Stray Light: No (USB2+H05261)
Number of Pixels in Processed Spectrum: 2048
>>>>>Begin Processed Spectral Data<<<<<
365.73	126.39
365.92	126.39
366.12	126.39
366.32	2.34
366.52	0.00
366.72	0.00
366.91	23.41
367.11	0.00
367.31	0.00
367.51	25.75
367.70	0.00
367.90	0.00
368.10	0.00
368.30	0.00
368.49	0.00
368.69	0.00
368.89	25.75
369.09	0.00
369.28	11.70
369.48	0.00
369.68	7.02
369.87	21.06
370.07	46.81
370.27	77.24
370.47	56.17
370.66	28.09
370.86	42.13
371.06	77.24
371.25	133.41
371.45	74.90
371.65	133.41
371.84	77.24
372.04	49.15
372.24	105.32
372.44	93.62
372.63	100.64
372.83	58.51
373.03	112.35
373.22	63.19
373.42	147.45
373.62	112.35
373.81	128.73
374.01	124.05
374.21	152.13
374.40	189.58
374.60	276.18
374.79	133.41
374.99	208.31
375.19	126.39
375.38	147.45
375.58	208.31
375.78	212.99
375.97	196.60
376.17	154.48
376.37	156.82
376.56	159.16
376.76	149.79
376.95	110.01
377.15	161.50
377.35	196.60
377.54	159.16
377.74	98.30
377.93	100.64
378.13	142.77
378.33	163.84
378.52	142.77
378.72	147.45
378.91	173.20
379.11	170.86
379.31	154.48
379.50	201.29
379.70	142.77
379.89	112.35
380.09	65.54
380.28	224.69
380.48	93.62
380.68	154.48
380.87	170.86
381.07	98.30
381.26	177.88
381.46	110.01
381.65	119.37
381.85	182.56
382.04	173.20
382.24	131.07
382.43	95.96
382.63	154.48
382.83	126.39
383.02	110.01
383.22	124.05
383.41	121.71
383.61	203.63
383.80	201.29
384.00	182.56
384.19	154.48
384.39	121.71
384.58	95.96
384.78	154.48
384.97	161.50
385.17	102.98
385.36	147.45
385.56	191.92
385.75	149.79
385.95	84.26
386.14	135.75
386.34	102.98
386.53	205.97
386.72	149.79
386.92	163.84
387.11	182.56
387.31	128.73
387.50	163.84
387.70	102.98
387.89	142.77
388.09	187.24
388.28	121.71
388.48	77.24
388.67	210.65
388.86	49.15
389.06	124.05
389.25	110.01
389.45	191.92
389.64	227.03
389.84	124.05
390.03	63.19
390.22	93.62
390.42	161.50
390.61	102.98
390.81	147.45
391.00	133.41
391.19	189.58
391.39	133.41
391.58	187.24
391.78	88.94
391.97	194.26
392.16	156.82
392.36	180.22
392.55	201.29
392.75	163.84
392.94	145.11
393.13	154.48
393.33	135.75
393.52	187.24
393.71	117.03
393.91	182.56
394.10	119.37
394.29	126.39
394.49	198.95
394.68	95.96
394.88	170.86
395.07	198.95
395.26	187.24
395.46	187.24
395.65	187.24
395.84	156.82
396.04	161.50
396.23	138.09
396.42	147.45
396.62	152.13
396.81	112.35
397.00	201.29
397.19	93.62
397.39	163.84
397.58	163.84
397.77	161.50
397.97	149.79
398.16	184.90
398.35	102.98
398.55	117.03
398.74	110.01
398.93	205.97
399.12	156.82
399.32	203.63
399.51	145.11
399.70	95.96
399.90	194.26
400.09	170.86
400.28	77.24
400.47	135.75
400.67	203.63
400.86	149.79
401.05	166.18
401.24	138.09
401.44	173.20
401.63	177.88
401.82	215.33
402.01	156.82
402.21	145.11
402.40	180.22
402.59	145.11
402.78	163.84
402.97	220.01
403.17	163.84
403.36	159.16
403.55	156.82
403.74	189.58
403.93	145.11
404.13	257.46
404.32	205.97
404.51	217.67
404.70	257.46
404.89	210.65
405.09	224.69
405.28	117.03
405.47	91.28
405.66	149.79
405.85	152.13
406.05	161.50
406.24	175.54
406.43	114.69
406.62	184.90
406.81	198.95
407.00	119.37
407.20	163.84
407.39	168.52
407.58	140.43
407.77	112.35
407.96	220.01
408.15	212.99
408.34	112.35
408.54	140.43
408.73	191.92
408.92	191.92
409.11	145.11
409.30	198.95
409.49	159.16
409.68	114.69
409.87	245.76
410.07	201.29
410.26	145.11
410.45	180.22
410.64	161.50
410.83	198.95
411.02	112.35
411.21	114.69
411.40	168.52
411.59	177.88
411.78	124.05
411.98	175.54
412.17	231.71
412.36	159.16
412.55	215.33
412.74	180.22
412.93	131.07
413.12	205.97
413.31	135.75
413.50	194.26
413.69	205.97
413.88	231.71
414.07	189.58
414.26	198.95
414.45	112.35
414.64	175.54
414.83	163.84
415.02	152.13
415.22	128.73
415.41	191.92
415.60	161.50
415.79	142.77
415.98	227.03
416.17	241.08
416.36	212.99
416.55	126.39
416.74	166.18
416.93	215.33
417.12	145.11
417.31	152.13
417.50	131.07
417.69	234.05
417.88	241.08
418.07	241.08
418.26	269.16
418.45	187.24
418.64	250.44
418.83	210.65
419.02	210.65
419.21	182.56
419.39	210.65
419.58	208.31
419.77	215.33
419.96	210.65
420.15	245.76
420.34	170.86
420.53	187.24
420.72	163.84
420.91	224.69
421.10	203.63
421.29	205.97
421.48	194.26
421.67	159.16
421.86	138.09
422.05	152.13
422.24	187.24
422.43	198.95
422.61	140.43
422.80	198.95
422.99	126.39
423.18	135.75
423.37	133.41
423.56	266.82
423.75	154.48
423.94	138.09
424.13	145.11
424.32	205.97
424.50	182.56
424.69	110.01
424.88	154.48
425.07	117.03
425.26	194.26
425.45	290.23
425.64	287.89
425.83	173.20
426.01	257.46
426.20	201.29
426.39	161.50
426.58	147.45
426.77	227.03
426.96	191.92
427.15	217.67
427.33	163.84
427.52	163.84
427.71	161.50
427.90	166.18
428.09	135.75
428.28	149.79
428.46	149.79
428.65	161.50
428.84	231.71
429.03	212.99
429.22	149.79
429.40	105.32
429.59	184.90
429.78	156.82
429.97	187.24
430.16	198.95
430.34	182.56
430.53	107.66
430.72	180.22
430.91	234.05
431.10	161.50
431.28	161.50
431.47	126.39
431.66	203.63
431.85	224.69
432.03	112.35
432.22	222.35
432.41	187.24
432.60	215.33
432.79	168.52
432.97	325.33
433.16	299.59
433.35	234.05
433.54	152.13
433.72	191.92
433.91	208.31
434.10	217.67
434.28	201.29
434.47	198.95
434.66	194.26
434.85	142.77
435.03	180.22
435.22	283.20
435.41	482.15
435.59	414.27
435.78	301.93
435.97	161.50
436.16	231.71
436.34	182.56
436.53	205.97
436.72	175.54
436.90	238.73
437.09	250.44
437.28	238.73
437.46	187.24
437.65	166.18
437.84	145.11
438.02	220.01
438.21	133.41
438.40	149.79
438.58	156.82
438.77	114.69
438.96	196.60
439.14	79.58
439.33	236.39
439.52	241.08
439.70	140.43
439.89	224.69
440.08	191.92
440.26	154.48
440.45	168.52
440.63	149.79
440.82	156.82
441.01	147.45
441.19	119.37
441.38	173.20
441.57	217.67
441.75	227.03
441.94	224.69
442.12	243.42
442.31	161.50
442.50	163.84
442.68	114.69
442.87	222.35
443.05	154.48
443.24	145.11
443.43	227.03
443.61	175.54
443.80	149.79
443.98	149.79
444.17	107.66
444.35	177.88
444.54	180.22
444.73	191.92
444.91	234.05
445.10	149.79
445.28	196.60
445.47	187.24
445.65	161.50
445.84	205.97
446.02	203.63
446.21	201.29
446.39	156.82
446.58	215.33
446.77	180.22
446.95	166.18
447.14	163.84
447.32	201.29
447.51	84.26
447.69	117.03
447.88	217.67
448.06	243.42
448.25	217.67
448.43	243.42
448.62	131.07
448.80	276.18
448.99	243.42
449.17	189.58
449.36	196.60
449.54	208.31
449.73	152.13
449.91	196.60
450.10	184.90
450.28	145.11
450.46	229.37
450.65	248.10
450.83	234.05
451.02	142.77
451.20	163.84
451.39	236.39
451.57	177.88
451.76	147.45
451.94	154.48
452.13	205.97
452.31	201.29
452.49	189.58
452.68	238.73
452.86	180.22
453.05	245.76
453.23	208.31
453.42	227.03
453.60	212.99
453.78	159.16
453.97	147.45
454.15	212.99
454.34	203.63
454.52	166.18
454.70	170.86
454.89	140.43
455.07	154.48
455.26	161.50
455.44	257.46
455.62	234.05
455.81	168.52
455.99	215.33
456.17	234.05
456.36	121.71
456.54	222.35
456.73	198.95
456.91	112.35
457.09	227.03
457.28	245.76
457.46	236.39
457.64	203.63
457.83	189.58
458.01	159.16
458.19	203.63
458.38	257.46
458.56	245.76
458.74	222.35
458.93	168.52
459.11	243.42
459.29	100.64
459.48	168.52
459.66	290.23
459.84	262.14
460.03	325.33
460.21	245.76
460.39	189.58
460.57	205.97
460.76	170.86
460.94	194.26
461.12	229.37
461.31	191.92
461.49	194.26
461.67	121.71
461.85	234.05
462.04	252.78
462.22	692.80
462.40	191.92
462.59	222.35
462.77	156.82
462.95	210.65
463.13	180.22
463.32	210.65
463.50	175.54
463.68	234.05
463.86	196.60
464.05	161.50
464.23	191.92
464.41	189.58
464.59	166.18
464.78	177.88
464.96	161.50
465.14	198.95
465.32	208.31
465.50	248.10
465.69	196.60
465.87	147.45
466.05	245.76
466.23	100.64
466.41	177.88
466.60	205.97
466.78	182.56
466.96	196.60
467.14	243.42
467.32	241.08
467.51	215.33
467.69	220.01
467.87	255.12
468.05	248.10
468.23	280.86
468.41	212.99
468.60	245.76
468.78	234.05
468.96	220.01
469.14	180.22
469.32	149.79
469.50	194.26
469.69	177.88
469.87	198.95
470.05	98.30
470.23	163.84
470.41	252.78
470.59	250.44
470.77	290.23
470.95	201.29
471.14	234.05
471.32	138.09
471.50	231.71
471.68	182.56
471.86	252.78
472.04	241.08
472.22	159.16
472.40	184.90
472.58	203.63
472.77	147.45
472.95	163.84
473.13	238.73
473.31	187.24
473.49	224.69
473.67	187.24
473.85	222.35
474.03	147.45
474.21	163.84
474.39	203.63
474.57	259.80
474.75	220.01
474.93	189.58
475.12	124.05
475.30	201.29
475.48	236.39
475.66	210.65
475.84	229.37
476.02	170.86
476.20	180.22
476.38	191.92
476.56	301.93
476.74	212.99
476.92	212.99
477.10	182.56
477.28	255.12
477.46	203.63
477.64	203.63
477.82	170.86
478.00	196.60
478.18	194.26
478.36	196.60
478.54	245.76
478.72	189.58
478.90	198.95
479.08	248.10
479.26	163.84
479.44	187.24
479.62	159.16
479.80	184.90
479.98	294.91
480.16	205.97
480.34	175.54
480.52	198.95
480.70	166.18
480.88	191.92
481.06	180.22
481.24	264.48
481.41	126.39
481.59	140.43
481.77	220.01
481.95	229.37
482.13	287.89
482.31	217.67
482.49	236.39
482.67	252.78
482.85	250.44
483.03	140.43
483.21	215.33
483.39	245.76
483.57	212.99
483.74	297.25
483.92	159.16
484.10	177.88
484.28	248.10
484.46	236.39
484.64	184.90
484.82	257.46
485.00	285.55
485.18	285.55
485.35	191.92
485.53	152.13
485.71	297.25
485.89	196.60
486.07	236.39
486.25	341.72
486.43	280.86
486.61	280.86
486.78	224.69
486.96	159.16
487.14	229.37
487.32	222.35
487.50	273.84
487.68	257.46
487.85	175.54
488.03	252.78
488.21	280.86
488.39	276.18
488.57	280.86
488.75	201.29
488.92	458.74
489.10	299.59
489.28	322.99
489.46	243.42
489.64	273.84
489.81	248.10
489.99	227.03
490.17	308.95
490.35	250.44
490.53	294.91
490.70	266.82
490.88	229.37
491.06	257.46
491.24	238.73
491.41	287.89
491.59	238.73
491.77	278.52
491.95	189.58
492.13	205.97
492.30	177.88
492.48	238.73
492.66	271.50
492.84	257.46
493.01	285.55
493.19	292.57
493.37	292.57
493.54	322.99
493.72	229.37
493.90	231.71
494.08	243.42
494.25	290.23
494.43	262.14
494.61	250.44
494.79	212.99
494.96	241.08
495.14	271.50
495.32	227.03
495.49	304.27
495.67	255.12
495.85	229.37
496.02	243.42
496.20	266.82
496.38	248.10
496.55	276.18
496.73	245.76
496.91	269.16
497.09	280.86
497.26	285.55
497.44	236.39
497.62	241.08
497.79	287.89
497.97	276.18
498.14	304.27
498.32	285.55
498.50	311.29
498.67	208.31
498.85	236.39
499.03	170.86
499.20	250.44
499.38	231.71
499.56	297.25
499.73	294.91
499.91	290.23
500.08	257.46
500.26	290.23
500.44	220.01
500.61	224.69
500.79	255.12
500.97	184.90
501.14	299.59
501.32	299.59
501.49	243.42
501.67	252.78
501.84	236.39
502.02	189.58
502.20	287.89
502.37	283.20
502.55	222.35
502.72	194.26
502.90	330.02
503.07	278.52
503.25	255.12
503.43	285.55
503.60	322.99
503.78	306.61
503.95	292.57
504.13	212.99
504.30	227.03
504.48	245.76
504.65	280.86
504.83	290.23
505.01	252.78
505.18	231.71
505.36	245.76
505.53	257.46
505.71	252.78
505.88	173.20
506.06	177.88
506.23	224.69
506.41	238.73
506.58	294.91
506.76	252.78
506.93	234.05
507.11	257.46
507.28	238.73
507.46	241.08
507.63	365.12
507.81	262.14
507.98	217.67
508.16	215.33
508.33	212.99
508.50	299.59
508.68	290.23
508.85	299.59
509.03	201.29
509.20	184.90
509.38	264.48
509.55	234.05
509.73	264.48
509.90	252.78
510.08	231.71
510.25	257.46
510.42	234.05
510.60	264.48
510.77	290.23
510.95	346.40
511.12	276.18
511.30	346.40
511.47	381.51
511.64	334.70
511.82	287.89
511.99	236.39
512.17	205.97
512.34	262.14
512.51	241.08
512.69	330.02
512.86	374.49
513.04	187.24
513.21	285.55
513.38	248.10
513.56	297.25
513.73	248.10
513.90	259.80
514.08	234.05
514.25	234.05
514.43	203.63
514.60	287.89
514.77	203.63
514.95	217.67
515.12	248.10
515.29	234.05
515.47	182.56
515.64	269.16
515.81	257.46
515.99	278.52
516.16	259.80
516.33	248.10
516.51	201.29
516.68	203.63
516.85	182.56
517.03	292.57
517.20	264.48
517.37	224.69
517.54	243.42
517.72	276.18
517.89	285.55
518.06	196.60
518.24	297.25
518.41	313.63
518.58	248.10
518.75	301.93
518.93	248.10
519.10	238.73
519.27	273.84
519.45	259.80
519.62	245.76
519.79	287.89
519.96	255.12
520.14	241.08
520.31	257.46
520.48	297.25
520.65	245.76
520.83	299.59
521.00	327.68
521.17	327.68
521.34	266.82
521.52	264.48
521.69	196.60
521.86	236.39
522.03	301.93
522.20	337.04
522.38	379.17
522.55	276.18
522.72	301.93
522.89	238.73
523.07	379.17
523.24	264.48
523.41	308.95
523.58	252.78
523.75	287.89
523.92	259.80
524.10	250.44
524.27	248.10
524.44	278.52
524.61	245.76
524.78	241.08
524.96	266.82
525.13	248.10
525.30	304.27
525.47	348.74
525.64	203.63
525.81	259.80
525.98	208.31
526.16	276.18
526.33	236.39
526.50	299.59
526.67	278.52
526.84	234.05
527.01	252.78
527.18	257.46
527.36	273.84
527.53	325.33
527.70	259.80
527.87	285.55
528.04	290.23
528.21	208.31
528.38	255.12
528.55	337.04
528.72	318.31
528.89	241.08
529.07	301.93
529.24	299.59
529.41	278.52
529.58	299.59
529.75	276.18
529.92	273.84
530.09	299.59
530.26	372.15
530.43	287.89
530.60	255.12
530.77	201.29
530.94	334.70
531.11	220.01
531.28	243.42
531.46	203.63
531.63	327.68
531.80	297.25
531.97	318.31
532.14	259.80
532.31	271.50
532.48	351.08
532.65	400.23
532.82	404.91
532.99	322.99
533.16	360.44
533.33	365.12
533.50	365.12
533.67	449.38
533.84	489.17
534.01	489.17
534.18	425.98
534.35	346.40
534.52	355.76
534.69	395.55
534.86	276.18
535.03	311.29
535.20	322.99
535.37	266.82
535.54	266.82
535.71	344.06
535.88	297.25
536.05	285.55
536.22	248.10
536.38	262.14
536.55	280.86
536.72	264.48
536.89	264.48
537.06	353.42
537.23	362.78
537.40	344.06
537.57	320.65
537.74	330.02
537.91	313.63
538.08	383.85
538.25	355.76
538.42	292.57
538.59	355.76
538.75	306.61
538.92	304.27
539.09	411.93
539.26	402.57
539.43	472.79
539.60	1128.14
539.77	1717.95
539.94	1844.34
540.11	1245.16
540.28	894.08
540.44	678.76
540.61	465.77
540.78	479.81
540.95	496.19
541.12	585.13
541.29	587.47
541.46	638.97
541.62	550.03
541.79	608.54
541.96	491.51
542.13	521.94
542.30	535.98
542.47	479.81
542.63	535.98
542.80	538.32
542.97	521.94
543.14	519.60
543.31	482.15
543.48	500.87
543.64	514.92
543.81	531.30
543.98	482.15
544.15	491.51
544.32	566.41
544.48	470.45
544.65	554.71
544.82	526.62
544.99	524.28
545.16	482.15
545.32	564.07
545.49	807.48
545.66	1050.90
545.83	1081.33
546.00	971.32
546.16	748.97
546.33	634.29
546.50	477.47
546.67	519.60
546.83	454.06
547.00	428.32
547.17	461.09
547.34	456.40
547.50	423.64
547.67	397.89
547.84	437.68
548.00	458.74
548.17	362.78
548.34	433.00
548.51	465.77
548.67	505.56
548.84	285.55
549.01	341.72
549.18	449.38
549.34	388.53
549.51	411.93
549.68	369.80
549.84	388.53
550.01	308.95
550.18	369.80
550.34	416.62
550.51	393.21
550.68	362.78
550.84	266.82
551.01	308.95
551.18	397.89
551.34	325.33
551.51	337.04
551.68	257.46
551.84	381.51
552.01	360.44
552.18	259.80
552.34	318.31
552.51	339.38
552.68	397.89
552.84	304.27
553.01	290.23
553.18	292.57
553.34	273.84
553.51	255.12
553.67	301.93
553.84	393.21
554.01	344.06
554.17	353.42
554.34	290.23
554.51	259.80
554.67	376.83
554.84	351.08
555.00	287.89
555.17	308.95
555.33	332.36
555.50	367.46
555.67	334.70
555.83	311.29
556.00	351.08
556.16	468.11
556.33	301.93
556.50	278.52
556.66	257.46
556.83	337.04
556.99	271.50
557.16	243.42
557.32	266.82
557.49	259.80
557.65	203.63
557.82	271.50
557.98	252.78
558.15	248.10
558.32	236.39
558.48	227.03
558.65	271.50
558.81	334.70
558.98	287.89
559.14	255.12
559.31	292.57
559.47	220.01
559.64	306.61
559.80	280.86
559.97	287.89
560.13	271.50
560.30	159.16
560.46	189.58
560.63	245.76
560.79	264.48
560.96	259.80
561.12	241.08
561.29	245.76
561.45	262.14
561.61	238.73
561.78	299.59
561.94	299.59
562.11	259.80
562.27	243.42
562.44	231.71
562.60	238.73
562.77	271.50
562.93	374.49
563.10	278.52
563.26	257.46
563.42	259.80
563.59	294.91
563.75	184.90
563.92	217.67
564.08	205.97
564.24	322.99
564.41	313.63
564.57	229.37
564.74	271.50
564.90	308.95
565.07	311.29
565.23	379.17
565.39	299.59
565.56	271.50
565.72	280.86
565.88	276.18
566.05	215.33
566.21	264.48
566.38	301.93
566.54	313.63
566.70	276.18
566.87	278.52
567.03	252.78
567.19	248.10
567.36	315.97
567.52	217.67
567.68	252.78
567.85	170.86
568.01	278.52
568.17	236.39
568.34	297.25
568.50	339.38
568.66	301.93
568.83	355.76
568.99	280.86
569.15	292.57
569.32	273.84
569.48	306.61
569.64	273.84
569.81	203.63
569.97	283.20
570.13	318.31
570.30	257.46
570.46	269.16
570.62	217.67
570.78	299.59
570.95	201.29
571.11	276.18
571.27	355.76
571.43	266.82
571.60	266.82
571.76	283.20
571.92	327.68
572.09	285.55
572.25	180.22
572.41	252.78
572.57	276.18
572.74	304.27
572.90	313.63
573.06	241.08
573.22	269.16
573.38	311.29
573.55	222.35
573.71	304.27
573.87	236.39
574.03	294.91
574.20	259.80
574.36	337.04
574.52	332.36
574.68	365.12
574.84	358.10
575.01	379.17
575.17	252.78
575.33	248.10
575.49	264.48
575.65	341.72
575.82	376.83
575.98	599.18
576.14	786.42
576.30	842.59
576.46	688.12
576.62	657.69
576.79	500.87
576.95	454.06
577.11	337.04
577.27	360.44
577.43	355.76
577.59	358.10
577.75	327.68
577.92	320.65
578.08	287.89
578.24	313.63
578.40	400.23
578.56	416.62
578.72	512.58
578.88	489.17
579.04	411.93
579.21	435.34
579.37	376.83
579.53	332.36
579.69	369.80
579.85	351.08
580.01	386.19
580.17	482.15
580.33	545.34
580.49	470.45
580.65	381.51
580.82	444.70
580.98	433.00
581.14	465.77
581.30	418.96
581.46	369.80
581.62	601.52
581.78	688.12
581.94	690.46
582.10	568.75
582.26	510.24
582.42	519.60
582.58	500.87
582.74	489.17
582.90	547.69
583.06	550.03
583.22	512.58
583.38	599.18
583.54	648.33
583.70	725.57
583.86	877.70
584.02	880.04
584.18	1053.24
584.34	1275.59
584.50	3094.19
584.66	21553.99
584.82	56076.90
584.98	65535.00
585.14	65464.78
585.30	52924.19
585.46	32006.83
585.62	20168.40
585.78	9336.40
585.94	3625.49
586.10	1699.23
586.26	1111.75
586.42	896.43
586.58	791.10
586.74	798.12
586.90	641.31
587.06	786.42
587.22	657.69
587.38	718.54
587.54	1266.23
587.70	3428.88
587.86	6080.71
588.02	7131.61
588.18	5165.56
588.34	3206.53
588.49	2038.61
588.65	1331.76
588.81	730.25
588.97	421.30
589.13	470.45
589.29	355.76
589.45	414.27
589.61	388.53
589.77	449.38
589.93	461.09
590.08	552.37
590.24	585.13
590.40	526.62
590.56	465.77
590.72	493.85
590.88	437.68
591.04	440.02
591.20	421.30
591.35	379.17
591.51	411.93
591.67	416.62
591.83	409.59
591.99	421.30
592.15	421.30
592.31	346.40
592.46	451.72
592.62	470.45
592.78	379.17
592.94	376.83
593.10	407.25
593.26	297.25
593.41	442.36
593.57	407.25
593.73	571.09
593.89	2698.64
594.05	7393.75
594.20	11906.31
594.36	11672.25
594.52	7669.94
594.68	4751.29
594.84	3262.71
594.99	1776.47
595.15	875.36
595.31	566.41
595.47	437.68
595.62	372.15
595.78	381.51
595.94	451.72
596.10	374.49
596.25	386.19
596.41	463.43
596.57	381.51
596.73	465.77
596.88	599.18
597.04	1343.47
597.20	2462.24
597.36	3077.80
597.51	2417.77
597.67	1584.54
597.83	1142.18
597.99	823.87
598.14	479.81
598.30	507.90
598.46	369.80
598.61	517.26
598.77	332.36
598.93	386.19
599.09	402.57
599.24	353.42
599.40	421.30
599.56	297.25
599.71	358.10
599.87	327.68
600.03	330.02
600.18	290.23
600.34	341.72
600.50	252.78
600.65	287.89
600.81	287.89
600.97	250.44
601.12	269.16
601.28	294.91
601.44	266.82
601.59	262.14
601.75	346.40
601.91	266.82
602.06	287.89
602.22	484.49
602.37	737.27
602.53	1654.76
602.69	2864.82
602.84	3070.78
603.00	2342.88
603.16	1657.10
603.31	1071.97
603.47	765.36
603.62	512.58
603.78	372.15
603.94	259.80
604.09	330.02
604.25	358.10
604.40	262.14
604.56	325.33
604.71	365.12
604.87	266.82
605.03	344.06
605.18	400.23
605.34	332.36
605.49	292.57
605.65	360.44
605.80	374.49
605.96	381.51
606.12	341.72
606.27	297.25
606.43	407.25
606.58	507.90
606.74	896.43
606.89	3309.52
607.05	7129.27
607.20	10363.89
607.36	8676.37
607.51	5858.36
607.67	3817.41
607.82	2544.16
607.98	1486.24
608.13	805.14
608.29	601.52
608.44	575.77
608.60	550.03
608.75	615.56
608.91	1235.80
609.06	5093.01
609.22	12301.86
609.37	18061.91
609.53	16060.76
609.68	10829.66
609.84	6825.00
609.99	4585.11
