SpectraSuite Data File
++++++++++++++++++++++++++++++++++++
Date: Fri Oct 04 12:13:58 GMT-05:00 2013
User: price-jones
Dark Spectrum Present: No
Reference Spectrum Present: No
Number of Sampled Component Spectra: 1
Spectrometers: USB2+H05261
Integration Time (usec): 1000000 (USB2+H05261)
Spectra Averaged: 1 (USB2+H05261)
Boxcar Smoothing: 0 (USB2+H05261)
Correct for Electrical Dark: No (USB2+H05261)
Strobe/Lamp Enabled: No (USB2+H05261)
Correct for Detector Non-linearity: No (USB2+H05261)
Correct for Stray Light: No (USB2+H05261)
Number of Pixels in Processed Spectrum: 2048
>>>>>Begin Processed Spectral Data<<<<<
365.73	21.06
365.92	21.06
366.12	21.06
366.32	0.00
366.52	0.00
366.72	262.14
366.91	119.37
367.11	304.27
367.31	180.22
367.51	266.82
367.70	339.38
367.90	444.70
368.10	428.32
368.30	360.44
368.49	191.92
368.69	456.40
368.89	248.10
369.09	131.07
369.28	299.59
369.48	117.03
369.68	294.91
369.87	346.40
370.07	238.73
370.27	599.18
370.47	416.62
370.66	315.97
370.86	444.70
371.06	784.08
371.25	966.64
371.45	428.32
371.65	746.63
371.84	299.59
372.04	276.18
372.24	493.85
372.44	409.59
372.63	601.52
372.83	856.64
373.03	472.79
373.22	386.19
373.42	437.68
373.62	498.53
373.81	552.37
374.01	739.61
374.21	702.16
374.40	484.49
374.60	765.36
374.79	463.43
374.99	491.51
375.19	617.90
375.38	634.29
375.58	592.16
375.78	676.41
375.97	582.79
376.17	1032.18
376.37	507.90
376.56	645.99
376.76	388.53
376.95	390.87
377.15	685.78
377.35	528.96
377.54	535.98
377.74	428.32
377.93	372.15
378.13	585.13
378.33	690.46
378.52	566.41
378.72	807.48
378.91	697.48
379.11	463.43
379.31	397.89
379.50	269.16
379.70	631.94
379.89	692.80
380.09	416.62
380.28	367.46
380.48	493.85
380.68	489.17
380.87	339.38
381.07	486.83
381.26	755.99
381.46	592.16
381.65	587.47
381.85	428.32
382.04	388.53
382.24	638.97
382.43	517.26
382.63	358.10
382.83	348.74
383.02	723.23
383.22	699.82
383.41	390.87
383.61	482.15
383.80	458.74
384.00	503.22
384.19	489.17
384.39	533.64
384.58	454.06
384.78	629.60
384.97	608.54
385.17	425.98
385.36	390.87
385.56	699.82
385.75	332.36
385.95	430.66
386.14	748.97
386.34	472.79
386.53	578.11
386.72	414.27
386.92	889.40
387.11	650.67
387.31	683.44
387.50	421.30
387.70	381.51
387.89	475.13
388.09	442.36
388.28	404.91
388.48	372.15
388.67	727.91
388.86	433.00
389.06	482.15
389.25	592.16
389.45	573.43
389.64	517.26
389.84	709.18
390.03	592.16
390.22	573.43
390.42	463.43
390.61	451.72
390.81	271.50
391.00	566.41
391.19	720.88
391.39	484.49
391.58	692.80
391.78	500.87
391.97	533.64
392.16	348.74
392.36	816.85
392.55	821.53
392.75	526.62
392.94	367.46
393.13	697.48
393.33	376.83
393.52	433.00
393.71	819.19
393.91	510.24
394.10	411.93
394.29	489.17
394.49	601.52
394.68	779.40
394.88	919.83
395.07	793.44
395.26	601.52
395.46	594.50
395.65	697.48
395.84	676.41
396.04	1207.72
396.23	449.38
396.42	472.79
396.62	624.92
396.81	528.96
397.00	503.22
397.19	669.39
397.39	571.09
397.58	816.85
397.77	491.51
397.97	571.09
398.16	568.75
398.35	606.20
398.55	447.04
398.74	594.50
398.93	774.72
399.12	561.73
399.32	734.93
399.51	617.90
399.70	685.78
399.90	594.50
400.09	582.79
400.28	830.89
400.47	517.26
400.67	709.18
400.86	603.86
401.05	685.78
401.24	777.06
401.44	608.54
401.63	713.86
401.82	720.88
402.01	510.24
402.21	634.29
402.40	540.66
402.59	631.94
402.78	573.43
402.97	564.07
403.17	580.45
403.36	585.13
403.55	629.60
403.74	550.03
403.93	723.23
404.13	1043.88
404.32	727.91
404.51	587.47
404.70	765.36
404.89	545.34
405.09	1025.15
405.28	645.99
405.47	479.81
405.66	720.88
405.85	692.80
406.05	638.97
406.24	582.79
406.43	622.58
406.62	748.97
406.81	1067.28
407.00	781.74
407.20	550.03
407.39	540.66
407.58	566.41
407.77	676.41
407.96	894.08
408.15	784.08
408.34	788.76
408.54	629.60
408.73	617.90
408.92	657.69
409.11	823.87
409.30	816.85
409.49	486.83
409.68	699.82
409.87	706.84
410.07	491.51
410.26	543.00
410.45	580.45
410.64	566.41
410.83	676.41
411.02	505.56
411.21	758.33
411.40	786.42
411.59	543.00
411.78	601.52
411.98	610.88
412.17	571.09
412.36	617.90
412.55	545.34
412.74	851.96
412.93	978.34
413.12	575.77
413.31	978.34
413.50	711.52
413.69	641.31
413.88	898.77
414.07	816.85
414.26	699.82
414.45	566.41
414.64	786.42
414.83	744.29
415.02	805.14
415.22	901.11
415.41	1029.84
415.60	681.10
415.79	816.85
415.98	1053.24
416.17	657.69
416.36	699.82
416.55	561.73
416.74	812.17
416.93	912.81
417.12	727.91
417.31	650.67
417.50	730.25
417.69	1144.52
417.88	1100.05
418.07	784.08
418.26	849.61
418.45	737.27
418.64	1196.01
418.83	1308.36
419.02	1090.69
419.21	926.85
419.39	959.62
419.58	901.11
419.77	1006.43
419.96	1128.14
420.15	1151.54
420.34	784.08
420.53	765.36
420.72	919.83
420.91	791.10
421.10	683.44
421.29	788.76
421.48	830.89
421.67	931.53
421.86	660.03
422.05	690.46
422.24	582.79
422.43	711.52
422.61	557.05
422.80	615.56
422.99	770.04
423.18	587.47
423.37	940.90
423.56	760.67
423.75	826.21
423.94	624.92
424.13	601.52
424.32	571.09
424.50	765.36
424.69	730.25
424.88	1055.58
425.07	676.41
425.26	947.92
425.45	1142.18
425.64	1156.22
425.83	1205.38
426.01	1226.44
426.20	870.68
426.39	748.97
426.58	767.70
426.77	774.72
426.96	943.24
427.15	779.40
427.33	648.33
427.52	840.25
427.71	760.67
427.90	805.14
428.09	702.16
428.28	620.24
428.46	681.10
428.65	849.61
428.84	851.96
429.03	924.51
429.22	662.37
429.40	638.97
429.59	660.03
429.78	1205.38
429.97	760.67
430.16	641.31
430.34	636.63
430.53	601.52
430.72	676.41
430.91	875.36
431.10	571.09
431.28	657.69
431.47	964.30
431.66	950.26
431.85	674.07
432.03	793.44
432.22	1277.93
432.41	734.93
432.60	1109.41
432.79	800.46
432.97	1355.17
433.16	1488.58
433.35	1212.40
433.54	952.60
433.72	983.02
433.91	1034.52
434.10	809.83
434.28	938.55
434.47	908.13
434.66	1006.43
434.85	800.46
435.03	828.55
435.22	1036.86
435.41	1100.05
435.59	875.36
435.78	856.64
435.97	751.31
436.16	1046.22
436.34	842.59
436.53	828.55
436.72	1062.60
436.90	945.58
437.09	837.91
437.28	791.10
437.46	676.41
437.65	931.53
437.84	919.83
438.02	858.98
438.21	926.85
438.40	664.71
438.58	601.52
438.77	739.61
438.96	788.76
439.14	748.97
439.33	903.45
439.52	765.36
439.70	819.19
439.89	1025.15
440.08	870.68
440.26	858.98
440.45	1097.71
440.63	947.92
440.82	837.91
441.01	943.24
441.19	814.51
441.38	837.91
441.57	784.08
441.75	1055.58
441.94	1158.57
442.12	823.87
442.31	819.19
442.50	795.78
442.68	791.10
442.87	866.00
443.05	828.55
443.24	940.90
443.43	1160.91
443.61	1146.86
443.80	968.98
443.98	709.18
444.17	887.06
444.35	1004.09
444.54	842.59
444.73	915.15
444.91	1097.71
445.10	582.79
445.28	720.88
445.47	905.79
445.65	856.64
445.84	823.87
446.02	854.30
446.21	788.76
446.39	863.66
446.58	912.81
446.77	823.87
446.95	800.46
447.14	887.06
447.32	1163.25
447.51	880.04
447.69	961.96
447.88	866.00
448.06	1188.99
448.25	1013.45
448.43	819.19
448.62	702.16
448.80	1025.15
448.99	1118.78
449.17	781.74
449.36	800.46
449.54	983.02
449.73	741.95
449.91	971.32
450.10	802.80
450.28	1430.07
450.46	1371.55
450.65	1104.73
450.83	1050.90
451.02	908.13
451.20	772.38
451.39	950.26
451.57	924.51
451.76	805.14
451.94	903.45
452.13	1069.62
452.31	1057.92
452.49	1090.69
452.68	699.82
452.86	896.43
453.05	1369.21
453.23	858.98
453.42	720.88
453.60	910.47
453.78	1001.75
453.97	704.50
454.15	786.42
454.34	851.96
454.52	856.64
454.70	1268.57
454.89	992.39
455.07	809.83
455.26	1034.52
455.44	1137.50
455.62	866.00
455.81	1027.50
455.99	1090.69
456.17	1025.15
456.36	929.19
456.54	812.17
456.73	868.34
456.91	882.38
457.09	985.37
457.28	1170.27
457.46	964.30
457.64	1165.59
457.83	950.26
458.01	840.25
458.19	985.37
458.38	861.32
458.56	976.00
458.74	727.91
458.93	1055.58
459.11	959.62
459.29	791.10
459.48	1097.71
459.66	1350.49
459.84	1055.58
460.03	1757.74
460.21	1109.41
460.39	894.08
460.57	1240.48
460.76	1071.97
460.94	964.30
461.12	1385.60
461.31	1299.00
461.49	966.64
461.67	873.02
461.85	894.08
462.04	999.41
462.22	5844.32
462.40	1214.74
462.59	1306.02
462.77	880.04
462.95	1018.13
463.13	805.14
463.32	1156.22
463.50	987.71
463.68	1093.03
463.86	1046.22
464.05	994.73
464.23	1177.29
464.41	1057.92
464.59	889.40
464.78	938.55
464.96	802.80
465.14	1011.11
465.32	894.08
465.50	1029.84
465.69	1188.99
465.87	851.96
466.05	994.73
466.23	781.74
466.41	851.96
466.60	917.49
466.78	985.37
466.96	1324.74
467.14	1053.24
467.32	1186.65
467.51	1025.15
467.69	1121.12
467.87	1324.74
468.05	999.41
468.23	1371.55
468.41	1121.12
468.60	945.58
468.78	1062.60
468.96	1160.91
469.14	1090.69
469.32	833.23
469.50	837.91
469.69	1064.94
469.87	1086.01
470.05	1090.69
470.23	1053.24
470.41	952.60
470.59	1011.11
470.77	1078.99
470.95	1067.28
471.14	1245.16
471.32	1008.77
471.50	1378.58
471.68	938.55
471.86	1078.99
472.04	856.64
472.22	1060.26
472.40	791.10
472.58	943.24
472.77	826.21
472.95	978.34
473.13	1453.47
473.31	1416.02
473.49	861.32
473.67	861.32
473.85	1111.75
474.03	1153.88
474.21	985.37
474.39	1294.32
474.57	1366.87
474.75	1137.50
474.93	940.90
475.12	877.70
475.30	1027.50
475.48	997.07
475.66	1090.69
475.84	1074.31
476.02	1001.75
476.20	1071.97
476.38	1006.43
476.56	1708.59
476.74	1102.39
476.92	966.64
477.10	1015.79
477.28	1186.65
477.46	978.34
477.64	1240.48
477.82	1067.28
478.00	999.41
478.18	1097.71
478.36	1020.47
478.54	966.64
478.72	1048.56
478.90	1062.60
479.08	1184.31
479.26	1102.39
479.44	1022.81
479.62	1069.62
479.80	1067.28
479.98	926.85
480.16	1006.43
480.34	1273.25
480.52	1050.90
480.70	1263.89
480.88	1039.20
481.06	1004.09
481.24	1008.77
481.41	1074.31
481.59	1238.14
481.77	1203.04
481.95	1114.10
482.13	1383.26
482.31	1226.44
482.49	1064.94
482.67	1235.80
482.85	1343.47
483.03	1364.53
483.21	1320.06
483.39	1083.67
483.57	1090.69
483.74	1519.01
483.92	1132.82
484.10	1083.67
484.28	1427.73
484.46	1687.53
484.64	1156.22
484.82	1214.74
485.00	1163.25
485.18	1167.93
485.35	1165.59
485.53	952.60
485.71	1341.13
485.89	873.02
486.07	1074.31
486.25	1720.29
486.43	1287.29
486.61	1291.98
486.78	1315.38
486.96	973.66
487.14	1186.65
487.32	1107.07
487.50	1107.07
487.68	1460.49
487.85	1156.22
488.03	1261.55
488.21	1540.07
488.39	1233.46
488.57	1437.09
488.75	1158.57
488.92	4011.68
489.10	1383.26
489.28	1736.68
489.46	1242.82
489.64	1378.58
489.81	1296.66
489.99	1455.81
490.17	1357.51
490.35	2001.16
490.53	1355.17
490.70	1270.91
490.88	1530.71
491.06	1228.78
491.24	1448.79
491.41	1612.63
491.59	1446.45
491.77	1158.57
491.95	1191.33
492.13	1156.22
492.30	1348.15
492.48	1345.81
492.66	1409.00
492.84	1303.68
493.01	1504.96
493.19	1261.55
493.37	1762.42
493.54	1554.12
493.72	1460.49
493.90	1315.38
494.08	1327.08
494.25	1479.22
494.43	1570.50
494.61	1369.21
494.79	1331.76
494.96	1277.93
495.14	1582.20
495.32	1451.13
495.49	1423.05
495.67	1451.13
495.85	1425.39
496.02	1277.93
496.20	1661.78
496.38	1577.52
496.55	1448.79
496.73	1584.54
496.91	1427.73
497.09	1645.40
497.26	1607.95
497.44	1511.99
497.62	1465.18
497.79	1455.81
497.97	1671.14
498.14	1584.54
498.32	1551.78
498.50	1544.75
498.67	1476.88
498.85	1547.09
499.03	1526.03
499.20	1481.56
499.38	1570.50
499.56	1612.63
499.73	1923.92
499.91	1591.56
500.08	1750.72
500.26	1378.58
500.44	1387.94
500.61	1523.69
500.79	1406.66
500.97	1654.76
501.14	1818.60
501.32	1577.52
501.49	1689.87
501.67	1413.68
501.84	1516.67
502.02	1336.45
502.20	1774.13
502.37	1675.82
502.55	1411.34
502.72	1519.01
502.90	1755.40
503.07	1633.69
503.25	1605.61
503.43	1570.50
503.60	1556.46
503.78	1760.08
503.95	1540.07
504.13	1462.83
504.30	1657.10
504.48	1682.85
504.65	1849.02
504.83	1839.66
505.01	1418.36
505.18	1675.82
505.36	1563.48
505.53	1533.05
505.71	1427.73
505.88	1916.90
506.06	1516.67
506.23	1434.75
506.41	1488.58
506.58	1563.48
506.76	1570.50
506.93	1418.36
507.11	1643.06
507.28	1511.99
507.46	1537.73
507.63	1647.74
507.81	1488.58
507.98	1640.72
508.16	1694.55
508.33	1671.14
508.50	1795.19
508.68	1540.07
508.85	1671.14
509.03	1661.78
509.20	1614.97
509.38	1661.78
509.55	1830.30
509.73	1813.92
509.90	1870.09
510.08	1465.18
510.25	1753.06
510.42	1455.81
510.60	1563.48
510.77	1666.46
510.95	1952.01
511.12	1664.12
511.30	2015.20
511.47	2005.84
511.64	2193.08
511.82	1741.36
511.99	1858.39
512.17	1514.33
512.34	1519.01
512.51	1483.90
512.69	1554.12
512.86	2005.84
513.04	1481.56
513.21	1577.52
513.38	1551.78
513.56	1451.13
513.73	1486.24
513.90	1448.79
514.08	1472.20
514.25	1724.97
514.43	1797.53
514.60	1434.75
514.77	1631.35
514.95	1732.00
515.12	1542.41
515.29	1748.38
515.47	1652.42
515.64	1694.55
515.81	1696.89
515.99	1851.36
516.16	1680.50
516.33	1823.28
516.51	1439.43
516.68	1284.95
516.85	1324.74
517.03	1406.66
517.20	1645.40
517.37	1666.46
517.54	1727.32
517.72	1533.05
517.89	1315.38
518.06	1324.74
518.24	1984.77
518.41	1975.41
518.58	1795.19
518.75	1671.14
518.93	1753.06
519.10	1778.81
519.27	1584.54
519.45	1530.71
519.62	1689.87
519.79	1858.39
519.96	1577.52
520.14	1764.76
520.31	2022.22
520.48	1640.72
520.65	1764.76
520.83	1790.51
521.00	1783.49
521.17	1729.66
521.34	1631.35
521.52	1614.97
521.69	1633.69
521.86	1720.29
522.03	1937.96
522.20	2001.16
522.38	1577.52
522.55	1612.63
522.72	1397.30
522.89	1783.49
523.07	2106.48
523.24	1636.03
523.41	1563.48
523.58	1561.14
523.75	1668.80
523.92	1521.35
524.10	1717.95
524.27	1710.93
524.44	1659.44
524.61	1980.09
524.78	1701.57
524.96	1895.83
525.13	1722.63
525.30	1940.30
525.47	1891.15
525.64	1713.27
525.81	1722.63
525.98	1762.42
526.16	1551.78
526.33	1537.73
526.50	1399.64
526.67	1462.83
526.84	1378.58
527.01	1504.96
527.18	1739.02
527.36	1600.93
527.53	1661.78
527.70	1933.28
527.87	1654.76
528.04	2167.34
528.21	1607.95
528.38	1980.09
528.55	2012.86
528.72	2080.74
528.89	2195.42
529.07	1769.44
529.24	1689.87
529.41	2162.66
529.58	1727.32
529.75	1650.08
529.92	1884.13
530.09	1741.36
530.26	1980.09
530.43	2012.86
530.60	1842.00
530.77	1881.79
530.94	1909.88
531.11	1881.79
531.28	1689.87
531.46	1612.63
531.63	1877.11
531.80	1832.64
531.97	1879.45
532.14	1741.36
532.31	1790.51
532.48	1935.62
532.65	2127.55
532.82	2373.30
532.99	2562.89
533.16	2054.99
533.33	2090.10
533.50	1975.41
533.67	2057.33
533.84	2583.95
534.01	3030.99
534.18	2654.17
534.35	2305.43
534.52	2129.89
534.69	2225.85
534.86	1813.92
535.03	1708.59
535.20	1839.66
535.37	2022.22
535.54	1935.62
535.71	1797.53
535.88	2087.76
536.05	1783.49
536.22	1809.23
536.38	1741.36
536.55	1732.00
536.72	1961.37
536.89	1535.39
537.06	1647.74
537.23	1739.02
537.40	1689.87
537.57	1626.67
537.74	1952.01
537.91	1863.07
538.08	1741.36
538.25	1839.66
538.42	1661.78
538.59	1727.32
538.75	1753.06
538.92	1732.00
539.09	2001.16
539.26	1863.07
539.43	2995.89
539.60	5909.85
539.77	9874.72
539.94	10815.62
540.11	7045.01
540.28	4638.94
540.44	3508.46
540.61	2186.06
540.78	1743.70
540.95	1657.10
541.12	2115.84
541.29	1647.74
541.46	2026.90
541.62	1834.98
541.79	1596.25
541.96	1636.03
542.13	1650.08
542.30	1535.39
542.47	1980.09
542.63	1605.61
542.80	1783.49
542.97	2010.52
543.14	1717.95
543.31	1746.04
543.48	1724.97
543.64	1785.83
543.81	1675.82
543.98	1661.78
544.15	1509.65
544.32	1640.72
544.48	1666.46
544.65	1717.95
544.82	1619.65
544.99	1762.42
545.16	1954.35
545.32	1544.75
545.49	1708.59
545.66	1647.74
545.83	1528.37
546.00	1509.65
546.16	1526.03
546.33	1650.08
546.50	1675.82
546.67	1865.41
546.83	1867.75
547.00	1682.85
547.17	1547.09
547.34	1589.22
547.50	1586.88
547.67	1673.48
547.84	1502.62
548.00	1879.45
548.17	1598.59
548.34	1600.93
548.51	2064.35
548.67	1900.52
548.84	1706.25
549.01	1739.02
549.18	1851.36
549.34	1753.06
549.51	1818.60
549.68	1851.36
549.84	1699.23
550.01	1500.28
550.18	2679.91
550.34	2361.60
550.51	1837.32
550.68	2167.34
550.84	1643.06
551.01	1661.78
551.18	1823.28
551.34	1682.85
551.51	1724.97
551.68	1593.90
551.84	1825.62
552.01	1640.72
552.18	1586.88
552.34	1680.50
552.51	1657.10
552.68	1741.36
552.84	1547.09
553.01	1703.91
553.18	1842.00
553.34	1497.94
553.51	1556.46
553.67	1797.53
553.84	2085.42
554.01	1820.94
554.17	1762.42
554.34	1575.18
554.51	1757.74
554.67	1893.49
554.84	1888.81
555.00	1783.49
555.17	1675.82
555.33	1942.64
555.50	1818.60
555.67	1863.07
555.83	1732.00
556.00	1867.75
556.16	3452.29
556.33	1881.79
556.50	1680.50
556.66	1689.87
556.83	1570.50
556.99	1591.56
557.16	1626.67
557.32	1591.56
557.49	1600.93
557.65	1451.13
557.82	1540.07
557.98	1659.44
558.15	1535.39
558.32	1626.67
558.48	1633.69
558.65	1617.31
558.81	1659.44
558.98	1469.86
559.14	1804.55
559.31	1673.48
559.47	1771.79
559.64	1451.13
559.80	1851.36
559.97	1516.67
560.13	1558.80
560.30	1511.99
560.46	1605.61
560.63	1614.97
560.79	1570.50
560.96	1722.63
561.12	1582.20
561.29	1811.57
561.45	1666.46
561.61	1636.03
561.78	2373.30
561.94	1657.10
562.11	1523.69
562.27	1544.75
562.44	1469.86
562.60	1558.80
562.77	1603.27
562.93	2143.93
563.10	1769.44
563.26	1568.16
563.42	1849.02
563.59	1720.29
563.75	1495.60
563.92	1795.19
564.08	1809.23
564.24	1790.51
564.41	2029.24
564.57	1483.90
564.74	1561.14
564.90	1769.44
565.07	1933.28
565.23	1900.52
565.39	1802.21
565.56	2062.01
565.72	1760.08
565.88	1708.59
566.05	1631.35
566.21	1629.01
566.38	1750.72
566.54	1710.93
566.70	1551.78
566.87	1612.63
567.03	1355.17
567.19	1556.46
567.36	1732.00
567.52	1481.56
567.68	1715.61
567.85	1682.85
568.01	1582.20
568.17	1352.83
568.34	1453.47
568.50	1933.28
568.66	1568.16
568.83	2342.88
568.99	1586.88
569.15	1881.79
569.32	1500.28
569.48	1558.80
569.64	1511.99
569.81	1612.63
569.97	1467.52
570.13	1603.27
570.30	1568.16
570.46	1488.58
570.62	1516.67
570.78	1519.01
570.95	1313.04
571.11	1996.48
571.27	1928.60
571.43	1481.56
571.60	1879.45
571.76	1673.48
571.92	1703.91
572.09	1626.67
572.25	1657.10
572.41	1626.67
572.57	1640.72
572.74	1996.48
572.90	1689.87
573.06	1806.89
573.22	1657.10
573.38	1839.66
573.55	1795.19
573.71	1851.36
573.87	1675.82
574.03	1589.22
574.20	1610.29
574.36	2143.93
574.52	2139.25
574.68	2272.66
574.84	2214.15
575.01	1907.54
575.17	1849.02
575.33	1586.88
575.49	1816.26
575.65	1966.05
575.82	2291.38
575.98	3616.13
576.14	4486.81
576.30	4861.29
576.46	3702.73
576.62	2855.45
576.79	2553.52
576.95	2356.92
577.11	1783.49
577.27	1610.29
577.43	2012.86
577.59	2097.12
577.75	1944.99
577.92	1795.19
578.08	1732.00
578.24	1633.69
578.40	2005.84
578.56	2111.16
578.72	2078.40
578.88	2026.90
579.04	1963.71
579.21	1898.17
579.37	1720.29
579.53	1844.34
579.69	2169.68
579.85	2012.86
580.01	2303.09
580.17	2342.88
580.33	2455.22
580.49	2363.94
580.65	2387.35
580.82	2221.17
580.98	2040.95
581.14	2148.61
581.30	2583.95
581.46	2693.96
581.62	3644.21
581.78	3967.21
581.94	3899.33
582.10	3091.85
582.26	2944.39
582.42	2635.44
582.58	2745.45
582.74	2525.44
582.90	2679.91
583.06	2949.08
583.22	2834.39
583.38	2988.86
583.54	3068.44
583.70	4077.21
583.86	4367.44
584.02	4774.69
584.18	5825.59
584.34	7258.00
584.50	18176.60
584.66	65535.00
584.82	65535.00
584.98	65535.00
585.14	65535.00
585.30	65535.00
585.46	65535.00
585.62	65535.00
585.78	58447.86
585.94	20971.20
586.10	10106.43
586.26	6502.01
586.42	5556.43
586.58	4435.32
586.74	3967.21
586.90	3981.25
587.06	3852.52
587.22	3524.85
587.38	3365.69
587.54	6511.37
587.70	20063.07
587.86	37446.23
588.02	46405.80
588.18	32367.27
588.34	18979.40
588.49	12512.50
588.65	7599.72
588.81	4133.39
588.97	2473.95
589.13	2115.84
589.29	2062.01
589.45	2225.85
589.61	1977.75
589.77	2754.81
589.93	2766.51
590.08	2972.48
590.24	2956.10
590.40	2813.32
590.56	2691.62
590.72	2183.72
590.88	2040.95
591.04	2347.56
591.20	2150.95
591.35	2345.22
591.51	2026.90
591.67	1891.15
591.83	1907.54
591.99	2069.03
592.15	2003.50
592.31	1954.35
592.46	1865.41
592.62	2033.93
592.78	1792.85
592.94	1771.79
593.10	1804.55
593.26	1954.35
593.41	2328.83
593.57	2375.64
593.73	3339.94
593.89	15721.38
594.05	43866.32
594.20	60938.19
594.36	60690.09
594.52	46976.89
594.68	28336.87
594.84	18972.38
594.99	10436.45
595.15	4910.44
595.31	3075.46
595.47	2731.41
595.62	2174.36
595.78	2062.01
595.94	1982.43
596.10	2333.51
596.25	2284.36
596.41	2380.32
596.57	1956.69
596.73	2001.16
596.88	3089.51
597.04	7969.52
597.20	14508.98
597.36	19318.78
597.51	14354.51
597.67	9076.60
597.83	6267.95
597.99	4641.28
598.14	2895.24
598.30	2504.37
598.46	2113.50
598.61	2389.69
598.77	2099.46
598.93	1881.79
599.09	1893.49
599.24	1895.83
599.40	1832.64
599.56	1647.74
599.71	1666.46
599.87	1643.06
600.03	1713.27
600.18	1591.56
600.34	1621.99
600.50	1582.20
