SpectraSuite Data File
++++++++++++++++++++++++++++++++++++
Date: Fri Oct 04 11:34:04 GMT-05:00 2013
User: price-jones
Dark Spectrum Present: No
Reference Spectrum Present: No
Number of Sampled Component Spectra: 1
Spectrometers: USB2+H05261
Integration Time (usec): 100000 (USB2+H05261)
Spectra Averaged: 1 (USB2+H05261)
Boxcar Smoothing: 0 (USB2+H05261)
Correct for Electrical Dark: No (USB2+H05261)
Strobe/Lamp Enabled: No (USB2+H05261)
Correct for Detector Non-linearity: No (USB2+H05261)
Correct for Stray Light: No (USB2+H05261)
Number of Pixels in Processed Spectrum: 2048
>>>>>Begin Processed Spectral Data<<<<<
365.73	30.43
365.92	30.43
366.12	30.43
366.32	60.85
366.52	11.70
366.72	0.00
366.91	0.00
367.11	0.00
367.31	0.00
367.51	0.00
367.70	0.00
367.90	0.00
368.10	21.06
368.30	0.00
368.49	0.00
368.69	0.00
368.89	0.00
369.09	0.00
369.28	0.00
369.48	0.00
369.68	14.04
369.87	42.13
370.07	0.00
370.27	51.49
370.47	67.88
370.66	126.39
370.86	74.90
371.06	166.18
371.25	147.45
371.45	102.98
371.65	44.47
371.84	35.11
372.04	112.35
372.24	128.73
372.44	39.79
372.63	128.73
372.83	194.26
373.03	114.69
373.22	149.79
373.42	156.82
373.62	196.60
373.81	154.48
374.01	124.05
374.21	145.11
374.40	138.09
374.60	234.05
374.79	126.39
374.99	175.54
375.19	215.33
375.38	184.90
375.58	128.73
375.78	166.18
375.97	112.35
376.17	238.73
376.37	124.05
376.56	163.84
376.76	124.05
376.95	51.49
377.15	201.29
377.35	175.54
377.54	166.18
377.74	168.52
377.93	145.11
378.13	173.20
378.33	93.62
378.52	154.48
378.72	149.79
378.91	156.82
379.11	131.07
379.31	156.82
379.50	124.05
379.70	138.09
379.89	187.24
380.09	147.45
380.28	79.58
380.48	131.07
380.68	187.24
380.87	156.82
381.07	154.48
381.26	131.07
381.46	189.58
381.65	117.03
381.85	140.43
382.04	145.11
382.24	81.92
382.43	145.11
382.63	114.69
382.83	128.73
383.02	126.39
383.22	175.54
383.41	128.73
383.61	98.30
383.80	152.13
384.00	117.03
384.19	88.94
384.39	217.67
384.58	102.98
384.78	161.50
384.97	184.90
385.17	124.05
385.36	138.09
385.56	124.05
385.75	117.03
385.95	147.45
386.14	114.69
386.34	79.58
386.53	187.24
386.72	119.37
386.92	189.58
387.11	156.82
387.31	133.41
387.50	154.48
387.70	133.41
387.89	70.22
388.09	140.43
388.28	91.28
388.48	102.98
388.67	154.48
388.86	84.26
389.06	58.51
389.25	138.09
389.45	98.30
389.64	177.88
389.84	107.66
390.03	152.13
390.22	131.07
390.42	194.26
390.61	88.94
390.81	112.35
391.00	142.77
391.19	198.95
391.39	198.95
391.58	156.82
391.78	152.13
391.97	161.50
392.16	140.43
392.36	135.75
392.55	131.07
392.75	131.07
392.94	170.86
393.13	124.05
393.33	124.05
393.52	124.05
393.71	177.88
393.91	222.35
394.10	112.35
394.29	215.33
394.49	147.45
394.68	170.86
394.88	149.79
395.07	180.22
395.26	142.77
395.46	110.01
395.65	126.39
395.84	77.24
396.04	95.96
396.23	128.73
396.42	121.71
396.62	135.75
396.81	140.43
397.00	205.97
397.19	131.07
397.39	72.56
397.58	191.92
397.77	131.07
397.97	142.77
398.16	166.18
398.35	135.75
398.55	154.48
398.74	147.45
398.93	140.43
399.12	147.45
399.32	182.56
399.51	138.09
399.70	196.60
399.90	203.63
400.09	138.09
400.28	133.41
400.47	133.41
400.67	170.86
400.86	138.09
401.05	133.41
401.24	110.01
401.44	154.48
401.63	135.75
401.82	210.65
402.01	128.73
402.21	156.82
402.40	205.97
402.59	138.09
402.78	189.58
402.97	107.66
403.17	128.73
403.36	173.20
403.55	147.45
403.74	187.24
403.93	224.69
404.13	231.71
404.32	243.42
404.51	259.80
404.70	217.67
404.89	184.90
405.09	187.24
405.28	203.63
405.47	140.43
405.66	88.94
405.85	187.24
406.05	107.66
406.24	170.86
406.43	255.12
406.62	161.50
406.81	93.62
407.00	168.52
407.20	161.50
407.39	224.69
407.58	170.86
407.77	152.13
407.96	138.09
408.15	177.88
408.34	163.84
408.54	182.56
408.73	154.48
408.92	131.07
409.11	131.07
409.30	147.45
409.49	217.67
409.68	124.05
409.87	145.11
410.07	170.86
410.26	159.16
410.45	95.96
410.64	126.39
410.83	117.03
411.02	110.01
411.21	159.16
411.40	152.13
411.59	110.01
411.78	112.35
411.98	126.39
412.17	128.73
412.36	142.77
412.55	170.86
412.74	168.52
412.93	145.11
413.12	131.07
413.31	203.63
413.50	154.48
413.69	205.97
413.88	184.90
414.07	163.84
414.26	145.11
414.45	133.41
414.64	138.09
414.83	180.22
415.02	121.71
415.22	156.82
415.41	161.50
415.60	224.69
415.79	215.33
415.98	283.20
416.17	189.58
416.36	248.10
416.55	170.86
416.74	154.48
416.93	175.54
417.12	156.82
417.31	149.79
417.50	100.64
417.69	220.01
417.88	201.29
418.07	161.50
418.26	131.07
418.45	184.90
418.64	264.48
418.83	292.57
419.02	220.01
419.21	182.56
419.39	161.50
419.58	135.75
419.77	236.39
419.96	184.90
420.15	191.92
420.34	212.99
420.53	205.97
420.72	175.54
420.91	152.13
421.10	138.09
421.29	154.48
421.48	100.64
421.67	152.13
421.86	152.13
422.05	147.45
422.24	121.71
422.43	142.77
422.61	70.22
422.80	119.37
422.99	170.86
423.18	124.05
423.37	100.64
423.56	119.37
423.75	147.45
423.94	149.79
424.13	175.54
424.32	210.65
424.50	203.63
424.69	215.33
424.88	245.76
425.07	133.41
425.26	205.97
425.45	220.01
425.64	224.69
425.83	182.56
426.01	231.71
426.20	173.20
426.39	138.09
426.58	117.03
426.77	138.09
426.96	203.63
427.15	175.54
427.33	102.98
427.52	135.75
427.71	170.86
427.90	184.90
428.09	163.84
428.28	173.20
428.46	154.48
428.65	180.22
428.84	187.24
429.03	248.10
429.22	98.30
429.40	180.22
429.59	124.05
429.78	224.69
429.97	166.18
430.16	166.18
430.34	191.92
430.53	208.31
430.72	147.45
430.91	212.99
431.10	140.43
431.28	220.01
431.47	215.33
431.66	175.54
431.85	184.90
432.03	187.24
432.22	248.10
432.41	170.86
432.60	212.99
432.79	177.88
432.97	126.39
433.16	234.05
433.35	215.33
433.54	147.45
433.72	208.31
433.91	245.76
434.10	187.24
434.28	292.57
434.47	201.29
434.66	227.03
434.85	138.09
435.03	159.16
435.22	400.23
435.41	447.04
435.59	367.46
435.78	388.53
435.97	266.82
436.16	306.61
436.34	175.54
436.53	187.24
436.72	297.25
436.90	154.48
437.09	189.58
437.28	191.92
437.46	107.66
437.65	170.86
437.84	187.24
438.02	138.09
438.21	166.18
438.40	149.79
438.58	163.84
438.77	133.41
438.96	217.67
439.14	168.52
439.33	173.20
439.52	152.13
439.70	191.92
439.89	170.86
440.08	135.75
440.26	159.16
440.45	201.29
440.63	175.54
440.82	191.92
441.01	182.56
441.19	159.16
441.38	208.31
441.57	220.01
441.75	196.60
441.94	152.13
442.12	187.24
442.31	205.97
442.50	168.52
442.68	177.88
442.87	140.43
443.05	159.16
443.24	175.54
443.43	198.95
443.61	147.45
443.80	140.43
443.98	191.92
444.17	163.84
444.35	149.79
444.54	180.22
444.73	170.86
444.91	187.24
445.10	177.88
445.28	119.37
445.47	191.92
445.65	215.33
445.84	79.58
446.02	173.20
446.21	175.54
446.39	234.05
446.58	241.08
446.77	191.92
446.95	100.64
447.14	208.31
447.32	180.22
447.51	187.24
447.69	175.54
447.88	86.60
448.06	175.54
448.25	180.22
448.43	147.45
448.62	128.73
448.80	194.26
448.99	191.92
449.17	184.90
449.36	250.44
449.54	131.07
449.73	107.66
449.91	163.84
450.10	161.50
450.28	266.82
450.46	191.92
450.65	191.92
450.83	231.71
451.02	135.75
451.20	135.75
451.39	112.35
451.57	198.95
451.76	245.76
451.94	173.20
452.13	229.37
452.31	248.10
452.49	210.65
452.68	220.01
452.86	177.88
453.05	241.08
453.23	135.75
453.42	154.48
453.60	194.26
453.78	163.84
453.97	168.52
454.15	189.58
454.34	208.31
454.52	208.31
454.70	210.65
454.89	138.09
455.07	156.82
455.26	208.31
455.44	201.29
455.62	222.35
455.81	191.92
455.99	203.63
456.17	184.90
456.36	149.79
456.54	208.31
456.73	210.65
456.91	147.45
457.09	145.11
457.28	198.95
457.46	170.86
457.64	203.63
457.83	184.90
458.01	203.63
458.19	145.11
458.38	243.42
458.56	208.31
458.74	198.95
458.93	241.08
459.11	121.71
459.29	173.20
459.48	220.01
459.66	278.52
459.84	264.48
460.03	252.78
460.21	245.76
460.39	191.92
460.57	248.10
460.76	210.65
460.94	198.95
461.12	217.67
461.31	205.97
461.49	224.69
461.67	149.79
461.85	203.63
462.04	262.14
462.22	648.33
462.40	217.67
462.59	205.97
462.77	175.54
462.95	196.60
463.13	135.75
463.32	170.86
463.50	241.08
463.68	255.12
463.86	147.45
464.05	177.88
464.23	220.01
464.41	191.92
464.59	170.86
464.78	182.56
464.96	175.54
465.14	168.52
465.32	208.31
465.50	255.12
465.69	105.32
465.87	177.88
466.05	180.22
466.23	126.39
466.41	191.92
466.60	126.39
466.78	88.94
466.96	215.33
467.14	182.56
467.32	238.73
467.51	170.86
467.69	163.84
467.87	229.37
468.05	133.41
468.23	245.76
468.41	245.76
468.60	180.22
468.78	252.78
468.96	238.73
469.14	166.18
469.32	203.63
469.50	156.82
469.69	243.42
469.87	229.37
470.05	91.28
470.23	170.86
470.41	234.05
470.59	196.60
470.77	196.60
470.95	170.86
471.14	177.88
471.32	149.79
471.50	189.58
471.68	257.46
471.86	156.82
472.04	205.97
472.22	191.92
472.40	196.60
472.58	117.03
472.77	173.20
472.95	168.52
473.13	236.39
473.31	175.54
473.49	191.92
473.67	138.09
473.85	220.01
474.03	236.39
474.21	287.89
474.39	210.65
474.57	278.52
474.75	166.18
474.93	173.20
475.12	135.75
475.30	154.48
475.48	182.56
475.66	159.16
475.84	191.92
476.02	170.86
476.20	217.67
476.38	229.37
476.56	264.48
476.74	210.65
476.92	177.88
477.10	196.60
477.28	283.20
477.46	152.13
477.64	243.42
477.82	191.92
478.00	166.18
478.18	170.86
478.36	154.48
478.54	229.37
478.72	248.10
478.90	257.46
479.08	156.82
479.26	198.95
479.44	161.50
479.62	287.89
479.80	236.39
479.98	175.54
480.16	287.89
480.34	222.35
480.52	248.10
480.70	229.37
480.88	248.10
481.06	252.78
481.24	170.86
481.41	166.18
481.59	212.99
481.77	205.97
481.95	220.01
482.13	243.42
482.31	201.29
482.49	201.29
482.67	238.73
482.85	222.35
483.03	255.12
483.21	280.86
483.39	248.10
483.57	184.90
483.74	262.14
483.92	163.84
484.10	236.39
484.28	266.82
484.46	315.97
484.64	269.16
484.82	248.10
485.00	173.20
485.18	177.88
485.35	255.12
485.53	187.24
485.71	313.63
485.89	177.88
486.07	220.01
486.25	257.46
486.43	290.23
486.61	248.10
486.78	208.31
486.96	222.35
487.14	262.14
487.32	229.37
487.50	271.50
487.68	224.69
487.85	217.67
488.03	208.31
488.21	250.44
488.39	245.76
488.57	257.46
488.75	205.97
488.92	482.15
489.10	290.23
489.28	299.59
489.46	224.69
489.64	201.29
489.81	243.42
489.99	327.68
490.17	229.37
490.35	320.65
490.53	248.10
490.70	238.73
490.88	278.52
491.06	215.33
491.24	180.22
491.41	194.26
491.59	222.35
491.77	238.73
491.95	241.08
492.13	222.35
492.30	287.89
492.48	255.12
492.66	292.57
492.84	234.05
493.01	283.20
493.19	238.73
493.37	283.20
493.54	245.76
493.72	262.14
493.90	287.89
494.08	266.82
494.25	241.08
494.43	243.42
494.61	173.20
494.79	248.10
494.96	203.63
495.14	304.27
495.32	243.42
495.49	287.89
495.67	283.20
495.85	252.78
496.02	187.24
496.20	212.99
496.38	234.05
496.55	280.86
496.73	301.93
496.91	278.52
497.09	297.25
497.26	290.23
497.44	243.42
497.62	170.86
497.79	280.86
497.97	308.95
498.14	241.08
498.32	250.44
498.50	220.01
498.67	220.01
498.85	180.22
499.03	205.97
499.20	280.86
499.38	264.48
499.56	259.80
499.73	285.55
499.91	238.73
500.08	290.23
500.26	245.76
500.44	217.67
500.61	198.95
500.79	250.44
500.97	245.76
501.14	234.05
501.32	255.12
501.49	229.37
501.67	252.78
501.84	175.54
502.02	283.20
502.20	353.42
502.37	220.01
502.55	201.29
502.72	220.01
502.90	252.78
503.07	224.69
503.25	255.12
503.43	184.90
503.60	306.61
503.78	285.55
503.95	241.08
504.13	198.95
504.30	184.90
504.48	311.29
504.65	311.29
504.83	283.20
505.01	285.55
505.18	297.25
505.36	325.33
505.53	259.80
505.71	224.69
505.88	285.55
506.06	273.84
506.23	243.42
506.41	243.42
506.58	294.91
506.76	201.29
506.93	285.55
507.11	287.89
507.28	259.80
507.46	205.97
507.63	273.84
507.81	283.20
507.98	194.26
508.16	245.76
508.33	294.91
508.50	252.78
508.68	262.14
508.85	243.42
509.03	217.67
509.20	163.84
509.38	217.67
509.55	344.06
509.73	271.50
509.90	182.56
510.08	266.82
510.25	327.68
510.42	229.37
510.60	283.20
510.77	285.55
510.95	290.23
511.12	269.16
511.30	220.01
511.47	315.97
511.64	337.04
511.82	339.38
511.99	243.42
512.17	212.99
512.34	210.65
512.51	170.86
512.69	278.52
512.86	294.91
513.04	191.92
513.21	327.68
513.38	269.16
513.56	227.03
513.73	283.20
513.90	259.80
514.08	227.03
514.25	325.33
514.43	257.46
514.60	194.26
514.77	273.84
514.95	285.55
515.12	220.01
515.29	255.12
515.47	243.42
515.64	304.27
515.81	241.08
515.99	208.31
516.16	259.80
516.33	203.63
516.51	220.01
516.68	182.56
516.85	215.33
517.03	212.99
517.20	241.08
517.37	266.82
517.54	290.23
517.72	222.35
517.89	217.67
518.06	222.35
518.24	191.92
518.41	255.12
518.58	191.92
518.75	271.50
518.93	234.05
519.10	255.12
519.27	269.16
519.45	255.12
519.62	243.42
519.79	189.58
519.96	269.16
520.14	236.39
520.31	315.97
520.48	278.52
520.65	220.01
520.83	315.97
521.00	236.39
521.17	273.84
521.34	280.86
521.52	308.95
521.69	252.78
521.86	311.29
522.03	227.03
522.20	299.59
522.38	241.08
522.55	217.67
522.72	212.99
522.89	283.20
523.07	339.38
523.24	245.76
523.41	269.16
523.58	327.68
523.75	255.12
523.92	222.35
524.10	210.65
524.27	276.18
524.44	290.23
524.61	318.31
524.78	231.71
524.96	168.52
525.13	212.99
525.30	220.01
525.47	313.63
525.64	217.67
525.81	313.63
525.98	234.05
526.16	243.42
526.33	245.76
526.50	238.73
526.67	215.33
526.84	170.86
527.01	297.25
527.18	287.89
527.36	205.97
527.53	220.01
527.70	301.93
527.87	292.57
528.04	311.29
528.21	210.65
528.38	308.95
528.55	332.36
528.72	376.83
528.89	325.33
529.07	266.82
529.24	238.73
529.41	287.89
529.58	212.99
529.75	283.20
529.92	306.61
530.09	306.61
530.26	292.57
530.43	308.95
530.60	248.10
530.77	276.18
530.94	313.63
531.11	276.18
531.28	252.78
531.46	210.65
531.63	187.24
531.80	255.12
531.97	269.16
532.14	283.20
532.31	250.44
532.48	337.04
532.65	231.71
532.82	367.46
532.99	315.97
533.16	322.99
533.33	271.50
533.50	257.46
533.67	351.08
533.84	355.76
534.01	322.99
534.18	362.78
534.35	280.86
534.52	283.20
534.69	313.63
534.86	276.18
535.03	271.50
535.20	313.63
535.37	266.82
535.54	264.48
535.71	271.50
535.88	341.72
536.05	315.97
536.22	264.48
536.38	318.31
536.55	327.68
536.72	283.20
536.89	264.48
537.06	304.27
537.23	255.12
537.40	372.15
537.57	365.12
537.74	376.83
537.91	292.57
538.08	250.44
538.25	334.70
538.42	306.61
538.59	379.17
538.75	308.95
538.92	250.44
539.09	440.02
539.26	311.29
539.43	557.05
539.60	851.96
539.77	1022.81
539.94	1053.24
540.11	812.17
540.28	706.84
540.44	535.98
540.61	435.34
540.78	425.98
540.95	390.87
541.12	496.19
541.29	557.05
541.46	550.03
541.62	512.58
541.79	503.22
541.96	489.17
542.13	411.93
542.30	482.15
542.47	521.94
542.63	470.45
542.80	540.66
542.97	482.15
543.14	524.28
543.31	433.00
543.48	540.66
543.64	564.07
543.81	491.51
543.98	454.06
544.15	552.37
544.32	526.62
544.48	482.15
544.65	421.30
544.82	468.11
544.99	482.15
545.16	573.43
545.32	489.17
545.49	739.61
545.66	877.70
545.83	954.94
546.00	887.06
546.16	641.31
546.33	559.39
546.50	493.85
546.67	517.26
546.83	400.23
547.00	425.98
547.17	339.38
547.34	449.38
547.50	498.53
547.67	409.59
547.84	409.59
548.00	383.85
548.17	388.53
548.34	327.68
548.51	402.57
548.67	430.66
548.84	388.53
549.01	425.98
549.18	341.72
549.34	320.65
549.51	353.42
549.68	388.53
549.84	266.82
550.01	308.95
550.18	393.21
550.34	397.89
550.51	320.65
550.68	388.53
550.84	304.27
551.01	379.17
551.18	280.86
551.34	313.63
551.51	308.95
551.68	369.80
551.84	332.36
552.01	306.61
552.18	299.59
552.34	311.29
552.51	259.80
552.68	351.08
552.84	283.20
553.01	231.71
553.18	294.91
553.34	255.12
553.51	276.18
553.67	248.10
553.84	397.89
554.01	278.52
554.17	369.80
554.34	273.84
554.51	346.40
554.67	292.57
554.84	285.55
555.00	294.91
555.17	318.31
555.33	234.05
555.50	290.23
555.67	325.33
555.83	243.42
556.00	292.57
556.16	379.17
556.33	320.65
556.50	315.97
556.66	320.65
556.83	285.55
556.99	292.57
557.16	245.76
557.32	255.12
557.49	259.80
557.65	264.48
557.82	294.91
557.98	297.25
558.15	224.69
558.32	299.59
558.48	304.27
558.65	238.73
558.81	313.63
558.98	271.50
559.14	243.42
559.31	215.33
559.47	294.91
559.64	245.76
559.80	290.23
559.97	241.08
560.13	264.48
560.30	220.01
560.46	327.68
560.63	222.35
560.79	304.27
560.96	313.63
561.12	224.69
561.29	304.27
561.45	311.29
561.61	227.03
561.78	365.12
561.94	348.74
562.11	273.84
562.27	285.55
562.44	203.63
562.60	208.31
562.77	311.29
562.93	285.55
563.10	287.89
563.26	318.31
563.42	297.25
563.59	241.08
563.75	196.60
563.92	255.12
564.08	203.63
564.24	236.39
564.41	301.93
564.57	196.60
564.74	248.10
564.90	318.31
565.07	271.50
565.23	332.36
565.39	339.38
565.56	264.48
565.72	229.37
565.88	264.48
566.05	224.69
566.21	278.52
566.38	243.42
566.54	262.14
566.70	231.71
566.87	271.50
567.03	250.44
567.19	306.61
567.36	280.86
567.52	234.05
567.68	264.48
567.85	290.23
568.01	212.99
568.17	163.84
568.34	285.55
568.50	287.89
568.66	236.39
568.83	308.95
568.99	234.05
569.15	229.37
569.32	180.22
569.48	227.03
569.64	257.46
569.81	269.16
569.97	271.50
570.13	290.23
570.30	234.05
570.46	231.71
570.62	257.46
570.78	208.31
570.95	205.97
571.11	304.27
571.27	294.91
571.43	182.56
571.60	339.38
571.76	280.86
571.92	301.93
572.09	234.05
572.25	271.50
572.41	259.80
572.57	224.69
572.74	290.23
572.90	304.27
573.06	292.57
573.22	210.65
573.38	262.14
573.55	250.44
573.71	266.82
573.87	252.78
574.03	243.42
574.20	203.63
574.36	334.70
574.52	236.39
574.68	315.97
574.84	257.46
575.01	318.31
575.17	217.67
575.33	259.80
575.49	339.38
575.65	327.68
575.82	358.10
575.98	517.26
576.14	547.69
576.30	552.37
576.46	500.87
576.62	414.27
576.79	489.17
576.95	468.11
577.11	294.91
577.27	318.31
577.43	269.16
577.59	238.73
577.75	297.25
577.92	243.42
578.08	301.93
578.24	304.27
578.40	318.31
578.56	388.53
578.72	465.77
578.88	388.53
579.04	332.36
579.21	320.65
579.37	430.66
579.53	346.40
579.69	311.29
579.85	259.80
580.01	376.83
580.17	440.02
580.33	355.76
580.49	395.55
580.65	393.21
580.82	250.44
580.98	292.57
581.14	280.86
581.30	332.36
581.46	407.25
581.62	514.92
581.78	496.19
581.94	564.07
582.10	409.59
582.26	404.91
582.42	416.62
582.58	332.36
582.74	339.38
582.90	334.70
583.06	362.78
583.22	468.11
583.38	435.34
583.54	383.85
583.70	521.94
583.86	573.43
584.02	578.11
584.18	643.65
584.34	788.76
584.50	1982.43
584.66	13713.20
584.82	33865.21
584.98	44418.69
585.14	38036.05
585.30	24013.90
585.46	14555.79
585.62	9097.66
585.78	4440.00
585.94	1968.39
586.10	985.37
586.26	739.61
586.42	697.48
586.58	587.47
586.74	533.64
586.90	589.82
587.06	484.49
587.22	479.81
587.38	500.87
587.54	840.25
587.70	2141.59
587.86	3105.89
588.02	3243.98
588.18	2457.56
588.34	1621.99
588.49	1149.20
588.65	734.93
588.81	514.92
588.97	276.18
589.13	273.84
589.29	416.62
589.45	294.91
589.61	337.04
589.77	353.42
589.93	416.62
590.08	388.53
590.24	332.36
590.40	341.72
590.56	402.57
590.72	325.33
590.88	433.00
591.04	369.80
591.20	365.12
591.35	414.27
591.51	337.04
591.67	250.44
591.83	365.12
591.99	379.17
592.15	381.51
592.31	320.65
592.46	325.33
592.62	386.19
592.78	264.48
592.94	313.63
593.10	397.89
593.26	358.10
593.41	416.62
593.57	346.40
593.73	482.15
593.89	1902.86
594.05	4315.95
594.20	5757.72
594.36	5233.44
594.52	3452.29
594.68	2431.82
594.84	1624.33
594.99	976.00
595.15	498.53
595.31	414.27
595.47	369.80
595.62	351.08
595.78	257.46
595.94	322.99
596.10	379.17
596.25	332.36
596.41	397.89
596.57	266.82
596.73	271.50
596.88	428.32
597.04	1015.79
597.20	1409.00
597.36	1549.43
597.51	1135.16
597.67	823.87
597.83	692.80
597.99	454.06
598.14	472.79
598.30	351.08
598.46	313.63
598.61	313.63
598.77	327.68
598.93	313.63
599.09	278.52
599.24	269.16
599.40	337.04
599.56	276.18
599.71	334.70
599.87	339.38
600.03	383.85
600.18	262.14
600.34	308.95
600.50	224.69
600.65	285.55
600.81	269.16
600.97	266.82
601.12	376.83
601.28	280.86
601.44	252.78
601.59	243.42
601.75	304.27
601.91	337.04
602.06	304.27
602.22	411.93
602.37	573.43
602.53	1062.60
602.69	1554.12
602.84	1563.48
603.00	1226.44
603.16	882.38
603.31	685.78
603.47	484.49
603.62	320.65
603.78	315.97
603.94	322.99
604.09	276.18
604.25	360.44
604.40	332.36
604.56	271.50
604.71	367.46
604.87	234.05
605.03	318.31
605.18	353.42
605.34	344.06
605.49	304.27
605.65	285.55
605.80	320.65
605.96	294.91
606.12	315.97
606.27	339.38
606.43	337.04
606.58	358.10
606.74	622.58
606.89	2001.16
607.05	3805.71
607.20	4760.65
607.36	3915.72
607.51	2832.05
607.67	1865.41
607.82	1308.36
607.98	830.89
608.13	557.05
608.29	397.89
608.44	404.91
608.60	376.83
608.75	599.18
608.91	891.74
609.06	3220.58
609.22	6628.40
609.37	8142.72
609.53	6801.60
609.68	4830.87
609.84	3356.33
609.99	2335.85
610.15	1439.43
610.30	884.72
