SpectraSuite Data File
++++++++++++++++++++++++++++++++++++
Date: Fri Oct 04 12:13:50 GMT-05:00 2013
User: price-jones
Dark Spectrum Present: No
Reference Spectrum Present: No
Number of Sampled Component Spectra: 1
Spectrometers: USB2+H05261
Integration Time (usec): 1000000 (USB2+H05261)
Spectra Averaged: 1 (USB2+H05261)
Boxcar Smoothing: 0 (USB2+H05261)
Correct for Electrical Dark: No (USB2+H05261)
Strobe/Lamp Enabled: No (USB2+H05261)
Correct for Detector Non-linearity: No (USB2+H05261)
Correct for Stray Light: No (USB2+H05261)
Number of Pixels in Processed Spectrum: 2048
>>>>>Begin Processed Spectral Data<<<<<
365.73	0.00
365.92	0.00
366.12	0.00
366.32	0.00
366.52	0.00
366.72	278.52
366.91	140.43
367.11	236.39
367.31	238.73
367.51	264.48
367.70	400.23
367.90	493.85
368.10	332.36
368.30	294.91
368.49	110.01
368.69	521.94
368.89	341.72
369.09	135.75
369.28	327.68
369.48	145.11
369.68	250.44
369.87	339.38
370.07	208.31
370.27	561.73
370.47	409.59
370.66	334.70
370.86	484.49
371.06	685.78
371.25	924.51
371.45	407.25
371.65	645.99
371.84	344.06
372.04	252.78
372.24	477.47
372.44	418.96
372.63	519.60
372.83	870.68
373.03	503.22
373.22	327.68
373.42	362.78
373.62	484.49
373.81	589.82
374.01	767.70
374.21	718.54
374.40	498.53
374.60	758.33
374.79	491.51
374.99	528.96
375.19	538.32
375.38	535.98
375.58	449.38
375.78	617.90
375.97	674.07
376.17	978.34
376.37	561.73
376.56	589.82
376.76	388.53
376.95	440.02
377.15	732.59
377.35	603.86
377.54	657.69
377.74	393.21
377.93	425.98
378.13	561.73
378.33	718.54
378.52	540.66
378.72	671.73
378.91	655.35
379.11	461.09
379.31	468.11
379.50	273.84
379.70	774.72
379.89	662.37
380.09	521.94
380.28	337.04
380.48	437.68
380.68	402.57
380.87	355.76
381.07	547.69
381.26	751.31
381.46	690.46
381.65	631.94
381.85	423.64
382.04	531.30
382.24	615.56
382.43	505.56
382.63	362.78
382.83	386.19
383.02	767.70
383.22	777.06
383.41	374.49
383.61	589.82
383.80	493.85
384.00	414.27
384.19	376.83
384.39	561.73
384.58	519.60
384.78	561.73
384.97	524.28
385.17	535.98
385.36	425.98
385.56	671.73
385.75	379.17
385.95	564.07
386.14	657.69
386.34	550.03
386.53	561.73
386.72	383.85
386.92	772.38
387.11	638.97
387.31	678.76
387.50	395.55
387.70	332.36
387.89	498.53
388.09	475.13
388.28	351.08
388.48	383.85
388.67	648.33
388.86	447.04
389.06	442.36
389.25	620.24
389.45	531.30
389.64	543.00
389.84	655.35
390.03	667.05
390.22	484.49
390.42	404.91
390.61	425.98
390.81	287.89
391.00	538.32
391.19	763.01
391.39	540.66
391.58	634.29
391.78	514.92
391.97	526.62
392.16	421.30
392.36	819.19
392.55	798.12
392.75	528.96
392.94	447.04
393.13	627.26
393.33	400.23
393.52	477.47
393.71	760.67
393.91	519.60
394.10	423.64
394.29	524.28
394.49	624.92
394.68	746.63
394.88	858.98
395.07	753.65
395.26	524.28
395.46	510.24
395.65	798.12
395.84	711.52
396.04	1149.20
396.23	521.94
396.42	454.06
396.62	645.99
396.81	582.79
397.00	486.83
397.19	667.05
397.39	491.51
397.58	746.63
397.77	507.90
397.97	547.69
398.16	566.41
398.35	662.37
398.55	430.66
398.74	533.64
398.93	758.33
399.12	456.40
399.32	638.97
399.51	568.75
399.70	681.10
399.90	636.63
400.09	664.71
400.28	770.04
400.47	517.26
400.67	711.52
400.86	554.71
401.05	763.01
401.24	840.25
401.44	692.80
401.63	741.95
401.82	784.08
402.01	491.51
402.21	716.20
402.40	627.26
402.59	578.11
402.78	550.03
402.97	585.13
403.17	571.09
403.36	669.39
403.55	587.47
403.74	587.47
403.93	704.50
404.13	966.64
404.32	669.39
404.51	613.22
404.70	758.33
404.89	535.98
405.09	997.07
405.28	603.86
405.47	423.64
405.66	671.73
405.85	840.25
406.05	557.05
406.24	538.32
406.43	697.48
406.62	697.48
406.81	1057.92
407.00	809.83
407.20	610.88
407.39	561.73
407.58	505.56
407.77	737.27
407.96	812.17
408.15	812.17
408.34	653.01
408.54	613.22
408.73	713.86
408.92	662.37
409.11	755.99
409.30	800.46
409.49	512.58
409.68	589.82
409.87	678.76
410.07	559.39
410.26	695.14
410.45	557.05
410.64	533.64
410.83	662.37
411.02	557.05
411.21	837.91
411.40	809.83
411.59	664.71
411.78	535.98
411.98	671.73
412.17	477.47
412.36	589.82
412.55	599.18
412.74	784.08
412.93	1076.65
413.12	603.86
413.31	889.40
413.50	697.48
413.69	631.94
413.88	964.30
414.07	812.17
414.26	643.65
414.45	559.39
414.64	779.40
414.83	763.01
415.02	784.08
415.22	858.98
415.41	992.39
415.60	634.29
415.79	786.42
415.98	1041.54
416.17	681.10
416.36	699.82
416.55	634.29
416.74	854.30
416.93	1025.15
417.12	608.54
417.31	685.78
417.50	683.44
417.69	1299.00
417.88	950.26
418.07	795.78
418.26	861.32
418.45	837.91
418.64	1196.01
418.83	1165.59
419.02	1153.88
419.21	802.80
419.39	936.21
419.58	830.89
419.77	898.77
419.96	1146.86
420.15	1069.62
420.34	777.06
420.53	809.83
420.72	873.02
420.91	854.30
421.10	772.38
421.29	931.53
421.48	821.53
421.67	875.36
421.86	669.39
422.05	777.06
422.24	681.10
422.43	732.59
422.61	528.96
422.80	629.60
422.99	730.25
423.18	699.82
423.37	1097.71
423.56	821.53
423.75	830.89
423.94	599.18
424.13	732.59
424.32	627.26
424.50	723.23
424.69	716.20
424.88	1018.13
425.07	699.82
425.26	880.04
425.45	1186.65
425.64	1060.26
425.83	1067.28
426.01	1254.53
426.20	919.83
426.39	748.97
426.58	720.88
426.77	826.21
426.96	1027.50
427.15	809.83
427.33	732.59
427.52	744.29
427.71	737.27
427.90	730.25
428.09	585.13
428.28	559.39
428.46	695.14
428.65	863.66
428.84	884.72
429.03	1020.47
429.22	606.20
429.40	634.29
429.59	634.29
429.78	1067.28
429.97	664.71
430.16	669.39
430.34	624.92
430.53	641.31
430.72	613.22
430.91	870.68
431.10	704.50
431.28	791.10
431.47	842.59
431.66	854.30
431.85	699.82
432.03	788.76
432.22	1320.06
432.41	732.59
432.60	1132.82
432.79	1029.84
432.97	1284.95
433.16	1411.34
433.35	1139.84
433.54	891.74
433.72	959.62
433.91	1104.73
434.10	840.25
434.28	985.37
434.47	828.55
434.66	959.62
434.85	685.78
435.03	770.04
435.22	1074.31
435.41	1139.84
435.59	943.24
435.78	835.57
435.97	688.12
436.16	971.32
436.34	821.53
436.53	987.71
436.72	990.05
436.90	858.98
437.09	854.30
437.28	800.46
437.46	655.35
437.65	959.62
437.84	863.66
438.02	880.04
438.21	912.81
438.40	655.35
438.58	706.84
438.77	821.53
438.96	856.64
439.14	695.14
439.33	1057.92
439.52	814.51
439.70	723.23
439.89	947.92
440.08	908.13
440.26	821.53
440.45	1074.31
440.63	854.30
440.82	856.64
441.01	957.28
441.19	844.93
441.38	847.27
441.57	826.21
441.75	1064.94
441.94	1165.59
442.12	884.72
442.31	912.81
442.50	917.49
442.68	908.13
442.87	856.64
443.05	788.76
443.24	943.24
443.43	1102.39
443.61	1097.71
443.80	940.90
443.98	901.11
444.17	753.65
444.35	994.73
444.54	868.34
444.73	903.45
444.91	1196.01
445.10	692.80
445.28	779.40
445.47	903.45
445.65	901.11
445.84	723.23
446.02	854.30
446.21	828.55
446.39	884.72
446.58	985.37
446.77	784.08
446.95	866.00
447.14	1015.79
447.32	1179.63
447.51	954.94
447.69	875.36
447.88	905.79
448.06	1252.19
448.25	964.30
448.43	826.21
448.62	713.86
448.80	1041.54
448.99	1078.99
449.17	788.76
449.36	835.57
449.54	1034.52
449.73	814.51
449.91	1043.88
450.10	779.40
450.28	1418.36
450.46	1345.81
450.65	1139.84
450.83	999.41
451.02	1015.79
451.20	1043.88
451.39	1020.47
451.57	898.77
451.76	763.01
451.94	915.15
452.13	1104.73
452.31	1170.27
452.49	966.64
452.68	739.61
452.86	922.17
453.05	1336.45
453.23	978.34
453.42	779.40
453.60	940.90
453.78	1088.35
453.97	826.21
454.15	741.95
454.34	774.72
454.52	800.46
454.70	1224.10
454.89	1135.16
455.07	788.76
455.26	1071.97
455.44	1111.75
455.62	856.64
455.81	931.53
455.99	1020.47
456.17	1018.13
456.36	837.91
456.54	889.40
456.73	929.19
456.91	926.85
457.09	1088.35
457.28	1137.50
457.46	933.87
457.64	1064.94
457.83	922.17
458.01	779.40
458.19	1034.52
458.38	779.40
458.56	1004.09
458.74	744.29
458.93	1018.13
459.11	987.71
459.29	858.98
459.48	1041.54
459.66	1385.60
459.84	1177.29
460.03	1729.66
460.21	1198.35
460.39	938.55
460.57	1212.40
460.76	1071.97
460.94	980.68
461.12	1247.51
461.31	1284.95
461.49	983.02
461.67	851.96
461.85	1008.77
462.04	919.83
462.22	5877.09
462.40	1291.98
462.59	1266.23
462.77	973.66
462.95	1074.31
463.13	793.44
463.32	1142.18
463.50	1036.86
463.68	1078.99
463.86	1036.86
464.05	875.36
464.23	1179.63
464.41	1128.14
464.59	882.38
464.78	863.66
464.96	896.43
465.14	1029.84
465.32	903.45
465.50	1137.50
465.69	1102.39
465.87	833.23
466.05	1090.69
466.23	753.65
466.41	912.81
466.60	954.94
466.78	945.58
466.96	1203.04
467.14	987.71
467.32	1219.42
467.51	1057.92
467.69	1107.07
467.87	1291.98
468.05	894.08
468.23	1357.51
468.41	1196.01
468.60	1027.50
468.78	1067.28
468.96	1221.76
469.14	1135.16
469.32	798.12
469.50	851.96
469.69	1116.44
469.87	1022.81
470.05	1060.26
470.23	1036.86
470.41	870.68
470.59	905.79
470.77	1074.31
470.95	1083.67
471.14	1284.95
471.32	971.32
471.50	1240.48
471.68	1011.11
471.86	1188.99
472.04	912.81
472.22	1036.86
472.40	823.87
472.58	978.34
472.77	823.87
472.95	976.00
473.13	1329.42
473.31	1303.68
473.49	880.04
473.67	840.25
473.85	1158.57
474.03	1151.54
474.21	997.07
474.39	1273.25
474.57	1413.68
474.75	1088.35
474.93	910.47
475.12	858.98
475.30	957.28
475.48	1053.24
475.66	1036.86
475.84	940.90
476.02	964.30
476.20	1170.27
476.38	1027.50
476.56	1643.06
476.74	957.28
476.92	1050.90
477.10	1027.50
477.28	1224.10
477.46	1043.88
477.64	1193.67
477.82	1151.54
478.00	1036.86
478.18	1107.07
478.36	1088.35
478.54	968.98
478.72	990.05
478.90	999.41
479.08	1219.42
479.26	1086.01
479.44	994.73
479.62	933.87
479.80	1046.22
479.98	978.34
480.16	1020.47
480.34	1334.11
480.52	1100.05
480.70	1261.55
480.88	1139.84
481.06	947.92
481.24	1076.65
481.41	1128.14
481.59	1268.57
481.77	1207.72
481.95	1109.41
482.13	1465.18
482.31	1224.10
482.49	1095.37
482.67	1399.64
482.85	1420.71
483.03	1301.34
483.21	1231.12
483.39	1165.59
483.57	1088.35
483.74	1544.75
483.92	1160.91
484.10	1144.52
484.28	1462.83
484.46	1776.47
484.64	1200.69
484.82	1235.80
485.00	1158.57
485.18	1200.69
485.35	1191.33
485.53	896.43
485.71	1291.98
485.89	915.15
486.07	1071.97
486.25	1727.32
486.43	1366.87
486.61	1345.81
486.78	1350.49
486.96	1076.65
487.14	1121.12
487.32	1165.59
487.50	1254.53
487.68	1437.09
487.85	1139.84
488.03	1369.21
488.21	1659.44
488.39	1172.61
488.57	1362.19
488.75	1123.46
488.92	4032.74
489.10	1465.18
489.28	1692.21
489.46	1200.69
489.64	1362.19
489.81	1343.47
489.99	1533.05
490.17	1287.29
490.35	2010.52
490.53	1376.24
490.70	1210.06
490.88	1582.20
491.06	1369.21
491.24	1460.49
491.41	1724.97
491.59	1427.73
491.77	1235.80
491.95	1212.40
492.13	1149.20
492.30	1254.53
492.48	1277.93
492.66	1394.96
492.84	1322.40
493.01	1451.13
493.19	1303.68
493.37	1750.72
493.54	1523.69
493.72	1493.26
493.90	1397.30
494.08	1430.07
494.25	1638.38
494.43	1629.01
494.61	1416.02
494.79	1348.15
494.96	1385.60
495.14	1652.42
495.32	1446.45
495.49	1474.54
495.67	1561.14
495.85	1472.20
496.02	1331.76
496.20	1692.21
496.38	1540.07
496.55	1385.60
496.73	1610.29
496.91	1509.65
497.09	1701.57
497.26	1507.30
497.44	1465.18
497.62	1511.99
497.79	1460.49
497.97	1458.15
498.14	1584.54
498.32	1607.95
498.50	1549.43
498.67	1413.68
498.85	1514.33
499.03	1500.28
499.20	1540.07
499.38	1565.82
499.56	1549.43
499.73	1905.20
499.91	1607.95
500.08	1732.00
500.26	1481.56
500.44	1434.75
500.61	1591.56
500.79	1401.98
500.97	1610.29
501.14	1781.15
501.32	1619.65
501.49	1872.43
501.67	1420.71
501.84	1673.48
502.02	1460.49
502.20	1881.79
502.37	1750.72
502.55	1511.99
502.72	1483.90
502.90	1706.25
503.07	1521.35
503.25	1624.33
503.43	1643.06
503.60	1575.18
503.78	1661.78
503.95	1502.62
504.13	1472.20
504.30	1638.38
504.48	1837.32
504.65	1891.15
504.83	1760.08
505.01	1474.54
505.18	1577.52
505.36	1514.33
505.53	1514.33
505.71	1537.73
505.88	1928.60
506.06	1582.20
506.23	1528.37
506.41	1476.88
506.58	1636.03
506.76	1696.89
506.93	1514.33
507.11	1680.50
507.28	1544.75
507.46	1490.92
507.63	1687.53
507.81	1427.73
507.98	1715.61
508.16	1617.31
508.33	1673.48
508.50	1788.17
508.68	1659.44
508.85	1617.31
509.03	1474.54
509.20	1542.41
509.38	1671.14
509.55	1930.94
509.73	1797.53
509.90	1893.49
510.08	1523.69
510.25	1802.21
510.42	1561.14
510.60	1710.93
510.77	1816.26
510.95	1839.66
511.12	1727.32
511.30	2012.86
511.47	2062.01
511.64	2310.11
511.82	1614.97
511.99	1699.23
512.17	1572.84
512.34	1514.33
512.51	1474.54
512.69	1453.47
512.86	1952.01
513.04	1479.22
513.21	1743.70
513.38	1554.12
513.56	1526.03
513.73	1509.65
513.90	1446.45
514.08	1528.37
514.25	1764.76
514.43	1797.53
514.60	1561.14
514.77	1643.06
514.95	1837.32
515.12	1563.48
515.29	1692.21
515.47	1614.97
515.64	1596.25
515.81	1631.35
515.99	2012.86
516.16	1680.50
516.33	1771.79
516.51	1409.00
516.68	1277.93
516.85	1401.98
517.03	1519.01
517.20	1638.38
517.37	1736.68
517.54	1701.57
517.72	1504.96
517.89	1301.34
518.06	1430.07
518.24	1867.75
518.41	1994.14
518.58	1792.85
518.75	1502.62
518.93	1640.72
519.10	1717.95
519.27	1675.82
519.45	1748.38
519.62	1792.85
519.79	1724.97
519.96	1563.48
520.14	1834.98
520.31	1994.14
520.48	1685.19
520.65	1783.49
520.83	1795.19
521.00	1799.87
521.17	1856.04
521.34	1607.95
521.52	1708.59
521.69	1685.19
521.86	1694.55
522.03	1865.41
522.20	2022.22
522.38	1668.80
522.55	1720.29
522.72	1490.92
522.89	1893.49
523.07	2193.08
523.24	1804.55
523.41	1701.57
523.58	1636.03
523.75	1743.70
523.92	1633.69
524.10	1785.83
524.27	1760.08
524.44	1682.85
524.61	1984.77
524.78	1629.01
524.96	1771.79
525.13	1827.96
525.30	2005.84
525.47	1973.07
525.64	1884.13
525.81	1813.92
525.98	1736.68
526.16	1563.48
526.33	1437.09
526.50	1504.96
526.67	1465.18
526.84	1516.67
527.01	1528.37
527.18	1776.47
527.36	1750.72
527.53	1633.69
527.70	1914.56
527.87	1778.81
528.04	2169.68
528.21	1788.17
528.38	1944.99
528.55	2008.18
528.72	2003.50
528.89	2242.23
529.07	1753.06
529.24	1680.50
529.41	2165.00
529.58	1863.07
529.75	1661.78
529.92	1923.92
530.09	1706.25
530.26	1907.54
530.43	1799.87
530.60	1823.28
530.77	1806.89
530.94	1914.56
531.11	1952.01
531.28	1790.51
531.46	1706.25
531.63	1834.98
531.80	1757.74
531.97	1851.36
532.14	1764.76
532.31	1776.47
532.48	1907.54
532.65	2179.04
532.82	2349.90
532.99	2382.67
533.16	2122.87
533.33	2017.54
533.50	1928.60
533.67	2174.36
533.84	2691.62
534.01	2712.68
534.18	2413.09
534.35	2230.53
534.52	2029.24
534.69	2317.13
534.86	1724.97
535.03	1722.63
535.20	1818.60
535.37	1966.05
535.54	1891.15
535.71	1858.39
535.88	2214.15
536.05	1675.82
536.22	1860.73
536.38	1764.76
536.55	1825.62
536.72	1912.22
536.89	1624.33
537.06	1710.93
537.23	1666.46
537.40	1806.89
537.57	1664.12
537.74	1907.54
537.91	1923.92
538.08	1851.36
538.25	1919.24
538.42	1713.27
538.59	1905.20
538.75	1816.26
538.92	1783.49
539.09	1928.60
539.26	1746.04
539.43	3194.83
539.60	5877.09
539.77	9018.08
539.94	8716.16
540.11	5884.11
540.28	4189.56
540.44	3061.42
540.61	2090.10
540.78	1659.44
540.95	1572.84
541.12	2146.27
541.29	1671.14
541.46	2190.74
541.62	1757.74
541.79	1729.66
541.96	1689.87
542.13	1771.79
542.30	1584.54
542.47	1832.64
542.63	1715.61
542.80	1788.17
542.97	1914.56
543.14	1636.03
543.31	1795.19
543.48	1692.21
543.64	1844.34
543.81	1797.53
543.98	1629.01
544.15	1678.16
544.32	1736.68
544.48	1760.08
544.65	1750.72
544.82	1631.35
544.99	1778.81
545.16	2003.50
545.32	1528.37
545.49	1762.42
545.66	1799.87
545.83	1586.88
546.00	1481.56
546.16	1570.50
546.33	1645.40
546.50	1689.87
546.67	1982.43
546.83	1874.77
547.00	1713.27
547.17	1598.59
547.34	1582.20
547.50	1708.59
547.67	1659.44
547.84	1535.39
548.00	1909.88
548.17	1603.27
548.34	1746.04
548.51	1926.26
548.67	1919.24
548.84	1664.12
549.01	1802.21
549.18	1792.85
549.34	1778.81
549.51	1858.39
549.68	1757.74
549.84	1678.16
550.01	1556.46
550.18	2626.08
550.34	2321.81
550.51	1741.36
550.68	2148.61
550.84	1678.16
551.01	1734.34
551.18	1827.96
551.34	1724.97
551.51	1626.67
551.68	1734.34
551.84	1830.30
552.01	1638.38
552.18	1687.53
552.34	1778.81
552.51	1708.59
552.68	1895.83
552.84	1640.72
553.01	1755.40
553.18	1865.41
553.34	1561.14
553.51	1418.36
553.67	1879.45
553.84	2122.87
554.01	1823.28
554.17	1811.57
554.34	1638.38
554.51	1781.15
554.67	1851.36
554.84	1858.39
555.00	1736.68
555.17	1727.32
555.33	1952.01
555.50	1788.17
555.67	1858.39
555.83	1647.74
556.00	1916.90
556.16	3375.05
556.33	1769.44
556.50	1687.53
556.66	1806.89
556.83	1647.74
556.99	1689.87
557.16	1696.89
557.32	1701.57
557.49	1696.89
557.65	1610.29
557.82	1584.54
557.98	1739.02
558.15	1572.84
558.32	1584.54
558.48	1542.41
558.65	1636.03
558.81	1797.53
558.98	1593.90
559.14	1757.74
559.31	1661.78
559.47	1820.94
559.64	1530.71
559.80	1799.87
559.97	1626.67
560.13	1687.53
560.30	1526.03
560.46	1736.68
560.63	1551.78
560.79	1680.50
560.96	1661.78
561.12	1554.12
561.29	1739.02
561.45	1577.52
561.61	1614.97
561.78	2490.33
561.94	1650.08
562.11	1647.74
562.27	1603.27
562.44	1519.01
562.60	1657.10
562.77	1556.46
562.93	2310.11
563.10	1741.36
563.26	1776.47
563.42	1923.92
563.59	1785.83
563.75	1643.06
563.92	1916.90
564.08	1741.36
564.24	1842.00
564.41	2270.32
564.57	1547.09
564.74	1582.20
564.90	1820.94
565.07	1952.01
565.23	1977.75
565.39	1682.85
565.56	1895.83
565.72	1685.19
565.88	1717.95
566.05	1732.00
566.21	1650.08
566.38	1799.87
566.54	1755.40
566.70	1586.88
566.87	1626.67
567.03	1519.01
567.19	1640.72
567.36	1769.44
567.52	1465.18
567.68	1771.79
567.85	1806.89
568.01	1556.46
568.17	1481.56
568.34	1467.52
568.50	1944.99
568.66	1572.84
568.83	2399.05
568.99	1591.56
569.15	1884.13
569.32	1614.97
569.48	1596.25
569.64	1437.09
569.81	1678.16
569.97	1533.05
570.13	1675.82
570.30	1481.56
570.46	1502.62
570.62	1514.33
570.78	1474.54
570.95	1359.85
571.11	1902.86
571.27	1914.56
571.43	1476.88
571.60	1849.02
571.76	1540.07
571.92	1732.00
572.09	1568.16
572.25	1638.38
572.41	1614.97
572.57	1551.78
572.74	1980.09
572.90	1741.36
573.06	1867.75
573.22	1706.25
573.38	1877.11
573.55	1760.08
573.71	1839.66
573.87	1825.62
574.03	1575.18
574.20	1659.44
574.36	2143.93
574.52	2015.20
574.68	2062.01
574.84	2078.40
575.01	1706.25
575.17	1846.68
575.33	1563.48
575.49	1760.08
575.65	1849.02
575.82	2340.54
575.98	3471.01
576.14	4065.51
576.30	4149.77
576.46	3281.43
576.62	2677.57
576.79	2373.30
576.95	2232.87
577.11	1804.55
577.27	1572.84
577.43	2080.74
577.59	2031.58
577.75	1823.28
577.92	1680.50
578.08	1699.23
578.24	1638.38
578.40	1991.80
578.56	2059.67
578.72	2225.85
578.88	2008.18
579.04	1753.06
579.21	1961.37
579.37	1935.62
579.53	1839.66
579.69	2228.19
579.85	1888.81
580.01	2370.96
580.17	2284.36
580.33	2237.55
580.49	2174.36
580.65	2286.70
580.82	2143.93
580.98	2029.24
581.14	1982.43
581.30	2490.33
581.46	2581.61
581.62	3478.04
581.78	3571.66
581.94	3555.27
582.10	2829.71
582.26	2719.70
582.42	2574.59
582.58	2750.13
582.74	2473.95
582.90	2476.29
583.06	2787.58
583.22	2722.04
583.38	2834.39
583.54	2958.44
583.70	3714.43
583.86	4065.51
584.02	4402.55
584.18	5507.28
584.34	6822.66
584.50	19360.91
584.66	65535.00
584.82	65535.00
584.98	65535.00
585.14	65535.00
585.30	65535.00
585.46	65535.00
585.62	65535.00
585.78	51353.69
585.94	17488.48
586.10	8692.75
586.26	5797.51
586.42	5114.07
586.58	4121.68
586.74	3712.09
586.90	3602.08
587.06	3426.54
587.22	3262.71
587.38	3075.46
587.54	6920.96
587.70	20517.14
587.86	33596.05
588.02	37071.75
588.18	25523.54
588.34	15557.54
588.49	10200.05
588.65	6427.11
588.81	3536.55
588.97	2260.96
589.13	1984.77
589.29	1998.82
589.45	2134.57
589.61	2031.58
589.77	2640.12
589.93	2506.71
590.08	2672.89
590.24	2502.03
590.40	2630.76
590.56	2670.55
590.72	2249.25
590.88	1984.77
591.04	2127.55
591.20	2017.54
591.35	2373.30
591.51	1947.33
591.67	1879.45
591.83	1851.36
591.99	1874.77
592.15	1977.75
592.31	1884.13
592.46	1771.79
592.62	1980.09
592.78	1614.97
592.94	1827.96
593.10	1867.75
593.26	1825.62
593.41	2101.80
593.57	2246.91
593.73	3438.25
593.89	17172.51
594.05	43005.00
594.20	55992.64
594.36	54368.30
594.52	38164.78
594.68	23204.07
594.84	15779.89
594.99	8945.53
595.15	4475.10
595.31	2892.90
595.47	2511.39
595.62	2019.88
595.78	1937.96
595.94	1996.48
596.10	2265.64
596.25	2237.55
596.41	2284.36
596.57	1935.62
596.73	1928.60
596.88	3389.10
597.04	8004.63
597.20	13039.12
597.36	15791.59
597.51	11489.69
597.67	7740.15
597.83	5495.58
597.99	4025.72
598.14	2544.16
598.30	2321.81
598.46	2111.16
598.61	2237.55
598.77	2040.95
598.93	1851.36
599.09	1739.02
599.24	1727.32
599.40	1837.32
599.56	1682.85
599.71	1657.10
599.87	1584.54
600.03	1607.95
600.18	1547.09
600.34	1755.40
600.50	1509.65
