SpectraSuite Data File
++++++++++++++++++++++++++++++++++++
Date: Fri Oct 04 11:33:44 GMT-05:00 2013
User: price-jones
Dark Spectrum Present: No
Reference Spectrum Present: No
Number of Sampled Component Spectra: 1
Spectrometers: USB2+H05261
Integration Time (usec): 100000 (USB2+H05261)
Spectra Averaged: 1 (USB2+H05261)
Boxcar Smoothing: 0 (USB2+H05261)
Correct for Electrical Dark: No (USB2+H05261)
Strobe/Lamp Enabled: No (USB2+H05261)
Correct for Detector Non-linearity: No (USB2+H05261)
Correct for Stray Light: No (USB2+H05261)
Number of Pixels in Processed Spectrum: 2048
>>>>>Begin Processed Spectral Data<<<<<
365.73	152.13
365.92	152.13
366.12	152.13
366.32	39.79
366.52	0.00
366.72	9.36
366.91	0.00
367.11	0.00
367.31	0.00
367.51	0.00
367.70	0.00
367.90	0.00
368.10	0.00
368.30	0.00
368.49	0.00
368.69	30.43
368.89	0.00
369.09	0.00
369.28	0.00
369.48	0.00
369.68	0.00
369.87	35.11
370.07	0.00
370.27	0.00
370.47	18.72
370.66	110.01
370.86	114.69
371.06	131.07
371.25	175.54
371.45	25.75
371.65	135.75
371.84	67.88
372.04	86.60
372.24	81.92
372.44	112.35
372.63	105.32
372.83	124.05
373.03	114.69
373.22	128.73
373.42	105.32
373.62	187.24
373.81	173.20
374.01	175.54
374.21	210.65
374.40	126.39
374.60	222.35
374.79	91.28
374.99	159.16
375.19	184.90
375.38	131.07
375.58	168.52
375.78	203.63
375.97	152.13
376.17	210.65
376.37	145.11
376.56	229.37
376.76	133.41
376.95	168.52
377.15	212.99
377.35	149.79
377.54	166.18
377.74	88.94
377.93	121.71
378.13	67.88
378.33	114.69
378.52	110.01
378.72	117.03
378.91	131.07
379.11	86.60
379.31	156.82
379.50	88.94
379.70	224.69
379.89	74.90
380.09	86.60
380.28	140.43
380.48	236.39
380.68	81.92
380.87	161.50
381.07	133.41
381.26	203.63
381.46	166.18
381.65	159.16
381.85	121.71
382.04	121.71
382.24	112.35
382.43	152.13
382.63	140.43
382.83	131.07
383.02	170.86
383.22	88.94
383.41	72.56
383.61	227.03
383.80	98.30
384.00	203.63
384.19	147.45
384.39	95.96
384.58	147.45
384.78	133.41
384.97	65.54
385.17	65.54
385.36	112.35
385.56	168.52
385.75	112.35
385.95	107.66
386.14	154.48
386.34	147.45
386.53	191.92
386.72	124.05
386.92	184.90
387.11	154.48
387.31	84.26
387.50	152.13
387.70	184.90
387.89	142.77
388.09	180.22
388.28	112.35
388.48	187.24
388.67	222.35
388.86	91.28
389.06	135.75
389.25	147.45
389.45	156.82
389.64	91.28
389.84	135.75
390.03	95.96
390.22	145.11
390.42	121.71
390.61	135.75
390.81	117.03
391.00	100.64
391.19	154.48
391.39	161.50
391.58	184.90
391.78	173.20
391.97	161.50
392.16	114.69
392.36	163.84
392.55	124.05
392.75	210.65
392.94	107.66
393.13	149.79
393.33	119.37
393.52	159.16
393.71	180.22
393.91	154.48
394.10	198.95
394.29	217.67
394.49	168.52
394.68	128.73
394.88	194.26
395.07	147.45
395.26	126.39
395.46	189.58
395.65	184.90
395.84	177.88
396.04	170.86
396.23	159.16
396.42	161.50
396.62	102.98
396.81	224.69
397.00	194.26
397.19	163.84
397.39	205.97
397.58	149.79
397.77	131.07
397.97	145.11
398.16	154.48
398.35	133.41
398.55	93.62
398.74	173.20
398.93	161.50
399.12	140.43
399.32	135.75
399.51	170.86
399.70	126.39
399.90	215.33
400.09	166.18
400.28	149.79
400.47	170.86
400.67	152.13
400.86	161.50
401.05	86.60
401.24	175.54
401.44	229.37
401.63	156.82
401.82	133.41
402.01	105.32
402.21	119.37
402.40	133.41
402.59	124.05
402.78	161.50
402.97	180.22
403.17	198.95
403.36	170.86
403.55	191.92
403.74	142.77
403.93	222.35
404.13	255.12
404.32	180.22
404.51	210.65
404.70	227.03
404.89	196.60
405.09	180.22
405.28	163.84
405.47	161.50
405.66	187.24
405.85	133.41
406.05	147.45
406.24	133.41
406.43	196.60
406.62	117.03
406.81	259.80
407.00	110.01
407.20	149.79
407.39	227.03
407.58	140.43
407.77	184.90
407.96	208.31
408.15	222.35
408.34	140.43
408.54	140.43
408.73	114.69
408.92	95.96
409.11	149.79
409.30	154.48
409.49	84.26
409.68	105.32
409.87	133.41
410.07	191.92
410.26	210.65
410.45	177.88
410.64	112.35
410.83	117.03
411.02	77.24
411.21	117.03
411.40	135.75
411.59	131.07
411.78	145.11
411.98	149.79
412.17	173.20
412.36	147.45
412.55	152.13
412.74	86.60
412.93	100.64
413.12	140.43
413.31	194.26
413.50	93.62
413.69	112.35
413.88	234.05
414.07	163.84
414.26	168.52
414.45	138.09
414.64	177.88
414.83	191.92
415.02	234.05
415.22	170.86
415.41	175.54
415.60	156.82
415.79	91.28
415.98	138.09
416.17	189.58
416.36	198.95
416.55	81.92
416.74	173.20
416.93	149.79
417.12	142.77
417.31	135.75
417.50	180.22
417.69	154.48
417.88	142.77
418.07	175.54
418.26	161.50
418.45	159.16
418.64	231.71
418.83	266.82
419.02	245.76
419.21	138.09
419.39	196.60
419.58	131.07
419.77	201.29
419.96	156.82
420.15	229.37
420.34	175.54
420.53	189.58
420.72	227.03
420.91	161.50
421.10	152.13
421.29	177.88
421.48	175.54
421.67	126.39
421.86	166.18
422.05	154.48
422.24	124.05
422.43	170.86
422.61	205.97
422.80	159.16
422.99	145.11
423.18	217.67
423.37	215.33
423.56	194.26
423.75	159.16
423.94	63.19
424.13	124.05
424.32	201.29
424.50	142.77
424.69	135.75
424.88	128.73
425.07	88.94
425.26	168.52
425.45	175.54
425.64	248.10
425.83	217.67
426.01	234.05
426.20	112.35
426.39	175.54
426.58	175.54
426.77	196.60
426.96	257.46
427.15	236.39
427.33	154.48
427.52	145.11
427.71	276.18
427.90	177.88
428.09	166.18
428.28	182.56
428.46	159.16
428.65	205.97
428.84	210.65
429.03	201.29
429.22	154.48
429.40	159.16
429.59	191.92
429.78	285.55
429.97	142.77
430.16	135.75
430.34	177.88
430.53	168.52
430.72	210.65
430.91	236.39
431.10	168.52
431.28	198.95
431.47	173.20
431.66	166.18
431.85	168.52
432.03	142.77
432.22	231.71
432.41	196.60
432.60	107.66
432.79	152.13
432.97	191.92
433.16	231.71
433.35	290.23
433.54	175.54
433.72	147.45
433.91	177.88
434.10	170.86
434.28	266.82
434.47	264.48
434.66	203.63
434.85	126.39
435.03	248.10
435.22	297.25
435.41	360.44
435.59	353.42
435.78	264.48
435.97	238.73
436.16	236.39
436.34	238.73
436.53	212.99
436.72	147.45
436.90	245.76
437.09	175.54
437.28	257.46
437.46	168.52
437.65	245.76
437.84	229.37
438.02	149.79
438.21	203.63
438.40	182.56
438.58	142.77
438.77	248.10
438.96	112.35
439.14	149.79
439.33	93.62
439.52	140.43
439.70	198.95
439.89	215.33
440.08	205.97
440.26	187.24
440.45	194.26
440.63	184.90
440.82	180.22
441.01	184.90
441.19	121.71
441.38	147.45
441.57	191.92
441.75	245.76
441.94	210.65
442.12	234.05
442.31	264.48
442.50	133.41
442.68	166.18
442.87	205.97
443.05	196.60
443.24	170.86
443.43	170.86
443.61	149.79
443.80	182.56
443.98	152.13
444.17	236.39
444.35	224.69
444.54	252.78
444.73	140.43
444.91	215.33
445.10	189.58
445.28	98.30
445.47	163.84
445.65	166.18
445.84	264.48
446.02	227.03
446.21	236.39
446.39	175.54
446.58	177.88
446.77	110.01
446.95	119.37
447.14	245.76
447.32	252.78
447.51	201.29
447.69	112.35
447.88	147.45
448.06	194.26
448.25	168.52
448.43	149.79
448.62	161.50
448.80	191.92
448.99	173.20
449.17	187.24
449.36	145.11
449.54	168.52
449.73	145.11
449.91	168.52
450.10	264.48
450.28	238.73
450.46	229.37
450.65	166.18
450.83	177.88
451.02	290.23
451.20	234.05
451.39	168.52
451.57	124.05
451.76	168.52
451.94	241.08
452.13	273.84
452.31	255.12
452.49	234.05
452.68	184.90
452.86	198.95
453.05	236.39
453.23	173.20
453.42	173.20
453.60	182.56
453.78	173.20
453.97	187.24
454.15	229.37
454.34	166.18
454.52	154.48
454.70	187.24
454.89	205.97
455.07	191.92
455.26	175.54
455.44	229.37
455.62	220.01
455.81	173.20
455.99	166.18
456.17	189.58
456.36	112.35
456.54	210.65
456.73	156.82
456.91	145.11
457.09	220.01
457.28	205.97
457.46	95.96
457.64	196.60
457.83	220.01
458.01	163.84
458.19	117.03
458.38	180.22
458.56	159.16
458.74	184.90
458.93	238.73
459.11	173.20
459.29	248.10
459.48	243.42
459.66	194.26
459.84	238.73
460.03	264.48
460.21	177.88
460.39	236.39
460.57	215.33
460.76	168.52
460.94	131.07
461.12	208.31
461.31	177.88
461.49	222.35
461.67	187.24
461.85	121.71
462.04	189.58
462.22	582.79
462.40	271.50
462.59	163.84
462.77	229.37
462.95	189.58
463.13	220.01
463.32	238.73
463.50	145.11
463.68	220.01
463.86	189.58
464.05	184.90
464.23	182.56
464.41	255.12
464.59	163.84
464.78	236.39
464.96	205.97
465.14	222.35
465.32	208.31
465.50	245.76
465.69	210.65
465.87	128.73
466.05	229.37
466.23	100.64
466.41	184.90
466.60	149.79
466.78	182.56
466.96	154.48
467.14	217.67
467.32	252.78
467.51	175.54
467.69	229.37
467.87	170.86
468.05	161.50
468.23	210.65
468.41	255.12
468.60	241.08
468.78	205.97
468.96	273.84
469.14	208.31
469.32	248.10
469.50	175.54
469.69	170.86
469.87	173.20
470.05	264.48
470.23	217.67
470.41	166.18
470.59	217.67
470.77	203.63
470.95	224.69
471.14	191.92
471.32	154.48
471.50	156.82
471.68	180.22
471.86	245.76
472.04	163.84
472.22	222.35
472.40	152.13
472.58	163.84
472.77	212.99
472.95	159.16
473.13	203.63
473.31	166.18
473.49	243.42
473.67	205.97
473.85	234.05
474.03	189.58
474.21	189.58
474.39	198.95
474.57	217.67
474.75	196.60
474.93	180.22
475.12	180.22
475.30	175.54
475.48	198.95
475.66	201.29
475.84	182.56
476.02	222.35
476.20	187.24
476.38	201.29
476.56	145.11
476.74	215.33
476.92	241.08
477.10	227.03
477.28	220.01
477.46	222.35
477.64	217.67
477.82	224.69
478.00	182.56
478.18	212.99
478.36	217.67
478.54	224.69
478.72	215.33
478.90	238.73
479.08	196.60
479.26	182.56
479.44	201.29
479.62	154.48
479.80	166.18
479.98	121.71
480.16	184.90
480.34	229.37
480.52	191.92
480.70	128.73
480.88	220.01
481.06	255.12
481.24	184.90
481.41	264.48
481.59	252.78
481.77	266.82
481.95	227.03
482.13	222.35
482.31	187.24
482.49	229.37
482.67	187.24
482.85	266.82
483.03	238.73
483.21	203.63
483.39	196.60
483.57	203.63
483.74	299.59
483.92	257.46
484.10	156.82
484.28	222.35
484.46	234.05
484.64	262.14
484.82	184.90
485.00	205.97
485.18	210.65
485.35	201.29
485.53	154.48
485.71	325.33
485.89	189.58
486.07	217.67
486.25	311.29
486.43	231.71
486.61	208.31
486.78	245.76
486.96	135.75
487.14	250.44
487.32	231.71
487.50	227.03
487.68	271.50
487.85	224.69
488.03	273.84
488.21	243.42
488.39	283.20
488.57	250.44
488.75	269.16
488.92	503.22
489.10	308.95
489.28	273.84
489.46	191.92
489.64	280.86
489.81	283.20
489.99	287.89
490.17	168.52
490.35	292.57
490.53	248.10
490.70	201.29
490.88	210.65
491.06	196.60
491.24	299.59
491.41	245.76
491.59	280.86
491.77	255.12
491.95	196.60
492.13	266.82
492.30	320.65
492.48	283.20
492.66	269.16
492.84	255.12
493.01	217.67
493.19	243.42
493.37	262.14
493.54	220.01
493.72	290.23
493.90	140.43
494.08	243.42
494.25	205.97
494.43	271.50
494.61	236.39
494.79	177.88
494.96	255.12
495.14	294.91
495.32	227.03
495.49	269.16
495.67	273.84
495.85	248.10
496.02	266.82
496.20	304.27
496.38	320.65
496.55	308.95
496.73	262.14
496.91	248.10
497.09	245.76
497.26	234.05
497.44	163.84
497.62	217.67
497.79	257.46
497.97	264.48
498.14	285.55
498.32	248.10
498.50	250.44
498.67	269.16
498.85	234.05
499.03	208.31
499.20	203.63
499.38	238.73
499.56	248.10
499.73	259.80
499.91	330.02
500.08	297.25
500.26	187.24
500.44	196.60
500.61	264.48
500.79	184.90
500.97	339.38
501.14	297.25
501.32	184.90
501.49	276.18
501.67	196.60
501.84	245.76
502.02	224.69
502.20	266.82
502.37	259.80
502.55	203.63
502.72	294.91
502.90	330.02
503.07	259.80
503.25	320.65
503.43	222.35
503.60	243.42
503.78	304.27
503.95	210.65
504.13	243.42
504.30	283.20
504.48	224.69
504.65	339.38
504.83	339.38
505.01	194.26
505.18	313.63
505.36	252.78
505.53	241.08
505.71	159.16
505.88	269.16
506.06	238.73
506.23	208.31
506.41	269.16
506.58	269.16
506.76	222.35
506.93	210.65
507.11	248.10
507.28	227.03
507.46	245.76
507.63	205.97
507.81	299.59
507.98	358.10
508.16	196.60
508.33	227.03
508.50	238.73
508.68	227.03
508.85	241.08
509.03	276.18
509.20	234.05
509.38	259.80
509.55	229.37
509.73	271.50
509.90	285.55
510.08	299.59
510.25	299.59
510.42	215.33
510.60	243.42
510.77	191.92
510.95	283.20
511.12	266.82
511.30	318.31
511.47	255.12
511.64	283.20
511.82	217.67
511.99	257.46
512.17	224.69
512.34	273.84
512.51	290.23
512.69	222.35
512.86	273.84
513.04	227.03
513.21	241.08
513.38	250.44
513.56	210.65
513.73	287.89
513.90	252.78
514.08	250.44
514.25	301.93
514.43	262.14
514.60	271.50
514.77	290.23
514.95	290.23
515.12	266.82
515.29	245.76
515.47	196.60
515.64	271.50
515.81	175.54
515.99	273.84
516.16	287.89
516.33	255.12
516.51	191.92
516.68	212.99
516.85	262.14
517.03	201.29
517.20	344.06
517.37	283.20
517.54	294.91
517.72	292.57
517.89	222.35
518.06	320.65
518.24	341.72
518.41	348.74
518.58	330.02
518.75	351.08
518.93	278.52
519.10	276.18
519.27	229.37
519.45	271.50
519.62	327.68
519.79	283.20
519.96	182.56
520.14	257.46
520.31	322.99
520.48	250.44
520.65	198.95
520.83	255.12
521.00	227.03
521.17	271.50
521.34	273.84
521.52	250.44
521.69	330.02
521.86	278.52
522.03	241.08
522.20	327.68
522.38	205.97
522.55	241.08
522.72	294.91
522.89	266.82
523.07	262.14
523.24	231.71
523.41	311.29
523.58	278.52
523.75	243.42
523.92	255.12
524.10	252.78
524.27	376.83
524.44	271.50
524.61	334.70
524.78	241.08
524.96	294.91
525.13	292.57
525.30	318.31
525.47	234.05
525.64	238.73
525.81	255.12
525.98	297.25
526.16	315.97
526.33	245.76
526.50	259.80
526.67	297.25
526.84	184.90
527.01	243.42
527.18	278.52
527.36	327.68
527.53	264.48
527.70	250.44
527.87	227.03
528.04	271.50
528.21	212.99
528.38	353.42
528.55	313.63
528.72	259.80
528.89	330.02
529.07	229.37
529.24	220.01
529.41	238.73
529.58	294.91
529.75	220.01
529.92	273.84
530.09	294.91
530.26	280.86
530.43	257.46
530.60	322.99
530.77	283.20
530.94	231.71
531.11	278.52
531.28	283.20
531.46	332.36
531.63	301.93
531.80	259.80
531.97	322.99
532.14	322.99
532.31	273.84
532.48	308.95
532.65	327.68
532.82	355.76
532.99	271.50
533.16	374.49
533.33	315.97
533.50	381.51
533.67	362.78
533.84	404.91
534.01	332.36
534.18	311.29
534.35	360.44
534.52	325.33
534.69	322.99
534.86	322.99
535.03	276.18
535.20	273.84
535.37	341.72
535.54	301.93
535.71	257.46
535.88	301.93
536.05	294.91
536.22	283.20
536.38	248.10
536.55	257.46
536.72	276.18
536.89	285.55
537.06	283.20
537.23	280.86
537.40	304.27
537.57	255.12
537.74	273.84
537.91	334.70
538.08	353.42
538.25	252.78
538.42	255.12
538.59	351.08
538.75	376.83
538.92	280.86
539.09	383.85
539.26	367.46
539.43	545.34
539.60	851.96
539.77	1301.34
539.94	1210.06
540.11	896.43
540.28	655.35
540.44	596.84
540.61	489.17
540.78	407.25
540.95	428.32
541.12	575.77
541.29	442.36
541.46	475.13
541.62	526.62
541.79	388.53
541.96	496.19
542.13	428.32
542.30	503.22
542.47	365.12
542.63	484.49
542.80	454.06
542.97	468.11
543.14	447.04
543.31	428.32
543.48	456.40
543.64	489.17
543.81	435.34
543.98	397.89
544.15	369.80
544.32	386.19
544.48	395.55
544.65	475.13
544.82	461.09
544.99	367.46
545.16	433.00
545.32	372.15
545.49	636.63
545.66	718.54
545.83	828.55
546.00	727.91
546.16	568.75
546.33	437.68
546.50	451.72
546.67	421.30
546.83	353.42
547.00	360.44
547.17	400.23
547.34	404.91
547.50	430.66
547.67	369.80
547.84	330.02
548.00	407.25
548.17	355.76
548.34	299.59
548.51	365.12
548.67	390.87
548.84	322.99
549.01	304.27
549.18	339.38
549.34	404.91
549.51	322.99
549.68	322.99
549.84	374.49
550.01	322.99
550.18	386.19
550.34	365.12
550.51	367.46
550.68	367.46
550.84	318.31
551.01	339.38
551.18	318.31
551.34	273.84
551.51	299.59
551.68	299.59
551.84	306.61
552.01	287.89
552.18	294.91
552.34	292.57
552.51	320.65
552.68	292.57
552.84	196.60
553.01	292.57
553.18	362.78
553.34	264.48
553.51	311.29
553.67	290.23
553.84	348.74
554.01	353.42
554.17	297.25
554.34	353.42
554.51	322.99
554.67	280.86
554.84	262.14
555.00	320.65
555.17	339.38
555.33	294.91
555.50	299.59
555.67	320.65
555.83	262.14
556.00	271.50
556.16	365.12
556.33	306.61
556.50	311.29
556.66	308.95
556.83	180.22
556.99	194.26
557.16	255.12
557.32	236.39
557.49	224.69
557.65	264.48
557.82	306.61
557.98	315.97
558.15	325.33
558.32	241.08
558.48	245.76
558.65	236.39
558.81	236.39
558.98	231.71
559.14	224.69
559.31	229.37
559.47	262.14
559.64	276.18
559.80	224.69
559.97	250.44
560.13	292.57
560.30	255.12
560.46	280.86
560.63	266.82
560.79	315.97
560.96	252.78
561.12	220.01
561.29	238.73
561.45	306.61
561.61	217.67
561.78	341.72
561.94	234.05
562.11	210.65
562.27	325.33
562.44	269.16
562.60	194.26
562.77	299.59
562.93	330.02
563.10	283.20
563.26	245.76
563.42	262.14
563.59	252.78
563.75	236.39
563.92	360.44
564.08	205.97
564.24	334.70
564.41	257.46
564.57	236.39
564.74	238.73
564.90	266.82
565.07	257.46
565.23	241.08
565.39	215.33
565.56	257.46
565.72	231.71
565.88	297.25
566.05	318.31
566.21	255.12
566.38	262.14
566.54	287.89
566.70	212.99
566.87	278.52
567.03	177.88
567.19	287.89
567.36	273.84
567.52	250.44
567.68	283.20
567.85	255.12
568.01	285.55
568.17	234.05
568.34	241.08
568.50	311.29
568.66	236.39
568.83	374.49
568.99	252.78
569.15	299.59
569.32	259.80
569.48	212.99
569.64	184.90
569.81	278.52
569.97	187.24
570.13	290.23
570.30	301.93
570.46	236.39
570.62	184.90
570.78	220.01
570.95	266.82
571.11	294.91
571.27	313.63
571.43	255.12
571.60	294.91
571.76	376.83
571.92	290.23
572.09	234.05
572.25	283.20
572.41	259.80
572.57	255.12
572.74	294.91
572.90	273.84
573.06	374.49
573.22	330.02
573.38	322.99
573.55	245.76
573.71	304.27
573.87	292.57
574.03	243.42
574.20	320.65
574.36	425.98
574.52	388.53
574.68	360.44
574.84	339.38
575.01	257.46
575.17	290.23
575.33	231.71
575.49	287.89
575.65	292.57
575.82	344.06
575.98	486.83
576.14	613.22
576.30	657.69
576.46	496.19
576.62	568.75
576.79	374.49
576.95	351.08
577.11	327.68
577.27	322.99
577.43	299.59
577.59	381.51
577.75	318.31
577.92	379.17
578.08	212.99
578.24	320.65
578.40	383.85
578.56	400.23
578.72	381.51
578.88	332.36
579.04	416.62
579.21	234.05
579.37	271.50
579.53	362.78
579.69	346.40
579.85	294.91
580.01	369.80
580.17	409.59
580.33	393.21
580.49	379.17
580.65	341.72
580.82	318.31
580.98	344.06
581.14	362.78
581.30	325.33
581.46	381.51
581.62	512.58
581.78	627.26
581.94	526.62
582.10	468.11
582.26	484.49
582.42	376.83
582.58	440.02
582.74	355.76
582.90	470.45
583.06	514.92
583.22	463.43
583.38	531.30
583.54	484.49
583.70	622.58
583.86	641.31
584.02	699.82
584.18	791.10
584.34	1064.94
584.50	2300.75
584.66	17048.46
584.82	44540.39
584.98	57104.39
585.14	53652.10
585.30	35770.41
585.46	20753.53
585.62	13029.76
585.78	6097.10
585.94	2513.74
586.10	1240.48
586.26	875.36
586.42	711.52
586.58	634.29
586.74	575.77
586.90	608.54
587.06	540.66
587.22	557.05
587.38	524.28
587.54	1027.50
587.70	2555.86
587.86	4299.56
588.02	4547.66
588.18	3386.76
588.34	2221.17
588.49	1540.07
588.65	983.02
588.81	599.18
588.97	407.25
589.13	421.30
589.29	280.86
589.45	283.20
589.61	299.59
589.77	451.72
589.93	507.90
590.08	437.68
590.24	456.40
590.40	344.06
590.56	383.85
590.72	346.40
590.88	278.52
591.04	411.93
591.20	381.51
591.35	360.44
591.51	355.76
591.67	255.12
591.83	341.72
591.99	355.76
592.15	325.33
592.31	313.63
592.46	283.20
592.62	367.46
592.78	388.53
592.94	351.08
593.10	379.17
593.26	337.04
593.41	362.78
593.57	325.33
593.73	538.32
593.89	2052.65
594.05	5394.93
594.20	7655.89
594.36	7433.54
594.52	4950.23
594.68	3150.36
594.84	2146.27
594.99	1203.04
595.15	660.03
595.31	435.34
595.47	376.83
595.62	308.95
595.78	381.51
595.94	407.25
596.10	257.46
596.25	283.20
596.41	355.76
596.57	369.80
596.73	334.70
596.88	395.55
597.04	1043.88
597.20	1696.89
597.36	1942.64
597.51	1607.95
597.67	1130.48
597.83	781.74
597.99	650.67
598.14	456.40
598.30	362.78
598.46	271.50
598.61	421.30
598.77	447.04
598.93	346.40
599.09	339.38
599.24	266.82
599.40	327.68
599.56	287.89
599.71	313.63
599.87	318.31
600.03	311.29
600.18	330.02
600.34	322.99
600.50	292.57
600.65	252.78
600.81	301.93
600.97	285.55
601.12	395.55
601.28	266.82
601.44	301.93
601.59	269.16
601.75	306.61
601.91	250.44
602.06	266.82
602.22	355.76
602.37	601.52
602.53	1252.19
602.69	1970.73
602.84	2207.13
603.00	1509.65
603.16	1086.01
603.31	840.25
603.47	578.11
603.62	407.25
603.78	360.44
603.94	362.78
604.09	236.39
604.25	327.68
604.40	264.48
604.56	369.80
604.71	344.06
604.87	250.44
605.03	344.06
605.18	383.85
605.34	252.78
605.49	304.27
605.65	311.29
605.80	301.93
605.96	374.49
606.12	404.91
606.27	351.08
606.43	337.04
606.58	365.12
606.74	732.59
606.89	2516.08
607.05	5097.69
607.20	6658.82
607.36	5626.65
607.51	3693.37
607.67	2469.27
607.82	1717.95
607.98	1053.24
608.13	622.58
608.29	437.68
608.44	454.06
608.60	472.79
608.75	454.06
608.91	985.37
609.06	3871.25
609.22	8341.67
609.37	11447.56
609.53	10003.45
609.68	6740.74
609.84	4521.92
609.99	3063.76
610.15	1732.00
610.30	1053.24
