SpectraSuite Data File
++++++++++++++++++++++++++++++++++++
Date: Fri Oct 04 11:34:09 GMT-05:00 2013
User: price-jones
Dark Spectrum Present: No
Reference Spectrum Present: No
Number of Sampled Component Spectra: 1
Spectrometers: USB2+H05261
Integration Time (usec): 100000 (USB2+H05261)
Spectra Averaged: 1 (USB2+H05261)
Boxcar Smoothing: 0 (USB2+H05261)
Correct for Electrical Dark: No (USB2+H05261)
Strobe/Lamp Enabled: No (USB2+H05261)
Correct for Detector Non-linearity: No (USB2+H05261)
Correct for Stray Light: No (USB2+H05261)
Number of Pixels in Processed Spectrum: 2048
>>>>>Begin Processed Spectral Data<<<<<
365.73	60.85
365.92	60.85
366.12	60.85
366.32	0.00
366.52	32.77
366.72	0.00
366.91	0.00
367.11	0.00
367.31	30.43
367.51	0.00
367.70	0.00
367.90	0.00
368.10	0.00
368.30	0.00
368.49	0.00
368.69	0.00
368.89	0.00
369.09	0.00
369.28	11.70
369.48	0.00
369.68	0.00
369.87	0.00
370.07	0.00
370.27	0.00
370.47	124.05
370.66	51.49
370.86	65.54
371.06	119.37
371.25	102.98
371.45	70.22
371.65	67.88
371.84	0.00
372.04	131.07
372.24	110.01
372.44	124.05
372.63	110.01
372.83	182.56
373.03	142.77
373.22	131.07
373.42	147.45
373.62	145.11
373.81	168.52
374.01	163.84
374.21	135.75
374.40	133.41
374.60	182.56
374.79	112.35
374.99	198.95
375.19	166.18
375.38	177.88
375.58	175.54
375.78	191.92
375.97	161.50
376.17	166.18
376.37	154.48
376.56	168.52
376.76	114.69
376.95	154.48
377.15	138.09
377.35	180.22
377.54	145.11
377.74	147.45
377.93	95.96
378.13	166.18
378.33	131.07
378.52	156.82
378.72	166.18
378.91	147.45
379.11	58.51
379.31	149.79
379.50	205.97
379.70	177.88
379.89	243.42
380.09	117.03
380.28	131.07
380.48	145.11
380.68	161.50
380.87	112.35
381.07	159.16
381.26	191.92
381.46	196.60
381.65	156.82
381.85	161.50
382.04	180.22
382.24	117.03
382.43	100.64
382.63	95.96
382.83	98.30
383.02	131.07
383.22	222.35
383.41	142.77
383.61	112.35
383.80	191.92
384.00	201.29
384.19	53.83
384.39	114.69
384.58	112.35
384.78	65.54
384.97	124.05
385.17	142.77
385.36	84.26
385.56	126.39
385.75	117.03
385.95	177.88
386.14	184.90
386.34	154.48
386.53	102.98
386.72	112.35
386.92	224.69
387.11	79.58
387.31	156.82
387.50	133.41
387.70	133.41
387.89	147.45
388.09	107.66
388.28	121.71
388.48	147.45
388.67	212.99
388.86	135.75
389.06	126.39
389.25	121.71
389.45	102.98
389.64	138.09
389.84	177.88
390.03	117.03
390.22	156.82
390.42	140.43
390.61	135.75
390.81	124.05
391.00	182.56
391.19	210.65
391.39	182.56
391.58	201.29
391.78	119.37
391.97	149.79
392.16	224.69
392.36	189.58
392.55	180.22
392.75	67.88
392.94	191.92
393.13	88.94
393.33	124.05
393.52	140.43
393.71	163.84
393.91	175.54
394.10	93.62
394.29	110.01
394.49	105.32
394.68	189.58
394.88	180.22
395.07	248.10
395.26	170.86
395.46	156.82
395.65	81.92
395.84	91.28
396.04	238.73
396.23	140.43
396.42	74.90
396.62	166.18
396.81	177.88
397.00	145.11
397.19	131.07
397.39	138.09
397.58	215.33
397.77	170.86
397.97	138.09
398.16	133.41
398.35	170.86
398.55	163.84
398.74	156.82
398.93	154.48
399.12	121.71
399.32	238.73
399.51	177.88
399.70	156.82
399.90	154.48
400.09	154.48
400.28	156.82
400.47	161.50
400.67	112.35
400.86	119.37
401.05	194.26
401.24	163.84
401.44	105.32
401.63	189.58
401.82	133.41
402.01	126.39
402.21	175.54
402.40	131.07
402.59	107.66
402.78	189.58
402.97	114.69
403.17	224.69
403.36	119.37
403.55	154.48
403.74	145.11
403.93	210.65
404.13	294.91
404.32	248.10
404.51	241.08
404.70	177.88
404.89	156.82
405.09	201.29
405.28	147.45
405.47	198.95
405.66	231.71
405.85	177.88
406.05	133.41
406.24	126.39
406.43	203.63
406.62	177.88
406.81	222.35
407.00	159.16
407.20	173.20
407.39	126.39
407.58	126.39
407.77	149.79
407.96	217.67
408.15	121.71
408.34	135.75
408.54	168.52
408.73	252.78
408.92	114.69
409.11	142.77
409.30	147.45
409.49	180.22
409.68	131.07
409.87	114.69
410.07	170.86
410.26	131.07
410.45	135.75
410.64	175.54
410.83	145.11
411.02	135.75
411.21	145.11
411.40	149.79
411.59	236.39
411.78	198.95
411.98	114.69
412.17	196.60
412.36	159.16
412.55	180.22
412.74	156.82
412.93	180.22
413.12	124.05
413.31	133.41
413.50	156.82
413.69	175.54
413.88	173.20
414.07	159.16
414.26	147.45
414.45	168.52
414.64	156.82
414.83	114.69
415.02	142.77
415.22	187.24
415.41	252.78
415.60	168.52
415.79	248.10
415.98	283.20
416.17	236.39
416.36	159.16
416.55	84.26
416.74	215.33
416.93	184.90
417.12	142.77
417.31	159.16
417.50	170.86
417.69	278.52
417.88	189.58
418.07	201.29
418.26	210.65
418.45	138.09
418.64	292.57
418.83	198.95
419.02	149.79
419.21	227.03
419.39	243.42
419.58	203.63
419.77	168.52
419.96	250.44
420.15	145.11
420.34	159.16
420.53	184.90
420.72	184.90
420.91	110.01
421.10	231.71
421.29	142.77
421.48	203.63
421.67	177.88
421.86	175.54
422.05	74.90
422.24	166.18
422.43	187.24
422.61	152.13
422.80	177.88
422.99	140.43
423.18	208.31
423.37	212.99
423.56	191.92
423.75	138.09
423.94	173.20
424.13	203.63
424.32	126.39
424.50	210.65
424.69	161.50
424.88	182.56
425.07	208.31
425.26	184.90
425.45	229.37
425.64	229.37
425.83	212.99
426.01	245.76
426.20	177.88
426.39	212.99
426.58	117.03
426.77	168.52
426.96	212.99
427.15	208.31
427.33	217.67
427.52	191.92
427.71	208.31
427.90	163.84
428.09	74.90
428.28	163.84
428.46	175.54
428.65	142.77
428.84	189.58
429.03	297.25
429.22	198.95
429.40	98.30
429.59	147.45
429.78	210.65
429.97	205.97
430.16	194.26
430.34	107.66
430.53	159.16
430.72	102.98
430.91	191.92
431.10	196.60
431.28	234.05
431.47	98.30
431.66	196.60
431.85	119.37
432.03	198.95
432.22	241.08
432.41	191.92
432.60	320.65
432.79	330.02
432.97	292.57
433.16	362.78
433.35	304.27
433.54	259.80
433.72	205.97
433.91	198.95
434.10	238.73
434.28	259.80
434.47	180.22
434.66	220.01
434.85	168.52
435.03	215.33
435.22	390.87
435.41	557.05
435.59	496.19
435.78	407.25
435.97	245.76
436.16	159.16
436.34	189.58
436.53	210.65
436.72	252.78
436.90	194.26
437.09	177.88
437.28	184.90
437.46	184.90
437.65	220.01
437.84	245.76
438.02	196.60
438.21	201.29
438.40	231.71
438.58	138.09
438.77	156.82
438.96	168.52
439.14	126.39
439.33	173.20
439.52	191.92
439.70	128.73
439.89	255.12
440.08	217.67
440.26	152.13
440.45	201.29
440.63	168.52
440.82	166.18
441.01	203.63
441.19	152.13
441.38	194.26
441.57	184.90
441.75	184.90
441.94	243.42
442.12	248.10
442.31	198.95
442.50	102.98
442.68	175.54
442.87	187.24
443.05	149.79
443.24	173.20
443.43	222.35
443.61	154.48
443.80	175.54
443.98	175.54
444.17	138.09
444.35	238.73
444.54	182.56
444.73	161.50
444.91	161.50
445.10	259.80
445.28	257.46
445.47	227.03
445.65	184.90
445.84	156.82
446.02	236.39
446.21	196.60
446.39	154.48
446.58	133.41
446.77	184.90
446.95	173.20
447.14	215.33
447.32	255.12
447.51	173.20
447.69	126.39
447.88	182.56
448.06	222.35
448.25	245.76
448.43	93.62
448.62	166.18
448.80	245.76
448.99	229.37
449.17	147.45
449.36	191.92
449.54	163.84
449.73	175.54
449.91	198.95
450.10	238.73
450.28	238.73
450.46	241.08
450.65	241.08
450.83	135.75
451.02	203.63
451.20	243.42
451.39	149.79
451.57	194.26
451.76	262.14
451.94	156.82
452.13	220.01
452.31	259.80
452.49	217.67
452.68	184.90
452.86	217.67
453.05	203.63
453.23	266.82
453.42	220.01
453.60	156.82
453.78	273.84
453.97	163.84
454.15	163.84
454.34	173.20
454.52	203.63
454.70	255.12
454.89	210.65
455.07	182.56
455.26	217.67
455.44	222.35
455.62	222.35
455.81	224.69
455.99	189.58
456.17	166.18
456.36	201.29
456.54	168.52
456.73	177.88
456.91	114.69
457.09	175.54
457.28	234.05
457.46	189.58
457.64	241.08
457.83	222.35
458.01	147.45
458.19	182.56
458.38	142.77
458.56	243.42
458.74	140.43
458.93	210.65
459.11	175.54
459.29	187.24
459.48	306.61
459.66	234.05
459.84	208.31
460.03	224.69
460.21	248.10
460.39	215.33
460.57	234.05
460.76	198.95
460.94	131.07
461.12	161.50
461.31	198.95
461.49	194.26
461.67	224.69
461.85	119.37
462.04	224.69
462.22	330.02
462.40	180.22
462.59	203.63
462.77	245.76
462.95	182.56
463.13	191.92
463.32	234.05
463.50	257.46
463.68	212.99
463.86	173.20
464.05	194.26
464.23	255.12
464.41	280.86
464.59	156.82
464.78	248.10
464.96	203.63
465.14	217.67
465.32	140.43
465.50	175.54
465.69	210.65
465.87	184.90
466.05	231.71
466.23	161.50
466.41	269.16
466.60	212.99
466.78	175.54
466.96	238.73
467.14	215.33
467.32	210.65
467.51	243.42
467.69	149.79
467.87	245.76
468.05	161.50
468.23	222.35
468.41	170.86
468.60	170.86
468.78	194.26
468.96	229.37
469.14	142.77
469.32	149.79
469.50	196.60
469.69	189.58
469.87	149.79
470.05	229.37
470.23	264.48
470.41	236.39
470.59	159.16
470.77	140.43
470.95	229.37
471.14	154.48
471.32	212.99
471.50	187.24
471.68	217.67
471.86	170.86
472.04	145.11
472.22	231.71
472.40	212.99
472.58	191.92
472.77	170.86
472.95	196.60
473.13	255.12
473.31	278.52
473.49	184.90
473.67	124.05
473.85	180.22
474.03	234.05
474.21	259.80
474.39	184.90
474.57	217.67
474.75	222.35
474.93	145.11
475.12	88.94
475.30	140.43
475.48	182.56
475.66	231.71
475.84	212.99
476.02	238.73
476.20	201.29
476.38	187.24
476.56	245.76
476.74	161.50
476.92	290.23
477.10	189.58
477.28	203.63
477.46	236.39
477.64	241.08
477.82	215.33
478.00	238.73
478.18	241.08
478.36	229.37
478.54	163.84
478.72	121.71
478.90	224.69
479.08	224.69
479.26	231.71
479.44	250.44
479.62	175.54
479.80	170.86
479.98	210.65
480.16	229.37
480.34	243.42
480.52	170.86
480.70	210.65
480.88	147.45
481.06	184.90
481.24	220.01
481.41	217.67
481.59	154.48
481.77	248.10
481.95	170.86
482.13	301.93
482.31	191.92
482.49	191.92
482.67	170.86
482.85	257.46
483.03	266.82
483.21	245.76
483.39	180.22
483.57	229.37
483.74	222.35
483.92	205.97
484.10	182.56
484.28	280.86
484.46	255.12
484.64	184.90
484.82	259.80
485.00	255.12
485.18	236.39
485.35	231.71
485.53	269.16
485.71	227.03
485.89	273.84
486.07	196.60
486.25	290.23
486.43	236.39
486.61	227.03
486.78	278.52
486.96	280.86
487.14	234.05
487.32	236.39
487.50	220.01
487.68	266.82
487.85	311.29
488.03	224.69
488.21	341.72
488.39	297.25
488.57	332.36
488.75	266.82
488.92	479.81
489.10	215.33
489.28	285.55
489.46	257.46
489.64	250.44
489.81	210.65
489.99	278.52
490.17	297.25
490.35	339.38
490.53	290.23
490.70	156.82
490.88	250.44
491.06	292.57
491.24	217.67
491.41	311.29
491.59	222.35
491.77	248.10
491.95	217.67
492.13	189.58
492.30	231.71
492.48	241.08
492.66	243.42
492.84	227.03
493.01	269.16
493.19	205.97
493.37	294.91
493.54	173.20
493.72	301.93
493.90	294.91
494.08	217.67
494.25	255.12
494.43	271.50
494.61	264.48
494.79	238.73
494.96	285.55
495.14	243.42
495.32	236.39
495.49	308.95
495.67	271.50
495.85	205.97
496.02	285.55
496.20	255.12
496.38	292.57
496.55	248.10
496.73	294.91
496.91	217.67
497.09	264.48
497.26	238.73
497.44	311.29
497.62	245.76
497.79	231.71
497.97	227.03
498.14	259.80
498.32	320.65
498.50	229.37
498.67	224.69
498.85	278.52
499.03	276.18
499.20	327.68
499.38	266.82
499.56	241.08
499.73	313.63
499.91	210.65
500.08	255.12
500.26	318.31
500.44	271.50
500.61	220.01
500.79	248.10
500.97	224.69
501.14	271.50
501.32	259.80
501.49	224.69
501.67	227.03
501.84	266.82
502.02	231.71
502.20	180.22
502.37	248.10
502.55	194.26
502.72	215.33
502.90	294.91
503.07	241.08
503.25	297.25
503.43	311.29
503.60	262.14
503.78	344.06
503.95	276.18
504.13	262.14
504.30	269.16
504.48	248.10
504.65	229.37
504.83	299.59
505.01	210.65
505.18	241.08
505.36	264.48
505.53	259.80
505.71	121.71
505.88	215.33
506.06	264.48
506.23	231.71
506.41	255.12
506.58	198.95
506.76	306.61
506.93	353.42
507.11	259.80
507.28	313.63
507.46	299.59
507.63	299.59
507.81	250.44
507.98	245.76
508.16	248.10
508.33	287.89
508.50	297.25
508.68	320.65
508.85	180.22
509.03	252.78
509.20	217.67
509.38	304.27
509.55	313.63
509.73	266.82
509.90	313.63
510.08	241.08
510.25	220.01
510.42	201.29
510.60	262.14
510.77	320.65
510.95	227.03
511.12	266.82
511.30	278.52
511.47	348.74
511.64	276.18
511.82	224.69
511.99	257.46
512.17	234.05
512.34	325.33
512.51	255.12
512.69	313.63
512.86	290.23
513.04	236.39
513.21	259.80
513.38	243.42
513.56	273.84
513.73	269.16
513.90	238.73
514.08	273.84
514.25	301.93
514.43	215.33
514.60	229.37
514.77	278.52
514.95	304.27
515.12	315.97
515.29	306.61
515.47	255.12
515.64	241.08
515.81	299.59
515.99	283.20
516.16	262.14
516.33	299.59
516.51	182.56
516.68	227.03
516.85	311.29
517.03	280.86
517.20	283.20
517.37	276.18
517.54	250.44
517.72	194.26
517.89	299.59
518.06	220.01
518.24	262.14
518.41	358.10
518.58	301.93
518.75	208.31
518.93	292.57
519.10	285.55
519.27	198.95
519.45	327.68
519.62	299.59
519.79	243.42
519.96	337.04
520.14	320.65
520.31	292.57
520.48	248.10
520.65	322.99
520.83	330.02
521.00	269.16
521.17	215.33
521.34	264.48
521.52	358.10
521.69	224.69
521.86	320.65
522.03	320.65
522.20	322.99
522.38	217.67
522.55	259.80
522.72	292.57
522.89	308.95
523.07	334.70
523.24	299.59
523.41	217.67
523.58	262.14
523.75	276.18
523.92	238.73
524.10	248.10
524.27	175.54
524.44	262.14
524.61	327.68
524.78	231.71
524.96	301.93
525.13	248.10
525.30	264.48
525.47	311.29
525.64	346.40
525.81	271.50
525.98	234.05
526.16	252.78
526.33	220.01
526.50	220.01
526.67	220.01
526.84	243.42
527.01	287.89
527.18	297.25
527.36	313.63
527.53	252.78
527.70	285.55
527.87	255.12
528.04	301.93
528.21	231.71
528.38	341.72
528.55	348.74
528.72	332.36
528.89	313.63
529.07	276.18
529.24	241.08
529.41	327.68
529.58	362.78
529.75	203.63
529.92	283.20
530.09	276.18
530.26	395.55
530.43	287.89
530.60	273.84
530.77	262.14
530.94	278.52
531.11	297.25
531.28	308.95
531.46	297.25
531.63	245.76
531.80	287.89
531.97	278.52
532.14	266.82
532.31	322.99
532.48	411.93
532.65	390.87
532.82	365.12
532.99	402.57
533.16	358.10
533.33	344.06
533.50	367.46
533.67	367.46
533.84	353.42
534.01	482.15
534.18	360.44
534.35	430.66
534.52	346.40
534.69	348.74
534.86	346.40
535.03	269.16
535.20	304.27
535.37	325.33
535.54	322.99
535.71	330.02
535.88	311.29
536.05	311.29
536.22	332.36
536.38	238.73
536.55	304.27
536.72	344.06
536.89	379.17
537.06	264.48
537.23	297.25
537.40	290.23
537.57	301.93
537.74	337.04
537.91	301.93
538.08	332.36
538.25	294.91
538.42	292.57
538.59	301.93
538.75	341.72
538.92	325.33
539.09	409.59
539.26	337.04
539.43	620.24
539.60	1238.14
539.77	1680.50
539.94	1636.03
540.11	1174.95
540.28	866.00
540.44	685.78
540.61	582.79
540.78	512.58
540.95	486.83
541.12	620.24
541.29	606.20
541.46	559.39
541.62	594.50
541.79	557.05
541.96	547.69
542.13	521.94
542.30	610.88
542.47	503.22
542.63	500.87
542.80	521.94
542.97	606.20
543.14	561.73
543.31	512.58
543.48	475.13
543.64	463.43
543.81	524.28
543.98	519.60
544.15	526.62
544.32	512.58
544.48	491.51
544.65	470.45
544.82	543.00
544.99	500.87
545.16	470.45
545.32	535.98
545.49	826.21
545.66	1032.18
545.83	971.32
546.00	891.74
546.16	716.20
546.33	674.07
546.50	580.45
546.67	514.92
546.83	585.13
547.00	425.98
547.17	409.59
547.34	447.04
547.50	475.13
547.67	395.55
547.84	327.68
548.00	411.93
548.17	411.93
548.34	388.53
548.51	411.93
548.67	369.80
548.84	320.65
549.01	395.55
549.18	411.93
549.34	395.55
549.51	337.04
549.68	400.23
549.84	313.63
550.01	372.15
550.18	461.09
550.34	404.91
550.51	337.04
550.68	369.80
550.84	227.03
551.01	330.02
551.18	322.99
551.34	348.74
551.51	311.29
551.68	358.10
551.84	379.17
552.01	290.23
552.18	273.84
552.34	369.80
552.51	315.97
552.68	297.25
552.84	348.74
553.01	320.65
553.18	280.86
553.34	369.80
553.51	311.29
553.67	292.57
553.84	334.70
554.01	332.36
554.17	315.97
554.34	294.91
554.51	308.95
554.67	337.04
554.84	348.74
555.00	252.78
555.17	308.95
555.33	330.02
555.50	266.82
555.67	355.76
555.83	280.86
556.00	344.06
556.16	454.06
556.33	320.65
556.50	273.84
556.66	322.99
556.83	313.63
556.99	290.23
557.16	358.10
557.32	351.08
557.49	262.14
557.65	304.27
557.82	264.48
557.98	290.23
558.15	360.44
558.32	290.23
558.48	276.18
558.65	285.55
558.81	287.89
558.98	322.99
559.14	215.33
559.31	229.37
559.47	308.95
559.64	320.65
559.80	252.78
559.97	250.44
560.13	264.48
560.30	301.93
560.46	262.14
560.63	283.20
560.79	271.50
560.96	360.44
561.12	304.27
561.29	264.48
561.45	271.50
561.61	334.70
561.78	355.76
561.94	285.55
562.11	287.89
562.27	227.03
562.44	259.80
562.60	191.92
562.77	334.70
562.93	315.97
563.10	339.38
563.26	280.86
563.42	273.84
563.59	257.46
563.75	250.44
563.92	327.68
564.08	334.70
564.24	308.95
564.41	351.08
564.57	271.50
564.74	257.46
564.90	304.27
565.07	379.17
565.23	346.40
565.39	327.68
565.56	294.91
565.72	322.99
565.88	297.25
566.05	248.10
566.21	266.82
566.38	313.63
566.54	285.55
566.70	264.48
566.87	264.48
567.03	304.27
567.19	297.25
567.36	297.25
567.52	346.40
567.68	341.72
567.85	311.29
568.01	327.68
568.17	224.69
568.34	304.27
568.50	325.33
568.66	227.03
568.83	365.12
568.99	290.23
569.15	304.27
569.32	198.95
569.48	189.58
569.64	304.27
569.81	262.14
569.97	273.84
570.13	414.27
570.30	222.35
570.46	278.52
570.62	212.99
570.78	276.18
570.95	257.46
571.11	222.35
571.27	344.06
571.43	299.59
571.60	327.68
571.76	315.97
571.92	351.08
572.09	259.80
572.25	236.39
572.41	269.16
572.57	379.17
572.74	262.14
572.90	229.37
573.06	276.18
573.22	227.03
573.38	337.04
573.55	252.78
573.71	283.20
573.87	241.08
574.03	257.46
574.20	229.37
574.36	360.44
574.52	400.23
574.68	409.59
574.84	388.53
575.01	264.48
575.17	344.06
575.33	266.82
575.49	294.91
575.65	397.89
575.82	454.06
575.98	592.16
576.14	688.12
576.30	833.23
576.46	657.69
576.62	592.16
576.79	573.43
576.95	421.30
577.11	433.00
577.27	294.91
577.43	337.04
577.59	430.66
577.75	379.17
577.92	318.31
578.08	339.38
578.24	353.42
578.40	376.83
578.56	402.57
578.72	442.36
578.88	409.59
579.04	369.80
579.21	442.36
579.37	334.70
579.53	337.04
579.69	400.23
579.85	402.57
580.01	540.66
580.17	456.40
580.33	418.96
580.49	440.02
580.65	409.59
580.82	383.85
580.98	334.70
581.14	435.34
581.30	489.17
581.46	557.05
581.62	723.23
581.78	678.76
581.94	695.14
582.10	599.18
582.26	578.11
582.42	500.87
582.58	540.66
582.74	454.06
582.90	491.51
583.06	545.34
583.22	587.47
583.38	631.94
583.54	589.82
583.70	653.01
583.86	767.70
584.02	940.90
584.18	1018.13
584.34	1348.15
584.50	3300.16
584.66	24301.78
584.82	57193.33
584.98	65535.00
585.14	63311.49
585.30	49478.92
585.46	30693.79
585.62	18698.54
585.78	8800.41
585.94	3534.21
586.10	1727.32
586.26	1097.71
586.42	933.87
586.58	744.29
586.74	807.48
586.90	887.06
587.06	688.12
587.22	746.63
587.38	653.01
587.54	1334.11
587.70	3777.62
587.86	5975.39
588.02	6572.22
588.18	4610.86
588.34	3000.57
588.49	1952.01
588.65	1212.40
588.81	840.25
588.97	475.13
589.13	414.27
589.29	344.06
589.45	425.98
589.61	421.30
589.77	470.45
589.93	561.73
590.08	521.94
590.24	498.53
590.40	575.77
590.56	521.94
590.72	423.64
590.88	425.98
591.04	514.92
591.20	411.93
591.35	449.38
591.51	362.78
591.67	322.99
591.83	440.02
591.99	367.46
592.15	449.38
592.31	386.19
592.46	351.08
592.62	388.53
592.78	491.51
592.94	411.93
593.10	414.27
593.26	449.38
593.41	451.72
593.57	411.93
593.73	676.41
593.89	3045.04
594.05	7847.82
594.20	11250.96
594.36	10850.72
594.52	7112.89
594.68	4496.17
594.84	3002.91
594.99	1668.80
595.15	816.85
595.31	550.03
595.47	486.83
595.62	390.87
595.78	376.83
595.94	400.23
596.10	475.13
596.25	418.96
596.41	386.19
596.57	477.47
596.73	369.80
596.88	564.07
597.04	1575.18
597.20	2544.16
597.36	2937.37
597.51	2263.30
597.67	1507.30
597.83	1135.16
597.99	767.70
598.14	461.09
598.30	482.15
598.46	395.55
598.61	397.89
598.77	404.91
598.93	376.83
599.09	355.76
599.24	421.30
599.40	416.62
599.56	315.97
599.71	367.46
599.87	325.33
600.03	297.25
600.18	269.16
600.34	320.65
600.50	290.23
600.65	245.76
600.81	355.76
600.97	332.36
601.12	311.29
601.28	266.82
601.44	278.52
601.59	322.99
601.75	346.40
601.91	341.72
602.06	285.55
602.22	430.66
602.37	802.80
602.53	1823.28
602.69	2808.64
602.84	2981.84
603.00	2258.62
603.16	1551.78
603.31	1069.62
603.47	704.50
603.62	585.13
603.78	381.51
603.94	308.95
604.09	407.25
604.25	433.00
604.40	313.63
604.56	360.44
604.71	315.97
604.87	299.59
605.03	262.14
605.18	301.93
605.34	304.27
605.49	374.49
605.65	374.49
605.80	383.85
605.96	287.89
606.12	454.06
606.27	390.87
606.43	376.83
606.58	456.40
606.74	889.40
606.89	3588.04
607.05	7229.91
607.20	9671.09
607.36	8049.10
607.51	5336.42
607.67	3492.08
607.82	2490.33
607.98	1460.49
608.13	828.55
608.29	599.18
608.44	517.26
608.60	465.77
608.75	674.07
608.91	1345.81
609.06	5535.37
609.22	12493.78
609.37	17118.68
609.53	14846.02
609.68	9966.00
609.84	6544.14
609.99	4437.66
