SpectraSuite Data File
++++++++++++++++++++++++++++++++++++
Date: Fri Oct 04 12:13:33 GMT-05:00 2013
User: price-jones
Dark Spectrum Present: No
Reference Spectrum Present: No
Number of Sampled Component Spectra: 1
Spectrometers: USB2+H05261
Integration Time (usec): 10000 (USB2+H05261)
Spectra Averaged: 1 (USB2+H05261)
Boxcar Smoothing: 0 (USB2+H05261)
Correct for Electrical Dark: No (USB2+H05261)
Strobe/Lamp Enabled: No (USB2+H05261)
Correct for Detector Non-linearity: No (USB2+H05261)
Correct for Stray Light: No (USB2+H05261)
Number of Pixels in Processed Spectrum: 2048
>>>>>Begin Processed Spectral Data<<<<<
365.73	0.00
365.92	0.00
366.12	0.00
366.32	0.00
366.52	0.00
366.72	0.00
366.91	0.00
367.11	0.00
367.31	0.00
367.51	0.00
367.70	0.00
367.90	0.00
368.10	0.00
368.30	0.00
368.49	0.00
368.69	0.00
368.89	0.00
369.09	0.00
369.28	0.00
369.48	0.00
369.68	0.00
369.87	0.00
370.07	0.00
370.27	0.00
370.47	0.00
370.66	114.69
370.86	72.56
371.06	70.22
371.25	51.49
371.45	98.30
371.65	0.00
371.84	84.26
372.04	56.17
372.24	114.69
372.44	49.15
372.63	74.90
372.83	32.77
373.03	110.01
373.22	170.86
373.42	140.43
373.62	95.96
373.81	112.35
374.01	65.54
374.21	119.37
374.40	154.48
374.60	102.98
374.79	42.13
374.99	147.45
375.19	105.32
375.38	51.49
375.58	133.41
375.78	124.05
375.97	60.85
376.17	187.24
376.37	152.13
376.56	142.77
376.76	138.09
376.95	121.71
377.15	145.11
377.35	177.88
377.54	131.07
377.74	142.77
377.93	184.90
378.13	161.50
378.33	131.07
378.52	173.20
378.72	142.77
378.91	142.77
379.11	126.39
379.31	152.13
379.50	95.96
379.70	177.88
379.89	124.05
380.09	163.84
380.28	112.35
380.48	128.73
380.68	161.50
380.87	70.22
381.07	102.98
381.26	159.16
381.46	93.62
381.65	86.60
381.85	191.92
382.04	93.62
382.24	72.56
382.43	117.03
382.63	86.60
382.83	56.17
383.02	44.47
383.22	140.43
383.41	91.28
383.61	100.64
383.80	88.94
384.00	152.13
384.19	152.13
384.39	161.50
384.58	184.90
384.78	77.24
384.97	170.86
385.17	147.45
385.36	145.11
385.56	112.35
385.75	88.94
385.95	145.11
386.14	95.96
386.34	159.16
386.53	212.99
386.72	142.77
386.92	163.84
387.11	124.05
387.31	177.88
387.50	84.26
387.70	173.20
387.89	126.39
388.09	166.18
388.28	161.50
388.48	175.54
388.67	156.82
388.86	266.82
389.06	107.66
389.25	189.58
389.45	166.18
389.64	212.99
389.84	196.60
390.03	133.41
390.22	220.01
390.42	184.90
390.61	117.03
390.81	187.24
391.00	212.99
391.19	224.69
391.39	166.18
391.58	191.92
391.78	215.33
391.97	203.63
392.16	182.56
392.36	154.48
392.55	161.50
392.75	131.07
392.94	156.82
393.13	147.45
393.33	100.64
393.52	91.28
393.71	133.41
393.91	243.42
394.10	210.65
394.29	161.50
394.49	236.39
394.68	201.29
394.88	177.88
395.07	243.42
395.26	245.76
395.46	257.46
395.65	145.11
395.84	168.52
396.04	241.08
396.23	98.30
396.42	203.63
396.62	161.50
396.81	210.65
397.00	196.60
397.19	154.48
397.39	159.16
397.58	252.78
397.77	330.02
397.97	304.27
398.16	227.03
398.35	311.29
398.55	355.76
398.74	290.23
398.93	269.16
399.12	313.63
399.32	290.23
399.51	318.31
399.70	318.31
399.90	297.25
400.09	269.16
400.28	332.36
400.47	259.80
400.67	360.44
400.86	313.63
401.05	257.46
401.24	322.99
401.44	337.04
401.63	351.08
401.82	315.97
402.01	362.78
402.21	271.50
402.40	327.68
402.59	271.50
402.78	273.84
402.97	266.82
403.17	325.33
403.36	290.23
403.55	344.06
403.74	301.93
403.93	379.17
404.13	348.74
404.32	346.40
404.51	341.72
404.70	334.70
404.89	400.23
405.09	306.61
405.28	297.25
405.47	301.93
405.66	280.86
405.85	400.23
406.05	379.17
406.24	325.33
406.43	322.99
406.62	348.74
406.81	325.33
407.00	332.36
407.20	344.06
407.39	351.08
407.58	271.50
407.77	367.46
407.96	304.27
408.15	271.50
408.34	297.25
408.54	433.00
408.73	428.32
408.92	355.76
409.11	465.77
409.30	330.02
409.49	351.08
409.68	278.52
409.87	266.82
410.07	402.57
410.26	374.49
410.45	327.68
410.64	400.23
410.83	344.06
411.02	430.66
411.21	407.25
411.40	409.59
411.59	442.36
411.78	433.00
411.98	395.55
412.17	379.17
412.36	320.65
412.55	416.62
412.74	397.89
412.93	435.34
413.12	411.93
413.31	451.72
413.50	416.62
413.69	379.17
413.88	421.30
414.07	381.51
414.26	449.38
414.45	440.02
414.64	388.53
414.83	435.34
415.02	393.21
415.22	411.93
415.41	449.38
415.60	369.80
415.79	491.51
415.98	465.77
416.17	423.64
416.36	458.74
416.55	428.32
416.74	428.32
416.93	369.80
417.12	421.30
417.31	393.21
417.50	456.40
417.69	479.81
417.88	416.62
418.07	461.09
418.26	376.83
418.45	393.21
418.64	374.49
418.83	519.60
419.02	468.11
419.21	449.38
419.39	454.06
419.58	421.30
419.77	437.68
419.96	437.68
420.15	458.74
420.34	454.06
420.53	498.53
420.72	533.64
420.91	444.70
421.10	456.40
421.29	550.03
421.48	472.79
421.67	538.32
421.86	472.79
422.05	458.74
422.24	468.11
422.43	421.30
422.61	475.13
422.80	454.06
422.99	472.79
423.18	472.79
423.37	451.72
423.56	475.13
423.75	372.15
423.94	482.15
424.13	402.57
424.32	414.27
424.50	444.70
424.69	458.74
424.88	360.44
425.07	402.57
425.26	386.19
425.45	482.15
425.64	454.06
425.83	468.11
426.01	388.53
426.20	423.64
426.39	447.04
426.58	444.70
426.77	402.57
426.96	355.76
427.15	294.91
427.33	381.51
427.52	517.26
427.71	463.43
427.90	397.89
428.09	430.66
428.28	477.47
428.46	430.66
428.65	362.78
428.84	330.02
429.03	397.89
429.22	330.02
429.40	341.72
429.59	407.25
429.78	266.82
429.97	283.20
430.16	367.46
430.34	397.89
430.53	297.25
430.72	283.20
430.91	255.12
431.10	400.23
431.28	386.19
431.47	503.22
431.66	528.96
431.85	423.64
432.03	383.85
432.22	461.09
432.41	493.85
432.60	498.53
432.79	493.85
432.97	493.85
433.16	484.49
433.35	355.76
433.54	407.25
433.72	404.91
433.91	423.64
434.10	472.79
434.28	510.24
434.47	503.22
434.66	472.79
434.85	528.96
435.03	468.11
435.22	440.02
435.41	482.15
435.59	407.25
435.78	479.81
435.97	535.98
436.16	526.62
436.34	458.74
436.53	482.15
436.72	582.79
436.90	507.90
437.09	465.77
437.28	449.38
437.46	447.04
437.65	545.34
437.84	475.13
438.02	477.47
438.21	454.06
438.40	421.30
438.58	524.28
438.77	472.79
438.96	463.43
439.14	447.04
439.33	543.00
439.52	514.92
439.70	557.05
439.89	514.92
440.08	507.90
440.26	524.28
440.45	444.70
440.63	538.32
440.82	552.37
441.01	564.07
441.19	610.88
441.38	524.28
441.57	538.32
441.75	596.84
441.94	550.03
442.12	533.64
442.31	568.75
442.50	667.05
442.68	578.11
442.87	587.47
443.05	547.69
443.24	545.34
443.43	547.69
443.61	519.60
443.80	580.45
443.98	634.29
444.17	575.77
444.35	566.41
444.54	610.88
444.73	538.32
444.91	608.54
445.10	601.52
445.28	554.71
445.47	571.09
445.65	617.90
445.84	538.32
446.02	557.05
446.21	620.24
446.39	519.60
446.58	582.79
446.77	613.22
446.95	547.69
447.14	624.92
447.32	627.26
447.51	610.88
447.69	594.50
447.88	589.82
448.06	606.20
448.25	627.26
448.43	650.67
448.62	627.26
448.80	573.43
448.99	599.18
449.17	531.30
449.36	521.94
449.54	617.90
449.73	571.09
449.91	711.52
450.10	702.16
450.28	617.90
450.46	641.31
450.65	624.92
450.83	723.23
451.02	580.45
451.20	660.03
451.39	596.84
451.57	653.01
451.76	599.18
451.94	622.58
452.13	669.39
452.31	702.16
452.49	582.79
452.68	433.00
452.86	589.82
453.05	561.73
453.23	674.07
453.42	596.84
453.60	634.29
453.78	638.97
453.97	690.46
454.15	674.07
454.34	585.13
454.52	648.33
454.70	634.29
454.89	629.60
455.07	547.69
455.26	671.73
455.44	631.94
455.62	648.33
455.81	557.05
455.99	617.90
456.17	713.86
456.36	669.39
456.54	594.50
456.73	660.03
456.91	699.82
457.09	732.59
457.28	702.16
457.46	617.90
457.64	695.14
457.83	615.56
458.01	648.33
458.19	660.03
458.38	657.69
458.56	622.58
458.74	716.20
458.93	674.07
459.11	664.71
459.29	657.69
459.48	599.18
459.66	645.99
459.84	641.31
460.03	603.86
460.21	678.76
460.39	594.50
460.57	706.84
460.76	744.29
460.94	685.78
461.12	610.88
461.31	617.90
461.49	713.86
461.67	603.86
461.85	681.10
462.04	685.78
462.22	777.06
462.40	657.69
462.59	669.39
462.77	702.16
462.95	669.39
463.13	718.54
463.32	709.18
463.50	582.79
463.68	667.05
463.86	624.92
464.05	657.69
464.23	660.03
464.41	688.12
464.59	552.37
464.78	704.50
464.96	655.35
465.14	608.54
465.32	599.18
465.50	615.56
465.69	589.82
465.87	653.01
466.05	688.12
466.23	662.37
466.41	617.90
466.60	606.20
466.78	716.20
466.96	655.35
467.14	779.40
467.32	660.03
467.51	674.07
467.69	704.50
467.87	643.65
468.05	636.63
468.23	662.37
468.41	650.67
468.60	636.63
468.78	610.88
468.96	753.65
469.14	697.48
469.32	650.67
469.50	575.77
469.69	585.13
469.87	662.37
470.05	622.58
470.23	566.41
470.41	681.10
470.59	669.39
470.77	669.39
470.95	720.88
471.14	643.65
471.32	615.56
471.50	624.92
471.68	709.18
471.86	706.84
472.04	734.93
472.22	692.80
472.40	730.25
472.58	627.26
472.77	643.65
472.95	725.57
473.13	655.35
473.31	669.39
473.49	610.88
473.67	732.59
473.85	653.01
474.03	725.57
474.21	685.78
474.39	645.99
474.57	674.07
474.75	751.31
474.93	685.78
475.12	688.12
475.30	723.23
475.48	709.18
475.66	706.84
475.84	730.25
476.02	706.84
476.20	683.44
476.38	746.63
476.56	662.37
476.74	631.94
476.92	786.42
477.10	835.57
477.28	748.97
477.46	809.83
477.64	763.01
477.82	793.44
478.00	746.63
478.18	786.42
478.36	767.70
478.54	873.02
478.72	786.42
478.90	779.40
479.08	823.87
479.26	866.00
479.44	884.72
479.62	870.68
479.80	807.48
479.98	786.42
480.16	805.14
480.34	805.14
480.52	816.85
480.70	777.06
480.88	847.27
481.06	926.85
481.24	882.38
481.41	931.53
481.59	884.72
481.77	887.06
481.95	812.17
482.13	889.40
482.31	840.25
482.49	880.04
482.67	854.30
482.85	870.68
483.03	847.27
483.21	821.53
483.39	924.51
483.57	816.85
483.74	922.17
483.92	931.53
484.10	952.60
484.28	959.62
484.46	915.15
484.64	943.24
484.82	957.28
485.00	812.17
485.18	908.13
485.35	889.40
485.53	922.17
485.71	812.17
485.89	641.31
486.07	683.44
486.25	821.53
486.43	858.98
486.61	940.90
486.78	823.87
486.96	880.04
487.14	835.57
487.32	973.66
487.50	929.19
487.68	961.96
487.85	877.70
488.03	931.53
488.21	1041.54
488.39	999.41
488.57	912.81
488.75	950.26
488.92	1036.86
489.10	1041.54
489.28	1048.56
489.46	1128.14
489.64	1078.99
489.81	1125.80
489.99	1064.94
490.17	1102.39
490.35	1177.29
490.53	1139.84
490.70	1057.92
490.88	1055.58
491.06	1109.41
491.24	1123.46
491.41	1111.75
491.59	1071.97
491.77	1020.47
491.95	950.26
492.13	992.39
492.30	1043.88
492.48	1102.39
492.66	1172.61
492.84	1207.72
493.01	1100.05
493.19	992.39
493.37	1149.20
493.54	1102.39
493.72	1090.69
493.90	1151.54
494.08	1203.04
494.25	1132.82
494.43	1186.65
494.61	1184.31
494.79	1179.63
494.96	1165.59
495.14	1212.40
495.32	1172.61
495.49	1181.97
495.67	1207.72
495.85	1188.99
496.02	1224.10
496.20	1144.52
496.38	1123.46
496.55	1273.25
496.73	1221.76
496.91	1240.48
497.09	1235.80
497.26	1268.57
497.44	1221.76
497.62	1247.51
497.79	1153.88
497.97	1151.54
498.14	1118.78
498.32	1217.08
498.50	1128.14
498.67	1219.42
498.85	1268.57
499.03	1308.36
499.20	1299.00
499.38	1310.70
499.56	1186.65
499.73	1184.31
499.91	1284.95
500.08	1256.87
500.26	1156.22
500.44	1102.39
500.61	1186.65
500.79	1193.67
500.97	1203.04
501.14	1322.40
501.32	1139.84
501.49	1228.78
501.67	1191.33
501.84	1163.25
502.02	1224.10
502.20	1287.29
502.37	1284.95
502.55	1275.59
502.72	1277.93
502.90	1261.55
503.07	1240.48
503.25	1214.74
503.43	1240.48
503.60	1203.04
503.78	1109.41
503.95	1188.99
504.13	1165.59
504.30	1256.87
504.48	1303.68
504.65	1224.10
504.83	1249.85
505.01	1277.93
505.18	1284.95
505.36	1317.72
505.53	1348.15
505.71	1401.98
505.88	1366.87
506.06	1406.66
506.23	1416.02
506.41	1224.10
506.58	1275.59
506.76	1245.16
506.93	1153.88
507.11	1228.78
507.28	1224.10
507.46	1322.40
507.63	1221.76
507.81	1191.33
507.98	1341.13
508.16	1249.85
508.33	1334.11
508.50	1299.00
508.68	1259.21
508.85	1376.24
509.03	1203.04
509.20	1315.38
509.38	1303.68
509.55	1186.65
509.73	1329.42
509.90	1268.57
510.08	1217.08
510.25	1336.45
510.42	1289.64
510.60	1362.19
510.77	1320.06
510.95	1399.64
511.12	1371.55
511.30	1331.76
511.47	1357.51
511.64	1458.15
511.82	1423.05
511.99	1416.02
512.17	1317.72
512.34	1233.46
512.51	1254.53
512.69	1254.53
512.86	1404.32
513.04	1336.45
513.21	1259.21
513.38	1282.61
513.56	1273.25
513.73	1350.49
513.90	1301.34
514.08	1254.53
514.25	1179.63
514.43	1345.81
514.60	1329.42
514.77	1299.00
514.95	1341.13
515.12	1313.04
515.29	1310.70
515.47	1322.40
515.64	1301.34
515.81	1425.39
515.99	1301.34
516.16	1203.04
516.33	1177.29
516.51	1121.12
516.68	1102.39
516.85	1004.09
517.03	1046.22
517.20	1137.50
517.37	1254.53
517.54	1317.72
517.72	1364.53
517.89	1219.42
518.06	1097.71
518.24	1128.14
518.41	1179.63
518.58	1177.29
518.75	1261.55
518.93	1301.34
519.10	1249.85
519.27	1341.13
519.45	1369.21
519.62	1355.17
519.79	1341.13
519.96	1425.39
520.14	1275.59
520.31	1203.04
520.48	1256.87
520.65	1315.38
520.83	1397.30
521.00	1249.85
521.17	1385.60
521.34	1350.49
521.52	1317.72
521.69	1378.58
521.86	1357.51
522.03	1420.71
522.20	1313.04
522.38	1212.40
522.55	1179.63
522.72	1310.70
522.89	1291.98
523.07	1362.19
523.24	1336.45
523.41	1392.62
523.58	1366.87
523.75	1336.45
523.92	1430.07
524.10	1387.94
524.27	1324.74
524.44	1458.15
524.61	1476.88
524.78	1369.21
524.96	1380.92
525.13	1296.66
525.30	1268.57
525.47	1336.45
525.64	1430.07
525.81	1366.87
525.98	1378.58
526.16	1275.59
526.33	1280.27
526.50	1191.33
526.67	1123.46
526.84	1118.78
527.01	1210.06
527.18	1296.66
527.36	1291.98
527.53	1366.87
527.70	1394.96
527.87	1317.72
528.04	1313.04
528.21	1404.32
528.38	1366.87
528.55	1350.49
528.72	1451.13
528.89	1401.98
529.07	1359.85
529.24	1350.49
529.41	1399.64
529.58	1387.94
529.75	1327.08
529.92	1315.38
530.09	1352.83
530.26	1308.36
530.43	1329.42
530.60	1373.89
530.77	1565.82
530.94	1409.00
531.11	1331.76
531.28	1329.42
531.46	1334.11
531.63	1355.17
531.80	1306.02
531.97	1334.11
532.14	1270.91
532.31	1324.74
532.48	1205.38
532.65	1235.80
532.82	1277.93
532.99	1205.38
533.16	1336.45
533.33	1458.15
533.50	1261.55
533.67	1249.85
533.84	1284.95
534.01	1289.64
534.18	1341.13
534.35	1371.55
534.52	1336.45
534.69	1401.98
534.86	1329.42
535.03	1385.60
535.20	1364.53
535.37	1303.68
535.54	1439.43
535.71	1366.87
535.88	1334.11
536.05	1355.17
536.22	1390.28
536.38	1320.06
536.55	1284.95
536.72	1217.08
536.89	1308.36
537.06	1233.46
537.23	1350.49
537.40	1343.47
537.57	1387.94
537.74	1366.87
537.91	1425.39
538.08	1329.42
538.25	1341.13
538.42	1341.13
538.59	1284.95
538.75	1268.57
538.92	1310.70
539.09	1336.45
539.26	1266.23
539.43	1200.69
539.60	1193.67
539.77	1310.70
539.94	1303.68
540.11	1210.06
540.28	1261.55
540.44	1291.98
540.61	1263.89
540.78	1284.95
540.95	1362.19
541.12	1270.91
541.29	1270.91
541.46	1167.93
541.62	1338.79
541.79	1238.14
541.96	1177.29
542.13	1242.82
542.30	1385.60
542.47	1331.76
542.63	1331.76
542.80	1233.46
542.97	1245.16
543.14	1249.85
543.31	1233.46
543.48	1301.34
543.64	1345.81
543.81	1252.19
543.98	1406.66
544.15	1310.70
544.32	1350.49
544.48	1306.02
544.65	1289.64
544.82	1273.25
544.99	1205.38
545.16	1249.85
545.32	1233.46
545.49	1329.42
545.66	1291.98
545.83	1226.44
546.00	1284.95
546.16	1306.02
546.33	1198.35
546.50	1313.04
546.67	1315.38
546.83	1289.64
547.00	1371.55
547.17	1308.36
547.34	1228.78
547.50	1153.88
547.67	1261.55
547.84	1188.99
548.00	1263.89
548.17	1256.87
548.34	1315.38
548.51	1299.00
548.67	1320.06
548.84	1291.98
549.01	1371.55
549.18	1233.46
549.34	1287.29
549.51	1188.99
549.68	1203.04
549.84	1289.64
550.01	1263.89
550.18	1252.19
550.34	1217.08
550.51	1299.00
550.68	1373.89
550.84	1287.29
551.01	1219.42
551.18	1352.83
551.34	1364.53
551.51	1203.04
551.68	1270.91
551.84	1313.04
552.01	1294.32
552.18	1240.48
552.34	1238.14
552.51	1275.59
552.68	1245.16
552.84	1299.00
553.01	1196.01
553.18	1226.44
553.34	1277.93
553.51	1291.98
553.67	1327.08
553.84	1294.32
554.01	1247.51
554.17	1207.72
554.34	1203.04
554.51	1364.53
554.67	1320.06
554.84	1306.02
555.00	1256.87
555.17	1294.32
555.33	1214.74
555.50	1308.36
555.67	1280.27
555.83	1226.44
556.00	1277.93
556.16	1287.29
556.33	1214.74
556.50	1273.25
556.66	1224.10
556.83	1153.88
556.99	1235.80
557.16	1242.82
557.32	1205.38
557.49	1270.91
557.65	1203.04
557.82	1219.42
557.98	1212.40
558.15	1212.40
558.32	1191.33
558.48	1095.37
558.65	1167.93
558.81	1121.12
558.98	1153.88
559.14	1174.95
559.31	1238.14
559.47	1289.64
559.64	1142.18
559.80	1205.38
559.97	1050.90
560.13	1261.55
560.30	1247.51
560.46	1221.76
560.63	1186.65
560.79	1261.55
560.96	1233.46
561.12	1135.16
561.29	1151.54
561.45	1132.82
561.61	1186.65
561.78	1165.59
561.94	1153.88
562.11	1203.04
562.27	1111.75
562.44	1191.33
562.60	1069.62
562.77	1242.82
562.93	1142.18
563.10	1107.07
563.26	1214.74
563.42	1277.93
563.59	1135.16
563.75	1071.97
563.92	1123.46
564.08	1228.78
564.24	1238.14
564.41	1128.14
564.57	1102.39
564.74	1135.16
564.90	1132.82
565.07	1238.14
565.23	1167.93
565.39	1198.35
565.56	1200.69
565.72	1043.88
565.88	1090.69
566.05	1142.18
566.21	1193.67
566.38	1118.78
566.54	1193.67
566.70	1242.82
566.87	1191.33
567.03	1184.31
567.19	1205.38
567.36	1303.68
567.52	1153.88
567.68	1132.82
567.85	1158.57
568.01	1022.81
568.17	1083.67
568.34	1032.18
568.50	1146.86
568.66	1048.56
568.83	1039.20
568.99	1170.27
569.15	1074.31
569.32	1081.33
569.48	1071.97
569.64	1114.10
569.81	1128.14
569.97	1046.22
570.13	1217.08
570.30	1057.92
570.46	1149.20
570.62	1020.47
570.78	985.37
570.95	1064.94
571.11	1090.69
571.27	1088.35
571.43	1100.05
571.60	1095.37
571.76	1004.09
571.92	1121.12
572.09	1125.80
572.25	1165.59
572.41	1128.14
572.57	1118.78
572.74	1046.22
572.90	1069.62
573.06	1186.65
573.22	1088.35
573.38	1057.92
573.55	1078.99
573.71	1001.75
573.87	1170.27
574.03	1095.37
574.20	1144.52
574.36	1015.79
574.52	1076.65
574.68	1039.20
574.84	1081.33
575.01	1020.47
575.17	1090.69
575.33	964.30
575.49	1048.56
575.65	1076.65
575.82	1048.56
575.98	1088.35
576.14	1025.15
576.30	1071.97
576.46	1116.44
576.62	1050.90
576.79	936.21
576.95	1074.31
577.11	1015.79
577.27	1083.67
577.43	1046.22
577.59	1055.58
577.75	1006.43
577.92	1013.45
578.08	973.66
578.24	1034.52
578.40	1048.56
578.56	1041.54
578.72	1034.52
578.88	1083.67
579.04	1039.20
579.21	1074.31
579.37	1027.50
579.53	1029.84
579.69	1135.16
579.85	1097.71
580.01	1078.99
580.17	1006.43
580.33	1064.94
580.49	1043.88
580.65	1071.97
580.82	1135.16
580.98	990.05
581.14	992.39
581.30	1043.88
581.46	1011.11
581.62	1095.37
581.78	1041.54
581.94	1034.52
582.10	1006.43
582.26	1114.10
582.42	1114.10
582.58	990.05
582.74	1121.12
582.90	1071.97
583.06	1107.07
583.22	1055.58
583.38	1142.18
583.54	1036.86
583.70	1088.35
583.86	1135.16
584.02	1100.05
584.18	1069.62
584.34	943.24
584.50	1081.33
584.66	1022.81
584.82	1013.45
584.98	947.92
585.14	978.34
585.30	952.60
585.46	924.51
585.62	1029.84
585.78	938.55
585.94	1027.50
586.10	1078.99
586.26	1025.15
586.42	978.34
586.58	1027.50
586.74	940.90
586.90	1057.92
587.06	882.38
587.22	1041.54
587.38	947.92
587.54	905.79
587.70	887.06
587.86	894.08
588.02	940.90
588.18	884.72
588.34	793.44
588.49	814.51
588.65	835.57
588.81	706.84
588.97	767.70
589.13	751.31
589.29	645.99
589.45	732.59
589.61	807.48
589.77	837.91
589.93	779.40
590.08	774.72
590.24	873.02
590.40	856.64
590.56	924.51
590.72	957.28
590.88	910.47
591.04	866.00
591.20	924.51
591.35	800.46
591.51	828.55
591.67	851.96
591.83	835.57
591.99	753.65
592.15	819.19
592.31	793.44
592.46	875.36
592.62	912.81
592.78	950.26
592.94	915.15
593.10	866.00
593.26	903.45
593.41	922.17
593.57	940.90
593.73	954.94
593.89	833.23
594.05	823.87
594.20	795.78
594.36	812.17
594.52	809.83
594.68	788.76
594.84	912.81
594.99	777.06
595.15	945.58
595.31	849.61
595.47	903.45
595.62	880.04
595.78	835.57
595.94	905.79
596.10	980.68
596.25	933.87
596.41	814.51
596.57	875.36
596.73	809.83
596.88	854.30
597.04	894.08
597.20	849.61
597.36	870.68
597.51	882.38
597.67	816.85
597.83	854.30
597.99	903.45
598.14	940.90
598.30	802.80
598.46	866.00
598.61	912.81
598.77	945.58
598.93	884.72
599.09	887.06
599.24	957.28
599.40	971.32
599.56	959.62
599.71	882.38
599.87	959.62
600.03	884.72
600.18	952.60
600.34	926.85
600.50	842.59
600.65	858.98
600.81	917.49
600.97	898.77
601.12	795.78
601.28	929.19
601.44	891.74
601.59	889.40
601.75	896.43
601.91	880.04
602.06	891.74
602.22	866.00
602.37	870.68
602.53	917.49
602.69	929.19
602.84	999.41
603.00	917.49
603.16	1025.15
603.31	968.98
603.47	950.26
603.62	964.30
603.78	919.83
603.94	971.32
604.09	875.36
604.25	896.43
604.40	985.37
604.56	936.21
604.71	863.66
