SpectraSuite Data File
++++++++++++++++++++++++++++++++++++
Date: Fri Oct 04 12:14:11 GMT-05:00 2013
User: price-jones
Dark Spectrum Present: No
Reference Spectrum Present: No
Number of Sampled Component Spectra: 1
Spectrometers: USB2+H05261
Integration Time (usec): 1000000 (USB2+H05261)
Spectra Averaged: 1 (USB2+H05261)
Boxcar Smoothing: 0 (USB2+H05261)
Correct for Electrical Dark: No (USB2+H05261)
Strobe/Lamp Enabled: No (USB2+H05261)
Correct for Detector Non-linearity: No (USB2+H05261)
Correct for Stray Light: No (USB2+H05261)
Number of Pixels in Processed Spectrum: 2048
>>>>>Begin Processed Spectral Data<<<<<
365.73	32.77
365.92	32.77
366.12	32.77
366.32	0.00
366.52	0.00
366.72	365.12
366.91	147.45
367.11	315.97
367.31	184.90
367.51	308.95
367.70	393.21
367.90	514.92
368.10	362.78
368.30	362.78
368.49	161.50
368.69	477.47
368.89	276.18
369.09	131.07
369.28	294.91
369.48	168.52
369.68	273.84
369.87	346.40
370.07	220.01
370.27	540.66
370.47	409.59
370.66	266.82
370.86	484.49
371.06	741.95
371.25	929.19
371.45	400.23
371.65	660.03
371.84	327.68
372.04	301.93
372.24	425.98
372.44	381.51
372.63	521.94
372.83	901.11
373.03	580.45
373.22	397.89
373.42	397.89
373.62	475.13
373.81	528.96
374.01	770.04
374.21	695.14
374.40	458.74
374.60	716.20
374.79	414.27
374.99	484.49
375.19	561.73
375.38	657.69
375.58	475.13
375.78	784.08
375.97	641.31
376.17	959.62
376.37	526.62
376.56	557.05
376.76	437.68
376.95	400.23
377.15	702.16
377.35	451.72
377.54	535.98
377.74	437.68
377.93	367.46
378.13	538.32
378.33	671.73
378.52	524.28
378.72	791.10
378.91	638.97
379.11	395.55
379.31	383.85
379.50	346.40
379.70	709.18
379.89	685.78
380.09	437.68
380.28	308.95
380.48	550.03
380.68	367.46
380.87	266.82
381.07	566.41
381.26	763.01
381.46	645.99
381.65	613.22
381.85	418.96
382.04	372.15
382.24	603.86
382.43	482.15
382.63	341.72
382.83	444.70
383.02	664.71
383.22	753.65
383.41	407.25
383.61	543.00
383.80	416.62
384.00	543.00
384.19	374.49
384.39	411.93
384.58	440.02
384.78	594.50
384.97	578.11
385.17	507.90
385.36	414.27
385.56	716.20
385.75	337.04
385.95	547.69
386.14	744.29
386.34	461.09
386.53	566.41
386.72	383.85
386.92	767.70
387.11	629.60
387.31	559.39
387.50	418.96
387.70	411.93
387.89	521.94
388.09	379.17
388.28	437.68
388.48	381.51
388.67	697.48
388.86	437.68
389.06	491.51
389.25	564.07
389.45	573.43
389.64	430.66
389.84	781.74
390.03	528.96
390.22	582.79
390.42	519.60
390.61	390.87
390.81	290.23
391.00	470.45
391.19	713.86
391.39	456.40
391.58	653.01
391.78	547.69
391.97	641.31
392.16	351.08
392.36	741.95
392.55	734.93
392.75	435.34
392.94	414.27
393.13	627.26
393.33	318.31
393.52	461.09
393.71	842.59
393.91	533.64
394.10	358.10
394.29	421.30
394.49	414.27
394.68	692.80
394.88	793.44
395.07	723.23
395.26	554.71
395.46	561.73
395.65	699.82
395.84	517.26
396.04	1139.84
396.23	557.05
396.42	463.43
396.62	552.37
396.81	608.54
397.00	533.64
397.19	547.69
397.39	475.13
397.58	767.70
397.77	524.28
397.97	465.77
398.16	568.75
398.35	657.69
398.55	433.00
398.74	491.51
398.93	805.14
399.12	507.90
399.32	674.07
399.51	566.41
399.70	648.33
399.90	676.41
400.09	692.80
400.28	702.16
400.47	519.60
400.67	770.04
400.86	552.37
401.05	737.27
401.24	718.54
401.44	622.58
401.63	826.21
401.82	734.93
402.01	479.81
402.21	592.16
402.40	608.54
402.59	449.38
402.78	498.53
402.97	540.66
403.17	601.52
403.36	674.07
403.55	486.83
403.74	440.02
403.93	531.30
404.13	870.68
404.32	566.41
404.51	421.30
404.70	763.01
404.89	533.64
405.09	1027.50
405.28	582.79
405.47	512.58
405.66	688.12
405.85	788.76
406.05	587.47
406.24	636.63
406.43	624.92
406.62	671.73
406.81	929.19
407.00	842.59
407.20	648.33
407.39	566.41
407.58	540.66
407.77	741.95
407.96	917.49
408.15	807.48
408.34	758.33
408.54	650.67
408.73	627.26
408.92	648.33
409.11	732.59
409.30	758.33
409.49	510.24
409.68	538.32
409.87	592.16
410.07	571.09
410.26	706.84
410.45	592.16
410.64	514.92
410.83	667.05
411.02	547.69
411.21	777.06
411.40	767.70
411.59	589.82
411.78	512.58
411.98	617.90
412.17	545.34
412.36	606.20
412.55	491.51
412.74	807.48
412.93	1034.52
413.12	585.13
413.31	791.10
413.50	716.20
413.69	592.16
413.88	997.07
414.07	713.86
414.26	676.41
414.45	545.34
414.64	697.48
414.83	695.14
415.02	723.23
415.22	823.87
415.41	959.62
415.60	538.32
415.79	636.63
415.98	929.19
416.17	753.65
416.36	692.80
416.55	660.03
416.74	802.80
416.93	830.89
417.12	596.84
417.31	674.07
417.50	688.12
417.69	1071.97
417.88	725.57
418.07	540.66
418.26	671.73
418.45	683.44
418.64	1022.81
418.83	758.33
419.02	760.67
419.21	711.52
419.39	760.67
419.58	573.43
419.77	655.35
419.96	896.43
420.15	1067.28
420.34	690.46
420.53	709.18
420.72	891.74
420.91	753.65
421.10	685.78
421.29	711.52
421.48	828.55
421.67	952.60
421.86	643.65
422.05	617.90
422.24	622.58
422.43	748.97
422.61	566.41
422.80	662.37
422.99	770.04
423.18	674.07
423.37	915.15
423.56	802.80
423.75	842.59
423.94	617.90
424.13	732.59
424.32	599.18
424.50	765.36
424.69	662.37
424.88	961.96
425.07	660.03
425.26	781.74
425.45	926.85
425.64	697.48
425.83	655.35
426.01	1036.86
426.20	741.95
426.39	641.31
426.58	676.41
426.77	732.59
426.96	924.51
427.15	814.51
427.33	573.43
427.52	753.65
427.71	662.37
427.90	788.76
428.09	587.47
428.28	538.32
428.46	594.50
428.65	812.17
428.84	873.02
429.03	994.73
429.22	706.84
429.40	575.77
429.59	538.32
429.78	1151.54
429.97	655.35
430.16	521.94
430.34	702.16
430.53	557.05
430.72	676.41
430.91	882.38
431.10	575.77
431.28	667.05
431.47	861.32
431.66	877.70
431.85	655.35
432.03	648.33
432.22	1203.04
432.41	730.25
432.60	1034.52
432.79	676.41
432.97	863.66
433.16	814.51
433.35	671.73
433.54	734.93
433.72	849.61
433.91	870.68
434.10	674.07
434.28	819.19
434.47	760.67
434.66	889.40
434.85	655.35
435.03	809.83
435.22	1020.47
435.41	1188.99
435.59	854.30
435.78	826.21
435.97	748.97
436.16	968.98
436.34	755.99
436.53	856.64
436.72	985.37
436.90	894.08
437.09	858.98
437.28	704.50
437.46	758.33
437.65	915.15
437.84	889.40
438.02	819.19
438.21	945.58
438.40	617.90
438.58	575.77
438.77	798.12
438.96	854.30
439.14	617.90
439.33	945.58
439.52	777.06
439.70	833.23
439.89	1006.43
440.08	812.17
440.26	823.87
440.45	1097.71
440.63	936.21
440.82	819.19
441.01	861.32
441.19	755.99
441.38	753.65
441.57	851.96
441.75	1064.94
441.94	1128.14
442.12	875.36
442.31	779.40
442.50	779.40
442.68	835.57
442.87	807.48
443.05	791.10
443.24	875.36
443.43	1132.82
443.61	1128.14
443.80	802.80
443.98	767.70
444.17	800.46
444.35	1083.67
444.54	823.87
444.73	760.67
444.91	1090.69
445.10	697.48
445.28	695.14
445.47	870.68
445.65	809.83
445.84	800.46
446.02	844.93
446.21	793.44
446.39	758.33
446.58	1001.75
446.77	716.20
446.95	875.36
447.14	915.15
447.32	1203.04
447.51	866.00
447.69	924.51
447.88	887.06
448.06	1200.69
448.25	968.98
448.43	751.31
448.62	683.44
448.80	978.34
448.99	1093.03
449.17	760.67
449.36	807.48
449.54	950.26
449.73	737.27
449.91	1046.22
450.10	781.74
450.28	1390.28
450.46	1362.19
450.65	1116.44
450.83	976.00
451.02	889.40
451.20	973.66
451.39	889.40
451.57	763.01
451.76	889.40
451.94	891.74
452.13	1041.54
452.31	1100.05
452.49	959.62
452.68	763.01
452.86	940.90
453.05	1373.89
453.23	795.78
453.42	760.67
453.60	877.70
453.78	1027.50
453.97	732.59
454.15	763.01
454.34	739.61
454.52	772.38
454.70	1153.88
454.89	1048.56
455.07	746.63
455.26	1032.18
455.44	1011.11
455.62	791.10
455.81	901.11
455.99	952.60
456.17	1081.33
456.36	896.43
456.54	830.89
456.73	922.17
456.91	851.96
457.09	950.26
457.28	1116.44
457.46	866.00
457.64	1123.46
457.83	854.30
458.01	842.59
458.19	884.72
458.38	849.61
458.56	994.73
458.74	755.99
458.93	901.11
459.11	933.87
459.29	819.19
459.48	992.39
459.66	1228.78
459.84	1179.63
460.03	1673.48
460.21	1170.27
460.39	842.59
460.57	1188.99
460.76	1018.13
460.94	990.05
461.12	1310.70
461.31	1336.45
461.49	976.00
461.67	903.45
461.85	999.41
462.04	873.02
462.22	5914.53
462.40	1266.23
462.59	1245.16
462.77	896.43
462.95	994.73
463.13	821.53
463.32	1130.48
463.50	1011.11
463.68	1029.84
463.86	858.98
464.05	837.91
464.23	1240.48
464.41	1048.56
464.59	793.44
464.78	826.21
464.96	772.38
465.14	933.87
465.32	816.85
465.50	1053.24
465.69	1100.05
465.87	713.86
466.05	992.39
466.23	758.33
466.41	976.00
466.60	973.66
466.78	924.51
466.96	1207.72
467.14	999.41
467.32	1172.61
467.51	1048.56
467.69	1121.12
467.87	1282.61
468.05	964.30
468.23	1336.45
468.41	1160.91
468.60	903.45
468.78	1048.56
468.96	1188.99
469.14	1067.28
469.32	781.74
469.50	821.53
469.69	1022.81
469.87	987.71
470.05	994.73
470.23	976.00
470.41	791.10
470.59	891.74
470.77	1036.86
470.95	1001.75
471.14	1217.08
471.32	968.98
471.50	1254.53
471.68	910.47
471.86	1057.92
472.04	870.68
472.22	954.94
472.40	828.55
472.58	966.64
472.77	774.72
472.95	851.96
473.13	1483.90
473.31	1142.18
473.49	765.36
473.67	863.66
473.85	1060.26
474.03	1207.72
474.21	1050.90
474.39	1219.42
474.57	1390.28
474.75	1107.07
474.93	866.00
475.12	770.04
475.30	943.24
475.48	992.39
475.66	1013.45
475.84	1008.77
476.02	945.58
476.20	1196.01
476.38	999.41
476.56	1589.22
476.74	1097.71
476.92	1011.11
477.10	1008.77
477.28	1135.16
477.46	959.62
477.64	1156.22
477.82	1027.50
478.00	978.34
478.18	1069.62
478.36	1013.45
478.54	896.43
478.72	922.17
478.90	997.07
479.08	1151.54
479.26	1078.99
479.44	1081.33
479.62	954.94
479.80	961.96
479.98	973.66
480.16	1090.69
480.34	1224.10
480.52	1041.54
480.70	1114.10
480.88	961.96
481.06	1048.56
481.24	947.92
481.41	1001.75
481.59	1273.25
481.77	1090.69
481.95	1076.65
482.13	1331.76
482.31	1130.48
482.49	978.34
482.67	1273.25
482.85	1263.89
483.03	1186.65
483.21	1128.14
483.39	1022.81
483.57	1128.14
483.74	1497.94
483.92	1139.84
484.10	1015.79
484.28	1336.45
484.46	1710.93
484.64	1128.14
484.82	1153.88
485.00	1121.12
485.18	1149.20
485.35	1214.74
485.53	912.81
485.71	1233.46
485.89	884.72
486.07	976.00
486.25	1631.35
486.43	1313.04
486.61	1273.25
486.78	1181.97
486.96	875.36
487.14	1196.01
487.32	1109.41
487.50	1083.67
487.68	1336.45
487.85	1123.46
488.03	1315.38
488.21	1542.41
488.39	1212.40
488.57	1348.15
488.75	1177.29
488.92	3861.88
489.10	1437.09
489.28	1706.25
489.46	1200.69
489.64	1240.48
489.81	1385.60
489.99	1425.39
490.17	1174.95
490.35	1832.64
490.53	1280.27
490.70	1160.91
490.88	1399.64
491.06	1095.37
491.24	1345.81
491.41	1570.50
491.59	1380.92
491.77	1081.33
491.95	1118.78
492.13	1167.93
492.30	1352.83
492.48	1249.85
492.66	1352.83
492.84	1217.08
493.01	1434.75
493.19	1205.38
493.37	1769.44
493.54	1458.15
493.72	1514.33
493.90	1266.23
494.08	1219.42
494.25	1556.46
494.43	1416.02
494.61	1313.04
494.79	1224.10
494.96	1270.91
495.14	1507.30
495.32	1418.36
495.49	1502.62
495.67	1420.71
495.85	1259.21
496.02	1336.45
496.20	1565.82
496.38	1633.69
496.55	1486.24
496.73	1556.46
496.91	1341.13
497.09	1619.65
497.26	1455.81
497.44	1322.40
497.62	1432.41
497.79	1465.18
497.97	1500.28
498.14	1519.01
498.32	1495.60
498.50	1577.52
498.67	1434.75
498.85	1453.47
499.03	1500.28
499.20	1481.56
499.38	1495.60
499.56	1472.20
499.73	1809.23
499.91	1668.80
500.08	1537.73
500.26	1423.05
500.44	1369.21
500.61	1495.60
500.79	1345.81
500.97	1638.38
501.14	1713.27
501.32	1444.11
501.49	1643.06
501.67	1380.92
501.84	1469.86
502.02	1315.38
502.20	1907.54
502.37	1547.09
502.55	1404.32
502.72	1504.96
502.90	1614.97
503.07	1570.50
503.25	1516.67
503.43	1233.46
503.60	1329.42
503.78	1446.45
503.95	1343.47
504.13	1425.39
504.30	1610.29
504.48	1734.34
504.65	1774.13
504.83	1668.80
505.01	1378.58
505.18	1586.88
505.36	1493.26
505.53	1479.22
505.71	1495.60
505.88	1729.66
506.06	1481.56
506.23	1504.96
506.41	1409.00
506.58	1563.48
506.76	1479.22
506.93	1310.70
507.11	1586.88
507.28	1380.92
507.46	1455.81
507.63	1603.27
507.81	1284.95
507.98	1409.00
508.16	1530.71
508.33	1526.03
508.50	1582.20
508.68	1572.84
508.85	1612.63
509.03	1446.45
509.20	1418.36
509.38	1593.90
509.55	1734.34
509.73	1748.38
509.90	1762.42
510.08	1469.86
510.25	1612.63
510.42	1481.56
510.60	1631.35
510.77	1692.21
510.95	1746.04
511.12	1472.20
511.30	1771.79
511.47	1757.74
511.64	1912.22
511.82	1570.50
511.99	1629.01
512.17	1507.30
512.34	1401.98
512.51	1479.22
512.69	1460.49
512.86	1809.23
513.04	1418.36
513.21	1519.01
513.38	1511.99
513.56	1490.92
513.73	1521.35
513.90	1488.58
514.08	1369.21
514.25	1591.56
514.43	1631.35
514.60	1441.77
514.77	1488.58
514.95	1636.03
515.12	1366.87
515.29	1600.93
515.47	1631.35
515.64	1640.72
515.81	1577.52
515.99	1827.96
516.16	1600.93
516.33	1743.70
516.51	1287.29
516.68	1191.33
516.85	1383.26
517.03	1481.56
517.20	1565.82
517.37	1736.68
517.54	1661.78
517.72	1383.26
517.89	1245.16
518.06	1303.68
518.24	1846.68
518.41	1872.43
518.58	1682.85
518.75	1399.64
518.93	1551.78
519.10	1565.82
519.27	1533.05
519.45	1617.31
519.62	1701.57
519.79	1638.38
519.96	1432.41
520.14	1544.75
520.31	1792.85
520.48	1544.75
520.65	1638.38
520.83	1715.61
521.00	1680.50
521.17	1643.06
521.34	1687.53
521.52	1647.74
521.69	1572.84
521.86	1430.07
522.03	1750.72
522.20	1912.22
522.38	1579.86
522.55	1607.95
522.72	1509.65
522.89	1739.02
523.07	2003.50
523.24	1598.59
523.41	1495.60
523.58	1549.43
523.75	1619.65
523.92	1591.56
524.10	1647.74
524.27	1673.48
524.44	1554.12
524.61	1846.68
524.78	1479.22
524.96	1741.36
525.13	1699.23
525.30	1856.04
525.47	1827.96
525.64	1668.80
525.81	1694.55
525.98	1647.74
526.16	1483.90
526.33	1427.73
526.50	1474.54
526.67	1352.83
526.84	1320.06
527.01	1526.03
527.18	1600.93
527.36	1650.08
527.53	1572.84
527.70	1839.66
527.87	1591.56
528.04	2005.84
528.21	1523.69
528.38	1923.92
528.55	1816.26
528.72	1888.81
528.89	2143.93
529.07	1636.03
529.24	1631.35
529.41	2031.58
529.58	1713.27
529.75	1563.48
529.92	1647.74
530.09	1675.82
530.26	1839.66
530.43	1846.68
530.60	1579.86
530.77	1666.46
530.94	1769.44
531.11	1724.97
531.28	1593.90
531.46	1516.67
531.63	1720.29
531.80	1629.01
531.97	1724.97
532.14	1579.86
532.31	1703.91
532.48	1783.49
532.65	1685.19
532.82	1526.03
532.99	1720.29
533.16	1654.76
533.33	1689.87
533.50	1624.33
533.67	1554.12
533.84	2036.27
534.01	1872.43
534.18	1710.93
534.35	1739.02
534.52	1743.70
534.69	2132.23
534.86	1621.99
535.03	1507.30
535.20	1643.06
535.37	1982.43
535.54	1753.06
535.71	1631.35
535.88	1982.43
536.05	1671.14
536.22	1764.76
536.38	1514.33
536.55	1687.53
536.72	1811.57
536.89	1462.83
537.06	1507.30
537.23	1556.46
537.40	1607.95
537.57	1643.06
537.74	1813.92
537.91	1818.60
538.08	1624.33
538.25	1706.25
538.42	1678.16
538.59	1729.66
538.75	1511.99
538.92	1612.63
539.09	1790.51
539.26	1542.41
539.43	2200.10
539.60	2576.93
539.77	3178.45
539.94	2892.90
540.11	2450.54
540.28	2272.66
540.44	2104.14
540.61	1629.01
540.78	1526.03
540.95	1476.88
541.12	1961.37
541.29	1453.47
541.46	1977.75
541.62	1760.08
541.79	1366.87
541.96	1439.43
542.13	1563.48
542.30	1476.88
542.47	1891.15
542.63	1577.52
542.80	1647.74
542.97	1783.49
543.14	1568.16
543.31	1598.59
543.48	1657.10
543.64	1734.34
543.81	1614.97
543.98	1483.90
544.15	1380.92
544.32	1544.75
544.48	1724.97
544.65	1561.14
544.82	1521.35
544.99	1640.72
545.16	1921.58
545.32	1579.86
545.49	1652.42
545.66	1589.22
545.83	1544.75
546.00	1458.15
546.16	1479.22
546.33	1612.63
546.50	1509.65
546.67	1884.13
546.83	1746.04
547.00	1629.01
547.17	1523.69
547.34	1432.41
547.50	1596.25
547.67	1624.33
547.84	1514.33
548.00	1849.02
548.17	1469.86
548.34	1523.69
548.51	1895.83
548.67	1916.90
548.84	1589.22
549.01	1565.82
549.18	1621.99
549.34	1680.50
549.51	1652.42
549.68	1610.29
549.84	1629.01
550.01	1472.20
550.18	2579.27
550.34	2345.22
550.51	1727.32
550.68	2235.21
550.84	1582.20
551.01	1701.57
551.18	1706.25
551.34	1671.14
551.51	1582.20
551.68	1542.41
551.84	1748.38
552.01	1511.99
552.18	1523.69
552.34	1570.50
552.51	1577.52
552.68	1708.59
552.84	1521.35
553.01	1614.97
553.18	1788.17
553.34	1455.81
553.51	1432.41
553.67	1586.88
553.84	2047.97
554.01	1701.57
554.17	1769.44
554.34	1446.45
554.51	1696.89
554.67	1867.75
554.84	1764.76
555.00	1629.01
555.17	1675.82
555.33	1865.41
555.50	1654.76
555.67	1647.74
555.83	1404.32
556.00	1612.63
556.16	3236.96
556.33	1769.44
556.50	1554.12
556.66	1593.90
556.83	1418.36
556.99	1483.90
557.16	1591.56
557.32	1427.73
557.49	1568.16
557.65	1511.99
557.82	1348.15
557.98	1535.39
558.15	1420.71
558.32	1469.86
558.48	1373.89
558.65	1521.35
558.81	1631.35
558.98	1425.39
559.14	1633.69
559.31	1586.88
559.47	1703.91
559.64	1486.24
559.80	1701.57
559.97	1383.26
560.13	1472.20
560.30	1444.11
560.46	1469.86
560.63	1526.03
560.79	1650.08
560.96	1657.10
561.12	1383.26
561.29	1579.86
561.45	1568.16
561.61	1540.07
561.78	2326.49
561.94	1497.94
562.11	1425.39
562.27	1645.40
562.44	1416.02
562.60	1521.35
562.77	1495.60
562.93	2190.74
563.10	1633.69
563.26	1500.28
563.42	1837.32
563.59	1582.20
563.75	1467.52
563.92	1699.23
564.08	1582.20
564.24	1685.19
564.41	1930.94
564.57	1334.11
564.74	1495.60
564.90	1708.59
565.07	1633.69
565.23	1664.12
565.39	1423.05
565.56	1600.93
565.72	1348.15
565.88	1366.87
566.05	1434.75
566.21	1401.98
566.38	1565.82
566.54	1537.73
566.70	1406.66
566.87	1474.54
567.03	1399.64
567.19	1427.73
567.36	1584.54
567.52	1497.94
567.68	1579.86
567.85	1572.84
568.01	1526.03
568.17	1329.42
568.34	1404.32
568.50	1724.97
568.66	1336.45
568.83	2172.02
568.99	1385.60
569.15	1746.04
569.32	1476.88
569.48	1416.02
569.64	1306.02
569.81	1474.54
569.97	1427.73
570.13	1666.46
570.30	1469.86
570.46	1355.17
570.62	1387.94
570.78	1444.11
570.95	1282.61
571.11	1879.45
571.27	1858.39
571.43	1336.45
571.60	1661.78
571.76	1502.62
571.92	1462.83
572.09	1469.86
572.25	1366.87
572.41	1486.24
572.57	1523.69
572.74	1928.60
572.90	1600.93
573.06	1720.29
573.22	1600.93
573.38	1664.12
573.55	1687.53
573.71	1675.82
573.87	1561.14
574.03	1299.00
574.20	1383.26
574.36	1795.19
574.52	1479.22
574.68	1537.73
574.84	1586.88
575.01	1411.34
575.17	1647.74
575.33	1380.92
575.49	1661.78
575.65	1643.06
575.82	1605.61
575.98	2237.55
576.14	1984.77
576.30	1802.21
576.46	1750.72
576.62	1727.32
576.79	1685.19
576.95	1809.23
577.11	1404.32
577.27	1394.96
577.43	1724.97
577.59	1783.49
577.75	1624.33
577.92	1530.71
578.08	1467.52
578.24	1427.73
578.40	1668.80
578.56	1722.63
578.72	1795.19
578.88	1523.69
579.04	1483.90
579.21	1540.07
579.37	1411.34
579.53	1404.32
579.69	1734.34
579.85	1317.72
580.01	1603.27
580.17	1521.35
580.33	1479.22
580.49	1612.63
580.65	1703.91
580.82	1507.30
580.98	1483.90
581.14	1441.77
581.30	1834.98
581.46	1680.50
581.62	2031.58
581.78	1797.53
581.94	1907.54
582.10	1612.63
582.26	1652.42
582.42	1621.99
582.58	1753.06
582.74	1598.59
582.90	1673.48
583.06	1682.85
583.22	1654.76
583.38	1638.38
583.54	1661.78
583.70	2160.31
583.86	2005.84
584.02	2005.84
584.18	2511.39
584.34	2487.99
584.50	5570.48
584.66	33816.06
584.82	59796.01
584.98	65535.00
585.14	62349.53
585.30	49598.29
585.46	31524.68
585.62	19267.29
585.78	9689.82
585.94	4830.87
586.10	2836.73
586.26	2363.94
586.42	2366.28
586.58	2040.95
586.74	1853.70
586.90	1713.27
587.06	1879.45
587.22	1816.26
587.38	1572.84
587.54	2537.14
587.70	5661.76
587.86	7740.15
588.02	7686.32
588.18	5715.59
588.34	4278.50
588.49	2799.28
588.65	2232.87
588.81	1652.42
588.97	1238.14
589.13	1308.36
589.29	1401.98
589.45	1565.82
589.61	1458.15
589.77	1598.59
589.93	1526.03
590.08	1455.81
590.24	1371.55
590.40	1446.45
590.56	1516.67
590.72	1483.90
590.88	1245.16
591.04	1399.64
591.20	1277.93
591.35	1727.32
591.51	1341.13
591.67	1221.76
591.83	1350.49
591.99	1526.03
592.15	1441.77
592.31	1462.83
592.46	1423.05
592.62	1624.33
592.78	1324.74
592.94	1240.48
593.10	1226.44
593.26	1324.74
593.41	1640.72
593.57	1504.96
593.73	1694.55
593.89	5280.25
594.05	10005.79
594.20	12524.21
594.36	11566.93
594.52	7847.82
594.68	5413.66
594.84	4128.70
594.99	3103.55
595.15	1944.99
595.31	1755.40
595.47	1797.53
595.62	1348.15
595.78	1486.24
595.94	1308.36
596.10	1710.93
596.25	1526.03
596.41	1582.20
596.57	1291.98
596.73	1380.92
596.88	1685.19
597.04	2724.38
597.20	3510.80
597.36	3786.99
597.51	3162.06
597.67	2415.43
597.83	2026.90
597.99	2045.63
598.14	1631.35
598.30	1654.76
598.46	1324.74
598.61	1694.55
598.77	1474.54
598.93	1273.25
599.09	1432.41
599.24	1444.11
599.40	1570.50
599.56	1331.76
599.71	1387.94
599.87	1320.06
600.03	1366.87
600.18	1303.68
600.34	1427.73
600.50	1299.00
600.65	1186.65
600.81	1469.86
600.97	1263.89
601.12	1252.19
