SpectraSuite Data File
++++++++++++++++++++++++++++++++++++
Date: Fri Oct 04 11:33:57 GMT-05:00 2013
User: price-jones
Dark Spectrum Present: No
Reference Spectrum Present: No
Number of Sampled Component Spectra: 1
Spectrometers: USB2+H05261
Integration Time (usec): 100000 (USB2+H05261)
Spectra Averaged: 1 (USB2+H05261)
Boxcar Smoothing: 0 (USB2+H05261)
Correct for Electrical Dark: No (USB2+H05261)
Strobe/Lamp Enabled: No (USB2+H05261)
Correct for Detector Non-linearity: No (USB2+H05261)
Correct for Stray Light: No (USB2+H05261)
Number of Pixels in Processed Spectrum: 2048
>>>>>Begin Processed Spectral Data<<<<<
365.73	58.51
365.92	58.51
366.12	58.51
366.32	0.00
366.52	0.00
366.72	28.09
366.91	0.00
367.11	0.00
367.31	0.00
367.51	0.00
367.70	0.00
367.90	0.00
368.10	0.00
368.30	0.00
368.49	0.00
368.69	0.00
368.89	4.68
369.09	0.00
369.28	0.00
369.48	63.19
369.68	0.00
369.87	0.00
370.07	7.02
370.27	79.58
370.47	4.68
370.66	39.79
370.86	32.77
371.06	100.64
371.25	271.50
371.45	145.11
371.65	67.88
371.84	88.94
372.04	194.26
372.24	152.13
372.44	154.48
372.63	86.60
372.83	191.92
373.03	140.43
373.22	189.58
373.42	112.35
373.62	128.73
373.81	196.60
374.01	128.73
374.21	201.29
374.40	142.77
374.60	107.66
374.79	117.03
374.99	81.92
375.19	147.45
375.38	119.37
375.58	88.94
375.78	88.94
375.97	147.45
376.17	252.78
376.37	198.95
376.56	152.13
376.76	105.32
376.95	110.01
377.15	124.05
377.35	112.35
377.54	121.71
377.74	124.05
377.93	198.95
378.13	152.13
378.33	187.24
378.52	215.33
378.72	152.13
378.91	189.58
379.11	212.99
379.31	112.35
379.50	166.18
379.70	166.18
379.89	205.97
380.09	128.73
380.28	98.30
380.48	154.48
380.68	149.79
380.87	166.18
381.07	131.07
381.26	161.50
381.46	170.86
381.65	177.88
381.85	168.52
382.04	161.50
382.24	149.79
382.43	140.43
382.63	67.88
382.83	152.13
383.02	93.62
383.22	147.45
383.41	152.13
383.61	154.48
383.80	173.20
384.00	159.16
384.19	112.35
384.39	81.92
384.58	152.13
384.78	117.03
384.97	142.77
385.17	121.71
385.36	198.95
385.56	187.24
385.75	184.90
385.95	131.07
386.14	133.41
386.34	131.07
386.53	145.11
386.72	126.39
386.92	166.18
387.11	184.90
387.31	212.99
387.50	142.77
387.70	98.30
387.89	161.50
388.09	154.48
388.28	67.88
388.48	39.79
388.67	180.22
388.86	168.52
389.06	187.24
389.25	194.26
389.45	149.79
389.64	133.41
389.84	187.24
390.03	42.13
390.22	117.03
390.42	159.16
390.61	187.24
390.81	114.69
391.00	126.39
391.19	177.88
391.39	124.05
391.58	156.82
391.78	163.84
391.97	93.62
392.16	152.13
392.36	126.39
392.55	166.18
392.75	138.09
392.94	142.77
393.13	180.22
393.33	152.13
393.52	119.37
393.71	175.54
393.91	210.65
394.10	145.11
394.29	184.90
394.49	215.33
394.68	229.37
394.88	177.88
395.07	156.82
395.26	131.07
395.46	63.19
395.65	159.16
395.84	140.43
396.04	231.71
396.23	215.33
396.42	173.20
396.62	191.92
396.81	163.84
397.00	168.52
397.19	102.98
397.39	191.92
397.58	180.22
397.77	166.18
397.97	81.92
398.16	163.84
398.35	140.43
398.55	133.41
398.74	187.24
398.93	201.29
399.12	187.24
399.32	177.88
399.51	173.20
399.70	177.88
399.90	189.58
400.09	175.54
400.28	234.05
400.47	187.24
400.67	238.73
400.86	154.48
401.05	191.92
401.24	187.24
401.44	224.69
401.63	145.11
401.82	205.97
402.01	154.48
402.21	147.45
402.40	105.32
402.59	222.35
402.78	173.20
402.97	159.16
403.17	175.54
403.36	110.01
403.55	142.77
403.74	196.60
403.93	224.69
404.13	243.42
404.32	184.90
404.51	196.60
404.70	210.65
404.89	173.20
405.09	138.09
405.28	159.16
405.47	91.28
405.66	114.69
405.85	231.71
406.05	196.60
406.24	201.29
406.43	180.22
406.62	147.45
406.81	159.16
407.00	168.52
407.20	152.13
407.39	203.63
407.58	173.20
407.77	110.01
407.96	229.37
408.15	196.60
408.34	168.52
408.54	224.69
408.73	74.90
408.92	191.92
409.11	173.20
409.30	201.29
409.49	161.50
409.68	133.41
409.87	168.52
410.07	196.60
410.26	147.45
410.45	222.35
410.64	159.16
410.83	198.95
411.02	147.45
411.21	135.75
411.40	166.18
411.59	159.16
411.78	131.07
411.98	145.11
412.17	168.52
412.36	208.31
412.55	145.11
412.74	159.16
412.93	212.99
413.12	149.79
413.31	217.67
413.50	175.54
413.69	182.56
413.88	212.99
414.07	152.13
414.26	156.82
414.45	145.11
414.64	227.03
414.83	156.82
415.02	88.94
415.22	163.84
415.41	271.50
415.60	170.86
415.79	142.77
415.98	166.18
416.17	182.56
416.36	149.79
416.55	236.39
416.74	187.24
416.93	215.33
417.12	201.29
417.31	147.45
417.50	177.88
417.69	173.20
417.88	262.14
418.07	168.52
418.26	208.31
418.45	220.01
418.64	271.50
418.83	208.31
419.02	166.18
419.21	259.80
419.39	191.92
419.58	191.92
419.77	262.14
419.96	241.08
420.15	152.13
420.34	142.77
420.53	77.24
420.72	128.73
420.91	105.32
421.10	128.73
421.29	159.16
421.48	124.05
421.67	187.24
421.86	117.03
422.05	149.79
422.24	177.88
422.43	173.20
422.61	205.97
422.80	215.33
422.99	196.60
423.18	138.09
423.37	175.54
423.56	180.22
423.75	196.60
423.94	217.67
424.13	163.84
424.32	98.30
424.50	154.48
424.69	149.79
424.88	168.52
425.07	168.52
425.26	201.29
425.45	248.10
425.64	299.59
425.83	271.50
426.01	212.99
426.20	147.45
426.39	198.95
426.58	180.22
426.77	243.42
426.96	245.76
427.15	191.92
427.33	180.22
427.52	166.18
427.71	159.16
427.90	208.31
428.09	159.16
428.28	182.56
428.46	201.29
428.65	220.01
428.84	154.48
429.03	128.73
429.22	163.84
429.40	177.88
429.59	145.11
429.78	271.50
429.97	159.16
430.16	182.56
430.34	184.90
430.53	175.54
430.72	138.09
430.91	201.29
431.10	212.99
431.28	220.01
431.47	210.65
431.66	156.82
431.85	180.22
432.03	175.54
432.22	210.65
432.41	159.16
432.60	227.03
432.79	220.01
432.97	273.84
433.16	243.42
433.35	229.37
433.54	278.52
433.72	229.37
433.91	173.20
434.10	182.56
434.28	238.73
434.47	224.69
434.66	222.35
434.85	224.69
435.03	201.29
435.22	376.83
435.41	554.71
435.59	379.17
435.78	341.72
435.97	196.60
436.16	217.67
436.34	170.86
436.53	166.18
436.72	198.95
436.90	241.08
437.09	138.09
437.28	191.92
437.46	166.18
437.65	285.55
437.84	215.33
438.02	194.26
438.21	248.10
438.40	159.16
438.58	168.52
438.77	142.77
438.96	128.73
439.14	210.65
439.33	266.82
439.52	196.60
439.70	191.92
439.89	259.80
440.08	187.24
440.26	166.18
440.45	205.97
440.63	182.56
440.82	173.20
441.01	203.63
441.19	93.62
441.38	145.11
441.57	140.43
441.75	229.37
441.94	203.63
442.12	203.63
442.31	212.99
442.50	121.71
442.68	147.45
442.87	126.39
443.05	138.09
443.24	198.95
443.43	161.50
443.61	222.35
443.80	231.71
443.98	201.29
444.17	175.54
444.35	276.18
444.54	119.37
444.73	208.31
444.91	196.60
445.10	269.16
445.28	182.56
445.47	184.90
445.65	212.99
445.84	161.50
446.02	131.07
446.21	175.54
446.39	264.48
446.58	278.52
446.77	205.97
446.95	203.63
447.14	180.22
447.32	194.26
447.51	224.69
447.69	182.56
447.88	215.33
448.06	220.01
448.25	175.54
448.43	145.11
448.62	208.31
448.80	191.92
448.99	170.86
449.17	187.24
449.36	173.20
449.54	124.05
449.73	138.09
449.91	156.82
450.10	163.84
450.28	255.12
450.46	259.80
450.65	173.20
450.83	189.58
451.02	208.31
451.20	196.60
451.39	184.90
451.57	234.05
451.76	175.54
451.94	133.41
452.13	205.97
452.31	238.73
452.49	205.97
452.68	142.77
452.86	187.24
453.05	215.33
453.23	177.88
453.42	140.43
453.60	173.20
453.78	194.26
453.97	189.58
454.15	203.63
454.34	189.58
454.52	189.58
454.70	220.01
454.89	210.65
455.07	205.97
455.26	234.05
455.44	212.99
455.62	180.22
455.81	189.58
455.99	152.13
456.17	234.05
456.36	152.13
456.54	215.33
456.73	208.31
456.91	170.86
457.09	210.65
457.28	191.92
457.46	245.76
457.64	156.82
457.83	149.79
458.01	203.63
458.19	212.99
458.38	201.29
458.56	220.01
458.74	231.71
458.93	187.24
459.11	161.50
459.29	234.05
459.48	180.22
459.66	250.44
459.84	145.11
460.03	273.84
460.21	215.33
460.39	198.95
460.57	189.58
460.76	147.45
460.94	159.16
461.12	189.58
461.31	262.14
461.49	140.43
461.67	98.30
461.85	222.35
462.04	208.31
462.22	571.09
462.40	189.58
462.59	248.10
462.77	138.09
462.95	203.63
463.13	173.20
463.32	170.86
463.50	161.50
463.68	257.46
463.86	203.63
464.05	187.24
464.23	196.60
464.41	177.88
464.59	142.77
464.78	238.73
464.96	198.95
465.14	224.69
465.32	159.16
465.50	152.13
465.69	212.99
465.87	147.45
466.05	210.65
466.23	107.66
466.41	187.24
466.60	177.88
466.78	231.71
466.96	271.50
467.14	187.24
467.32	114.69
467.51	224.69
467.69	205.97
467.87	229.37
468.05	187.24
468.23	203.63
468.41	205.97
468.60	234.05
468.78	177.88
468.96	212.99
469.14	173.20
469.32	149.79
469.50	163.84
469.69	198.95
469.87	212.99
470.05	245.76
470.23	208.31
470.41	145.11
470.59	224.69
470.77	196.60
470.95	189.58
471.14	313.63
471.32	255.12
471.50	227.03
471.68	236.39
471.86	220.01
472.04	234.05
472.22	234.05
472.40	184.90
472.58	184.90
472.77	234.05
472.95	301.93
473.13	187.24
473.31	196.60
473.49	227.03
473.67	161.50
473.85	224.69
474.03	222.35
474.21	236.39
474.39	227.03
474.57	198.95
474.75	203.63
474.93	208.31
475.12	212.99
475.30	156.82
475.48	203.63
475.66	243.42
475.84	191.92
476.02	180.22
476.20	198.95
476.38	252.78
476.56	287.89
476.74	224.69
476.92	245.76
477.10	308.95
477.28	224.69
477.46	259.80
477.64	198.95
477.82	170.86
478.00	166.18
478.18	187.24
478.36	215.33
478.54	255.12
478.72	159.16
478.90	229.37
479.08	250.44
479.26	229.37
479.44	259.80
479.62	175.54
479.80	168.52
479.98	194.26
480.16	187.24
480.34	234.05
480.52	205.97
480.70	290.23
480.88	224.69
481.06	229.37
481.24	187.24
481.41	215.33
481.59	168.52
481.77	220.01
481.95	205.97
482.13	292.57
482.31	234.05
482.49	224.69
482.67	236.39
482.85	278.52
483.03	241.08
483.21	180.22
483.39	227.03
483.57	250.44
483.74	285.55
483.92	196.60
484.10	304.27
484.28	271.50
484.46	297.25
484.64	205.97
484.82	252.78
485.00	208.31
485.18	227.03
485.35	280.86
485.53	241.08
485.71	285.55
485.89	227.03
486.07	189.58
486.25	262.14
486.43	234.05
486.61	215.33
486.78	292.57
486.96	191.92
487.14	217.67
487.32	224.69
487.50	278.52
487.68	276.18
487.85	273.84
488.03	322.99
488.21	248.10
488.39	241.08
488.57	269.16
488.75	208.31
488.92	484.49
489.10	257.46
489.28	276.18
489.46	215.33
489.64	184.90
489.81	224.69
489.99	224.69
490.17	245.76
490.35	208.31
490.53	243.42
490.70	220.01
490.88	285.55
491.06	259.80
491.24	264.48
491.41	257.46
491.59	266.82
491.77	313.63
491.95	266.82
492.13	266.82
492.30	243.42
492.48	196.60
492.66	224.69
492.84	245.76
493.01	224.69
493.19	227.03
493.37	308.95
493.54	318.31
493.72	327.68
493.90	243.42
494.08	306.61
494.25	161.50
494.43	173.20
494.61	243.42
494.79	220.01
494.96	154.48
495.14	252.78
495.32	238.73
495.49	227.03
495.67	168.52
495.85	287.89
496.02	278.52
496.20	262.14
496.38	283.20
496.55	191.92
496.73	264.48
496.91	259.80
497.09	243.42
497.26	234.05
497.44	243.42
497.62	264.48
497.79	280.86
497.97	283.20
498.14	220.01
498.32	315.97
498.50	229.37
498.67	252.78
498.85	236.39
499.03	297.25
499.20	294.91
499.38	252.78
499.56	217.67
499.73	322.99
499.91	266.82
500.08	283.20
500.26	229.37
500.44	224.69
500.61	208.31
500.79	203.63
500.97	220.01
501.14	259.80
501.32	236.39
501.49	264.48
501.67	168.52
501.84	297.25
502.02	299.59
502.20	292.57
502.37	252.78
502.55	208.31
502.72	271.50
502.90	320.65
503.07	285.55
503.25	367.46
503.43	262.14
503.60	294.91
503.78	257.46
503.95	273.84
504.13	229.37
504.30	205.97
504.48	290.23
504.65	315.97
504.83	212.99
505.01	212.99
505.18	250.44
505.36	238.73
505.53	287.89
505.71	278.52
505.88	294.91
506.06	215.33
506.23	177.88
506.41	294.91
506.58	262.14
506.76	248.10
506.93	215.33
507.11	231.71
507.28	236.39
507.46	227.03
507.63	341.72
507.81	234.05
507.98	299.59
508.16	257.46
508.33	182.56
508.50	264.48
508.68	264.48
508.85	222.35
509.03	290.23
509.20	297.25
509.38	201.29
509.55	315.97
509.73	308.95
509.90	243.42
510.08	220.01
510.25	304.27
510.42	245.76
510.60	266.82
510.77	266.82
510.95	257.46
511.12	320.65
511.30	330.02
511.47	285.55
511.64	332.36
511.82	276.18
511.99	311.29
512.17	236.39
512.34	283.20
512.51	259.80
512.69	280.86
512.86	299.59
513.04	245.76
513.21	297.25
513.38	238.73
513.56	168.52
513.73	180.22
513.90	248.10
514.08	252.78
514.25	337.04
514.43	283.20
514.60	292.57
514.77	208.31
514.95	220.01
515.12	266.82
515.29	262.14
515.47	227.03
515.64	273.84
515.81	360.44
515.99	280.86
516.16	222.35
516.33	297.25
516.51	238.73
516.68	227.03
516.85	259.80
517.03	304.27
517.20	203.63
517.37	297.25
517.54	285.55
517.72	224.69
517.89	208.31
518.06	201.29
518.24	315.97
518.41	294.91
518.58	285.55
518.75	290.23
518.93	245.76
519.10	294.91
519.27	273.84
519.45	299.59
519.62	198.95
519.79	191.92
519.96	255.12
520.14	283.20
520.31	269.16
520.48	283.20
520.65	311.29
520.83	304.27
521.00	318.31
521.17	210.65
521.34	217.67
521.52	198.95
521.69	243.42
521.86	257.46
522.03	255.12
522.20	266.82
522.38	217.67
522.55	308.95
522.72	243.42
522.89	325.33
523.07	297.25
523.24	283.20
523.41	250.44
523.58	243.42
523.75	334.70
523.92	264.48
524.10	215.33
524.27	236.39
524.44	304.27
524.61	315.97
524.78	327.68
524.96	327.68
525.13	308.95
525.30	294.91
525.47	315.97
525.64	264.48
525.81	332.36
525.98	250.44
526.16	262.14
526.33	241.08
526.50	287.89
526.67	236.39
526.84	198.95
527.01	245.76
527.18	222.35
527.36	269.16
527.53	273.84
527.70	266.82
527.87	236.39
528.04	308.95
528.21	229.37
528.38	311.29
528.55	283.20
528.72	372.15
528.89	245.76
529.07	224.69
529.24	334.70
529.41	308.95
529.58	276.18
529.75	245.76
529.92	287.89
530.09	255.12
530.26	334.70
530.43	264.48
530.60	262.14
530.77	248.10
530.94	320.65
531.11	334.70
531.28	215.33
531.46	255.12
531.63	294.91
531.80	271.50
531.97	301.93
532.14	301.93
532.31	320.65
532.48	325.33
532.65	386.19
532.82	360.44
532.99	409.59
533.16	330.02
533.33	283.20
533.50	369.80
533.67	322.99
533.84	482.15
534.01	421.30
534.18	400.23
534.35	341.72
534.52	257.46
534.69	367.46
534.86	297.25
535.03	255.12
535.20	308.95
535.37	315.97
535.54	285.55
535.71	255.12
535.88	339.38
536.05	255.12
536.22	318.31
536.38	294.91
536.55	301.93
536.72	339.38
536.89	269.16
537.06	292.57
537.23	299.59
537.40	327.68
537.57	257.46
537.74	290.23
537.91	283.20
538.08	264.48
538.25	353.42
538.42	311.29
538.59	351.08
538.75	332.36
538.92	292.57
539.09	332.36
539.26	337.04
539.43	538.32
539.60	1064.94
539.77	1490.92
539.94	1472.20
540.11	961.96
540.28	793.44
540.44	575.77
540.61	479.81
540.78	362.78
540.95	531.30
541.12	606.20
541.29	587.47
541.46	592.16
541.62	615.56
541.79	493.85
541.96	550.03
542.13	491.51
542.30	409.59
542.47	486.83
542.63	475.13
542.80	440.02
542.97	456.40
543.14	535.98
543.31	493.85
543.48	472.79
543.64	528.96
543.81	533.64
543.98	454.06
544.15	381.51
544.32	444.70
544.48	531.30
544.65	475.13
544.82	498.53
544.99	486.83
545.16	496.19
545.32	500.87
545.49	737.27
545.66	868.34
545.83	978.34
546.00	908.13
546.16	730.25
546.33	573.43
546.50	526.62
546.67	535.98
546.83	400.23
547.00	346.40
547.17	425.98
547.34	400.23
547.50	435.34
547.67	386.19
547.84	367.46
548.00	379.17
548.17	332.36
548.34	341.72
548.51	456.40
548.67	454.06
548.84	444.70
549.01	411.93
549.18	393.21
549.34	360.44
549.51	411.93
549.68	327.68
549.84	339.38
550.01	383.85
550.18	554.71
550.34	402.57
550.51	294.91
550.68	365.12
550.84	367.46
551.01	360.44
551.18	315.97
551.34	351.08
551.51	330.02
551.68	273.84
551.84	290.23
552.01	271.50
552.18	358.10
552.34	327.68
552.51	344.06
552.68	264.48
552.84	339.38
553.01	339.38
553.18	348.74
553.34	287.89
553.51	245.76
553.67	318.31
553.84	337.04
554.01	297.25
554.17	346.40
554.34	315.97
554.51	280.86
554.67	358.10
554.84	280.86
555.00	241.08
555.17	285.55
555.33	266.82
555.50	315.97
555.67	355.76
555.83	311.29
556.00	313.63
556.16	383.85
556.33	287.89
556.50	287.89
556.66	243.42
556.83	306.61
556.99	224.69
557.16	308.95
557.32	208.31
557.49	290.23
557.65	355.76
557.82	269.16
557.98	344.06
558.15	262.14
558.32	262.14
558.48	273.84
558.65	306.61
558.81	285.55
558.98	224.69
559.14	306.61
559.31	252.78
559.47	332.36
559.64	222.35
559.80	292.57
559.97	273.84
560.13	271.50
560.30	287.89
560.46	283.20
560.63	241.08
560.79	241.08
560.96	266.82
561.12	294.91
561.29	278.52
561.45	191.92
561.61	238.73
561.78	374.49
561.94	264.48
562.11	264.48
562.27	257.46
562.44	212.99
562.60	285.55
562.77	372.15
562.93	325.33
563.10	191.92
563.26	273.84
563.42	278.52
563.59	301.93
563.75	241.08
563.92	245.76
564.08	287.89
564.24	341.72
564.41	301.93
564.57	236.39
564.74	255.12
564.90	276.18
565.07	311.29
565.23	318.31
565.39	355.76
565.56	313.63
565.72	351.08
565.88	332.36
566.05	250.44
566.21	285.55
566.38	304.27
566.54	248.10
566.70	285.55
566.87	327.68
567.03	264.48
567.19	285.55
567.36	152.13
567.52	255.12
567.68	306.61
567.85	198.95
568.01	264.48
568.17	245.76
568.34	227.03
568.50	273.84
568.66	236.39
568.83	346.40
568.99	212.99
569.15	297.25
569.32	313.63
569.48	287.89
569.64	243.42
569.81	229.37
569.97	252.78
570.13	351.08
570.30	250.44
570.46	198.95
570.62	208.31
570.78	255.12
570.95	299.59
571.11	266.82
571.27	320.65
571.43	271.50
571.60	264.48
571.76	259.80
571.92	252.78
572.09	271.50
572.25	315.97
572.41	299.59
572.57	301.93
572.74	322.99
572.90	210.65
573.06	269.16
573.22	327.68
573.38	318.31
573.55	215.33
573.71	315.97
573.87	301.93
574.03	290.23
574.20	278.52
574.36	304.27
574.52	315.97
574.68	341.72
574.84	348.74
575.01	273.84
575.17	238.73
575.33	348.74
575.49	299.59
575.65	299.59
575.82	383.85
575.98	545.34
576.14	678.76
576.30	737.27
576.46	561.73
576.62	634.29
576.79	500.87
576.95	454.06
577.11	383.85
577.27	252.78
577.43	372.15
577.59	306.61
577.75	278.52
577.92	287.89
578.08	262.14
578.24	327.68
578.40	322.99
578.56	421.30
578.72	442.36
578.88	372.15
579.04	400.23
579.21	320.65
579.37	334.70
579.53	344.06
579.69	402.57
579.85	411.93
580.01	470.45
580.17	440.02
580.33	475.13
580.49	407.25
580.65	475.13
580.82	346.40
580.98	407.25
581.14	365.12
581.30	430.66
581.46	407.25
581.62	634.29
581.78	603.86
581.94	601.52
582.10	510.24
582.26	512.58
582.42	435.34
582.58	554.71
582.74	503.22
582.90	470.45
583.06	521.94
583.22	454.06
583.38	601.52
583.54	589.82
583.70	624.92
583.86	737.27
584.02	826.21
584.18	901.11
584.34	1172.61
584.50	2853.11
584.66	21930.82
584.82	52648.01
584.98	61455.45
585.14	58522.76
585.30	42298.16
585.46	24816.70
585.62	15468.60
585.78	7410.14
585.94	3019.29
586.10	1488.58
586.26	1057.92
586.42	812.17
586.58	713.86
586.74	697.48
586.90	706.84
587.06	620.24
587.22	608.54
587.38	571.09
587.54	1203.04
587.70	3276.75
587.86	5109.39
588.02	5547.07
588.18	3971.89
588.34	2546.50
588.49	1699.23
588.65	1107.07
588.81	716.20
588.97	486.83
589.13	418.96
589.29	393.21
589.45	353.42
589.61	318.31
589.77	425.98
589.93	491.51
590.08	433.00
590.24	524.28
590.40	461.09
590.56	458.74
590.72	355.76
590.88	358.10
591.04	416.62
591.20	414.27
591.35	376.83
591.51	404.91
591.67	374.49
591.83	320.65
591.99	325.33
592.15	369.80
592.31	376.83
592.46	322.99
592.62	423.64
592.78	454.06
592.94	348.74
593.10	414.27
593.26	334.70
593.41	423.64
593.57	503.22
593.73	566.41
593.89	2642.46
594.05	6612.01
594.20	9317.67
594.36	8931.48
594.52	5874.74
594.68	3758.90
594.84	2541.82
594.99	1479.22
595.15	704.50
595.31	489.17
595.47	428.32
595.62	330.02
595.78	393.21
595.94	379.17
596.10	393.21
596.25	449.38
596.41	376.83
596.57	353.42
596.73	374.49
596.88	568.75
597.04	1343.47
597.20	2146.27
597.36	2448.20
597.51	1895.83
597.67	1303.68
597.83	931.53
597.99	681.10
598.14	521.94
598.30	369.80
598.46	372.15
598.61	337.04
598.77	456.40
598.93	297.25
599.09	355.76
599.24	393.21
599.40	348.74
599.56	318.31
599.71	374.49
599.87	283.20
600.03	346.40
600.18	306.61
600.34	341.72
600.50	280.86
600.65	337.04
600.81	353.42
600.97	297.25
601.12	245.76
601.28	353.42
601.44	332.36
601.59	266.82
601.75	320.65
601.91	294.91
602.06	362.78
602.22	369.80
602.37	720.88
602.53	1582.20
602.69	2354.58
602.84	2403.73
603.00	1804.55
603.16	1338.79
603.31	940.90
603.47	699.82
603.62	390.87
603.78	358.10
603.94	332.36
604.09	334.70
604.25	248.10
604.40	325.33
604.56	212.99
604.71	332.36
604.87	285.55
605.03	306.61
605.18	304.27
605.34	339.38
605.49	320.65
605.65	311.29
605.80	222.35
605.96	304.27
606.12	374.49
606.27	379.17
606.43	327.68
606.58	393.21
606.74	915.15
606.89	3162.06
607.05	6305.40
607.20	7903.99
607.36	6581.59
607.51	4582.77
607.67	2979.50
607.82	2038.61
607.98	1156.22
608.13	720.88
608.29	554.71
608.44	435.34
608.60	505.56
608.75	613.22
608.91	1207.72
609.06	4922.15
609.22	10705.61
609.37	13799.80
609.53	12053.76
609.68	8201.24
609.84	5685.16
609.99	3698.05
610.15	2148.61
