SpectraSuite Data File
++++++++++++++++++++++++++++++++++++
Date: Fri Oct 04 11:33:55 GMT-05:00 2013
User: price-jones
Dark Spectrum Present: No
Reference Spectrum Present: No
Number of Sampled Component Spectra: 1
Spectrometers: USB2+H05261
Integration Time (usec): 100000 (USB2+H05261)
Spectra Averaged: 1 (USB2+H05261)
Boxcar Smoothing: 0 (USB2+H05261)
Correct for Electrical Dark: No (USB2+H05261)
Strobe/Lamp Enabled: No (USB2+H05261)
Correct for Detector Non-linearity: No (USB2+H05261)
Correct for Stray Light: No (USB2+H05261)
Number of Pixels in Processed Spectrum: 2048
>>>>>Begin Processed Spectral Data<<<<<
365.73	46.81
365.92	46.81
366.12	46.81
366.32	0.00
366.52	0.00
366.72	44.47
366.91	0.00
367.11	4.68
367.31	0.00
367.51	11.70
367.70	0.00
367.90	0.00
368.10	0.00
368.30	0.00
368.49	0.00
368.69	0.00
368.89	0.00
369.09	0.00
369.28	0.00
369.48	0.00
369.68	39.79
369.87	23.41
370.07	7.02
370.27	0.00
370.47	74.90
370.66	74.90
370.86	135.75
371.06	98.30
371.25	102.98
371.45	86.60
371.65	182.56
371.84	56.17
372.04	131.07
372.24	135.75
372.44	126.39
372.63	114.69
372.83	203.63
373.03	142.77
373.22	117.03
373.42	194.26
373.62	95.96
373.81	236.39
374.01	121.71
374.21	177.88
374.40	77.24
374.60	210.65
374.79	133.41
374.99	86.60
375.19	177.88
375.38	145.11
375.58	152.13
375.78	161.50
375.97	194.26
376.17	229.37
376.37	191.92
376.56	259.80
376.76	102.98
376.95	126.39
377.15	182.56
377.35	175.54
377.54	98.30
377.74	175.54
377.93	142.77
378.13	166.18
378.33	149.79
378.52	135.75
378.72	140.43
378.91	79.58
379.11	133.41
379.31	95.96
379.50	84.26
379.70	177.88
379.89	191.92
380.09	159.16
380.28	133.41
380.48	135.75
380.68	140.43
380.87	37.45
381.07	145.11
381.26	133.41
381.46	110.01
381.65	88.94
381.85	147.45
382.04	161.50
382.24	175.54
382.43	154.48
382.63	212.99
382.83	112.35
383.02	187.24
383.22	121.71
383.41	119.37
383.61	121.71
383.80	154.48
384.00	86.60
384.19	110.01
384.39	208.31
384.58	95.96
384.78	133.41
384.97	177.88
385.17	196.60
385.36	149.79
385.56	145.11
385.75	102.98
385.95	177.88
386.14	173.20
386.34	145.11
386.53	149.79
386.72	140.43
386.92	154.48
387.11	105.32
387.31	142.77
387.50	70.22
387.70	84.26
387.89	72.56
388.09	95.96
388.28	114.69
388.48	142.77
388.67	231.71
388.86	126.39
389.06	110.01
389.25	175.54
389.45	86.60
389.64	168.52
389.84	105.32
390.03	147.45
390.22	119.37
390.42	182.56
390.61	145.11
390.81	105.32
391.00	91.28
391.19	161.50
391.39	110.01
391.58	215.33
391.78	203.63
391.97	182.56
392.16	110.01
392.36	271.50
392.55	236.39
392.75	121.71
392.94	84.26
393.13	170.86
393.33	212.99
393.52	147.45
393.71	184.90
393.91	154.48
394.10	175.54
394.29	133.41
394.49	203.63
394.68	194.26
394.88	184.90
395.07	217.67
395.26	152.13
395.46	110.01
395.65	79.58
395.84	140.43
396.04	222.35
396.23	147.45
396.42	84.26
396.62	189.58
396.81	203.63
397.00	119.37
397.19	194.26
397.39	187.24
397.58	215.33
397.77	142.77
397.97	124.05
398.16	114.69
398.35	159.16
398.55	91.28
398.74	133.41
398.93	121.71
399.12	152.13
399.32	173.20
399.51	135.75
399.70	168.52
399.90	128.73
400.09	142.77
400.28	105.32
400.47	173.20
400.67	147.45
400.86	159.16
401.05	140.43
401.24	217.67
401.44	119.37
401.63	163.84
401.82	210.65
402.01	156.82
402.21	182.56
402.40	117.03
402.59	187.24
402.78	126.39
402.97	140.43
403.17	191.92
403.36	215.33
403.55	170.86
403.74	138.09
403.93	170.86
404.13	287.89
404.32	276.18
404.51	189.58
404.70	234.05
404.89	156.82
405.09	191.92
405.28	149.79
405.47	170.86
405.66	147.45
405.85	175.54
406.05	173.20
406.24	135.75
406.43	112.35
406.62	180.22
406.81	152.13
407.00	220.01
407.20	135.75
407.39	128.73
407.58	217.67
407.77	196.60
407.96	215.33
408.15	212.99
408.34	156.82
408.54	149.79
408.73	93.62
408.92	121.71
409.11	231.71
409.30	156.82
409.49	217.67
409.68	124.05
409.87	182.56
410.07	173.20
410.26	173.20
410.45	156.82
410.64	110.01
410.83	173.20
411.02	126.39
411.21	147.45
411.40	184.90
411.59	98.30
411.78	114.69
411.98	184.90
412.17	65.54
412.36	154.48
412.55	156.82
412.74	138.09
412.93	203.63
413.12	140.43
413.31	212.99
413.50	220.01
413.69	189.58
413.88	203.63
414.07	152.13
414.26	74.90
414.45	124.05
414.64	175.54
414.83	220.01
415.02	187.24
415.22	126.39
415.41	208.31
415.60	161.50
415.79	189.58
415.98	271.50
416.17	128.73
416.36	205.97
416.55	159.16
416.74	166.18
416.93	177.88
417.12	184.90
417.31	163.84
417.50	222.35
417.69	194.26
417.88	269.16
418.07	182.56
418.26	248.10
418.45	159.16
418.64	245.76
418.83	262.14
419.02	189.58
419.21	273.84
419.39	259.80
419.58	234.05
419.77	255.12
419.96	250.44
420.15	189.58
420.34	131.07
420.53	229.37
420.72	194.26
420.91	126.39
421.10	189.58
421.29	168.52
421.48	173.20
421.67	198.95
421.86	117.03
422.05	215.33
422.24	191.92
422.43	194.26
422.61	142.77
422.80	177.88
422.99	208.31
423.18	138.09
423.37	159.16
423.56	168.52
423.75	140.43
423.94	161.50
424.13	145.11
424.32	163.84
424.50	133.41
424.69	177.88
424.88	241.08
425.07	102.98
425.26	196.60
425.45	276.18
425.64	311.29
425.83	248.10
426.01	227.03
426.20	175.54
426.39	161.50
426.58	159.16
426.77	231.71
426.96	182.56
427.15	166.18
427.33	189.58
427.52	217.67
427.71	180.22
427.90	201.29
428.09	145.11
428.28	196.60
428.46	149.79
428.65	135.75
428.84	173.20
429.03	175.54
429.22	128.73
429.40	147.45
429.59	152.13
429.78	220.01
429.97	198.95
430.16	154.48
430.34	163.84
430.53	175.54
430.72	142.77
430.91	182.56
431.10	198.95
431.28	159.16
431.47	184.90
431.66	110.01
431.85	224.69
432.03	93.62
432.22	205.97
432.41	184.90
432.60	168.52
432.79	287.89
432.97	374.49
433.16	308.95
433.35	238.73
433.54	212.99
433.72	236.39
433.91	191.92
434.10	210.65
434.28	222.35
434.47	224.69
434.66	266.82
434.85	201.29
435.03	201.29
435.22	339.38
435.41	428.32
435.59	283.20
435.78	344.06
435.97	322.99
436.16	224.69
436.34	173.20
436.53	248.10
436.72	168.52
436.90	182.56
437.09	149.79
437.28	152.13
437.46	133.41
437.65	217.67
437.84	241.08
438.02	243.42
438.21	245.76
438.40	161.50
438.58	182.56
438.77	215.33
438.96	161.50
439.14	131.07
439.33	212.99
439.52	145.11
439.70	177.88
439.89	154.48
440.08	156.82
440.26	128.73
440.45	159.16
440.63	236.39
440.82	203.63
441.01	126.39
441.19	234.05
441.38	196.60
441.57	128.73
441.75	257.46
441.94	163.84
442.12	135.75
442.31	154.48
442.50	234.05
442.68	114.69
442.87	173.20
443.05	198.95
443.24	135.75
443.43	142.77
443.61	248.10
443.80	135.75
443.98	135.75
444.17	154.48
444.35	159.16
444.54	145.11
444.73	241.08
444.91	194.26
445.10	152.13
445.28	126.39
445.47	210.65
445.65	168.52
445.84	161.50
446.02	208.31
446.21	212.99
446.39	198.95
446.58	180.22
446.77	145.11
446.95	217.67
447.14	128.73
447.32	212.99
447.51	196.60
447.69	194.26
447.88	201.29
448.06	210.65
448.25	222.35
448.43	166.18
448.62	175.54
448.80	250.44
448.99	217.67
449.17	173.20
449.36	187.24
449.54	255.12
449.73	168.52
449.91	264.48
450.10	126.39
450.28	252.78
450.46	292.57
450.65	205.97
450.83	210.65
451.02	187.24
451.20	168.52
451.39	220.01
451.57	224.69
451.76	220.01
451.94	227.03
452.13	187.24
452.31	257.46
452.49	180.22
452.68	205.97
452.86	212.99
453.05	194.26
453.23	203.63
453.42	182.56
453.60	212.99
453.78	126.39
453.97	212.99
454.15	131.07
454.34	175.54
454.52	110.01
454.70	243.42
454.89	156.82
455.07	145.11
455.26	227.03
455.44	234.05
455.62	224.69
455.81	191.92
455.99	220.01
456.17	159.16
456.36	159.16
456.54	161.50
456.73	156.82
456.91	220.01
457.09	180.22
457.28	245.76
457.46	212.99
457.64	220.01
457.83	177.88
458.01	168.52
458.19	156.82
458.38	173.20
458.56	198.95
458.74	187.24
458.93	196.60
459.11	156.82
459.29	227.03
459.48	175.54
459.66	198.95
459.84	311.29
460.03	234.05
460.21	194.26
460.39	227.03
460.57	252.78
460.76	102.98
460.94	217.67
461.12	175.54
461.31	266.82
461.49	154.48
461.67	191.92
461.85	128.73
462.04	217.67
462.22	617.90
462.40	166.18
462.59	271.50
462.77	217.67
462.95	198.95
463.13	224.69
463.32	234.05
463.50	203.63
463.68	205.97
463.86	210.65
464.05	184.90
464.23	264.48
464.41	278.52
464.59	110.01
464.78	241.08
464.96	177.88
465.14	152.13
465.32	217.67
465.50	147.45
465.69	189.58
465.87	154.48
466.05	163.84
466.23	114.69
466.41	180.22
466.60	236.39
466.78	142.77
466.96	210.65
467.14	135.75
467.32	217.67
467.51	257.46
467.69	229.37
467.87	231.71
468.05	224.69
468.23	224.69
468.41	149.79
468.60	262.14
468.78	161.50
468.96	241.08
469.14	231.71
469.32	194.26
469.50	135.75
469.69	203.63
469.87	191.92
470.05	168.52
470.23	117.03
470.41	196.60
470.59	236.39
470.77	259.80
470.95	159.16
471.14	269.16
471.32	208.31
471.50	203.63
471.68	168.52
471.86	205.97
472.04	138.09
472.22	262.14
472.40	166.18
472.58	224.69
472.77	187.24
472.95	217.67
473.13	271.50
473.31	231.71
473.49	210.65
473.67	166.18
473.85	259.80
474.03	234.05
474.21	252.78
474.39	255.12
474.57	294.91
474.75	231.71
474.93	224.69
475.12	196.60
475.30	243.42
475.48	205.97
475.66	168.52
475.84	250.44
476.02	180.22
476.20	208.31
476.38	217.67
476.56	238.73
476.74	203.63
476.92	156.82
477.10	259.80
477.28	236.39
477.46	175.54
477.64	182.56
477.82	175.54
478.00	203.63
478.18	177.88
478.36	245.76
478.54	196.60
478.72	220.01
478.90	194.26
479.08	203.63
479.26	210.65
479.44	229.37
479.62	147.45
479.80	245.76
479.98	177.88
480.16	243.42
480.34	170.86
480.52	198.95
480.70	217.67
480.88	166.18
481.06	271.50
481.24	191.92
481.41	222.35
481.59	191.92
481.77	166.18
481.95	191.92
482.13	234.05
482.31	220.01
482.49	191.92
482.67	170.86
482.85	280.86
483.03	259.80
483.21	175.54
483.39	187.24
483.57	194.26
483.74	273.84
483.92	255.12
484.10	220.01
484.28	273.84
484.46	262.14
484.64	212.99
484.82	184.90
485.00	210.65
485.18	234.05
485.35	245.76
485.53	205.97
485.71	278.52
485.89	210.65
486.07	306.61
486.25	294.91
486.43	229.37
486.61	217.67
486.78	215.33
486.96	299.59
487.14	238.73
487.32	222.35
487.50	255.12
487.68	287.89
487.85	224.69
488.03	322.99
488.21	262.14
488.39	304.27
488.57	252.78
488.75	222.35
488.92	493.85
489.10	257.46
489.28	248.10
489.46	238.73
489.64	220.01
489.81	234.05
489.99	285.55
490.17	168.52
490.35	353.42
490.53	255.12
490.70	187.24
490.88	313.63
491.06	313.63
491.24	278.52
491.41	297.25
491.59	301.93
491.77	236.39
491.95	278.52
492.13	234.05
492.30	191.92
492.48	262.14
492.66	248.10
492.84	273.84
493.01	271.50
493.19	273.84
493.37	241.08
493.54	318.31
493.72	292.57
493.90	269.16
494.08	252.78
494.25	287.89
494.43	252.78
494.61	217.67
494.79	217.67
494.96	201.29
495.14	322.99
495.32	229.37
495.49	252.78
495.67	290.23
495.85	212.99
496.02	287.89
496.20	236.39
496.38	241.08
496.55	262.14
496.73	276.18
496.91	198.95
497.09	194.26
497.26	217.67
497.44	252.78
497.62	215.33
497.79	210.65
497.97	262.14
498.14	315.97
498.32	262.14
498.50	273.84
498.67	238.73
498.85	285.55
499.03	322.99
499.20	250.44
499.38	297.25
499.56	252.78
499.73	353.42
499.91	271.50
500.08	266.82
500.26	271.50
500.44	191.92
500.61	320.65
500.79	259.80
500.97	304.27
501.14	248.10
501.32	227.03
501.49	238.73
501.67	231.71
501.84	276.18
502.02	184.90
502.20	264.48
502.37	229.37
502.55	257.46
502.72	236.39
502.90	227.03
503.07	241.08
503.25	294.91
503.43	301.93
503.60	292.57
503.78	217.67
503.95	278.52
504.13	308.95
504.30	292.57
504.48	224.69
504.65	227.03
504.83	208.31
505.01	234.05
505.18	243.42
505.36	285.55
505.53	294.91
505.71	308.95
505.88	215.33
506.06	212.99
506.23	177.88
506.41	241.08
506.58	313.63
506.76	231.71
506.93	248.10
507.11	212.99
507.28	236.39
507.46	262.14
507.63	285.55
507.81	334.70
507.98	280.86
508.16	276.18
508.33	234.05
508.50	315.97
508.68	278.52
508.85	238.73
509.03	262.14
509.20	280.86
509.38	311.29
509.55	318.31
509.73	257.46
509.90	273.84
510.08	203.63
510.25	175.54
510.42	248.10
510.60	252.78
510.77	280.86
510.95	283.20
511.12	299.59
511.30	407.25
511.47	294.91
511.64	311.29
511.82	252.78
511.99	196.60
512.17	299.59
512.34	362.78
512.51	292.57
512.69	205.97
512.86	292.57
513.04	217.67
513.21	283.20
513.38	241.08
513.56	294.91
513.73	259.80
513.90	198.95
514.08	259.80
514.25	243.42
514.43	217.67
514.60	201.29
514.77	285.55
514.95	334.70
515.12	351.08
515.29	332.36
515.47	322.99
515.64	311.29
515.81	271.50
515.99	308.95
516.16	220.01
516.33	229.37
516.51	238.73
516.68	231.71
516.85	220.01
517.03	278.52
517.20	259.80
517.37	243.42
517.54	250.44
517.72	227.03
517.89	259.80
518.06	236.39
518.24	299.59
518.41	337.04
518.58	348.74
518.75	241.08
518.93	273.84
519.10	222.35
519.27	287.89
519.45	306.61
519.62	259.80
519.79	315.97
519.96	306.61
520.14	266.82
520.31	308.95
520.48	344.06
520.65	344.06
520.83	180.22
521.00	231.71
521.17	308.95
521.34	229.37
521.52	287.89
521.69	297.25
521.86	252.78
522.03	313.63
522.20	383.85
522.38	255.12
522.55	313.63
522.72	273.84
522.89	276.18
523.07	236.39
523.24	271.50
523.41	222.35
523.58	299.59
523.75	273.84
523.92	250.44
524.10	287.89
524.27	297.25
524.44	252.78
524.61	266.82
524.78	147.45
524.96	257.46
525.13	266.82
525.30	294.91
525.47	276.18
525.64	250.44
525.81	273.84
525.98	297.25
526.16	276.18
526.33	278.52
526.50	245.76
526.67	257.46
526.84	250.44
527.01	257.46
527.18	264.48
527.36	248.10
527.53	229.37
527.70	294.91
527.87	283.20
528.04	346.40
528.21	245.76
528.38	276.18
528.55	283.20
528.72	344.06
528.89	327.68
529.07	250.44
529.24	287.89
529.41	287.89
529.58	259.80
529.75	276.18
529.92	252.78
530.09	297.25
530.26	280.86
530.43	252.78
530.60	278.52
530.77	285.55
530.94	332.36
531.11	313.63
531.28	276.18
531.46	360.44
531.63	278.52
531.80	311.29
531.97	341.72
532.14	341.72
532.31	311.29
532.48	327.68
532.65	395.55
532.82	372.15
532.99	407.25
533.16	353.42
533.33	322.99
533.50	325.33
533.67	367.46
533.84	430.66
534.01	442.36
534.18	472.79
534.35	425.98
534.52	318.31
534.69	381.51
534.86	318.31
535.03	234.05
535.20	283.20
535.37	262.14
535.54	243.42
535.71	297.25
535.88	322.99
536.05	285.55
536.22	304.27
536.38	229.37
536.55	304.27
536.72	290.23
536.89	301.93
537.06	311.29
537.23	313.63
537.40	365.12
537.57	306.61
537.74	285.55
537.91	418.96
538.08	358.10
538.25	372.15
538.42	306.61
538.59	341.72
538.75	283.20
538.92	330.02
539.09	355.76
539.26	390.87
539.43	550.03
539.60	1224.10
539.77	1860.73
539.94	1888.81
540.11	1277.93
540.28	917.49
540.44	681.10
540.61	547.69
540.78	430.66
540.95	484.49
541.12	484.49
541.29	510.24
541.46	571.09
541.62	531.30
541.79	514.92
541.96	482.15
542.13	463.43
542.30	484.49
542.47	489.17
542.63	514.92
542.80	510.24
542.97	442.36
543.14	407.25
543.31	458.74
543.48	442.36
543.64	594.50
543.81	444.70
543.98	397.89
544.15	444.70
544.32	470.45
544.48	440.02
544.65	491.51
544.82	489.17
544.99	409.59
545.16	491.51
545.32	454.06
545.49	674.07
545.66	877.70
545.83	926.85
546.00	809.83
546.16	592.16
546.33	557.05
546.50	435.34
546.67	505.56
546.83	442.36
547.00	442.36
547.17	344.06
547.34	388.53
547.50	395.55
547.67	381.51
547.84	332.36
548.00	447.04
548.17	362.78
548.34	330.02
548.51	367.46
548.67	344.06
548.84	372.15
549.01	418.96
549.18	327.68
549.34	367.46
549.51	395.55
549.68	306.61
549.84	360.44
550.01	339.38
550.18	376.83
550.34	386.19
550.51	318.31
550.68	285.55
550.84	266.82
551.01	266.82
551.18	339.38
551.34	255.12
551.51	334.70
551.68	252.78
551.84	369.80
552.01	313.63
552.18	276.18
552.34	334.70
552.51	250.44
552.68	308.95
552.84	259.80
553.01	299.59
553.18	299.59
553.34	222.35
553.51	339.38
553.67	330.02
553.84	337.04
554.01	205.97
554.17	250.44
554.34	266.82
554.51	241.08
554.67	297.25
554.84	266.82
555.00	264.48
555.17	308.95
555.33	334.70
555.50	238.73
555.67	273.84
555.83	262.14
556.00	407.25
556.16	416.62
556.33	301.93
556.50	290.23
556.66	238.73
556.83	220.01
556.99	248.10
557.16	325.33
557.32	285.55
557.49	301.93
557.65	278.52
557.82	248.10
557.98	322.99
558.15	229.37
558.32	224.69
558.48	294.91
558.65	301.93
558.81	278.52
558.98	273.84
559.14	273.84
559.31	278.52
559.47	238.73
559.64	259.80
559.80	276.18
559.97	220.01
560.13	224.69
560.30	276.18
560.46	290.23
560.63	297.25
560.79	280.86
560.96	262.14
561.12	271.50
561.29	280.86
561.45	283.20
561.61	262.14
561.78	374.49
561.94	217.67
562.11	262.14
562.27	311.29
562.44	248.10
562.60	266.82
562.77	290.23
562.93	318.31
563.10	283.20
563.26	266.82
563.42	257.46
563.59	264.48
563.75	189.58
563.92	224.69
564.08	304.27
564.24	311.29
564.41	292.57
564.57	212.99
564.74	245.76
564.90	236.39
565.07	292.57
565.23	280.86
565.39	287.89
565.56	322.99
565.72	184.90
565.88	227.03
566.05	313.63
566.21	280.86
566.38	299.59
566.54	264.48
566.70	248.10
566.87	287.89
567.03	241.08
567.19	297.25
567.36	238.73
567.52	220.01
567.68	241.08
567.85	337.04
568.01	236.39
568.17	276.18
568.34	315.97
568.50	301.93
568.66	287.89
568.83	301.93
568.99	320.65
569.15	294.91
569.32	330.02
569.48	334.70
569.64	175.54
569.81	231.71
569.97	257.46
570.13	252.78
570.30	292.57
570.46	306.61
570.62	311.29
570.78	266.82
570.95	215.33
571.11	243.42
571.27	283.20
571.43	245.76
571.60	259.80
571.76	245.76
571.92	248.10
572.09	290.23
572.25	196.60
572.41	285.55
572.57	229.37
572.74	325.33
572.90	325.33
573.06	259.80
573.22	287.89
573.38	250.44
573.55	383.85
573.71	315.97
573.87	215.33
574.03	315.97
574.20	255.12
574.36	339.38
574.52	365.12
574.68	479.81
574.84	447.04
575.01	353.42
575.17	400.23
575.33	334.70
575.49	353.42
575.65	236.39
575.82	365.12
575.98	650.67
576.14	798.12
576.30	802.80
576.46	760.67
576.62	575.77
576.79	526.62
576.95	440.02
577.11	397.89
577.27	313.63
577.43	386.19
577.59	346.40
577.75	276.18
577.92	273.84
578.08	285.55
578.24	360.44
578.40	365.12
578.56	400.23
578.72	430.66
578.88	449.38
579.04	456.40
579.21	351.08
579.37	372.15
579.53	339.38
579.69	358.10
579.85	313.63
580.01	437.68
580.17	433.00
580.33	451.72
580.49	442.36
580.65	493.85
580.82	353.42
580.98	369.80
581.14	407.25
581.30	442.36
581.46	538.32
581.62	706.84
581.78	748.97
581.94	744.29
582.10	568.75
582.26	589.82
582.42	517.26
582.58	573.43
582.74	503.22
582.90	657.69
583.06	547.69
583.22	512.58
583.38	631.94
583.54	606.20
583.70	732.59
583.86	812.17
584.02	924.51
584.18	1093.03
584.34	1371.55
584.50	3576.34
584.66	27021.48
584.82	59632.17
584.98	65535.00
585.14	65535.00
585.30	53633.38
585.46	34031.39
585.62	20610.76
585.78	9591.52
585.94	3925.08
586.10	1872.43
586.26	1263.89
586.42	1107.07
586.58	894.08
586.74	695.14
586.90	791.10
587.06	746.63
587.22	709.18
587.38	681.10
587.54	1483.90
587.70	3887.63
587.86	6539.46
588.02	7517.80
588.18	5343.44
588.34	3384.41
588.49	2221.17
588.65	1432.41
588.81	720.88
588.97	458.74
589.13	458.74
589.29	379.17
589.45	433.00
589.61	407.25
589.77	500.87
589.93	524.28
590.08	535.98
590.24	526.62
590.40	503.22
590.56	547.69
590.72	458.74
590.88	383.85
591.04	423.64
591.20	416.62
591.35	414.27
591.51	440.02
591.67	428.32
591.83	383.85
591.99	421.30
592.15	416.62
592.31	416.62
592.46	428.32
592.62	404.91
592.78	435.34
592.94	416.62
593.10	393.21
593.26	388.53
593.41	477.47
593.57	491.51
593.73	699.82
593.89	3197.17
594.05	8498.49
594.20	12507.82
594.36	11974.18
594.52	7932.08
594.68	4973.64
594.84	3286.11
594.99	1849.02
595.15	910.47
595.31	585.13
595.47	571.09
595.62	372.15
595.78	400.23
595.94	409.59
596.10	411.93
596.25	435.34
596.41	463.43
596.57	456.40
596.73	376.83
596.88	580.45
597.04	1577.52
597.20	2644.81
597.36	3075.46
597.51	2387.35
597.67	1661.78
597.83	976.00
597.99	856.64
598.14	580.45
598.30	444.70
598.46	351.08
598.61	435.34
598.77	341.72
598.93	330.02
599.09	376.83
599.24	393.21
599.40	386.19
599.56	311.29
599.71	264.48
599.87	285.55
600.03	372.15
600.18	266.82
600.34	365.12
600.50	313.63
600.65	339.38
600.81	315.97
600.97	351.08
601.12	341.72
601.28	283.20
601.44	360.44
601.59	379.17
601.75	367.46
601.91	252.78
602.06	435.34
602.22	470.45
602.37	835.57
602.53	1942.64
602.69	3063.76
602.84	3157.38
603.00	2441.18
603.16	1614.97
603.31	1200.69
603.47	800.46
603.62	510.24
603.78	337.04
603.94	332.36
604.09	355.76
604.25	367.46
604.40	327.68
604.56	248.10
604.71	334.70
604.87	271.50
605.03	348.74
605.18	360.44
605.34	346.40
605.49	313.63
605.65	404.91
605.80	353.42
605.96	369.80
606.12	337.04
606.27	386.19
606.43	407.25
606.58	433.00
606.74	985.37
606.89	4077.21
607.05	7918.03
607.20	10698.59
607.36	8858.93
607.51	6078.37
607.67	3794.01
607.82	2768.85
607.98	1418.36
608.13	844.93
608.29	578.11
608.44	538.32
608.60	514.92
608.75	615.56
608.91	1409.00
609.06	5984.75
609.22	13771.71
609.37	18586.19
609.53	16657.59
609.68	10993.50
609.84	7243.96
609.99	4650.64
