SpectraSuite Data File
++++++++++++++++++++++++++++++++++++
Date: Fri Oct 04 11:34:01 GMT-05:00 2013
User: price-jones
Dark Spectrum Present: No
Reference Spectrum Present: No
Number of Sampled Component Spectra: 1
Spectrometers: USB2+H05261
Integration Time (usec): 100000 (USB2+H05261)
Spectra Averaged: 1 (USB2+H05261)
Boxcar Smoothing: 0 (USB2+H05261)
Correct for Electrical Dark: No (USB2+H05261)
Strobe/Lamp Enabled: No (USB2+H05261)
Correct for Detector Non-linearity: No (USB2+H05261)
Correct for Stray Light: No (USB2+H05261)
Number of Pixels in Processed Spectrum: 2048
>>>>>Begin Processed Spectral Data<<<<<
365.73	67.88
365.92	67.88
366.12	67.88
366.32	0.00
366.52	16.38
366.72	4.68
366.91	7.02
367.11	0.00
367.31	0.00
367.51	0.00
367.70	0.00
367.90	0.00
368.10	7.02
368.30	0.00
368.49	7.02
368.69	65.54
368.89	0.00
369.09	0.00
369.28	0.00
369.48	0.00
369.68	46.81
369.87	84.26
370.07	0.00
370.27	74.90
370.47	63.19
370.66	56.17
370.86	44.47
371.06	28.09
371.25	156.82
371.45	70.22
371.65	114.69
371.84	91.28
372.04	86.60
372.24	72.56
372.44	105.32
372.63	105.32
372.83	224.69
373.03	212.99
373.22	100.64
373.42	147.45
373.62	79.58
373.81	128.73
374.01	170.86
374.21	180.22
374.40	131.07
374.60	208.31
374.79	131.07
374.99	194.26
375.19	177.88
375.38	205.97
375.58	95.96
375.78	107.66
375.97	189.58
376.17	196.60
376.37	114.69
376.56	159.16
376.76	88.94
376.95	138.09
377.15	184.90
377.35	154.48
377.54	117.03
377.74	135.75
377.93	112.35
378.13	154.48
378.33	166.18
378.52	135.75
378.72	119.37
378.91	210.65
379.11	88.94
379.31	140.43
379.50	56.17
379.70	140.43
379.89	184.90
380.09	74.90
380.28	128.73
380.48	177.88
380.68	117.03
380.87	159.16
381.07	88.94
381.26	161.50
381.46	149.79
381.65	126.39
381.85	161.50
382.04	88.94
382.24	166.18
382.43	138.09
382.63	135.75
382.83	126.39
383.02	128.73
383.22	124.05
383.41	84.26
383.61	180.22
383.80	175.54
384.00	65.54
384.19	180.22
384.39	177.88
384.58	84.26
384.78	166.18
384.97	138.09
385.17	191.92
385.36	140.43
385.56	191.92
385.75	63.19
385.95	117.03
386.14	114.69
386.34	119.37
386.53	98.30
386.72	81.92
386.92	180.22
387.11	79.58
387.31	149.79
387.50	138.09
387.70	124.05
387.89	196.60
388.09	135.75
388.28	166.18
388.48	154.48
388.67	194.26
388.86	145.11
389.06	159.16
389.25	184.90
389.45	102.98
389.64	100.64
389.84	194.26
390.03	117.03
390.22	135.75
390.42	128.73
390.61	142.77
390.81	138.09
391.00	168.52
391.19	126.39
391.39	170.86
391.58	196.60
391.78	138.09
391.97	177.88
392.16	124.05
392.36	147.45
392.55	166.18
392.75	63.19
392.94	86.60
393.13	175.54
393.33	154.48
393.52	145.11
393.71	201.29
393.91	126.39
394.10	184.90
394.29	117.03
394.49	248.10
394.68	241.08
394.88	163.84
395.07	128.73
395.26	154.48
395.46	58.51
395.65	177.88
395.84	173.20
396.04	173.20
396.23	140.43
396.42	187.24
396.62	201.29
396.81	124.05
397.00	138.09
397.19	147.45
397.39	191.92
397.58	161.50
397.77	121.71
397.97	140.43
398.16	184.90
398.35	112.35
398.55	84.26
398.74	140.43
398.93	140.43
399.12	124.05
399.32	180.22
399.51	189.58
399.70	163.84
399.90	189.58
400.09	215.33
400.28	152.13
400.47	98.30
400.67	180.22
400.86	124.05
401.05	100.64
401.24	140.43
401.44	187.24
401.63	182.56
401.82	140.43
402.01	93.62
402.21	220.01
402.40	91.28
402.59	175.54
402.78	156.82
402.97	51.49
403.17	117.03
403.36	159.16
403.55	168.52
403.74	128.73
403.93	205.97
404.13	278.52
404.32	210.65
404.51	229.37
404.70	243.42
404.89	170.86
405.09	170.86
405.28	91.28
405.47	208.31
405.66	147.45
405.85	180.22
406.05	133.41
406.24	147.45
406.43	163.84
406.62	201.29
406.81	215.33
407.00	163.84
407.20	119.37
407.39	133.41
407.58	142.77
407.77	133.41
407.96	140.43
408.15	220.01
408.34	184.90
408.54	184.90
408.73	184.90
408.92	161.50
409.11	177.88
409.30	117.03
409.49	163.84
409.68	156.82
409.87	173.20
410.07	208.31
410.26	154.48
410.45	170.86
410.64	231.71
410.83	128.73
411.02	152.13
411.21	208.31
411.40	142.77
411.59	147.45
411.78	98.30
411.98	163.84
412.17	67.88
412.36	135.75
412.55	180.22
412.74	166.18
412.93	248.10
413.12	100.64
413.31	210.65
413.50	180.22
413.69	138.09
413.88	175.54
414.07	152.13
414.26	95.96
414.45	154.48
414.64	114.69
414.83	107.66
415.02	175.54
415.22	229.37
415.41	217.67
415.60	173.20
415.79	177.88
415.98	184.90
416.17	152.13
416.36	189.58
416.55	133.41
416.74	149.79
416.93	194.26
417.12	121.71
417.31	110.01
417.50	191.92
417.69	248.10
417.88	224.69
418.07	135.75
418.26	220.01
418.45	166.18
418.64	262.14
418.83	280.86
419.02	191.92
419.21	187.24
419.39	201.29
419.58	201.29
419.77	180.22
419.96	229.37
420.15	201.29
420.34	131.07
420.53	210.65
420.72	215.33
420.91	133.41
421.10	203.63
421.29	191.92
421.48	205.97
421.67	203.63
421.86	147.45
422.05	196.60
422.24	131.07
422.43	159.16
422.61	184.90
422.80	152.13
422.99	177.88
423.18	201.29
423.37	248.10
423.56	198.95
423.75	220.01
423.94	217.67
424.13	168.52
424.32	194.26
424.50	161.50
424.69	191.92
424.88	126.39
425.07	208.31
425.26	238.73
425.45	297.25
425.64	266.82
425.83	203.63
426.01	285.55
426.20	255.12
426.39	259.80
426.58	224.69
426.77	149.79
426.96	166.18
427.15	119.37
427.33	156.82
427.52	131.07
427.71	222.35
427.90	217.67
428.09	145.11
428.28	98.30
428.46	159.16
428.65	177.88
428.84	175.54
429.03	266.82
429.22	161.50
429.40	175.54
429.59	168.52
429.78	163.84
429.97	180.22
430.16	191.92
430.34	182.56
430.53	170.86
430.72	205.97
430.91	175.54
431.10	142.77
431.28	238.73
431.47	229.37
431.66	205.97
431.85	203.63
432.03	112.35
432.22	175.54
432.41	189.58
432.60	255.12
432.79	112.35
432.97	283.20
433.16	257.46
433.35	222.35
433.54	215.33
433.72	266.82
433.91	231.71
434.10	196.60
434.28	229.37
434.47	241.08
434.66	205.97
434.85	191.92
435.03	227.03
435.22	290.23
435.41	512.58
435.59	442.36
435.78	367.46
435.97	301.93
436.16	234.05
436.34	205.97
436.53	220.01
436.72	159.16
436.90	234.05
437.09	224.69
437.28	187.24
437.46	166.18
437.65	215.33
437.84	161.50
438.02	189.58
438.21	184.90
438.40	161.50
438.58	168.52
438.77	187.24
438.96	184.90
439.14	243.42
439.33	280.86
439.52	170.86
439.70	189.58
439.89	177.88
440.08	201.29
440.26	175.54
440.45	198.95
440.63	175.54
440.82	170.86
441.01	217.67
441.19	163.84
441.38	234.05
441.57	152.13
441.75	227.03
441.94	238.73
442.12	170.86
442.31	95.96
442.50	152.13
442.68	170.86
442.87	184.90
443.05	126.39
443.24	161.50
443.43	198.95
443.61	217.67
443.80	133.41
443.98	189.58
444.17	217.67
444.35	156.82
444.54	187.24
444.73	198.95
444.91	152.13
445.10	159.16
445.28	147.45
445.47	166.18
445.65	241.08
445.84	93.62
446.02	112.35
446.21	170.86
446.39	241.08
446.58	154.48
446.77	173.20
446.95	245.76
447.14	205.97
447.32	250.44
447.51	215.33
447.69	124.05
447.88	145.11
448.06	234.05
448.25	163.84
448.43	182.56
448.62	184.90
448.80	222.35
448.99	243.42
449.17	187.24
449.36	119.37
449.54	198.95
449.73	180.22
449.91	222.35
450.10	215.33
450.28	252.78
450.46	280.86
450.65	252.78
450.83	191.92
451.02	149.79
451.20	147.45
451.39	156.82
451.57	229.37
451.76	191.92
451.94	222.35
452.13	320.65
452.31	273.84
452.49	215.33
452.68	140.43
452.86	126.39
453.05	220.01
453.23	187.24
453.42	184.90
453.60	156.82
453.78	210.65
453.97	194.26
454.15	203.63
454.34	180.22
454.52	191.92
454.70	152.13
454.89	191.92
455.07	175.54
455.26	196.60
455.44	187.24
455.62	184.90
455.81	168.52
455.99	180.22
456.17	210.65
456.36	175.54
456.54	147.45
456.73	201.29
456.91	177.88
457.09	191.92
457.28	238.73
457.46	149.79
457.64	227.03
457.83	149.79
458.01	156.82
458.19	259.80
458.38	198.95
458.56	217.67
458.74	201.29
458.93	161.50
459.11	220.01
459.29	163.84
459.48	147.45
459.66	252.78
459.84	287.89
460.03	220.01
460.21	184.90
460.39	234.05
460.57	189.58
460.76	241.08
460.94	173.20
461.12	245.76
461.31	212.99
461.49	208.31
461.67	177.88
461.85	222.35
462.04	161.50
462.22	669.39
462.40	210.65
462.59	241.08
462.77	194.26
462.95	154.48
463.13	156.82
463.32	262.14
463.50	212.99
463.68	227.03
463.86	173.20
464.05	154.48
464.23	198.95
464.41	163.84
464.59	163.84
464.78	205.97
464.96	147.45
465.14	229.37
465.32	222.35
465.50	215.33
465.69	170.86
465.87	140.43
466.05	159.16
466.23	154.48
466.41	222.35
466.60	173.20
466.78	131.07
466.96	212.99
467.14	133.41
467.32	168.52
467.51	145.11
467.69	203.63
467.87	236.39
468.05	149.79
468.23	159.16
468.41	184.90
468.60	117.03
468.78	215.33
468.96	205.97
469.14	220.01
469.32	177.88
469.50	177.88
469.69	215.33
469.87	231.71
470.05	159.16
470.23	173.20
470.41	210.65
470.59	163.84
470.77	161.50
470.95	241.08
471.14	168.52
471.32	128.73
471.50	175.54
471.68	203.63
471.86	203.63
472.04	245.76
472.22	203.63
472.40	154.48
472.58	124.05
472.77	250.44
472.95	168.52
473.13	255.12
473.31	196.60
473.49	135.75
473.67	278.52
473.85	133.41
474.03	203.63
474.21	205.97
474.39	259.80
474.57	189.58
474.75	201.29
474.93	159.16
475.12	95.96
475.30	170.86
475.48	191.92
475.66	189.58
475.84	215.33
476.02	220.01
476.20	182.56
476.38	128.73
476.56	241.08
476.74	191.92
476.92	175.54
477.10	224.69
477.28	250.44
477.46	142.77
477.64	149.79
477.82	145.11
478.00	269.16
478.18	154.48
478.36	140.43
478.54	220.01
478.72	224.69
478.90	159.16
479.08	184.90
479.26	220.01
479.44	255.12
479.62	252.78
479.80	203.63
479.98	283.20
480.16	238.73
480.34	198.95
480.52	203.63
480.70	250.44
480.88	177.88
481.06	147.45
481.24	259.80
481.41	138.09
481.59	308.95
481.77	271.50
481.95	201.29
482.13	210.65
482.31	168.52
482.49	198.95
482.67	175.54
482.85	215.33
483.03	278.52
483.21	250.44
483.39	170.86
483.57	252.78
483.74	231.71
483.92	257.46
484.10	245.76
484.28	344.06
484.46	241.08
484.64	241.08
484.82	175.54
485.00	215.33
485.18	238.73
485.35	238.73
485.53	203.63
485.71	287.89
485.89	217.67
486.07	187.24
486.25	322.99
486.43	245.76
486.61	198.95
486.78	262.14
486.96	182.56
487.14	180.22
487.32	252.78
487.50	203.63
487.68	297.25
487.85	255.12
488.03	259.80
488.21	259.80
488.39	189.58
488.57	231.71
488.75	276.18
488.92	538.32
489.10	259.80
489.28	259.80
489.46	208.31
489.64	315.97
489.81	311.29
489.99	297.25
490.17	266.82
490.35	306.61
490.53	198.95
490.70	241.08
490.88	229.37
491.06	234.05
491.24	255.12
491.41	306.61
491.59	264.48
491.77	259.80
491.95	182.56
492.13	299.59
492.30	177.88
492.48	241.08
492.66	210.65
492.84	177.88
493.01	243.42
493.19	264.48
493.37	308.95
493.54	222.35
493.72	205.97
493.90	243.42
494.08	250.44
494.25	292.57
494.43	220.01
494.61	264.48
494.79	210.65
494.96	294.91
495.14	287.89
495.32	227.03
495.49	379.17
495.67	196.60
495.85	210.65
496.02	194.26
496.20	297.25
496.38	313.63
496.55	236.39
496.73	280.86
496.91	257.46
497.09	224.69
497.26	184.90
497.44	187.24
497.62	245.76
497.79	285.55
497.97	208.31
498.14	248.10
498.32	241.08
498.50	266.82
498.67	266.82
498.85	194.26
499.03	241.08
499.20	287.89
499.38	229.37
499.56	217.67
499.73	287.89
499.91	285.55
500.08	262.14
500.26	283.20
500.44	292.57
500.61	259.80
500.79	243.42
500.97	257.46
501.14	299.59
501.32	255.12
501.49	278.52
501.67	245.76
501.84	264.48
502.02	243.42
502.20	292.57
502.37	294.91
502.55	236.39
502.72	250.44
502.90	306.61
503.07	325.33
503.25	262.14
503.43	330.02
503.60	285.55
503.78	252.78
503.95	210.65
504.13	224.69
504.30	273.84
504.48	245.76
504.65	205.97
504.83	301.93
505.01	250.44
505.18	280.86
505.36	264.48
505.53	257.46
505.71	252.78
505.88	374.49
506.06	196.60
506.23	236.39
506.41	255.12
506.58	264.48
506.76	285.55
506.93	255.12
507.11	318.31
507.28	280.86
507.46	245.76
507.63	290.23
507.81	243.42
507.98	290.23
508.16	276.18
508.33	280.86
508.50	248.10
508.68	231.71
508.85	215.33
509.03	217.67
509.20	238.73
509.38	250.44
509.55	243.42
509.73	273.84
509.90	229.37
510.08	175.54
510.25	229.37
510.42	285.55
510.60	276.18
510.77	278.52
510.95	257.46
511.12	362.78
511.30	315.97
511.47	362.78
511.64	292.57
511.82	266.82
511.99	266.82
512.17	243.42
512.34	262.14
512.51	259.80
512.69	301.93
512.86	294.91
513.04	241.08
513.21	208.31
513.38	205.97
513.56	205.97
513.73	175.54
513.90	231.71
514.08	297.25
514.25	227.03
514.43	283.20
514.60	276.18
514.77	299.59
514.95	297.25
515.12	252.78
515.29	196.60
515.47	325.33
515.64	325.33
515.81	241.08
515.99	283.20
516.16	315.97
516.33	229.37
516.51	285.55
516.68	252.78
516.85	276.18
517.03	212.99
517.20	271.50
517.37	290.23
517.54	264.48
517.72	243.42
517.89	205.97
518.06	180.22
518.24	259.80
518.41	306.61
518.58	322.99
518.75	290.23
518.93	229.37
519.10	341.72
519.27	262.14
519.45	327.68
519.62	269.16
519.79	229.37
519.96	292.57
520.14	231.71
520.31	334.70
520.48	287.89
520.65	276.18
520.83	262.14
521.00	344.06
521.17	177.88
521.34	243.42
521.52	280.86
521.69	173.20
521.86	266.82
522.03	276.18
522.20	313.63
522.38	245.76
522.55	301.93
522.72	154.48
522.89	271.50
523.07	327.68
523.24	290.23
523.41	283.20
523.58	255.12
523.75	273.84
523.92	257.46
524.10	290.23
524.27	304.27
524.44	227.03
524.61	311.29
524.78	255.12
524.96	205.97
525.13	227.03
525.30	318.31
525.47	255.12
525.64	292.57
525.81	287.89
525.98	320.65
526.16	292.57
526.33	212.99
526.50	236.39
526.67	250.44
526.84	271.50
527.01	273.84
527.18	187.24
527.36	292.57
527.53	180.22
527.70	292.57
527.87	243.42
528.04	339.38
528.21	299.59
528.38	386.19
528.55	327.68
528.72	299.59
528.89	346.40
529.07	236.39
529.24	299.59
529.41	273.84
529.58	238.73
529.75	266.82
529.92	311.29
530.09	334.70
530.26	273.84
530.43	269.16
530.60	264.48
530.77	315.97
530.94	266.82
531.11	266.82
531.28	280.86
531.46	245.76
531.63	241.08
531.80	259.80
531.97	292.57
532.14	198.95
532.31	301.93
532.48	327.68
532.65	414.27
532.82	442.36
532.99	304.27
533.16	315.97
533.33	318.31
533.50	294.91
533.67	409.59
533.84	395.55
534.01	376.83
534.18	409.59
534.35	353.42
534.52	355.76
534.69	308.95
534.86	327.68
535.03	266.82
535.20	292.57
535.37	297.25
535.54	250.44
535.71	339.38
535.88	320.65
536.05	311.29
536.22	311.29
536.38	241.08
536.55	367.46
536.72	339.38
536.89	262.14
537.06	271.50
537.23	248.10
537.40	372.15
537.57	362.78
537.74	358.10
537.91	285.55
538.08	208.31
538.25	351.08
538.42	241.08
538.59	248.10
538.75	330.02
538.92	341.72
539.09	353.42
539.26	353.42
539.43	585.13
539.60	1144.52
539.77	1577.52
539.94	1556.46
540.11	1135.16
540.28	723.23
540.44	594.50
540.61	498.53
540.78	503.22
540.95	477.47
541.12	540.66
541.29	533.64
541.46	641.31
541.62	596.84
541.79	496.19
541.96	524.28
542.13	503.22
542.30	524.28
542.47	531.30
542.63	496.19
542.80	552.37
542.97	526.62
543.14	472.79
543.31	510.24
543.48	500.87
543.64	540.66
543.81	538.32
543.98	507.90
544.15	468.11
544.32	517.26
544.48	440.02
544.65	543.00
544.82	557.05
544.99	510.24
545.16	528.96
545.32	554.71
545.49	840.25
545.66	964.30
545.83	1144.52
546.00	999.41
546.16	786.42
546.33	617.90
546.50	503.22
546.67	465.77
546.83	479.81
547.00	475.13
547.17	465.77
547.34	362.78
547.50	353.42
547.67	430.66
547.84	376.83
548.00	397.89
548.17	367.46
548.34	383.85
548.51	458.74
548.67	407.25
548.84	400.23
549.01	421.30
549.18	447.04
549.34	376.83
549.51	332.36
549.68	440.02
549.84	351.08
550.01	402.57
550.18	390.87
550.34	388.53
550.51	428.32
550.68	386.19
550.84	341.72
551.01	369.80
551.18	369.80
551.34	313.63
551.51	372.15
551.68	283.20
551.84	358.10
552.01	355.76
552.18	365.12
552.34	266.82
552.51	330.02
552.68	322.99
552.84	332.36
553.01	365.12
553.18	292.57
553.34	325.33
553.51	318.31
553.67	360.44
553.84	407.25
554.01	330.02
554.17	386.19
554.34	234.05
554.51	266.82
554.67	290.23
554.84	299.59
555.00	306.61
555.17	210.65
555.33	283.20
555.50	344.06
555.67	332.36
555.83	278.52
556.00	311.29
556.16	433.00
556.33	322.99
556.50	294.91
556.66	252.78
556.83	273.84
556.99	285.55
557.16	334.70
557.32	236.39
557.49	311.29
557.65	241.08
557.82	327.68
557.98	234.05
558.15	259.80
558.32	266.82
558.48	276.18
558.65	241.08
558.81	287.89
558.98	212.99
559.14	280.86
559.31	355.76
559.47	320.65
559.64	351.08
559.80	308.95
559.97	287.89
560.13	308.95
560.30	248.10
560.46	245.76
560.63	315.97
560.79	243.42
560.96	311.29
561.12	266.82
561.29	297.25
561.45	306.61
561.61	182.56
561.78	362.78
561.94	229.37
562.11	276.18
562.27	297.25
562.44	280.86
562.60	278.52
562.77	271.50
562.93	292.57
563.10	301.93
563.26	283.20
563.42	332.36
563.59	252.78
563.75	231.71
563.92	383.85
564.08	294.91
564.24	203.63
564.41	344.06
564.57	236.39
564.74	313.63
564.90	248.10
565.07	301.93
565.23	355.76
565.39	290.23
565.56	280.86
565.72	273.84
565.88	278.52
566.05	290.23
566.21	283.20
566.38	245.76
566.54	198.95
566.70	236.39
566.87	264.48
567.03	248.10
567.19	327.68
567.36	315.97
567.52	285.55
567.68	287.89
567.85	264.48
568.01	236.39
568.17	220.01
568.34	208.31
568.50	313.63
568.66	224.69
568.83	308.95
568.99	229.37
569.15	224.69
569.32	264.48
569.48	301.93
569.64	248.10
569.81	308.95
569.97	257.46
570.13	278.52
570.30	257.46
570.46	280.86
570.62	269.16
570.78	243.42
570.95	262.14
571.11	255.12
571.27	306.61
571.43	245.76
571.60	365.12
571.76	269.16
571.92	308.95
572.09	339.38
572.25	238.73
572.41	283.20
572.57	224.69
572.74	339.38
572.90	287.89
573.06	266.82
573.22	273.84
573.38	252.78
573.55	283.20
573.71	262.14
573.87	201.29
574.03	220.01
574.20	278.52
574.36	322.99
574.52	395.55
574.68	390.87
574.84	344.06
575.01	311.29
575.17	374.49
575.33	241.08
575.49	325.33
575.65	294.91
575.82	414.27
575.98	552.37
576.14	608.54
576.30	730.25
576.46	699.82
576.62	559.39
576.79	533.64
576.95	531.30
577.11	376.83
577.27	299.59
577.43	351.08
577.59	304.27
577.75	318.31
577.92	264.48
578.08	285.55
578.24	264.48
578.40	458.74
578.56	449.38
578.72	454.06
578.88	484.49
579.04	470.45
579.21	360.44
579.37	339.38
579.53	355.76
579.69	374.49
579.85	423.64
580.01	442.36
580.17	428.32
580.33	437.68
580.49	386.19
580.65	458.74
580.82	353.42
580.98	297.25
581.14	348.74
581.30	388.53
581.46	465.77
581.62	613.22
581.78	727.91
581.94	585.13
582.10	580.45
582.26	540.66
582.42	425.98
582.58	533.64
582.74	505.56
582.90	510.24
583.06	496.19
583.22	533.64
583.38	482.15
583.54	547.69
583.70	720.88
583.86	732.59
584.02	830.89
584.18	915.15
584.34	1203.04
584.50	2939.71
584.66	21223.98
584.82	53539.75
584.98	63124.25
585.14	59973.89
585.30	44163.57
585.46	27393.63
585.62	16905.69
585.78	7918.03
585.94	3087.17
586.10	1523.69
586.26	1086.01
586.42	945.58
586.58	774.72
586.74	671.73
586.90	657.69
587.06	730.25
587.22	624.92
587.38	645.99
587.54	1128.14
587.70	3253.34
587.86	5305.99
588.02	5799.85
588.18	4304.25
588.34	2698.64
588.49	1797.53
588.65	1170.27
588.81	608.54
588.97	493.85
589.13	440.02
589.29	388.53
589.45	369.80
589.61	367.46
589.77	514.92
589.93	437.68
590.08	524.28
590.24	477.47
590.40	444.70
590.56	425.98
590.72	435.34
590.88	411.93
591.04	404.91
591.20	341.72
591.35	500.87
591.51	428.32
591.67	376.83
591.83	339.38
591.99	330.02
592.15	428.32
592.31	376.83
592.46	365.12
592.62	358.10
592.78	383.85
592.94	456.40
593.10	437.68
593.26	442.36
593.41	411.93
593.57	451.72
593.73	681.10
593.89	2785.24
594.05	6939.69
594.20	10057.28
594.36	9516.62
594.52	6204.76
594.68	3889.97
594.84	2626.08
594.99	1516.67
595.15	788.76
595.31	512.58
595.47	435.34
595.62	404.91
595.78	386.19
595.94	313.63
596.10	411.93
596.25	416.62
596.41	444.70
596.57	299.59
596.73	318.31
596.88	589.82
597.04	1373.89
597.20	2307.77
597.36	2698.64
597.51	1952.01
597.67	1350.49
597.83	999.41
597.99	655.35
598.14	491.51
598.30	461.09
598.46	458.74
598.61	470.45
598.77	402.57
598.93	351.08
599.09	346.40
599.24	351.08
599.40	304.27
599.56	332.36
599.71	313.63
599.87	278.52
600.03	294.91
600.18	330.02
600.34	276.18
600.50	294.91
600.65	346.40
600.81	376.83
600.97	280.86
601.12	290.23
601.28	344.06
601.44	315.97
601.59	227.03
601.75	294.91
601.91	297.25
602.06	290.23
602.22	334.70
602.37	660.03
602.53	1598.59
602.69	2586.29
602.84	2537.14
603.00	1853.70
603.16	1294.32
603.31	1029.84
603.47	692.80
603.62	514.92
603.78	397.89
603.94	337.04
604.09	344.06
604.25	330.02
604.40	322.99
604.56	259.80
604.71	234.05
604.87	299.59
605.03	220.01
605.18	341.72
605.34	374.49
605.49	334.70
605.65	381.51
605.80	259.80
605.96	372.15
606.12	334.70
606.27	362.78
606.43	346.40
606.58	477.47
606.74	828.55
606.89	3183.13
607.05	6548.82
607.20	8652.96
607.36	7070.76
607.51	4802.78
607.67	3222.92
607.82	2218.83
607.98	1256.87
608.13	718.54
608.29	547.69
608.44	514.92
608.60	564.07
608.75	538.32
608.91	1259.21
609.06	4997.04
609.22	11164.36
609.37	14518.34
609.53	13081.25
609.68	8947.87
609.84	5738.99
609.99	3957.85
610.15	2190.74
