SpectraSuite Data File
++++++++++++++++++++++++++++++++++++
Date: Fri Oct 04 11:34:01 GMT-05:00 2013
User: price-jones
Dark Spectrum Present: No
Reference Spectrum Present: No
Number of Sampled Component Spectra: 1
Spectrometers: USB2+H05261
Integration Time (usec): 100000 (USB2+H05261)
Spectra Averaged: 1 (USB2+H05261)
Boxcar Smoothing: 0 (USB2+H05261)
Correct for Electrical Dark: No (USB2+H05261)
Strobe/Lamp Enabled: No (USB2+H05261)
Correct for Detector Non-linearity: No (USB2+H05261)
Correct for Stray Light: No (USB2+H05261)
Number of Pixels in Processed Spectrum: 2048
>>>>>Begin Processed Spectral Data<<<<<
365.73	32.77
365.92	32.77
366.12	32.77
366.32	11.70
366.52	0.00
366.72	2.34
366.91	7.02
367.11	0.00
367.31	0.00
367.51	44.47
367.70	0.00
367.90	0.00
368.10	0.00
368.30	0.00
368.49	0.00
368.69	0.00
368.89	0.00
369.09	0.00
369.28	0.00
369.48	0.00
369.68	23.41
369.87	9.36
370.07	2.34
370.27	30.43
370.47	39.79
370.66	49.15
370.86	28.09
371.06	124.05
371.25	168.52
371.45	65.54
371.65	191.92
371.84	86.60
372.04	88.94
372.24	107.66
372.44	121.71
372.63	166.18
372.83	140.43
373.03	170.86
373.22	145.11
373.42	126.39
373.62	168.52
373.81	224.69
374.01	170.86
374.21	203.63
374.40	126.39
374.60	177.88
374.79	142.77
374.99	198.95
375.19	149.79
375.38	231.71
375.58	187.24
375.78	72.56
375.97	159.16
376.17	215.33
376.37	110.01
376.56	121.71
376.76	91.28
376.95	105.32
377.15	112.35
377.35	175.54
377.54	184.90
377.74	152.13
377.93	138.09
378.13	149.79
378.33	124.05
378.52	149.79
378.72	107.66
378.91	74.90
379.11	133.41
379.31	135.75
379.50	117.03
379.70	100.64
379.89	100.64
380.09	152.13
380.28	138.09
380.48	156.82
380.68	51.49
380.87	119.37
381.07	124.05
381.26	182.56
381.46	191.92
381.65	189.58
381.85	182.56
382.04	117.03
382.24	191.92
382.43	100.64
382.63	133.41
382.83	133.41
383.02	152.13
383.22	210.65
383.41	110.01
383.61	121.71
383.80	203.63
384.00	93.62
384.19	131.07
384.39	194.26
384.58	149.79
384.78	124.05
384.97	149.79
385.17	119.37
385.36	142.77
385.56	152.13
385.75	177.88
385.95	117.03
386.14	142.77
386.34	131.07
386.53	133.41
386.72	161.50
386.92	119.37
387.11	173.20
387.31	154.48
387.50	229.37
387.70	177.88
387.89	187.24
388.09	119.37
388.28	168.52
388.48	161.50
388.67	135.75
388.86	168.52
389.06	135.75
389.25	128.73
389.45	191.92
389.64	177.88
389.84	236.39
390.03	140.43
390.22	152.13
390.42	88.94
390.61	79.58
390.81	138.09
391.00	86.60
391.19	166.18
391.39	154.48
391.58	145.11
391.78	121.71
391.97	107.66
392.16	126.39
392.36	168.52
392.55	159.16
392.75	65.54
392.94	133.41
393.13	166.18
393.33	182.56
393.52	173.20
393.71	208.31
393.91	133.41
394.10	84.26
394.29	112.35
394.49	177.88
394.68	203.63
394.88	84.26
395.07	133.41
395.26	180.22
395.46	117.03
395.65	128.73
395.84	220.01
396.04	191.92
396.23	166.18
396.42	114.69
396.62	128.73
396.81	203.63
397.00	128.73
397.19	145.11
397.39	124.05
397.58	149.79
397.77	114.69
397.97	175.54
398.16	149.79
398.35	196.60
398.55	145.11
398.74	126.39
398.93	177.88
399.12	100.64
399.32	177.88
399.51	161.50
399.70	142.77
399.90	166.18
400.09	191.92
400.28	210.65
400.47	135.75
400.67	149.79
400.86	152.13
401.05	119.37
401.24	152.13
401.44	166.18
401.63	175.54
401.82	182.56
402.01	145.11
402.21	161.50
402.40	168.52
402.59	128.73
402.78	159.16
402.97	128.73
403.17	229.37
403.36	177.88
403.55	79.58
403.74	138.09
403.93	159.16
404.13	220.01
404.32	212.99
404.51	138.09
404.70	227.03
404.89	166.18
405.09	147.45
405.28	102.98
405.47	168.52
405.66	145.11
405.85	187.24
406.05	175.54
406.24	102.98
406.43	154.48
406.62	114.69
406.81	191.92
407.00	121.71
407.20	241.08
407.39	196.60
407.58	105.32
407.77	149.79
407.96	156.82
408.15	173.20
408.34	110.01
408.54	166.18
408.73	168.52
408.92	154.48
409.11	107.66
409.30	177.88
409.49	191.92
409.68	117.03
409.87	182.56
410.07	98.30
410.26	88.94
410.45	152.13
410.64	191.92
410.83	161.50
411.02	91.28
411.21	156.82
411.40	189.58
411.59	67.88
411.78	187.24
411.98	203.63
412.17	126.39
412.36	166.18
412.55	159.16
412.74	145.11
412.93	191.92
413.12	229.37
413.31	191.92
413.50	191.92
413.69	203.63
413.88	133.41
414.07	98.30
414.26	145.11
414.45	124.05
414.64	236.39
414.83	117.03
415.02	220.01
415.22	131.07
415.41	131.07
415.60	177.88
415.79	248.10
415.98	234.05
416.17	182.56
416.36	224.69
416.55	147.45
416.74	227.03
416.93	196.60
417.12	156.82
417.31	135.75
417.50	159.16
417.69	255.12
417.88	140.43
418.07	212.99
418.26	173.20
418.45	156.82
418.64	278.52
418.83	301.93
419.02	255.12
419.21	215.33
419.39	173.20
419.58	184.90
419.77	168.52
419.96	156.82
420.15	243.42
420.34	173.20
420.53	177.88
420.72	212.99
420.91	187.24
421.10	210.65
421.29	121.71
421.48	117.03
421.67	152.13
421.86	194.26
422.05	166.18
422.24	154.48
422.43	159.16
422.61	243.42
422.80	184.90
422.99	124.05
423.18	112.35
423.37	187.24
423.56	184.90
423.75	142.77
423.94	131.07
424.13	180.22
424.32	177.88
424.50	166.18
424.69	145.11
424.88	229.37
425.07	156.82
425.26	210.65
425.45	248.10
425.64	231.71
425.83	276.18
426.01	285.55
426.20	175.54
426.39	194.26
426.58	166.18
426.77	170.86
426.96	138.09
427.15	189.58
427.33	168.52
427.52	119.37
427.71	105.32
427.90	182.56
428.09	168.52
428.28	142.77
428.46	147.45
428.65	175.54
428.84	175.54
429.03	180.22
429.22	170.86
429.40	117.03
429.59	173.20
429.78	227.03
429.97	142.77
430.16	142.77
430.34	163.84
430.53	203.63
430.72	159.16
430.91	168.52
431.10	154.48
431.28	166.18
431.47	222.35
431.66	140.43
431.85	166.18
432.03	131.07
432.22	224.69
432.41	191.92
432.60	194.26
432.79	184.90
432.97	264.48
433.16	332.36
433.35	217.67
433.54	175.54
433.72	227.03
433.91	184.90
434.10	128.73
434.28	210.65
434.47	201.29
434.66	229.37
434.85	184.90
435.03	212.99
435.22	348.74
435.41	468.11
435.59	484.49
435.78	383.85
435.97	248.10
436.16	189.58
436.34	217.67
436.53	224.69
436.72	198.95
436.90	196.60
437.09	166.18
437.28	227.03
437.46	93.62
437.65	189.58
437.84	133.41
438.02	152.13
438.21	217.67
438.40	180.22
438.58	149.79
438.77	184.90
438.96	147.45
439.14	107.66
439.33	215.33
439.52	191.92
439.70	131.07
439.89	266.82
440.08	142.77
440.26	161.50
440.45	189.58
440.63	194.26
440.82	166.18
441.01	212.99
441.19	124.05
441.38	210.65
441.57	142.77
441.75	257.46
441.94	224.69
442.12	191.92
442.31	149.79
442.50	135.75
442.68	243.42
442.87	203.63
443.05	107.66
443.24	180.22
443.43	205.97
443.61	163.84
443.80	133.41
443.98	114.69
444.17	189.58
444.35	227.03
444.54	182.56
444.73	168.52
444.91	196.60
445.10	182.56
445.28	201.29
445.47	187.24
445.65	187.24
445.84	201.29
446.02	210.65
446.21	177.88
446.39	159.16
446.58	175.54
446.77	152.13
446.95	138.09
447.14	198.95
447.32	196.60
447.51	210.65
447.69	159.16
447.88	180.22
448.06	241.08
448.25	191.92
448.43	191.92
448.62	119.37
448.80	187.24
448.99	234.05
449.17	121.71
449.36	159.16
449.54	149.79
449.73	194.26
449.91	180.22
450.10	156.82
450.28	245.76
450.46	224.69
450.65	208.31
450.83	231.71
451.02	217.67
451.20	222.35
451.39	159.16
451.57	119.37
451.76	234.05
451.94	231.71
452.13	182.56
452.31	191.92
452.49	208.31
452.68	128.73
452.86	170.86
453.05	241.08
453.23	161.50
453.42	210.65
453.60	227.03
453.78	110.01
453.97	133.41
454.15	215.33
454.34	264.48
454.52	135.75
454.70	252.78
454.89	201.29
455.07	203.63
455.26	210.65
455.44	180.22
455.62	175.54
455.81	117.03
455.99	189.58
456.17	259.80
456.36	189.58
456.54	222.35
456.73	236.39
456.91	191.92
457.09	154.48
457.28	234.05
457.46	147.45
457.64	243.42
457.83	107.66
458.01	145.11
458.19	86.60
458.38	212.99
458.56	149.79
458.74	245.76
458.93	175.54
459.11	184.90
459.29	201.29
459.48	210.65
459.66	212.99
459.84	212.99
460.03	255.12
460.21	93.62
460.39	227.03
460.57	227.03
460.76	241.08
460.94	201.29
461.12	266.82
461.31	212.99
461.49	110.01
461.67	212.99
461.85	187.24
462.04	220.01
462.22	610.88
462.40	100.64
462.59	212.99
462.77	187.24
462.95	205.97
463.13	217.67
463.32	250.44
463.50	159.16
463.68	156.82
463.86	187.24
464.05	187.24
464.23	276.18
464.41	210.65
464.59	168.52
464.78	180.22
464.96	166.18
465.14	163.84
465.32	156.82
465.50	196.60
465.69	182.56
465.87	229.37
466.05	224.69
466.23	163.84
466.41	159.16
466.60	208.31
466.78	189.58
466.96	203.63
467.14	163.84
467.32	252.78
467.51	236.39
467.69	283.20
467.87	191.92
468.05	173.20
468.23	236.39
468.41	271.50
468.60	119.37
468.78	255.12
468.96	140.43
469.14	238.73
469.32	212.99
469.50	177.88
469.69	159.16
469.87	201.29
470.05	154.48
470.23	159.16
470.41	205.97
470.59	163.84
470.77	250.44
470.95	177.88
471.14	215.33
471.32	224.69
471.50	266.82
471.68	196.60
471.86	229.37
472.04	266.82
472.22	196.60
472.40	212.99
472.58	166.18
472.77	159.16
472.95	234.05
473.13	243.42
473.31	173.20
473.49	166.18
473.67	201.29
473.85	215.33
474.03	194.26
474.21	145.11
474.39	227.03
474.57	208.31
474.75	208.31
474.93	208.31
475.12	131.07
475.30	168.52
475.48	229.37
475.66	238.73
475.84	201.29
476.02	163.84
476.20	234.05
476.38	161.50
476.56	372.15
476.74	187.24
476.92	292.57
477.10	201.29
477.28	175.54
477.46	170.86
477.64	238.73
477.82	266.82
478.00	203.63
478.18	208.31
478.36	147.45
478.54	161.50
478.72	217.67
478.90	238.73
479.08	198.95
479.26	234.05
479.44	182.56
479.62	149.79
479.80	121.71
479.98	241.08
480.16	205.97
480.34	252.78
480.52	241.08
480.70	276.18
480.88	250.44
481.06	203.63
481.24	131.07
481.41	222.35
481.59	205.97
481.77	320.65
481.95	173.20
482.13	241.08
482.31	173.20
482.49	222.35
482.67	166.18
482.85	276.18
483.03	163.84
483.21	236.39
483.39	194.26
483.57	203.63
483.74	252.78
483.92	234.05
484.10	182.56
484.28	215.33
484.46	299.59
484.64	201.29
484.82	241.08
485.00	215.33
485.18	234.05
485.35	236.39
485.53	180.22
485.71	327.68
485.89	212.99
486.07	191.92
486.25	222.35
486.43	243.42
486.61	236.39
486.78	248.10
486.96	280.86
487.14	273.84
487.32	241.08
487.50	189.58
487.68	264.48
487.85	266.82
488.03	257.46
488.21	234.05
488.39	173.20
488.57	266.82
488.75	250.44
488.92	521.94
489.10	255.12
489.28	372.15
489.46	231.71
489.64	215.33
489.81	250.44
489.99	276.18
490.17	238.73
490.35	257.46
490.53	245.76
490.70	227.03
490.88	245.76
491.06	276.18
491.24	238.73
491.41	301.93
491.59	234.05
491.77	245.76
491.95	248.10
492.13	283.20
492.30	220.01
492.48	318.31
492.66	259.80
492.84	273.84
493.01	222.35
493.19	227.03
493.37	311.29
493.54	248.10
493.72	217.67
493.90	248.10
494.08	241.08
494.25	292.57
494.43	250.44
494.61	212.99
494.79	238.73
494.96	184.90
495.14	236.39
495.32	318.31
495.49	320.65
495.67	266.82
495.85	292.57
496.02	304.27
496.20	262.14
496.38	210.65
496.55	278.52
496.73	297.25
496.91	203.63
497.09	313.63
497.26	273.84
497.44	241.08
497.62	227.03
497.79	194.26
497.97	198.95
498.14	189.58
498.32	224.69
498.50	234.05
498.67	262.14
498.85	212.99
499.03	163.84
499.20	205.97
499.38	269.16
499.56	273.84
499.73	304.27
499.91	301.93
500.08	255.12
500.26	315.97
500.44	187.24
500.61	234.05
500.79	241.08
500.97	271.50
501.14	299.59
501.32	320.65
501.49	259.80
501.67	208.31
501.84	273.84
502.02	262.14
502.20	285.55
502.37	271.50
502.55	257.46
502.72	285.55
502.90	290.23
503.07	290.23
503.25	266.82
503.43	255.12
503.60	243.42
503.78	325.33
503.95	236.39
504.13	173.20
504.30	290.23
504.48	278.52
504.65	325.33
504.83	273.84
505.01	170.86
505.18	325.33
505.36	189.58
505.53	238.73
505.71	294.91
505.88	280.86
506.06	229.37
506.23	212.99
506.41	243.42
506.58	294.91
506.76	212.99
506.93	180.22
507.11	264.48
507.28	250.44
507.46	203.63
507.63	257.46
507.81	217.67
507.98	301.93
508.16	238.73
508.33	285.55
508.50	273.84
508.68	250.44
508.85	299.59
509.03	224.69
509.20	245.76
509.38	255.12
509.55	236.39
509.73	229.37
509.90	194.26
510.08	194.26
510.25	259.80
510.42	201.29
510.60	334.70
510.77	283.20
510.95	334.70
511.12	299.59
511.30	266.82
511.47	348.74
511.64	339.38
511.82	308.95
511.99	297.25
512.17	241.08
512.34	227.03
512.51	201.29
512.69	241.08
512.86	241.08
513.04	259.80
513.21	184.90
513.38	287.89
513.56	161.50
513.73	283.20
513.90	287.89
514.08	154.48
514.25	269.16
514.43	292.57
514.60	332.36
514.77	259.80
514.95	330.02
515.12	210.65
515.29	283.20
515.47	252.78
515.64	322.99
515.81	220.01
515.99	273.84
516.16	252.78
516.33	266.82
516.51	205.97
516.68	184.90
516.85	257.46
517.03	198.95
517.20	259.80
517.37	180.22
517.54	215.33
517.72	255.12
517.89	220.01
518.06	250.44
518.24	280.86
518.41	346.40
518.58	283.20
518.75	315.97
518.93	266.82
519.10	262.14
519.27	252.78
519.45	278.52
519.62	315.97
519.79	287.89
519.96	294.91
520.14	320.65
520.31	306.61
520.48	330.02
520.65	210.65
520.83	287.89
521.00	248.10
521.17	280.86
521.34	215.33
521.52	294.91
521.69	231.71
521.86	271.50
522.03	250.44
522.20	301.93
522.38	255.12
522.55	243.42
522.72	201.29
522.89	292.57
523.07	353.42
523.24	306.61
523.41	266.82
523.58	259.80
523.75	304.27
523.92	273.84
524.10	294.91
524.27	353.42
524.44	173.20
524.61	292.57
524.78	210.65
524.96	297.25
525.13	262.14
525.30	348.74
525.47	290.23
525.64	220.01
525.81	243.42
525.98	269.16
526.16	243.42
526.33	278.52
526.50	290.23
526.67	231.71
526.84	234.05
527.01	257.46
527.18	227.03
527.36	224.69
527.53	250.44
527.70	259.80
527.87	215.33
528.04	229.37
528.21	287.89
528.38	318.31
528.55	259.80
528.72	269.16
528.89	360.44
529.07	248.10
529.24	241.08
529.41	248.10
529.58	304.27
529.75	248.10
529.92	217.67
530.09	292.57
530.26	283.20
530.43	278.52
530.60	292.57
530.77	229.37
530.94	311.29
531.11	269.16
531.28	313.63
531.46	273.84
531.63	210.65
531.80	205.97
531.97	280.86
532.14	353.42
532.31	250.44
532.48	320.65
532.65	416.62
532.82	425.98
532.99	428.32
533.16	409.59
533.33	311.29
533.50	320.65
533.67	418.96
533.84	519.60
534.01	468.11
534.18	346.40
534.35	320.65
534.52	311.29
534.69	273.84
534.86	262.14
535.03	365.12
535.20	257.46
535.37	285.55
535.54	320.65
535.71	262.14
535.88	320.65
536.05	262.14
536.22	327.68
536.38	285.55
536.55	278.52
536.72	358.10
536.89	280.86
537.06	294.91
537.23	330.02
537.40	224.69
537.57	308.95
537.74	320.65
537.91	322.99
538.08	262.14
538.25	383.85
538.42	358.10
538.59	334.70
538.75	280.86
538.92	287.89
539.09	404.91
539.26	334.70
539.43	547.69
539.60	1186.65
539.77	1746.04
539.94	1739.02
540.11	1193.67
540.28	837.91
540.44	697.48
540.61	510.24
540.78	514.92
540.95	524.28
541.12	575.77
541.29	582.79
541.46	561.73
541.62	484.49
541.79	535.98
541.96	489.17
542.13	575.77
542.30	519.60
542.47	571.09
542.63	524.28
542.80	545.34
542.97	559.39
543.14	561.73
543.31	465.77
543.48	585.13
543.64	554.71
543.81	578.11
543.98	454.06
544.15	444.70
544.32	444.70
544.48	498.53
544.65	498.53
544.82	477.47
544.99	489.17
545.16	566.41
545.32	545.34
545.49	753.65
545.66	912.81
545.83	1071.97
546.00	1008.77
546.16	674.07
546.33	629.60
546.50	498.53
546.67	528.96
546.83	456.40
547.00	416.62
547.17	402.57
547.34	411.93
547.50	472.79
547.67	383.85
547.84	409.59
548.00	421.30
548.17	362.78
548.34	433.00
548.51	344.06
548.67	365.12
548.84	299.59
549.01	388.53
549.18	388.53
549.34	346.40
549.51	416.62
549.68	376.83
549.84	383.85
550.01	313.63
550.18	475.13
550.34	393.21
550.51	339.38
550.68	341.72
550.84	283.20
551.01	311.29
551.18	252.78
551.34	306.61
551.51	325.33
551.68	327.68
551.84	322.99
552.01	313.63
552.18	353.42
552.34	280.86
552.51	341.72
552.68	327.68
552.84	266.82
553.01	308.95
553.18	236.39
553.34	290.23
553.51	255.12
553.67	325.33
553.84	278.52
554.01	294.91
554.17	332.36
554.34	327.68
554.51	330.02
554.67	287.89
554.84	318.31
555.00	271.50
555.17	271.50
555.33	234.05
555.50	330.02
555.67	327.68
555.83	358.10
556.00	318.31
556.16	465.77
556.33	325.33
556.50	227.03
556.66	234.05
556.83	301.93
556.99	283.20
557.16	266.82
557.32	262.14
557.49	273.84
557.65	191.92
557.82	231.71
557.98	182.56
558.15	297.25
558.32	273.84
558.48	259.80
558.65	205.97
558.81	238.73
558.98	306.61
559.14	266.82
559.31	262.14
559.47	285.55
559.64	217.67
559.80	287.89
559.97	236.39
560.13	217.67
560.30	313.63
560.46	301.93
560.63	220.01
560.79	227.03
560.96	262.14
561.12	224.69
561.29	308.95
561.45	264.48
561.61	266.82
561.78	313.63
561.94	285.55
562.11	238.73
562.27	278.52
562.44	341.72
562.60	187.24
562.77	234.05
562.93	276.18
563.10	285.55
563.26	231.71
563.42	311.29
563.59	198.95
563.75	304.27
563.92	290.23
564.08	243.42
564.24	264.48
564.41	280.86
564.57	222.35
564.74	231.71
564.90	224.69
565.07	231.71
565.23	259.80
565.39	334.70
565.56	327.68
565.72	262.14
565.88	262.14
566.05	273.84
566.21	273.84
566.38	241.08
566.54	224.69
566.70	299.59
566.87	273.84
567.03	341.72
567.19	292.57
567.36	259.80
567.52	262.14
567.68	238.73
567.85	255.12
568.01	241.08
568.17	182.56
568.34	222.35
568.50	304.27
568.66	287.89
568.83	397.89
568.99	311.29
569.15	320.65
569.32	285.55
569.48	311.29
569.64	229.37
569.81	271.50
569.97	236.39
570.13	262.14
570.30	245.76
570.46	269.16
570.62	191.92
570.78	227.03
570.95	198.95
571.11	353.42
571.27	301.93
571.43	273.84
571.60	257.46
571.76	212.99
571.92	311.29
572.09	266.82
572.25	262.14
572.41	241.08
572.57	278.52
572.74	313.63
572.90	259.80
573.06	208.31
573.22	327.68
573.38	325.33
573.55	397.89
573.71	266.82
573.87	269.16
574.03	266.82
574.20	262.14
574.36	397.89
574.52	346.40
574.68	388.53
574.84	330.02
575.01	304.27
575.17	229.37
575.33	269.16
575.49	252.78
575.65	360.44
575.82	400.23
575.98	631.94
576.14	779.40
576.30	788.76
576.46	725.57
576.62	683.44
576.79	507.90
576.95	543.00
577.11	341.72
577.27	311.29
577.43	360.44
577.59	348.74
577.75	330.02
577.92	262.14
578.08	276.18
578.24	252.78
578.40	313.63
578.56	313.63
578.72	496.19
578.88	418.96
579.04	449.38
579.21	390.87
579.37	367.46
579.53	369.80
579.69	365.12
579.85	470.45
580.01	437.68
580.17	470.45
580.33	500.87
580.49	491.51
580.65	442.36
580.82	461.09
580.98	397.89
581.14	339.38
581.30	468.11
581.46	472.79
581.62	709.18
581.78	718.54
581.94	767.70
582.10	589.82
582.26	580.45
582.42	454.06
582.58	538.32
582.74	519.60
582.90	521.94
583.06	510.24
583.22	564.07
583.38	571.09
583.54	482.15
583.70	648.33
583.86	770.04
584.02	858.98
584.18	954.94
584.34	1336.45
584.50	2967.80
584.66	22270.20
584.82	56112.00
584.98	65535.00
585.14	64587.08
585.30	51377.10
585.46	31903.84
585.62	19936.68
585.78	9259.16
585.94	3651.24
586.10	1811.57
586.26	1228.78
586.42	915.15
586.58	777.06
586.74	751.31
586.90	734.93
587.06	695.14
587.22	697.48
587.38	594.50
587.54	1165.59
587.70	3503.78
587.86	6033.90
588.02	6974.80
588.18	4961.94
588.34	3033.33
588.49	2010.52
588.65	1259.21
588.81	713.86
588.97	519.60
589.13	423.64
589.29	465.77
589.45	374.49
589.61	397.89
589.77	507.90
589.93	519.60
590.08	552.37
590.24	557.05
590.40	519.60
590.56	514.92
590.72	416.62
590.88	407.25
591.04	376.83
591.20	344.06
591.35	383.85
591.51	395.55
591.67	280.86
591.83	379.17
591.99	400.23
592.15	393.21
592.31	425.98
592.46	376.83
592.62	402.57
592.78	332.36
592.94	428.32
593.10	397.89
593.26	414.27
593.41	444.70
593.57	465.77
593.73	638.97
593.89	2759.49
594.05	7524.82
594.20	11833.75
594.36	11241.59
594.52	7489.71
594.68	4732.56
594.84	3232.28
594.99	1762.42
595.15	866.00
595.31	491.51
595.47	458.74
595.62	393.21
595.78	334.70
595.94	386.19
596.10	440.02
596.25	360.44
596.41	327.68
596.57	388.53
596.73	376.83
596.88	596.84
597.04	1497.94
597.20	2551.18
597.36	3026.31
597.51	2246.91
597.67	1586.88
597.83	1107.07
597.99	802.80
598.14	594.50
598.30	440.02
598.46	315.97
598.61	461.09
598.77	451.72
598.93	433.00
599.09	381.51
599.24	397.89
599.40	346.40
599.56	397.89
599.71	379.17
599.87	287.89
600.03	376.83
600.18	271.50
600.34	341.72
600.50	330.02
600.65	313.63
600.81	362.78
600.97	348.74
601.12	297.25
601.28	353.42
601.44	283.20
601.59	320.65
601.75	348.74
601.91	252.78
602.06	266.82
602.22	435.34
602.37	688.12
602.53	1842.00
602.69	2825.03
602.84	3042.70
603.00	2349.90
603.16	1551.78
603.31	1217.08
603.47	873.02
603.62	496.19
603.78	407.25
603.94	353.42
604.09	273.84
604.25	278.52
604.40	376.83
604.56	369.80
604.71	311.29
604.87	348.74
605.03	301.93
605.18	318.31
605.34	341.72
605.49	248.10
605.65	411.93
605.80	334.70
605.96	353.42
606.12	374.49
606.27	383.85
606.43	374.49
606.58	437.68
606.74	809.83
606.89	3300.16
607.05	7103.53
607.20	9966.00
607.36	8535.93
607.51	5605.58
607.67	3782.31
607.82	2576.93
607.98	1451.13
608.13	828.55
608.29	641.31
608.44	550.03
608.60	482.15
608.75	599.18
608.91	1163.25
609.06	5228.76
609.22	12657.62
609.37	17458.06
609.53	15641.80
609.68	10356.87
609.84	6773.51
609.99	4699.80
