SpectraSuite Data File
++++++++++++++++++++++++++++++++++++
Date: Fri Oct 04 11:34:11 GMT-05:00 2013
User: price-jones
Dark Spectrum Present: No
Reference Spectrum Present: No
Number of Sampled Component Spectra: 1
Spectrometers: USB2+H05261
Integration Time (usec): 100000 (USB2+H05261)
Spectra Averaged: 1 (USB2+H05261)
Boxcar Smoothing: 0 (USB2+H05261)
Correct for Electrical Dark: No (USB2+H05261)
Strobe/Lamp Enabled: No (USB2+H05261)
Correct for Detector Non-linearity: No (USB2+H05261)
Correct for Stray Light: No (USB2+H05261)
Number of Pixels in Processed Spectrum: 2048
>>>>>Begin Processed Spectral Data<<<<<
365.73	56.17
365.92	56.17
366.12	56.17
366.32	0.00
366.52	0.00
366.72	18.72
366.91	0.00
367.11	0.00
367.31	0.00
367.51	0.00
367.70	0.00
367.90	0.00
368.10	21.06
368.30	67.88
368.49	0.00
368.69	0.00
368.89	30.43
369.09	0.00
369.28	35.11
369.48	0.00
369.68	37.45
369.87	0.00
370.07	0.00
370.27	65.54
370.47	44.47
370.66	0.00
370.86	0.00
371.06	32.77
371.25	102.98
371.45	30.43
371.65	145.11
371.84	126.39
372.04	107.66
372.24	91.28
372.44	131.07
372.63	95.96
372.83	180.22
373.03	74.90
373.22	49.15
373.42	126.39
373.62	138.09
373.81	86.60
374.01	175.54
374.21	119.37
374.40	208.31
374.60	184.90
374.79	88.94
374.99	154.48
375.19	86.60
375.38	140.43
375.58	191.92
375.78	168.52
375.97	145.11
376.17	177.88
376.37	187.24
376.56	102.98
376.76	131.07
376.95	156.82
377.15	222.35
377.35	84.26
377.54	133.41
377.74	112.35
377.93	198.95
378.13	180.22
378.33	248.10
378.52	177.88
378.72	128.73
378.91	241.08
379.11	79.58
379.31	124.05
379.50	152.13
379.70	205.97
379.89	133.41
380.09	121.71
380.28	70.22
380.48	135.75
380.68	44.47
380.87	212.99
381.07	74.90
381.26	121.71
381.46	84.26
381.65	191.92
381.85	140.43
382.04	119.37
382.24	131.07
382.43	163.84
382.63	149.79
382.83	145.11
383.02	142.77
383.22	203.63
383.41	84.26
383.61	105.32
383.80	119.37
384.00	175.54
384.19	168.52
384.39	224.69
384.58	161.50
384.78	79.58
384.97	102.98
385.17	81.92
385.36	88.94
385.56	159.16
385.75	112.35
385.95	100.64
386.14	84.26
386.34	177.88
386.53	77.24
386.72	201.29
386.92	159.16
387.11	88.94
387.31	203.63
387.50	91.28
387.70	91.28
387.89	215.33
388.09	161.50
388.28	121.71
388.48	112.35
388.67	175.54
388.86	166.18
389.06	100.64
389.25	152.13
389.45	208.31
389.64	163.84
389.84	135.75
390.03	156.82
390.22	149.79
390.42	173.20
390.61	166.18
390.81	131.07
391.00	95.96
391.19	177.88
391.39	105.32
391.58	159.16
391.78	147.45
391.97	149.79
392.16	100.64
392.36	173.20
392.55	152.13
392.75	154.48
392.94	86.60
393.13	100.64
393.33	126.39
393.52	208.31
393.71	175.54
393.91	152.13
394.10	173.20
394.29	149.79
394.49	182.56
394.68	156.82
394.88	121.71
395.07	205.97
395.26	72.56
395.46	154.48
395.65	184.90
395.84	91.28
396.04	217.67
396.23	110.01
396.42	67.88
396.62	140.43
396.81	149.79
397.00	135.75
397.19	175.54
397.39	88.94
397.58	203.63
397.77	212.99
397.97	142.77
398.16	117.03
398.35	187.24
398.55	77.24
398.74	177.88
398.93	131.07
399.12	84.26
399.32	145.11
399.51	159.16
399.70	180.22
399.90	95.96
400.09	140.43
400.28	205.97
400.47	112.35
400.67	112.35
400.86	161.50
401.05	145.11
401.24	159.16
401.44	180.22
401.63	145.11
401.82	91.28
402.01	100.64
402.21	149.79
402.40	191.92
402.59	133.41
402.78	117.03
402.97	187.24
403.17	161.50
403.36	154.48
403.55	194.26
403.74	131.07
403.93	159.16
404.13	142.77
404.32	222.35
404.51	173.20
404.70	166.18
404.89	152.13
405.09	229.37
405.28	117.03
405.47	67.88
405.66	74.90
405.85	119.37
406.05	166.18
406.24	147.45
406.43	194.26
406.62	229.37
406.81	229.37
407.00	126.39
407.20	145.11
407.39	152.13
407.58	131.07
407.77	119.37
407.96	119.37
408.15	189.58
408.34	112.35
408.54	224.69
408.73	154.48
408.92	166.18
409.11	131.07
409.30	163.84
409.49	124.05
409.68	140.43
409.87	138.09
410.07	161.50
410.26	196.60
410.45	142.77
410.64	145.11
410.83	84.26
411.02	124.05
411.21	147.45
411.40	86.60
411.59	156.82
411.78	175.54
411.98	140.43
412.17	117.03
412.36	138.09
412.55	107.66
412.74	205.97
412.93	161.50
413.12	166.18
413.31	201.29
413.50	131.07
413.69	105.32
413.88	163.84
414.07	107.66
414.26	133.41
414.45	161.50
414.64	110.01
414.83	166.18
415.02	168.52
415.22	201.29
415.41	175.54
415.60	121.71
415.79	117.03
415.98	187.24
416.17	156.82
416.36	117.03
416.55	156.82
416.74	201.29
416.93	229.37
417.12	147.45
417.31	182.56
417.50	173.20
417.69	138.09
417.88	168.52
418.07	212.99
418.26	147.45
418.45	133.41
418.64	184.90
418.83	159.16
419.02	121.71
419.21	124.05
419.39	177.88
419.58	98.30
419.77	163.84
419.96	114.69
420.15	189.58
420.34	163.84
420.53	145.11
420.72	266.82
420.91	133.41
421.10	126.39
421.29	194.26
421.48	222.35
421.67	208.31
421.86	166.18
422.05	156.82
422.24	224.69
422.43	119.37
422.61	119.37
422.80	110.01
422.99	145.11
423.18	135.75
423.37	170.86
423.56	159.16
423.75	159.16
423.94	110.01
424.13	198.95
424.32	156.82
424.50	145.11
424.69	187.24
424.88	217.67
425.07	161.50
425.26	177.88
425.45	138.09
425.64	98.30
425.83	77.24
426.01	173.20
426.20	238.73
426.39	124.05
426.58	166.18
426.77	154.48
426.96	142.77
427.15	173.20
427.33	159.16
427.52	114.69
427.71	149.79
427.90	212.99
428.09	135.75
428.28	142.77
428.46	170.86
428.65	243.42
428.84	189.58
429.03	182.56
429.22	149.79
429.40	161.50
429.59	163.84
429.78	203.63
429.97	140.43
430.16	138.09
430.34	189.58
430.53	201.29
430.72	152.13
430.91	168.52
431.10	182.56
431.28	184.90
431.47	189.58
431.66	88.94
431.85	124.05
432.03	135.75
432.22	210.65
432.41	149.79
432.60	173.20
432.79	154.48
432.97	252.78
433.16	145.11
433.35	145.11
433.54	201.29
433.72	95.96
433.91	131.07
434.10	119.37
434.28	198.95
434.47	159.16
434.66	180.22
434.85	198.95
435.03	175.54
435.22	311.29
435.41	430.66
435.59	353.42
435.78	276.18
435.97	170.86
436.16	196.60
436.34	210.65
436.53	184.90
436.72	149.79
436.90	177.88
437.09	156.82
437.28	166.18
437.46	124.05
437.65	177.88
437.84	194.26
438.02	152.13
438.21	229.37
438.40	201.29
438.58	227.03
438.77	191.92
438.96	173.20
439.14	205.97
439.33	236.39
439.52	173.20
439.70	147.45
439.89	215.33
440.08	131.07
440.26	147.45
440.45	222.35
440.63	159.16
440.82	189.58
441.01	191.92
441.19	156.82
441.38	208.31
441.57	210.65
441.75	210.65
441.94	245.76
442.12	173.20
442.31	189.58
442.50	203.63
442.68	196.60
442.87	156.82
443.05	163.84
443.24	135.75
443.43	243.42
443.61	182.56
443.80	212.99
443.98	159.16
444.17	215.33
444.35	133.41
444.54	161.50
444.73	149.79
444.91	180.22
445.10	135.75
445.28	170.86
445.47	154.48
445.65	252.78
445.84	140.43
446.02	128.73
446.21	152.13
446.39	154.48
446.58	163.84
446.77	175.54
446.95	138.09
447.14	189.58
447.32	189.58
447.51	159.16
447.69	205.97
447.88	205.97
448.06	191.92
448.25	135.75
448.43	241.08
448.62	215.33
448.80	191.92
448.99	220.01
449.17	161.50
449.36	187.24
449.54	147.45
449.73	182.56
449.91	217.67
450.10	126.39
450.28	182.56
450.46	231.71
450.65	234.05
450.83	133.41
451.02	140.43
451.20	210.65
451.39	114.69
451.57	149.79
451.76	163.84
451.94	241.08
452.13	182.56
452.31	243.42
452.49	198.95
452.68	191.92
452.86	220.01
453.05	203.63
453.23	238.73
453.42	189.58
453.60	177.88
453.78	208.31
453.97	126.39
454.15	180.22
454.34	210.65
454.52	149.79
454.70	201.29
454.89	168.52
455.07	142.77
455.26	210.65
455.44	224.69
455.62	142.77
455.81	156.82
455.99	182.56
456.17	128.73
456.36	175.54
456.54	222.35
456.73	208.31
456.91	147.45
457.09	210.65
457.28	154.48
457.46	154.48
457.64	241.08
457.83	154.48
458.01	184.90
458.19	189.58
458.38	187.24
458.56	283.20
458.74	168.52
458.93	180.22
459.11	217.67
459.29	147.45
459.48	184.90
459.66	273.84
459.84	273.84
460.03	250.44
460.21	227.03
460.39	180.22
460.57	257.46
460.76	227.03
460.94	189.58
461.12	264.48
461.31	262.14
461.49	208.31
461.67	135.75
461.85	210.65
462.04	205.97
462.22	746.63
462.40	198.95
462.59	248.10
462.77	201.29
462.95	81.92
463.13	117.03
463.32	163.84
463.50	147.45
463.68	189.58
463.86	217.67
464.05	156.82
464.23	187.24
464.41	231.71
464.59	166.18
464.78	191.92
464.96	117.03
465.14	217.67
465.32	220.01
465.50	196.60
465.69	208.31
465.87	149.79
466.05	128.73
466.23	170.86
466.41	177.88
466.60	191.92
466.78	220.01
466.96	205.97
467.14	210.65
467.32	145.11
467.51	163.84
467.69	198.95
467.87	194.26
468.05	156.82
468.23	217.67
468.41	212.99
468.60	145.11
468.78	175.54
468.96	196.60
469.14	224.69
469.32	259.80
469.50	184.90
469.69	187.24
469.87	205.97
470.05	156.82
470.23	182.56
470.41	170.86
470.59	184.90
470.77	217.67
470.95	170.86
471.14	229.37
471.32	154.48
471.50	231.71
471.68	184.90
471.86	163.84
472.04	194.26
472.22	276.18
472.40	156.82
472.58	133.41
472.77	194.26
472.95	121.71
473.13	257.46
473.31	269.16
473.49	117.03
473.67	112.35
473.85	215.33
474.03	227.03
474.21	191.92
474.39	220.01
474.57	156.82
474.75	203.63
474.93	187.24
475.12	198.95
475.30	161.50
475.48	238.73
475.66	142.77
475.84	182.56
476.02	259.80
476.20	229.37
476.38	196.60
476.56	255.12
476.74	166.18
476.92	222.35
477.10	170.86
477.28	290.23
477.46	203.63
477.64	128.73
477.82	166.18
478.00	212.99
478.18	217.67
478.36	205.97
478.54	217.67
478.72	217.67
478.90	241.08
479.08	152.13
479.26	180.22
479.44	189.58
479.62	177.88
479.80	255.12
479.98	159.16
480.16	170.86
480.34	255.12
480.52	203.63
480.70	224.69
480.88	196.60
481.06	67.88
481.24	217.67
481.41	198.95
481.59	182.56
481.77	238.73
481.95	215.33
482.13	217.67
482.31	201.29
482.49	187.24
482.67	170.86
482.85	184.90
483.03	161.50
483.21	196.60
483.39	220.01
483.57	243.42
483.74	236.39
483.92	208.31
484.10	84.26
484.28	273.84
484.46	210.65
484.64	250.44
484.82	269.16
485.00	208.31
485.18	250.44
485.35	210.65
485.53	201.29
485.71	283.20
485.89	290.23
486.07	229.37
486.25	285.55
486.43	173.20
486.61	215.33
486.78	196.60
486.96	241.08
487.14	271.50
487.32	163.84
487.50	215.33
487.68	266.82
487.85	205.97
488.03	248.10
488.21	337.04
488.39	262.14
488.57	255.12
488.75	203.63
488.92	461.09
489.10	220.01
489.28	304.27
489.46	217.67
489.64	241.08
489.81	222.35
489.99	236.39
490.17	229.37
490.35	318.31
490.53	227.03
490.70	280.86
490.88	306.61
491.06	220.01
491.24	276.18
491.41	234.05
491.59	311.29
491.77	196.60
491.95	184.90
492.13	241.08
492.30	212.99
492.48	234.05
492.66	250.44
492.84	184.90
493.01	196.60
493.19	229.37
493.37	227.03
493.54	313.63
493.72	245.76
493.90	194.26
494.08	180.22
494.25	238.73
494.43	262.14
494.61	194.26
494.79	212.99
494.96	224.69
495.14	271.50
495.32	241.08
495.49	259.80
495.67	198.95
495.85	217.67
496.02	243.42
496.20	311.29
496.38	201.29
496.55	252.78
496.73	259.80
496.91	306.61
497.09	243.42
497.26	262.14
497.44	198.95
497.62	262.14
497.79	224.69
497.97	339.38
498.14	227.03
498.32	210.65
498.50	168.52
498.67	259.80
498.85	222.35
499.03	262.14
499.20	304.27
499.38	271.50
499.56	259.80
499.73	271.50
499.91	271.50
500.08	257.46
500.26	180.22
500.44	224.69
500.61	297.25
500.79	266.82
500.97	257.46
501.14	222.35
501.32	287.89
501.49	252.78
501.67	245.76
501.84	234.05
502.02	248.10
502.20	255.12
502.37	276.18
502.55	262.14
502.72	266.82
502.90	245.76
503.07	229.37
503.25	276.18
503.43	259.80
503.60	252.78
503.78	234.05
503.95	229.37
504.13	238.73
504.30	283.20
504.48	177.88
504.65	311.29
504.83	294.91
505.01	248.10
505.18	215.33
505.36	222.35
505.53	245.76
505.71	184.90
505.88	278.52
506.06	224.69
506.23	236.39
506.41	203.63
506.58	257.46
506.76	227.03
506.93	259.80
507.11	222.35
507.28	287.89
507.46	198.95
507.63	255.12
507.81	248.10
507.98	262.14
508.16	301.93
508.33	236.39
508.50	266.82
508.68	205.97
508.85	313.63
509.03	175.54
509.20	301.93
509.38	212.99
509.55	259.80
509.73	266.82
509.90	269.16
510.08	259.80
510.25	220.01
510.42	177.88
510.60	229.37
510.77	241.08
510.95	205.97
511.12	271.50
511.30	224.69
511.47	250.44
511.64	332.36
511.82	198.95
511.99	177.88
512.17	196.60
512.34	229.37
512.51	227.03
512.69	409.59
512.86	297.25
513.04	264.48
513.21	252.78
513.38	215.33
513.56	222.35
513.73	285.55
513.90	236.39
514.08	341.72
514.25	315.97
514.43	187.24
514.60	257.46
514.77	238.73
514.95	285.55
515.12	220.01
515.29	191.92
515.47	229.37
515.64	243.42
515.81	292.57
515.99	191.92
516.16	252.78
516.33	250.44
516.51	290.23
516.68	187.24
516.85	224.69
517.03	257.46
517.20	257.46
517.37	311.29
517.54	297.25
517.72	168.52
517.89	257.46
518.06	196.60
518.24	358.10
518.41	271.50
518.58	322.99
518.75	196.60
518.93	217.67
519.10	203.63
519.27	191.92
519.45	241.08
519.62	201.29
519.79	304.27
519.96	166.18
520.14	292.57
520.31	252.78
520.48	215.33
520.65	325.33
520.83	229.37
521.00	205.97
521.17	241.08
521.34	243.42
521.52	315.97
521.69	276.18
521.86	248.10
522.03	215.33
522.20	278.52
522.38	266.82
522.55	241.08
522.72	184.90
522.89	245.76
523.07	292.57
523.24	250.44
523.41	269.16
523.58	287.89
523.75	212.99
523.92	287.89
524.10	276.18
524.27	266.82
524.44	308.95
524.61	311.29
524.78	227.03
524.96	276.18
525.13	280.86
525.30	271.50
525.47	299.59
525.64	201.29
525.81	294.91
525.98	325.33
526.16	217.67
526.33	241.08
526.50	257.46
526.67	222.35
526.84	259.80
527.01	234.05
527.18	280.86
527.36	311.29
527.53	311.29
527.70	334.70
527.87	236.39
528.04	273.84
528.21	294.91
528.38	191.92
528.55	210.65
528.72	337.04
528.89	360.44
529.07	168.52
529.24	217.67
529.41	301.93
529.58	278.52
529.75	308.95
529.92	271.50
530.09	285.55
530.26	276.18
530.43	306.61
530.60	306.61
530.77	374.49
530.94	278.52
531.11	257.46
531.28	227.03
531.46	294.91
531.63	273.84
531.80	252.78
531.97	238.73
532.14	290.23
532.31	238.73
532.48	315.97
532.65	266.82
532.82	252.78
532.99	322.99
533.16	292.57
533.33	273.84
533.50	243.42
533.67	257.46
533.84	278.52
534.01	304.27
534.18	210.65
534.35	278.52
534.52	262.14
534.69	273.84
534.86	269.16
535.03	297.25
535.20	257.46
535.37	301.93
535.54	280.86
535.71	250.44
535.88	362.78
536.05	215.33
536.22	294.91
536.38	269.16
536.55	266.82
536.72	266.82
536.89	238.73
537.06	318.31
537.23	280.86
537.40	189.58
537.57	280.86
537.74	250.44
537.91	287.89
538.08	252.78
538.25	315.97
538.42	266.82
538.59	273.84
538.75	308.95
538.92	290.23
539.09	245.76
539.26	290.23
539.43	311.29
539.60	358.10
539.77	395.55
539.94	386.19
540.11	393.21
540.28	360.44
540.44	353.42
540.61	332.36
540.78	386.19
540.95	430.66
541.12	500.87
541.29	543.00
541.46	456.40
541.62	482.15
541.79	454.06
541.96	482.15
542.13	461.09
542.30	407.25
542.47	461.09
542.63	437.68
542.80	430.66
542.97	409.59
543.14	383.85
543.31	475.13
543.48	416.62
543.64	416.62
543.81	402.57
543.98	379.17
544.15	383.85
544.32	393.21
544.48	428.32
544.65	433.00
544.82	381.51
544.99	435.34
545.16	400.23
545.32	388.53
545.49	571.09
545.66	746.63
545.83	753.65
546.00	702.16
546.16	545.34
546.33	559.39
546.50	409.59
546.67	416.62
546.83	315.97
547.00	297.25
547.17	332.36
547.34	369.80
547.50	304.27
547.67	332.36
547.84	224.69
548.00	383.85
548.17	304.27
548.34	299.59
548.51	404.91
548.67	376.83
548.84	315.97
549.01	308.95
549.18	248.10
549.34	367.46
549.51	285.55
549.68	346.40
549.84	330.02
550.01	262.14
550.18	325.33
550.34	278.52
550.51	259.80
550.68	409.59
550.84	234.05
551.01	290.23
551.18	360.44
551.34	227.03
551.51	308.95
551.68	269.16
551.84	351.08
552.01	283.20
552.18	271.50
552.34	243.42
552.51	238.73
552.68	339.38
552.84	271.50
553.01	250.44
553.18	255.12
553.34	276.18
553.51	332.36
553.67	238.73
553.84	339.38
554.01	285.55
554.17	257.46
554.34	264.48
554.51	264.48
554.67	238.73
554.84	299.59
555.00	294.91
555.17	264.48
555.33	264.48
555.50	339.38
555.67	189.58
555.83	299.59
556.00	259.80
556.16	400.23
556.33	318.31
556.50	231.71
556.66	238.73
556.83	173.20
556.99	231.71
557.16	287.89
557.32	266.82
557.49	271.50
557.65	252.78
557.82	266.82
557.98	252.78
558.15	290.23
558.32	330.02
558.48	266.82
558.65	276.18
558.81	280.86
558.98	262.14
559.14	299.59
559.31	264.48
559.47	191.92
559.64	299.59
559.80	337.04
559.97	271.50
560.13	243.42
560.30	280.86
560.46	325.33
560.63	245.76
560.79	287.89
560.96	276.18
561.12	285.55
561.29	264.48
561.45	276.18
561.61	327.68
561.78	243.42
561.94	175.54
562.11	191.92
562.27	318.31
562.44	285.55
562.60	255.12
562.77	189.58
562.93	259.80
563.10	229.37
563.26	320.65
563.42	308.95
563.59	285.55
563.75	201.29
563.92	278.52
564.08	198.95
564.24	234.05
564.41	388.53
564.57	294.91
564.74	285.55
564.90	215.33
565.07	177.88
565.23	220.01
565.39	262.14
565.56	287.89
565.72	184.90
565.88	222.35
566.05	266.82
566.21	266.82
566.38	280.86
566.54	187.24
566.70	311.29
566.87	215.33
567.03	168.52
567.19	348.74
567.36	269.16
567.52	252.78
567.68	311.29
567.85	259.80
568.01	203.63
568.17	217.67
568.34	224.69
568.50	201.29
568.66	191.92
568.83	315.97
568.99	301.93
569.15	280.86
569.32	287.89
569.48	257.46
569.64	145.11
569.81	241.08
569.97	236.39
570.13	220.01
570.30	173.20
570.46	220.01
570.62	248.10
570.78	241.08
570.95	278.52
571.11	227.03
571.27	220.01
571.43	227.03
571.60	220.01
571.76	255.12
571.92	198.95
572.09	201.29
572.25	259.80
572.41	196.60
572.57	255.12
572.74	306.61
572.90	238.73
573.06	257.46
573.22	215.33
573.38	285.55
573.55	287.89
573.71	236.39
573.87	264.48
574.03	280.86
574.20	306.61
574.36	348.74
574.52	271.50
574.68	243.42
574.84	290.23
575.01	212.99
575.17	278.52
575.33	198.95
575.49	252.78
575.65	306.61
575.82	245.76
575.98	311.29
576.14	238.73
576.30	339.38
576.46	315.97
576.62	313.63
576.79	344.06
576.95	297.25
577.11	257.46
577.27	156.82
577.43	294.91
577.59	283.20
577.75	278.52
577.92	276.18
578.08	283.20
578.24	208.31
578.40	236.39
578.56	365.12
578.72	353.42
578.88	285.55
579.04	407.25
579.21	330.02
579.37	276.18
579.53	224.69
579.69	283.20
579.85	294.91
580.01	297.25
580.17	248.10
580.33	273.84
580.49	250.44
580.65	304.27
580.82	229.37
580.98	250.44
581.14	229.37
581.30	325.33
581.46	262.14
581.62	306.61
581.78	217.67
581.94	287.89
582.10	248.10
582.26	283.20
582.42	278.52
582.58	332.36
582.74	325.33
582.90	330.02
583.06	276.18
583.22	222.35
583.38	327.68
583.54	301.93
583.70	292.57
583.86	344.06
584.02	308.95
584.18	290.23
584.34	313.63
584.50	351.08
584.66	894.08
584.82	1785.83
584.98	2331.17
585.14	2216.49
585.30	1551.78
585.46	1116.44
585.62	748.97
585.78	430.66
585.94	381.51
586.10	294.91
586.26	280.86
586.42	428.32
586.58	294.91
586.74	315.97
586.90	358.10
587.06	353.42
587.22	315.97
587.38	278.52
587.54	362.78
587.70	367.46
587.86	397.89
588.02	454.06
588.18	414.27
588.34	322.99
588.49	222.35
588.65	257.46
588.81	273.84
588.97	201.29
589.13	271.50
589.29	297.25
589.45	294.91
589.61	241.08
589.77	404.91
589.93	283.20
590.08	283.20
590.24	217.67
590.40	290.23
590.56	252.78
590.72	257.46
590.88	229.37
591.04	250.44
591.20	243.42
591.35	257.46
591.51	255.12
591.67	271.50
591.83	248.10
591.99	229.37
592.15	227.03
592.31	238.73
592.46	280.86
592.62	259.80
592.78	290.23
592.94	292.57
593.10	224.69
593.26	362.78
593.41	337.04
593.57	262.14
593.73	264.48
593.89	262.14
594.05	402.57
594.20	454.06
594.36	409.59
594.52	395.55
594.68	411.93
594.84	327.68
594.99	355.76
595.15	259.80
595.31	285.55
595.47	358.10
595.62	259.80
595.78	208.31
595.94	241.08
596.10	271.50
596.25	220.01
596.41	257.46
596.57	245.76
596.73	278.52
596.88	259.80
597.04	243.42
597.20	287.89
597.36	269.16
597.51	278.52
597.67	292.57
597.83	290.23
597.99	294.91
598.14	220.01
598.30	259.80
598.46	257.46
598.61	278.52
598.77	313.63
598.93	262.14
599.09	266.82
599.24	236.39
599.40	290.23
599.56	264.48
599.71	182.56
599.87	212.99
600.03	257.46
600.18	241.08
600.34	308.95
600.50	194.26
600.65	215.33
600.81	250.44
600.97	264.48
601.12	285.55
601.28	348.74
601.44	142.77
601.59	229.37
601.75	250.44
601.91	220.01
602.06	255.12
602.22	337.04
602.37	271.50
602.53	262.14
602.69	332.36
602.84	280.86
603.00	266.82
603.16	297.25
603.31	271.50
603.47	273.84
603.62	173.20
603.78	334.70
603.94	259.80
604.09	269.16
604.25	248.10
604.40	266.82
604.56	250.44
604.71	243.42
604.87	201.29
605.03	248.10
605.18	220.01
605.34	283.20
605.49	241.08
605.65	278.52
605.80	187.24
605.96	271.50
606.12	217.67
606.27	245.76
606.43	220.01
606.58	229.37
606.74	301.93
606.89	404.91
607.05	479.81
607.20	510.24
607.36	510.24
607.51	362.78
607.67	278.52
607.82	325.33
607.98	301.93
608.13	308.95
608.29	292.57
608.44	339.38
608.60	280.86
608.75	351.08
608.91	299.59
609.06	418.96
609.22	610.88
609.37	657.69
609.53	748.97
609.68	554.71
609.84	496.19
609.99	397.89
610.15	491.51
610.30	498.53
610.46	545.34
610.61	566.41
610.76	664.71
610.92	744.29
611.07	788.76
