SpectraSuite Data File
++++++++++++++++++++++++++++++++++++
Date: Fri Oct 04 12:14:17 GMT-05:00 2013
User: price-jones
Dark Spectrum Present: No
Reference Spectrum Present: No
Number of Sampled Component Spectra: 1
Spectrometers: USB2+H05261
Integration Time (usec): 1000000 (USB2+H05261)
Spectra Averaged: 1 (USB2+H05261)
Boxcar Smoothing: 0 (USB2+H05261)
Correct for Electrical Dark: No (USB2+H05261)
Strobe/Lamp Enabled: No (USB2+H05261)
Correct for Detector Non-linearity: No (USB2+H05261)
Correct for Stray Light: No (USB2+H05261)
Number of Pixels in Processed Spectrum: 2048
>>>>>Begin Processed Spectral Data<<<<<
365.73	0.00
365.92	0.00
366.12	0.00
366.32	0.00
366.52	0.00
366.72	212.99
366.91	102.98
367.11	276.18
367.31	191.92
367.51	348.74
367.70	278.52
367.90	521.94
368.10	264.48
368.30	355.76
368.49	147.45
368.69	477.47
368.89	306.61
369.09	152.13
369.28	299.59
369.48	88.94
369.68	271.50
369.87	393.21
370.07	180.22
370.27	531.30
370.47	400.23
370.66	322.99
370.86	554.71
371.06	791.10
371.25	978.34
371.45	437.68
371.65	720.88
371.84	294.91
372.04	320.65
372.24	484.49
372.44	423.64
372.63	561.73
372.83	830.89
373.03	444.70
373.22	372.15
373.42	437.68
373.62	465.77
373.81	603.86
374.01	699.82
374.21	711.52
374.40	400.23
374.60	788.76
374.79	458.74
374.99	374.49
375.19	582.79
375.38	617.90
375.58	456.40
375.78	676.41
375.97	601.52
376.17	947.92
376.37	559.39
376.56	585.13
376.76	358.10
376.95	362.78
377.15	543.00
377.35	538.32
377.54	578.11
377.74	395.55
377.93	440.02
378.13	622.58
378.33	706.84
378.52	479.81
378.72	751.31
378.91	664.71
379.11	395.55
379.31	472.79
379.50	320.65
379.70	695.14
379.89	702.16
380.09	421.30
380.28	311.29
380.48	491.51
380.68	386.19
380.87	334.70
381.07	475.13
381.26	779.40
381.46	622.58
381.65	716.20
381.85	397.89
382.04	463.43
382.24	554.71
382.43	449.38
382.63	341.72
382.83	414.27
383.02	678.76
383.22	781.74
383.41	416.62
383.61	514.92
383.80	449.38
384.00	505.56
384.19	433.00
384.39	580.45
384.58	414.27
384.78	641.31
384.97	613.22
385.17	444.70
385.36	423.64
385.56	650.67
385.75	360.44
385.95	510.24
386.14	706.84
386.34	454.06
386.53	615.56
386.72	379.17
386.92	716.20
387.11	535.98
387.31	557.05
387.50	339.38
387.70	440.02
387.89	465.77
388.09	433.00
388.28	381.51
388.48	397.89
388.67	685.78
388.86	374.49
389.06	547.69
389.25	528.96
389.45	514.92
389.64	493.85
389.84	784.08
390.03	638.97
390.22	580.45
390.42	489.17
390.61	423.64
390.81	379.17
391.00	573.43
391.19	741.95
391.39	498.53
391.58	648.33
391.78	505.56
391.97	510.24
392.16	423.64
392.36	798.12
392.55	753.65
392.75	461.09
392.94	376.83
393.13	631.94
393.33	308.95
393.52	442.36
393.71	819.19
393.91	578.11
394.10	479.81
394.29	416.62
394.49	461.09
394.68	564.07
394.88	793.44
395.07	763.01
395.26	596.84
395.46	543.00
395.65	781.74
395.84	608.54
396.04	1254.53
396.23	486.83
396.42	395.55
396.62	528.96
396.81	552.37
397.00	463.43
397.19	610.88
397.39	458.74
397.58	727.91
397.77	416.62
397.97	568.75
398.16	524.28
398.35	681.10
398.55	421.30
398.74	631.94
398.93	753.65
399.12	482.15
399.32	657.69
399.51	557.05
399.70	697.48
399.90	734.93
400.09	521.94
400.28	620.24
400.47	486.83
400.67	688.12
400.86	608.54
401.05	655.35
401.24	671.73
401.44	737.27
401.63	650.67
401.82	866.00
402.01	477.47
402.21	697.48
402.40	543.00
402.59	512.58
402.78	475.13
402.97	503.22
403.17	592.16
403.36	727.91
403.55	486.83
403.74	528.96
403.93	613.22
404.13	779.40
404.32	510.24
404.51	528.96
404.70	814.51
404.89	547.69
405.09	994.73
405.28	594.50
405.47	416.62
405.66	706.84
405.85	833.23
406.05	554.71
406.24	514.92
406.43	653.01
406.62	660.03
406.81	1151.54
407.00	786.42
407.20	641.31
407.39	580.45
407.58	535.98
407.77	784.08
407.96	887.06
408.15	770.04
408.34	711.52
408.54	662.37
408.73	664.71
408.92	622.58
409.11	730.25
409.30	807.48
409.49	484.49
409.68	580.45
409.87	622.58
410.07	500.87
410.26	758.33
410.45	603.86
410.64	550.03
410.83	580.45
411.02	498.53
411.21	702.16
411.40	748.97
411.59	575.77
411.78	543.00
411.98	559.39
412.17	468.11
412.36	547.69
412.55	594.50
412.74	781.74
412.93	933.87
413.12	540.66
413.31	842.59
413.50	744.29
413.69	599.18
413.88	957.28
414.07	688.12
414.26	669.39
414.45	475.13
414.64	720.88
414.83	702.16
415.02	671.73
415.22	823.87
415.41	1015.79
415.60	610.88
415.79	662.37
415.98	964.30
416.17	681.10
416.36	690.46
416.55	568.75
416.74	758.33
416.93	915.15
417.12	613.22
417.31	550.03
417.50	622.58
417.69	1020.47
417.88	608.54
418.07	531.30
418.26	723.23
418.45	702.16
418.64	985.37
418.83	849.61
419.02	760.67
419.21	814.51
419.39	779.40
419.58	648.33
419.77	643.65
419.96	929.19
420.15	1086.01
420.34	784.08
420.53	737.27
420.72	978.34
420.91	842.59
421.10	718.54
421.29	763.01
421.48	844.93
421.67	896.43
421.86	624.92
422.05	753.65
422.24	624.92
422.43	777.06
422.61	552.37
422.80	554.71
422.99	624.92
423.18	636.63
423.37	973.66
423.56	770.04
423.75	795.78
423.94	538.32
424.13	730.25
424.32	608.54
424.50	688.12
424.69	760.67
424.88	983.02
425.07	716.20
425.26	779.40
425.45	809.83
425.64	631.94
425.83	725.57
426.01	999.41
426.20	830.89
426.39	587.47
426.58	690.46
426.77	699.82
426.96	931.53
427.15	903.45
427.33	657.69
427.52	711.52
427.71	763.01
427.90	748.97
428.09	674.07
428.28	498.53
428.46	624.92
428.65	739.61
428.84	835.57
429.03	1076.65
429.22	615.56
429.40	571.09
429.59	533.64
429.78	1093.03
429.97	617.90
430.16	528.96
430.34	660.03
430.53	578.11
430.72	603.86
430.91	812.17
431.10	573.43
431.28	751.31
431.47	943.24
431.66	882.38
431.85	770.04
432.03	723.23
432.22	1144.52
432.41	777.06
432.60	1050.90
432.79	732.59
432.97	873.02
433.16	788.76
433.35	634.29
433.54	690.46
433.72	880.04
433.91	936.21
434.10	660.03
434.28	847.27
434.47	713.86
434.66	945.58
434.85	669.39
435.03	716.20
435.22	1083.67
435.41	1121.12
435.59	903.45
435.78	814.51
435.97	650.67
436.16	938.55
436.34	830.89
436.53	774.72
436.72	973.66
436.90	842.59
437.09	905.79
437.28	861.32
437.46	667.05
437.65	889.40
437.84	828.55
438.02	765.36
438.21	819.19
438.40	713.86
438.58	594.50
438.77	788.76
438.96	858.98
439.14	601.52
439.33	877.70
439.52	763.01
439.70	835.57
439.89	931.53
440.08	798.12
440.26	870.68
440.45	1200.69
440.63	868.34
440.82	842.59
441.01	741.95
441.19	781.74
441.38	828.55
441.57	826.21
441.75	1036.86
441.94	1158.57
442.12	800.46
442.31	835.57
442.50	819.19
442.68	898.77
442.87	882.38
443.05	805.14
443.24	938.55
443.43	1083.67
443.61	1151.54
443.80	877.70
443.98	758.33
444.17	774.72
444.35	1090.69
444.54	830.89
444.73	774.72
444.91	1090.69
445.10	732.59
445.28	725.57
445.47	847.27
445.65	819.19
445.84	814.51
446.02	835.57
446.21	746.63
446.39	779.40
446.58	1004.09
446.77	830.89
446.95	730.25
447.14	924.51
447.32	1240.48
447.51	938.55
447.69	823.87
447.88	929.19
448.06	1027.50
448.25	973.66
448.43	718.54
448.62	802.80
448.80	954.94
448.99	1114.10
449.17	807.48
449.36	833.23
449.54	1022.81
449.73	781.74
449.91	1039.20
450.10	805.14
450.28	1401.98
450.46	1296.66
450.65	1123.46
450.83	1050.90
451.02	912.81
451.20	929.19
451.39	901.11
451.57	915.15
451.76	767.70
451.94	866.00
452.13	950.26
452.31	1121.12
452.49	961.96
452.68	704.50
452.86	919.83
453.05	1205.38
453.23	896.43
453.42	629.60
453.60	786.42
453.78	983.02
453.97	748.97
454.15	718.54
454.34	786.42
454.52	753.65
454.70	1186.65
454.89	1193.67
455.07	779.40
455.26	891.74
455.44	992.39
455.62	718.54
455.81	791.10
455.99	971.32
456.17	990.05
456.36	877.70
456.54	807.48
456.73	833.23
456.91	858.98
457.09	1046.22
457.28	1100.05
457.46	868.34
457.64	1090.69
457.83	784.08
458.01	882.38
458.19	940.90
458.38	819.19
458.56	868.34
458.74	744.29
458.93	997.07
459.11	840.25
459.29	849.61
459.48	959.62
459.66	1334.11
459.84	1118.78
460.03	1727.32
460.21	1163.25
460.39	866.00
460.57	1116.44
460.76	901.11
460.94	894.08
461.12	1256.87
461.31	1289.64
461.49	931.53
461.67	875.36
461.85	1001.75
462.04	842.59
462.22	5795.17
462.40	1245.16
462.59	1210.06
462.77	833.23
462.95	1004.09
463.13	795.78
463.32	1158.57
463.50	931.53
463.68	1004.09
463.86	1083.67
464.05	777.06
464.23	1228.78
464.41	1046.22
464.59	861.32
464.78	835.57
464.96	809.83
465.14	1029.84
465.32	830.89
465.50	1011.11
465.69	1118.78
465.87	772.38
466.05	1174.95
466.23	753.65
466.41	793.44
466.60	936.21
466.78	959.62
466.96	1163.25
467.14	961.96
467.32	1179.63
467.51	1109.41
467.69	1043.88
467.87	1249.85
468.05	938.55
468.23	1355.17
468.41	1179.63
468.60	922.17
468.78	1034.52
468.96	1139.84
469.14	1128.14
469.32	751.31
469.50	725.57
469.69	1020.47
469.87	908.13
470.05	1039.20
470.23	961.96
470.41	763.01
470.59	812.17
470.77	950.26
470.95	936.21
471.14	1160.91
471.32	943.24
471.50	1373.89
471.68	990.05
471.86	1102.39
472.04	894.08
472.22	976.00
472.40	758.33
472.58	884.72
472.77	765.36
472.95	894.08
473.13	1324.74
473.31	1327.08
473.49	861.32
473.67	851.96
473.85	1128.14
474.03	1057.92
474.21	994.73
474.39	1357.51
474.57	1348.15
474.75	1036.86
474.93	856.64
475.12	760.67
475.30	1041.54
475.48	990.05
475.66	973.66
475.84	992.39
476.02	964.30
476.20	1156.22
476.38	999.41
476.56	1650.08
476.74	1020.47
476.92	1006.43
477.10	971.32
477.28	1172.61
477.46	1090.69
477.64	1163.25
477.82	976.00
478.00	1027.50
478.18	1104.73
478.36	976.00
478.54	968.98
478.72	1022.81
478.90	1118.78
479.08	1093.03
479.26	1081.33
479.44	973.66
479.62	957.28
479.80	959.62
479.98	1006.43
480.16	922.17
480.34	1235.80
480.52	936.21
480.70	1226.44
480.88	980.68
481.06	931.53
481.24	1069.62
481.41	1013.45
481.59	1170.27
481.77	1158.57
481.95	1018.13
482.13	1511.99
482.31	1135.16
482.49	1006.43
482.67	1289.64
482.85	1306.02
483.03	1156.22
483.21	1181.97
483.39	1083.67
483.57	1114.10
483.74	1542.41
483.92	1228.78
484.10	1013.45
484.28	1451.13
484.46	1699.23
484.64	1071.97
484.82	1083.67
485.00	1050.90
485.18	1177.29
485.35	1123.46
485.53	919.83
485.71	1383.26
485.89	894.08
486.07	994.73
486.25	1600.93
486.43	1224.10
486.61	1196.01
486.78	1221.76
486.96	1011.11
487.14	1142.18
487.32	1212.40
487.50	1158.57
487.68	1345.81
487.85	1153.88
488.03	1259.21
488.21	1434.75
488.39	1198.35
488.57	1334.11
488.75	1153.88
488.92	3957.85
489.10	1444.11
489.28	1540.07
489.46	1224.10
489.64	1160.91
489.81	1254.53
489.99	1425.39
490.17	1291.98
490.35	1788.17
490.53	1343.47
490.70	1193.67
490.88	1343.47
491.06	1177.29
491.24	1397.30
491.41	1497.94
491.59	1352.83
491.77	1050.90
491.95	1177.29
492.13	1104.73
492.30	1369.21
492.48	1284.95
492.66	1348.15
492.84	1233.46
493.01	1413.68
493.19	1200.69
493.37	1701.57
493.54	1434.75
493.72	1411.34
493.90	1287.29
494.08	1135.16
494.25	1462.83
494.43	1448.79
494.61	1441.77
494.79	1287.29
494.96	1224.10
495.14	1444.11
495.32	1317.72
495.49	1409.00
495.67	1427.73
495.85	1219.42
496.02	1322.40
496.20	1547.09
496.38	1465.18
496.55	1441.77
496.73	1596.25
496.91	1324.74
497.09	1596.25
497.26	1401.98
497.44	1385.60
497.62	1387.94
497.79	1362.19
497.97	1432.41
498.14	1451.13
498.32	1509.65
498.50	1528.37
498.67	1387.94
498.85	1420.71
499.03	1362.19
499.20	1397.30
499.38	1357.51
499.56	1387.94
499.73	1881.79
499.91	1682.85
500.08	1657.10
500.26	1387.94
500.44	1203.04
500.61	1432.41
500.79	1284.95
500.97	1610.29
501.14	1741.36
501.32	1465.18
501.49	1781.15
501.67	1416.02
501.84	1504.96
502.02	1324.74
502.20	1717.95
502.37	1476.88
502.55	1439.43
502.72	1465.18
502.90	1633.69
503.07	1554.12
503.25	1476.88
503.43	1296.66
503.60	1401.98
503.78	1462.83
503.95	1348.15
504.13	1444.11
504.30	1565.82
504.48	1739.02
504.65	1778.81
504.83	1732.00
505.01	1416.02
505.18	1572.84
505.36	1460.49
505.53	1500.28
505.71	1401.98
505.88	1771.79
506.06	1455.81
506.23	1434.75
506.41	1362.19
506.58	1591.56
506.76	1511.99
506.93	1343.47
507.11	1551.78
507.28	1345.81
507.46	1362.19
507.63	1514.33
507.81	1432.41
507.98	1521.35
508.16	1474.54
508.33	1565.82
508.50	1668.80
508.68	1502.62
508.85	1558.80
509.03	1378.58
509.20	1455.81
509.38	1607.95
509.55	1739.02
509.73	1666.46
509.90	1767.10
510.08	1383.26
510.25	1722.63
510.42	1336.45
510.60	1460.49
510.77	1748.38
510.95	1682.85
511.12	1621.99
511.30	1699.23
511.47	1743.70
511.64	2015.20
511.82	1526.03
511.99	1497.94
512.17	1366.87
512.34	1327.08
512.51	1476.88
512.69	1488.58
512.86	1774.13
513.04	1434.75
513.21	1633.69
513.38	1523.69
513.56	1467.52
513.73	1448.79
513.90	1380.92
514.08	1390.28
514.25	1600.93
514.43	1636.03
514.60	1502.62
514.77	1441.77
514.95	1633.69
515.12	1427.73
515.29	1509.65
515.47	1586.88
515.64	1483.90
515.81	1528.37
515.99	1710.93
516.16	1582.20
516.33	1638.38
516.51	1338.79
516.68	1221.76
516.85	1299.00
517.03	1369.21
517.20	1570.50
517.37	1582.20
517.54	1713.27
517.72	1394.96
517.89	1329.42
518.06	1364.53
518.24	1839.66
518.41	1952.01
518.58	1671.14
518.75	1380.92
518.93	1547.09
519.10	1474.54
519.27	1509.65
519.45	1572.84
519.62	1617.31
519.79	1675.82
519.96	1507.30
520.14	1577.52
520.31	1771.79
520.48	1530.71
520.65	1535.39
520.83	1673.48
521.00	1827.96
521.17	1605.61
521.34	1540.07
521.52	1563.48
521.69	1586.88
521.86	1652.42
522.03	1732.00
522.20	2080.74
522.38	1465.18
522.55	1640.72
522.72	1338.79
522.89	1844.34
523.07	2090.10
523.24	1671.14
523.41	1577.52
523.58	1561.14
523.75	1554.12
523.92	1465.18
524.10	1703.91
524.27	1614.97
524.44	1685.19
524.61	1884.13
524.78	1570.50
524.96	1825.62
525.13	1638.38
525.30	1874.77
525.47	1809.23
525.64	1659.44
525.81	1715.61
525.98	1617.31
526.16	1516.67
526.33	1521.35
526.50	1397.30
526.67	1376.24
526.84	1299.00
527.01	1338.79
527.18	1671.14
527.36	1568.16
527.53	1458.15
527.70	1813.92
527.87	1598.59
528.04	2031.58
528.21	1526.03
528.38	1790.51
528.55	1980.09
528.72	1984.77
528.89	2179.04
529.07	1600.93
529.24	1671.14
529.41	2003.50
529.58	1654.76
529.75	1523.69
529.92	1790.51
530.09	1668.80
530.26	1839.66
530.43	1799.87
530.60	1636.03
530.77	1739.02
530.94	1891.15
531.11	1816.26
531.28	1591.56
531.46	1460.49
531.63	1722.63
531.80	1687.53
531.97	1720.29
532.14	1643.06
532.31	1736.68
532.48	1612.63
532.65	1771.79
532.82	1455.81
532.99	1614.97
533.16	1699.23
533.33	1680.50
533.50	1654.76
533.67	1568.16
533.84	1860.73
534.01	1891.15
534.18	1584.54
534.35	1776.47
534.52	1603.27
534.69	2165.00
534.86	1689.87
535.03	1607.95
535.20	1654.76
535.37	1902.86
535.54	1743.70
535.71	1647.74
535.88	1870.09
536.05	1495.60
536.22	1696.89
536.38	1692.21
536.55	1830.30
536.72	1839.66
536.89	1540.07
537.06	1439.43
537.23	1519.01
537.40	1523.69
537.57	1528.37
537.74	1802.21
537.91	1710.93
538.08	1729.66
538.25	1781.15
538.42	1659.44
538.59	1636.03
538.75	1643.06
538.92	1694.55
539.09	1827.96
539.26	1589.22
539.43	2174.36
539.60	2310.11
539.77	2668.21
539.94	2485.65
540.11	2214.15
540.28	2169.68
540.44	2062.01
540.61	1675.82
540.78	1577.52
540.95	1533.05
541.12	2017.54
541.29	1493.26
541.46	1963.71
541.62	1685.19
541.79	1554.12
541.96	1483.90
542.13	1540.07
542.30	1528.37
542.47	1732.00
542.63	1561.14
542.80	1685.19
542.97	1757.74
543.14	1607.95
543.31	1734.34
543.48	1554.12
543.64	1699.23
543.81	1652.42
543.98	1486.24
544.15	1439.43
544.32	1579.86
544.48	1593.90
544.65	1507.30
544.82	1432.41
544.99	1650.08
545.16	1893.49
545.32	1530.71
545.49	1575.18
545.66	1516.67
545.83	1448.79
546.00	1387.94
546.16	1495.60
546.33	1469.86
546.50	1577.52
546.67	1970.73
546.83	1823.28
547.00	1600.93
547.17	1345.81
547.34	1472.20
547.50	1521.35
547.67	1561.14
547.84	1404.32
548.00	1724.97
548.17	1465.18
548.34	1535.39
548.51	1919.24
548.67	1858.39
548.84	1654.76
549.01	1734.34
549.18	1607.95
549.34	1633.69
549.51	1570.50
549.68	1713.27
549.84	1596.25
550.01	1516.67
550.18	2602.68
550.34	2317.13
550.51	1764.76
550.68	2214.15
550.84	1462.83
551.01	1586.88
551.18	1767.10
551.34	1526.03
551.51	1535.39
551.68	1598.59
551.84	1619.65
552.01	1467.52
552.18	1451.13
552.34	1519.01
552.51	1654.76
552.68	1767.10
552.84	1582.20
553.01	1577.52
553.18	1746.04
553.34	1614.97
553.51	1514.33
553.67	1687.53
553.84	2057.33
554.01	1842.00
554.17	1682.85
554.34	1467.52
554.51	1689.87
554.67	1764.76
554.84	1806.89
555.00	1706.25
555.17	1605.61
555.33	1689.87
555.50	1631.35
555.67	1811.57
555.83	1430.07
556.00	1650.08
556.16	3157.38
556.33	1657.10
556.50	1554.12
556.66	1554.12
556.83	1394.96
556.99	1549.43
557.16	1584.54
557.32	1474.54
557.49	1549.43
557.65	1490.92
557.82	1458.15
557.98	1584.54
558.15	1420.71
558.32	1504.96
558.48	1488.58
558.65	1537.73
558.81	1650.08
558.98	1502.62
559.14	1610.29
559.31	1570.50
559.47	1706.25
559.64	1446.45
559.80	1661.78
559.97	1397.30
560.13	1460.49
560.30	1420.71
560.46	1533.05
560.63	1572.84
560.79	1603.27
560.96	1626.67
561.12	1481.56
561.29	1640.72
561.45	1540.07
561.61	1675.82
561.78	2239.89
561.94	1451.13
562.11	1469.86
562.27	1526.03
562.44	1430.07
562.60	1439.43
562.77	1507.30
562.93	2165.00
563.10	1572.84
563.26	1523.69
563.42	1839.66
563.59	1516.67
563.75	1444.11
563.92	1767.10
564.08	1614.97
564.24	1778.81
564.41	1912.22
564.57	1427.73
564.74	1441.77
564.90	1652.42
565.07	1624.33
565.23	1631.35
565.39	1453.47
565.56	1657.10
565.72	1469.86
565.88	1476.88
566.05	1390.28
566.21	1486.24
566.38	1638.38
566.54	1521.35
566.70	1511.99
566.87	1432.41
567.03	1235.80
567.19	1572.84
567.36	1561.14
567.52	1486.24
567.68	1570.50
567.85	1584.54
568.01	1345.81
568.17	1334.11
568.34	1406.66
568.50	1776.47
568.66	1303.68
568.83	2186.06
568.99	1334.11
569.15	1802.21
569.32	1467.52
569.48	1427.73
569.64	1299.00
569.81	1430.07
569.97	1401.98
570.13	1603.27
570.30	1350.49
570.46	1331.76
570.62	1373.89
570.78	1355.17
570.95	1193.67
571.11	1797.53
571.27	1825.62
571.43	1343.47
571.60	1565.82
571.76	1444.11
571.92	1465.18
572.09	1385.60
572.25	1507.30
572.41	1497.94
572.57	1359.85
572.74	1839.66
572.90	1626.67
573.06	1699.23
573.22	1519.01
573.38	1727.32
573.55	1687.53
573.71	1755.40
573.87	1549.43
574.03	1240.48
574.20	1390.28
574.36	1687.53
574.52	1467.52
574.68	1409.00
574.84	1528.37
575.01	1458.15
575.17	1528.37
575.33	1411.34
575.49	1589.22
575.65	1631.35
575.82	1706.25
575.98	2214.15
576.14	1947.33
576.30	1764.76
576.46	1743.70
576.62	1626.67
576.79	1694.55
576.95	1834.98
577.11	1301.34
577.27	1268.57
577.43	1760.08
577.59	1781.15
577.75	1624.33
577.92	1462.83
578.08	1341.13
578.24	1313.04
578.40	1621.99
578.56	1722.63
578.72	1727.32
578.88	1813.92
579.04	1416.02
579.21	1596.25
579.37	1500.28
579.53	1270.91
579.69	1694.55
579.85	1390.28
580.01	1657.10
580.17	1476.88
580.33	1516.67
580.49	1610.29
580.65	1640.72
580.82	1554.12
580.98	1413.68
581.14	1406.66
581.30	1823.28
581.46	1652.42
581.62	1982.43
581.78	1699.23
581.94	1797.53
582.10	1537.73
582.26	1554.12
582.42	1502.62
582.58	1771.79
582.74	1514.33
582.90	1516.67
583.06	1582.20
583.22	1614.97
583.38	1600.93
583.54	1603.27
583.70	2059.67
583.86	1790.51
584.02	1923.92
584.18	2370.96
584.34	2146.27
584.50	4854.27
584.66	26370.82
584.82	52355.44
584.98	59208.53
585.14	54908.97
585.30	37469.64
585.46	23070.66
585.62	14359.19
585.78	7412.48
585.94	3763.58
586.10	2462.24
586.26	2083.08
586.42	2167.34
586.58	1839.66
586.74	1734.34
586.90	1680.50
587.06	1739.02
587.22	1659.44
587.38	1467.52
587.54	2347.56
587.70	4697.46
587.86	5994.11
588.02	5877.09
588.18	4718.52
588.34	3438.25
588.49	2373.30
588.65	2003.50
588.81	1603.27
588.97	1219.42
589.13	1366.87
589.29	1418.36
589.45	1514.33
589.61	1399.64
589.77	1764.76
589.93	1385.60
590.08	1348.15
590.24	1317.72
590.40	1451.13
590.56	1483.90
590.72	1317.72
590.88	1228.78
591.04	1444.11
591.20	1242.82
591.35	1692.21
591.51	1423.05
591.67	1107.07
591.83	1273.25
591.99	1453.47
592.15	1500.28
592.31	1488.58
592.46	1355.17
592.62	1526.03
592.78	1303.68
592.94	1268.57
593.10	1275.59
593.26	1240.48
593.41	1455.81
593.57	1397.30
593.73	1586.88
593.89	4440.00
594.05	7955.48
594.20	9551.73
594.36	8905.74
594.52	6204.76
594.68	4308.93
594.84	3363.35
594.99	2471.61
595.15	1771.79
595.31	1706.25
595.47	1830.30
595.62	1343.47
595.78	1320.06
595.94	1411.34
596.10	1624.33
596.25	1451.13
596.41	1600.93
596.57	1313.04
596.73	1329.42
596.88	1621.99
597.04	2520.76
597.20	2993.55
597.36	3119.93
597.51	2544.16
597.67	2073.71
597.83	1813.92
597.99	1792.85
598.14	1486.24
598.30	1650.08
598.46	1331.76
598.61	1678.16
598.77	1444.11
598.93	1331.76
599.09	1273.25
599.24	1320.06
599.40	1479.22
599.56	1315.38
599.71	1289.64
599.87	1294.32
600.03	1385.60
600.18	1331.76
600.34	1504.96
600.50	1259.21
600.65	1287.29
600.81	1561.14
600.97	1231.12
601.12	1306.02
