SpectraSuite Data File
++++++++++++++++++++++++++++++++++++
Date: Fri Oct 04 11:33:54 GMT-05:00 2013
User: price-jones
Dark Spectrum Present: No
Reference Spectrum Present: No
Number of Sampled Component Spectra: 1
Spectrometers: USB2+H05261
Integration Time (usec): 100000 (USB2+H05261)
Spectra Averaged: 1 (USB2+H05261)
Boxcar Smoothing: 0 (USB2+H05261)
Correct for Electrical Dark: No (USB2+H05261)
Strobe/Lamp Enabled: No (USB2+H05261)
Correct for Detector Non-linearity: No (USB2+H05261)
Correct for Stray Light: No (USB2+H05261)
Number of Pixels in Processed Spectrum: 2048
>>>>>Begin Processed Spectral Data<<<<<
365.73	72.56
365.92	72.56
366.12	72.56
366.32	21.06
366.52	0.00
366.72	2.34
366.91	0.00
367.11	51.49
367.31	0.00
367.51	0.00
367.70	0.00
367.90	0.00
368.10	9.36
368.30	0.00
368.49	0.00
368.69	25.75
368.89	4.68
369.09	0.00
369.28	0.00
369.48	14.04
369.68	0.00
369.87	39.79
370.07	42.13
370.27	72.56
370.47	79.58
370.66	0.00
370.86	77.24
371.06	56.17
371.25	81.92
371.45	77.24
371.65	98.30
371.84	88.94
372.04	95.96
372.24	49.15
372.44	140.43
372.63	95.96
372.83	152.13
373.03	110.01
373.22	112.35
373.42	131.07
373.62	191.92
373.81	205.97
374.01	102.98
374.21	166.18
374.40	166.18
374.60	201.29
374.79	166.18
374.99	135.75
375.19	196.60
375.38	170.86
375.58	112.35
375.78	234.05
375.97	222.35
376.17	210.65
376.37	163.84
376.56	140.43
376.76	161.50
376.95	147.45
377.15	114.69
377.35	189.58
377.54	154.48
377.74	145.11
377.93	46.81
378.13	212.99
378.33	166.18
378.52	168.52
378.72	191.92
378.91	170.86
379.11	133.41
379.31	124.05
379.50	201.29
379.70	95.96
379.89	126.39
380.09	126.39
380.28	140.43
380.48	154.48
380.68	138.09
380.87	138.09
381.07	126.39
381.26	102.98
381.46	182.56
381.65	110.01
381.85	131.07
382.04	105.32
382.24	112.35
382.43	114.69
382.63	65.54
382.83	161.50
383.02	140.43
383.22	114.69
383.41	67.88
383.61	60.85
383.80	128.73
384.00	177.88
384.19	182.56
384.39	159.16
384.58	142.77
384.78	88.94
384.97	95.96
385.17	135.75
385.36	77.24
385.56	95.96
385.75	124.05
385.95	133.41
386.14	196.60
386.34	149.79
386.53	154.48
386.72	140.43
386.92	135.75
387.11	142.77
387.31	159.16
387.50	180.22
387.70	110.01
387.89	63.19
388.09	60.85
388.28	128.73
388.48	161.50
388.67	138.09
388.86	88.94
389.06	117.03
389.25	112.35
389.45	110.01
389.64	121.71
389.84	189.58
390.03	215.33
390.22	107.66
390.42	173.20
390.61	105.32
390.81	180.22
391.00	220.01
391.19	177.88
391.39	121.71
391.58	156.82
391.78	198.95
391.97	131.07
392.16	110.01
392.36	210.65
392.55	187.24
392.75	126.39
392.94	131.07
393.13	159.16
393.33	187.24
393.52	180.22
393.71	163.84
393.91	131.07
394.10	142.77
394.29	166.18
394.49	117.03
394.68	147.45
394.88	276.18
395.07	168.52
395.26	133.41
395.46	128.73
395.65	124.05
395.84	152.13
396.04	231.71
396.23	154.48
396.42	79.58
396.62	86.60
396.81	107.66
397.00	133.41
397.19	128.73
397.39	124.05
397.58	142.77
397.77	140.43
397.97	98.30
398.16	70.22
398.35	138.09
398.55	79.58
398.74	154.48
398.93	152.13
399.12	142.77
399.32	145.11
399.51	189.58
399.70	152.13
399.90	154.48
400.09	173.20
400.28	170.86
400.47	124.05
400.67	163.84
400.86	100.64
401.05	201.29
401.24	110.01
401.44	131.07
401.63	161.50
401.82	112.35
402.01	168.52
402.21	149.79
402.40	154.48
402.59	145.11
402.78	215.33
402.97	124.05
403.17	140.43
403.36	173.20
403.55	135.75
403.74	203.63
403.93	208.31
404.13	180.22
404.32	250.44
404.51	262.14
404.70	168.52
404.89	114.69
405.09	173.20
405.28	210.65
405.47	173.20
405.66	140.43
405.85	220.01
406.05	147.45
406.24	126.39
406.43	189.58
406.62	168.52
406.81	196.60
407.00	93.62
407.20	128.73
407.39	124.05
407.58	147.45
407.77	175.54
407.96	149.79
408.15	159.16
408.34	128.73
408.54	142.77
408.73	177.88
408.92	175.54
409.11	177.88
409.30	184.90
409.49	163.84
409.68	170.86
409.87	140.43
410.07	145.11
410.26	117.03
410.45	128.73
410.64	217.67
410.83	142.77
411.02	161.50
411.21	163.84
411.40	149.79
411.59	154.48
411.78	135.75
411.98	119.37
412.17	184.90
412.36	91.28
412.55	133.41
412.74	177.88
412.93	159.16
413.12	128.73
413.31	175.54
413.50	117.03
413.69	117.03
413.88	236.39
414.07	184.90
414.26	147.45
414.45	170.86
414.64	135.75
414.83	168.52
415.02	126.39
415.22	161.50
415.41	231.71
415.60	177.88
415.79	187.24
415.98	119.37
416.17	140.43
416.36	149.79
416.55	220.01
416.74	128.73
416.93	124.05
417.12	196.60
417.31	135.75
417.50	189.58
417.69	208.31
417.88	208.31
418.07	159.16
418.26	175.54
418.45	318.31
418.64	231.71
418.83	203.63
419.02	259.80
419.21	248.10
419.39	191.92
419.58	224.69
419.77	156.82
419.96	236.39
420.15	222.35
420.34	173.20
420.53	145.11
420.72	161.50
420.91	229.37
421.10	149.79
421.29	170.86
421.48	72.56
421.67	163.84
421.86	159.16
422.05	196.60
422.24	156.82
422.43	191.92
422.61	72.56
422.80	142.77
422.99	189.58
423.18	138.09
423.37	222.35
423.56	189.58
423.75	184.90
423.94	107.66
424.13	170.86
424.32	133.41
424.50	152.13
424.69	194.26
424.88	196.60
425.07	191.92
425.26	147.45
425.45	238.73
425.64	262.14
425.83	259.80
426.01	322.99
426.20	112.35
426.39	156.82
426.58	152.13
426.77	231.71
426.96	133.41
427.15	177.88
427.33	212.99
427.52	191.92
427.71	124.05
427.90	140.43
428.09	145.11
428.28	140.43
428.46	145.11
428.65	114.69
428.84	170.86
429.03	203.63
429.22	166.18
429.40	166.18
429.59	198.95
429.78	198.95
429.97	156.82
430.16	112.35
430.34	182.56
430.53	170.86
430.72	212.99
430.91	224.69
431.10	84.26
431.28	215.33
431.47	170.86
431.66	166.18
431.85	224.69
432.03	107.66
432.22	184.90
432.41	170.86
432.60	241.08
432.79	227.03
432.97	243.42
433.16	252.78
433.35	212.99
433.54	173.20
433.72	166.18
433.91	217.67
434.10	238.73
434.28	236.39
434.47	236.39
434.66	285.55
434.85	182.56
435.03	191.92
435.22	248.10
435.41	390.87
435.59	320.65
435.78	290.23
435.97	292.57
436.16	231.71
436.34	168.52
436.53	128.73
436.72	170.86
436.90	208.31
437.09	196.60
437.28	191.92
437.46	191.92
437.65	156.82
437.84	229.37
438.02	175.54
438.21	170.86
438.40	180.22
438.58	217.67
438.77	173.20
438.96	191.92
439.14	112.35
439.33	168.52
439.52	138.09
439.70	177.88
439.89	196.60
440.08	194.26
440.26	294.91
440.45	229.37
440.63	163.84
440.82	112.35
441.01	131.07
441.19	163.84
441.38	245.76
441.57	156.82
441.75	191.92
441.94	198.95
442.12	173.20
442.31	191.92
442.50	138.09
442.68	201.29
442.87	177.88
443.05	166.18
443.24	168.52
443.43	210.65
443.61	159.16
443.80	280.86
443.98	198.95
444.17	124.05
444.35	173.20
444.54	161.50
444.73	131.07
444.91	212.99
445.10	166.18
445.28	140.43
445.47	180.22
445.65	212.99
445.84	142.77
446.02	138.09
446.21	166.18
446.39	194.26
446.58	210.65
446.77	166.18
446.95	152.13
447.14	229.37
447.32	191.92
447.51	187.24
447.69	196.60
447.88	194.26
448.06	184.90
448.25	140.43
448.43	203.63
448.62	170.86
448.80	184.90
448.99	210.65
449.17	131.07
449.36	154.48
449.54	187.24
449.73	180.22
449.91	156.82
450.10	217.67
450.28	264.48
450.46	205.97
450.65	198.95
450.83	236.39
451.02	250.44
451.20	184.90
451.39	173.20
451.57	182.56
451.76	191.92
451.94	205.97
452.13	259.80
452.31	175.54
452.49	187.24
452.68	180.22
452.86	231.71
453.05	243.42
453.23	236.39
453.42	140.43
453.60	205.97
453.78	205.97
453.97	131.07
454.15	170.86
454.34	175.54
454.52	217.67
454.70	215.33
454.89	220.01
455.07	112.35
455.26	229.37
455.44	318.31
455.62	180.22
455.81	234.05
455.99	128.73
456.17	175.54
456.36	149.79
456.54	191.92
456.73	227.03
456.91	140.43
457.09	168.52
457.28	203.63
457.46	191.92
457.64	269.16
457.83	194.26
458.01	180.22
458.19	189.58
458.38	142.77
458.56	182.56
458.74	191.92
458.93	184.90
459.11	210.65
459.29	112.35
459.48	175.54
459.66	145.11
459.84	220.01
460.03	301.93
460.21	161.50
460.39	215.33
460.57	231.71
460.76	147.45
460.94	234.05
461.12	201.29
461.31	220.01
461.49	264.48
461.67	152.13
461.85	229.37
462.04	166.18
462.22	674.07
462.40	257.46
462.59	180.22
462.77	189.58
462.95	184.90
463.13	189.58
463.32	187.24
463.50	175.54
463.68	156.82
463.86	215.33
464.05	182.56
464.23	259.80
464.41	271.50
464.59	231.71
464.78	217.67
464.96	168.52
465.14	180.22
465.32	166.18
465.50	170.86
465.69	168.52
465.87	187.24
466.05	231.71
466.23	170.86
466.41	110.01
466.60	252.78
466.78	149.79
466.96	222.35
467.14	166.18
467.32	248.10
467.51	175.54
467.69	201.29
467.87	229.37
468.05	241.08
468.23	163.84
468.41	159.16
468.60	196.60
468.78	212.99
468.96	217.67
469.14	175.54
469.32	147.45
469.50	203.63
469.69	234.05
469.87	212.99
470.05	215.33
470.23	201.29
470.41	166.18
470.59	173.20
470.77	154.48
470.95	224.69
471.14	196.60
471.32	215.33
471.50	250.44
471.68	212.99
471.86	264.48
472.04	154.48
472.22	236.39
472.40	177.88
472.58	163.84
472.77	191.92
472.95	203.63
473.13	266.82
473.31	280.86
473.49	187.24
473.67	145.11
473.85	269.16
474.03	189.58
474.21	252.78
474.39	201.29
474.57	231.71
474.75	212.99
474.93	217.67
475.12	175.54
475.30	215.33
475.48	182.56
475.66	248.10
475.84	170.86
476.02	208.31
476.20	238.73
476.38	194.26
476.56	315.97
476.74	163.84
476.92	243.42
477.10	196.60
477.28	182.56
477.46	133.41
477.64	147.45
477.82	128.73
478.00	212.99
478.18	229.37
478.36	220.01
478.54	140.43
478.72	234.05
478.90	142.77
479.08	201.29
479.26	184.90
479.44	236.39
479.62	217.67
479.80	210.65
479.98	142.77
480.16	187.24
480.34	212.99
480.52	227.03
480.70	227.03
480.88	205.97
481.06	220.01
481.24	196.60
481.41	152.13
481.59	227.03
481.77	222.35
481.95	156.82
482.13	182.56
482.31	271.50
482.49	203.63
482.67	220.01
482.85	170.86
483.03	250.44
483.21	205.97
483.39	166.18
483.57	175.54
483.74	266.82
483.92	276.18
484.10	189.58
484.28	278.52
484.46	276.18
484.64	245.76
484.82	257.46
485.00	210.65
485.18	266.82
485.35	262.14
485.53	187.24
485.71	266.82
485.89	241.08
486.07	248.10
486.25	203.63
486.43	297.25
486.61	245.76
486.78	243.42
486.96	278.52
487.14	217.67
487.32	238.73
487.50	234.05
487.68	255.12
487.85	266.82
488.03	294.91
488.21	241.08
488.39	217.67
488.57	283.20
488.75	177.88
488.92	477.47
489.10	292.57
489.28	262.14
489.46	231.71
489.64	217.67
489.81	273.84
489.99	301.93
490.17	271.50
490.35	315.97
490.53	271.50
490.70	236.39
490.88	313.63
491.06	196.60
491.24	280.86
491.41	264.48
491.59	315.97
491.77	229.37
491.95	248.10
492.13	243.42
492.30	276.18
492.48	299.59
492.66	222.35
492.84	241.08
493.01	245.76
493.19	273.84
493.37	348.74
493.54	243.42
493.72	283.20
493.90	241.08
494.08	210.65
494.25	238.73
494.43	243.42
494.61	166.18
494.79	264.48
494.96	271.50
495.14	283.20
495.32	355.76
495.49	280.86
495.67	196.60
495.85	276.18
496.02	227.03
496.20	205.97
496.38	283.20
496.55	255.12
496.73	327.68
496.91	210.65
497.09	229.37
497.26	241.08
497.44	238.73
497.62	191.92
497.79	297.25
497.97	236.39
498.14	231.71
498.32	215.33
498.50	245.76
498.67	276.18
498.85	299.59
499.03	276.18
499.20	255.12
499.38	278.52
499.56	266.82
499.73	283.20
499.91	238.73
500.08	266.82
500.26	290.23
500.44	259.80
500.61	215.33
500.79	243.42
500.97	255.12
501.14	264.48
501.32	304.27
501.49	264.48
501.67	304.27
501.84	269.16
502.02	205.97
502.20	292.57
502.37	215.33
502.55	215.33
502.72	290.23
502.90	257.46
503.07	294.91
503.25	262.14
503.43	248.10
503.60	285.55
503.78	273.84
503.95	271.50
504.13	290.23
504.30	227.03
504.48	311.29
504.65	262.14
504.83	301.93
505.01	264.48
505.18	257.46
505.36	217.67
505.53	234.05
505.71	299.59
505.88	257.46
506.06	236.39
506.23	227.03
506.41	231.71
506.58	236.39
506.76	201.29
506.93	285.55
507.11	283.20
507.28	229.37
507.46	224.69
507.63	348.74
507.81	238.73
507.98	306.61
508.16	248.10
508.33	262.14
508.50	290.23
508.68	299.59
508.85	205.97
509.03	266.82
509.20	257.46
509.38	236.39
509.55	278.52
509.73	285.55
509.90	325.33
510.08	287.89
510.25	243.42
510.42	271.50
510.60	189.58
510.77	304.27
510.95	224.69
511.12	252.78
511.30	287.89
511.47	320.65
511.64	332.36
511.82	243.42
511.99	322.99
512.17	290.23
512.34	311.29
512.51	210.65
512.69	234.05
512.86	248.10
513.04	294.91
513.21	243.42
513.38	266.82
513.56	245.76
513.73	252.78
513.90	229.37
514.08	301.93
514.25	330.02
514.43	318.31
514.60	250.44
514.77	198.95
514.95	276.18
515.12	224.69
515.29	315.97
515.47	287.89
515.64	273.84
515.81	287.89
515.99	255.12
516.16	259.80
516.33	278.52
516.51	283.20
516.68	250.44
516.85	250.44
517.03	262.14
517.20	266.82
517.37	187.24
517.54	210.65
517.72	301.93
517.89	255.12
518.06	294.91
518.24	234.05
518.41	283.20
518.58	229.37
518.75	280.86
518.93	264.48
519.10	290.23
519.27	304.27
519.45	276.18
519.62	294.91
519.79	205.97
519.96	266.82
520.14	250.44
520.31	334.70
520.48	278.52
520.65	180.22
520.83	271.50
521.00	262.14
521.17	250.44
521.34	224.69
521.52	245.76
521.69	262.14
521.86	280.86
522.03	334.70
522.20	276.18
522.38	306.61
522.55	325.33
522.72	248.10
522.89	322.99
523.07	311.29
523.24	212.99
523.41	273.84
523.58	243.42
523.75	212.99
523.92	243.42
524.10	248.10
524.27	367.46
524.44	210.65
524.61	269.16
524.78	227.03
524.96	243.42
525.13	238.73
525.30	297.25
525.47	301.93
525.64	325.33
525.81	182.56
525.98	252.78
526.16	212.99
526.33	229.37
526.50	236.39
526.67	184.90
526.84	210.65
527.01	252.78
527.18	243.42
527.36	170.86
527.53	341.72
527.70	283.20
527.87	290.23
528.04	325.33
528.21	198.95
528.38	215.33
528.55	306.61
528.72	358.10
528.89	365.12
529.07	255.12
529.24	208.31
529.41	264.48
529.58	332.36
529.75	301.93
529.92	339.38
530.09	304.27
530.26	318.31
530.43	276.18
530.60	297.25
530.77	311.29
530.94	255.12
531.11	341.72
531.28	276.18
531.46	276.18
531.63	276.18
531.80	252.78
531.97	318.31
532.14	351.08
532.31	332.36
532.48	292.57
532.65	315.97
532.82	339.38
532.99	379.17
533.16	353.42
533.33	390.87
533.50	341.72
533.67	315.97
533.84	367.46
534.01	430.66
534.18	425.98
534.35	276.18
534.52	334.70
534.69	372.15
534.86	229.37
535.03	301.93
535.20	299.59
535.37	330.02
535.54	255.12
535.71	224.69
535.88	346.40
536.05	365.12
536.22	315.97
536.38	306.61
536.55	245.76
536.72	337.04
536.89	259.80
537.06	252.78
537.23	351.08
537.40	259.80
537.57	325.33
537.74	353.42
537.91	351.08
538.08	320.65
538.25	390.87
538.42	271.50
538.59	290.23
538.75	372.15
538.92	266.82
539.09	355.76
539.26	383.85
539.43	498.53
539.60	901.11
539.77	1460.49
539.94	1659.44
540.11	1137.50
540.28	706.84
540.44	653.01
540.61	496.19
540.78	418.96
540.95	479.81
541.12	519.60
541.29	545.34
541.46	449.38
541.62	524.28
541.79	435.34
541.96	428.32
542.13	489.17
542.30	458.74
542.47	461.09
542.63	505.56
542.80	402.57
542.97	435.34
543.14	482.15
543.31	498.53
543.48	461.09
543.64	463.43
543.81	493.85
543.98	416.62
544.15	454.06
544.32	395.55
544.48	458.74
544.65	463.43
544.82	449.38
544.99	376.83
545.16	482.15
545.32	465.77
545.49	657.69
545.66	816.85
545.83	800.46
546.00	734.93
546.16	681.10
546.33	461.09
546.50	402.57
546.67	454.06
546.83	456.40
547.00	402.57
547.17	383.85
547.34	339.38
547.50	355.76
547.67	360.44
547.84	344.06
548.00	414.27
548.17	346.40
548.34	428.32
548.51	414.27
548.67	456.40
548.84	320.65
549.01	447.04
549.18	388.53
549.34	411.93
549.51	379.17
549.68	362.78
549.84	318.31
550.01	325.33
550.18	421.30
550.34	376.83
550.51	362.78
550.68	411.93
550.84	313.63
551.01	346.40
551.18	341.72
551.34	273.84
551.51	320.65
551.68	276.18
551.84	297.25
552.01	381.51
552.18	241.08
552.34	245.76
552.51	269.16
552.68	262.14
552.84	325.33
553.01	262.14
553.18	320.65
553.34	231.71
553.51	299.59
553.67	248.10
553.84	348.74
554.01	322.99
554.17	276.18
554.34	266.82
554.51	346.40
554.67	297.25
554.84	276.18
555.00	271.50
555.17	222.35
555.33	332.36
555.50	287.89
555.67	224.69
555.83	248.10
556.00	327.68
556.16	440.02
556.33	208.31
556.50	299.59
556.66	264.48
556.83	194.26
556.99	236.39
557.16	259.80
557.32	327.68
557.49	245.76
557.65	332.36
557.82	299.59
557.98	269.16
558.15	301.93
558.32	262.14
558.48	159.16
558.65	276.18
558.81	327.68
558.98	227.03
559.14	259.80
559.31	315.97
559.47	231.71
559.64	269.16
559.80	287.89
559.97	243.42
560.13	290.23
560.30	236.39
560.46	301.93
560.63	278.52
560.79	294.91
560.96	229.37
561.12	290.23
561.29	327.68
561.45	292.57
561.61	271.50
561.78	283.20
561.94	238.73
562.11	262.14
562.27	234.05
562.44	238.73
562.60	227.03
562.77	313.63
562.93	273.84
563.10	337.04
563.26	238.73
563.42	297.25
563.59	217.67
563.75	234.05
563.92	315.97
564.08	259.80
564.24	339.38
564.41	292.57
564.57	276.18
564.74	234.05
564.90	273.84
565.07	301.93
565.23	365.12
565.39	320.65
565.56	318.31
565.72	327.68
565.88	325.33
566.05	304.27
566.21	306.61
566.38	269.16
566.54	262.14
566.70	271.50
566.87	208.31
567.03	180.22
567.19	280.86
567.36	231.71
567.52	231.71
567.68	278.52
567.85	222.35
568.01	257.46
568.17	318.31
568.34	297.25
568.50	264.48
568.66	299.59
568.83	334.70
568.99	301.93
569.15	351.08
569.32	276.18
569.48	264.48
569.64	348.74
569.81	217.67
569.97	264.48
570.13	304.27
570.30	301.93
570.46	292.57
570.62	276.18
570.78	299.59
570.95	325.33
571.11	348.74
571.27	252.78
571.43	280.86
571.60	238.73
571.76	205.97
571.92	259.80
572.09	259.80
572.25	320.65
572.41	292.57
572.57	285.55
572.74	252.78
572.90	259.80
573.06	327.68
573.22	285.55
573.38	353.42
573.55	285.55
573.71	278.52
573.87	327.68
574.03	283.20
574.20	248.10
574.36	299.59
574.52	402.57
574.68	365.12
574.84	393.21
575.01	365.12
575.17	308.95
575.33	250.44
575.49	327.68
575.65	301.93
575.82	341.72
575.98	533.64
576.14	575.77
576.30	737.27
576.46	660.03
576.62	550.03
576.79	498.53
576.95	454.06
577.11	330.02
577.27	346.40
577.43	337.04
577.59	367.46
577.75	311.29
577.92	330.02
578.08	278.52
578.24	273.84
578.40	341.72
578.56	418.96
578.72	418.96
578.88	435.34
579.04	379.17
579.21	325.33
579.37	311.29
579.53	308.95
579.69	386.19
579.85	334.70
580.01	423.64
580.17	409.59
580.33	355.76
580.49	430.66
580.65	397.89
580.82	386.19
580.98	358.10
581.14	407.25
581.30	416.62
581.46	428.32
581.62	554.71
581.78	660.03
581.94	606.20
582.10	566.41
582.26	447.04
582.42	465.77
582.58	503.22
582.74	461.09
582.90	449.38
583.06	519.60
583.22	400.23
583.38	578.11
583.54	465.77
583.70	507.90
583.86	711.52
584.02	748.97
584.18	833.23
584.34	1144.52
584.50	2239.89
584.66	15040.28
584.82	44825.94
584.98	62000.79
585.14	62155.27
585.30	46143.66
585.46	26012.71
585.62	16025.65
585.78	7644.19
585.94	3030.99
586.10	1479.22
586.26	999.41
586.42	866.00
586.58	730.25
586.74	643.65
586.90	608.54
587.06	629.60
587.22	657.69
587.38	564.07
587.54	858.98
587.70	2485.65
587.86	4905.76
588.02	6286.68
588.18	4400.21
588.34	2764.17
588.49	1696.89
588.65	1186.65
588.81	641.31
588.97	470.45
589.13	449.38
589.29	365.12
589.45	381.51
589.61	351.08
589.77	475.13
589.93	381.51
590.08	437.68
590.24	519.60
590.40	421.30
590.56	465.77
590.72	407.25
590.88	437.68
591.04	423.64
591.20	409.59
591.35	421.30
591.51	332.36
591.67	407.25
591.83	320.65
591.99	386.19
592.15	397.89
592.31	423.64
592.46	367.46
592.62	383.85
592.78	325.33
592.94	365.12
593.10	348.74
593.26	334.70
593.41	414.27
593.57	449.38
593.73	489.17
593.89	1982.43
594.05	5238.12
594.20	9312.99
594.36	10260.91
594.52	6583.93
594.68	3819.75
594.84	2597.99
594.99	1514.33
595.15	741.95
595.31	489.17
595.47	437.68
595.62	367.46
595.78	325.33
595.94	365.12
596.10	325.33
596.25	290.23
596.41	461.09
596.57	322.99
596.73	386.19
596.88	444.70
597.04	1137.50
597.20	2031.58
597.36	2597.99
597.51	2083.08
597.67	1331.76
597.83	1004.09
597.99	690.46
598.14	442.36
598.30	451.72
598.46	400.23
598.61	367.46
598.77	383.85
598.93	456.40
599.09	416.62
599.24	348.74
599.40	372.15
599.56	320.65
599.71	334.70
599.87	318.31
600.03	318.31
600.18	383.85
600.34	369.80
600.50	337.04
600.65	269.16
600.81	308.95
600.97	269.16
601.12	292.57
601.28	337.04
601.44	341.72
601.59	311.29
601.75	264.48
601.91	287.89
602.06	276.18
602.22	369.80
602.37	615.56
602.53	1336.45
602.69	2366.28
602.84	2677.57
603.00	2031.58
603.16	1376.24
603.31	910.47
603.47	624.92
603.62	468.11
603.78	440.02
603.94	360.44
604.09	358.10
604.25	337.04
604.40	388.53
604.56	210.65
604.71	292.57
604.87	257.46
605.03	353.42
605.18	341.72
605.34	304.27
605.49	320.65
605.65	393.21
605.80	346.40
605.96	269.16
606.12	306.61
606.27	379.17
606.43	358.10
606.58	435.34
606.74	678.76
606.89	2415.43
607.05	5556.43
607.20	8734.88
607.36	7426.52
607.51	4992.36
607.67	3143.34
607.82	2275.00
607.98	1245.16
608.13	678.76
608.29	531.30
608.44	463.43
608.60	458.74
608.75	479.81
608.91	943.24
609.06	3613.79
609.22	8774.67
609.37	15318.81
609.53	14026.83
609.68	9074.26
609.84	5516.64
609.99	3824.44
610.15	2090.10
