SpectraSuite Data File
++++++++++++++++++++++++++++++++++++
Date: Fri Oct 04 11:33:45 GMT-05:00 2013
User: price-jones
Dark Spectrum Present: No
Reference Spectrum Present: No
Number of Sampled Component Spectra: 1
Spectrometers: USB2+H05261
Integration Time (usec): 100000 (USB2+H05261)
Spectra Averaged: 1 (USB2+H05261)
Boxcar Smoothing: 0 (USB2+H05261)
Correct for Electrical Dark: No (USB2+H05261)
Strobe/Lamp Enabled: No (USB2+H05261)
Correct for Detector Non-linearity: No (USB2+H05261)
Correct for Stray Light: No (USB2+H05261)
Number of Pixels in Processed Spectrum: 2048
>>>>>Begin Processed Spectral Data<<<<<
365.73	159.16
365.92	159.16
366.12	159.16
366.32	18.72
366.52	0.00
366.72	32.77
366.91	0.00
367.11	0.00
367.31	0.00
367.51	0.00
367.70	0.00
367.90	32.77
368.10	0.00
368.30	0.00
368.49	11.70
368.69	32.77
368.89	0.00
369.09	0.00
369.28	0.00
369.48	35.11
369.68	7.02
369.87	0.00
370.07	0.00
370.27	72.56
370.47	81.92
370.66	42.13
370.86	25.75
371.06	133.41
371.25	196.60
371.45	53.83
371.65	74.90
371.84	133.41
372.04	102.98
372.24	138.09
372.44	145.11
372.63	70.22
372.83	126.39
373.03	182.56
373.22	86.60
373.42	107.66
373.62	117.03
373.81	163.84
374.01	147.45
374.21	161.50
374.40	140.43
374.60	180.22
374.79	135.75
374.99	203.63
375.19	133.41
375.38	224.69
375.58	147.45
375.78	229.37
375.97	170.86
376.17	189.58
376.37	142.77
376.56	152.13
376.76	128.73
376.95	149.79
377.15	95.96
377.35	126.39
377.54	102.98
377.74	121.71
377.93	124.05
378.13	142.77
378.33	189.58
378.52	142.77
378.72	168.52
378.91	128.73
379.11	102.98
379.31	102.98
379.50	168.52
379.70	175.54
379.89	182.56
380.09	91.28
380.28	194.26
380.48	124.05
380.68	154.48
380.87	110.01
381.07	126.39
381.26	145.11
381.46	131.07
381.65	119.37
381.85	182.56
382.04	138.09
382.24	128.73
382.43	161.50
382.63	194.26
382.83	121.71
383.02	152.13
383.22	212.99
383.41	133.41
383.61	203.63
383.80	189.58
384.00	189.58
384.19	159.16
384.39	142.77
384.58	112.35
384.78	154.48
384.97	147.45
385.17	140.43
385.36	168.52
385.56	191.92
385.75	177.88
385.95	161.50
386.14	154.48
386.34	102.98
386.53	46.81
386.72	138.09
386.92	177.88
387.11	168.52
387.31	131.07
387.50	142.77
387.70	58.51
387.89	107.66
388.09	187.24
388.28	154.48
388.48	142.77
388.67	177.88
388.86	140.43
389.06	117.03
389.25	180.22
389.45	131.07
389.64	124.05
389.84	191.92
390.03	138.09
390.22	121.71
390.42	187.24
390.61	194.26
390.81	37.45
391.00	117.03
391.19	128.73
391.39	100.64
391.58	124.05
391.78	131.07
391.97	163.84
392.16	152.13
392.36	131.07
392.55	196.60
392.75	252.78
392.94	196.60
393.13	152.13
393.33	95.96
393.52	175.54
393.71	217.67
393.91	201.29
394.10	184.90
394.29	177.88
394.49	177.88
394.68	187.24
394.88	205.97
395.07	142.77
395.26	67.88
395.46	142.77
395.65	182.56
395.84	114.69
396.04	187.24
396.23	93.62
396.42	112.35
396.62	184.90
396.81	102.98
397.00	133.41
397.19	98.30
397.39	149.79
397.58	175.54
397.77	182.56
397.97	180.22
398.16	156.82
398.35	205.97
398.55	119.37
398.74	156.82
398.93	182.56
399.12	145.11
399.32	147.45
399.51	170.86
399.70	145.11
399.90	170.86
400.09	140.43
400.28	110.01
400.47	135.75
400.67	140.43
400.86	208.31
401.05	194.26
401.24	138.09
401.44	205.97
401.63	180.22
401.82	210.65
402.01	140.43
402.21	159.16
402.40	117.03
402.59	217.67
402.78	161.50
402.97	166.18
403.17	198.95
403.36	140.43
403.55	121.71
403.74	161.50
403.93	152.13
404.13	194.26
404.32	191.92
404.51	126.39
404.70	187.24
404.89	170.86
405.09	194.26
405.28	189.58
405.47	100.64
405.66	98.30
405.85	156.82
406.05	175.54
406.24	173.20
406.43	189.58
406.62	161.50
406.81	210.65
407.00	152.13
407.20	217.67
407.39	187.24
407.58	173.20
407.77	208.31
407.96	210.65
408.15	201.29
408.34	166.18
408.54	175.54
408.73	173.20
408.92	215.33
409.11	187.24
409.30	149.79
409.49	152.13
409.68	88.94
409.87	102.98
410.07	149.79
410.26	180.22
410.45	124.05
410.64	133.41
410.83	140.43
411.02	182.56
411.21	166.18
411.40	107.66
411.59	191.92
411.78	163.84
411.98	124.05
412.17	110.01
412.36	159.16
412.55	112.35
412.74	236.39
412.93	177.88
413.12	138.09
413.31	154.48
413.50	100.64
413.69	147.45
413.88	215.33
414.07	117.03
414.26	159.16
414.45	173.20
414.64	175.54
414.83	154.48
415.02	180.22
415.22	208.31
415.41	128.73
415.60	152.13
415.79	149.79
415.98	147.45
416.17	140.43
416.36	173.20
416.55	133.41
416.74	182.56
416.93	222.35
417.12	220.01
417.31	227.03
417.50	189.58
417.69	241.08
417.88	238.73
418.07	194.26
418.26	163.84
418.45	208.31
418.64	212.99
418.83	273.84
419.02	196.60
419.21	208.31
419.39	191.92
419.58	145.11
419.77	170.86
419.96	205.97
420.15	243.42
420.34	187.24
420.53	110.01
420.72	196.60
420.91	205.97
421.10	196.60
421.29	245.76
421.48	220.01
421.67	145.11
421.86	227.03
422.05	114.69
422.24	159.16
422.43	128.73
422.61	63.19
422.80	159.16
422.99	112.35
423.18	173.20
423.37	201.29
423.56	196.60
423.75	163.84
423.94	93.62
424.13	152.13
424.32	145.11
424.50	224.69
424.69	140.43
424.88	248.10
425.07	212.99
425.26	259.80
425.45	252.78
425.64	227.03
425.83	262.14
426.01	245.76
426.20	163.84
426.39	220.01
426.58	166.18
426.77	191.92
426.96	189.58
427.15	159.16
427.33	128.73
427.52	161.50
427.71	198.95
427.90	217.67
428.09	203.63
428.28	133.41
428.46	180.22
428.65	149.79
428.84	231.71
429.03	196.60
429.22	147.45
429.40	170.86
429.59	182.56
429.78	173.20
429.97	168.52
430.16	224.69
430.34	145.11
430.53	107.66
430.72	138.09
430.91	215.33
431.10	163.84
431.28	170.86
431.47	212.99
431.66	189.58
431.85	238.73
432.03	168.52
432.22	222.35
432.41	173.20
432.60	229.37
432.79	220.01
432.97	283.20
433.16	264.48
433.35	227.03
433.54	215.33
433.72	224.69
433.91	173.20
434.10	259.80
434.28	198.95
434.47	203.63
434.66	191.92
434.85	142.77
435.03	245.76
435.22	355.76
435.41	390.87
435.59	341.72
435.78	269.16
435.97	215.33
436.16	215.33
436.34	210.65
436.53	217.67
436.72	163.84
436.90	173.20
437.09	187.24
437.28	224.69
437.46	243.42
437.65	215.33
437.84	156.82
438.02	212.99
438.21	170.86
438.40	189.58
438.58	177.88
438.77	142.77
438.96	152.13
439.14	236.39
439.33	173.20
439.52	177.88
439.70	224.69
439.89	231.71
440.08	212.99
440.26	119.37
440.45	175.54
440.63	170.86
440.82	187.24
441.01	196.60
441.19	198.95
441.38	145.11
441.57	222.35
441.75	198.95
441.94	224.69
442.12	238.73
442.31	175.54
442.50	189.58
442.68	163.84
442.87	271.50
443.05	210.65
443.24	170.86
443.43	140.43
443.61	215.33
443.80	194.26
443.98	217.67
444.17	217.67
444.35	205.97
444.54	149.79
444.73	196.60
444.91	252.78
445.10	180.22
445.28	201.29
445.47	224.69
445.65	208.31
445.84	224.69
446.02	205.97
446.21	257.46
446.39	119.37
446.58	205.97
446.77	175.54
446.95	194.26
447.14	184.90
447.32	257.46
447.51	154.48
447.69	154.48
447.88	269.16
448.06	220.01
448.25	208.31
448.43	175.54
448.62	121.71
448.80	229.37
448.99	205.97
449.17	175.54
449.36	149.79
449.54	259.80
449.73	95.96
449.91	180.22
450.10	205.97
450.28	210.65
450.46	201.29
450.65	231.71
450.83	152.13
451.02	205.97
451.20	168.52
451.39	210.65
451.57	173.20
451.76	217.67
451.94	234.05
452.13	194.26
452.31	238.73
452.49	173.20
452.68	191.92
452.86	212.99
453.05	201.29
453.23	205.97
453.42	163.84
453.60	161.50
453.78	224.69
453.97	173.20
454.15	198.95
454.34	224.69
454.52	159.16
454.70	280.86
454.89	149.79
455.07	271.50
455.26	191.92
455.44	255.12
455.62	198.95
455.81	159.16
455.99	278.52
456.17	196.60
456.36	102.98
456.54	154.48
456.73	184.90
456.91	208.31
457.09	156.82
457.28	210.65
457.46	231.71
457.64	283.20
457.83	182.56
458.01	208.31
458.19	203.63
458.38	166.18
458.56	121.71
458.74	147.45
458.93	198.95
459.11	212.99
459.29	187.24
459.48	220.01
459.66	262.14
459.84	170.86
460.03	266.82
460.21	208.31
460.39	180.22
460.57	238.73
460.76	198.95
460.94	220.01
461.12	236.39
461.31	173.20
461.49	212.99
461.67	166.18
461.85	191.92
462.04	198.95
462.22	566.41
462.40	224.69
462.59	264.48
462.77	161.50
462.95	229.37
463.13	182.56
463.32	191.92
463.50	245.76
463.68	245.76
463.86	252.78
464.05	189.58
464.23	154.48
464.41	154.48
464.59	224.69
464.78	182.56
464.96	238.73
465.14	180.22
465.32	177.88
465.50	255.12
465.69	259.80
465.87	227.03
466.05	161.50
466.23	208.31
466.41	149.79
466.60	215.33
466.78	212.99
466.96	210.65
467.14	250.44
467.32	241.08
467.51	184.90
467.69	205.97
467.87	210.65
468.05	177.88
468.23	177.88
468.41	241.08
468.60	170.86
468.78	229.37
468.96	236.39
469.14	231.71
469.32	166.18
469.50	133.41
469.69	203.63
469.87	283.20
470.05	243.42
470.23	147.45
470.41	198.95
470.59	196.60
470.77	224.69
470.95	140.43
471.14	156.82
471.32	243.42
471.50	159.16
471.68	173.20
471.86	217.67
472.04	243.42
472.22	262.14
472.40	208.31
472.58	217.67
472.77	177.88
472.95	238.73
473.13	236.39
473.31	248.10
473.49	187.24
473.67	161.50
473.85	198.95
474.03	205.97
474.21	196.60
474.39	245.76
474.57	290.23
474.75	212.99
474.93	212.99
475.12	222.35
475.30	138.09
475.48	131.07
475.66	222.35
475.84	159.16
476.02	177.88
476.20	222.35
476.38	217.67
476.56	278.52
476.74	208.31
476.92	189.58
477.10	241.08
477.28	266.82
477.46	231.71
477.64	234.05
477.82	215.33
478.00	201.29
478.18	205.97
478.36	149.79
478.54	128.73
478.72	105.32
478.90	189.58
479.08	196.60
479.26	166.18
479.44	166.18
479.62	205.97
479.80	210.65
479.98	276.18
480.16	189.58
480.34	283.20
480.52	187.24
480.70	231.71
480.88	168.52
481.06	215.33
481.24	203.63
481.41	189.58
481.59	177.88
481.77	210.65
481.95	241.08
482.13	173.20
482.31	227.03
482.49	220.01
482.67	217.67
482.85	301.93
483.03	212.99
483.21	201.29
483.39	198.95
483.57	208.31
483.74	241.08
483.92	243.42
484.10	234.05
484.28	280.86
484.46	332.36
484.64	208.31
484.82	138.09
485.00	198.95
485.18	180.22
485.35	217.67
485.53	173.20
485.71	273.84
485.89	257.46
486.07	184.90
486.25	238.73
486.43	217.67
486.61	297.25
486.78	210.65
486.96	147.45
487.14	292.57
487.32	229.37
487.50	278.52
487.68	220.01
487.85	224.69
488.03	255.12
488.21	243.42
488.39	196.60
488.57	297.25
488.75	236.39
488.92	535.98
489.10	231.71
489.28	294.91
489.46	208.31
489.64	180.22
489.81	194.26
489.99	208.31
490.17	278.52
490.35	301.93
490.53	198.95
490.70	287.89
490.88	287.89
491.06	203.63
491.24	264.48
491.41	287.89
491.59	294.91
491.77	194.26
491.95	159.16
492.13	173.20
492.30	196.60
492.48	243.42
492.66	292.57
492.84	259.80
493.01	259.80
493.19	262.14
493.37	269.16
493.54	257.46
493.72	238.73
493.90	266.82
494.08	250.44
494.25	262.14
494.43	269.16
494.61	283.20
494.79	227.03
494.96	297.25
495.14	306.61
495.32	255.12
495.49	248.10
495.67	283.20
495.85	217.67
496.02	215.33
496.20	365.12
496.38	320.65
496.55	269.16
496.73	271.50
496.91	227.03
497.09	210.65
497.26	276.18
497.44	222.35
497.62	243.42
497.79	266.82
497.97	241.08
498.14	215.33
498.32	304.27
498.50	273.84
498.67	271.50
498.85	269.16
499.03	283.20
499.20	210.65
499.38	306.61
499.56	292.57
499.73	262.14
499.91	301.93
500.08	287.89
500.26	220.01
500.44	187.24
500.61	198.95
500.79	292.57
500.97	210.65
501.14	283.20
501.32	255.12
501.49	224.69
501.67	180.22
501.84	257.46
502.02	238.73
502.20	222.35
502.37	196.60
502.55	315.97
502.72	201.29
502.90	313.63
503.07	170.86
503.25	259.80
503.43	257.46
503.60	245.76
503.78	252.78
503.95	262.14
504.13	222.35
504.30	273.84
504.48	255.12
504.65	332.36
504.83	189.58
505.01	269.16
505.18	262.14
505.36	241.08
505.53	271.50
505.71	280.86
505.88	297.25
506.06	255.12
506.23	252.78
506.41	276.18
506.58	229.37
506.76	227.03
506.93	161.50
507.11	224.69
507.28	201.29
507.46	278.52
507.63	322.99
507.81	250.44
507.98	325.33
508.16	248.10
508.33	252.78
508.50	262.14
508.68	262.14
508.85	271.50
509.03	266.82
509.20	252.78
509.38	311.29
509.55	334.70
509.73	238.73
509.90	234.05
510.08	215.33
510.25	217.67
510.42	262.14
510.60	236.39
510.77	283.20
510.95	339.38
511.12	203.63
511.30	210.65
511.47	304.27
511.64	355.76
511.82	280.86
511.99	290.23
512.17	346.40
512.34	290.23
512.51	287.89
512.69	280.86
512.86	292.57
513.04	229.37
513.21	334.70
513.38	241.08
513.56	215.33
513.73	259.80
513.90	243.42
514.08	259.80
514.25	238.73
514.43	224.69
514.60	318.31
514.77	290.23
514.95	332.36
515.12	177.88
515.29	313.63
515.47	231.71
515.64	238.73
515.81	231.71
515.99	339.38
516.16	248.10
516.33	198.95
516.51	259.80
516.68	255.12
516.85	287.89
517.03	283.20
517.20	301.93
517.37	257.46
517.54	231.71
517.72	241.08
517.89	252.78
518.06	264.48
518.24	344.06
518.41	283.20
518.58	224.69
518.75	248.10
518.93	266.82
519.10	290.23
519.27	262.14
519.45	280.86
519.62	220.01
519.79	301.93
519.96	227.03
520.14	215.33
520.31	308.95
520.48	311.29
520.65	250.44
520.83	285.55
521.00	381.51
521.17	259.80
521.34	264.48
521.52	278.52
521.69	203.63
521.86	322.99
522.03	294.91
522.20	264.48
522.38	287.89
522.55	299.59
522.72	271.50
522.89	229.37
523.07	292.57
523.24	304.27
523.41	266.82
523.58	266.82
523.75	278.52
523.92	245.76
524.10	280.86
524.27	196.60
524.44	269.16
524.61	245.76
524.78	313.63
524.96	234.05
525.13	339.38
525.30	322.99
525.47	278.52
525.64	280.86
525.81	245.76
525.98	271.50
526.16	304.27
526.33	264.48
526.50	215.33
526.67	196.60
526.84	227.03
527.01	259.80
527.18	297.25
527.36	318.31
527.53	234.05
527.70	266.82
527.87	220.01
528.04	294.91
528.21	187.24
528.38	224.69
528.55	245.76
528.72	330.02
528.89	337.04
529.07	231.71
529.24	294.91
529.41	334.70
529.58	290.23
529.75	224.69
529.92	304.27
530.09	369.80
530.26	327.68
530.43	292.57
530.60	353.42
530.77	257.46
530.94	248.10
531.11	292.57
531.28	198.95
531.46	318.31
531.63	280.86
531.80	276.18
531.97	322.99
532.14	222.35
532.31	273.84
532.48	306.61
532.65	332.36
532.82	376.83
532.99	362.78
533.16	304.27
533.33	320.65
533.50	339.38
533.67	271.50
533.84	372.15
534.01	351.08
534.18	290.23
534.35	337.04
534.52	280.86
534.69	346.40
534.86	276.18
535.03	304.27
535.20	306.61
535.37	346.40
535.54	290.23
535.71	315.97
535.88	339.38
536.05	297.25
536.22	266.82
536.38	320.65
536.55	287.89
536.72	318.31
536.89	276.18
537.06	339.38
537.23	318.31
537.40	238.73
537.57	292.57
537.74	365.12
537.91	346.40
538.08	266.82
538.25	273.84
538.42	306.61
538.59	325.33
538.75	271.50
538.92	416.62
539.09	374.49
539.26	301.93
539.43	461.09
539.60	730.25
539.77	1100.05
539.94	1160.91
540.11	734.93
540.28	662.37
540.44	550.03
540.61	414.27
540.78	449.38
540.95	514.92
541.12	500.87
541.29	493.85
541.46	510.24
541.62	442.36
541.79	433.00
541.96	468.11
542.13	559.39
542.30	421.30
542.47	531.30
542.63	479.81
542.80	491.51
542.97	538.32
543.14	468.11
543.31	498.53
543.48	500.87
543.64	510.24
543.81	465.77
543.98	524.28
544.15	470.45
544.32	454.06
544.48	334.70
544.65	465.77
544.82	463.43
544.99	411.93
545.16	456.40
545.32	458.74
545.49	650.67
545.66	767.70
545.83	915.15
546.00	744.29
546.16	582.79
546.33	498.53
546.50	468.11
546.67	510.24
546.83	383.85
547.00	388.53
547.17	407.25
547.34	367.46
547.50	433.00
547.67	416.62
547.84	325.33
548.00	365.12
548.17	390.87
548.34	465.77
548.51	386.19
548.67	409.59
548.84	395.55
549.01	393.21
549.18	416.62
549.34	318.31
549.51	381.51
549.68	369.80
549.84	353.42
550.01	304.27
550.18	395.55
550.34	400.23
550.51	327.68
550.68	313.63
550.84	313.63
551.01	285.55
551.18	367.46
551.34	250.44
551.51	304.27
551.68	271.50
551.84	229.37
552.01	191.92
552.18	313.63
552.34	348.74
552.51	322.99
552.68	301.93
552.84	276.18
553.01	269.16
553.18	315.97
553.34	252.78
553.51	290.23
553.67	290.23
553.84	388.53
554.01	290.23
554.17	313.63
554.34	264.48
554.51	257.46
554.67	285.55
554.84	266.82
555.00	276.18
555.17	243.42
555.33	318.31
555.50	353.42
555.67	332.36
555.83	297.25
556.00	278.52
556.16	435.34
556.33	255.12
556.50	308.95
556.66	301.93
556.83	238.73
556.99	262.14
557.16	330.02
557.32	290.23
557.49	301.93
557.65	271.50
557.82	252.78
557.98	304.27
558.15	241.08
558.32	241.08
558.48	304.27
558.65	271.50
558.81	280.86
558.98	236.39
559.14	245.76
559.31	262.14
559.47	234.05
559.64	322.99
559.80	374.49
559.97	259.80
560.13	290.23
560.30	269.16
560.46	348.74
560.63	297.25
560.79	287.89
560.96	227.03
561.12	217.67
561.29	273.84
561.45	255.12
561.61	245.76
561.78	456.40
561.94	315.97
562.11	294.91
562.27	250.44
562.44	299.59
562.60	238.73
562.77	278.52
562.93	395.55
563.10	280.86
563.26	229.37
563.42	243.42
563.59	269.16
563.75	255.12
563.92	341.72
564.08	308.95
564.24	311.29
564.41	236.39
564.57	269.16
564.74	241.08
564.90	276.18
565.07	217.67
565.23	259.80
565.39	250.44
565.56	262.14
565.72	217.67
565.88	220.01
566.05	301.93
566.21	255.12
566.38	252.78
566.54	273.84
566.70	241.08
566.87	297.25
567.03	294.91
567.19	334.70
567.36	276.18
567.52	198.95
567.68	285.55
567.85	283.20
568.01	208.31
568.17	184.90
568.34	236.39
568.50	360.44
568.66	290.23
568.83	308.95
568.99	252.78
569.15	306.61
569.32	332.36
569.48	280.86
569.64	259.80
569.81	245.76
569.97	229.37
570.13	297.25
570.30	257.46
570.46	299.59
570.62	236.39
570.78	243.42
570.95	212.99
571.11	287.89
571.27	332.36
571.43	292.57
571.60	299.59
571.76	248.10
571.92	311.29
572.09	222.35
572.25	276.18
572.41	285.55
572.57	163.84
572.74	278.52
572.90	285.55
573.06	257.46
573.22	224.69
573.38	337.04
573.55	278.52
573.71	248.10
573.87	262.14
574.03	276.18
574.20	259.80
574.36	339.38
574.52	334.70
574.68	292.57
574.84	285.55
575.01	231.71
575.17	294.91
575.33	234.05
575.49	341.72
575.65	365.12
575.82	344.06
575.98	463.43
576.14	468.11
576.30	503.22
576.46	440.02
576.62	463.43
576.79	477.47
576.95	416.62
577.11	315.97
577.27	262.14
577.43	280.86
577.59	372.15
577.75	294.91
577.92	287.89
578.08	201.29
578.24	205.97
578.40	327.68
578.56	442.36
578.72	430.66
578.88	393.21
579.04	383.85
579.21	367.46
579.37	341.72
579.53	245.76
579.69	318.31
579.85	367.46
580.01	397.89
580.17	322.99
580.33	374.49
580.49	388.53
580.65	320.65
580.82	325.33
580.98	327.68
581.14	344.06
581.30	337.04
581.46	407.25
581.62	454.06
581.78	489.17
581.94	514.92
582.10	437.68
582.26	409.59
582.42	416.62
582.58	444.70
582.74	400.23
582.90	484.49
583.06	393.21
583.22	428.32
583.38	402.57
583.54	418.96
583.70	477.47
583.86	552.37
584.02	589.82
584.18	610.88
584.34	837.91
584.50	1633.69
584.66	10794.55
584.82	31094.02
584.98	48348.45
585.14	45202.77
585.30	28128.56
585.46	16259.70
585.62	10401.34
585.78	5006.41
585.94	2057.33
586.10	1076.65
586.26	758.33
586.42	650.67
586.58	498.53
586.74	491.51
586.90	538.32
587.06	566.41
587.22	510.24
587.38	503.22
587.54	755.99
587.70	2078.40
587.86	3190.15
588.02	3770.60
588.18	2841.41
588.34	1837.32
588.49	1233.46
588.65	849.61
588.81	437.68
588.97	393.21
589.13	397.89
589.29	379.17
589.45	322.99
589.61	269.16
589.77	428.32
589.93	395.55
590.08	411.93
590.24	407.25
590.40	414.27
590.56	386.19
590.72	355.76
590.88	376.83
591.04	362.78
591.20	327.68
591.35	351.08
591.51	355.76
591.67	290.23
591.83	301.93
591.99	355.76
592.15	330.02
592.31	386.19
592.46	339.38
592.62	381.51
592.78	327.68
592.94	320.65
593.10	407.25
593.26	386.19
593.41	386.19
593.57	400.23
593.73	517.26
593.89	1451.13
594.05	3831.46
594.20	6113.48
594.36	6171.99
594.52	4142.75
594.68	2581.61
594.84	1879.45
594.99	1050.90
595.15	592.16
595.31	491.51
595.47	444.70
595.62	311.29
595.78	313.63
595.94	365.12
596.10	360.44
596.25	348.74
596.41	353.42
596.57	332.36
596.73	348.74
596.88	475.13
597.04	844.93
597.20	1397.30
597.36	1741.36
597.51	1355.17
597.67	945.58
597.83	692.80
597.99	650.67
598.14	355.76
598.30	344.06
598.46	369.80
598.61	353.42
598.77	339.38
598.93	332.36
599.09	290.23
599.24	325.33
599.40	365.12
599.56	259.80
599.71	327.68
599.87	322.99
600.03	322.99
600.18	332.36
600.34	320.65
600.50	344.06
600.65	238.73
600.81	301.93
600.97	344.06
601.12	306.61
601.28	318.31
601.44	280.86
601.59	290.23
601.75	255.12
601.91	386.19
602.06	311.29
602.22	402.57
602.37	425.98
602.53	1053.24
602.69	1652.42
602.84	1865.41
603.00	1287.29
603.16	961.96
603.31	821.53
603.47	519.60
603.62	409.59
603.78	337.04
603.94	320.65
604.09	273.84
604.25	276.18
604.40	304.27
604.56	330.02
604.71	346.40
604.87	337.04
605.03	320.65
605.18	353.42
605.34	346.40
605.49	304.27
605.65	322.99
605.80	341.72
605.96	351.08
606.12	414.27
606.27	353.42
606.43	337.04
606.58	411.93
606.74	557.05
606.89	1881.79
607.05	3971.89
607.20	5305.99
607.36	4482.13
607.51	3159.72
607.67	2062.01
607.82	1423.05
607.98	898.77
608.13	617.90
608.29	475.13
608.44	468.11
608.60	512.58
608.75	528.96
608.91	777.06
609.06	2691.62
609.22	6340.51
609.37	9224.05
609.53	8009.31
609.68	5664.10
609.84	3698.05
609.99	2658.85
610.15	1572.84
