SpectraSuite Data File
++++++++++++++++++++++++++++++++++++
Date: Fri Oct 04 12:14:07 GMT-05:00 2013
User: price-jones
Dark Spectrum Present: No
Reference Spectrum Present: No
Number of Sampled Component Spectra: 1
Spectrometers: USB2+H05261
Integration Time (usec): 1000000 (USB2+H05261)
Spectra Averaged: 1 (USB2+H05261)
Boxcar Smoothing: 0 (USB2+H05261)
Correct for Electrical Dark: No (USB2+H05261)
Strobe/Lamp Enabled: No (USB2+H05261)
Correct for Detector Non-linearity: No (USB2+H05261)
Correct for Stray Light: No (USB2+H05261)
Number of Pixels in Processed Spectrum: 2048
>>>>>Begin Processed Spectral Data<<<<<
365.73	30.43
365.92	30.43
366.12	30.43
366.32	0.00
366.52	0.00
366.72	266.82
366.91	37.45
367.11	224.69
367.31	184.90
367.51	285.55
367.70	332.36
367.90	521.94
368.10	269.16
368.30	353.42
368.49	194.26
368.69	505.56
368.89	311.29
369.09	81.92
369.28	337.04
369.48	126.39
369.68	266.82
369.87	299.59
370.07	133.41
370.27	620.24
370.47	351.08
370.66	332.36
370.86	465.77
371.06	678.76
371.25	957.28
371.45	404.91
371.65	606.20
371.84	327.68
372.04	210.65
372.24	482.15
372.44	362.78
372.63	468.11
372.83	744.29
373.03	454.06
373.22	313.63
373.42	341.72
373.62	512.58
373.81	582.79
374.01	755.99
374.21	690.46
374.40	381.51
374.60	706.84
374.79	451.72
374.99	440.02
375.19	517.26
375.38	557.05
375.58	402.57
375.78	723.23
375.97	643.65
376.17	968.98
376.37	463.43
376.56	566.41
376.76	428.32
376.95	433.00
377.15	660.03
377.35	629.60
377.54	578.11
377.74	423.64
377.93	397.89
378.13	540.66
378.33	716.20
378.52	468.11
378.72	781.74
378.91	697.48
379.11	414.27
379.31	433.00
379.50	322.99
379.70	725.57
379.89	760.67
380.09	425.98
380.28	372.15
380.48	465.77
380.68	332.36
380.87	365.12
381.07	571.09
381.26	758.33
381.46	685.78
381.65	643.65
381.85	484.49
382.04	442.36
382.24	519.60
382.43	407.25
382.63	339.38
382.83	433.00
383.02	685.78
383.22	800.46
383.41	308.95
383.61	470.45
383.80	425.98
384.00	442.36
384.19	477.47
384.39	526.62
384.58	451.72
384.78	552.37
384.97	566.41
385.17	507.90
385.36	447.04
385.56	704.50
385.75	381.51
385.95	519.60
386.14	720.88
386.34	344.06
386.53	498.53
386.72	379.17
386.92	807.48
387.11	629.60
387.31	585.13
387.50	339.38
387.70	407.25
387.89	479.81
388.09	397.89
388.28	447.04
388.48	376.83
388.67	723.23
388.86	498.53
389.06	552.37
389.25	622.58
389.45	519.60
389.64	486.83
389.84	744.29
390.03	643.65
390.22	545.34
390.42	528.96
390.61	360.44
390.81	304.27
391.00	603.86
391.19	814.51
391.39	531.30
391.58	606.20
391.78	545.34
391.97	507.90
392.16	379.17
392.36	671.73
392.55	753.65
392.75	514.92
392.94	407.25
393.13	648.33
393.33	313.63
393.52	423.64
393.71	770.04
393.91	599.18
394.10	362.78
394.29	421.30
394.49	468.11
394.68	669.39
394.88	802.80
395.07	788.76
395.26	575.77
395.46	470.45
395.65	669.39
395.84	587.47
396.04	1036.86
396.23	512.58
396.42	463.43
396.62	540.66
396.81	566.41
397.00	603.86
397.19	535.98
397.39	557.05
397.58	800.46
397.77	484.49
397.97	524.28
398.16	521.94
398.35	645.99
398.55	486.83
398.74	442.36
398.93	709.18
399.12	416.62
399.32	636.63
399.51	475.13
399.70	704.50
399.90	648.33
400.09	606.20
400.28	840.25
400.47	484.49
400.67	746.63
400.86	594.50
401.05	732.59
401.24	858.98
401.44	704.50
401.63	739.61
401.82	760.67
402.01	379.17
402.21	519.60
402.40	620.24
402.59	521.94
402.78	491.51
402.97	510.24
403.17	543.00
403.36	627.26
403.55	550.03
403.74	493.85
403.93	587.47
404.13	788.76
404.32	519.60
404.51	456.40
404.70	753.65
404.89	568.75
405.09	1086.01
405.28	603.86
405.47	477.47
405.66	720.88
405.85	788.76
406.05	573.43
406.24	582.79
406.43	650.67
406.62	657.69
406.81	987.71
407.00	821.53
407.20	599.18
407.39	578.11
407.58	526.62
407.77	737.27
407.96	894.08
408.15	760.67
408.34	746.63
408.54	608.54
408.73	613.22
408.92	641.31
409.11	730.25
409.30	863.66
409.49	477.47
409.68	613.22
409.87	582.79
410.07	538.32
410.26	624.92
410.45	519.60
410.64	435.34
410.83	730.25
411.02	472.79
411.21	667.05
411.40	798.12
411.59	692.80
411.78	547.69
411.98	638.97
412.17	484.49
412.36	636.63
412.55	564.07
412.74	821.53
412.93	973.66
413.12	603.86
413.31	961.96
413.50	727.91
413.69	603.86
413.88	957.28
414.07	653.01
414.26	699.82
414.45	585.13
414.64	802.80
414.83	819.19
415.02	692.80
415.22	816.85
415.41	903.45
415.60	645.99
415.79	622.58
415.98	889.40
416.17	755.99
416.36	688.12
416.55	589.82
416.74	809.83
416.93	854.30
417.12	667.05
417.31	674.07
417.50	695.14
417.69	1160.91
417.88	812.17
418.07	587.47
418.26	711.52
418.45	699.82
418.64	1076.65
418.83	809.83
419.02	873.02
419.21	814.51
419.39	807.48
419.58	720.88
419.77	547.69
419.96	894.08
420.15	999.41
420.34	695.14
420.53	809.83
420.72	887.06
420.91	669.39
421.10	674.07
421.29	751.31
421.48	741.95
421.67	847.27
421.86	671.73
422.05	671.73
422.24	610.88
422.43	732.59
422.61	507.90
422.80	601.52
422.99	727.91
423.18	629.60
423.37	1076.65
423.56	912.81
423.75	774.72
423.94	526.62
424.13	627.26
424.32	671.73
424.50	716.20
424.69	692.80
424.88	945.58
425.07	739.61
425.26	774.72
425.45	919.83
425.64	655.35
425.83	688.12
426.01	1062.60
426.20	814.51
426.39	711.52
426.58	648.33
426.77	770.04
426.96	938.55
427.15	704.50
427.33	660.03
427.52	725.57
427.71	676.41
427.90	664.71
428.09	674.07
428.28	603.86
428.46	669.39
428.65	793.44
428.84	870.68
429.03	1090.69
429.22	674.07
429.40	589.82
429.59	505.56
429.78	1029.84
429.97	648.33
430.16	636.63
430.34	585.13
430.53	620.24
430.72	571.09
430.91	954.94
431.10	599.18
431.28	725.57
431.47	870.68
431.66	851.96
431.85	615.56
432.03	720.88
432.22	1301.34
432.41	725.57
432.60	980.68
432.79	823.87
432.97	863.66
433.16	807.48
433.35	758.33
433.54	657.69
433.72	912.81
433.91	861.32
434.10	713.86
434.28	933.87
434.47	744.29
434.66	945.58
434.85	732.59
435.03	734.93
435.22	1090.69
435.41	1118.78
435.59	882.38
435.78	929.19
435.97	737.27
436.16	877.70
436.34	753.65
436.53	884.72
436.72	936.21
436.90	887.06
437.09	828.55
437.28	753.65
437.46	688.12
437.65	915.15
437.84	889.40
438.02	809.83
438.21	926.85
438.40	692.80
438.58	564.07
438.77	741.95
438.96	744.29
439.14	706.84
439.33	880.04
439.52	716.20
439.70	896.43
439.89	961.96
440.08	851.96
440.26	770.04
440.45	1198.35
440.63	961.96
440.82	849.61
441.01	844.93
441.19	763.01
441.38	828.55
441.57	755.99
441.75	1109.41
441.94	1158.57
442.12	767.70
442.31	751.31
442.50	821.53
442.68	720.88
442.87	833.23
443.05	753.65
443.24	819.19
443.43	1123.46
443.61	1097.71
443.80	882.38
443.98	741.95
444.17	739.61
444.35	924.51
444.54	737.27
444.73	805.14
444.91	1167.93
445.10	690.46
445.28	692.80
445.47	912.81
445.65	849.61
445.84	732.59
446.02	912.81
446.21	758.33
446.39	821.53
446.58	943.24
446.77	746.63
446.95	854.30
447.14	922.17
447.32	1188.99
447.51	987.71
447.69	891.74
447.88	903.45
448.06	1114.10
448.25	940.90
448.43	748.97
448.62	767.70
448.80	1015.79
448.99	959.62
449.17	802.80
449.36	765.36
449.54	1071.97
449.73	896.43
449.91	1029.84
450.10	833.23
450.28	1455.81
450.46	1296.66
450.65	1057.92
450.83	880.04
451.02	926.85
451.20	880.04
451.39	922.17
451.57	814.51
451.76	870.68
451.94	875.36
452.13	905.79
452.31	1032.18
452.49	957.28
452.68	739.61
452.86	894.08
453.05	1226.44
453.23	905.79
453.42	716.20
453.60	875.36
453.78	1004.09
453.97	725.57
454.15	767.70
454.34	903.45
454.52	856.64
454.70	1184.31
454.89	1069.62
455.07	835.57
455.26	1004.09
455.44	1078.99
455.62	847.27
455.81	938.55
455.99	999.41
456.17	1071.97
456.36	884.72
456.54	858.98
456.73	840.25
456.91	880.04
457.09	983.02
457.28	1093.03
457.46	849.61
457.64	1118.78
457.83	924.51
458.01	791.10
458.19	1039.20
458.38	830.89
458.56	961.96
458.74	718.54
458.93	992.39
459.11	926.85
459.29	854.30
459.48	1142.18
459.66	1266.23
459.84	1160.91
460.03	1774.13
460.21	1181.97
460.39	905.79
460.57	1191.33
460.76	910.47
460.94	976.00
461.12	1338.79
461.31	1165.59
461.49	997.07
461.67	870.68
461.85	1011.11
462.04	905.79
462.22	5916.87
462.40	1226.44
462.59	1167.93
462.77	812.17
462.95	903.45
463.13	851.96
463.32	1135.16
463.50	870.68
463.68	1107.07
463.86	945.58
464.05	959.62
464.23	1238.14
464.41	1100.05
464.59	770.04
464.78	943.24
464.96	877.70
465.14	1050.90
465.32	847.27
465.50	1128.14
465.69	1170.27
465.87	854.30
466.05	1107.07
466.23	798.12
466.41	870.68
466.60	877.70
466.78	990.05
466.96	1125.80
467.14	1118.78
467.32	1181.97
467.51	1083.67
467.69	1090.69
467.87	1352.83
468.05	1034.52
468.23	1373.89
468.41	1123.46
468.60	973.66
468.78	992.39
468.96	1158.57
469.14	1036.86
469.32	821.53
469.50	758.33
469.69	1004.09
469.87	959.62
470.05	994.73
470.23	875.36
470.41	779.40
470.59	821.53
470.77	999.41
470.95	994.73
471.14	1149.20
471.32	1048.56
471.50	1275.59
471.68	961.96
471.86	1116.44
472.04	823.87
472.22	983.02
472.40	835.57
472.58	877.70
472.77	826.21
472.95	908.13
473.13	1366.87
473.31	1277.93
473.49	786.42
473.67	873.02
473.85	1107.07
474.03	1125.80
474.21	990.05
474.39	1263.89
474.57	1507.30
474.75	1029.84
474.93	968.98
475.12	875.36
475.30	919.83
475.48	1011.11
475.66	917.49
475.84	1034.52
476.02	1027.50
476.20	1188.99
476.38	1062.60
476.56	1650.08
476.74	961.96
476.92	1006.43
477.10	1020.47
477.28	1200.69
477.46	1039.20
477.64	1205.38
477.82	1055.58
478.00	940.90
478.18	1053.24
478.36	1095.37
478.54	1004.09
478.72	870.68
478.90	1104.73
479.08	1167.93
479.26	1214.74
479.44	985.37
479.62	990.05
479.80	968.98
479.98	908.13
480.16	985.37
480.34	1198.35
480.52	915.15
480.70	1221.76
480.88	938.55
481.06	983.02
481.24	1015.79
481.41	1132.82
481.59	1184.31
481.77	1139.84
481.95	1139.84
482.13	1432.41
482.31	1163.25
482.49	1008.77
482.67	1228.78
482.85	1263.89
483.03	1275.59
483.21	1177.29
483.39	1086.01
483.57	1034.52
483.74	1460.49
483.92	1116.44
484.10	992.39
484.28	1387.94
484.46	1687.53
484.64	1011.11
484.82	1177.29
485.00	1167.93
485.18	1203.04
485.35	1177.29
485.53	861.32
485.71	1282.61
485.89	910.47
486.07	1090.69
486.25	1624.33
486.43	1310.70
486.61	1289.64
486.78	1263.89
486.96	973.66
487.14	1130.48
487.32	1104.73
487.50	1071.97
487.68	1341.13
487.85	1013.45
488.03	1277.93
488.21	1486.24
488.39	1188.99
488.57	1362.19
488.75	1078.99
488.92	3918.06
489.10	1432.41
489.28	1621.99
489.46	1114.10
489.64	1275.59
489.81	1378.58
489.99	1490.92
490.17	1282.61
490.35	1881.79
490.53	1273.25
490.70	1146.86
490.88	1397.30
491.06	1280.27
491.24	1362.19
491.41	1556.46
491.59	1364.53
491.77	1165.59
491.95	1111.75
492.13	1125.80
492.30	1338.79
492.48	1301.34
492.66	1315.38
492.84	1231.12
493.01	1416.02
493.19	1214.74
493.37	1685.19
493.54	1497.94
493.72	1383.26
493.90	1263.89
494.08	1303.68
494.25	1460.49
494.43	1483.90
494.61	1357.51
494.79	1212.40
494.96	1217.08
495.14	1561.14
495.32	1336.45
495.49	1357.51
495.67	1434.75
495.85	1315.38
496.02	1303.68
496.20	1549.43
496.38	1598.59
496.55	1378.58
496.73	1605.61
496.91	1383.26
497.09	1614.97
497.26	1399.64
497.44	1434.75
497.62	1329.42
497.79	1416.02
497.97	1549.43
498.14	1537.73
498.32	1460.49
498.50	1490.92
498.67	1380.92
498.85	1486.24
499.03	1448.79
499.20	1462.83
499.38	1448.79
499.56	1460.49
499.73	1902.86
499.91	1654.76
500.08	1727.32
500.26	1364.53
500.44	1371.55
500.61	1500.28
500.79	1352.83
500.97	1568.16
501.14	1764.76
501.32	1500.28
501.49	1755.40
501.67	1404.32
501.84	1533.05
502.02	1284.95
502.20	1820.94
502.37	1694.55
502.55	1446.45
502.72	1425.39
502.90	1671.14
503.07	1551.78
503.25	1469.86
503.43	1289.64
503.60	1399.64
503.78	1495.60
503.95	1385.60
504.13	1441.77
504.30	1612.63
504.48	1750.72
504.65	1771.79
504.83	1593.90
505.01	1462.83
505.18	1678.16
505.36	1460.49
505.53	1451.13
505.71	1511.99
505.88	1750.72
506.06	1420.71
506.23	1526.03
506.41	1315.38
506.58	1643.06
506.76	1516.67
506.93	1519.01
507.11	1600.93
507.28	1373.89
507.46	1430.07
507.63	1598.59
507.81	1488.58
507.98	1586.88
508.16	1568.16
508.33	1565.82
508.50	1736.68
508.68	1544.75
508.85	1612.63
509.03	1418.36
509.20	1516.67
509.38	1645.40
509.55	1769.44
509.73	1748.38
509.90	1771.79
510.08	1451.13
510.25	1652.42
510.42	1434.75
510.60	1617.31
510.77	1717.95
510.95	1813.92
511.12	1460.49
511.30	1701.57
511.47	1668.80
511.64	2036.27
511.82	1558.80
511.99	1465.18
512.17	1575.18
512.34	1430.07
512.51	1444.11
512.69	1469.86
512.86	1811.57
513.04	1462.83
513.21	1533.05
513.38	1420.71
513.56	1462.83
513.73	1490.92
513.90	1441.77
514.08	1362.19
514.25	1596.25
514.43	1654.76
514.60	1376.24
514.77	1579.86
514.95	1736.68
515.12	1423.05
515.29	1577.52
515.47	1575.18
515.64	1647.74
515.81	1607.95
515.99	1928.60
516.16	1603.27
516.33	1629.01
516.51	1296.66
516.68	1254.53
516.85	1380.92
517.03	1458.15
517.20	1675.82
517.37	1570.50
517.54	1643.06
517.72	1502.62
517.89	1303.68
518.06	1352.83
518.24	1944.99
518.41	2005.84
518.58	1682.85
518.75	1535.39
518.93	1673.48
519.10	1699.23
519.27	1511.99
519.45	1612.63
519.62	1502.62
519.79	1799.87
519.96	1439.43
520.14	1619.65
520.31	1790.51
520.48	1633.69
520.65	1614.97
520.83	1776.47
521.00	1732.00
521.17	1664.12
521.34	1650.08
521.52	1666.46
521.69	1563.48
521.86	1535.39
522.03	1715.61
522.20	1968.39
522.38	1537.73
522.55	1687.53
522.72	1394.96
522.89	1713.27
523.07	2031.58
523.24	1638.38
523.41	1554.12
523.58	1589.22
523.75	1584.54
523.92	1530.71
524.10	1767.10
524.27	1652.42
524.44	1629.01
524.61	1865.41
524.78	1544.75
524.96	1729.66
525.13	1689.87
525.30	1851.36
525.47	1837.32
525.64	1703.91
525.81	1722.63
525.98	1568.16
526.16	1488.58
526.33	1352.83
526.50	1495.60
526.67	1397.30
526.84	1306.02
527.01	1331.76
527.18	1708.59
527.36	1614.97
527.53	1526.03
527.70	1881.79
527.87	1671.14
528.04	2036.27
528.21	1551.78
528.38	1858.39
528.55	1952.01
528.72	1933.28
528.89	2062.01
529.07	1795.19
529.24	1689.87
529.41	2036.27
529.58	1692.21
529.75	1521.35
529.92	1811.57
530.09	1764.76
530.26	1959.03
530.43	1781.15
530.60	1666.46
530.77	1689.87
530.94	1870.09
531.11	1858.39
531.28	1687.53
531.46	1554.12
531.63	1753.06
531.80	1734.34
531.97	1774.13
532.14	1696.89
532.31	1654.76
532.48	1764.76
532.65	1837.32
532.82	1732.00
532.99	1717.95
533.16	1729.66
533.33	1750.72
533.50	1696.89
533.67	1802.21
533.84	2003.50
534.01	1961.37
534.18	1774.13
534.35	1795.19
534.52	1699.23
534.69	2258.62
534.86	1694.55
535.03	1657.10
535.20	1544.75
535.37	1961.37
535.54	1827.96
535.71	1701.57
535.88	1994.14
536.05	1610.29
536.22	1804.55
536.38	1652.42
536.55	1692.21
536.72	1830.30
536.89	1495.60
537.06	1671.14
537.23	1650.08
537.40	1617.31
537.57	1544.75
537.74	1877.11
537.91	1776.47
538.08	1652.42
538.25	1694.55
538.42	1593.90
538.59	1820.94
538.75	1598.59
538.92	1699.23
539.09	1825.62
539.26	1570.50
539.43	2282.02
539.60	2981.84
539.77	3660.60
539.94	3403.14
540.11	2909.29
540.28	2492.67
540.44	2127.55
540.61	1774.13
540.78	1617.31
540.95	1479.22
541.12	1968.39
541.29	1551.78
541.46	2052.65
541.62	1764.76
541.79	1533.05
541.96	1514.33
542.13	1631.35
542.30	1514.33
542.47	1856.04
542.63	1582.20
542.80	1624.33
542.97	1797.53
543.14	1629.01
543.31	1811.57
543.48	1631.35
543.64	1795.19
543.81	1650.08
543.98	1526.03
544.15	1551.78
544.32	1556.46
544.48	1586.88
544.65	1558.80
544.82	1556.46
544.99	1565.82
545.16	1806.89
545.32	1591.56
545.49	1797.53
545.66	1614.97
545.83	1474.54
546.00	1406.66
546.16	1593.90
546.33	1626.67
546.50	1621.99
546.67	1893.49
546.83	1802.21
547.00	1640.72
547.17	1507.30
547.34	1511.99
547.50	1511.99
547.67	1785.83
547.84	1511.99
548.00	1884.13
548.17	1535.39
548.34	1526.03
548.51	1952.01
548.67	1863.07
548.84	1549.43
549.01	1699.23
549.18	1668.80
549.34	1746.04
549.51	1650.08
549.68	1687.53
549.84	1715.61
550.01	1481.56
550.18	2597.99
550.34	2326.49
550.51	1724.97
550.68	2122.87
550.84	1568.16
551.01	1732.00
551.18	1776.47
551.34	1664.12
551.51	1556.46
551.68	1638.38
551.84	1785.83
552.01	1570.50
552.18	1643.06
552.34	1650.08
552.51	1617.31
552.68	1778.81
552.84	1596.25
553.01	1617.31
553.18	1790.51
553.34	1565.82
553.51	1397.30
553.67	1610.29
553.84	2057.33
554.01	1846.68
554.17	1748.38
554.34	1490.92
554.51	1671.14
554.67	1818.60
554.84	1909.88
555.00	1699.23
555.17	1724.97
555.33	1832.64
555.50	1643.06
555.67	1666.46
555.83	1526.03
556.00	1593.90
556.16	3178.45
556.33	1741.36
556.50	1605.61
556.66	1593.90
556.83	1540.07
556.99	1600.93
557.16	1579.86
557.32	1479.22
557.49	1614.97
557.65	1596.25
557.82	1453.47
557.98	1563.48
558.15	1500.28
558.32	1558.80
558.48	1416.02
558.65	1490.92
558.81	1699.23
558.98	1549.43
559.14	1589.22
559.31	1619.65
559.47	1666.46
559.64	1394.96
559.80	1692.21
559.97	1500.28
560.13	1593.90
560.30	1369.21
560.46	1535.39
560.63	1563.48
560.79	1694.55
560.96	1582.20
561.12	1439.43
561.29	1727.32
561.45	1570.50
561.61	1544.75
561.78	2387.35
561.94	1579.86
562.11	1448.79
562.27	1526.03
562.44	1451.13
562.60	1486.24
562.77	1507.30
562.93	2118.18
563.10	1717.95
563.26	1561.14
563.42	1746.04
563.59	1502.62
563.75	1504.96
563.92	1893.49
564.08	1631.35
564.24	1734.34
564.41	2076.06
564.57	1404.32
564.74	1547.09
564.90	1586.88
565.07	1666.46
565.23	1722.63
565.39	1577.52
565.56	1696.89
565.72	1472.20
565.88	1629.01
566.05	1437.09
566.21	1430.07
566.38	1603.27
566.54	1741.36
566.70	1493.26
566.87	1401.98
567.03	1277.93
567.19	1441.77
567.36	1650.08
567.52	1488.58
567.68	1631.35
567.85	1603.27
568.01	1462.83
568.17	1315.38
568.34	1411.34
568.50	1748.38
568.66	1343.47
568.83	2167.34
568.99	1418.36
569.15	1732.00
569.32	1481.56
569.48	1394.96
569.64	1437.09
569.81	1488.58
569.97	1373.89
570.13	1626.67
570.30	1373.89
570.46	1453.47
570.62	1469.86
570.78	1500.28
570.95	1301.34
571.11	1823.28
571.27	1898.17
571.43	1483.90
571.60	1668.80
571.76	1355.17
571.92	1462.83
572.09	1582.20
572.25	1448.79
572.41	1514.33
572.57	1423.05
572.74	1877.11
572.90	1654.76
573.06	1675.82
573.22	1657.10
573.38	1813.92
573.55	1650.08
573.71	1746.04
573.87	1689.87
574.03	1430.07
574.20	1444.11
574.36	1771.79
574.52	1554.12
574.68	1577.52
574.84	1654.76
575.01	1481.56
575.17	1710.93
575.33	1296.66
575.49	1657.10
575.65	1717.95
575.82	1743.70
575.98	2466.92
576.14	2153.29
576.30	2209.47
576.46	1966.05
576.62	1804.55
576.79	1659.44
576.95	1834.98
577.11	1376.24
577.27	1355.17
577.43	1657.10
577.59	1940.30
577.75	1600.93
577.92	1516.67
578.08	1390.28
578.24	1345.81
578.40	1678.16
578.56	1867.75
578.72	1825.62
578.88	1741.36
579.04	1460.49
579.21	1619.65
579.37	1554.12
579.53	1409.00
579.69	1792.85
579.85	1416.02
580.01	1699.23
580.17	1603.27
580.33	1732.00
580.49	1652.42
580.65	1647.74
580.82	1572.84
580.98	1516.67
581.14	1516.67
581.30	1947.33
581.46	1891.15
581.62	2169.68
581.78	1877.11
581.94	2097.12
582.10	1596.25
582.26	1818.60
582.42	1682.85
582.58	1870.09
582.74	1771.79
582.90	1842.00
583.06	1900.52
583.22	1682.85
583.38	1734.34
583.54	1872.43
583.70	2338.20
583.86	2176.70
584.02	2230.53
584.18	2796.94
584.34	2860.13
584.50	6686.91
584.66	42885.64
584.82	65535.00
584.98	65535.00
585.14	65535.00
585.30	63957.48
585.46	43779.72
585.62	27037.87
585.78	12999.34
585.94	6155.61
586.10	3520.17
586.26	2775.88
586.42	2759.49
586.58	2403.73
586.74	1933.28
586.90	2026.90
587.06	1987.11
587.22	1851.36
587.38	1774.13
587.54	3066.10
587.70	7148.00
587.86	10373.25
588.02	10429.43
588.18	7433.54
588.34	5207.69
588.49	3496.76
588.65	2551.18
588.81	1753.06
588.97	1259.21
589.13	1357.51
589.29	1490.92
589.45	1652.42
589.61	1577.52
589.77	1872.43
589.93	1523.69
590.08	1568.16
590.24	1610.29
590.40	1631.35
590.56	1643.06
590.72	1514.33
590.88	1416.02
591.04	1514.33
591.20	1345.81
591.35	1839.66
591.51	1411.34
591.67	1277.93
591.83	1373.89
591.99	1519.01
592.15	1640.72
592.31	1584.54
592.46	1378.58
592.62	1582.20
592.78	1317.72
592.94	1320.06
593.10	1383.26
593.26	1366.87
593.41	1556.46
593.57	1596.25
593.73	1891.15
593.89	6200.08
594.05	13151.47
594.20	17699.13
594.36	16381.41
594.52	11110.52
594.68	7152.68
594.84	5376.21
594.99	3508.46
595.15	2099.46
595.31	1809.23
595.47	1863.07
595.62	1462.83
595.78	1495.60
595.94	1394.96
596.10	1687.53
596.25	1624.33
596.41	1736.68
596.57	1348.15
596.73	1308.36
596.88	1893.49
597.04	3258.03
597.20	4472.76
597.36	4957.25
597.51	3878.27
597.67	3002.91
597.83	2326.49
597.99	2312.45
598.14	1706.25
598.30	1823.28
598.46	1486.24
598.61	1809.23
598.77	1533.05
598.93	1355.17
599.09	1416.02
599.24	1451.13
599.40	1554.12
599.56	1420.71
599.71	1366.87
599.87	1366.87
600.03	1355.17
600.18	1371.55
600.34	1537.73
600.50	1317.72
600.65	1226.44
600.81	1533.05
600.97	1268.57
601.12	1289.64
