SpectraSuite Data File
++++++++++++++++++++++++++++++++++++
Date: Fri Oct 04 11:33:58 GMT-05:00 2013
User: price-jones
Dark Spectrum Present: No
Reference Spectrum Present: No
Number of Sampled Component Spectra: 1
Spectrometers: USB2+H05261
Integration Time (usec): 100000 (USB2+H05261)
Spectra Averaged: 1 (USB2+H05261)
Boxcar Smoothing: 0 (USB2+H05261)
Correct for Electrical Dark: No (USB2+H05261)
Strobe/Lamp Enabled: No (USB2+H05261)
Correct for Detector Non-linearity: No (USB2+H05261)
Correct for Stray Light: No (USB2+H05261)
Number of Pixels in Processed Spectrum: 2048
>>>>>Begin Processed Spectral Data<<<<<
365.73	65.54
365.92	65.54
366.12	65.54
366.32	0.00
366.52	0.00
366.72	0.00
366.91	7.02
367.11	0.00
367.31	0.00
367.51	0.00
367.70	0.00
367.90	18.72
368.10	0.00
368.30	39.79
368.49	0.00
368.69	0.00
368.89	0.00
369.09	0.00
369.28	21.06
369.48	30.43
369.68	0.00
369.87	56.17
370.07	30.43
370.27	0.00
370.47	102.98
370.66	23.41
370.86	56.17
371.06	93.62
371.25	142.77
371.45	53.83
371.65	58.51
371.84	49.15
372.04	147.45
372.24	28.09
372.44	161.50
372.63	156.82
372.83	201.29
373.03	112.35
373.22	138.09
373.42	86.60
373.62	74.90
373.81	98.30
374.01	168.52
374.21	142.77
374.40	124.05
374.60	182.56
374.79	98.30
374.99	86.60
375.19	156.82
375.38	154.48
375.58	128.73
375.78	58.51
375.97	152.13
376.17	152.13
376.37	175.54
376.56	184.90
376.76	124.05
376.95	191.92
377.15	131.07
377.35	198.95
377.54	133.41
377.74	117.03
377.93	149.79
378.13	131.07
378.33	86.60
378.52	168.52
378.72	154.48
378.91	159.16
379.11	72.56
379.31	131.07
379.50	105.32
379.70	159.16
379.89	166.18
380.09	159.16
380.28	119.37
380.48	70.22
380.68	88.94
380.87	93.62
381.07	145.11
381.26	198.95
381.46	117.03
381.65	156.82
381.85	70.22
382.04	98.30
382.24	161.50
382.43	124.05
382.63	102.98
382.83	128.73
383.02	131.07
383.22	133.41
383.41	140.43
383.61	177.88
383.80	79.58
384.00	117.03
384.19	126.39
384.39	102.98
384.58	121.71
384.78	152.13
384.97	140.43
385.17	187.24
385.36	72.56
385.56	149.79
385.75	161.50
385.95	156.82
386.14	154.48
386.34	81.92
386.53	175.54
386.72	156.82
386.92	222.35
387.11	187.24
387.31	231.71
387.50	152.13
387.70	117.03
387.89	131.07
388.09	159.16
388.28	95.96
388.48	124.05
388.67	231.71
388.86	72.56
389.06	67.88
389.25	77.24
389.45	124.05
389.64	138.09
389.84	159.16
390.03	112.35
390.22	168.52
390.42	124.05
390.61	124.05
390.81	86.60
391.00	93.62
391.19	170.86
391.39	177.88
391.58	161.50
391.78	142.77
391.97	119.37
392.16	133.41
392.36	194.26
392.55	135.75
392.75	105.32
392.94	117.03
393.13	88.94
393.33	88.94
393.52	187.24
393.71	149.79
393.91	196.60
394.10	175.54
394.29	124.05
394.49	114.69
394.68	95.96
394.88	182.56
395.07	189.58
395.26	194.26
395.46	149.79
395.65	163.84
395.84	201.29
396.04	156.82
396.23	234.05
396.42	128.73
396.62	203.63
396.81	168.52
397.00	187.24
397.19	194.26
397.39	88.94
397.58	203.63
397.77	131.07
397.97	180.22
398.16	133.41
398.35	145.11
398.55	163.84
398.74	220.01
398.93	189.58
399.12	98.30
399.32	189.58
399.51	175.54
399.70	248.10
399.90	126.39
400.09	156.82
400.28	161.50
400.47	149.79
400.67	131.07
400.86	58.51
401.05	163.84
401.24	154.48
401.44	152.13
401.63	196.60
401.82	203.63
402.01	107.66
402.21	72.56
402.40	194.26
402.59	170.86
402.78	119.37
402.97	112.35
403.17	131.07
403.36	105.32
403.55	175.54
403.74	138.09
403.93	159.16
404.13	229.37
404.32	175.54
404.51	201.29
404.70	149.79
404.89	131.07
405.09	217.67
405.28	241.08
405.47	161.50
405.66	84.26
405.85	187.24
406.05	138.09
406.24	138.09
406.43	170.86
406.62	180.22
406.81	149.79
407.00	245.76
407.20	182.56
407.39	229.37
407.58	177.88
407.77	140.43
407.96	161.50
408.15	184.90
408.34	95.96
408.54	184.90
408.73	189.58
408.92	121.71
409.11	154.48
409.30	196.60
409.49	184.90
409.68	152.13
409.87	100.64
410.07	112.35
410.26	166.18
410.45	205.97
410.64	39.79
410.83	194.26
411.02	117.03
411.21	220.01
411.40	201.29
411.59	154.48
411.78	215.33
411.98	208.31
412.17	145.11
412.36	131.07
412.55	177.88
412.74	156.82
412.93	147.45
413.12	170.86
413.31	142.77
413.50	180.22
413.69	196.60
413.88	191.92
414.07	131.07
414.26	159.16
414.45	173.20
414.64	255.12
414.83	182.56
415.02	152.13
415.22	177.88
415.41	198.95
415.60	187.24
415.79	135.75
415.98	182.56
416.17	217.67
416.36	124.05
416.55	161.50
416.74	271.50
416.93	184.90
417.12	145.11
417.31	198.95
417.50	145.11
417.69	189.58
417.88	212.99
418.07	128.73
418.26	173.20
418.45	147.45
418.64	156.82
418.83	231.71
419.02	156.82
419.21	112.35
419.39	177.88
419.58	140.43
419.77	105.32
419.96	180.22
420.15	222.35
420.34	131.07
420.53	229.37
420.72	128.73
420.91	128.73
421.10	180.22
421.29	217.67
421.48	208.31
421.67	187.24
421.86	142.77
422.05	198.95
422.24	177.88
422.43	140.43
422.61	208.31
422.80	152.13
422.99	168.52
423.18	133.41
423.37	177.88
423.56	114.69
423.75	189.58
423.94	107.66
424.13	154.48
424.32	220.01
424.50	198.95
424.69	140.43
424.88	208.31
425.07	182.56
425.26	198.95
425.45	220.01
425.64	142.77
425.83	110.01
426.01	229.37
426.20	210.65
426.39	149.79
426.58	166.18
426.77	196.60
426.96	138.09
427.15	159.16
427.33	205.97
427.52	156.82
427.71	154.48
427.90	159.16
428.09	224.69
428.28	168.52
428.46	147.45
428.65	212.99
428.84	147.45
429.03	182.56
429.22	210.65
429.40	180.22
429.59	215.33
429.78	210.65
429.97	140.43
430.16	163.84
430.34	191.92
430.53	142.77
430.72	205.97
430.91	156.82
431.10	191.92
431.28	191.92
431.47	175.54
431.66	245.76
431.85	107.66
432.03	208.31
432.22	224.69
432.41	175.54
432.60	236.39
432.79	212.99
432.97	224.69
433.16	173.20
433.35	203.63
433.54	208.31
433.72	208.31
433.91	135.75
434.10	231.71
434.28	205.97
434.47	131.07
434.66	93.62
434.85	194.26
435.03	285.55
435.22	386.19
435.41	369.80
435.59	407.25
435.78	318.31
435.97	187.24
436.16	248.10
436.34	163.84
436.53	163.84
436.72	152.13
436.90	215.33
437.09	243.42
437.28	236.39
437.46	212.99
437.65	168.52
437.84	170.86
438.02	191.92
438.21	208.31
438.40	194.26
438.58	154.48
438.77	184.90
438.96	126.39
439.14	191.92
439.33	140.43
439.52	149.79
439.70	133.41
439.89	142.77
440.08	224.69
440.26	149.79
440.45	220.01
440.63	271.50
440.82	201.29
441.01	161.50
441.19	149.79
441.38	163.84
441.57	156.82
441.75	149.79
441.94	264.48
442.12	201.29
442.31	177.88
442.50	248.10
442.68	250.44
442.87	142.77
443.05	173.20
443.24	203.63
443.43	163.84
443.61	250.44
443.80	191.92
443.98	159.16
444.17	212.99
444.35	191.92
444.54	159.16
444.73	147.45
444.91	114.69
445.10	163.84
445.28	156.82
445.47	196.60
445.65	166.18
445.84	102.98
446.02	159.16
446.21	110.01
446.39	222.35
446.58	222.35
446.77	184.90
446.95	201.29
447.14	257.46
447.32	191.92
447.51	140.43
447.69	198.95
447.88	187.24
448.06	215.33
448.25	131.07
448.43	91.28
448.62	205.97
448.80	252.78
448.99	224.69
449.17	154.48
449.36	161.50
449.54	191.92
449.73	95.96
449.91	212.99
450.10	182.56
450.28	149.79
450.46	210.65
450.65	170.86
450.83	217.67
451.02	156.82
451.20	215.33
451.39	124.05
451.57	168.52
451.76	175.54
451.94	250.44
452.13	166.18
452.31	245.76
452.49	161.50
452.68	128.73
452.86	198.95
453.05	215.33
453.23	198.95
453.42	121.71
453.60	128.73
453.78	278.52
453.97	229.37
454.15	175.54
454.34	135.75
454.52	161.50
454.70	210.65
454.89	252.78
455.07	184.90
455.26	205.97
455.44	168.52
455.62	154.48
455.81	191.92
455.99	131.07
456.17	215.33
456.36	196.60
456.54	234.05
456.73	168.52
456.91	210.65
457.09	140.43
457.28	241.08
457.46	184.90
457.64	191.92
457.83	177.88
458.01	161.50
458.19	212.99
458.38	180.22
458.56	203.63
458.74	175.54
458.93	238.73
459.11	154.48
459.29	149.79
459.48	138.09
459.66	231.71
459.84	287.89
460.03	245.76
460.21	248.10
460.39	184.90
460.57	294.91
460.76	229.37
460.94	227.03
461.12	131.07
461.31	184.90
461.49	156.82
461.67	187.24
461.85	243.42
462.04	168.52
462.22	643.65
462.40	180.22
462.59	222.35
462.77	126.39
462.95	156.82
463.13	142.77
463.32	271.50
463.50	220.01
463.68	217.67
463.86	236.39
464.05	182.56
464.23	203.63
464.41	166.18
464.59	196.60
464.78	182.56
464.96	177.88
465.14	161.50
465.32	156.82
465.50	222.35
465.69	262.14
465.87	117.03
466.05	166.18
466.23	159.16
466.41	170.86
466.60	215.33
466.78	278.52
466.96	196.60
467.14	189.58
467.32	170.86
467.51	234.05
467.69	168.52
467.87	198.95
468.05	191.92
468.23	147.45
468.41	212.99
468.60	236.39
468.78	147.45
468.96	299.59
469.14	252.78
469.32	212.99
469.50	145.11
469.69	205.97
469.87	177.88
470.05	163.84
470.23	152.13
470.41	205.97
470.59	161.50
470.77	245.76
470.95	163.84
471.14	182.56
471.32	203.63
471.50	177.88
471.68	227.03
471.86	187.24
472.04	212.99
472.22	149.79
472.40	194.26
472.58	166.18
472.77	189.58
472.95	142.77
473.13	177.88
473.31	173.20
473.49	184.90
473.67	250.44
473.85	173.20
474.03	168.52
474.21	88.94
474.39	276.18
474.57	215.33
474.75	215.33
474.93	208.31
475.12	210.65
475.30	252.78
475.48	159.16
475.66	170.86
475.84	266.82
476.02	238.73
476.20	152.13
476.38	224.69
476.56	311.29
476.74	241.08
476.92	196.60
477.10	250.44
477.28	201.29
477.46	187.24
477.64	266.82
477.82	280.86
478.00	187.24
478.18	187.24
478.36	205.97
478.54	128.73
478.72	189.58
478.90	276.18
479.08	184.90
479.26	243.42
479.44	182.56
479.62	210.65
479.80	140.43
479.98	220.01
480.16	191.92
480.34	187.24
480.52	189.58
480.70	173.20
480.88	227.03
481.06	208.31
481.24	173.20
481.41	145.11
481.59	229.37
481.77	224.69
481.95	161.50
482.13	168.52
482.31	234.05
482.49	198.95
482.67	241.08
482.85	194.26
483.03	231.71
483.21	250.44
483.39	259.80
483.57	187.24
483.74	170.86
483.92	182.56
484.10	175.54
484.28	248.10
484.46	330.02
484.64	220.01
484.82	250.44
485.00	217.67
485.18	236.39
485.35	212.99
485.53	149.79
485.71	241.08
485.89	147.45
486.07	231.71
486.25	297.25
486.43	278.52
486.61	248.10
486.78	259.80
486.96	194.26
487.14	283.20
487.32	280.86
487.50	175.54
487.68	290.23
487.85	203.63
488.03	231.71
488.21	259.80
488.39	241.08
488.57	276.18
488.75	322.99
488.92	528.96
489.10	252.78
489.28	376.83
489.46	255.12
489.64	311.29
489.81	248.10
489.99	154.48
490.17	224.69
490.35	299.59
490.53	255.12
490.70	191.92
490.88	227.03
491.06	210.65
491.24	259.80
491.41	257.46
491.59	227.03
491.77	241.08
491.95	262.14
492.13	210.65
492.30	252.78
492.48	224.69
492.66	222.35
492.84	255.12
493.01	313.63
493.19	173.20
493.37	294.91
493.54	264.48
493.72	245.76
493.90	252.78
494.08	320.65
494.25	250.44
494.43	224.69
494.61	283.20
494.79	191.92
494.96	255.12
495.14	276.18
495.32	203.63
495.49	308.95
495.67	241.08
495.85	175.54
496.02	161.50
496.20	210.65
496.38	177.88
496.55	283.20
496.73	248.10
496.91	180.22
497.09	241.08
497.26	252.78
497.44	194.26
497.62	224.69
497.79	250.44
497.97	201.29
498.14	245.76
498.32	262.14
498.50	236.39
498.67	262.14
498.85	276.18
499.03	327.68
499.20	238.73
499.38	278.52
499.56	271.50
499.73	273.84
499.91	255.12
500.08	266.82
500.26	280.86
500.44	243.42
500.61	241.08
500.79	196.60
500.97	234.05
501.14	290.23
501.32	236.39
501.49	252.78
501.67	229.37
501.84	215.33
502.02	278.52
502.20	264.48
502.37	271.50
502.55	231.71
502.72	294.91
502.90	196.60
503.07	243.42
503.25	248.10
503.43	243.42
503.60	220.01
503.78	238.73
503.95	229.37
504.13	191.92
504.30	290.23
504.48	227.03
504.65	337.04
504.83	299.59
505.01	262.14
505.18	262.14
505.36	273.84
505.53	266.82
505.71	234.05
505.88	285.55
506.06	290.23
506.23	266.82
506.41	280.86
506.58	283.20
506.76	217.67
506.93	276.18
507.11	269.16
507.28	205.97
507.46	241.08
507.63	269.16
507.81	229.37
507.98	163.84
508.16	180.22
508.33	250.44
508.50	227.03
508.68	248.10
508.85	276.18
509.03	210.65
509.20	264.48
509.38	304.27
509.55	236.39
509.73	220.01
509.90	243.42
510.08	248.10
510.25	318.31
510.42	248.10
510.60	278.52
510.77	250.44
510.95	241.08
511.12	227.03
511.30	203.63
511.47	327.68
511.64	250.44
511.82	252.78
511.99	318.31
512.17	224.69
512.34	229.37
512.51	215.33
512.69	255.12
512.86	334.70
513.04	229.37
513.21	285.55
513.38	203.63
513.56	224.69
513.73	234.05
513.90	301.93
514.08	175.54
514.25	358.10
514.43	241.08
514.60	212.99
514.77	175.54
514.95	255.12
515.12	273.84
515.29	236.39
515.47	294.91
515.64	217.67
515.81	285.55
515.99	290.23
516.16	205.97
516.33	285.55
516.51	252.78
516.68	257.46
516.85	273.84
517.03	224.69
517.20	278.52
517.37	315.97
517.54	250.44
517.72	224.69
517.89	189.58
518.06	175.54
518.24	248.10
518.41	283.20
518.58	327.68
518.75	212.99
518.93	299.59
519.10	262.14
519.27	189.58
519.45	243.42
519.62	262.14
519.79	285.55
519.96	248.10
520.14	313.63
520.31	264.48
520.48	266.82
520.65	266.82
520.83	273.84
521.00	301.93
521.17	301.93
521.34	229.37
521.52	271.50
521.69	304.27
521.86	238.73
522.03	259.80
522.20	278.52
522.38	273.84
522.55	278.52
522.72	224.69
522.89	210.65
523.07	248.10
523.24	308.95
523.41	290.23
523.58	276.18
523.75	276.18
523.92	353.42
524.10	210.65
524.27	241.08
524.44	196.60
524.61	287.89
524.78	231.71
524.96	287.89
525.13	257.46
525.30	248.10
525.47	262.14
525.64	283.20
525.81	255.12
525.98	290.23
526.16	264.48
526.33	224.69
526.50	203.63
526.67	271.50
526.84	299.59
527.01	306.61
527.18	299.59
527.36	243.42
527.53	234.05
527.70	255.12
527.87	236.39
528.04	320.65
528.21	304.27
528.38	285.55
528.55	304.27
528.72	383.85
528.89	306.61
529.07	187.24
529.24	285.55
529.41	306.61
529.58	212.99
529.75	315.97
529.92	241.08
530.09	313.63
530.26	322.99
530.43	236.39
530.60	229.37
530.77	229.37
530.94	332.36
531.11	313.63
531.28	259.80
531.46	301.93
531.63	262.14
531.80	262.14
531.97	241.08
532.14	362.78
532.31	290.23
532.48	231.71
532.65	290.23
532.82	355.76
532.99	330.02
533.16	404.91
533.33	280.86
533.50	250.44
533.67	299.59
533.84	297.25
534.01	278.52
534.18	311.29
534.35	301.93
534.52	271.50
534.69	386.19
534.86	325.33
535.03	297.25
535.20	245.76
535.37	285.55
535.54	297.25
535.71	320.65
535.88	344.06
536.05	297.25
536.22	212.99
536.38	372.15
536.55	285.55
536.72	346.40
536.89	262.14
537.06	231.71
537.23	222.35
537.40	250.44
537.57	327.68
537.74	315.97
537.91	327.68
538.08	320.65
538.25	315.97
538.42	259.80
538.59	325.33
538.75	334.70
538.92	337.04
539.09	297.25
539.26	351.08
539.43	463.43
539.60	741.95
539.77	947.92
539.94	1027.50
540.11	777.06
540.28	573.43
540.44	407.25
540.61	449.38
540.78	458.74
540.95	425.98
541.12	575.77
541.29	493.85
541.46	554.71
541.62	468.11
541.79	468.11
541.96	524.28
542.13	514.92
542.30	477.47
542.47	456.40
542.63	433.00
542.80	463.43
542.97	458.74
543.14	407.25
543.31	505.56
543.48	463.43
543.64	421.30
543.81	444.70
543.98	451.72
544.15	489.17
544.32	386.19
544.48	416.62
544.65	451.72
544.82	454.06
544.99	477.47
545.16	411.93
545.32	491.51
545.49	718.54
545.66	772.38
545.83	873.02
546.00	793.44
546.16	596.84
546.33	479.81
546.50	475.13
546.67	442.36
546.83	447.04
547.00	346.40
547.17	409.59
547.34	367.46
547.50	327.68
547.67	393.21
547.84	346.40
548.00	407.25
548.17	280.86
548.34	376.83
548.51	353.42
548.67	294.91
548.84	351.08
549.01	322.99
549.18	339.38
549.34	381.51
549.51	367.46
549.68	304.27
549.84	315.97
550.01	292.57
550.18	428.32
550.34	353.42
550.51	311.29
550.68	369.80
550.84	337.04
551.01	388.53
551.18	327.68
551.34	222.35
551.51	362.78
551.68	273.84
551.84	330.02
552.01	248.10
552.18	292.57
552.34	301.93
552.51	294.91
552.68	306.61
552.84	220.01
553.01	311.29
553.18	365.12
553.34	325.33
553.51	285.55
553.67	322.99
553.84	297.25
554.01	330.02
554.17	330.02
554.34	241.08
554.51	348.74
554.67	250.44
554.84	271.50
555.00	332.36
555.17	332.36
555.33	285.55
555.50	252.78
555.67	259.80
555.83	283.20
556.00	330.02
556.16	498.53
556.33	266.82
556.50	304.27
556.66	234.05
556.83	238.73
556.99	299.59
557.16	243.42
557.32	271.50
557.49	292.57
557.65	264.48
557.82	243.42
557.98	266.82
558.15	280.86
558.32	241.08
558.48	290.23
558.65	322.99
558.81	280.86
558.98	175.54
559.14	322.99
559.31	290.23
559.47	252.78
559.64	308.95
559.80	217.67
559.97	248.10
560.13	262.14
560.30	147.45
560.46	259.80
560.63	301.93
560.79	229.37
560.96	250.44
561.12	283.20
561.29	191.92
561.45	243.42
561.61	262.14
561.78	287.89
561.94	203.63
562.11	184.90
562.27	315.97
562.44	264.48
562.60	234.05
562.77	227.03
562.93	311.29
563.10	243.42
563.26	187.24
563.42	259.80
563.59	243.42
563.75	222.35
563.92	306.61
564.08	299.59
564.24	351.08
564.41	241.08
564.57	236.39
564.74	262.14
564.90	339.38
565.07	376.83
565.23	299.59
565.39	257.46
565.56	257.46
565.72	236.39
565.88	299.59
566.05	304.27
566.21	241.08
566.38	337.04
566.54	388.53
566.70	369.80
566.87	196.60
567.03	271.50
567.19	215.33
567.36	257.46
567.52	259.80
567.68	241.08
567.85	224.69
568.01	227.03
568.17	238.73
568.34	271.50
568.50	337.04
568.66	301.93
568.83	313.63
568.99	234.05
569.15	372.15
569.32	304.27
569.48	259.80
569.64	252.78
569.81	337.04
569.97	217.67
570.13	250.44
570.30	257.46
570.46	266.82
570.62	255.12
570.78	234.05
570.95	243.42
571.11	273.84
571.27	234.05
571.43	238.73
571.60	271.50
571.76	276.18
571.92	205.97
572.09	217.67
572.25	330.02
572.41	283.20
572.57	217.67
572.74	362.78
572.90	224.69
573.06	271.50
573.22	269.16
573.38	292.57
573.55	248.10
573.71	205.97
573.87	238.73
574.03	198.95
574.20	269.16
574.36	358.10
574.52	245.76
574.68	257.46
574.84	257.46
575.01	222.35
575.17	339.38
575.33	269.16
575.49	318.31
575.65	341.72
575.82	409.59
575.98	409.59
576.14	475.13
576.30	620.24
576.46	519.60
576.62	482.15
576.79	447.04
576.95	348.74
577.11	322.99
577.27	252.78
577.43	292.57
577.59	365.12
577.75	238.73
577.92	353.42
578.08	245.76
578.24	353.42
578.40	304.27
578.56	444.70
578.72	348.74
578.88	444.70
579.04	386.19
579.21	351.08
579.37	248.10
579.53	320.65
579.69	346.40
579.85	332.36
580.01	369.80
580.17	386.19
580.33	381.51
580.49	292.57
580.65	315.97
580.82	383.85
580.98	416.62
581.14	334.70
581.30	344.06
581.46	461.09
581.62	477.47
581.78	440.02
581.94	440.02
582.10	376.83
582.26	374.49
582.42	404.91
582.58	414.27
582.74	330.02
582.90	376.83
583.06	477.47
583.22	421.30
583.38	500.87
583.54	491.51
583.70	559.39
583.86	608.54
584.02	592.16
584.18	709.18
584.34	812.17
584.50	2005.84
584.66	13188.92
584.82	33039.00
584.98	45097.44
585.14	39335.04
585.30	24772.23
585.46	14967.73
585.62	9280.22
585.78	4507.87
585.94	1849.02
586.10	994.73
586.26	732.59
586.42	681.10
586.58	594.50
586.74	505.56
586.90	557.05
587.06	543.00
587.22	521.94
587.38	521.94
587.54	812.17
587.70	2186.06
587.86	3082.49
588.02	3344.63
588.18	2516.08
588.34	1629.01
588.49	1102.39
588.65	653.01
588.81	505.56
588.97	346.40
589.13	297.25
589.29	348.74
589.45	353.42
589.61	292.57
589.77	351.08
589.93	346.40
590.08	388.53
590.24	306.61
590.40	416.62
590.56	334.70
590.72	346.40
590.88	322.99
591.04	325.33
591.20	369.80
591.35	374.49
591.51	362.78
591.67	311.29
591.83	325.33
591.99	266.82
592.15	372.15
592.31	313.63
592.46	290.23
592.62	355.76
592.78	320.65
592.94	334.70
593.10	339.38
593.26	308.95
593.41	416.62
593.57	339.38
593.73	468.11
593.89	1774.13
594.05	4084.23
594.20	5692.18
594.36	5359.83
594.52	3597.40
594.68	2380.32
594.84	1598.59
594.99	945.58
595.15	503.22
595.31	397.89
595.47	341.72
595.62	376.83
595.78	294.91
595.94	395.55
596.10	348.74
596.25	411.93
596.41	351.08
596.57	290.23
596.73	290.23
596.88	447.04
597.04	905.79
597.20	1357.51
597.36	1526.03
597.51	1163.25
597.67	936.21
597.83	648.33
597.99	587.47
598.14	376.83
598.30	348.74
598.46	280.86
598.61	390.87
598.77	306.61
598.93	325.33
599.09	315.97
599.24	355.76
599.40	397.89
599.56	344.06
599.71	278.52
599.87	339.38
600.03	334.70
600.18	374.49
600.34	348.74
600.50	320.65
600.65	273.84
600.81	320.65
600.97	280.86
601.12	299.59
601.28	301.93
601.44	292.57
601.59	292.57
601.75	301.93
601.91	276.18
602.06	306.61
602.22	294.91
602.37	568.75
602.53	1132.82
602.69	1483.90
602.84	1633.69
603.00	1174.95
603.16	875.36
603.31	702.16
603.47	543.00
603.62	358.10
603.78	344.06
603.94	341.72
604.09	229.37
604.25	262.14
604.40	332.36
604.56	283.20
604.71	271.50
604.87	290.23
605.03	290.23
605.18	285.55
605.34	215.33
605.49	290.23
605.65	269.16
605.80	243.42
605.96	285.55
606.12	301.93
606.27	369.80
606.43	313.63
606.58	367.46
606.74	674.07
606.89	2071.37
607.05	3728.47
607.20	4641.28
607.36	3922.74
607.51	2738.43
607.67	1933.28
607.82	1324.74
607.98	784.08
608.13	538.32
608.29	479.81
608.44	393.21
608.60	451.72
608.75	428.32
608.91	828.55
609.06	3009.93
609.22	6319.45
609.37	8219.96
609.53	7075.44
609.68	5064.92
609.84	3307.18
609.99	2321.81
610.15	1425.39
610.30	894.08
610.46	777.06
