SpectraSuite Data File
++++++++++++++++++++++++++++++++++++
Date: Fri Oct 04 11:34:09 GMT-05:00 2013
User: price-jones
Dark Spectrum Present: No
Reference Spectrum Present: No
Number of Sampled Component Spectra: 1
Spectrometers: USB2+H05261
Integration Time (usec): 100000 (USB2+H05261)
Spectra Averaged: 1 (USB2+H05261)
Boxcar Smoothing: 0 (USB2+H05261)
Correct for Electrical Dark: No (USB2+H05261)
Strobe/Lamp Enabled: No (USB2+H05261)
Correct for Detector Non-linearity: No (USB2+H05261)
Correct for Stray Light: No (USB2+H05261)
Number of Pixels in Processed Spectrum: 2048
>>>>>Begin Processed Spectral Data<<<<<
365.73	60.85
365.92	60.85
366.12	60.85
366.32	0.00
366.52	0.00
366.72	0.00
366.91	0.00
367.11	0.00
367.31	0.00
367.51	0.00
367.70	0.00
367.90	0.00
368.10	0.00
368.30	0.00
368.49	0.00
368.69	0.00
368.89	0.00
369.09	0.00
369.28	0.00
369.48	0.00
369.68	0.00
369.87	39.79
370.07	60.85
370.27	100.64
370.47	39.79
370.66	18.72
370.86	39.79
371.06	86.60
371.25	86.60
371.45	163.84
371.65	124.05
371.84	133.41
372.04	44.47
372.24	74.90
372.44	70.22
372.63	142.77
372.83	180.22
373.03	147.45
373.22	205.97
373.42	138.09
373.62	152.13
373.81	149.79
374.01	168.52
374.21	182.56
374.40	203.63
374.60	138.09
374.79	177.88
374.99	187.24
375.19	124.05
375.38	163.84
375.58	184.90
375.78	182.56
375.97	194.26
376.17	196.60
376.37	166.18
376.56	241.08
376.76	93.62
376.95	138.09
377.15	121.71
377.35	77.24
377.54	196.60
377.74	100.64
377.93	133.41
378.13	147.45
378.33	175.54
378.52	227.03
378.72	138.09
378.91	154.48
379.11	145.11
379.31	107.66
379.50	152.13
379.70	187.24
379.89	140.43
380.09	168.52
380.28	98.30
380.48	140.43
380.68	105.32
380.87	147.45
381.07	156.82
381.26	220.01
381.46	140.43
381.65	170.86
381.85	145.11
382.04	159.16
382.24	91.28
382.43	196.60
382.63	105.32
382.83	114.69
383.02	173.20
383.22	173.20
383.41	161.50
383.61	112.35
383.80	91.28
384.00	77.24
384.19	133.41
384.39	119.37
384.58	124.05
384.78	170.86
384.97	112.35
385.17	168.52
385.36	88.94
385.56	79.58
385.75	173.20
385.95	161.50
386.14	180.22
386.34	121.71
386.53	138.09
386.72	180.22
386.92	142.77
387.11	126.39
387.31	173.20
387.50	147.45
387.70	166.18
387.89	175.54
388.09	168.52
388.28	107.66
388.48	105.32
388.67	145.11
388.86	79.58
389.06	105.32
389.25	100.64
389.45	208.31
389.64	231.71
389.84	135.75
390.03	170.86
390.22	128.73
390.42	133.41
390.61	159.16
390.81	140.43
391.00	147.45
391.19	140.43
391.39	161.50
391.58	124.05
391.78	156.82
391.97	180.22
392.16	156.82
392.36	124.05
392.55	112.35
392.75	44.47
392.94	117.03
393.13	166.18
393.33	182.56
393.52	133.41
393.71	194.26
393.91	117.03
394.10	110.01
394.29	154.48
394.49	248.10
394.68	215.33
394.88	224.69
395.07	243.42
395.26	70.22
395.46	107.66
395.65	203.63
395.84	177.88
396.04	266.82
396.23	117.03
396.42	138.09
396.62	215.33
396.81	152.13
397.00	133.41
397.19	147.45
397.39	170.86
397.58	128.73
397.77	166.18
397.97	182.56
398.16	81.92
398.35	131.07
398.55	102.98
398.74	180.22
398.93	224.69
399.12	203.63
399.32	119.37
399.51	30.43
399.70	220.01
399.90	131.07
400.09	180.22
400.28	224.69
400.47	159.16
400.67	170.86
400.86	124.05
401.05	224.69
401.24	126.39
401.44	117.03
401.63	215.33
401.82	95.96
402.01	107.66
402.21	215.33
402.40	140.43
402.59	107.66
402.78	131.07
402.97	175.54
403.17	105.32
403.36	168.52
403.55	72.56
403.74	191.92
403.93	180.22
404.13	229.37
404.32	252.78
404.51	161.50
404.70	231.71
404.89	189.58
405.09	241.08
405.28	110.01
405.47	140.43
405.66	119.37
405.85	163.84
406.05	189.58
406.24	191.92
406.43	131.07
406.62	159.16
406.81	205.97
407.00	149.79
407.20	110.01
407.39	180.22
407.58	154.48
407.77	175.54
407.96	208.31
408.15	177.88
408.34	145.11
408.54	133.41
408.73	154.48
408.92	156.82
409.11	177.88
409.30	255.12
409.49	152.13
409.68	117.03
409.87	215.33
410.07	145.11
410.26	198.95
410.45	191.92
410.64	156.82
410.83	175.54
411.02	159.16
411.21	175.54
411.40	128.73
411.59	182.56
411.78	98.30
411.98	187.24
412.17	189.58
412.36	175.54
412.55	241.08
412.74	210.65
412.93	133.41
413.12	196.60
413.31	217.67
413.50	128.73
413.69	220.01
413.88	273.84
414.07	182.56
414.26	119.37
414.45	121.71
414.64	135.75
414.83	177.88
415.02	252.78
415.22	175.54
415.41	205.97
415.60	142.77
415.79	234.05
415.98	217.67
416.17	142.77
416.36	140.43
416.55	65.54
416.74	149.79
416.93	140.43
417.12	135.75
417.31	175.54
417.50	161.50
417.69	220.01
417.88	161.50
418.07	175.54
418.26	184.90
418.45	128.73
418.64	308.95
418.83	259.80
419.02	224.69
419.21	212.99
419.39	236.39
419.58	241.08
419.77	156.82
419.96	250.44
420.15	227.03
420.34	238.73
420.53	269.16
420.72	245.76
420.91	184.90
421.10	187.24
421.29	191.92
421.48	161.50
421.67	229.37
421.86	159.16
422.05	189.58
422.24	170.86
422.43	180.22
422.61	147.45
422.80	217.67
422.99	182.56
423.18	135.75
423.37	128.73
423.56	212.99
423.75	114.69
423.94	107.66
424.13	191.92
424.32	262.14
424.50	173.20
424.69	140.43
424.88	292.57
425.07	152.13
425.26	212.99
425.45	299.59
425.64	285.55
425.83	334.70
426.01	285.55
426.20	245.76
426.39	131.07
426.58	170.86
426.77	198.95
426.96	203.63
427.15	201.29
427.33	56.17
427.52	224.69
427.71	166.18
427.90	170.86
428.09	187.24
428.28	135.75
428.46	215.33
428.65	191.92
428.84	135.75
429.03	191.92
429.22	86.60
429.40	107.66
429.59	133.41
429.78	187.24
429.97	175.54
430.16	170.86
430.34	236.39
430.53	191.92
430.72	245.76
430.91	187.24
431.10	133.41
431.28	175.54
431.47	163.84
431.66	152.13
431.85	196.60
432.03	149.79
432.22	217.67
432.41	152.13
432.60	191.92
432.79	245.76
432.97	290.23
433.16	369.80
433.35	339.38
433.54	269.16
433.72	145.11
433.91	205.97
434.10	166.18
434.28	215.33
434.47	205.97
434.66	227.03
434.85	175.54
435.03	220.01
435.22	358.10
435.41	470.45
435.59	505.56
435.78	390.87
435.97	175.54
436.16	156.82
436.34	201.29
436.53	201.29
436.72	198.95
436.90	180.22
437.09	184.90
437.28	212.99
437.46	189.58
437.65	234.05
437.84	208.31
438.02	187.24
438.21	175.54
438.40	154.48
438.58	152.13
438.77	187.24
438.96	250.44
439.14	142.77
439.33	166.18
439.52	212.99
439.70	222.35
439.89	177.88
440.08	203.63
440.26	131.07
440.45	280.86
440.63	131.07
440.82	210.65
441.01	145.11
441.19	236.39
441.38	215.33
441.57	177.88
441.75	250.44
441.94	217.67
442.12	262.14
442.31	142.77
442.50	229.37
442.68	154.48
442.87	189.58
443.05	159.16
443.24	156.82
443.43	227.03
443.61	269.16
443.80	212.99
443.98	105.32
444.17	128.73
444.35	203.63
444.54	163.84
444.73	121.71
444.91	227.03
445.10	234.05
445.28	175.54
445.47	182.56
445.65	175.54
445.84	212.99
446.02	215.33
446.21	175.54
446.39	177.88
446.58	177.88
446.77	227.03
446.95	217.67
447.14	191.92
447.32	259.80
447.51	182.56
447.69	234.05
447.88	149.79
448.06	156.82
448.25	177.88
448.43	229.37
448.62	156.82
448.80	196.60
448.99	217.67
449.17	198.95
449.36	191.92
449.54	236.39
449.73	227.03
449.91	238.73
450.10	212.99
450.28	217.67
450.46	234.05
450.65	210.65
450.83	212.99
451.02	154.48
451.20	217.67
451.39	196.60
451.57	203.63
451.76	241.08
451.94	147.45
452.13	182.56
452.31	175.54
452.49	196.60
452.68	180.22
452.86	189.58
453.05	208.31
453.23	149.79
453.42	128.73
453.60	177.88
453.78	145.11
453.97	147.45
454.15	182.56
454.34	154.48
454.52	175.54
454.70	229.37
454.89	198.95
455.07	208.31
455.26	271.50
455.44	227.03
455.62	189.58
455.81	180.22
455.99	238.73
456.17	177.88
456.36	238.73
456.54	145.11
456.73	201.29
456.91	147.45
457.09	292.57
457.28	250.44
457.46	327.68
457.64	210.65
457.83	234.05
458.01	229.37
458.19	145.11
458.38	112.35
458.56	187.24
458.74	156.82
458.93	234.05
459.11	135.75
459.29	212.99
459.48	161.50
459.66	187.24
459.84	184.90
460.03	273.84
460.21	124.05
460.39	166.18
460.57	238.73
460.76	229.37
460.94	217.67
461.12	231.71
461.31	187.24
461.49	217.67
461.67	212.99
461.85	196.60
462.04	191.92
462.22	294.91
462.40	208.31
462.59	215.33
462.77	187.24
462.95	149.79
463.13	227.03
463.32	163.84
463.50	128.73
463.68	241.08
463.86	177.88
464.05	110.01
464.23	245.76
464.41	196.60
464.59	194.26
464.78	208.31
464.96	198.95
465.14	222.35
465.32	189.58
465.50	212.99
465.69	217.67
465.87	217.67
466.05	166.18
466.23	198.95
466.41	182.56
466.60	245.76
466.78	166.18
466.96	278.52
467.14	161.50
467.32	220.01
467.51	152.13
467.69	248.10
467.87	280.86
468.05	224.69
468.23	191.92
468.41	273.84
468.60	191.92
468.78	241.08
468.96	231.71
469.14	203.63
469.32	245.76
469.50	170.86
469.69	161.50
469.87	152.13
470.05	220.01
470.23	196.60
470.41	152.13
470.59	227.03
470.77	196.60
470.95	208.31
471.14	220.01
471.32	250.44
471.50	191.92
471.68	227.03
471.86	196.60
472.04	156.82
472.22	182.56
472.40	149.79
472.58	177.88
472.77	198.95
472.95	222.35
473.13	220.01
473.31	283.20
473.49	173.20
473.67	257.46
473.85	215.33
474.03	250.44
474.21	194.26
474.39	245.76
474.57	215.33
474.75	266.82
474.93	180.22
475.12	168.52
475.30	222.35
475.48	170.86
475.66	194.26
475.84	198.95
476.02	205.97
476.20	201.29
476.38	248.10
476.56	252.78
476.74	259.80
476.92	191.92
477.10	208.31
477.28	236.39
477.46	198.95
477.64	241.08
477.82	175.54
478.00	166.18
478.18	210.65
478.36	152.13
478.54	196.60
478.72	224.69
478.90	177.88
479.08	222.35
479.26	224.69
479.44	217.67
479.62	250.44
479.80	259.80
479.98	182.56
480.16	224.69
480.34	184.90
480.52	189.58
480.70	170.86
480.88	231.71
481.06	152.13
481.24	271.50
481.41	222.35
481.59	269.16
481.77	252.78
481.95	273.84
482.13	294.91
482.31	177.88
482.49	262.14
482.67	248.10
482.85	271.50
483.03	189.58
483.21	220.01
483.39	166.18
483.57	217.67
483.74	315.97
483.92	234.05
484.10	201.29
484.28	283.20
484.46	304.27
484.64	285.55
484.82	238.73
485.00	306.61
485.18	217.67
485.35	224.69
485.53	229.37
485.71	294.91
485.89	170.86
486.07	255.12
486.25	262.14
486.43	201.29
486.61	325.33
486.78	196.60
486.96	220.01
487.14	241.08
487.32	313.63
487.50	283.20
487.68	278.52
487.85	259.80
488.03	273.84
488.21	341.72
488.39	290.23
488.57	250.44
488.75	191.92
488.92	557.05
489.10	257.46
489.28	285.55
489.46	290.23
489.64	257.46
489.81	243.42
489.99	285.55
490.17	245.76
490.35	386.19
490.53	255.12
490.70	231.71
490.88	264.48
491.06	231.71
491.24	257.46
491.41	306.61
491.59	245.76
491.77	149.79
491.95	191.92
492.13	220.01
492.30	337.04
492.48	236.39
492.66	283.20
492.84	198.95
493.01	294.91
493.19	259.80
493.37	327.68
493.54	250.44
493.72	229.37
493.90	191.92
494.08	191.92
494.25	212.99
494.43	276.18
494.61	273.84
494.79	222.35
494.96	287.89
495.14	266.82
495.32	248.10
495.49	313.63
495.67	198.95
495.85	250.44
496.02	241.08
496.20	180.22
496.38	248.10
496.55	154.48
496.73	245.76
496.91	285.55
497.09	168.52
497.26	292.57
497.44	271.50
497.62	236.39
497.79	250.44
497.97	224.69
498.14	203.63
498.32	273.84
498.50	280.86
498.67	220.01
498.85	208.31
499.03	245.76
499.20	262.14
499.38	177.88
499.56	250.44
499.73	250.44
499.91	313.63
500.08	306.61
500.26	248.10
500.44	196.60
500.61	339.38
500.79	276.18
500.97	271.50
501.14	257.46
501.32	231.71
501.49	250.44
501.67	222.35
501.84	276.18
502.02	222.35
502.20	304.27
502.37	280.86
502.55	294.91
502.72	285.55
502.90	276.18
503.07	276.18
503.25	203.63
503.43	297.25
503.60	292.57
503.78	294.91
503.95	212.99
504.13	198.95
504.30	262.14
504.48	313.63
504.65	259.80
504.83	259.80
505.01	294.91
505.18	306.61
505.36	220.01
505.53	173.20
505.71	259.80
505.88	341.72
506.06	306.61
506.23	231.71
506.41	315.97
506.58	229.37
506.76	285.55
506.93	205.97
507.11	301.93
507.28	292.57
507.46	252.78
507.63	379.17
507.81	222.35
507.98	241.08
508.16	290.23
508.33	238.73
508.50	283.20
508.68	318.31
508.85	229.37
509.03	252.78
509.20	283.20
509.38	266.82
509.55	215.33
509.73	381.51
509.90	365.12
510.08	287.89
510.25	194.26
510.42	177.88
510.60	290.23
510.77	306.61
510.95	322.99
511.12	252.78
511.30	423.64
511.47	358.10
511.64	351.08
511.82	276.18
511.99	273.84
512.17	271.50
512.34	278.52
512.51	217.67
512.69	217.67
512.86	266.82
513.04	217.67
513.21	210.65
513.38	250.44
513.56	229.37
513.73	217.67
513.90	273.84
514.08	271.50
514.25	264.48
514.43	313.63
514.60	262.14
514.77	255.12
514.95	292.57
515.12	269.16
515.29	220.01
515.47	238.73
515.64	266.82
515.81	266.82
515.99	283.20
516.16	234.05
516.33	320.65
516.51	276.18
516.68	222.35
516.85	285.55
517.03	222.35
517.20	241.08
517.37	220.01
517.54	250.44
517.72	287.89
517.89	257.46
518.06	255.12
518.24	257.46
518.41	301.93
518.58	327.68
518.75	304.27
518.93	248.10
519.10	337.04
519.27	238.73
519.45	257.46
519.62	318.31
519.79	308.95
519.96	229.37
520.14	344.06
520.31	341.72
520.48	313.63
520.65	212.99
520.83	308.95
521.00	334.70
521.17	280.86
521.34	299.59
521.52	297.25
521.69	238.73
521.86	262.14
522.03	315.97
522.20	292.57
522.38	234.05
522.55	301.93
522.72	227.03
522.89	318.31
523.07	236.39
523.24	292.57
523.41	280.86
523.58	203.63
523.75	304.27
523.92	215.33
524.10	290.23
524.27	250.44
524.44	322.99
524.61	290.23
524.78	318.31
524.96	250.44
525.13	308.95
525.30	252.78
525.47	397.89
525.64	301.93
525.81	348.74
525.98	346.40
526.16	290.23
526.33	325.33
526.50	266.82
526.67	173.20
526.84	308.95
527.01	198.95
527.18	278.52
527.36	250.44
527.53	220.01
527.70	374.49
527.87	215.33
528.04	362.78
528.21	346.40
528.38	257.46
528.55	332.36
528.72	346.40
528.89	287.89
529.07	308.95
529.24	243.42
529.41	325.33
529.58	292.57
529.75	299.59
529.92	344.06
530.09	297.25
530.26	346.40
530.43	299.59
530.60	250.44
530.77	273.84
530.94	271.50
531.11	330.02
531.28	313.63
531.46	224.69
531.63	229.37
531.80	318.31
531.97	299.59
532.14	245.76
532.31	264.48
532.48	301.93
532.65	346.40
532.82	496.19
532.99	451.72
533.16	351.08
533.33	367.46
533.50	341.72
533.67	437.68
533.84	524.28
534.01	470.45
534.18	397.89
534.35	383.85
534.52	259.80
534.69	362.78
534.86	318.31
535.03	313.63
535.20	367.46
535.37	341.72
535.54	308.95
535.71	339.38
535.88	299.59
536.05	327.68
536.22	280.86
536.38	255.12
536.55	278.52
536.72	346.40
536.89	255.12
537.06	257.46
537.23	372.15
537.40	388.53
537.57	297.25
537.74	388.53
537.91	344.06
538.08	409.59
538.25	311.29
538.42	400.23
538.59	365.12
538.75	339.38
538.92	327.68
539.09	416.62
539.26	362.78
539.43	643.65
539.60	1263.89
539.77	1893.49
539.94	1900.52
540.11	1287.29
540.28	823.87
540.44	685.78
540.61	531.30
540.78	475.13
540.95	500.87
541.12	547.69
541.29	615.56
541.46	662.37
541.62	554.71
541.79	615.56
541.96	535.98
542.13	578.11
542.30	550.03
542.47	543.00
542.63	547.69
542.80	505.56
542.97	559.39
543.14	437.68
543.31	440.02
543.48	440.02
543.64	491.51
543.81	521.94
543.98	503.22
544.15	451.72
544.32	470.45
544.48	540.66
544.65	519.60
544.82	447.04
544.99	486.83
545.16	578.11
545.32	503.22
545.49	718.54
545.66	1050.90
545.83	1053.24
546.00	933.87
546.16	770.04
546.33	571.09
546.50	573.43
546.67	517.26
546.83	484.49
547.00	433.00
547.17	400.23
547.34	397.89
547.50	386.19
547.67	376.83
547.84	421.30
548.00	416.62
548.17	397.89
548.34	416.62
548.51	407.25
548.67	353.42
548.84	381.51
549.01	362.78
549.18	400.23
549.34	393.21
549.51	409.59
549.68	374.49
549.84	358.10
550.01	339.38
550.18	409.59
550.34	493.85
550.51	374.49
550.68	369.80
550.84	374.49
551.01	304.27
551.18	341.72
551.34	285.55
551.51	278.52
551.68	358.10
551.84	362.78
552.01	327.68
552.18	332.36
552.34	355.76
552.51	278.52
552.68	346.40
552.84	292.57
553.01	353.42
553.18	330.02
553.34	311.29
553.51	294.91
553.67	339.38
553.84	376.83
554.01	355.76
554.17	308.95
554.34	320.65
554.51	280.86
554.67	376.83
554.84	266.82
555.00	348.74
555.17	278.52
555.33	292.57
555.50	372.15
555.67	285.55
555.83	337.04
556.00	250.44
556.16	463.43
556.33	332.36
556.50	262.14
556.66	283.20
556.83	264.48
556.99	311.29
557.16	217.67
557.32	285.55
557.49	252.78
557.65	234.05
557.82	231.71
557.98	313.63
558.15	175.54
558.32	252.78
558.48	231.71
558.65	285.55
558.81	346.40
558.98	236.39
559.14	269.16
559.31	212.99
559.47	245.76
559.64	191.92
559.80	308.95
559.97	280.86
560.13	276.18
560.30	234.05
560.46	290.23
560.63	269.16
560.79	313.63
560.96	292.57
561.12	262.14
561.29	271.50
561.45	280.86
561.61	248.10
561.78	372.15
561.94	229.37
562.11	299.59
562.27	318.31
562.44	262.14
562.60	248.10
562.77	301.93
562.93	306.61
563.10	306.61
563.26	222.35
563.42	229.37
563.59	250.44
563.75	292.57
563.92	250.44
564.08	337.04
564.24	311.29
564.41	325.33
564.57	257.46
564.74	241.08
564.90	341.72
565.07	306.61
565.23	337.04
565.39	351.08
565.56	280.86
565.72	245.76
565.88	266.82
566.05	322.99
566.21	208.31
566.38	360.44
566.54	271.50
566.70	276.18
566.87	248.10
567.03	259.80
567.19	301.93
567.36	287.89
567.52	243.42
567.68	318.31
567.85	285.55
568.01	327.68
568.17	297.25
568.34	341.72
568.50	264.48
568.66	299.59
568.83	355.76
568.99	304.27
569.15	339.38
569.32	344.06
569.48	306.61
569.64	241.08
569.81	322.99
569.97	238.73
570.13	269.16
570.30	252.78
570.46	229.37
570.62	304.27
570.78	322.99
570.95	334.70
571.11	243.42
571.27	266.82
571.43	271.50
571.60	332.36
571.76	315.97
571.92	301.93
572.09	266.82
572.25	276.18
572.41	220.01
572.57	238.73
572.74	315.97
572.90	330.02
573.06	315.97
573.22	271.50
573.38	280.86
573.55	325.33
573.71	367.46
573.87	297.25
574.03	252.78
574.20	278.52
574.36	416.62
574.52	376.83
574.68	411.93
574.84	393.21
575.01	341.72
575.17	283.20
575.33	311.29
575.49	334.70
575.65	339.38
575.82	498.53
575.98	704.50
576.14	809.83
576.30	833.23
576.46	725.57
576.62	594.50
576.79	489.17
576.95	491.51
577.11	414.27
577.27	379.17
577.43	381.51
577.59	318.31
577.75	360.44
577.92	301.93
578.08	351.08
578.24	325.33
578.40	355.76
578.56	484.49
578.72	510.24
578.88	451.72
579.04	425.98
579.21	414.27
579.37	322.99
579.53	334.70
579.69	465.77
579.85	379.17
580.01	526.62
580.17	465.77
580.33	397.89
580.49	409.59
580.65	397.89
580.82	404.91
580.98	386.19
581.14	418.96
581.30	461.09
581.46	545.34
581.62	655.35
581.78	734.93
581.94	709.18
582.10	596.84
582.26	540.66
582.42	566.41
582.58	425.98
582.74	496.19
582.90	566.41
583.06	580.45
583.22	592.16
583.38	582.79
583.54	596.84
583.70	699.82
583.86	788.76
584.02	933.87
584.18	1093.03
584.34	1451.13
584.50	3276.75
584.66	24929.05
584.82	59061.08
584.98	65535.00
585.14	65535.00
585.30	53673.16
585.46	34553.33
585.62	20898.64
585.78	9811.53
585.94	3854.86
586.10	1975.41
586.26	1226.44
586.42	1008.77
586.58	884.72
586.74	774.72
586.90	737.27
587.06	784.08
587.22	664.71
587.38	702.16
587.54	1263.89
587.70	3861.88
587.86	6530.09
588.02	7398.43
588.18	5378.55
588.34	3309.52
588.49	2267.98
588.65	1413.68
588.81	718.54
588.97	575.77
589.13	470.45
589.29	423.64
589.45	433.00
589.61	479.81
589.77	585.13
589.93	566.41
590.08	608.54
590.24	568.75
590.40	578.11
590.56	533.64
590.72	470.45
590.88	421.30
591.04	402.57
591.20	407.25
591.35	505.56
591.51	496.19
591.67	395.55
591.83	365.12
591.99	395.55
592.15	430.66
592.31	428.32
592.46	465.77
592.62	484.49
592.78	423.64
592.94	383.85
593.10	414.27
593.26	493.85
593.41	477.47
593.57	484.49
593.73	643.65
593.89	3075.46
594.05	8322.94
594.20	12856.56
594.36	12112.27
594.52	7906.33
594.68	4933.85
594.84	3321.22
594.99	1891.15
595.15	917.49
595.31	594.50
595.47	456.40
595.62	374.49
595.78	383.85
595.94	407.25
596.10	456.40
596.25	433.00
596.41	341.72
596.57	423.64
596.73	416.62
596.88	645.99
597.04	1603.27
597.20	2665.87
597.36	3178.45
597.51	2558.21
597.67	1614.97
597.83	1186.65
597.99	791.10
598.14	575.77
598.30	440.02
598.46	425.98
598.61	437.68
598.77	362.78
598.93	365.12
599.09	428.32
599.24	425.98
599.40	393.21
599.56	397.89
599.71	402.57
599.87	322.99
600.03	299.59
600.18	299.59
600.34	276.18
600.50	402.57
600.65	325.33
600.81	301.93
600.97	271.50
601.12	344.06
601.28	360.44
601.44	379.17
601.59	308.95
601.75	360.44
601.91	313.63
602.06	334.70
602.22	442.36
602.37	856.64
602.53	1928.60
602.69	3066.10
602.84	3201.85
603.00	2600.34
603.16	1717.95
603.31	1146.86
603.47	777.06
603.62	468.11
603.78	351.08
603.94	376.83
604.09	367.46
604.25	262.14
604.40	330.02
604.56	325.33
604.71	386.19
604.87	306.61
605.03	299.59
605.18	292.57
605.34	337.04
605.49	315.97
605.65	418.96
605.80	367.46
605.96	376.83
606.12	344.06
606.27	402.57
606.43	435.34
606.58	442.36
606.74	968.98
606.89	3882.95
607.05	7941.44
607.20	10815.62
607.36	8872.97
607.51	6097.10
607.67	4011.68
607.82	2703.32
607.98	1570.50
608.13	828.55
608.29	692.80
608.44	531.30
608.60	575.77
608.75	638.97
608.91	1320.06
609.06	5944.96
609.22	13834.91
609.37	19117.50
609.53	16601.42
609.68	11358.62
609.84	7246.30
609.99	4849.59
