SpectraSuite Data File
++++++++++++++++++++++++++++++++++++
Date: Fri Oct 04 11:34:10 GMT-05:00 2013
User: price-jones
Dark Spectrum Present: No
Reference Spectrum Present: No
Number of Sampled Component Spectra: 1
Spectrometers: USB2+H05261
Integration Time (usec): 100000 (USB2+H05261)
Spectra Averaged: 1 (USB2+H05261)
Boxcar Smoothing: 0 (USB2+H05261)
Correct for Electrical Dark: No (USB2+H05261)
Strobe/Lamp Enabled: No (USB2+H05261)
Correct for Detector Non-linearity: No (USB2+H05261)
Correct for Stray Light: No (USB2+H05261)
Number of Pixels in Processed Spectrum: 2048
>>>>>Begin Processed Spectral Data<<<<<
365.73	72.56
365.92	72.56
366.12	72.56
366.32	0.00
366.52	0.00
366.72	0.00
366.91	0.00
367.11	18.72
367.31	0.00
367.51	0.00
367.70	0.00
367.90	21.06
368.10	0.00
368.30	42.13
368.49	0.00
368.69	60.85
368.89	28.09
369.09	0.00
369.28	16.38
369.48	74.90
369.68	0.00
369.87	42.13
370.07	11.70
370.27	51.49
370.47	49.15
370.66	0.00
370.86	72.56
371.06	138.09
371.25	112.35
371.45	65.54
371.65	107.66
371.84	70.22
372.04	117.03
372.24	154.48
372.44	95.96
372.63	67.88
372.83	161.50
373.03	112.35
373.22	114.69
373.42	93.62
373.62	161.50
373.81	145.11
374.01	166.18
374.21	189.58
374.40	159.16
374.60	161.50
374.79	154.48
374.99	93.62
375.19	231.71
375.38	117.03
375.58	138.09
375.78	201.29
375.97	180.22
376.17	140.43
376.37	138.09
376.56	234.05
376.76	142.77
376.95	175.54
377.15	168.52
377.35	173.20
377.54	117.03
377.74	161.50
377.93	114.69
378.13	126.39
378.33	217.67
378.52	163.84
378.72	149.79
378.91	236.39
379.11	124.05
379.31	140.43
379.50	128.73
379.70	205.97
379.89	112.35
380.09	65.54
380.28	63.19
380.48	102.98
380.68	154.48
380.87	107.66
381.07	154.48
381.26	156.82
381.46	163.84
381.65	88.94
381.85	128.73
382.04	105.32
382.24	138.09
382.43	124.05
382.63	107.66
382.83	175.54
383.02	168.52
383.22	159.16
383.41	210.65
383.61	173.20
383.80	145.11
384.00	119.37
384.19	259.80
384.39	112.35
384.58	175.54
384.78	91.28
384.97	187.24
385.17	208.31
385.36	67.88
385.56	145.11
385.75	166.18
385.95	138.09
386.14	128.73
386.34	154.48
386.53	156.82
386.72	105.32
386.92	180.22
387.11	149.79
387.31	95.96
387.50	168.52
387.70	119.37
387.89	65.54
388.09	140.43
388.28	77.24
388.48	156.82
388.67	180.22
388.86	156.82
389.06	149.79
389.25	205.97
389.45	107.66
389.64	170.86
389.84	175.54
390.03	119.37
390.22	166.18
390.42	124.05
390.61	142.77
390.81	124.05
391.00	159.16
391.19	177.88
391.39	124.05
391.58	168.52
391.78	140.43
391.97	145.11
392.16	135.75
392.36	156.82
392.55	177.88
392.75	126.39
392.94	112.35
393.13	84.26
393.33	142.77
393.52	102.98
393.71	224.69
393.91	135.75
394.10	79.58
394.29	128.73
394.49	152.13
394.68	191.92
394.88	210.65
395.07	135.75
395.26	135.75
395.46	168.52
395.65	128.73
395.84	173.20
396.04	238.73
396.23	182.56
396.42	161.50
396.62	147.45
396.81	98.30
397.00	42.13
397.19	131.07
397.39	105.32
397.58	159.16
397.77	175.54
397.97	191.92
398.16	170.86
398.35	124.05
398.55	102.98
398.74	166.18
398.93	194.26
399.12	112.35
399.32	166.18
399.51	152.13
399.70	173.20
399.90	159.16
400.09	166.18
400.28	133.41
400.47	131.07
400.67	163.84
400.86	138.09
401.05	220.01
401.24	177.88
401.44	170.86
401.63	140.43
401.82	173.20
402.01	138.09
402.21	163.84
402.40	168.52
402.59	149.79
402.78	156.82
402.97	152.13
403.17	142.77
403.36	168.52
403.55	231.71
403.74	159.16
403.93	196.60
404.13	215.33
404.32	170.86
404.51	201.29
404.70	248.10
404.89	128.73
405.09	149.79
405.28	140.43
405.47	140.43
405.66	205.97
405.85	147.45
406.05	159.16
406.24	145.11
406.43	112.35
406.62	222.35
406.81	238.73
407.00	234.05
407.20	205.97
407.39	212.99
407.58	114.69
407.77	135.75
407.96	191.92
408.15	133.41
408.34	140.43
408.54	124.05
408.73	187.24
408.92	121.71
409.11	121.71
409.30	152.13
409.49	152.13
409.68	110.01
409.87	182.56
410.07	205.97
410.26	187.24
410.45	81.92
410.64	161.50
410.83	159.16
411.02	205.97
411.21	236.39
411.40	156.82
411.59	135.75
411.78	117.03
411.98	224.69
412.17	114.69
412.36	121.71
412.55	208.31
412.74	154.48
412.93	114.69
413.12	208.31
413.31	198.95
413.50	180.22
413.69	170.86
413.88	194.26
414.07	191.92
414.26	154.48
414.45	135.75
414.64	152.13
414.83	166.18
415.02	175.54
415.22	142.77
415.41	180.22
415.60	166.18
415.79	170.86
415.98	154.48
416.17	152.13
416.36	222.35
416.55	70.22
416.74	201.29
416.93	152.13
417.12	166.18
417.31	205.97
417.50	241.08
417.69	191.92
417.88	212.99
418.07	227.03
418.26	203.63
418.45	191.92
418.64	234.05
418.83	220.01
419.02	210.65
419.21	184.90
419.39	220.01
419.58	208.31
419.77	196.60
419.96	231.71
420.15	210.65
420.34	191.92
420.53	196.60
420.72	117.03
420.91	201.29
421.10	142.77
421.29	173.20
421.48	175.54
421.67	152.13
421.86	159.16
422.05	168.52
422.24	170.86
422.43	138.09
422.61	124.05
422.80	222.35
422.99	175.54
423.18	166.18
423.37	191.92
423.56	220.01
423.75	152.13
423.94	149.79
424.13	124.05
424.32	128.73
424.50	159.16
424.69	161.50
424.88	208.31
425.07	175.54
425.26	250.44
425.45	243.42
425.64	248.10
425.83	264.48
426.01	264.48
426.20	208.31
426.39	182.56
426.58	175.54
426.77	241.08
426.96	210.65
427.15	187.24
427.33	205.97
427.52	117.03
427.71	121.71
427.90	191.92
428.09	140.43
428.28	215.33
428.46	93.62
428.65	128.73
428.84	212.99
429.03	191.92
429.22	212.99
429.40	212.99
429.59	161.50
429.78	285.55
429.97	100.64
430.16	198.95
430.34	166.18
430.53	163.84
430.72	112.35
430.91	177.88
431.10	149.79
431.28	100.64
431.47	224.69
431.66	205.97
431.85	105.32
432.03	177.88
432.22	297.25
432.41	161.50
432.60	241.08
432.79	231.71
432.97	276.18
433.16	355.76
433.35	276.18
433.54	205.97
433.72	177.88
433.91	184.90
434.10	159.16
434.28	236.39
434.47	220.01
434.66	180.22
434.85	229.37
435.03	173.20
435.22	330.02
435.41	566.41
435.59	461.09
435.78	440.02
435.97	273.84
436.16	173.20
436.34	236.39
436.53	184.90
436.72	229.37
436.90	196.60
437.09	180.22
437.28	210.65
437.46	168.52
437.65	198.95
437.84	210.65
438.02	149.79
438.21	229.37
438.40	166.18
438.58	198.95
438.77	177.88
438.96	280.86
439.14	222.35
439.33	133.41
439.52	142.77
439.70	163.84
439.89	220.01
440.08	212.99
440.26	217.67
440.45	208.31
440.63	189.58
440.82	241.08
441.01	205.97
441.19	187.24
441.38	135.75
441.57	102.98
441.75	182.56
441.94	117.03
442.12	203.63
442.31	189.58
442.50	196.60
442.68	208.31
442.87	114.69
443.05	145.11
443.24	283.20
443.43	205.97
443.61	208.31
443.80	170.86
443.98	222.35
444.17	175.54
444.35	182.56
444.54	173.20
444.73	91.28
444.91	173.20
445.10	220.01
445.28	138.09
445.47	184.90
445.65	175.54
445.84	147.45
446.02	159.16
446.21	142.77
446.39	203.63
446.58	191.92
446.77	189.58
446.95	231.71
447.14	156.82
447.32	208.31
447.51	159.16
447.69	145.11
447.88	222.35
448.06	217.67
448.25	203.63
448.43	159.16
448.62	220.01
448.80	198.95
448.99	245.76
449.17	177.88
449.36	128.73
449.54	152.13
449.73	212.99
449.91	283.20
450.10	187.24
450.28	189.58
450.46	222.35
450.65	255.12
450.83	234.05
451.02	243.42
451.20	147.45
451.39	163.84
451.57	128.73
451.76	194.26
451.94	201.29
452.13	245.76
452.31	276.18
452.49	168.52
452.68	215.33
452.86	229.37
453.05	285.55
453.23	177.88
453.42	131.07
453.60	117.03
453.78	194.26
453.97	128.73
454.15	198.95
454.34	72.56
454.52	112.35
454.70	229.37
454.89	229.37
455.07	196.60
455.26	208.31
455.44	201.29
455.62	259.80
455.81	133.41
455.99	156.82
456.17	231.71
456.36	152.13
456.54	121.71
456.73	187.24
456.91	196.60
457.09	201.29
457.28	234.05
457.46	229.37
457.64	177.88
457.83	220.01
458.01	135.75
458.19	205.97
458.38	203.63
458.56	168.52
458.74	205.97
458.93	189.58
459.11	196.60
459.29	255.12
459.48	220.01
459.66	184.90
459.84	220.01
460.03	304.27
460.21	231.71
460.39	142.77
460.57	245.76
460.76	208.31
460.94	229.37
461.12	194.26
461.31	248.10
461.49	215.33
461.67	217.67
461.85	241.08
462.04	217.67
462.22	308.95
462.40	266.82
462.59	276.18
462.77	205.97
462.95	210.65
463.13	212.99
463.32	229.37
463.50	224.69
463.68	198.95
463.86	168.52
464.05	182.56
464.23	163.84
464.41	203.63
464.59	227.03
464.78	205.97
464.96	189.58
465.14	168.52
465.32	234.05
465.50	259.80
465.69	194.26
465.87	187.24
466.05	285.55
466.23	166.18
466.41	177.88
466.60	222.35
466.78	154.48
466.96	264.48
467.14	159.16
467.32	234.05
467.51	243.42
467.69	196.60
467.87	180.22
468.05	168.52
468.23	287.89
468.41	208.31
468.60	114.69
468.78	149.79
468.96	332.36
469.14	203.63
469.32	152.13
469.50	98.30
469.69	180.22
469.87	196.60
470.05	238.73
470.23	264.48
470.41	177.88
470.59	215.33
470.77	212.99
470.95	205.97
471.14	196.60
471.32	175.54
471.50	224.69
471.68	212.99
471.86	245.76
472.04	117.03
472.22	191.92
472.40	140.43
472.58	238.73
472.77	156.82
472.95	212.99
473.13	208.31
473.31	170.86
473.49	177.88
473.67	180.22
473.85	212.99
474.03	180.22
474.21	135.75
474.39	156.82
474.57	194.26
474.75	142.77
474.93	154.48
475.12	189.58
475.30	215.33
475.48	215.33
475.66	203.63
475.84	227.03
476.02	196.60
476.20	196.60
476.38	182.56
476.56	318.31
476.74	210.65
476.92	224.69
477.10	177.88
477.28	273.84
477.46	248.10
477.64	210.65
477.82	196.60
478.00	234.05
478.18	238.73
478.36	215.33
478.54	175.54
478.72	177.88
478.90	196.60
479.08	229.37
479.26	262.14
479.44	135.75
479.62	238.73
479.80	184.90
479.98	224.69
480.16	203.63
480.34	212.99
480.52	198.95
480.70	222.35
480.88	236.39
481.06	88.94
481.24	229.37
481.41	224.69
481.59	217.67
481.77	283.20
481.95	217.67
482.13	241.08
482.31	182.56
482.49	198.95
482.67	229.37
482.85	175.54
483.03	320.65
483.21	210.65
483.39	227.03
483.57	238.73
483.74	355.76
483.92	292.57
484.10	248.10
484.28	266.82
484.46	224.69
484.64	168.52
484.82	191.92
485.00	297.25
485.18	205.97
485.35	259.80
485.53	243.42
485.71	220.01
485.89	177.88
486.07	243.42
486.25	304.27
486.43	271.50
486.61	264.48
486.78	297.25
486.96	229.37
487.14	308.95
487.32	276.18
487.50	201.29
487.68	264.48
487.85	220.01
488.03	283.20
488.21	308.95
488.39	217.67
488.57	271.50
488.75	311.29
488.92	458.74
489.10	229.37
489.28	294.91
489.46	222.35
489.64	175.54
489.81	198.95
489.99	339.38
490.17	285.55
490.35	269.16
490.53	212.99
490.70	243.42
490.88	220.01
491.06	285.55
491.24	374.49
491.41	262.14
491.59	259.80
491.77	210.65
491.95	234.05
492.13	271.50
492.30	238.73
492.48	224.69
492.66	264.48
492.84	236.39
493.01	280.86
493.19	290.23
493.37	322.99
493.54	292.57
493.72	271.50
493.90	215.33
494.08	250.44
494.25	280.86
494.43	269.16
494.61	250.44
494.79	262.14
494.96	278.52
495.14	241.08
495.32	212.99
495.49	290.23
495.67	241.08
495.85	278.52
496.02	196.60
496.20	299.59
496.38	290.23
496.55	149.79
496.73	311.29
496.91	212.99
497.09	287.89
497.26	259.80
497.44	205.97
497.62	140.43
497.79	245.76
497.97	308.95
498.14	252.78
498.32	278.52
498.50	315.97
498.67	283.20
498.85	215.33
499.03	255.12
499.20	236.39
499.38	273.84
499.56	276.18
499.73	285.55
499.91	255.12
500.08	259.80
500.26	280.86
500.44	327.68
500.61	245.76
500.79	205.97
500.97	313.63
501.14	273.84
501.32	236.39
501.49	325.33
501.67	315.97
501.84	297.25
502.02	245.76
502.20	299.59
502.37	250.44
502.55	217.67
502.72	224.69
502.90	334.70
503.07	287.89
503.25	283.20
503.43	308.95
503.60	290.23
503.78	362.78
503.95	271.50
504.13	231.71
504.30	297.25
504.48	217.67
504.65	259.80
504.83	276.18
505.01	276.18
505.18	287.89
505.36	252.78
505.53	250.44
505.71	273.84
505.88	271.50
506.06	229.37
506.23	290.23
506.41	259.80
506.58	252.78
506.76	220.01
506.93	341.72
507.11	259.80
507.28	278.52
507.46	278.52
507.63	287.89
507.81	220.01
507.98	238.73
508.16	224.69
508.33	252.78
508.50	318.31
508.68	322.99
508.85	299.59
509.03	208.31
509.20	264.48
509.38	330.02
509.55	278.52
509.73	248.10
509.90	292.57
510.08	220.01
510.25	208.31
510.42	269.16
510.60	243.42
510.77	264.48
510.95	248.10
511.12	243.42
511.30	337.04
511.47	334.70
511.64	325.33
511.82	294.91
511.99	320.65
512.17	252.78
512.34	290.23
512.51	234.05
512.69	224.69
512.86	177.88
513.04	264.48
513.21	231.71
513.38	262.14
513.56	227.03
513.73	236.39
513.90	248.10
514.08	292.57
514.25	285.55
514.43	245.76
514.60	374.49
514.77	208.31
514.95	278.52
515.12	252.78
515.29	278.52
515.47	276.18
515.64	252.78
515.81	234.05
515.99	290.23
516.16	322.99
516.33	257.46
516.51	212.99
516.68	264.48
516.85	262.14
517.03	271.50
517.20	252.78
517.37	301.93
517.54	318.31
517.72	243.42
517.89	238.73
518.06	224.69
518.24	259.80
518.41	257.46
518.58	353.42
518.75	299.59
518.93	269.16
519.10	220.01
519.27	248.10
519.45	334.70
519.62	290.23
519.79	234.05
519.96	243.42
520.14	252.78
520.31	299.59
520.48	290.23
520.65	304.27
520.83	353.42
521.00	245.76
521.17	320.65
521.34	269.16
521.52	348.74
521.69	290.23
521.86	217.67
522.03	273.84
522.20	248.10
522.38	266.82
522.55	292.57
522.72	234.05
522.89	273.84
523.07	332.36
523.24	234.05
523.41	301.93
523.58	255.12
523.75	287.89
523.92	294.91
524.10	259.80
524.27	259.80
524.44	297.25
524.61	252.78
524.78	241.08
524.96	318.31
525.13	248.10
525.30	334.70
525.47	241.08
525.64	257.46
525.81	243.42
525.98	290.23
526.16	184.90
526.33	231.71
526.50	269.16
526.67	245.76
526.84	222.35
527.01	215.33
527.18	255.12
527.36	236.39
527.53	264.48
527.70	313.63
527.87	191.92
528.04	285.55
528.21	252.78
528.38	313.63
528.55	339.38
528.72	297.25
528.89	313.63
529.07	313.63
529.24	241.08
529.41	369.80
529.58	262.14
529.75	222.35
529.92	257.46
530.09	264.48
530.26	351.08
530.43	353.42
530.60	297.25
530.77	287.89
530.94	308.95
531.11	315.97
531.28	252.78
531.46	264.48
531.63	255.12
531.80	283.20
531.97	290.23
532.14	311.29
532.31	259.80
532.48	337.04
532.65	404.91
532.82	404.91
532.99	449.38
533.16	407.25
533.33	369.80
533.50	369.80
533.67	308.95
533.84	444.70
534.01	421.30
534.18	402.57
534.35	297.25
534.52	383.85
534.69	353.42
534.86	227.03
535.03	301.93
535.20	327.68
535.37	341.72
535.54	325.33
535.71	383.85
535.88	299.59
536.05	327.68
536.22	297.25
536.38	341.72
536.55	372.15
536.72	360.44
536.89	269.16
537.06	271.50
537.23	287.89
537.40	381.51
537.57	294.91
537.74	278.52
537.91	381.51
538.08	386.19
538.25	332.36
538.42	346.40
538.59	262.14
538.75	299.59
538.92	374.49
539.09	365.12
539.26	428.32
539.43	589.82
539.60	1036.86
539.77	1481.56
539.94	1401.98
540.11	1086.01
540.28	772.38
540.44	678.76
540.61	444.70
540.78	456.40
540.95	482.15
541.12	514.92
541.29	580.45
541.46	631.94
541.62	669.39
541.79	636.63
541.96	587.47
542.13	517.26
542.30	575.77
542.47	543.00
542.63	479.81
542.80	514.92
542.97	557.05
543.14	507.90
543.31	587.47
543.48	538.32
543.64	550.03
543.81	519.60
543.98	484.49
544.15	503.22
544.32	547.69
544.48	533.64
544.65	489.17
544.82	528.96
544.99	496.19
545.16	500.87
545.32	557.05
545.49	816.85
545.66	1067.28
545.83	1146.86
546.00	1034.52
546.16	699.82
546.33	692.80
546.50	510.24
546.67	505.56
546.83	421.30
547.00	416.62
547.17	421.30
547.34	458.74
547.50	393.21
547.67	348.74
547.84	449.38
548.00	400.23
548.17	393.21
548.34	365.12
548.51	444.70
548.67	449.38
548.84	351.08
549.01	430.66
549.18	395.55
549.34	421.30
549.51	402.57
549.68	383.85
549.84	346.40
550.01	376.83
550.18	524.28
550.34	526.62
550.51	322.99
550.68	367.46
550.84	348.74
551.01	334.70
551.18	400.23
551.34	367.46
551.51	322.99
551.68	393.21
551.84	339.38
552.01	294.91
552.18	362.78
552.34	287.89
552.51	283.20
552.68	332.36
552.84	346.40
553.01	344.06
553.18	308.95
553.34	351.08
553.51	250.44
553.67	337.04
553.84	379.17
554.01	395.55
554.17	353.42
554.34	320.65
554.51	334.70
554.67	266.82
554.84	287.89
555.00	315.97
555.17	208.31
555.33	252.78
555.50	332.36
555.67	301.93
555.83	245.76
556.00	280.86
556.16	456.40
556.33	374.49
556.50	351.08
556.66	273.84
556.83	271.50
556.99	278.52
557.16	297.25
557.32	294.91
557.49	273.84
557.65	311.29
557.82	259.80
557.98	322.99
558.15	255.12
558.32	299.59
558.48	243.42
558.65	241.08
558.81	306.61
558.98	147.45
559.14	297.25
559.31	318.31
559.47	271.50
559.64	255.12
559.80	280.86
559.97	283.20
560.13	290.23
560.30	313.63
560.46	318.31
560.63	276.18
560.79	297.25
560.96	273.84
561.12	220.01
561.29	311.29
561.45	292.57
561.61	287.89
561.78	325.33
561.94	210.65
562.11	255.12
562.27	292.57
562.44	271.50
562.60	245.76
562.77	271.50
562.93	283.20
563.10	187.24
563.26	348.74
563.42	339.38
563.59	271.50
563.75	231.71
563.92	201.29
564.08	273.84
564.24	301.93
564.41	320.65
564.57	229.37
564.74	285.55
564.90	290.23
565.07	294.91
565.23	283.20
565.39	322.99
565.56	229.37
565.72	283.20
565.88	273.84
566.05	241.08
566.21	243.42
566.38	203.63
566.54	294.91
566.70	297.25
566.87	262.14
567.03	255.12
567.19	337.04
567.36	276.18
567.52	304.27
567.68	250.44
567.85	210.65
568.01	280.86
568.17	292.57
568.34	264.48
568.50	292.57
568.66	205.97
568.83	311.29
568.99	264.48
569.15	346.40
569.32	278.52
569.48	257.46
569.64	224.69
569.81	229.37
569.97	304.27
570.13	287.89
570.30	203.63
570.46	299.59
570.62	262.14
570.78	220.01
570.95	266.82
571.11	318.31
571.27	299.59
571.43	318.31
571.60	276.18
571.76	292.57
571.92	283.20
572.09	287.89
572.25	325.33
572.41	266.82
572.57	299.59
572.74	313.63
572.90	341.72
573.06	290.23
573.22	262.14
573.38	308.95
573.55	259.80
573.71	325.33
573.87	245.76
574.03	297.25
574.20	255.12
574.36	411.93
574.52	306.61
574.68	355.76
574.84	292.57
575.01	337.04
575.17	367.46
575.33	285.55
575.49	327.68
575.65	325.33
575.82	325.33
575.98	550.03
576.14	704.50
576.30	730.25
576.46	594.50
576.62	610.88
576.79	531.30
576.95	430.66
577.11	308.95
577.27	355.76
577.43	322.99
577.59	376.83
577.75	283.20
577.92	327.68
578.08	212.99
578.24	311.29
578.40	376.83
578.56	372.15
578.72	425.98
578.88	500.87
579.04	482.15
579.21	472.79
579.37	388.53
579.53	304.27
579.69	313.63
579.85	409.59
580.01	451.72
580.17	465.77
580.33	512.58
580.49	367.46
580.65	369.80
580.82	360.44
580.98	358.10
581.14	304.27
581.30	381.51
581.46	433.00
581.62	587.47
581.78	550.03
581.94	575.77
582.10	615.56
582.26	482.15
582.42	496.19
582.58	500.87
582.74	358.10
582.90	489.17
583.06	472.79
583.22	458.74
583.38	547.69
583.54	543.00
583.70	655.35
583.86	674.07
584.02	802.80
584.18	940.90
584.34	1039.20
584.50	2733.75
584.66	19487.30
584.82	49485.95
584.98	59131.29
585.14	55388.78
585.30	37610.07
585.46	22820.22
585.62	14246.84
585.78	6544.14
585.94	2658.85
586.10	1437.09
586.26	887.06
586.42	795.78
586.58	746.63
586.74	699.82
586.90	655.35
587.06	634.29
587.22	622.58
587.38	624.92
587.54	1135.16
587.70	3000.57
587.86	4568.73
588.02	5036.83
588.18	3693.37
588.34	2345.22
588.49	1554.12
588.65	1043.88
588.81	657.69
588.97	423.64
589.13	400.23
589.29	358.10
589.45	404.91
589.61	355.76
589.77	461.09
589.93	472.79
590.08	550.03
590.24	451.72
590.40	491.51
590.56	496.19
590.72	407.25
590.88	353.42
591.04	397.89
591.20	407.25
591.35	411.93
591.51	369.80
591.67	362.78
591.83	330.02
591.99	337.04
592.15	337.04
592.31	351.08
592.46	400.23
592.62	386.19
592.78	433.00
592.94	402.57
593.10	500.87
593.26	404.91
593.41	505.56
593.57	484.49
593.73	573.43
593.89	2485.65
594.05	6218.80
594.20	8947.87
594.36	7873.56
594.52	5305.99
594.68	3417.18
594.84	2277.34
594.99	1411.34
595.15	737.27
595.31	498.53
595.47	423.64
595.62	332.36
595.78	365.12
595.94	344.06
596.10	407.25
596.25	337.04
596.41	400.23
596.57	367.46
596.73	402.57
596.88	568.75
597.04	1315.38
597.20	1921.58
597.36	2167.34
597.51	1636.03
597.67	1280.27
597.83	898.77
597.99	650.67
598.14	461.09
598.30	416.62
598.46	409.59
598.61	355.76
598.77	362.78
598.93	341.72
599.09	365.12
599.24	362.78
599.40	372.15
599.56	360.44
599.71	367.46
599.87	308.95
600.03	320.65
600.18	257.46
600.34	299.59
600.50	292.57
600.65	299.59
600.81	369.80
600.97	280.86
601.12	322.99
601.28	344.06
601.44	271.50
601.59	259.80
601.75	367.46
601.91	301.93
602.06	367.46
602.22	440.02
602.37	763.01
602.53	1465.18
602.69	2256.28
602.84	2373.30
603.00	1659.44
603.16	1254.53
603.31	957.28
603.47	683.44
603.62	425.98
603.78	334.70
603.94	327.68
604.09	358.10
604.25	360.44
604.40	320.65
604.56	313.63
604.71	292.57
604.87	320.65
605.03	315.97
605.18	294.91
605.34	395.55
605.49	341.72
605.65	395.55
605.80	320.65
605.96	348.74
606.12	433.00
606.27	428.32
606.43	416.62
606.58	517.26
606.74	805.14
606.89	2864.82
607.05	5837.30
607.20	7164.38
607.36	5949.64
607.51	4173.18
607.67	2785.24
607.82	1886.47
607.98	1233.46
608.13	678.76
608.29	535.98
608.44	505.56
608.60	458.74
608.75	531.30
608.91	1263.89
609.06	4737.24
609.22	9816.21
609.37	12730.17
609.53	10827.32
609.68	7726.11
609.84	5146.84
609.99	3562.30
