SpectraSuite Data File
++++++++++++++++++++++++++++++++++++
Date: Fri Oct 04 11:33:46 GMT-05:00 2013
User: price-jones
Dark Spectrum Present: No
Reference Spectrum Present: No
Number of Sampled Component Spectra: 1
Spectrometers: USB2+H05261
Integration Time (usec): 100000 (USB2+H05261)
Spectra Averaged: 1 (USB2+H05261)
Boxcar Smoothing: 0 (USB2+H05261)
Correct for Electrical Dark: No (USB2+H05261)
Strobe/Lamp Enabled: No (USB2+H05261)
Correct for Detector Non-linearity: No (USB2+H05261)
Correct for Stray Light: No (USB2+H05261)
Number of Pixels in Processed Spectrum: 2048
>>>>>Begin Processed Spectral Data<<<<<
365.73	39.79
365.92	39.79
366.12	39.79
366.32	4.68
366.52	2.34
366.72	16.38
366.91	0.00
367.11	0.00
367.31	0.00
367.51	0.00
367.70	0.00
367.90	0.00
368.10	0.00
368.30	11.70
368.49	51.49
368.69	9.36
368.89	11.70
369.09	0.00
369.28	42.13
369.48	0.00
369.68	0.00
369.87	0.00
370.07	23.41
370.27	39.79
370.47	51.49
370.66	91.28
370.86	88.94
371.06	126.39
371.25	131.07
371.45	95.96
371.65	56.17
371.84	72.56
372.04	72.56
372.24	98.30
372.44	56.17
372.63	152.13
372.83	166.18
373.03	112.35
373.22	114.69
373.42	184.90
373.62	208.31
373.81	210.65
374.01	175.54
374.21	128.73
374.40	135.75
374.60	142.77
374.79	112.35
374.99	128.73
375.19	196.60
375.38	168.52
375.58	128.73
375.78	217.67
375.97	121.71
376.17	177.88
376.37	168.52
376.56	121.71
376.76	154.48
376.95	79.58
377.15	166.18
377.35	154.48
377.54	131.07
377.74	135.75
377.93	51.49
378.13	175.54
378.33	126.39
378.52	142.77
378.72	177.88
378.91	117.03
379.11	100.64
379.31	142.77
379.50	35.11
379.70	173.20
379.89	208.31
380.09	126.39
380.28	138.09
380.48	156.82
380.68	184.90
380.87	131.07
381.07	42.13
381.26	65.54
381.46	135.75
381.65	147.45
381.85	112.35
382.04	16.38
382.24	163.84
382.43	58.51
382.63	124.05
382.83	187.24
383.02	128.73
383.22	100.64
383.41	93.62
383.61	147.45
383.80	88.94
384.00	154.48
384.19	191.92
384.39	88.94
384.58	161.50
384.78	131.07
384.97	168.52
385.17	133.41
385.36	154.48
385.56	145.11
385.75	114.69
385.95	133.41
386.14	184.90
386.34	138.09
386.53	105.32
386.72	145.11
386.92	175.54
387.11	163.84
387.31	152.13
387.50	117.03
387.70	184.90
387.89	163.84
388.09	156.82
388.28	114.69
388.48	196.60
388.67	131.07
388.86	194.26
389.06	117.03
389.25	88.94
389.45	95.96
389.64	180.22
389.84	170.86
390.03	161.50
390.22	156.82
390.42	119.37
390.61	131.07
390.81	184.90
391.00	135.75
391.19	271.50
391.39	166.18
391.58	159.16
391.78	112.35
391.97	161.50
392.16	72.56
392.36	149.79
392.55	81.92
392.75	182.56
392.94	175.54
393.13	222.35
393.33	105.32
393.52	138.09
393.71	170.86
393.91	203.63
394.10	117.03
394.29	166.18
394.49	133.41
394.68	117.03
394.88	198.95
395.07	105.32
395.26	135.75
395.46	208.31
395.65	196.60
395.84	154.48
396.04	210.65
396.23	177.88
396.42	98.30
396.62	194.26
396.81	149.79
397.00	182.56
397.19	173.20
397.39	117.03
397.58	114.69
397.77	117.03
397.97	161.50
398.16	170.86
398.35	105.32
398.55	110.01
398.74	156.82
398.93	140.43
399.12	100.64
399.32	159.16
399.51	177.88
399.70	224.69
399.90	119.37
400.09	163.84
400.28	138.09
400.47	74.90
400.67	128.73
400.86	88.94
401.05	177.88
401.24	86.60
401.44	168.52
401.63	177.88
401.82	135.75
402.01	156.82
402.21	212.99
402.40	170.86
402.59	196.60
402.78	191.92
402.97	102.98
403.17	152.13
403.36	147.45
403.55	194.26
403.74	154.48
403.93	187.24
404.13	231.71
404.32	191.92
404.51	135.75
404.70	184.90
404.89	131.07
405.09	147.45
405.28	105.32
405.47	175.54
405.66	177.88
405.85	220.01
406.05	95.96
406.24	152.13
406.43	173.20
406.62	107.66
406.81	194.26
407.00	252.78
407.20	189.58
407.39	105.32
407.58	117.03
407.77	168.52
407.96	166.18
408.15	159.16
408.34	215.33
408.54	133.41
408.73	142.77
408.92	149.79
409.11	95.96
409.30	210.65
409.49	234.05
409.68	187.24
409.87	156.82
410.07	140.43
410.26	236.39
410.45	203.63
410.64	131.07
410.83	149.79
411.02	98.30
411.21	198.95
411.40	84.26
411.59	107.66
411.78	124.05
411.98	184.90
412.17	131.07
412.36	72.56
412.55	170.86
412.74	147.45
412.93	187.24
413.12	133.41
413.31	203.63
413.50	126.39
413.69	117.03
413.88	241.08
414.07	175.54
414.26	112.35
414.45	212.99
414.64	119.37
414.83	196.60
415.02	187.24
415.22	177.88
415.41	208.31
415.60	212.99
415.79	140.43
415.98	175.54
416.17	173.20
416.36	142.77
416.55	170.86
416.74	161.50
416.93	210.65
417.12	102.98
417.31	156.82
417.50	140.43
417.69	170.86
417.88	236.39
418.07	191.92
418.26	210.65
418.45	224.69
418.64	252.78
418.83	161.50
419.02	222.35
419.21	114.69
419.39	220.01
419.58	138.09
419.77	201.29
419.96	138.09
420.15	238.73
420.34	126.39
420.53	212.99
420.72	173.20
420.91	156.82
421.10	203.63
421.29	245.76
421.48	194.26
421.67	156.82
421.86	205.97
422.05	131.07
422.24	170.86
422.43	168.52
422.61	65.54
422.80	100.64
422.99	187.24
423.18	215.33
423.37	142.77
423.56	196.60
423.75	84.26
423.94	163.84
424.13	159.16
424.32	142.77
424.50	177.88
424.69	140.43
424.88	201.29
425.07	180.22
425.26	215.33
425.45	166.18
425.64	201.29
425.83	166.18
426.01	208.31
426.20	280.86
426.39	217.67
426.58	180.22
426.77	222.35
426.96	166.18
427.15	208.31
427.33	161.50
427.52	149.79
427.71	145.11
427.90	156.82
428.09	166.18
428.28	184.90
428.46	271.50
428.65	187.24
428.84	205.97
429.03	159.16
429.22	236.39
429.40	196.60
429.59	163.84
429.78	238.73
429.97	259.80
430.16	184.90
430.34	161.50
430.53	262.14
430.72	194.26
430.91	166.18
431.10	177.88
431.28	182.56
431.47	154.48
431.66	147.45
431.85	117.03
432.03	215.33
432.22	248.10
432.41	187.24
432.60	205.97
432.79	156.82
432.97	152.13
433.16	138.09
433.35	201.29
433.54	187.24
433.72	224.69
433.91	159.16
434.10	166.18
434.28	229.37
434.47	210.65
434.66	273.84
434.85	217.67
435.03	280.86
435.22	299.59
435.41	463.43
435.59	404.91
435.78	421.30
435.97	241.08
436.16	201.29
436.34	182.56
436.53	168.52
436.72	245.76
436.90	248.10
437.09	196.60
437.28	243.42
437.46	187.24
437.65	189.58
437.84	126.39
438.02	173.20
438.21	98.30
438.40	203.63
438.58	161.50
438.77	248.10
438.96	215.33
439.14	238.73
439.33	170.86
439.52	166.18
439.70	231.71
439.89	248.10
440.08	170.86
440.26	241.08
440.45	208.31
440.63	198.95
440.82	166.18
441.01	156.82
441.19	210.65
441.38	175.54
441.57	184.90
441.75	220.01
441.94	280.86
442.12	259.80
442.31	236.39
442.50	163.84
442.68	222.35
442.87	227.03
443.05	215.33
443.24	208.31
443.43	224.69
443.61	175.54
443.80	135.75
443.98	140.43
444.17	187.24
444.35	220.01
444.54	182.56
444.73	182.56
444.91	182.56
445.10	175.54
445.28	170.86
445.47	245.76
445.65	175.54
445.84	170.86
446.02	173.20
446.21	182.56
446.39	147.45
446.58	210.65
446.77	191.92
446.95	184.90
447.14	194.26
447.32	210.65
447.51	196.60
447.69	191.92
447.88	184.90
448.06	217.67
448.25	182.56
448.43	140.43
448.62	201.29
448.80	224.69
448.99	220.01
449.17	154.48
449.36	166.18
449.54	166.18
449.73	191.92
449.91	224.69
450.10	187.24
450.28	182.56
450.46	217.67
450.65	173.20
450.83	234.05
451.02	149.79
451.20	182.56
451.39	227.03
451.57	159.16
451.76	147.45
451.94	187.24
452.13	191.92
452.31	250.44
452.49	241.08
452.68	131.07
452.86	140.43
453.05	224.69
453.23	212.99
453.42	168.52
453.60	191.92
453.78	133.41
453.97	58.51
454.15	168.52
454.34	187.24
454.52	138.09
454.70	175.54
454.89	163.84
455.07	236.39
455.26	238.73
455.44	241.08
455.62	257.46
455.81	262.14
455.99	227.03
456.17	220.01
456.36	175.54
456.54	147.45
456.73	227.03
456.91	182.56
457.09	264.48
457.28	238.73
457.46	238.73
457.64	255.12
457.83	140.43
458.01	173.20
458.19	229.37
458.38	180.22
458.56	124.05
458.74	163.84
458.93	194.26
459.11	156.82
459.29	201.29
459.48	189.58
459.66	201.29
459.84	152.13
460.03	238.73
460.21	191.92
460.39	220.01
460.57	224.69
460.76	198.95
460.94	156.82
461.12	177.88
461.31	203.63
461.49	220.01
461.67	205.97
461.85	231.71
462.04	182.56
462.22	641.31
462.40	257.46
462.59	241.08
462.77	201.29
462.95	220.01
463.13	184.90
463.32	231.71
463.50	224.69
463.68	269.16
463.86	133.41
464.05	215.33
464.23	229.37
464.41	276.18
464.59	189.58
464.78	161.50
464.96	194.26
465.14	306.61
465.32	168.52
465.50	234.05
465.69	196.60
465.87	159.16
466.05	208.31
466.23	196.60
466.41	126.39
466.60	189.58
466.78	184.90
466.96	257.46
467.14	259.80
467.32	203.63
467.51	208.31
467.69	224.69
467.87	220.01
468.05	182.56
468.23	280.86
468.41	276.18
468.60	189.58
468.78	212.99
468.96	201.29
469.14	231.71
469.32	217.67
469.50	114.69
469.69	205.97
469.87	212.99
470.05	227.03
470.23	135.75
470.41	177.88
470.59	196.60
470.77	271.50
470.95	142.77
471.14	262.14
471.32	252.78
471.50	238.73
471.68	166.18
471.86	222.35
472.04	161.50
472.22	161.50
472.40	175.54
472.58	156.82
472.77	208.31
472.95	236.39
473.13	220.01
473.31	203.63
473.49	220.01
473.67	173.20
473.85	191.92
474.03	177.88
474.21	248.10
474.39	259.80
474.57	285.55
474.75	201.29
474.93	161.50
475.12	266.82
475.30	220.01
475.48	184.90
475.66	243.42
475.84	168.52
476.02	191.92
476.20	234.05
476.38	140.43
476.56	325.33
476.74	215.33
476.92	215.33
477.10	255.12
477.28	194.26
477.46	205.97
477.64	273.84
477.82	231.71
478.00	140.43
478.18	128.73
478.36	224.69
478.54	308.95
478.72	222.35
478.90	227.03
479.08	217.67
479.26	177.88
479.44	191.92
479.62	124.05
479.80	212.99
479.98	140.43
480.16	234.05
480.34	224.69
480.52	215.33
480.70	152.13
480.88	236.39
481.06	259.80
481.24	177.88
481.41	201.29
481.59	224.69
481.77	224.69
481.95	238.73
482.13	231.71
482.31	194.26
482.49	152.13
482.67	222.35
482.85	198.95
483.03	238.73
483.21	255.12
483.39	252.78
483.57	241.08
483.74	187.24
483.92	264.48
484.10	266.82
484.28	269.16
484.46	301.93
484.64	217.67
484.82	255.12
485.00	205.97
485.18	227.03
485.35	243.42
485.53	257.46
485.71	245.76
485.89	276.18
486.07	210.65
486.25	330.02
486.43	318.31
486.61	227.03
486.78	252.78
486.96	201.29
487.14	205.97
487.32	245.76
487.50	308.95
487.68	280.86
487.85	252.78
488.03	236.39
488.21	241.08
488.39	290.23
488.57	290.23
488.75	182.56
488.92	482.15
489.10	180.22
489.28	304.27
489.46	252.78
489.64	196.60
489.81	168.52
489.99	285.55
490.17	236.39
490.35	294.91
490.53	278.52
490.70	238.73
490.88	276.18
491.06	252.78
491.24	292.57
491.41	241.08
491.59	278.52
491.77	212.99
491.95	337.04
492.13	222.35
492.30	271.50
492.48	266.82
492.66	231.71
492.84	234.05
493.01	264.48
493.19	252.78
493.37	301.93
493.54	245.76
493.72	285.55
493.90	241.08
494.08	276.18
494.25	126.39
494.43	278.52
494.61	301.93
494.79	320.65
494.96	266.82
495.14	255.12
495.32	283.20
495.49	285.55
495.67	198.95
495.85	287.89
496.02	367.46
496.20	327.68
496.38	245.76
496.55	217.67
496.73	278.52
496.91	294.91
497.09	304.27
497.26	203.63
497.44	236.39
497.62	191.92
497.79	278.52
497.97	252.78
498.14	276.18
498.32	339.38
498.50	360.44
498.67	259.80
498.85	229.37
499.03	262.14
499.20	234.05
499.38	273.84
499.56	224.69
499.73	318.31
499.91	313.63
500.08	330.02
500.26	238.73
500.44	234.05
500.61	217.67
500.79	278.52
500.97	271.50
501.14	271.50
501.32	273.84
501.49	276.18
501.67	308.95
501.84	264.48
502.02	231.71
502.20	297.25
502.37	241.08
502.55	257.46
502.72	264.48
502.90	308.95
503.07	203.63
503.25	294.91
503.43	224.69
503.60	203.63
503.78	243.42
503.95	229.37
504.13	252.78
504.30	243.42
504.48	294.91
504.65	341.72
504.83	259.80
505.01	290.23
505.18	269.16
505.36	252.78
505.53	208.31
505.71	273.84
505.88	297.25
506.06	283.20
506.23	308.95
506.41	252.78
506.58	299.59
506.76	234.05
506.93	255.12
507.11	290.23
507.28	285.55
507.46	245.76
507.63	259.80
507.81	227.03
507.98	215.33
508.16	217.67
508.33	191.92
508.50	327.68
508.68	231.71
508.85	290.23
509.03	212.99
509.20	280.86
509.38	269.16
509.55	264.48
509.73	273.84
509.90	339.38
510.08	280.86
510.25	222.35
510.42	229.37
510.60	292.57
510.77	283.20
510.95	236.39
511.12	257.46
511.30	276.18
511.47	266.82
511.64	344.06
511.82	245.76
511.99	283.20
512.17	212.99
512.34	292.57
512.51	285.55
512.69	297.25
512.86	264.48
513.04	327.68
513.21	243.42
513.38	287.89
513.56	273.84
513.73	255.12
513.90	297.25
514.08	222.35
514.25	245.76
514.43	234.05
514.60	276.18
514.77	264.48
514.95	285.55
515.12	234.05
515.29	278.52
515.47	255.12
515.64	290.23
515.81	222.35
515.99	322.99
516.16	290.23
516.33	255.12
516.51	287.89
516.68	252.78
516.85	224.69
517.03	208.31
517.20	250.44
517.37	313.63
517.54	280.86
517.72	229.37
517.89	243.42
518.06	301.93
518.24	262.14
518.41	351.08
518.58	276.18
518.75	280.86
518.93	283.20
519.10	280.86
519.27	278.52
519.45	287.89
519.62	255.12
519.79	292.57
519.96	322.99
520.14	245.76
520.31	313.63
520.48	320.65
520.65	287.89
520.83	227.03
521.00	227.03
521.17	301.93
521.34	234.05
521.52	243.42
521.69	259.80
521.86	224.69
522.03	271.50
522.20	365.12
522.38	299.59
522.55	257.46
522.72	250.44
522.89	264.48
523.07	341.72
523.24	334.70
523.41	255.12
523.58	236.39
523.75	245.76
523.92	205.97
524.10	332.36
524.27	330.02
524.44	299.59
524.61	259.80
524.78	379.17
524.96	266.82
525.13	322.99
525.30	334.70
525.47	245.76
525.64	315.97
525.81	318.31
525.98	273.84
526.16	184.90
526.33	315.97
526.50	238.73
526.67	278.52
526.84	269.16
527.01	257.46
527.18	236.39
527.36	299.59
527.53	297.25
527.70	299.59
527.87	208.31
528.04	322.99
528.21	301.93
528.38	301.93
528.55	299.59
528.72	278.52
528.89	308.95
529.07	287.89
529.24	278.52
529.41	325.33
529.58	276.18
529.75	257.46
529.92	243.42
530.09	290.23
530.26	273.84
530.43	262.14
530.60	292.57
530.77	292.57
530.94	266.82
531.11	255.12
531.28	381.51
531.46	245.76
531.63	194.26
531.80	330.02
531.97	290.23
532.14	334.70
532.31	241.08
532.48	287.89
532.65	222.35
532.82	322.99
532.99	327.68
533.16	376.83
533.33	283.20
533.50	278.52
533.67	292.57
533.84	337.04
534.01	301.93
534.18	308.95
534.35	337.04
534.52	355.76
534.69	341.72
534.86	248.10
535.03	297.25
535.20	273.84
535.37	266.82
535.54	269.16
535.71	311.29
535.88	379.17
536.05	315.97
536.22	262.14
536.38	315.97
536.55	360.44
536.72	337.04
536.89	283.20
537.06	365.12
537.23	311.29
537.40	402.57
537.57	271.50
537.74	355.76
537.91	341.72
538.08	320.65
538.25	374.49
538.42	229.37
538.59	353.42
538.75	252.78
538.92	341.72
539.09	341.72
539.26	381.51
539.43	442.36
539.60	561.73
539.77	510.24
539.94	505.56
540.11	557.05
540.28	500.87
540.44	468.11
540.61	472.79
540.78	428.32
540.95	512.58
541.12	557.05
541.29	620.24
541.46	657.69
541.62	627.26
541.79	678.76
541.96	587.47
542.13	468.11
542.30	587.47
542.47	470.45
542.63	531.30
542.80	557.05
542.97	615.56
543.14	608.54
543.31	463.43
543.48	566.41
543.64	521.94
543.81	573.43
543.98	421.30
544.15	578.11
544.32	521.94
544.48	524.28
544.65	489.17
544.82	505.56
544.99	491.51
545.16	496.19
545.32	514.92
545.49	767.70
545.66	1053.24
545.83	1067.28
546.00	809.83
546.16	732.59
546.33	580.45
546.50	484.49
546.67	486.83
546.83	500.87
547.00	421.30
547.17	374.49
547.34	416.62
547.50	428.32
547.67	397.89
547.84	362.78
548.00	444.70
548.17	386.19
548.34	390.87
548.51	454.06
548.67	475.13
548.84	365.12
549.01	437.68
549.18	372.15
549.34	409.59
549.51	395.55
549.68	376.83
549.84	376.83
550.01	383.85
550.18	489.17
550.34	440.02
550.51	358.10
550.68	367.46
550.84	348.74
551.01	292.57
551.18	383.85
551.34	308.95
551.51	287.89
551.68	383.85
551.84	304.27
552.01	290.23
552.18	299.59
552.34	318.31
552.51	379.17
552.68	390.87
552.84	318.31
553.01	402.57
553.18	351.08
553.34	332.36
553.51	348.74
553.67	301.93
553.84	369.80
554.01	351.08
554.17	278.52
554.34	210.65
554.51	386.19
554.67	299.59
554.84	346.40
555.00	320.65
555.17	327.68
555.33	292.57
555.50	227.03
555.67	273.84
555.83	222.35
556.00	327.68
556.16	458.74
556.33	322.99
556.50	283.20
556.66	304.27
556.83	306.61
556.99	266.82
557.16	327.68
557.32	234.05
557.49	304.27
557.65	346.40
557.82	283.20
557.98	299.59
558.15	376.83
558.32	397.89
558.48	234.05
558.65	308.95
558.81	341.72
558.98	245.76
559.14	320.65
559.31	376.83
559.47	238.73
559.64	283.20
559.80	311.29
559.97	301.93
560.13	311.29
560.30	241.08
560.46	313.63
560.63	332.36
560.79	269.16
560.96	313.63
561.12	327.68
561.29	294.91
561.45	271.50
561.61	330.02
561.78	409.59
561.94	301.93
562.11	299.59
562.27	283.20
562.44	234.05
562.60	330.02
562.77	222.35
562.93	313.63
563.10	259.80
563.26	325.33
563.42	318.31
563.59	269.16
563.75	292.57
563.92	215.33
564.08	320.65
564.24	304.27
564.41	369.80
564.57	248.10
564.74	294.91
564.90	198.95
565.07	322.99
565.23	245.76
565.39	290.23
565.56	269.16
565.72	243.42
565.88	245.76
566.05	283.20
566.21	315.97
566.38	255.12
566.54	236.39
566.70	297.25
566.87	299.59
567.03	138.09
567.19	287.89
567.36	250.44
567.52	215.33
567.68	257.46
567.85	297.25
568.01	273.84
568.17	222.35
568.34	238.73
568.50	294.91
568.66	259.80
568.83	337.04
568.99	294.91
569.15	290.23
569.32	215.33
569.48	301.93
569.64	283.20
569.81	283.20
569.97	283.20
570.13	245.76
570.30	257.46
570.46	285.55
570.62	224.69
570.78	287.89
570.95	210.65
571.11	292.57
571.27	325.33
571.43	231.71
571.60	283.20
571.76	276.18
571.92	243.42
572.09	304.27
572.25	227.03
572.41	262.14
572.57	304.27
572.74	241.08
572.90	271.50
573.06	381.51
573.22	311.29
573.38	255.12
573.55	238.73
573.71	241.08
573.87	330.02
574.03	287.89
574.20	212.99
574.36	330.02
574.52	311.29
574.68	255.12
574.84	294.91
575.01	353.42
575.17	252.78
575.33	250.44
575.49	276.18
575.65	346.40
575.82	255.12
575.98	379.17
576.14	283.20
576.30	330.02
576.46	421.30
576.62	411.93
576.79	484.49
576.95	390.87
577.11	285.55
577.27	297.25
577.43	308.95
577.59	374.49
577.75	292.57
577.92	215.33
578.08	280.86
578.24	236.39
578.40	327.68
578.56	447.04
578.72	428.32
578.88	449.38
579.04	299.59
579.21	344.06
579.37	334.70
579.53	308.95
579.69	442.36
579.85	290.23
580.01	362.78
580.17	334.70
580.33	308.95
580.49	362.78
580.65	311.29
580.82	348.74
580.98	255.12
581.14	285.55
581.30	397.89
581.46	322.99
581.62	313.63
581.78	379.17
581.94	360.44
582.10	269.16
582.26	313.63
582.42	351.08
582.58	365.12
582.74	374.49
582.90	313.63
583.06	407.25
583.22	374.49
583.38	285.55
583.54	278.52
583.70	365.12
583.86	425.98
584.02	344.06
584.18	416.62
584.34	423.64
584.50	507.90
584.66	1998.82
584.82	4730.22
584.98	7555.25
585.14	7272.04
585.30	4503.19
585.46	2836.73
585.62	1914.56
585.78	1142.18
585.94	594.50
586.10	430.66
586.26	418.96
586.42	409.59
586.58	430.66
586.74	379.17
586.90	470.45
587.06	472.79
587.22	379.17
587.38	423.64
587.54	388.53
587.70	561.73
587.86	870.68
588.02	835.57
588.18	784.08
588.34	585.13
588.49	372.15
588.65	379.17
588.81	322.99
588.97	245.76
589.13	376.83
589.29	367.46
589.45	301.93
589.61	262.14
589.77	299.59
589.93	238.73
590.08	341.72
590.24	290.23
590.40	243.42
590.56	313.63
590.72	283.20
590.88	294.91
591.04	369.80
591.20	273.84
591.35	283.20
591.51	292.57
591.67	311.29
591.83	313.63
591.99	346.40
592.15	306.61
592.31	311.29
592.46	315.97
592.62	299.59
592.78	334.70
592.94	304.27
593.10	290.23
593.26	355.76
593.41	395.55
593.57	339.38
593.73	308.95
593.89	538.32
594.05	844.93
594.20	1160.91
594.36	1226.44
594.52	788.76
594.68	713.86
594.84	505.56
594.99	348.74
595.15	308.95
595.31	266.82
595.47	372.15
595.62	201.29
595.78	222.35
595.94	259.80
596.10	273.84
596.25	299.59
596.41	301.93
596.57	299.59
596.73	306.61
596.88	292.57
597.04	376.83
597.20	423.64
597.36	566.41
597.51	372.15
597.67	397.89
597.83	315.97
597.99	301.93
598.14	257.46
598.30	355.76
598.46	283.20
598.61	330.02
598.77	334.70
598.93	273.84
599.09	353.42
599.24	297.25
599.40	372.15
599.56	341.72
599.71	292.57
599.87	257.46
600.03	292.57
600.18	297.25
600.34	280.86
600.50	264.48
600.65	236.39
600.81	280.86
600.97	313.63
601.12	332.36
601.28	344.06
601.44	248.10
601.59	248.10
601.75	278.52
601.91	297.25
602.06	348.74
602.22	330.02
602.37	311.29
602.53	400.23
602.69	526.62
602.84	540.66
603.00	400.23
603.16	454.06
603.31	411.93
603.47	369.80
603.62	229.37
603.78	304.27
603.94	294.91
604.09	184.90
604.25	245.76
604.40	278.52
604.56	276.18
604.71	285.55
604.87	220.01
605.03	299.59
605.18	311.29
605.34	339.38
605.49	252.78
605.65	311.29
605.80	292.57
605.96	332.36
606.12	322.99
606.27	318.31
606.43	276.18
606.58	325.33
606.74	322.99
606.89	535.98
607.05	873.02
607.20	1128.14
607.36	999.41
607.51	739.61
607.67	608.54
607.82	500.87
607.98	390.87
608.13	320.65
608.29	360.44
608.44	386.19
608.60	276.18
608.75	367.46
608.91	503.22
609.06	770.04
609.22	1275.59
609.37	1722.63
609.53	1659.44
609.68	1245.16
609.84	936.21
609.99	802.80
610.15	629.60
610.30	582.79
610.46	653.01
610.61	723.23
610.76	856.64
