SpectraSuite Data File
++++++++++++++++++++++++++++++++++++
Date: Fri Oct 04 11:33:47 GMT-05:00 2013
User: price-jones
Dark Spectrum Present: No
Reference Spectrum Present: No
Number of Sampled Component Spectra: 1
Spectrometers: USB2+H05261
Integration Time (usec): 100000 (USB2+H05261)
Spectra Averaged: 1 (USB2+H05261)
Boxcar Smoothing: 0 (USB2+H05261)
Correct for Electrical Dark: No (USB2+H05261)
Strobe/Lamp Enabled: No (USB2+H05261)
Correct for Detector Non-linearity: No (USB2+H05261)
Correct for Stray Light: No (USB2+H05261)
Number of Pixels in Processed Spectrum: 2048
>>>>>Begin Processed Spectral Data<<<<<
365.73	63.19
365.92	63.19
366.12	63.19
366.32	0.00
366.52	37.45
366.72	53.83
366.91	0.00
367.11	16.38
367.31	0.00
367.51	0.00
367.70	0.00
367.90	0.00
368.10	0.00
368.30	0.00
368.49	0.00
368.69	0.00
368.89	0.00
369.09	0.00
369.28	0.00
369.48	0.00
369.68	9.36
369.87	0.00
370.07	37.45
370.27	39.79
370.47	0.00
370.66	0.00
370.86	102.98
371.06	98.30
371.25	154.48
371.45	110.01
371.65	112.35
371.84	46.81
372.04	102.98
372.24	212.99
372.44	177.88
372.63	180.22
372.83	170.86
373.03	110.01
373.22	180.22
373.42	173.20
373.62	168.52
373.81	138.09
374.01	208.31
374.21	147.45
374.40	175.54
374.60	266.82
374.79	201.29
374.99	173.20
375.19	187.24
375.38	250.44
375.58	194.26
375.78	234.05
375.97	114.69
376.17	222.35
376.37	161.50
376.56	159.16
376.76	121.71
376.95	159.16
377.15	98.30
377.35	110.01
377.54	182.56
377.74	173.20
377.93	184.90
378.13	161.50
378.33	163.84
378.52	126.39
378.72	175.54
378.91	205.97
379.11	98.30
379.31	107.66
379.50	95.96
379.70	138.09
379.89	177.88
380.09	161.50
380.28	86.60
380.48	168.52
380.68	53.83
380.87	88.94
381.07	110.01
381.26	100.64
381.46	124.05
381.65	140.43
381.85	84.26
382.04	100.64
382.24	117.03
382.43	170.86
382.63	37.45
382.83	163.84
383.02	180.22
383.22	159.16
383.41	95.96
383.61	102.98
383.80	53.83
384.00	159.16
384.19	149.79
384.39	124.05
384.58	187.24
384.78	236.39
384.97	210.65
385.17	110.01
385.36	145.11
385.56	196.60
385.75	152.13
385.95	166.18
386.14	173.20
386.34	95.96
386.53	145.11
386.72	79.58
386.92	105.32
387.11	114.69
387.31	117.03
387.50	124.05
387.70	138.09
387.89	70.22
388.09	177.88
388.28	182.56
388.48	159.16
388.67	187.24
388.86	145.11
389.06	217.67
389.25	147.45
389.45	152.13
389.64	168.52
389.84	135.75
390.03	220.01
390.22	114.69
390.42	168.52
390.61	152.13
390.81	210.65
391.00	154.48
391.19	180.22
391.39	154.48
391.58	149.79
391.78	142.77
391.97	173.20
392.16	147.45
392.36	194.26
392.55	175.54
392.75	149.79
392.94	191.92
393.13	114.69
393.33	126.39
393.52	170.86
393.71	198.95
393.91	117.03
394.10	147.45
394.29	100.64
394.49	145.11
394.68	110.01
394.88	156.82
395.07	175.54
395.26	182.56
395.46	119.37
395.65	238.73
395.84	187.24
396.04	250.44
396.23	74.90
396.42	173.20
396.62	159.16
396.81	198.95
397.00	166.18
397.19	159.16
397.39	84.26
397.58	126.39
397.77	126.39
397.97	203.63
398.16	140.43
398.35	170.86
398.55	117.03
398.74	107.66
398.93	180.22
399.12	135.75
399.32	182.56
399.51	198.95
399.70	184.90
399.90	149.79
400.09	180.22
400.28	163.84
400.47	114.69
400.67	154.48
400.86	147.45
401.05	189.58
401.24	220.01
401.44	147.45
401.63	173.20
401.82	107.66
402.01	142.77
402.21	191.92
402.40	168.52
402.59	145.11
402.78	168.52
402.97	182.56
403.17	161.50
403.36	159.16
403.55	91.28
403.74	154.48
403.93	161.50
404.13	187.24
404.32	201.29
404.51	159.16
404.70	217.67
404.89	170.86
405.09	250.44
405.28	149.79
405.47	126.39
405.66	184.90
405.85	187.24
406.05	156.82
406.24	110.01
406.43	149.79
406.62	248.10
406.81	217.67
407.00	210.65
407.20	180.22
407.39	95.96
407.58	231.71
407.77	205.97
407.96	243.42
408.15	112.35
408.34	191.92
408.54	196.60
408.73	149.79
408.92	107.66
409.11	180.22
409.30	126.39
409.49	121.71
409.68	212.99
409.87	241.08
410.07	142.77
410.26	138.09
410.45	159.16
410.64	128.73
410.83	102.98
411.02	208.31
411.21	166.18
411.40	180.22
411.59	189.58
411.78	70.22
411.98	205.97
412.17	180.22
412.36	236.39
412.55	170.86
412.74	177.88
412.93	124.05
413.12	142.77
413.31	168.52
413.50	133.41
413.69	126.39
413.88	149.79
414.07	198.95
414.26	212.99
414.45	238.73
414.64	138.09
414.83	135.75
415.02	191.92
415.22	133.41
415.41	215.33
415.60	154.48
415.79	156.82
415.98	227.03
416.17	154.48
416.36	114.69
416.55	191.92
416.74	74.90
416.93	173.20
417.12	198.95
417.31	168.52
417.50	149.79
417.69	191.92
417.88	163.84
418.07	67.88
418.26	147.45
418.45	227.03
418.64	191.92
418.83	220.01
419.02	231.71
419.21	152.13
419.39	222.35
419.58	159.16
419.77	187.24
419.96	180.22
420.15	156.82
420.34	182.56
420.53	196.60
420.72	168.52
420.91	203.63
421.10	191.92
421.29	112.35
421.48	100.64
421.67	147.45
421.86	203.63
422.05	189.58
422.24	142.77
422.43	124.05
422.61	98.30
422.80	184.90
422.99	229.37
423.18	201.29
423.37	248.10
423.56	203.63
423.75	196.60
423.94	119.37
424.13	189.58
424.32	110.01
424.50	117.03
424.69	182.56
424.88	224.69
425.07	175.54
425.26	238.73
425.45	215.33
425.64	255.12
425.83	126.39
426.01	154.48
426.20	177.88
426.39	182.56
426.58	152.13
426.77	159.16
426.96	187.24
427.15	152.13
427.33	166.18
427.52	163.84
427.71	205.97
427.90	271.50
428.09	170.86
428.28	149.79
428.46	156.82
428.65	131.07
428.84	152.13
429.03	168.52
429.22	198.95
429.40	91.28
429.59	124.05
429.78	220.01
429.97	147.45
430.16	231.71
430.34	173.20
430.53	161.50
430.72	222.35
430.91	227.03
431.10	131.07
431.28	156.82
431.47	203.63
431.66	198.95
431.85	159.16
432.03	133.41
432.22	187.24
432.41	112.35
432.60	147.45
432.79	102.98
432.97	161.50
433.16	210.65
433.35	184.90
433.54	231.71
433.72	166.18
433.91	182.56
434.10	147.45
434.28	173.20
434.47	184.90
434.66	196.60
434.85	215.33
435.03	278.52
435.22	411.93
435.41	519.60
435.59	521.94
435.78	449.38
435.97	243.42
436.16	208.31
436.34	248.10
436.53	177.88
436.72	194.26
436.90	236.39
437.09	126.39
437.28	196.60
437.46	166.18
437.65	168.52
437.84	231.71
438.02	198.95
438.21	147.45
438.40	142.77
438.58	177.88
438.77	184.90
438.96	187.24
439.14	168.52
439.33	215.33
439.52	297.25
439.70	203.63
439.89	131.07
440.08	177.88
440.26	128.73
440.45	163.84
440.63	170.86
440.82	177.88
441.01	208.31
441.19	210.65
441.38	220.01
441.57	187.24
441.75	175.54
441.94	180.22
442.12	205.97
442.31	168.52
442.50	220.01
442.68	138.09
442.87	152.13
443.05	264.48
443.24	250.44
443.43	203.63
443.61	227.03
443.80	194.26
443.98	154.48
444.17	215.33
444.35	262.14
444.54	147.45
444.73	255.12
444.91	283.20
445.10	196.60
445.28	191.92
445.47	212.99
445.65	234.05
445.84	152.13
446.02	135.75
446.21	194.26
446.39	255.12
446.58	229.37
446.77	145.11
446.95	135.75
447.14	159.16
447.32	208.31
447.51	191.92
447.69	173.20
447.88	175.54
448.06	161.50
448.25	243.42
448.43	121.71
448.62	191.92
448.80	259.80
448.99	205.97
449.17	205.97
449.36	187.24
449.54	205.97
449.73	173.20
449.91	152.13
450.10	208.31
450.28	273.84
450.46	236.39
450.65	229.37
450.83	191.92
451.02	173.20
451.20	187.24
451.39	203.63
451.57	163.84
451.76	156.82
451.94	177.88
452.13	180.22
452.31	189.58
452.49	159.16
452.68	88.94
452.86	163.84
453.05	229.37
453.23	189.58
453.42	105.32
453.60	201.29
453.78	224.69
453.97	126.39
454.15	236.39
454.34	196.60
454.52	114.69
454.70	252.78
454.89	203.63
455.07	175.54
455.26	203.63
455.44	163.84
455.62	182.56
455.81	236.39
455.99	175.54
456.17	173.20
456.36	189.58
456.54	229.37
456.73	177.88
456.91	154.48
457.09	259.80
457.28	222.35
457.46	168.52
457.64	266.82
457.83	205.97
458.01	156.82
458.19	191.92
458.38	194.26
458.56	215.33
458.74	159.16
458.93	222.35
459.11	170.86
459.29	154.48
459.48	222.35
459.66	292.57
459.84	147.45
460.03	278.52
460.21	255.12
460.39	175.54
460.57	205.97
460.76	161.50
460.94	161.50
461.12	236.39
461.31	241.08
461.49	175.54
461.67	175.54
461.85	196.60
462.04	215.33
462.22	624.92
462.40	187.24
462.59	198.95
462.77	217.67
462.95	248.10
463.13	194.26
463.32	236.39
463.50	198.95
463.68	159.16
463.86	224.69
464.05	194.26
464.23	208.31
464.41	212.99
464.59	245.76
464.78	182.56
464.96	131.07
465.14	210.65
465.32	170.86
465.50	210.65
465.69	187.24
465.87	180.22
466.05	191.92
466.23	161.50
466.41	152.13
466.60	180.22
466.78	140.43
466.96	196.60
467.14	252.78
467.32	252.78
467.51	238.73
467.69	220.01
467.87	212.99
468.05	220.01
468.23	229.37
468.41	217.67
468.60	210.65
468.78	205.97
468.96	212.99
469.14	255.12
469.32	189.58
469.50	168.52
469.69	175.54
469.87	152.13
470.05	159.16
470.23	159.16
470.41	147.45
470.59	201.29
470.77	191.92
470.95	234.05
471.14	241.08
471.32	234.05
471.50	161.50
471.68	205.97
471.86	215.33
472.04	191.92
472.22	161.50
472.40	201.29
472.58	187.24
472.77	177.88
472.95	196.60
473.13	255.12
473.31	173.20
473.49	222.35
473.67	159.16
473.85	175.54
474.03	227.03
474.21	180.22
474.39	227.03
474.57	191.92
474.75	227.03
474.93	100.64
475.12	152.13
475.30	231.71
475.48	145.11
475.66	201.29
475.84	177.88
476.02	273.84
476.20	252.78
476.38	168.52
476.56	264.48
476.74	175.54
476.92	229.37
477.10	180.22
477.28	215.33
477.46	269.16
477.64	236.39
477.82	154.48
478.00	161.50
478.18	140.43
478.36	198.95
478.54	154.48
478.72	177.88
478.90	163.84
479.08	229.37
479.26	241.08
479.44	159.16
479.62	227.03
479.80	187.24
479.98	191.92
480.16	166.18
480.34	257.46
480.52	203.63
480.70	245.76
480.88	175.54
481.06	229.37
481.24	187.24
481.41	245.76
481.59	234.05
481.77	159.16
481.95	161.50
482.13	238.73
482.31	189.58
482.49	238.73
482.67	243.42
482.85	241.08
483.03	217.67
483.21	222.35
483.39	205.97
483.57	241.08
483.74	224.69
483.92	255.12
484.10	163.84
484.28	292.57
484.46	339.38
484.64	189.58
484.82	250.44
485.00	245.76
485.18	287.89
485.35	194.26
485.53	241.08
485.71	248.10
485.89	229.37
486.07	212.99
486.25	264.48
486.43	271.50
486.61	266.82
486.78	271.50
486.96	252.78
487.14	215.33
487.32	259.80
487.50	276.18
487.68	180.22
487.85	241.08
488.03	252.78
488.21	292.57
488.39	243.42
488.57	238.73
488.75	339.38
488.92	475.13
489.10	255.12
489.28	372.15
489.46	198.95
489.64	205.97
489.81	287.89
489.99	217.67
490.17	241.08
490.35	304.27
490.53	217.67
490.70	266.82
490.88	297.25
491.06	271.50
491.24	262.14
491.41	264.48
491.59	248.10
491.77	262.14
491.95	259.80
492.13	205.97
492.30	257.46
492.48	299.59
492.66	269.16
492.84	187.24
493.01	245.76
493.19	252.78
493.37	194.26
493.54	250.44
493.72	252.78
493.90	285.55
494.08	280.86
494.25	266.82
494.43	245.76
494.61	287.89
494.79	238.73
494.96	306.61
495.14	299.59
495.32	292.57
495.49	224.69
495.67	306.61
495.85	175.54
496.02	259.80
496.20	266.82
496.38	276.18
496.55	290.23
496.73	248.10
496.91	250.44
497.09	266.82
497.26	269.16
497.44	241.08
497.62	227.03
497.79	194.26
497.97	241.08
498.14	234.05
498.32	245.76
498.50	278.52
498.67	259.80
498.85	308.95
499.03	311.29
499.20	191.92
499.38	238.73
499.56	266.82
499.73	313.63
499.91	257.46
500.08	259.80
500.26	234.05
500.44	248.10
500.61	220.01
500.79	203.63
500.97	280.86
501.14	320.65
501.32	175.54
501.49	322.99
501.67	269.16
501.84	252.78
502.02	205.97
502.20	278.52
502.37	231.71
502.55	182.56
502.72	252.78
502.90	266.82
503.07	227.03
503.25	196.60
503.43	210.65
503.60	173.20
503.78	182.56
503.95	224.69
504.13	234.05
504.30	224.69
504.48	264.48
504.65	313.63
504.83	208.31
505.01	238.73
505.18	297.25
505.36	142.77
505.53	243.42
505.71	224.69
505.88	308.95
506.06	208.31
506.23	227.03
506.41	297.25
506.58	212.99
506.76	278.52
506.93	285.55
507.11	264.48
507.28	248.10
507.46	196.60
507.63	248.10
507.81	187.24
507.98	285.55
508.16	245.76
508.33	236.39
508.50	271.50
508.68	205.97
508.85	238.73
509.03	234.05
509.20	248.10
509.38	243.42
509.55	283.20
509.73	332.36
509.90	325.33
510.08	220.01
510.25	276.18
510.42	287.89
510.60	292.57
510.77	334.70
510.95	245.76
511.12	210.65
511.30	283.20
511.47	234.05
511.64	334.70
511.82	203.63
511.99	269.16
512.17	304.27
512.34	273.84
512.51	278.52
512.69	245.76
512.86	241.08
513.04	220.01
513.21	215.33
513.38	297.25
513.56	292.57
513.73	208.31
513.90	238.73
514.08	243.42
514.25	311.29
514.43	294.91
514.60	276.18
514.77	250.44
514.95	250.44
515.12	294.91
515.29	257.46
515.47	236.39
515.64	285.55
515.81	276.18
515.99	257.46
516.16	285.55
516.33	290.23
516.51	259.80
516.68	257.46
516.85	229.37
517.03	285.55
517.20	278.52
517.37	348.74
517.54	252.78
517.72	107.66
517.89	278.52
518.06	217.67
518.24	299.59
518.41	325.33
518.58	262.14
518.75	220.01
518.93	358.10
519.10	236.39
519.27	276.18
519.45	285.55
519.62	266.82
519.79	252.78
519.96	269.16
520.14	238.73
520.31	313.63
520.48	234.05
520.65	210.65
520.83	299.59
521.00	243.42
521.17	224.69
521.34	278.52
521.52	229.37
521.69	278.52
521.86	234.05
522.03	332.36
522.20	315.97
522.38	294.91
522.55	245.76
522.72	196.60
522.89	330.02
523.07	292.57
523.24	215.33
523.41	299.59
523.58	175.54
523.75	231.71
523.92	252.78
524.10	313.63
524.27	262.14
524.44	222.35
524.61	283.20
524.78	273.84
524.96	220.01
525.13	327.68
525.30	252.78
525.47	292.57
525.64	278.52
525.81	227.03
525.98	313.63
526.16	252.78
526.33	278.52
526.50	273.84
526.67	250.44
526.84	203.63
527.01	280.86
527.18	318.31
527.36	346.40
527.53	243.42
527.70	306.61
527.87	297.25
528.04	322.99
528.21	283.20
528.38	318.31
528.55	308.95
528.72	322.99
528.89	306.61
529.07	341.72
529.24	334.70
529.41	224.69
529.58	271.50
529.75	255.12
529.92	252.78
530.09	248.10
530.26	252.78
530.43	271.50
530.60	271.50
530.77	318.31
530.94	255.12
531.11	276.18
531.28	212.99
531.46	264.48
531.63	299.59
531.80	280.86
531.97	306.61
532.14	311.29
532.31	271.50
532.48	313.63
532.65	304.27
532.82	339.38
532.99	308.95
533.16	362.78
533.33	217.67
533.50	308.95
533.67	348.74
533.84	332.36
534.01	280.86
534.18	257.46
534.35	283.20
534.52	313.63
534.69	294.91
534.86	227.03
535.03	334.70
535.20	292.57
535.37	276.18
535.54	301.93
535.71	266.82
535.88	320.65
536.05	327.68
536.22	297.25
536.38	292.57
536.55	339.38
536.72	299.59
536.89	311.29
537.06	245.76
537.23	262.14
537.40	334.70
537.57	301.93
537.74	376.83
537.91	416.62
538.08	351.08
538.25	379.17
538.42	353.42
538.59	297.25
538.75	400.23
538.92	325.33
539.09	390.87
539.26	397.89
539.43	484.49
539.60	629.60
539.77	823.87
539.94	814.51
540.11	645.99
540.28	519.60
540.44	538.32
540.61	505.56
540.78	608.54
540.95	617.90
541.12	681.10
541.29	690.46
541.46	709.18
541.62	734.93
541.79	603.86
541.96	671.73
542.13	667.05
542.30	603.86
542.47	688.12
542.63	599.18
542.80	587.47
542.97	622.58
543.14	582.79
543.31	660.03
543.48	545.34
543.64	531.30
543.81	610.88
543.98	615.56
544.15	514.92
544.32	557.05
544.48	578.11
544.65	500.87
544.82	559.39
544.99	496.19
545.16	620.24
545.32	643.65
545.49	903.45
545.66	1186.65
545.83	1430.07
546.00	1090.69
546.16	912.81
546.33	795.78
546.50	603.86
546.67	599.18
546.83	589.82
547.00	491.51
547.17	514.92
547.34	449.38
547.50	458.74
547.67	468.11
547.84	430.66
548.00	477.47
548.17	489.17
548.34	486.83
548.51	440.02
548.67	491.51
548.84	374.49
549.01	447.04
549.18	400.23
549.34	390.87
549.51	418.96
549.68	440.02
549.84	440.02
550.01	479.81
550.18	519.60
550.34	414.27
550.51	344.06
550.68	456.40
550.84	325.33
551.01	369.80
551.18	348.74
551.34	369.80
551.51	325.33
551.68	341.72
551.84	386.19
552.01	390.87
552.18	327.68
552.34	339.38
552.51	369.80
552.68	386.19
552.84	320.65
553.01	322.99
553.18	362.78
553.34	283.20
553.51	283.20
553.67	311.29
553.84	351.08
554.01	299.59
554.17	294.91
554.34	346.40
554.51	236.39
554.67	327.68
554.84	365.12
555.00	327.68
555.17	290.23
555.33	348.74
555.50	276.18
555.67	304.27
555.83	184.90
556.00	341.72
556.16	414.27
556.33	278.52
556.50	266.82
556.66	299.59
556.83	344.06
556.99	243.42
557.16	222.35
557.32	234.05
557.49	273.84
557.65	250.44
557.82	283.20
557.98	292.57
558.15	318.31
558.32	320.65
558.48	290.23
558.65	257.46
558.81	285.55
558.98	287.89
559.14	259.80
559.31	259.80
559.47	215.33
559.64	257.46
559.80	346.40
559.97	259.80
560.13	229.37
560.30	269.16
560.46	322.99
560.63	271.50
560.79	262.14
560.96	273.84
561.12	203.63
561.29	311.29
561.45	215.33
561.61	273.84
561.78	304.27
561.94	297.25
562.11	280.86
562.27	372.15
562.44	252.78
562.60	299.59
562.77	236.39
562.93	344.06
563.10	264.48
563.26	283.20
563.42	334.70
563.59	290.23
563.75	245.76
563.92	285.55
564.08	238.73
564.24	294.91
564.41	297.25
564.57	245.76
564.74	337.04
564.90	304.27
565.07	264.48
565.23	245.76
565.39	248.10
565.56	252.78
565.72	250.44
565.88	227.03
566.05	203.63
566.21	283.20
566.38	311.29
566.54	269.16
566.70	259.80
566.87	250.44
567.03	264.48
567.19	231.71
567.36	308.95
567.52	266.82
567.68	271.50
567.85	313.63
568.01	224.69
568.17	189.58
568.34	259.80
568.50	259.80
568.66	194.26
568.83	292.57
568.99	241.08
569.15	313.63
569.32	236.39
569.48	348.74
569.64	269.16
569.81	266.82
569.97	224.69
570.13	238.73
570.30	287.89
570.46	241.08
570.62	271.50
570.78	308.95
570.95	231.71
571.11	273.84
571.27	266.82
571.43	227.03
571.60	266.82
571.76	229.37
571.92	273.84
572.09	248.10
572.25	313.63
572.41	292.57
572.57	250.44
572.74	255.12
572.90	332.36
573.06	266.82
573.22	355.76
573.38	215.33
573.55	273.84
573.71	325.33
573.87	231.71
574.03	220.01
574.20	290.23
574.36	327.68
574.52	269.16
574.68	337.04
574.84	362.78
575.01	278.52
575.17	241.08
575.33	255.12
575.49	252.78
575.65	290.23
575.82	308.95
575.98	386.19
576.14	327.68
576.30	402.57
576.46	447.04
576.62	505.56
576.79	484.49
576.95	456.40
577.11	315.97
577.27	266.82
577.43	299.59
577.59	337.04
577.75	245.76
577.92	334.70
578.08	344.06
578.24	308.95
578.40	339.38
578.56	421.30
578.72	479.81
578.88	554.71
579.04	503.22
579.21	318.31
579.37	301.93
579.53	341.72
579.69	311.29
579.85	285.55
580.01	358.10
580.17	397.89
580.33	418.96
580.49	341.72
580.65	400.23
580.82	395.55
580.98	353.42
581.14	304.27
581.30	245.76
581.46	341.72
581.62	393.21
581.78	395.55
581.94	369.80
582.10	311.29
582.26	395.55
582.42	381.51
582.58	400.23
582.74	388.53
582.90	341.72
583.06	461.09
583.22	407.25
583.38	461.09
583.54	400.23
583.70	470.45
583.86	437.68
584.02	407.25
584.18	531.30
584.34	571.09
584.50	1181.97
584.66	6991.18
584.82	16992.29
584.98	22146.15
585.14	18293.63
585.30	11964.82
585.46	7365.67
585.62	4734.90
585.78	2263.30
585.94	1060.26
586.10	596.84
586.26	550.03
586.42	547.69
586.58	440.02
586.74	507.90
586.90	477.47
587.06	592.16
587.22	458.74
587.38	510.24
587.54	671.73
587.70	1320.06
587.86	1825.62
588.02	1806.89
588.18	1303.68
588.34	1022.81
588.49	718.54
588.65	477.47
588.81	383.85
588.97	292.57
589.13	351.08
589.29	266.82
589.45	229.37
589.61	276.18
589.77	280.86
589.93	397.89
590.08	355.76
590.24	355.76
590.40	379.17
590.56	355.76
590.72	346.40
590.88	290.23
591.04	318.31
591.20	348.74
591.35	367.46
591.51	271.50
591.67	315.97
591.83	358.10
591.99	395.55
592.15	339.38
592.31	400.23
592.46	320.65
592.62	395.55
592.78	304.27
592.94	290.23
593.10	339.38
593.26	433.00
593.41	304.27
593.57	318.31
593.73	505.56
593.89	945.58
594.05	2249.25
594.20	2855.45
594.36	2656.51
594.52	1764.76
594.68	1268.57
594.84	901.11
594.99	627.26
595.15	411.93
595.31	353.42
595.47	365.12
595.62	313.63
595.78	346.40
595.94	257.46
596.10	330.02
596.25	320.65
596.41	294.91
596.57	301.93
596.73	245.76
596.88	379.17
597.04	587.47
597.20	833.23
597.36	987.71
597.51	678.76
597.67	615.56
597.83	449.38
597.99	395.55
598.14	388.53
598.30	334.70
598.46	351.08
598.61	444.70
598.77	337.04
598.93	355.76
599.09	379.17
599.24	306.61
599.40	325.33
599.56	344.06
599.71	362.78
599.87	304.27
600.03	358.10
600.18	334.70
600.34	353.42
600.50	290.23
600.65	241.08
600.81	327.68
600.97	344.06
601.12	332.36
601.28	313.63
601.44	325.33
601.59	271.50
601.75	334.70
601.91	402.57
602.06	315.97
602.22	374.49
602.37	386.19
602.53	692.80
602.69	821.53
602.84	854.30
603.00	660.03
603.16	599.18
603.31	475.13
603.47	376.83
603.62	332.36
603.78	280.86
603.94	290.23
604.09	287.89
604.25	271.50
604.40	341.72
604.56	259.80
604.71	327.68
604.87	236.39
605.03	348.74
605.18	283.20
605.34	327.68
605.49	346.40
605.65	346.40
605.80	339.38
605.96	353.42
606.12	255.12
606.27	299.59
606.43	285.55
606.58	344.06
606.74	428.32
606.89	1320.06
607.05	2083.08
607.20	2473.95
607.36	1902.86
607.51	1476.88
607.67	1057.92
607.82	828.55
607.98	580.45
608.13	479.81
608.29	341.72
608.44	425.98
608.60	379.17
608.75	402.57
608.91	669.39
609.06	1842.00
609.22	3559.95
609.37	4149.77
609.53	3597.40
609.68	2623.74
609.84	1930.94
609.99	1432.41
610.15	1071.97
610.30	851.96
610.46	924.51
