SpectraSuite Data File
++++++++++++++++++++++++++++++++++++
Date: Fri Oct 04 11:34:11 GMT-05:00 2013
User: price-jones
Dark Spectrum Present: No
Reference Spectrum Present: No
Number of Sampled Component Spectra: 1
Spectrometers: USB2+H05261
Integration Time (usec): 100000 (USB2+H05261)
Spectra Averaged: 1 (USB2+H05261)
Boxcar Smoothing: 0 (USB2+H05261)
Correct for Electrical Dark: No (USB2+H05261)
Strobe/Lamp Enabled: No (USB2+H05261)
Correct for Detector Non-linearity: No (USB2+H05261)
Correct for Stray Light: No (USB2+H05261)
Number of Pixels in Processed Spectrum: 2048
>>>>>Begin Processed Spectral Data<<<<<
365.73	65.54
365.92	65.54
366.12	65.54
366.32	14.04
366.52	0.00
366.72	35.11
366.91	9.36
367.11	0.00
367.31	0.00
367.51	0.00
367.70	0.00
367.90	0.00
368.10	30.43
368.30	4.68
368.49	0.00
368.69	0.00
368.89	0.00
369.09	0.00
369.28	0.00
369.48	0.00
369.68	0.00
369.87	0.00
370.07	0.00
370.27	7.02
370.47	74.90
370.66	4.68
370.86	88.94
371.06	147.45
371.25	175.54
371.45	28.09
371.65	187.24
371.84	110.01
372.04	110.01
372.24	145.11
372.44	72.56
372.63	168.52
372.83	156.82
373.03	114.69
373.22	79.58
373.42	100.64
373.62	133.41
373.81	205.97
374.01	152.13
374.21	121.71
374.40	149.79
374.60	173.20
374.79	98.30
374.99	138.09
375.19	149.79
375.38	117.03
375.58	182.56
375.78	212.99
375.97	177.88
376.17	266.82
376.37	98.30
376.56	102.98
376.76	140.43
376.95	119.37
377.15	128.73
377.35	177.88
377.54	201.29
377.74	95.96
377.93	138.09
378.13	107.66
378.33	142.77
378.52	74.90
378.72	194.26
378.91	147.45
379.11	124.05
379.31	102.98
379.50	159.16
379.70	166.18
379.89	100.64
380.09	145.11
380.28	166.18
380.48	112.35
380.68	149.79
380.87	133.41
381.07	102.98
381.26	217.67
381.46	138.09
381.65	124.05
381.85	81.92
382.04	133.41
382.24	145.11
382.43	196.60
382.63	201.29
382.83	98.30
383.02	84.26
383.22	173.20
383.41	65.54
383.61	105.32
383.80	107.66
384.00	196.60
384.19	161.50
384.39	177.88
384.58	2.34
384.78	147.45
384.97	112.35
385.17	107.66
385.36	81.92
385.56	135.75
385.75	105.32
385.95	152.13
386.14	121.71
386.34	180.22
386.53	140.43
386.72	142.77
386.92	154.48
387.11	196.60
387.31	180.22
387.50	182.56
387.70	49.15
387.89	98.30
388.09	70.22
388.28	79.58
388.48	86.60
388.67	212.99
388.86	91.28
389.06	114.69
389.25	110.01
389.45	124.05
389.64	138.09
389.84	140.43
390.03	100.64
390.22	121.71
390.42	117.03
390.61	88.94
390.81	175.54
391.00	147.45
391.19	182.56
391.39	168.52
391.58	166.18
391.78	194.26
391.97	124.05
392.16	131.07
392.36	173.20
392.55	149.79
392.75	128.73
392.94	112.35
393.13	140.43
393.33	142.77
393.52	135.75
393.71	201.29
393.91	177.88
394.10	154.48
394.29	119.37
394.49	184.90
394.68	173.20
394.88	149.79
395.07	156.82
395.26	95.96
395.46	184.90
395.65	159.16
395.84	217.67
396.04	177.88
396.23	182.56
396.42	140.43
396.62	175.54
396.81	166.18
397.00	114.69
397.19	126.39
397.39	135.75
397.58	100.64
397.77	159.16
397.97	145.11
398.16	114.69
398.35	184.90
398.55	152.13
398.74	98.30
398.93	126.39
399.12	173.20
399.32	168.52
399.51	191.92
399.70	147.45
399.90	117.03
400.09	49.15
400.28	152.13
400.47	133.41
400.67	163.84
400.86	142.77
401.05	131.07
401.24	184.90
401.44	163.84
401.63	191.92
401.82	142.77
402.01	105.32
402.21	149.79
402.40	81.92
402.59	100.64
402.78	126.39
402.97	105.32
403.17	168.52
403.36	177.88
403.55	95.96
403.74	154.48
403.93	156.82
404.13	102.98
404.32	187.24
404.51	191.92
404.70	145.11
404.89	187.24
405.09	227.03
405.28	147.45
405.47	135.75
405.66	180.22
405.85	95.96
406.05	147.45
406.24	229.37
406.43	135.75
406.62	173.20
406.81	100.64
407.00	173.20
407.20	128.73
407.39	184.90
407.58	184.90
407.77	234.05
407.96	177.88
408.15	135.75
408.34	119.37
408.54	159.16
408.73	180.22
408.92	128.73
409.11	180.22
409.30	168.52
409.49	168.52
409.68	140.43
409.87	196.60
410.07	187.24
410.26	149.79
410.45	147.45
410.64	128.73
410.83	145.11
411.02	84.26
411.21	154.48
411.40	117.03
411.59	84.26
411.78	175.54
411.98	126.39
412.17	147.45
412.36	105.32
412.55	191.92
412.74	222.35
412.93	252.78
413.12	182.56
413.31	205.97
413.50	229.37
413.69	131.07
413.88	154.48
414.07	161.50
414.26	201.29
414.45	177.88
414.64	159.16
414.83	182.56
415.02	217.67
415.22	208.31
415.41	175.54
415.60	138.09
415.79	215.33
415.98	250.44
416.17	180.22
416.36	124.05
416.55	121.71
416.74	121.71
416.93	177.88
417.12	163.84
417.31	138.09
417.50	191.92
417.69	198.95
417.88	86.60
418.07	98.30
418.26	79.58
418.45	177.88
418.64	196.60
418.83	173.20
419.02	154.48
419.21	166.18
419.39	140.43
419.58	124.05
419.77	173.20
419.96	163.84
420.15	243.42
420.34	166.18
420.53	184.90
420.72	156.82
420.91	131.07
421.10	135.75
421.29	224.69
421.48	163.84
421.67	220.01
421.86	126.39
422.05	88.94
422.24	198.95
422.43	142.77
422.61	182.56
422.80	161.50
422.99	191.92
423.18	159.16
423.37	238.73
423.56	208.31
423.75	198.95
423.94	154.48
424.13	182.56
424.32	212.99
424.50	84.26
424.69	133.41
424.88	210.65
425.07	191.92
425.26	255.12
425.45	196.60
425.64	166.18
425.83	107.66
426.01	208.31
426.20	159.16
426.39	170.86
426.58	91.28
426.77	149.79
426.96	149.79
427.15	227.03
427.33	189.58
427.52	138.09
427.71	152.13
427.90	145.11
428.09	170.86
428.28	205.97
428.46	180.22
428.65	198.95
428.84	220.01
429.03	182.56
429.22	84.26
429.40	194.26
429.59	189.58
429.78	222.35
429.97	170.86
430.16	191.92
430.34	189.58
430.53	126.39
430.72	46.81
430.91	182.56
431.10	212.99
431.28	191.92
431.47	138.09
431.66	128.73
431.85	154.48
432.03	205.97
432.22	168.52
432.41	152.13
432.60	194.26
432.79	117.03
432.97	177.88
433.16	145.11
433.35	203.63
433.54	159.16
433.72	168.52
433.91	154.48
434.10	56.17
434.28	198.95
434.47	177.88
434.66	203.63
434.85	182.56
435.03	210.65
435.22	276.18
435.41	346.40
435.59	344.06
435.78	273.84
435.97	194.26
436.16	215.33
436.34	170.86
436.53	255.12
436.72	210.65
436.90	208.31
437.09	180.22
437.28	212.99
437.46	131.07
437.65	182.56
437.84	210.65
438.02	147.45
438.21	149.79
438.40	217.67
438.58	142.77
438.77	222.35
438.96	114.69
439.14	205.97
439.33	210.65
439.52	128.73
439.70	201.29
439.89	135.75
440.08	84.26
440.26	198.95
440.45	227.03
440.63	170.86
440.82	126.39
441.01	177.88
441.19	191.92
441.38	203.63
441.57	154.48
441.75	152.13
441.94	229.37
442.12	222.35
442.31	208.31
442.50	180.22
442.68	112.35
442.87	231.71
443.05	212.99
443.24	245.76
443.43	212.99
443.61	173.20
443.80	201.29
443.98	238.73
444.17	196.60
444.35	194.26
444.54	121.71
444.73	198.95
444.91	210.65
445.10	152.13
445.28	117.03
445.47	142.77
445.65	126.39
445.84	117.03
446.02	166.18
446.21	119.37
446.39	201.29
446.58	212.99
446.77	140.43
446.95	175.54
447.14	292.57
447.32	191.92
447.51	124.05
447.69	112.35
447.88	208.31
448.06	191.92
448.25	175.54
448.43	191.92
448.62	217.67
448.80	257.46
448.99	273.84
449.17	187.24
449.36	203.63
449.54	177.88
449.73	147.45
449.91	191.92
450.10	138.09
450.28	255.12
450.46	297.25
450.65	229.37
450.83	215.33
451.02	182.56
451.20	187.24
451.39	182.56
451.57	196.60
451.76	191.92
451.94	259.80
452.13	252.78
452.31	222.35
452.49	252.78
452.68	175.54
452.86	100.64
453.05	301.93
453.23	196.60
453.42	208.31
453.60	198.95
453.78	187.24
453.97	168.52
454.15	93.62
454.34	147.45
454.52	182.56
454.70	147.45
454.89	220.01
455.07	142.77
455.26	222.35
455.44	269.16
455.62	189.58
455.81	227.03
455.99	131.07
456.17	182.56
456.36	189.58
456.54	198.95
456.73	170.86
456.91	154.48
457.09	210.65
457.28	180.22
457.46	203.63
457.64	182.56
457.83	159.16
458.01	152.13
458.19	201.29
458.38	241.08
458.56	170.86
458.74	177.88
458.93	149.79
459.11	170.86
459.29	229.37
459.48	201.29
459.66	182.56
459.84	203.63
460.03	248.10
460.21	212.99
460.39	168.52
460.57	222.35
460.76	126.39
460.94	229.37
461.12	203.63
461.31	220.01
461.49	231.71
461.67	156.82
461.85	222.35
462.04	168.52
462.22	645.99
462.40	273.84
462.59	201.29
462.77	184.90
462.95	231.71
463.13	264.48
463.32	166.18
463.50	201.29
463.68	194.26
463.86	154.48
464.05	227.03
464.23	227.03
464.41	259.80
464.59	128.73
464.78	203.63
464.96	184.90
465.14	166.18
465.32	236.39
465.50	205.97
465.69	187.24
465.87	212.99
466.05	187.24
466.23	182.56
466.41	161.50
466.60	121.71
466.78	170.86
466.96	220.01
467.14	138.09
467.32	191.92
467.51	308.95
467.69	208.31
467.87	191.92
468.05	201.29
468.23	229.37
468.41	145.11
468.60	166.18
468.78	161.50
468.96	208.31
469.14	212.99
469.32	220.01
469.50	147.45
469.69	184.90
469.87	222.35
470.05	156.82
470.23	168.52
470.41	215.33
470.59	222.35
470.77	163.84
470.95	191.92
471.14	215.33
471.32	142.77
471.50	180.22
471.68	173.20
471.86	236.39
472.04	194.26
472.22	191.92
472.40	166.18
472.58	224.69
472.77	194.26
472.95	166.18
473.13	222.35
473.31	315.97
473.49	119.37
473.67	175.54
473.85	191.92
474.03	215.33
474.21	135.75
474.39	227.03
474.57	252.78
474.75	327.68
474.93	187.24
475.12	170.86
475.30	198.95
475.48	201.29
475.66	201.29
475.84	149.79
476.02	177.88
476.20	252.78
476.38	147.45
476.56	205.97
476.74	212.99
476.92	154.48
477.10	173.20
477.28	175.54
477.46	220.01
477.64	194.26
477.82	210.65
478.00	187.24
478.18	245.76
478.36	189.58
478.54	189.58
478.72	173.20
478.90	222.35
479.08	187.24
479.26	142.77
479.44	182.56
479.62	149.79
479.80	182.56
479.98	124.05
480.16	145.11
480.34	234.05
480.52	152.13
480.70	177.88
480.88	182.56
481.06	175.54
481.24	224.69
481.41	177.88
481.59	187.24
481.77	196.60
481.95	182.56
482.13	252.78
482.31	264.48
482.49	217.67
482.67	285.55
482.85	208.31
483.03	227.03
483.21	168.52
483.39	220.01
483.57	187.24
483.74	266.82
483.92	210.65
484.10	163.84
484.28	229.37
484.46	182.56
484.64	140.43
484.82	224.69
485.00	215.33
485.18	166.18
485.35	182.56
485.53	262.14
485.71	262.14
485.89	177.88
486.07	257.46
486.25	308.95
486.43	231.71
486.61	243.42
486.78	252.78
486.96	215.33
487.14	222.35
487.32	203.63
487.50	217.67
487.68	203.63
487.85	243.42
488.03	198.95
488.21	227.03
488.39	248.10
488.57	236.39
488.75	203.63
488.92	482.15
489.10	276.18
489.28	215.33
489.46	271.50
489.64	257.46
489.81	229.37
489.99	220.01
490.17	229.37
490.35	257.46
490.53	227.03
490.70	215.33
490.88	290.23
491.06	224.69
491.24	224.69
491.41	287.89
491.59	241.08
491.77	187.24
491.95	255.12
492.13	250.44
492.30	243.42
492.48	234.05
492.66	241.08
492.84	257.46
493.01	255.12
493.19	264.48
493.37	278.52
493.54	238.73
493.72	224.69
493.90	241.08
494.08	259.80
494.25	215.33
494.43	205.97
494.61	304.27
494.79	166.18
494.96	212.99
495.14	220.01
495.32	170.86
495.49	222.35
495.67	231.71
495.85	159.16
496.02	315.97
496.20	234.05
496.38	241.08
496.55	262.14
496.73	257.46
496.91	227.03
497.09	255.12
497.26	294.91
497.44	238.73
497.62	301.93
497.79	220.01
497.97	262.14
498.14	273.84
498.32	196.60
498.50	320.65
498.67	173.20
498.85	220.01
499.03	175.54
499.20	184.90
499.38	154.48
499.56	250.44
499.73	255.12
499.91	243.42
500.08	243.42
500.26	311.29
500.44	285.55
500.61	245.76
500.79	201.29
500.97	238.73
501.14	257.46
501.32	266.82
501.49	241.08
501.67	135.75
501.84	250.44
502.02	175.54
502.20	266.82
502.37	184.90
502.55	159.16
502.72	243.42
502.90	280.86
503.07	266.82
503.25	177.88
503.43	220.01
503.60	262.14
503.78	266.82
503.95	194.26
504.13	224.69
504.30	292.57
504.48	234.05
504.65	189.58
504.83	184.90
505.01	224.69
505.18	241.08
505.36	297.25
505.53	257.46
505.71	208.31
505.88	243.42
506.06	304.27
506.23	224.69
506.41	215.33
506.58	205.97
506.76	191.92
506.93	215.33
507.11	191.92
507.28	187.24
507.46	231.71
507.63	255.12
507.81	259.80
507.98	252.78
508.16	250.44
508.33	222.35
508.50	205.97
508.68	255.12
508.85	278.52
509.03	220.01
509.20	208.31
509.38	292.57
509.55	241.08
509.73	255.12
509.90	269.16
510.08	231.71
510.25	283.20
510.42	299.59
510.60	208.31
510.77	241.08
510.95	266.82
511.12	227.03
511.30	203.63
511.47	292.57
511.64	266.82
511.82	252.78
511.99	271.50
512.17	189.58
512.34	252.78
512.51	248.10
512.69	229.37
512.86	203.63
513.04	318.31
513.21	234.05
513.38	208.31
513.56	210.65
513.73	201.29
513.90	203.63
514.08	173.20
514.25	212.99
514.43	266.82
514.60	229.37
514.77	252.78
514.95	276.18
515.12	236.39
515.29	231.71
515.47	264.48
515.64	252.78
515.81	271.50
515.99	250.44
516.16	248.10
516.33	290.23
516.51	266.82
516.68	231.71
516.85	184.90
517.03	252.78
517.20	184.90
517.37	220.01
517.54	292.57
517.72	203.63
517.89	210.65
518.06	224.69
518.24	283.20
518.41	320.65
518.58	283.20
518.75	264.48
518.93	322.99
519.10	266.82
519.27	252.78
519.45	250.44
519.62	217.67
519.79	231.71
519.96	224.69
520.14	166.18
520.31	243.42
520.48	292.57
520.65	259.80
520.83	313.63
521.00	294.91
521.17	217.67
521.34	205.97
521.52	220.01
521.69	264.48
521.86	147.45
522.03	241.08
522.20	266.82
522.38	222.35
522.55	241.08
522.72	215.33
522.89	222.35
523.07	292.57
523.24	290.23
523.41	189.58
523.58	189.58
523.75	264.48
523.92	280.86
524.10	250.44
524.27	322.99
524.44	241.08
524.61	294.91
524.78	280.86
524.96	264.48
525.13	304.27
525.30	257.46
525.47	241.08
525.64	208.31
525.81	231.71
525.98	327.68
526.16	241.08
526.33	220.01
526.50	269.16
526.67	224.69
526.84	243.42
527.01	203.63
527.18	236.39
527.36	341.72
527.53	224.69
527.70	327.68
527.87	278.52
528.04	287.89
528.21	255.12
528.38	241.08
528.55	332.36
528.72	231.71
528.89	255.12
529.07	269.16
529.24	337.04
529.41	271.50
529.58	215.33
529.75	205.97
529.92	208.31
530.09	292.57
530.26	271.50
530.43	301.93
530.60	250.44
530.77	248.10
530.94	257.46
531.11	117.03
531.28	294.91
531.46	276.18
531.63	278.52
531.80	372.15
531.97	217.67
532.14	241.08
532.31	231.71
532.48	322.99
532.65	250.44
532.82	250.44
532.99	294.91
533.16	234.05
533.33	269.16
533.50	222.35
533.67	215.33
533.84	259.80
534.01	262.14
534.18	210.65
534.35	304.27
534.52	212.99
534.69	327.68
534.86	285.55
535.03	280.86
535.20	271.50
535.37	292.57
535.54	285.55
535.71	304.27
535.88	292.57
536.05	259.80
536.22	273.84
536.38	266.82
536.55	285.55
536.72	320.65
536.89	294.91
537.06	208.31
537.23	280.86
537.40	231.71
537.57	196.60
537.74	346.40
537.91	339.38
538.08	262.14
538.25	248.10
538.42	248.10
538.59	318.31
538.75	269.16
538.92	224.69
539.09	308.95
539.26	276.18
539.43	315.97
539.60	327.68
539.77	425.98
539.94	280.86
540.11	297.25
540.28	344.06
540.44	360.44
540.61	344.06
540.78	411.93
540.95	318.31
541.12	470.45
541.29	454.06
541.46	390.87
541.62	437.68
541.79	416.62
541.96	486.83
542.13	454.06
542.30	440.02
542.47	390.87
542.63	416.62
542.80	425.98
542.97	468.11
543.14	449.38
543.31	414.27
543.48	486.83
543.64	402.57
543.81	393.21
543.98	447.04
544.15	395.55
544.32	393.21
544.48	390.87
544.65	358.10
544.82	365.12
544.99	411.93
545.16	447.04
545.32	437.68
545.49	599.18
545.66	720.88
545.83	741.95
546.00	613.22
546.16	496.19
546.33	531.30
546.50	381.51
546.67	451.72
546.83	421.30
547.00	404.91
547.17	299.59
547.34	348.74
547.50	327.68
547.67	351.08
547.84	332.36
548.00	353.42
548.17	245.76
548.34	264.48
548.51	386.19
548.67	367.46
548.84	348.74
549.01	306.61
549.18	304.27
549.34	379.17
549.51	339.38
549.68	311.29
549.84	227.03
550.01	264.48
550.18	367.46
550.34	360.44
550.51	337.04
550.68	430.66
550.84	315.97
551.01	334.70
551.18	311.29
551.34	313.63
551.51	283.20
551.68	252.78
551.84	276.18
552.01	320.65
552.18	301.93
552.34	198.95
552.51	337.04
552.68	301.93
552.84	255.12
553.01	280.86
553.18	285.55
553.34	203.63
553.51	306.61
553.67	337.04
553.84	276.18
554.01	299.59
554.17	194.26
554.34	266.82
554.51	259.80
554.67	229.37
554.84	271.50
555.00	210.65
555.17	276.18
555.33	327.68
555.50	194.26
555.67	271.50
555.83	222.35
556.00	231.71
556.16	442.36
556.33	325.33
556.50	273.84
556.66	294.91
556.83	306.61
556.99	252.78
557.16	299.59
557.32	355.76
557.49	224.69
557.65	215.33
557.82	182.56
557.98	210.65
558.15	236.39
558.32	271.50
558.48	227.03
558.65	269.16
558.81	257.46
558.98	297.25
559.14	285.55
559.31	245.76
559.47	332.36
559.64	194.26
559.80	212.99
559.97	208.31
560.13	191.92
560.30	252.78
560.46	196.60
560.63	245.76
560.79	273.84
560.96	245.76
561.12	220.01
561.29	320.65
561.45	231.71
561.61	278.52
561.78	315.97
561.94	280.86
562.11	184.90
562.27	266.82
562.44	304.27
562.60	205.97
562.77	297.25
562.93	390.87
563.10	266.82
563.26	248.10
563.42	271.50
563.59	259.80
563.75	257.46
563.92	308.95
564.08	238.73
564.24	278.52
564.41	283.20
564.57	341.72
564.74	229.37
564.90	238.73
565.07	250.44
565.23	257.46
565.39	252.78
565.56	241.08
565.72	203.63
565.88	255.12
566.05	245.76
566.21	220.01
566.38	238.73
566.54	259.80
566.70	280.86
566.87	175.54
567.03	276.18
567.19	252.78
567.36	196.60
567.52	184.90
567.68	224.69
567.85	245.76
568.01	203.63
568.17	177.88
568.34	273.84
568.50	241.08
568.66	229.37
568.83	304.27
568.99	149.79
569.15	278.52
569.32	287.89
569.48	304.27
569.64	222.35
569.81	259.80
569.97	250.44
570.13	334.70
570.30	229.37
570.46	241.08
570.62	241.08
570.78	184.90
570.95	250.44
571.11	231.71
571.27	330.02
571.43	161.50
571.60	203.63
571.76	252.78
571.92	177.88
572.09	222.35
572.25	255.12
572.41	205.97
572.57	201.29
572.74	266.82
572.90	271.50
573.06	248.10
573.22	322.99
573.38	250.44
573.55	231.71
573.71	217.67
573.87	276.18
574.03	194.26
574.20	224.69
574.36	222.35
574.52	198.95
574.68	255.12
574.84	220.01
575.01	191.92
575.17	264.48
575.33	238.73
575.49	231.71
575.65	248.10
575.82	241.08
575.98	276.18
576.14	198.95
576.30	248.10
576.46	290.23
576.62	330.02
576.79	320.65
576.95	271.50
577.11	262.14
577.27	257.46
577.43	351.08
577.59	325.33
577.75	280.86
577.92	273.84
578.08	236.39
578.24	234.05
578.40	283.20
578.56	407.25
578.72	362.78
578.88	397.89
579.04	313.63
579.21	285.55
579.37	276.18
579.53	222.35
579.69	273.84
579.85	327.68
580.01	196.60
580.17	217.67
580.33	290.23
580.49	285.55
580.65	280.86
580.82	248.10
580.98	236.39
581.14	250.44
581.30	372.15
581.46	250.44
581.62	266.82
581.78	252.78
581.94	348.74
582.10	262.14
582.26	222.35
582.42	234.05
582.58	308.95
582.74	234.05
582.90	355.76
583.06	351.08
583.22	297.25
583.38	243.42
583.54	245.76
583.70	269.16
583.86	259.80
584.02	355.76
584.18	365.12
584.34	241.08
584.50	344.06
584.66	582.79
584.82	1027.50
584.98	1488.58
585.14	1259.21
585.30	978.34
585.46	674.07
585.62	496.19
585.78	421.30
585.94	344.06
586.10	322.99
586.26	231.71
586.42	313.63
586.58	220.01
586.74	264.48
586.90	330.02
587.06	353.42
587.22	367.46
587.38	241.08
587.54	236.39
587.70	330.02
587.86	442.36
588.02	311.29
588.18	409.59
588.34	222.35
588.49	297.25
588.65	318.31
588.81	294.91
588.97	215.33
589.13	252.78
589.29	224.69
589.45	236.39
589.61	262.14
589.77	238.73
589.93	271.50
590.08	248.10
590.24	245.76
590.40	152.13
590.56	257.46
590.72	266.82
590.88	210.65
591.04	283.20
591.20	238.73
591.35	332.36
591.51	285.55
591.67	271.50
591.83	182.56
591.99	315.97
592.15	227.03
592.31	259.80
592.46	220.01
592.62	292.57
592.78	292.57
592.94	222.35
593.10	299.59
593.26	259.80
593.41	409.59
593.57	301.93
593.73	252.78
593.89	344.06
594.05	308.95
594.20	287.89
594.36	454.06
594.52	353.42
594.68	299.59
594.84	271.50
594.99	276.18
595.15	294.91
595.31	231.71
595.47	294.91
595.62	294.91
595.78	220.01
595.94	227.03
596.10	313.63
596.25	304.27
596.41	259.80
596.57	191.92
596.73	231.71
596.88	229.37
597.04	222.35
597.20	198.95
597.36	351.08
597.51	248.10
597.67	241.08
597.83	220.01
597.99	301.93
598.14	294.91
598.30	318.31
598.46	271.50
598.61	318.31
598.77	278.52
598.93	241.08
599.09	220.01
599.24	224.69
599.40	278.52
599.56	257.46
599.71	306.61
599.87	234.05
600.03	283.20
600.18	222.35
600.34	278.52
600.50	220.01
600.65	229.37
600.81	238.73
600.97	255.12
601.12	308.95
601.28	322.99
601.44	229.37
601.59	234.05
601.75	243.42
601.91	203.63
602.06	220.01
602.22	322.99
602.37	252.78
602.53	262.14
602.69	248.10
602.84	159.16
603.00	257.46
603.16	313.63
603.31	287.89
603.47	212.99
603.62	245.76
603.78	220.01
603.94	259.80
604.09	241.08
604.25	238.73
604.40	257.46
604.56	208.31
604.71	217.67
604.87	217.67
605.03	180.22
605.18	292.57
605.34	287.89
605.49	168.52
605.65	278.52
605.80	241.08
605.96	252.78
606.12	245.76
606.27	252.78
606.43	266.82
606.58	201.29
606.74	252.78
606.89	280.86
607.05	383.85
607.20	339.38
607.36	308.95
607.51	327.68
607.67	269.16
607.82	344.06
607.98	402.57
608.13	180.22
608.29	306.61
608.44	322.99
608.60	278.52
608.75	330.02
608.91	287.89
609.06	376.83
609.22	559.39
609.37	514.92
609.53	491.51
609.68	409.59
609.84	339.38
609.99	383.85
610.15	393.21
610.30	489.17
610.46	507.90
610.61	627.26
610.76	573.43
610.92	784.08
611.07	779.40
