SpectraSuite Data File
++++++++++++++++++++++++++++++++++++
Date: Fri Oct 04 11:42:02 GMT-05:00 2013
User: price-jones
Dark Spectrum Present: No
Reference Spectrum Present: No
Number of Sampled Component Spectra: 1
Spectrometers: USB2+H05261
Integration Time (usec): 100000 (USB2+H05261)
Spectra Averaged: 1 (USB2+H05261)
Boxcar Smoothing: 0 (USB2+H05261)
Correct for Electrical Dark: No (USB2+H05261)
Strobe/Lamp Enabled: No (USB2+H05261)
Correct for Detector Non-linearity: No (USB2+H05261)
Correct for Stray Light: No (USB2+H05261)
Number of Pixels in Processed Spectrum: 2048
>>>>>Begin Processed Spectral Data<<<<<
365.73	46.81
365.92	46.81
366.12	46.81
366.32	0.00
366.52	0.00
366.72	0.00
366.91	0.00
367.11	0.00
367.31	0.00
367.51	0.00
367.70	0.00
367.90	0.00
368.10	0.00
368.30	2.34
368.49	0.00
368.69	0.00
368.89	0.00
369.09	0.00
369.28	0.00
369.48	0.00
369.68	0.00
369.87	0.00
370.07	0.00
370.27	60.85
370.47	44.47
370.66	2.34
370.86	44.47
371.06	4.68
371.25	138.09
371.45	63.19
371.65	0.00
371.84	0.00
372.04	70.22
372.24	79.58
372.44	93.62
372.63	135.75
372.83	117.03
373.03	70.22
373.22	86.60
373.42	149.79
373.62	159.16
373.81	102.98
374.01	159.16
374.21	119.37
374.40	149.79
374.60	159.16
374.79	131.07
374.99	133.41
375.19	142.77
375.38	133.41
375.58	154.48
375.78	147.45
375.97	203.63
376.17	189.58
376.37	107.66
376.56	175.54
376.76	128.73
376.95	166.18
377.15	112.35
377.35	152.13
377.54	140.43
377.74	112.35
377.93	189.58
378.13	117.03
378.33	217.67
378.52	128.73
378.72	180.22
378.91	170.86
379.11	117.03
379.31	194.26
379.50	98.30
379.70	189.58
379.89	156.82
380.09	166.18
380.28	119.37
380.48	154.48
380.68	196.60
380.87	67.88
381.07	149.79
381.26	191.92
381.46	131.07
381.65	156.82
381.85	86.60
382.04	147.45
382.24	124.05
382.43	102.98
382.63	70.22
382.83	77.24
383.02	184.90
383.22	276.18
383.41	168.52
383.61	156.82
383.80	114.69
384.00	170.86
384.19	105.32
384.39	152.13
384.58	84.26
384.78	149.79
384.97	138.09
385.17	191.92
385.36	177.88
385.56	170.86
385.75	63.19
385.95	142.77
386.14	177.88
386.34	152.13
386.53	119.37
386.72	191.92
386.92	114.69
387.11	180.22
387.31	107.66
387.50	133.41
387.70	149.79
387.89	124.05
388.09	91.28
388.28	238.73
388.48	112.35
388.67	161.50
388.86	131.07
389.06	180.22
389.25	98.30
389.45	126.39
389.64	121.71
389.84	175.54
390.03	135.75
390.22	170.86
390.42	124.05
390.61	166.18
390.81	119.37
391.00	95.96
391.19	161.50
391.39	154.48
391.58	166.18
391.78	126.39
391.97	163.84
392.16	159.16
392.36	159.16
392.55	187.24
392.75	126.39
392.94	79.58
393.13	126.39
393.33	210.65
393.52	63.19
393.71	231.71
393.91	121.71
394.10	163.84
394.29	81.92
394.49	133.41
394.68	135.75
394.88	191.92
395.07	159.16
395.26	166.18
395.46	159.16
395.65	180.22
395.84	138.09
396.04	217.67
396.23	124.05
396.42	107.66
396.62	105.32
396.81	182.56
397.00	79.58
397.19	117.03
397.39	131.07
397.58	138.09
397.77	135.75
397.97	124.05
398.16	119.37
398.35	112.35
398.55	145.11
398.74	159.16
398.93	187.24
399.12	152.13
399.32	168.52
399.51	98.30
399.70	110.01
399.90	196.60
400.09	205.97
400.28	168.52
400.47	124.05
400.67	191.92
400.86	252.78
401.05	180.22
401.24	205.97
401.44	163.84
401.63	212.99
401.82	217.67
402.01	154.48
402.21	241.08
402.40	205.97
402.59	166.18
402.78	231.71
402.97	290.23
403.17	161.50
403.36	231.71
403.55	407.25
403.74	706.84
403.93	2190.74
404.13	5638.35
404.32	9116.39
404.51	9753.01
404.70	6518.39
404.89	2223.51
405.09	720.88
405.28	348.74
405.47	234.05
405.66	205.97
405.85	215.33
406.05	177.88
406.24	215.33
406.43	217.67
406.62	278.52
406.81	276.18
407.00	369.80
407.20	748.97
407.39	1156.22
407.58	1526.03
407.77	1196.01
407.96	589.82
408.15	315.97
408.34	250.44
408.54	234.05
408.73	126.39
408.92	229.37
409.11	133.41
409.30	217.67
409.49	220.01
409.68	252.78
409.87	131.07
410.07	208.31
410.26	210.65
410.45	203.63
410.64	135.75
410.83	257.46
411.02	220.01
411.21	257.46
411.40	205.97
411.59	163.84
411.78	252.78
411.98	238.73
412.17	210.65
412.36	255.12
412.55	308.95
412.74	241.08
412.93	339.38
413.12	245.76
413.31	299.59
413.50	306.61
413.69	245.76
413.88	212.99
414.07	269.16
414.26	290.23
414.45	297.25
414.64	297.25
414.83	257.46
415.02	201.29
415.22	215.33
415.41	292.57
415.60	278.52
415.79	227.03
415.98	294.91
416.17	269.16
416.36	259.80
416.55	229.37
416.74	283.20
416.93	341.72
417.12	248.10
417.31	243.42
417.50	215.33
417.69	287.89
417.88	332.36
418.07	278.52
418.26	257.46
418.45	311.29
418.64	318.31
418.83	285.55
419.02	360.44
419.21	283.20
419.39	339.38
419.58	297.25
419.77	266.82
419.96	346.40
420.15	306.61
420.34	243.42
420.53	360.44
420.72	269.16
420.91	369.80
421.10	266.82
421.29	379.17
421.48	400.23
421.67	339.38
421.86	353.42
422.05	322.99
422.24	308.95
422.43	299.59
422.61	318.31
422.80	353.42
422.99	351.08
423.18	341.72
423.37	320.65
423.56	334.70
423.75	395.55
423.94	337.04
424.13	348.74
424.32	264.48
424.50	339.38
424.69	365.12
424.88	440.02
425.07	322.99
425.26	425.98
425.45	449.38
425.64	353.42
425.83	454.06
426.01	388.53
426.20	353.42
426.39	402.57
426.58	341.72
426.77	454.06
426.96	411.93
427.15	362.78
427.33	381.51
427.52	409.59
427.71	390.87
427.90	416.62
428.09	367.46
428.28	454.06
428.46	402.57
428.65	447.04
428.84	411.93
429.03	535.98
429.22	388.53
429.40	344.06
429.59	468.11
429.78	465.77
429.97	458.74
430.16	376.83
430.34	423.64
430.53	435.34
430.72	400.23
430.91	454.06
431.10	421.30
431.28	503.22
431.47	465.77
431.66	444.70
431.85	465.77
432.03	510.24
432.22	571.09
432.41	435.34
432.60	489.17
432.79	491.51
432.97	585.13
433.16	627.26
433.35	587.47
433.54	767.70
433.72	798.12
433.91	767.70
434.10	851.96
434.28	1025.15
434.47	1268.57
434.66	1448.79
434.85	1638.38
435.03	3712.09
435.22	13334.03
435.41	33869.89
435.59	47496.49
435.78	35627.63
435.97	16400.13
436.16	6136.88
436.34	2045.63
436.53	1226.44
436.72	936.21
436.90	758.33
437.09	685.78
437.28	704.50
437.46	634.29
437.65	650.67
437.84	650.67
438.02	592.16
438.21	550.03
438.40	575.77
438.58	641.31
438.77	564.07
438.96	596.84
439.14	645.99
439.33	573.43
439.52	561.73
439.70	573.43
439.89	624.92
440.08	566.41
440.26	603.86
440.45	545.34
440.63	592.16
440.82	543.00
441.01	521.94
441.19	552.37
441.38	531.30
441.57	524.28
441.75	564.07
441.94	643.65
442.12	543.00
442.31	524.28
442.50	547.69
442.68	580.45
442.87	552.37
443.05	608.54
443.24	603.86
443.43	587.47
443.61	638.97
443.80	550.03
443.98	561.73
444.17	643.65
444.35	608.54
444.54	585.13
444.73	585.13
444.91	610.88
445.10	524.28
445.28	580.45
445.47	489.17
445.65	538.32
445.84	610.88
446.02	575.77
446.21	592.16
446.39	540.66
446.58	669.39
446.77	543.00
446.95	489.17
447.14	528.96
447.32	608.54
447.51	568.75
447.69	540.66
447.88	596.84
448.06	519.60
448.25	514.92
448.43	561.73
448.62	524.28
448.80	594.50
448.99	610.88
449.17	538.32
449.36	540.66
449.54	535.98
449.73	589.82
449.91	554.71
450.10	519.60
450.28	596.84
450.46	608.54
450.65	571.09
450.83	573.43
451.02	610.88
451.20	596.84
451.39	596.84
451.57	608.54
451.76	500.87
451.94	550.03
452.13	610.88
452.31	622.58
452.49	587.47
452.68	531.30
452.86	566.41
453.05	589.82
453.23	524.28
453.42	575.77
453.60	566.41
453.78	545.34
453.97	503.22
454.15	526.62
454.34	521.94
454.52	552.37
454.70	557.05
454.89	592.16
455.07	580.45
455.26	603.86
455.44	554.71
455.62	568.75
455.81	641.31
455.99	594.50
456.17	524.28
456.36	589.82
456.54	531.30
456.73	559.39
456.91	503.22
457.09	559.39
457.28	594.50
457.46	578.11
457.64	491.51
457.83	653.01
458.01	489.17
458.19	559.39
458.38	596.84
458.56	615.56
458.74	472.79
458.93	557.05
459.11	566.41
459.29	514.92
459.48	482.15
459.66	580.45
459.84	531.30
460.03	557.05
460.21	624.92
460.39	603.86
460.57	554.71
460.76	587.47
460.94	561.73
461.12	540.66
461.31	568.75
461.49	543.00
461.67	507.90
461.85	514.92
462.04	571.09
462.22	966.64
462.40	554.71
462.59	585.13
462.77	554.71
462.95	547.69
463.13	484.49
463.32	540.66
463.50	528.96
463.68	500.87
463.86	606.20
464.05	449.38
464.23	624.92
464.41	533.64
464.59	533.64
464.78	575.77
464.96	535.98
465.14	550.03
465.32	468.11
465.50	552.37
465.69	573.43
465.87	498.53
466.05	486.83
466.23	463.43
466.41	503.22
466.60	578.11
466.78	582.79
466.96	622.58
467.14	552.37
467.32	585.13
467.51	528.96
467.69	585.13
467.87	505.56
468.05	472.79
468.23	449.38
468.41	449.38
468.60	496.19
468.78	489.17
468.96	505.56
469.14	444.70
469.32	582.79
469.50	496.19
469.69	514.92
469.87	550.03
470.05	447.04
470.23	470.45
470.41	524.28
470.59	418.96
470.77	524.28
470.95	524.28
471.14	521.94
471.32	496.19
471.50	545.34
471.68	496.19
471.86	561.73
472.04	428.32
472.22	545.34
472.40	531.30
472.58	552.37
472.77	486.83
472.95	587.47
473.13	624.92
473.31	603.86
473.49	470.45
473.67	477.47
473.85	540.66
474.03	496.19
474.21	510.24
474.39	589.82
474.57	517.26
474.75	566.41
474.93	538.32
475.12	528.96
475.30	510.24
475.48	477.47
475.66	447.04
475.84	486.83
476.02	517.26
476.20	559.39
476.38	437.68
476.56	571.09
476.74	552.37
476.92	571.09
477.10	510.24
477.28	507.90
477.46	561.73
477.64	587.47
477.82	533.64
478.00	592.16
478.18	638.97
478.36	603.86
478.54	540.66
478.72	559.39
478.90	608.54
479.08	706.84
479.26	561.73
479.44	720.88
479.62	599.18
479.80	713.86
479.98	720.88
480.16	798.12
480.34	741.95
480.52	861.32
480.70	896.43
480.88	842.59
481.06	973.66
481.24	987.71
481.41	1018.13
481.59	994.73
481.77	1011.11
481.95	1200.69
482.13	1315.38
482.31	1284.95
482.49	1500.28
482.67	1514.33
482.85	1760.08
483.03	1783.49
483.21	1713.27
483.39	1987.11
483.57	2087.76
483.74	2167.34
483.92	2375.64
484.10	2452.88
484.28	2560.55
484.46	2951.42
484.64	2789.92
484.82	3028.65
485.00	3187.81
485.18	3396.12
485.35	3674.64
485.53	3735.50
485.71	3875.93
485.89	4294.88
486.07	4147.43
486.25	4182.54
486.43	4231.69
486.61	4271.48
486.78	4315.95
486.96	4325.31
487.14	4388.50
487.32	4365.10
487.50	4189.56
487.68	4098.28
487.85	4091.26
488.03	4065.51
488.21	4088.92
488.39	3934.44
488.57	3873.59
488.75	3665.28
488.92	3756.56
489.10	3613.79
489.28	3482.72
489.46	3538.89
489.64	3337.60
489.81	3398.46
489.99	3316.54
490.17	3234.62
490.35	3215.90
490.53	3164.40
490.70	3171.43
490.88	3187.81
491.06	3304.84
491.24	3407.82
491.41	3669.96
491.59	3620.81
491.77	3246.32
491.95	3260.37
492.13	3035.67
492.30	3005.25
492.48	2911.63
492.66	2785.24
492.84	2864.82
493.01	2810.98
493.19	2703.32
493.37	2754.81
493.54	2593.31
493.72	2553.52
493.90	2516.08
494.08	2567.57
494.25	2455.22
494.43	2478.63
494.61	2310.11
494.79	2363.94
494.96	2356.92
495.14	2342.88
495.32	2228.19
495.49	2298.41
495.67	2214.15
495.85	2216.49
496.02	2024.56
496.20	2115.84
496.38	2024.56
496.55	2080.74
496.73	2029.24
496.91	1966.05
497.09	2033.93
497.26	1898.17
497.44	1881.79
497.62	1867.75
497.79	1708.59
497.97	1870.09
498.14	1757.74
498.32	1607.95
498.50	1551.78
498.67	1657.10
498.85	1565.82
499.03	1547.09
499.20	1495.60
499.38	1366.87
499.56	1455.81
499.73	1530.71
499.91	1371.55
500.08	1336.45
500.26	1270.91
500.44	1235.80
500.61	1327.08
500.79	1188.99
500.97	1111.75
501.14	1210.06
501.32	1053.24
501.49	1064.94
501.67	1029.84
501.84	1088.35
502.02	1020.47
502.20	959.62
502.37	950.26
502.55	997.07
502.72	863.66
502.90	887.06
503.07	816.85
503.25	849.61
503.43	856.64
503.60	788.76
503.78	828.55
503.95	798.12
504.13	798.12
504.30	763.01
504.48	751.31
504.65	704.50
504.83	795.78
505.01	720.88
505.18	681.10
505.36	603.86
505.53	596.84
505.71	624.92
505.88	671.73
506.06	535.98
506.23	568.75
506.41	573.43
506.58	617.90
506.76	599.18
506.93	615.56
507.11	557.05
507.28	510.24
507.46	592.16
507.63	613.22
507.81	484.49
507.98	505.56
508.16	535.98
508.33	545.34
508.50	610.88
508.68	594.50
508.85	571.09
509.03	610.88
509.20	589.82
509.38	667.05
509.55	592.16
509.73	545.34
509.90	634.29
510.08	564.07
510.25	477.47
510.42	470.45
510.60	566.41
510.77	512.58
510.95	543.00
511.12	475.13
511.30	437.68
511.47	594.50
511.64	528.96
511.82	517.26
511.99	458.74
512.17	458.74
512.34	500.87
512.51	482.15
512.69	519.60
512.86	578.11
513.04	425.98
513.21	507.90
513.38	538.32
513.56	472.79
513.73	514.92
513.90	484.49
514.08	407.25
514.25	489.17
514.43	538.32
514.60	456.40
514.77	486.83
514.95	449.38
515.12	407.25
515.29	444.70
515.47	496.19
515.64	449.38
515.81	428.32
515.99	461.09
516.16	418.96
516.33	458.74
516.51	475.13
516.68	482.15
516.85	379.17
517.03	388.53
517.20	411.93
517.37	461.09
517.54	435.34
517.72	456.40
517.89	449.38
518.06	381.51
518.24	456.40
518.41	463.43
518.58	475.13
518.75	400.23
518.93	489.17
519.10	379.17
519.27	365.12
519.45	484.49
519.62	430.66
519.79	423.64
519.96	463.43
520.14	444.70
520.31	447.04
520.48	369.80
520.65	360.44
520.83	437.68
521.00	465.77
521.17	430.66
521.34	376.83
521.52	430.66
521.69	365.12
521.86	355.76
522.03	444.70
522.20	437.68
522.38	372.15
522.55	381.51
522.72	430.66
522.89	400.23
523.07	535.98
523.24	493.85
523.41	409.59
523.58	390.87
523.75	437.68
523.92	418.96
524.10	430.66
524.27	409.59
524.44	400.23
524.61	444.70
524.78	379.17
524.96	484.49
525.13	451.72
525.30	433.00
525.47	456.40
525.64	498.53
525.81	540.66
525.98	416.62
526.16	428.32
526.33	423.64
526.50	493.85
526.67	489.17
526.84	496.19
527.01	440.02
527.18	524.28
527.36	636.63
527.53	552.37
527.70	653.01
527.87	608.54
528.04	622.58
528.21	568.75
528.38	561.73
528.55	533.64
528.72	517.26
528.89	627.26
529.07	566.41
529.24	552.37
529.41	594.50
529.58	613.22
529.75	667.05
529.92	638.97
530.09	692.80
530.26	587.47
530.43	667.05
530.60	645.99
530.77	727.91
530.94	711.52
531.11	737.27
531.28	702.16
531.46	713.86
531.63	826.21
531.80	870.68
531.97	896.43
532.14	1062.60
532.31	1153.88
532.48	1369.21
532.65	1591.56
532.82	1727.32
532.99	2097.12
533.16	2415.43
533.33	2539.48
533.50	2602.68
533.67	2106.48
533.84	1799.87
534.01	1565.82
534.18	1418.36
534.35	1352.83
534.52	1385.60
534.69	1453.47
534.86	1523.69
535.03	1568.16
535.20	1645.40
535.37	1788.17
535.54	1881.79
535.71	1877.11
535.88	1996.48
536.05	2094.78
536.22	2321.81
536.38	2567.57
536.55	2911.63
536.72	3077.80
536.89	3466.33
537.06	3901.67
537.23	4341.69
537.40	4725.54
537.57	5144.50
537.74	5364.51
537.91	5575.16
538.08	5654.73
538.25	5671.12
538.42	5853.68
538.59	6087.73
538.75	6054.97
538.92	6562.86
539.09	7162.04
539.26	7929.74
539.43	8767.65
539.60	10052.60
539.77	11389.05
539.94	12971.25
540.11	14223.44
540.28	15597.33
540.44	16872.92
540.61	18700.88
540.78	21221.64
540.95	25605.46
541.12	30576.76
541.29	35311.66
541.46	37741.14
541.62	38092.22
541.79	36041.91
541.96	33347.95
542.13	31145.51
542.30	28809.65
542.47	26843.60
542.63	25577.37
542.80	24783.93
542.97	24456.26
543.14	24222.20
543.31	24102.84
543.48	24486.68
543.64	24599.03
543.81	24891.60
543.98	25305.87
544.15	25067.14
544.32	25446.30
544.48	25198.21
544.65	24978.20
544.82	24819.04
544.99	24423.49
545.16	25273.10
545.32	25900.37
545.49	38150.73
545.66	59365.35
545.83	65535.00
546.00	65535.00
546.16	60619.88
546.33	44020.80
546.50	33567.96
546.67	26031.44
546.83	22661.07
547.00	22066.57
547.17	20800.34
547.34	20086.48
547.50	19016.85
547.67	18424.70
547.84	17280.18
548.00	16774.62
548.17	16353.32
548.34	15646.48
548.51	15143.27
548.67	14387.27
548.84	13781.07
549.01	13078.91
549.18	12461.01
549.34	11695.66
549.51	11627.78
549.68	10878.81
549.84	10565.18
550.01	10003.45
550.18	9678.12
550.34	9231.07
550.51	8901.06
550.68	8451.67
550.84	8004.63
551.01	7634.83
551.18	7052.03
551.34	6937.35
551.51	6569.88
551.68	6047.94
551.84	5947.30
552.01	5818.57
552.18	5722.61
552.34	5188.97
552.51	5097.69
552.68	4922.15
552.84	4652.98
553.01	4496.17
553.18	4248.07
553.34	4290.20
553.51	4086.58
553.67	4058.49
553.84	3808.05
554.01	3562.30
554.17	3482.72
554.34	3267.39
554.51	2939.71
554.67	2792.26
554.84	2684.59
555.00	2459.90
555.17	2359.26
555.33	2373.30
555.50	2132.23
555.67	2057.33
555.83	2015.20
556.00	1949.67
556.16	1991.80
556.33	1757.74
556.50	1739.02
556.66	1696.89
556.83	1652.42
556.99	1547.09
557.16	1444.11
557.32	1378.58
557.49	1350.49
557.65	1380.92
557.82	1268.57
557.98	1341.13
558.15	1315.38
558.32	1219.42
558.48	1200.69
558.65	1151.54
558.81	1137.50
558.98	1090.69
559.14	1146.86
559.31	1050.90
559.47	1100.05
559.64	1022.81
559.80	1067.28
559.97	990.05
560.13	924.51
560.30	1025.15
560.46	1074.31
560.63	1022.81
560.79	917.49
560.96	940.90
561.12	898.77
561.29	973.66
561.45	959.62
561.61	936.21
561.78	1015.79
561.94	971.32
562.11	901.11
562.27	1015.79
562.44	868.34
562.60	957.28
562.77	954.94
562.93	901.11
563.10	898.77
563.26	903.45
563.42	945.58
563.59	894.08
563.75	903.45
563.92	875.36
564.08	922.17
564.24	884.72
564.41	894.08
564.57	777.06
564.74	763.01
564.90	798.12
565.07	772.38
565.23	685.78
565.39	791.10
565.56	720.88
565.72	730.25
565.88	786.42
566.05	720.88
566.21	674.07
566.38	793.44
566.54	791.10
566.70	816.85
566.87	791.10
567.03	833.23
567.19	805.14
567.36	732.59
567.52	774.72
567.68	828.55
567.85	774.72
568.01	856.64
568.17	777.06
568.34	781.74
568.50	915.15
568.66	751.31
568.83	842.59
568.99	788.76
569.15	791.10
569.32	671.73
569.48	613.22
569.64	631.94
569.81	655.35
569.97	699.82
570.13	702.16
570.30	622.58
570.46	493.85
570.62	543.00
570.78	557.05
570.95	531.30
571.11	510.24
571.27	489.17
571.43	554.71
571.60	568.75
571.76	528.96
571.92	589.82
572.09	561.73
572.25	519.60
572.41	519.60
572.57	603.86
572.74	580.45
572.90	650.67
573.06	608.54
573.22	622.58
573.38	535.98
573.55	627.26
573.71	657.69
573.87	645.99
574.03	620.24
574.20	645.99
574.36	702.16
574.52	774.72
574.68	760.67
574.84	706.84
575.01	751.31
575.17	772.38
575.33	863.66
575.49	957.28
575.65	971.32
575.82	1078.99
575.98	1179.63
576.14	1291.98
576.30	2333.51
576.46	7110.55
576.62	15274.34
576.79	20875.24
576.95	15222.84
577.11	8985.32
577.27	5989.43
577.43	3831.46
577.59	2452.88
577.75	1849.02
577.92	1729.66
578.08	1696.89
578.24	1797.53
578.40	2593.31
578.56	6637.76
578.72	13378.50
578.88	19932.00
579.04	13783.41
579.21	8500.83
579.37	6113.48
579.53	4690.43
579.69	4234.03
579.85	5322.38
580.01	6544.14
580.17	6743.08
580.33	5586.86
580.49	4624.90
580.65	4063.17
580.82	3779.97
580.98	3578.68
581.14	3630.17
581.30	3768.26
581.46	4163.81
581.62	4498.51
581.78	4634.26
581.94	5170.24
582.10	5614.95
582.26	5849.00
582.42	6033.90
582.58	6204.76
582.74	6202.42
582.90	6218.80
583.06	6319.45
583.22	6246.89
583.38	6211.78
583.54	6368.60
583.70	6223.48
583.86	6174.33
584.02	6080.71
584.18	5926.24
584.34	5863.04
584.50	5874.74
584.66	5776.44
584.82	5598.56
584.98	5565.79
585.14	5439.40
585.30	5397.28
585.46	5458.13
585.62	5310.68
585.78	5327.06
585.94	5371.53
586.10	5392.59
586.26	5650.05
586.42	6214.12
586.58	7267.36
586.74	9057.87
586.90	11049.67
587.06	12535.91
587.22	12596.76
587.38	11405.43
587.54	9743.65
587.70	8201.24
587.86	6839.05
588.02	5771.76
588.18	5050.88
588.34	4491.49
588.49	4262.12
588.65	4086.58
588.81	3810.39
588.97	3770.60
589.13	3566.98
589.29	3396.12
589.45	3440.59
589.61	3403.14
589.77	3538.89
589.93	3655.92
590.08	3538.89
590.24	3707.41
590.40	3861.88
590.56	3948.48
590.72	4051.47
590.88	4032.74
591.04	4320.63
591.20	4461.06
591.35	4578.09
591.51	4826.18
591.67	4884.70
591.83	5408.98
591.99	5792.83
592.15	6335.83
592.31	6789.89
592.46	7375.03
592.62	8070.17
592.78	8718.50
592.94	8945.53
593.10	8975.95
593.26	8493.80
593.41	7936.76
593.57	7084.80
593.73	6167.31
593.89	5397.28
594.05	4858.95
594.20	4411.91
594.36	3962.53
594.52	3723.79
594.68	3435.91
594.84	3403.14
594.99	3475.70
595.15	3297.81
595.31	3208.87
595.47	3117.59
595.62	2993.55
595.78	3183.13
595.94	3101.21
596.10	3012.27
596.25	3150.36
596.41	3164.40
596.57	3082.49
596.73	3075.46
596.88	2981.84
597.04	2991.20
597.20	3007.59
597.36	3211.22
597.51	3304.84
597.67	3396.12
597.83	3585.70
597.99	3850.18
598.14	3861.88
598.30	4271.48
598.46	4379.14
598.61	4697.46
598.77	4844.91
598.93	5093.01
599.09	5111.73
599.24	5383.23
599.40	5327.06
599.56	5081.30
599.71	4898.74
599.87	4777.03
600.03	4397.87
600.18	4042.11
600.34	3857.20
600.50	3564.64
600.65	3375.05
600.81	3197.17
600.97	3038.02
601.12	2822.69
601.28	2630.76
601.44	2546.50
601.59	2539.48
601.75	2471.61
601.91	2312.45
602.06	2324.15
602.22	2282.02
602.37	2024.56
602.53	2136.91
602.69	2087.76
602.84	1980.09
603.00	2066.69
603.16	2092.44
603.31	2019.88
603.47	2207.13
603.62	2228.19
603.78	2099.46
603.94	2289.04
604.09	2317.13
604.25	2265.64
604.40	2366.28
604.56	2354.58
