SpectraSuite Data File
++++++++++++++++++++++++++++++++++++
Date: Fri Oct 04 11:42:05 GMT-05:00 2013
User: price-jones
Dark Spectrum Present: No
Reference Spectrum Present: No
Number of Sampled Component Spectra: 1
Spectrometers: USB2+H05261
Integration Time (usec): 100000 (USB2+H05261)
Spectra Averaged: 1 (USB2+H05261)
Boxcar Smoothing: 0 (USB2+H05261)
Correct for Electrical Dark: No (USB2+H05261)
Strobe/Lamp Enabled: No (USB2+H05261)
Correct for Detector Non-linearity: No (USB2+H05261)
Correct for Stray Light: No (USB2+H05261)
Number of Pixels in Processed Spectrum: 2048
>>>>>Begin Processed Spectral Data<<<<<
365.73	39.79
365.92	39.79
366.12	39.79
366.32	0.00
366.52	21.06
366.72	0.00
366.91	0.00
367.11	0.00
367.31	0.00
367.51	0.00
367.70	0.00
367.90	0.00
368.10	0.00
368.30	0.00
368.49	0.00
368.69	0.00
368.89	0.00
369.09	0.00
369.28	0.00
369.48	0.00
369.68	0.00
369.87	0.00
370.07	0.00
370.27	30.43
370.47	30.43
370.66	0.00
370.86	67.88
371.06	67.88
371.25	154.48
371.45	102.98
371.65	112.35
371.84	67.88
372.04	44.47
372.24	37.45
372.44	135.75
372.63	121.71
372.83	135.75
373.03	110.01
373.22	81.92
373.42	63.19
373.62	100.64
373.81	117.03
374.01	124.05
374.21	102.98
374.40	105.32
374.60	166.18
374.79	133.41
374.99	131.07
375.19	102.98
375.38	135.75
375.58	140.43
375.78	142.77
375.97	173.20
376.17	198.95
376.37	177.88
376.56	114.69
376.76	74.90
376.95	142.77
377.15	107.66
377.35	77.24
377.54	166.18
377.74	84.26
377.93	88.94
378.13	142.77
378.33	49.15
378.52	210.65
378.72	203.63
378.91	161.50
379.11	131.07
379.31	212.99
379.50	142.77
379.70	163.84
379.89	114.69
380.09	168.52
380.28	126.39
380.48	86.60
380.68	107.66
380.87	86.60
381.07	105.32
381.26	161.50
381.46	138.09
381.65	51.49
381.85	112.35
382.04	173.20
382.24	145.11
382.43	107.66
382.63	107.66
382.83	170.86
383.02	177.88
383.22	149.79
383.41	42.13
383.61	142.77
383.80	133.41
384.00	105.32
384.19	117.03
384.39	100.64
384.58	131.07
384.78	67.88
384.97	110.01
385.17	84.26
385.36	154.48
385.56	86.60
385.75	53.83
385.95	119.37
386.14	91.28
386.34	114.69
386.53	86.60
386.72	95.96
386.92	112.35
387.11	145.11
387.31	79.58
387.50	70.22
387.70	100.64
387.89	175.54
388.09	126.39
388.28	112.35
388.48	63.19
388.67	145.11
388.86	105.32
389.06	70.22
389.25	105.32
389.45	147.45
389.64	81.92
389.84	142.77
390.03	142.77
390.22	88.94
390.42	149.79
390.61	98.30
390.81	93.62
391.00	49.15
391.19	107.66
391.39	156.82
391.58	91.28
391.78	72.56
391.97	126.39
392.16	133.41
392.36	187.24
392.55	203.63
392.75	145.11
392.94	112.35
393.13	114.69
393.33	138.09
393.52	191.92
393.71	168.52
393.91	154.48
394.10	126.39
394.29	147.45
394.49	121.71
394.68	194.26
394.88	166.18
395.07	161.50
395.26	222.35
395.46	128.73
395.65	53.83
395.84	163.84
396.04	196.60
396.23	88.94
396.42	95.96
396.62	110.01
396.81	145.11
397.00	170.86
397.19	138.09
397.39	133.41
397.58	152.13
397.77	196.60
397.97	133.41
398.16	138.09
398.35	154.48
398.55	124.05
398.74	177.88
398.93	182.56
399.12	114.69
399.32	124.05
399.51	131.07
399.70	159.16
399.90	166.18
400.09	166.18
400.28	133.41
400.47	133.41
400.67	203.63
400.86	112.35
401.05	215.33
401.24	191.92
401.44	173.20
401.63	217.67
401.82	138.09
402.01	102.98
402.21	187.24
402.40	166.18
402.59	196.60
402.78	205.97
402.97	280.86
403.17	236.39
403.36	320.65
403.55	304.27
403.74	629.60
403.93	1973.07
404.13	4908.10
404.32	6988.84
404.51	6183.70
404.70	3742.52
404.89	1366.87
405.09	414.27
405.28	304.27
405.47	245.76
405.66	304.27
405.85	264.48
406.05	212.99
406.24	135.75
406.43	210.65
406.62	264.48
406.81	248.10
407.00	355.76
407.20	617.90
407.39	1004.09
407.58	903.45
407.77	631.94
407.96	374.49
408.15	252.78
408.34	177.88
408.54	147.45
408.73	234.05
408.92	234.05
409.11	95.96
409.30	159.16
409.49	196.60
409.68	131.07
409.87	142.77
410.07	110.01
410.26	271.50
410.45	205.97
410.64	236.39
410.83	138.09
411.02	170.86
411.21	243.42
411.40	173.20
411.59	170.86
411.78	262.14
411.98	187.24
412.17	138.09
412.36	196.60
412.55	198.95
412.74	278.52
412.93	203.63
413.12	250.44
413.31	149.79
413.50	259.80
413.69	271.50
413.88	241.08
414.07	234.05
414.26	184.90
414.45	236.39
414.64	222.35
414.83	217.67
415.02	175.54
415.22	212.99
415.41	306.61
415.60	259.80
415.79	278.52
415.98	264.48
416.17	217.67
416.36	215.33
416.55	189.58
416.74	191.92
416.93	201.29
417.12	220.01
417.31	243.42
417.50	220.01
417.69	292.57
417.88	238.73
418.07	234.05
418.26	194.26
418.45	180.22
418.64	194.26
418.83	273.84
419.02	234.05
419.21	269.16
419.39	248.10
419.58	245.76
419.77	304.27
419.96	222.35
420.15	292.57
420.34	227.03
420.53	283.20
420.72	252.78
420.91	306.61
421.10	245.76
421.29	217.67
421.48	287.89
421.67	250.44
421.86	259.80
422.05	287.89
422.24	227.03
422.43	278.52
422.61	320.65
422.80	308.95
422.99	236.39
423.18	278.52
423.37	404.91
423.56	280.86
423.75	262.14
423.94	243.42
424.13	262.14
424.32	238.73
424.50	229.37
424.69	334.70
424.88	294.91
425.07	276.18
425.26	271.50
425.45	308.95
425.64	442.36
425.83	278.52
426.01	334.70
426.20	262.14
426.39	334.70
426.58	341.72
426.77	304.27
426.96	332.36
427.15	348.74
427.33	325.33
427.52	334.70
427.71	250.44
427.90	339.38
428.09	372.15
428.28	388.53
428.46	358.10
428.65	393.21
428.84	372.15
429.03	381.51
429.22	238.73
429.40	325.33
429.59	395.55
429.78	322.99
429.97	290.23
430.16	311.29
430.34	283.20
430.53	407.25
430.72	292.57
430.91	409.59
431.10	395.55
431.28	383.85
431.47	285.55
431.66	388.53
431.85	379.17
432.03	428.32
432.22	425.98
432.41	325.33
432.60	425.98
432.79	362.78
432.97	414.27
433.16	440.02
433.35	554.71
433.54	589.82
433.72	641.31
433.91	564.07
434.10	681.10
434.28	772.38
434.47	964.30
434.66	957.28
434.85	1315.38
435.03	3269.73
435.22	12798.05
435.41	30155.46
435.59	33223.90
435.78	21617.19
435.97	10593.26
436.16	4028.06
436.34	1406.66
436.53	870.68
436.72	695.14
436.90	594.50
437.09	596.84
437.28	496.19
437.46	517.26
437.65	472.79
437.84	475.13
438.02	510.24
438.21	540.66
438.40	472.79
438.58	442.36
438.77	425.98
438.96	456.40
439.14	472.79
439.33	365.12
439.52	447.04
439.70	418.96
439.89	475.13
440.08	449.38
440.26	475.13
440.45	440.02
440.63	454.06
440.82	468.11
441.01	409.59
441.19	505.56
441.38	428.32
441.57	423.64
441.75	517.26
441.94	493.85
442.12	435.34
442.31	463.43
442.50	461.09
442.68	451.72
442.87	456.40
443.05	440.02
443.24	500.87
443.43	559.39
443.61	454.06
443.80	521.94
443.98	437.68
444.17	461.09
444.35	461.09
444.54	447.04
444.73	353.42
444.91	358.10
445.10	463.43
445.28	411.93
445.47	517.26
445.65	451.72
445.84	327.68
446.02	514.92
446.21	493.85
446.39	423.64
446.58	486.83
446.77	383.85
446.95	442.36
447.14	386.19
447.32	381.51
447.51	437.68
447.69	456.40
447.88	421.30
448.06	411.93
448.25	500.87
448.43	395.55
448.62	341.72
448.80	482.15
448.99	411.93
449.17	379.17
449.36	393.21
449.54	472.79
449.73	372.15
449.91	447.04
450.10	400.23
450.28	575.77
450.46	425.98
450.65	477.47
450.83	454.06
451.02	421.30
451.20	433.00
451.39	507.90
451.57	451.72
451.76	477.47
451.94	435.34
452.13	472.79
452.31	393.21
452.49	379.17
452.68	456.40
452.86	489.17
453.05	461.09
453.23	437.68
453.42	421.30
453.60	379.17
453.78	397.89
453.97	404.91
454.15	353.42
454.34	465.77
454.52	454.06
454.70	430.66
454.89	407.25
455.07	451.72
455.26	411.93
455.44	468.11
455.62	411.93
455.81	400.23
455.99	491.51
456.17	503.22
456.36	423.64
456.54	521.94
456.73	383.85
456.91	449.38
457.09	477.47
457.28	531.30
457.46	423.64
457.64	458.74
457.83	451.72
458.01	435.34
458.19	472.79
458.38	397.89
458.56	475.13
458.74	475.13
458.93	433.00
459.11	346.40
459.29	397.89
459.48	444.70
459.66	475.13
459.84	423.64
460.03	519.60
460.21	482.15
460.39	475.13
460.57	456.40
460.76	433.00
460.94	339.38
461.12	472.79
461.31	526.62
461.49	416.62
461.67	360.44
461.85	477.47
462.04	421.30
462.22	830.89
462.40	454.06
462.59	451.72
462.77	351.08
462.95	433.00
463.13	463.43
463.32	461.09
463.50	390.87
463.68	435.34
463.86	447.04
464.05	376.83
464.23	557.05
464.41	512.58
464.59	475.13
464.78	491.51
464.96	360.44
465.14	447.04
465.32	390.87
465.50	416.62
465.69	482.15
465.87	402.57
466.05	477.47
466.23	344.06
466.41	425.98
466.60	461.09
466.78	470.45
466.96	475.13
467.14	442.36
467.32	475.13
467.51	454.06
467.69	489.17
467.87	465.77
468.05	374.49
468.23	418.96
468.41	400.23
468.60	402.57
468.78	376.83
468.96	395.55
469.14	388.53
469.32	386.19
469.50	341.72
469.69	444.70
469.87	383.85
470.05	362.78
470.23	355.76
470.41	465.77
470.59	320.65
470.77	402.57
470.95	463.43
471.14	425.98
471.32	327.68
471.50	369.80
471.68	365.12
471.86	461.09
472.04	491.51
472.22	407.25
472.40	369.80
472.58	416.62
472.77	390.87
472.95	421.30
473.13	437.68
473.31	369.80
473.49	367.46
473.67	374.49
473.85	484.49
474.03	458.74
474.21	379.17
474.39	440.02
474.57	482.15
474.75	475.13
474.93	404.91
475.12	358.10
475.30	339.38
475.48	479.81
475.66	397.89
475.84	395.55
476.02	346.40
476.20	355.76
476.38	454.06
476.56	409.59
476.74	435.34
476.92	430.66
477.10	393.21
477.28	381.51
477.46	470.45
477.64	456.40
477.82	510.24
478.00	479.81
478.18	414.27
478.36	498.53
478.54	435.34
478.72	482.15
478.90	421.30
479.08	535.98
479.26	573.43
479.44	543.00
479.62	491.51
479.80	510.24
479.98	545.34
480.16	554.71
480.34	631.94
480.52	645.99
480.70	566.41
480.88	725.57
481.06	690.46
481.24	718.54
481.41	720.88
481.59	861.32
481.77	854.30
481.95	844.93
482.13	973.66
482.31	1013.45
482.49	1039.20
482.67	1156.22
482.85	1151.54
483.03	1266.23
483.21	1476.88
483.39	1500.28
483.57	1661.78
483.74	1610.29
483.92	1736.68
484.10	1776.47
484.28	1940.30
484.46	1933.28
484.64	2040.95
484.82	2071.37
485.00	2195.42
485.18	2452.88
485.35	2595.65
485.53	2637.78
485.71	2848.43
485.89	2951.42
486.07	3042.70
486.25	3007.59
486.43	3075.46
486.61	3101.21
486.78	3126.96
486.96	3152.70
487.14	2949.08
487.32	2958.44
487.50	3009.93
487.68	3082.49
487.85	2876.52
488.03	2925.67
488.21	2902.26
488.39	2803.96
488.57	2794.60
488.75	2738.43
488.92	2799.28
489.10	2607.36
489.28	2593.31
489.46	2499.69
489.64	2399.05
489.81	2401.39
489.99	2427.14
490.17	2305.43
490.35	2448.20
490.53	2363.94
490.70	2380.32
490.88	2356.92
491.06	2401.39
491.24	2532.46
491.41	2640.12
491.59	2462.24
491.77	2394.37
491.95	2172.02
492.13	2076.06
492.30	2153.29
492.48	2036.27
492.66	2033.93
492.84	1966.05
493.01	1991.80
493.19	1905.20
493.37	1919.24
493.54	1905.20
493.72	1926.26
493.90	1863.07
494.08	1846.68
494.25	1797.53
494.43	1771.79
494.61	1734.34
494.79	1713.27
494.96	1708.59
495.14	1701.57
495.32	1685.19
495.49	1533.05
495.67	1631.35
495.85	1521.35
496.02	1542.41
496.20	1511.99
496.38	1406.66
496.55	1528.37
496.73	1336.45
496.91	1444.11
497.09	1390.28
497.26	1399.64
497.44	1308.36
497.62	1299.00
497.79	1282.61
497.97	1350.49
498.14	1317.72
498.32	1308.36
498.50	1226.44
498.67	1179.63
498.85	1165.59
499.03	1249.85
499.20	1097.71
499.38	1093.03
499.56	1053.24
499.73	1137.50
499.91	1015.79
500.08	1067.28
500.26	1050.90
500.44	889.40
500.61	894.08
500.79	901.11
500.97	933.87
501.14	837.91
501.32	765.36
501.49	903.45
501.67	798.12
501.84	767.70
502.02	713.86
502.20	833.23
502.37	739.61
502.55	760.67
502.72	657.69
502.90	692.80
503.07	683.44
503.25	608.54
503.43	648.33
503.60	629.60
503.78	615.56
503.95	662.37
504.13	582.79
504.30	638.97
504.48	580.45
504.65	521.94
504.83	589.82
505.01	500.87
505.18	552.37
505.36	498.53
505.53	526.62
505.71	489.17
505.88	540.66
506.06	531.30
506.23	451.72
506.41	524.28
506.58	547.69
506.76	463.43
506.93	468.11
507.11	564.07
507.28	503.22
507.46	440.02
507.63	428.32
507.81	435.34
507.98	484.49
508.16	486.83
508.33	528.96
508.50	475.13
508.68	472.79
508.85	489.17
509.03	475.13
509.20	500.87
509.38	568.75
509.55	521.94
509.73	454.06
509.90	475.13
510.08	437.68
510.25	484.49
510.42	500.87
510.60	379.17
510.77	416.62
510.95	425.98
511.12	444.70
511.30	468.11
511.47	538.32
511.64	458.74
511.82	355.76
511.99	411.93
512.17	418.96
512.34	496.19
512.51	454.06
512.69	421.30
512.86	465.77
513.04	442.36
513.21	383.85
513.38	360.44
513.56	362.78
513.73	397.89
513.90	397.89
514.08	383.85
514.25	435.34
514.43	430.66
514.60	435.34
514.77	383.85
514.95	332.36
515.12	334.70
515.29	397.89
515.47	411.93
515.64	425.98
515.81	367.46
515.99	351.08
516.16	320.65
516.33	297.25
516.51	409.59
516.68	330.02
516.85	351.08
517.03	322.99
517.20	388.53
517.37	411.93
517.54	449.38
517.72	390.87
517.89	271.50
518.06	339.38
518.24	383.85
518.41	348.74
518.58	388.53
518.75	351.08
518.93	358.10
519.10	451.72
519.27	379.17
519.45	327.68
519.62	400.23
519.79	475.13
519.96	322.99
520.14	367.46
520.31	376.83
520.48	411.93
520.65	301.93
520.83	315.97
521.00	341.72
521.17	304.27
521.34	355.76
521.52	341.72
521.69	322.99
521.86	407.25
522.03	367.46
522.20	379.17
522.38	404.91
522.55	376.83
522.72	315.97
522.89	395.55
523.07	409.59
523.24	269.16
523.41	372.15
523.58	341.72
523.75	332.36
523.92	292.57
524.10	411.93
524.27	337.04
524.44	379.17
524.61	346.40
524.78	308.95
524.96	400.23
525.13	395.55
525.30	397.89
525.47	430.66
525.64	355.76
525.81	344.06
525.98	409.59
526.16	397.89
526.33	379.17
526.50	451.72
526.67	402.57
526.84	397.89
527.01	411.93
527.18	437.68
527.36	430.66
527.53	479.81
527.70	463.43
527.87	477.47
528.04	447.04
528.21	423.64
528.38	362.78
528.55	454.06
528.72	442.36
528.89	444.70
529.07	433.00
529.24	547.69
529.41	479.81
529.58	383.85
529.75	388.53
529.92	465.77
530.09	475.13
530.26	510.24
530.43	493.85
530.60	519.60
530.77	503.22
530.94	557.05
531.11	585.13
531.28	475.13
531.46	535.98
531.63	578.11
531.80	650.67
531.97	692.80
532.14	704.50
532.31	866.00
532.48	971.32
532.65	1224.10
532.82	1277.93
532.99	1563.48
533.16	1788.17
533.33	1811.57
533.50	1629.01
533.67	1420.71
533.84	1359.85
534.01	1221.76
534.18	1167.93
534.35	1071.97
534.52	1039.20
534.69	1116.44
534.86	1102.39
535.03	1142.18
535.20	1221.76
535.37	1369.21
535.54	1385.60
535.71	1394.96
535.88	1563.48
536.05	1577.52
536.22	1722.63
536.38	1760.08
536.55	1989.46
536.72	2267.98
536.89	2410.75
537.06	2750.13
537.23	2904.60
537.40	3447.61
537.57	3674.64
537.74	3761.24
537.91	3997.64
538.08	3971.89
538.25	4084.23
538.42	4021.04
538.59	4287.86
538.75	4329.99
538.92	4629.58
539.09	5107.05
539.26	5462.81
539.43	6260.93
539.60	7014.59
539.77	7850.16
539.94	8905.74
540.11	9877.06
540.28	10820.30
540.44	11740.13
540.61	13256.79
540.78	14876.44
540.95	18092.34
541.12	21722.51
541.29	24215.18
541.46	25486.09
541.62	25216.93
541.79	24271.36
541.96	22906.82
542.13	20816.72
542.30	19250.91
542.47	18249.16
542.63	17589.13
542.80	16898.67
542.97	16741.85
543.14	16734.83
543.31	16383.75
543.48	16379.07
543.64	16854.20
543.81	16805.05
543.98	16989.95
544.15	17151.45
544.32	17507.21
544.48	17184.21
544.65	17355.07
544.82	16582.70
544.99	16727.81
545.16	17341.03
545.32	17980.00
545.49	29317.55
545.66	52755.68
545.83	60013.68
546.00	55061.10
546.16	41345.56
546.33	30270.15
546.50	22160.19
546.67	17390.18
546.83	15403.07
547.00	14787.50
547.17	14083.00
547.34	13776.39
547.50	13057.85
547.67	12444.63
547.84	11857.15
548.00	11328.19
548.17	11049.67
548.34	10506.66
548.51	10380.28
548.67	10099.41
548.84	9455.76
549.01	9018.08
549.18	8428.27
549.34	8107.62
549.51	7878.24
549.68	7609.08
549.84	7265.02
550.01	7049.69
550.18	6719.68
550.34	6399.02
550.51	6132.20
550.68	5867.72
550.84	5472.17
551.01	5158.54
551.18	4856.61
551.34	4744.27
551.51	4432.97
551.68	4229.35
551.84	4292.54
552.01	3922.74
552.18	3815.07
552.34	3651.24
552.51	3531.87
552.68	3473.36
552.84	3183.13
553.01	3115.25
553.18	3077.80
553.34	2928.01
553.51	2857.79
553.67	2822.69
553.84	2738.43
554.01	2480.97
554.17	2258.62
554.34	2242.23
554.51	2012.86
554.67	2038.61
554.84	1919.24
555.00	1722.63
555.17	1727.32
555.33	1605.61
555.50	1554.12
555.67	1462.83
555.83	1504.96
556.00	1444.11
556.16	1434.75
556.33	1341.13
556.50	1217.08
556.66	1289.64
556.83	1266.23
556.99	1184.31
557.16	1081.33
557.32	1060.26
557.49	1046.22
557.65	919.83
557.82	1015.79
557.98	1029.84
558.15	992.39
558.32	887.06
558.48	931.53
558.65	1027.50
558.81	849.61
558.98	844.93
559.14	802.80
559.31	891.74
559.47	802.80
559.64	746.63
559.80	788.76
559.97	781.74
560.13	746.63
560.30	786.42
560.46	807.48
560.63	732.59
560.79	704.50
560.96	758.33
561.12	636.63
561.29	739.61
561.45	826.21
561.61	732.59
561.78	784.08
561.94	732.59
562.11	702.16
562.27	751.31
562.44	699.82
562.60	734.93
562.77	723.23
562.93	786.42
563.10	763.01
563.26	683.44
563.42	664.71
563.59	692.80
563.75	667.05
563.92	645.99
564.08	655.35
564.24	603.86
564.41	636.63
564.57	603.86
564.74	648.33
564.90	629.60
565.07	669.39
565.23	589.82
565.39	543.00
565.56	617.90
565.72	622.58
565.88	484.49
566.05	526.62
566.21	512.58
566.38	601.52
566.54	580.45
566.70	559.39
566.87	592.16
567.03	613.22
567.19	662.37
567.36	638.97
567.52	610.88
567.68	615.56
567.85	568.75
568.01	608.54
568.17	606.20
568.34	685.78
568.50	657.69
568.66	585.13
568.83	643.65
568.99	589.82
569.15	653.01
569.32	575.77
569.48	545.34
569.64	596.84
569.81	486.83
569.97	484.49
570.13	526.62
570.30	491.51
570.46	458.74
570.62	507.90
570.78	489.17
570.95	449.38
571.11	500.87
571.27	538.32
571.43	442.36
571.60	475.13
571.76	470.45
571.92	486.83
572.09	510.24
572.25	496.19
572.41	442.36
572.57	437.68
572.74	538.32
572.90	524.28
573.06	461.09
573.22	507.90
573.38	517.26
573.55	580.45
573.71	510.24
573.87	514.92
574.03	493.85
574.20	552.37
574.36	475.13
574.52	585.13
574.68	491.51
574.84	634.29
575.01	587.47
575.17	777.06
575.33	695.14
575.49	641.31
575.65	844.93
575.82	770.04
575.98	976.00
576.14	978.34
576.30	1865.41
576.46	6239.87
576.62	11119.89
576.79	12187.17
576.95	8840.20
577.11	5680.48
577.27	4088.92
577.43	2677.57
577.59	1753.06
577.75	1397.30
577.92	1270.91
578.08	1266.23
578.24	1186.65
578.40	2127.55
578.56	5757.72
578.72	10361.55
578.88	10932.64
579.04	7981.23
579.21	5408.98
579.37	4168.49
579.53	3229.94
579.69	2986.52
579.85	3709.75
580.01	4386.16
580.17	4299.56
580.33	3719.11
580.49	3028.65
580.65	2698.64
580.82	2663.53
580.98	2429.48
581.14	2644.81
581.30	2775.88
581.46	2913.97
581.62	3098.87
581.78	3269.73
581.94	3449.95
582.10	3655.92
582.26	3943.80
582.42	4051.47
582.58	4325.31
582.74	4236.37
582.90	4322.97
583.06	4421.27
583.22	4374.46
583.38	4320.63
583.54	4339.35
583.70	4140.41
583.86	4276.16
584.02	4109.98
584.18	4131.05
584.34	3992.95
584.50	3871.25
584.66	3868.91
584.82	3803.37
584.98	3784.65
585.14	3669.96
585.30	3576.34
585.46	3606.77
585.62	3639.53
585.78	3747.20
585.94	3630.17
586.10	3679.32
586.26	3929.76
586.42	4402.55
586.58	5081.30
586.74	6270.30
586.90	7754.19
587.06	8435.29
587.22	8479.76
587.38	7304.81
587.54	6354.55
587.70	5425.36
587.86	4575.75
588.02	3950.82
588.18	3529.53
588.34	3187.81
588.49	2860.13
588.65	2750.13
588.81	2516.08
588.97	2546.50
589.13	2487.99
589.29	2298.41
589.45	2399.05
589.61	2270.32
589.77	2352.24
589.93	2284.36
590.08	2422.45
590.24	2537.14
590.40	2700.98
590.56	2703.32
590.72	2752.47
590.88	2818.00
591.04	2825.03
591.20	2988.86
591.35	3056.74
591.51	3321.22
591.67	3571.66
591.83	3623.15
591.99	3932.10
592.15	4170.83
592.31	4559.36
592.46	4959.60
592.62	5369.19
592.78	5827.93
592.94	5844.32
593.10	5771.76
593.26	5764.74
593.41	5334.08
593.57	4718.52
593.73	3992.95
593.89	3644.21
594.05	3295.47
594.20	2874.18
594.36	2761.83
594.52	2696.30
594.68	2541.82
594.84	2392.03
594.99	2267.98
595.15	2169.68
595.31	2179.04
595.47	2134.57
595.62	2129.89
595.78	2094.78
595.94	2242.23
596.10	2157.97
596.25	2193.08
596.41	2078.40
596.57	2026.90
596.73	2136.91
596.88	2139.25
597.04	2115.84
597.20	2129.89
597.36	2286.70
597.51	2331.17
597.67	2291.38
597.83	2363.94
597.99	2464.58
598.14	2654.17
598.30	2850.77
598.46	3133.98
598.61	3180.79
598.77	3307.18
598.93	3342.28
599.09	3515.48
599.24	3571.66
599.40	3597.40
599.56	3550.59
599.71	3459.31
599.87	3033.33
600.03	2981.84
600.18	2766.51
600.34	2612.04
600.50	2495.01
600.65	2249.25
600.81	2172.02
600.97	2251.60
601.12	1923.92
601.28	1811.57
601.44	1860.73
601.59	1710.93
601.75	1774.13
601.91	1561.14
602.06	1544.75
602.22	1502.62
602.37	1446.45
602.53	1554.12
602.69	1432.41
602.84	1448.79
603.00	1376.24
603.16	1423.05
603.31	1549.43
603.47	1376.24
603.62	1495.60
603.78	1504.96
603.94	1528.37
604.09	1654.76
604.25	1469.86
604.40	1710.93
604.56	1603.27
604.71	1696.89
604.87	1664.12
605.03	1741.36
605.18	1734.34
605.34	1771.79
