SpectraSuite Data File
++++++++++++++++++++++++++++++++++++
Date: Fri Oct 04 11:41:42 GMT-05:00 2013
User: price-jones
Dark Spectrum Present: No
Reference Spectrum Present: No
Number of Sampled Component Spectra: 1
Spectrometers: USB2+H05261
Integration Time (usec): 100000 (USB2+H05261)
Spectra Averaged: 1 (USB2+H05261)
Boxcar Smoothing: 0 (USB2+H05261)
Correct for Electrical Dark: No (USB2+H05261)
Strobe/Lamp Enabled: No (USB2+H05261)
Correct for Detector Non-linearity: No (USB2+H05261)
Correct for Stray Light: No (USB2+H05261)
Number of Pixels in Processed Spectrum: 2048
>>>>>Begin Processed Spectral Data<<<<<
365.73	77.24
365.92	77.24
366.12	77.24
366.32	0.00
366.52	0.00
366.72	0.00
366.91	0.00
367.11	0.00
367.31	0.00
367.51	0.00
367.70	0.00
367.90	0.00
368.10	0.00
368.30	0.00
368.49	0.00
368.69	37.45
368.89	0.00
369.09	0.00
369.28	0.00
369.48	0.00
369.68	30.43
369.87	0.00
370.07	11.70
370.27	35.11
370.47	9.36
370.66	74.90
370.86	30.43
371.06	124.05
371.25	86.60
371.45	65.54
371.65	133.41
371.84	84.26
372.04	67.88
372.24	72.56
372.44	56.17
372.63	74.90
372.83	119.37
373.03	105.32
373.22	119.37
373.42	44.47
373.62	74.90
373.81	182.56
374.01	124.05
374.21	138.09
374.40	147.45
374.60	128.73
374.79	159.16
374.99	128.73
375.19	126.39
375.38	175.54
375.58	112.35
375.78	189.58
375.97	140.43
376.17	194.26
376.37	128.73
376.56	119.37
376.76	112.35
376.95	93.62
377.15	110.01
377.35	149.79
377.54	114.69
377.74	117.03
377.93	79.58
378.13	142.77
378.33	117.03
378.52	138.09
378.72	154.48
378.91	182.56
379.11	77.24
379.31	98.30
379.50	91.28
379.70	117.03
379.89	184.90
380.09	187.24
380.28	126.39
380.48	133.41
380.68	149.79
380.87	147.45
381.07	161.50
381.26	212.99
381.46	131.07
381.65	124.05
381.85	77.24
382.04	79.58
382.24	93.62
382.43	70.22
382.63	51.49
382.83	107.66
383.02	74.90
383.22	187.24
383.41	114.69
383.61	182.56
383.80	14.04
384.00	117.03
384.19	133.41
384.39	147.45
384.58	65.54
384.78	117.03
384.97	142.77
385.17	51.49
385.36	112.35
385.56	194.26
385.75	98.30
385.95	133.41
386.14	142.77
386.34	58.51
386.53	110.01
386.72	110.01
386.92	112.35
387.11	58.51
387.31	53.83
387.50	100.64
387.70	95.96
387.89	175.54
388.09	60.85
388.28	60.85
388.48	98.30
388.67	166.18
388.86	119.37
389.06	102.98
389.25	60.85
389.45	145.11
389.64	156.82
389.84	222.35
390.03	205.97
390.22	126.39
390.42	145.11
390.61	121.71
390.81	74.90
391.00	84.26
391.19	156.82
391.39	98.30
391.58	117.03
391.78	72.56
391.97	131.07
392.16	208.31
392.36	121.71
392.55	140.43
392.75	121.71
392.94	121.71
393.13	133.41
393.33	119.37
393.52	95.96
393.71	135.75
393.91	175.54
394.10	84.26
394.29	86.60
394.49	107.66
394.68	112.35
394.88	152.13
395.07	191.92
395.26	131.07
395.46	98.30
395.65	163.84
395.84	135.75
396.04	135.75
396.23	88.94
396.42	81.92
396.62	91.28
396.81	86.60
397.00	77.24
397.19	102.98
397.39	110.01
397.58	133.41
397.77	184.90
397.97	145.11
398.16	142.77
398.35	154.48
398.55	142.77
398.74	161.50
398.93	145.11
399.12	140.43
399.32	133.41
399.51	175.54
399.70	102.98
399.90	138.09
400.09	102.98
400.28	184.90
400.47	145.11
400.67	224.69
400.86	77.24
401.05	159.16
401.24	154.48
401.44	168.52
401.63	112.35
401.82	173.20
402.01	145.11
402.21	203.63
402.40	107.66
402.59	126.39
402.78	168.52
402.97	224.69
403.17	175.54
403.36	241.08
403.55	294.91
403.74	599.18
403.93	1764.76
404.13	4049.13
404.32	5032.15
404.51	4360.42
404.70	2633.10
404.89	950.26
405.09	369.80
405.28	248.10
405.47	170.86
405.66	180.22
405.85	224.69
406.05	126.39
406.24	88.94
406.43	191.92
406.62	133.41
406.81	203.63
407.00	327.68
407.20	505.56
407.39	755.99
407.58	711.52
407.77	524.28
407.96	299.59
408.15	161.50
408.34	147.45
408.54	168.52
408.73	149.79
408.92	180.22
409.11	170.86
409.30	236.39
409.49	152.13
409.68	177.88
409.87	124.05
410.07	117.03
410.26	189.58
410.45	252.78
410.64	222.35
410.83	173.20
411.02	173.20
411.21	189.58
411.40	189.58
411.59	159.16
411.78	170.86
411.98	187.24
412.17	227.03
412.36	149.79
412.55	159.16
412.74	205.97
412.93	224.69
413.12	252.78
413.31	222.35
413.50	149.79
413.69	163.84
413.88	212.99
414.07	259.80
414.26	163.84
414.45	191.92
414.64	250.44
414.83	166.18
415.02	250.44
415.22	280.86
415.41	220.01
415.60	269.16
415.79	229.37
415.98	184.90
416.17	280.86
416.36	255.12
416.55	243.42
416.74	168.52
416.93	217.67
417.12	238.73
417.31	245.76
417.50	278.52
417.69	210.65
417.88	203.63
418.07	252.78
418.26	224.69
418.45	194.26
418.64	306.61
418.83	234.05
419.02	304.27
419.21	255.12
419.39	243.42
419.58	177.88
419.77	234.05
419.96	308.95
420.15	262.14
420.34	264.48
420.53	264.48
420.72	229.37
420.91	196.60
421.10	175.54
421.29	238.73
421.48	217.67
421.67	245.76
421.86	229.37
422.05	198.95
422.24	250.44
422.43	175.54
422.61	222.35
422.80	269.16
422.99	238.73
423.18	220.01
423.37	297.25
423.56	266.82
423.75	327.68
423.94	215.33
424.13	236.39
424.32	168.52
424.50	255.12
424.69	269.16
424.88	250.44
425.07	201.29
425.26	337.04
425.45	245.76
425.64	266.82
425.83	278.52
426.01	283.20
426.20	334.70
426.39	287.89
426.58	322.99
426.77	283.20
426.96	327.68
427.15	297.25
427.33	248.10
427.52	327.68
427.71	262.14
427.90	262.14
428.09	210.65
428.28	322.99
428.46	318.31
428.65	269.16
428.84	255.12
429.03	306.61
429.22	245.76
429.40	238.73
429.59	276.18
429.78	322.99
429.97	259.80
430.16	294.91
430.34	229.37
430.53	287.89
430.72	376.83
430.91	337.04
431.10	266.82
431.28	330.02
431.47	332.36
431.66	315.97
431.85	297.25
432.03	388.53
432.22	327.68
432.41	365.12
432.60	411.93
432.79	330.02
432.97	383.85
433.16	444.70
433.35	428.32
433.54	517.26
433.72	517.26
433.91	543.00
434.10	493.85
434.28	615.56
434.47	802.80
434.66	873.02
434.85	976.00
435.03	2818.00
435.22	11044.99
435.41	23323.44
435.59	21804.43
435.78	14225.78
435.97	7248.64
436.16	2696.30
436.34	1076.65
436.53	662.37
436.72	503.22
436.90	479.81
437.09	395.55
437.28	423.64
437.46	416.62
437.65	444.70
437.84	463.43
438.02	313.63
438.21	416.62
438.40	341.72
438.58	390.87
438.77	376.83
438.96	327.68
439.14	355.76
439.33	428.32
439.52	388.53
439.70	360.44
439.89	435.34
440.08	404.91
440.26	407.25
440.45	367.46
440.63	407.25
440.82	393.21
441.01	351.08
441.19	421.30
441.38	360.44
441.57	425.98
441.75	416.62
441.94	414.27
442.12	458.74
442.31	393.21
442.50	411.93
442.68	351.08
442.87	362.78
443.05	322.99
443.24	365.12
443.43	442.36
443.61	358.10
443.80	355.76
443.98	388.53
444.17	379.17
444.35	421.30
444.54	358.10
444.73	379.17
444.91	461.09
445.10	390.87
445.28	367.46
445.47	337.04
445.65	355.76
445.84	341.72
446.02	332.36
446.21	360.44
446.39	365.12
446.58	393.21
446.77	369.80
446.95	362.78
447.14	379.17
447.32	470.45
447.51	400.23
447.69	337.04
447.88	435.34
448.06	379.17
448.25	416.62
448.43	430.66
448.62	362.78
448.80	313.63
448.99	332.36
449.17	397.89
449.36	376.83
449.54	360.44
449.73	344.06
449.91	407.25
450.10	369.80
450.28	468.11
450.46	449.38
450.65	374.49
450.83	397.89
451.02	393.21
451.20	313.63
451.39	351.08
451.57	306.61
451.76	346.40
451.94	285.55
452.13	418.96
452.31	388.53
452.49	341.72
452.68	362.78
452.86	346.40
453.05	402.57
453.23	344.06
453.42	348.74
453.60	402.57
453.78	400.23
453.97	360.44
454.15	400.23
454.34	276.18
454.52	332.36
454.70	365.12
454.89	367.46
455.07	390.87
455.26	407.25
455.44	337.04
455.62	358.10
455.81	409.59
455.99	355.76
456.17	437.68
456.36	360.44
456.54	367.46
456.73	330.02
456.91	379.17
457.09	360.44
457.28	454.06
457.46	397.89
457.64	372.15
457.83	372.15
458.01	395.55
458.19	346.40
458.38	308.95
458.56	353.42
458.74	428.32
458.93	362.78
459.11	348.74
459.29	301.93
459.48	409.59
459.66	390.87
459.84	390.87
460.03	571.09
460.21	402.57
460.39	395.55
460.57	414.27
460.76	287.89
460.94	304.27
461.12	425.98
461.31	358.10
461.49	379.17
461.67	318.31
461.85	355.76
462.04	383.85
462.22	533.64
462.40	290.23
462.59	367.46
462.77	337.04
462.95	381.51
463.13	306.61
463.32	341.72
463.50	372.15
463.68	400.23
463.86	362.78
464.05	374.49
464.23	365.12
464.41	355.76
464.59	402.57
464.78	348.74
464.96	355.76
465.14	367.46
465.32	236.39
465.50	341.72
465.69	376.83
465.87	299.59
466.05	400.23
466.23	280.86
466.41	374.49
466.60	381.51
466.78	423.64
466.96	404.91
467.14	365.12
467.32	299.59
467.51	348.74
467.69	299.59
467.87	306.61
468.05	337.04
468.23	353.42
468.41	351.08
468.60	315.97
468.78	311.29
468.96	362.78
469.14	297.25
469.32	301.93
469.50	325.33
469.69	444.70
469.87	320.65
470.05	311.29
470.23	283.20
470.41	313.63
470.59	334.70
470.77	344.06
470.95	395.55
471.14	454.06
471.32	311.29
471.50	346.40
471.68	397.89
471.86	390.87
472.04	262.14
472.22	376.83
472.40	339.38
472.58	311.29
472.77	313.63
472.95	238.73
473.13	351.08
473.31	355.76
473.49	304.27
473.67	306.61
473.85	348.74
474.03	355.76
474.21	287.89
474.39	318.31
474.57	358.10
474.75	444.70
474.93	297.25
475.12	301.93
475.30	362.78
475.48	344.06
475.66	395.55
475.84	353.42
476.02	397.89
476.20	451.72
476.38	294.91
476.56	379.17
476.74	369.80
476.92	365.12
477.10	383.85
477.28	409.59
477.46	351.08
477.64	414.27
477.82	379.17
478.00	360.44
478.18	416.62
478.36	327.68
478.54	351.08
478.72	416.62
478.90	470.45
479.08	421.30
479.26	456.40
479.44	393.21
479.62	386.19
479.80	486.83
479.98	458.74
480.16	440.02
480.34	531.30
480.52	524.28
480.70	554.71
480.88	634.29
481.06	557.05
481.24	603.86
481.41	554.71
481.59	734.93
481.77	692.80
481.95	634.29
482.13	758.33
482.31	786.42
482.49	866.00
482.67	936.21
482.85	1004.09
483.03	1048.56
483.21	1179.63
483.39	1149.20
483.57	1226.44
483.74	1327.08
483.92	1352.83
484.10	1472.20
484.28	1500.28
484.46	1575.18
484.64	1661.78
484.82	1689.87
485.00	1792.85
485.18	1961.37
485.35	2024.56
485.53	2001.16
485.71	2143.93
485.89	2190.74
486.07	2183.72
486.25	2242.23
486.43	2265.64
486.61	2293.72
486.78	2293.72
486.96	2408.41
487.14	2385.01
487.32	2277.34
487.50	2218.83
487.68	2263.30
487.85	2228.19
488.03	2361.60
488.21	2303.09
488.39	2139.25
488.57	2223.51
488.75	1994.14
488.92	2132.23
489.10	1900.52
489.28	1973.07
489.46	1923.92
489.64	1865.41
489.81	1827.96
489.99	1776.47
490.17	1755.40
490.35	1874.77
490.53	1694.55
490.70	1741.36
490.88	1804.55
491.06	1867.75
491.24	1984.77
491.41	2113.50
491.59	1954.35
491.77	1753.06
491.95	1645.40
492.13	1633.69
492.30	1547.09
492.48	1603.27
492.66	1554.12
492.84	1514.33
493.01	1465.18
493.19	1547.09
493.37	1441.77
493.54	1540.07
493.72	1483.90
493.90	1504.96
494.08	1334.11
494.25	1437.09
494.43	1486.24
494.61	1336.45
494.79	1254.53
494.96	1324.74
495.14	1310.70
495.32	1249.85
495.49	1219.42
495.67	1284.95
495.85	1247.51
496.02	1165.59
496.20	1238.14
496.38	1172.61
496.55	1163.25
496.73	1114.10
496.91	1102.39
497.09	1135.16
497.26	1060.26
497.44	1132.82
497.62	1015.79
497.79	1043.88
497.97	1095.37
498.14	990.05
498.32	961.96
498.50	896.43
498.67	1027.50
498.85	873.02
499.03	903.45
499.20	830.89
499.38	870.68
499.56	851.96
499.73	877.70
499.91	837.91
500.08	786.42
500.26	795.78
500.44	737.27
500.61	690.46
500.79	755.99
500.97	753.65
501.14	711.52
501.32	608.54
501.49	653.01
501.67	664.71
501.84	641.31
502.02	627.26
502.20	624.92
502.37	634.29
502.55	660.03
502.72	564.07
502.90	559.39
503.07	491.51
503.25	550.03
503.43	519.60
503.60	528.96
503.78	543.00
503.95	538.32
504.13	440.02
504.30	531.30
504.48	564.07
504.65	524.28
504.83	440.02
505.01	456.40
505.18	440.02
505.36	437.68
505.53	447.04
505.71	449.38
505.88	491.51
506.06	465.77
506.23	491.51
506.41	407.25
506.58	444.70
506.76	381.51
506.93	353.42
507.11	468.11
507.28	360.44
507.46	337.04
507.63	454.06
507.81	428.32
507.98	381.51
508.16	334.70
508.33	379.17
508.50	437.68
508.68	362.78
508.85	374.49
509.03	440.02
509.20	383.85
509.38	409.59
509.55	461.09
509.73	411.93
509.90	447.04
510.08	372.15
510.25	400.23
510.42	383.85
510.60	355.76
510.77	390.87
510.95	400.23
511.12	524.28
511.30	355.76
511.47	423.64
511.64	461.09
511.82	411.93
511.99	416.62
512.17	322.99
512.34	369.80
512.51	407.25
512.69	325.33
512.86	376.83
513.04	325.33
513.21	299.59
513.38	400.23
513.56	327.68
513.73	374.49
513.90	383.85
514.08	287.89
514.25	379.17
514.43	334.70
514.60	327.68
514.77	297.25
514.95	374.49
515.12	306.61
515.29	365.12
515.47	348.74
515.64	367.46
515.81	348.74
515.99	322.99
516.16	372.15
516.33	334.70
516.51	332.36
516.68	330.02
516.85	262.14
517.03	285.55
517.20	280.86
517.37	346.40
517.54	320.65
517.72	332.36
517.89	262.14
518.06	318.31
518.24	322.99
518.41	348.74
518.58	355.76
518.75	397.89
518.93	351.08
519.10	341.72
519.27	313.63
519.45	390.87
519.62	290.23
519.79	379.17
519.96	344.06
520.14	409.59
520.31	330.02
520.48	320.65
520.65	287.89
520.83	273.84
521.00	355.76
521.17	262.14
521.34	294.91
521.52	297.25
521.69	269.16
521.86	285.55
522.03	294.91
522.20	322.99
522.38	330.02
522.55	348.74
522.72	308.95
522.89	407.25
523.07	362.78
523.24	287.89
523.41	262.14
523.58	351.08
523.75	334.70
523.92	388.53
524.10	266.82
524.27	365.12
524.44	262.14
524.61	327.68
524.78	339.38
524.96	388.53
525.13	315.97
525.30	339.38
525.47	351.08
525.64	353.42
525.81	339.38
525.98	463.43
526.16	379.17
526.33	276.18
526.50	351.08
526.67	318.31
526.84	376.83
527.01	208.31
527.18	376.83
527.36	402.57
527.53	449.38
527.70	414.27
527.87	393.21
528.04	444.70
528.21	411.93
528.38	435.34
528.55	381.51
528.72	456.40
528.89	393.21
529.07	330.02
529.24	327.68
529.41	463.43
529.58	416.62
529.75	372.15
529.92	383.85
530.09	358.10
530.26	409.59
530.43	437.68
530.60	435.34
530.77	421.30
530.94	461.09
531.11	505.56
531.28	507.90
531.46	465.77
531.63	535.98
531.80	543.00
531.97	566.41
532.14	596.84
532.31	692.80
532.48	844.93
532.65	908.13
532.82	1011.11
532.99	1317.72
533.16	1376.24
533.33	1380.92
533.50	1294.32
533.67	1029.84
533.84	1006.43
534.01	971.32
534.18	887.06
534.35	830.89
534.52	844.93
534.69	915.15
534.86	964.30
535.03	973.66
535.20	957.28
535.37	1006.43
535.54	1034.52
535.71	1111.75
535.88	1238.14
536.05	1294.32
536.22	1336.45
536.38	1378.58
536.55	1570.50
536.72	1774.13
536.89	1944.99
537.06	2087.76
537.23	2359.26
537.40	2473.95
537.57	2675.23
537.74	2789.92
537.91	2904.60
538.08	3035.67
538.25	3009.93
538.42	3236.96
538.59	3152.70
538.75	3211.22
538.92	3538.89
539.09	3791.67
539.26	4180.20
539.43	4791.08
539.60	5310.68
539.77	5872.40
539.94	6579.25
540.11	7281.41
540.28	8248.05
540.44	8723.18
540.61	9701.52
540.78	11211.17
540.95	13598.51
541.12	15843.09
541.29	17605.51
541.46	18572.15
541.62	18405.97
541.79	17525.93
541.96	16353.32
542.13	14995.81
542.30	14146.20
542.47	13383.18
542.63	12638.89
542.80	12479.74
542.97	12189.51
543.14	12002.27
543.31	12004.61
543.48	12285.47
543.64	12140.36
543.81	12332.28
543.98	12776.98
544.15	12444.63
544.32	12475.06
544.48	12671.66
544.65	12372.07
544.82	12241.00
544.99	12418.88
545.16	12484.42
545.32	13586.81
545.49	23934.32
545.66	42843.51
545.83	49949.37
546.00	42012.62
546.16	28332.18
546.33	21205.25
546.50	15810.32
546.67	12437.61
546.83	11421.81
547.00	10710.29
547.17	10237.50
547.34	9762.37
547.50	9327.03
547.67	9046.17
547.84	8636.58
548.00	8360.39
548.17	8138.04
548.34	7751.85
548.51	7581.00
548.67	7475.67
548.84	7070.76
549.01	6340.51
549.18	6242.21
549.34	6043.26
549.51	6031.56
549.68	5568.13
549.84	5291.95
550.01	5109.39
550.18	5076.62
550.34	4746.61
550.51	4322.97
550.68	4411.91
550.84	4142.75
551.01	3833.80
551.18	3630.17
551.34	3475.70
551.51	3239.30
551.68	3236.96
551.84	3213.56
552.01	3103.55
552.18	2913.97
552.34	2836.73
552.51	2729.06
552.68	2541.82
552.84	2408.41
553.01	2368.62
553.18	2347.56
553.34	2230.53
553.51	2270.32
553.67	2045.63
553.84	2015.20
554.01	1921.58
554.17	1732.00
554.34	1645.40
554.51	1586.88
554.67	1490.92
554.84	1385.60
555.00	1359.85
555.17	1322.40
555.33	1214.74
555.50	1167.93
555.67	1146.86
555.83	1001.75
556.00	1041.54
556.16	1207.72
556.33	1018.13
556.50	987.71
556.66	933.87
556.83	908.13
556.99	880.04
557.16	863.66
557.32	826.21
557.49	887.06
557.65	938.55
557.82	800.46
557.98	779.40
558.15	760.67
558.32	706.84
558.48	753.65
558.65	695.14
558.81	748.97
558.98	699.82
559.14	755.99
559.31	727.91
559.47	608.54
559.64	622.58
559.80	603.86
559.97	627.26
560.13	594.50
560.30	620.24
560.46	578.11
560.63	596.84
560.79	566.41
560.96	702.16
561.12	592.16
561.29	620.24
561.45	587.47
561.61	643.65
561.78	676.41
561.94	641.31
562.11	638.97
562.27	617.90
562.44	582.79
562.60	657.69
562.77	580.45
562.93	533.64
563.10	547.69
563.26	608.54
563.42	557.05
563.59	550.03
563.75	505.56
563.92	503.22
564.08	477.47
564.24	535.98
564.41	601.52
564.57	580.45
564.74	547.69
564.90	517.26
565.07	545.34
565.23	514.92
565.39	444.70
565.56	465.77
565.72	465.77
565.88	482.15
566.05	507.90
566.21	528.96
566.38	477.47
566.54	451.72
566.70	472.79
566.87	489.17
567.03	472.79
567.19	587.47
567.36	444.70
567.52	423.64
567.68	554.71
567.85	547.69
568.01	552.37
568.17	451.72
568.34	517.26
568.50	543.00
568.66	514.92
568.83	627.26
568.99	472.79
569.15	543.00
569.32	496.19
569.48	519.60
569.64	472.79
569.81	458.74
569.97	465.77
570.13	447.04
570.30	351.08
570.46	402.57
570.62	409.59
570.78	411.93
570.95	360.44
571.11	407.25
571.27	402.57
571.43	315.97
571.60	348.74
571.76	393.21
571.92	433.00
572.09	351.08
572.25	409.59
572.41	433.00
572.57	440.02
572.74	463.43
572.90	390.87
573.06	444.70
573.22	416.62
573.38	482.15
573.55	461.09
573.71	503.22
573.87	451.72
574.03	351.08
574.20	463.43
574.36	442.36
574.52	493.85
574.68	440.02
574.84	440.02
575.01	433.00
575.17	482.15
575.33	517.26
575.49	519.60
575.65	671.73
575.82	664.71
575.98	746.63
576.14	758.33
576.30	1579.86
576.46	5158.54
576.62	7957.82
576.79	8505.51
576.95	5914.53
577.11	4046.79
577.27	3012.27
577.43	1991.80
577.59	1345.81
577.75	1025.15
577.92	1088.35
578.08	1001.75
578.24	1032.18
578.40	1760.08
578.56	4875.34
578.72	7424.18
578.88	7674.62
579.04	5666.44
579.21	3922.74
579.37	2913.97
579.53	2476.29
579.69	2490.33
579.85	2939.71
580.01	3234.62
580.17	3290.79
580.33	2679.91
580.49	2333.51
580.65	2085.42
580.82	2043.29
580.98	1802.21
581.14	1832.64
581.30	2078.40
581.46	2214.15
581.62	2317.13
581.78	2534.80
581.94	2731.41
582.10	2710.34
582.26	2834.39
582.42	3091.85
582.58	3126.96
582.74	3213.56
582.90	3108.23
583.06	3115.25
583.22	3094.19
583.38	3159.72
583.54	3152.70
583.70	3220.58
583.86	3187.81
584.02	3117.59
584.18	3133.98
584.34	2951.42
584.50	3012.27
584.66	2846.09
584.82	2892.90
584.98	2834.39
585.14	2789.92
585.30	2724.38
585.46	2825.03
585.62	2607.36
585.78	2686.94
585.94	2621.40
586.10	2654.17
586.26	2860.13
586.42	3222.92
586.58	3880.61
586.74	4772.35
586.90	5600.90
587.06	6155.61
587.22	5947.30
587.38	5301.31
587.54	4667.03
587.70	3929.76
587.86	3358.67
588.02	2883.54
588.18	2588.63
588.34	2368.62
588.49	2115.84
588.65	1952.01
588.81	1863.07
588.97	1860.73
589.13	1839.66
589.29	1825.62
589.45	1907.54
589.61	1795.19
589.77	1877.11
589.93	1902.86
590.08	1851.36
590.24	1863.07
590.40	1900.52
590.56	1956.69
590.72	2101.80
590.88	2017.54
591.04	2155.63
591.20	2314.79
591.35	2373.30
591.51	2459.90
591.67	2487.99
591.83	2715.02
591.99	2953.76
592.15	3307.18
592.31	3581.02
592.46	3819.75
592.62	4091.26
592.78	4278.50
592.94	4442.34
593.10	4432.97
593.26	4074.87
593.41	3894.65
593.57	3398.46
593.73	2899.92
593.89	2647.15
594.05	2277.34
594.20	2235.21
594.36	2040.95
594.52	1891.15
594.68	1804.55
594.84	1764.76
594.99	1818.60
595.15	1703.91
595.31	1650.08
595.47	1563.48
595.62	1633.69
595.78	1664.12
595.94	1631.35
596.10	1722.63
596.25	1596.25
596.41	1605.61
596.57	1619.65
596.73	1596.25
596.88	1586.88
597.04	1603.27
597.20	1621.99
597.36	1633.69
597.51	1661.78
597.67	1692.21
597.83	1732.00
597.99	2050.31
598.14	2104.14
598.30	2263.30
598.46	2303.09
598.61	2422.45
598.77	2356.92
598.93	2656.51
599.09	2689.28
599.24	2607.36
599.40	2609.70
599.56	2555.86
599.71	2471.61
599.87	2326.49
600.03	2223.51
600.18	2052.65
600.34	2054.99
600.50	1860.73
600.65	1673.48
600.81	1589.22
600.97	1537.73
601.12	1432.41
601.28	1336.45
601.44	1362.19
601.59	1282.61
601.75	1256.87
601.91	1303.68
602.06	1193.67
602.22	1261.55
602.37	1083.67
602.53	1057.92
602.69	1160.91
602.84	1083.67
603.00	1095.37
603.16	1128.14
603.31	1111.75
603.47	1196.01
603.62	1041.54
603.78	1219.42
603.94	1231.12
604.09	1151.54
604.25	1327.08
604.40	1235.80
604.56	1392.62
604.71	1345.81
604.87	1411.34
605.03	1301.34
605.18	1397.30
605.34	1500.28
605.49	1378.58
605.65	1416.02
605.80	1434.75
605.96	1556.46
