SpectraSuite Data File
++++++++++++++++++++++++++++++++++++
Date: Fri Oct 04 11:41:40 GMT-05:00 2013
User: price-jones
Dark Spectrum Present: No
Reference Spectrum Present: No
Number of Sampled Component Spectra: 1
Spectrometers: USB2+H05261
Integration Time (usec): 100000 (USB2+H05261)
Spectra Averaged: 1 (USB2+H05261)
Boxcar Smoothing: 0 (USB2+H05261)
Correct for Electrical Dark: No (USB2+H05261)
Strobe/Lamp Enabled: No (USB2+H05261)
Correct for Detector Non-linearity: No (USB2+H05261)
Correct for Stray Light: No (USB2+H05261)
Number of Pixels in Processed Spectrum: 2048
>>>>>Begin Processed Spectral Data<<<<<
365.73	14.04
365.92	14.04
366.12	14.04
366.32	0.00
366.52	0.00
366.72	0.00
366.91	0.00
367.11	0.00
367.31	0.00
367.51	0.00
367.70	0.00
367.90	0.00
368.10	0.00
368.30	0.00
368.49	0.00
368.69	0.00
368.89	0.00
369.09	0.00
369.28	0.00
369.48	0.00
369.68	7.02
369.87	0.00
370.07	14.04
370.27	49.15
370.47	32.77
370.66	28.09
370.86	25.75
371.06	58.51
371.25	140.43
371.45	128.73
371.65	42.13
371.84	56.17
372.04	39.79
372.24	46.81
372.44	0.00
372.63	100.64
372.83	74.90
373.03	95.96
373.22	119.37
373.42	44.47
373.62	88.94
373.81	102.98
374.01	149.79
374.21	133.41
374.40	84.26
374.60	107.66
374.79	135.75
374.99	70.22
375.19	65.54
375.38	203.63
375.58	180.22
375.78	142.77
375.97	166.18
376.17	177.88
376.37	152.13
376.56	121.71
376.76	110.01
376.95	56.17
377.15	147.45
377.35	135.75
377.54	121.71
377.74	138.09
377.93	110.01
378.13	53.83
378.33	135.75
378.52	107.66
378.72	117.03
378.91	95.96
379.11	0.00
379.31	135.75
379.50	67.88
379.70	138.09
379.89	110.01
380.09	60.85
380.28	88.94
380.48	117.03
380.68	135.75
380.87	100.64
381.07	119.37
381.26	161.50
381.46	159.16
381.65	194.26
381.85	70.22
382.04	65.54
382.24	93.62
382.43	100.64
382.63	0.00
382.83	74.90
383.02	145.11
383.22	145.11
383.41	163.84
383.61	88.94
383.80	149.79
384.00	142.77
384.19	81.92
384.39	72.56
384.58	112.35
384.78	72.56
384.97	105.32
385.17	98.30
385.36	67.88
385.56	173.20
385.75	58.51
385.95	35.11
386.14	88.94
386.34	84.26
386.53	124.05
386.72	124.05
386.92	105.32
387.11	81.92
387.31	107.66
387.50	121.71
387.70	138.09
387.89	119.37
388.09	79.58
388.28	63.19
388.48	133.41
388.67	114.69
388.86	110.01
389.06	77.24
389.25	121.71
389.45	100.64
389.64	93.62
389.84	117.03
390.03	58.51
390.22	95.96
390.42	124.05
390.61	56.17
390.81	98.30
391.00	100.64
391.19	175.54
391.39	145.11
391.58	86.60
391.78	168.52
391.97	81.92
392.16	63.19
392.36	152.13
392.55	168.52
392.75	140.43
392.94	138.09
393.13	63.19
393.33	53.83
393.52	117.03
393.71	112.35
393.91	145.11
394.10	93.62
394.29	53.83
394.49	159.16
394.68	72.56
394.88	126.39
395.07	147.45
395.26	196.60
395.46	138.09
395.65	91.28
395.84	161.50
396.04	168.52
396.23	133.41
396.42	77.24
396.62	124.05
396.81	154.48
397.00	124.05
397.19	121.71
397.39	140.43
397.58	135.75
397.77	184.90
397.97	98.30
398.16	140.43
398.35	79.58
398.55	77.24
398.74	163.84
398.93	93.62
399.12	131.07
399.32	112.35
399.51	65.54
399.70	112.35
399.90	119.37
400.09	126.39
400.28	121.71
400.47	100.64
400.67	166.18
400.86	86.60
401.05	142.77
401.24	112.35
401.44	126.39
401.63	133.41
401.82	156.82
402.01	105.32
402.21	112.35
402.40	152.13
402.59	84.26
402.78	133.41
402.97	72.56
403.17	70.22
403.36	72.56
403.55	128.73
403.74	184.90
403.93	161.50
404.13	222.35
404.32	271.50
404.51	252.78
404.70	189.58
404.89	166.18
405.09	138.09
405.28	117.03
405.47	133.41
405.66	37.45
405.85	84.26
406.05	217.67
406.24	98.30
406.43	119.37
406.62	110.01
406.81	149.79
407.00	140.43
407.20	154.48
407.39	140.43
407.58	159.16
407.77	189.58
407.96	196.60
408.15	91.28
408.34	152.13
408.54	140.43
408.73	175.54
408.92	154.48
409.11	138.09
409.30	159.16
409.49	112.35
409.68	100.64
409.87	98.30
410.07	152.13
410.26	173.20
410.45	91.28
410.64	135.75
410.83	84.26
411.02	131.07
411.21	191.92
411.40	152.13
411.59	95.96
411.78	74.90
411.98	91.28
412.17	180.22
412.36	95.96
412.55	102.98
412.74	149.79
412.93	156.82
413.12	86.60
413.31	166.18
413.50	121.71
413.69	173.20
413.88	121.71
414.07	105.32
414.26	126.39
414.45	91.28
414.64	168.52
414.83	88.94
415.02	138.09
415.22	180.22
415.41	112.35
415.60	140.43
415.79	180.22
415.98	128.73
416.17	180.22
416.36	98.30
416.55	105.32
416.74	191.92
416.93	182.56
417.12	180.22
417.31	135.75
417.50	121.71
417.69	201.29
417.88	107.66
418.07	112.35
418.26	117.03
418.45	93.62
418.64	166.18
418.83	203.63
419.02	210.65
419.21	128.73
419.39	126.39
419.58	201.29
419.77	145.11
419.96	194.26
420.15	147.45
420.34	163.84
420.53	114.69
420.72	107.66
420.91	142.77
421.10	177.88
421.29	79.58
421.48	117.03
421.67	163.84
421.86	149.79
422.05	147.45
422.24	163.84
422.43	177.88
422.61	86.60
422.80	184.90
422.99	112.35
423.18	166.18
423.37	182.56
423.56	217.67
423.75	117.03
423.94	128.73
424.13	154.48
424.32	126.39
424.50	145.11
424.69	126.39
424.88	173.20
425.07	105.32
425.26	60.85
425.45	152.13
425.64	119.37
425.83	191.92
426.01	175.54
426.20	131.07
426.39	166.18
426.58	177.88
426.77	156.82
426.96	208.31
427.15	105.32
427.33	142.77
427.52	135.75
427.71	102.98
427.90	112.35
428.09	135.75
428.28	175.54
428.46	168.52
428.65	180.22
428.84	236.39
429.03	140.43
429.22	152.13
429.40	119.37
429.59	114.69
429.78	163.84
429.97	102.98
430.16	142.77
430.34	159.16
430.53	112.35
430.72	152.13
430.91	224.69
431.10	138.09
431.28	142.77
431.47	145.11
431.66	208.31
431.85	198.95
432.03	177.88
432.22	191.92
432.41	187.24
432.60	208.31
432.79	205.97
432.97	210.65
433.16	51.49
433.35	184.90
433.54	166.18
433.72	86.60
433.91	252.78
434.10	168.52
434.28	93.62
434.47	184.90
434.66	138.09
434.85	201.29
435.03	299.59
435.22	662.37
435.41	1383.26
435.59	1423.05
435.78	1022.81
435.97	552.37
436.16	304.27
436.34	220.01
436.53	187.24
436.72	149.79
436.90	222.35
437.09	173.20
437.28	145.11
437.46	210.65
437.65	159.16
437.84	189.58
438.02	102.98
438.21	201.29
438.40	175.54
438.58	135.75
438.77	147.45
438.96	257.46
439.14	224.69
439.33	220.01
439.52	217.67
439.70	100.64
439.89	168.52
440.08	163.84
440.26	140.43
440.45	205.97
440.63	140.43
440.82	210.65
441.01	184.90
441.19	166.18
441.38	180.22
441.57	145.11
441.75	201.29
441.94	173.20
442.12	77.24
442.31	88.94
442.50	133.41
442.68	119.37
442.87	159.16
443.05	159.16
443.24	152.13
443.43	170.86
443.61	259.80
443.80	177.88
443.98	147.45
444.17	117.03
444.35	133.41
444.54	182.56
444.73	212.99
444.91	234.05
445.10	114.69
445.28	210.65
445.47	189.58
445.65	191.92
445.84	212.99
446.02	163.84
446.21	93.62
446.39	74.90
446.58	201.29
446.77	161.50
446.95	133.41
447.14	217.67
447.32	149.79
447.51	133.41
447.69	149.79
447.88	187.24
448.06	173.20
448.25	189.58
448.43	159.16
448.62	168.52
448.80	236.39
448.99	154.48
449.17	138.09
449.36	208.31
449.54	210.65
449.73	196.60
449.91	250.44
450.10	175.54
450.28	243.42
450.46	243.42
450.65	220.01
450.83	217.67
451.02	194.26
451.20	161.50
451.39	154.48
451.57	133.41
451.76	107.66
451.94	217.67
452.13	198.95
452.31	128.73
452.49	220.01
452.68	175.54
452.86	234.05
453.05	224.69
453.23	208.31
453.42	156.82
453.60	182.56
453.78	189.58
453.97	191.92
454.15	135.75
454.34	210.65
454.52	177.88
454.70	212.99
454.89	95.96
455.07	222.35
455.26	175.54
455.44	114.69
455.62	121.71
455.81	166.18
455.99	198.95
456.17	173.20
456.36	182.56
456.54	93.62
456.73	145.11
456.91	166.18
457.09	205.97
457.28	255.12
457.46	203.63
457.64	135.75
457.83	177.88
458.01	175.54
458.19	189.58
458.38	222.35
458.56	79.58
458.74	149.79
458.93	177.88
459.11	184.90
459.29	161.50
459.48	168.52
459.66	187.24
459.84	133.41
460.03	220.01
460.21	255.12
460.39	224.69
460.57	236.39
460.76	191.92
460.94	203.63
461.12	301.93
461.31	229.37
461.49	266.82
461.67	175.54
461.85	196.60
462.04	187.24
462.22	358.10
462.40	184.90
462.59	166.18
462.77	170.86
462.95	191.92
463.13	259.80
463.32	177.88
463.50	159.16
463.68	189.58
463.86	175.54
464.05	234.05
464.23	166.18
464.41	156.82
464.59	98.30
464.78	147.45
464.96	117.03
465.14	217.67
465.32	205.97
465.50	166.18
465.69	215.33
465.87	234.05
466.05	259.80
466.23	182.56
466.41	182.56
466.60	212.99
466.78	255.12
466.96	184.90
467.14	224.69
467.32	175.54
467.51	121.71
467.69	222.35
467.87	147.45
468.05	163.84
468.23	243.42
468.41	224.69
468.60	156.82
468.78	180.22
468.96	259.80
469.14	196.60
469.32	236.39
469.50	156.82
469.69	231.71
469.87	220.01
470.05	184.90
470.23	126.39
470.41	175.54
470.59	154.48
470.77	203.63
470.95	205.97
471.14	250.44
471.32	163.84
471.50	222.35
471.68	140.43
471.86	203.63
472.04	159.16
472.22	147.45
472.40	182.56
472.58	222.35
472.77	128.73
472.95	191.92
473.13	234.05
473.31	201.29
473.49	84.26
473.67	135.75
473.85	135.75
474.03	98.30
474.21	215.33
474.39	217.67
474.57	145.11
474.75	140.43
474.93	142.77
475.12	149.79
475.30	121.71
475.48	184.90
475.66	124.05
475.84	198.95
476.02	154.48
476.20	212.99
476.38	173.20
476.56	259.80
476.74	255.12
476.92	205.97
477.10	215.33
477.28	215.33
477.46	180.22
477.64	173.20
477.82	159.16
478.00	224.69
478.18	161.50
478.36	170.86
478.54	180.22
478.72	184.90
478.90	201.29
479.08	264.48
479.26	259.80
479.44	222.35
479.62	175.54
479.80	210.65
479.98	217.67
480.16	215.33
480.34	224.69
480.52	208.31
480.70	131.07
480.88	128.73
481.06	210.65
481.24	222.35
481.41	271.50
481.59	208.31
481.77	231.71
481.95	212.99
482.13	292.57
482.31	304.27
482.49	243.42
482.67	266.82
482.85	248.10
483.03	217.67
483.21	250.44
483.39	280.86
483.57	283.20
483.74	280.86
483.92	245.76
484.10	166.18
484.28	299.59
484.46	365.12
484.64	278.52
484.82	245.76
485.00	299.59
485.18	283.20
485.35	383.85
485.53	355.76
485.71	383.85
485.89	271.50
486.07	313.63
486.25	344.06
486.43	280.86
486.61	358.10
486.78	290.23
486.96	355.76
487.14	337.04
487.32	468.11
487.50	365.12
487.68	355.76
487.85	313.63
488.03	269.16
488.21	327.68
488.39	355.76
488.57	327.68
488.75	276.18
488.92	627.26
489.10	376.83
489.28	315.97
489.46	306.61
489.64	252.78
489.81	299.59
489.99	355.76
490.17	362.78
490.35	367.46
490.53	346.40
490.70	283.20
490.88	290.23
491.06	367.46
491.24	362.78
491.41	320.65
491.59	287.89
491.77	283.20
491.95	330.02
492.13	341.72
492.30	318.31
492.48	299.59
492.66	325.33
492.84	203.63
493.01	297.25
493.19	320.65
493.37	330.02
493.54	259.80
493.72	341.72
493.90	320.65
494.08	301.93
494.25	332.36
494.43	409.59
494.61	306.61
494.79	220.01
494.96	306.61
495.14	334.70
495.32	283.20
495.49	308.95
495.67	231.71
495.85	325.33
496.02	346.40
496.20	264.48
496.38	318.31
496.55	276.18
496.73	315.97
496.91	311.29
497.09	299.59
497.26	266.82
497.44	294.91
497.62	337.04
497.79	245.76
497.97	198.95
498.14	262.14
498.32	273.84
498.50	266.82
498.67	287.89
498.85	308.95
499.03	227.03
499.20	248.10
499.38	266.82
499.56	252.78
499.73	306.61
499.91	297.25
500.08	231.71
500.26	262.14
500.44	280.86
500.61	276.18
500.79	236.39
500.97	250.44
501.14	271.50
501.32	257.46
501.49	280.86
501.67	252.78
501.84	250.44
502.02	245.76
502.20	245.76
502.37	250.44
502.55	264.48
502.72	177.88
502.90	220.01
503.07	301.93
503.25	297.25
503.43	191.92
503.60	212.99
503.78	243.42
503.95	238.73
504.13	262.14
504.30	229.37
504.48	220.01
504.65	271.50
504.83	224.69
505.01	201.29
505.18	276.18
505.36	238.73
505.53	278.52
505.71	236.39
505.88	236.39
506.06	278.52
506.23	339.38
506.41	212.99
506.58	231.71
506.76	262.14
506.93	276.18
507.11	212.99
507.28	161.50
507.46	121.71
507.63	365.12
507.81	238.73
507.98	201.29
508.16	217.67
508.33	215.33
508.50	236.39
508.68	236.39
508.85	294.91
509.03	194.26
509.20	201.29
509.38	346.40
509.55	339.38
509.73	220.01
509.90	278.52
510.08	191.92
510.25	259.80
510.42	250.44
510.60	191.92
510.77	278.52
510.95	315.97
511.12	266.82
511.30	283.20
511.47	243.42
511.64	180.22
511.82	273.84
511.99	234.05
512.17	287.89
512.34	271.50
512.51	250.44
512.69	229.37
512.86	283.20
513.04	241.08
513.21	325.33
513.38	362.78
513.56	217.67
513.73	189.58
513.90	250.44
514.08	201.29
514.25	198.95
514.43	280.86
514.60	224.69
514.77	229.37
514.95	215.33
515.12	313.63
515.29	255.12
515.47	278.52
515.64	224.69
515.81	325.33
515.99	278.52
516.16	252.78
516.33	259.80
516.51	266.82
516.68	231.71
516.85	255.12
517.03	271.50
517.20	194.26
517.37	297.25
517.54	264.48
517.72	170.86
517.89	205.97
518.06	168.52
518.24	266.82
518.41	205.97
518.58	177.88
518.75	217.67
518.93	264.48
519.10	231.71
519.27	238.73
519.45	271.50
519.62	290.23
519.79	266.82
519.96	259.80
520.14	337.04
520.31	250.44
520.48	290.23
520.65	229.37
520.83	238.73
521.00	280.86
521.17	245.76
521.34	201.29
521.52	203.63
521.69	299.59
521.86	241.08
522.03	318.31
522.20	257.46
522.38	250.44
522.55	262.14
522.72	170.86
522.89	243.42
523.07	330.02
523.24	259.80
523.41	250.44
523.58	236.39
523.75	299.59
523.92	280.86
524.10	257.46
524.27	280.86
524.44	280.86
524.61	266.82
524.78	283.20
524.96	238.73
525.13	248.10
525.30	198.95
525.47	304.27
525.64	269.16
525.81	301.93
525.98	273.84
526.16	264.48
526.33	229.37
526.50	243.42
526.67	198.95
526.84	227.03
527.01	248.10
527.18	283.20
527.36	266.82
527.53	252.78
527.70	273.84
527.87	231.71
528.04	325.33
528.21	285.55
528.38	210.65
528.55	269.16
528.72	231.71
528.89	327.68
529.07	224.69
529.24	259.80
529.41	278.52
529.58	280.86
529.75	236.39
529.92	287.89
530.09	257.46
530.26	322.99
530.43	315.97
530.60	238.73
530.77	278.52
530.94	264.48
531.11	269.16
531.28	257.46
531.46	273.84
531.63	287.89
531.80	276.18
531.97	271.50
532.14	285.55
532.31	311.29
532.48	297.25
532.65	259.80
532.82	294.91
532.99	313.63
533.16	276.18
533.33	308.95
533.50	369.80
533.67	348.74
533.84	318.31
534.01	353.42
534.18	294.91
534.35	308.95
534.52	238.73
534.69	393.21
534.86	262.14
535.03	322.99
535.20	301.93
535.37	376.83
535.54	362.78
535.71	299.59
535.88	369.80
536.05	327.68
536.22	376.83
536.38	358.10
536.55	369.80
536.72	482.15
536.89	418.96
537.06	386.19
537.23	454.06
537.40	444.70
537.57	360.44
537.74	475.13
537.91	465.77
538.08	465.77
538.25	463.43
538.42	437.68
538.59	484.49
538.75	517.26
538.92	521.94
539.09	533.64
539.26	456.40
539.43	514.92
539.60	660.03
539.77	713.86
539.94	709.18
540.11	662.37
540.28	826.21
540.44	870.68
540.61	959.62
540.78	987.71
540.95	1153.88
541.12	1359.85
541.29	1418.36
541.46	1521.35
541.62	1610.29
541.79	1544.75
541.96	1376.24
542.13	1315.38
542.30	1343.47
542.47	1315.38
542.63	1261.55
542.80	1256.87
542.97	1313.04
543.14	1266.23
543.31	1294.32
543.48	1249.85
543.64	1252.19
543.81	1322.40
543.98	1198.35
544.15	1242.82
544.32	1186.65
544.48	1186.65
544.65	1256.87
544.82	1167.93
544.99	1179.63
545.16	1179.63
545.32	1174.95
545.49	1853.70
545.66	2869.50
545.83	3740.18
546.00	3375.05
546.16	2326.49
546.33	1652.42
546.50	1310.70
546.67	1235.80
546.83	1064.94
547.00	1020.47
547.17	924.51
547.34	947.92
547.50	835.57
547.67	828.55
547.84	891.74
548.00	851.96
548.17	774.72
548.34	812.17
548.51	805.14
548.67	763.01
548.84	741.95
549.01	685.78
549.18	648.33
549.34	629.60
549.51	627.26
549.68	671.73
549.84	681.10
550.01	643.65
550.18	608.54
550.34	727.91
550.51	645.99
550.68	493.85
550.84	587.47
551.01	547.69
551.18	521.94
551.34	526.62
551.51	477.47
551.68	407.25
551.84	552.37
552.01	458.74
552.18	507.90
552.34	472.79
552.51	393.21
552.68	463.43
552.84	409.59
553.01	379.17
553.18	411.93
553.34	360.44
553.51	442.36
553.67	358.10
553.84	409.59
554.01	425.98
554.17	430.66
554.34	372.15
554.51	339.38
554.67	330.02
554.84	322.99
555.00	315.97
555.17	287.89
555.33	397.89
555.50	327.68
555.67	322.99
555.83	290.23
556.00	315.97
556.16	407.25
556.33	383.85
556.50	308.95
556.66	271.50
556.83	292.57
556.99	273.84
557.16	341.72
557.32	287.89
557.49	308.95
557.65	318.31
557.82	287.89
557.98	287.89
558.15	283.20
558.32	243.42
558.48	271.50
558.65	173.20
558.81	344.06
558.98	304.27
559.14	339.38
559.31	238.73
559.47	353.42
559.64	271.50
559.80	205.97
559.97	297.25
560.13	220.01
560.30	210.65
560.46	236.39
560.63	215.33
560.79	285.55
560.96	245.76
561.12	220.01
561.29	276.18
561.45	205.97
561.61	311.29
561.78	339.38
561.94	285.55
562.11	283.20
562.27	344.06
562.44	264.48
562.60	210.65
562.77	245.76
562.93	376.83
563.10	362.78
563.26	358.10
563.42	332.36
563.59	273.84
563.75	306.61
563.92	271.50
564.08	257.46
564.24	257.46
564.41	355.76
564.57	241.08
564.74	229.37
564.90	299.59
565.07	203.63
565.23	271.50
565.39	215.33
565.56	306.61
565.72	234.05
565.88	241.08
566.05	222.35
566.21	227.03
566.38	227.03
566.54	308.95
566.70	252.78
566.87	236.39
567.03	283.20
567.19	231.71
567.36	198.95
567.52	248.10
567.68	266.82
567.85	159.16
568.01	220.01
568.17	208.31
568.34	290.23
568.50	283.20
568.66	198.95
568.83	262.14
568.99	220.01
569.15	278.52
569.32	243.42
569.48	198.95
569.64	252.78
569.81	220.01
569.97	273.84
570.13	299.59
570.30	229.37
570.46	266.82
570.62	257.46
570.78	266.82
570.95	264.48
571.11	327.68
571.27	313.63
571.43	262.14
571.60	238.73
571.76	210.65
571.92	292.57
572.09	191.92
572.25	236.39
572.41	147.45
572.57	231.71
572.74	269.16
572.90	252.78
573.06	222.35
573.22	250.44
573.38	318.31
573.55	306.61
573.71	271.50
573.87	243.42
574.03	163.84
574.20	224.69
574.36	250.44
574.52	297.25
574.68	257.46
574.84	217.67
575.01	191.92
575.17	252.78
575.33	224.69
575.49	248.10
575.65	276.18
575.82	238.73
575.98	332.36
576.14	266.82
576.30	386.19
576.46	617.90
576.62	760.67
576.79	863.66
576.95	713.86
577.11	498.53
577.27	447.04
577.43	379.17
577.59	409.59
577.75	337.04
577.92	311.29
578.08	248.10
578.24	273.84
578.40	332.36
578.56	524.28
578.72	849.61
578.88	877.70
579.04	650.67
579.21	517.26
579.37	440.02
579.53	365.12
579.69	327.68
579.85	440.02
580.01	519.60
580.17	414.27
580.33	454.06
580.49	416.62
580.65	339.38
580.82	400.23
580.98	362.78
581.14	379.17
581.30	430.66
581.46	330.02
581.62	423.64
581.78	337.04
581.94	479.81
582.10	484.49
582.26	458.74
582.42	465.77
582.58	472.79
582.74	470.45
582.90	496.19
583.06	538.32
583.22	463.43
583.38	463.43
583.54	496.19
583.70	475.13
583.86	538.32
584.02	524.28
584.18	554.71
584.34	451.72
584.50	402.57
584.66	421.30
584.82	383.85
584.98	365.12
585.14	461.09
585.30	428.32
585.46	390.87
585.62	416.62
585.78	353.42
585.94	435.34
586.10	433.00
586.26	388.53
586.42	477.47
586.58	545.34
586.74	528.96
586.90	671.73
587.06	662.37
587.22	683.44
587.38	580.45
587.54	596.84
587.70	653.01
587.86	458.74
588.02	423.64
588.18	414.27
588.34	500.87
588.49	344.06
588.65	367.46
588.81	365.12
588.97	327.68
589.13	360.44
589.29	283.20
589.45	404.91
589.61	330.02
589.77	425.98
589.93	315.97
590.08	407.25
590.24	269.16
590.40	379.17
590.56	374.49
590.72	341.72
590.88	330.02
591.04	330.02
591.20	395.55
591.35	449.38
591.51	411.93
591.67	327.68
591.83	372.15
591.99	414.27
592.15	409.59
592.31	461.09
592.46	496.19
592.62	510.24
592.78	510.24
592.94	496.19
593.10	568.75
593.26	493.85
593.41	500.87
593.57	561.73
593.73	491.51
593.89	454.06
594.05	416.62
594.20	327.68
594.36	397.89
594.52	308.95
594.68	215.33
594.84	355.76
594.99	386.19
595.15	234.05
595.31	283.20
595.47	418.96
595.62	299.59
595.78	337.04
595.94	362.78
596.10	276.18
596.25	330.02
596.41	292.57
596.57	294.91
596.73	231.71
596.88	248.10
597.04	262.14
597.20	330.02
597.36	337.04
597.51	332.36
597.67	379.17
597.83	425.98
597.99	341.72
598.14	332.36
598.30	379.17
598.46	257.46
598.61	355.76
598.77	404.91
598.93	409.59
599.09	379.17
599.24	346.40
599.40	440.02
599.56	454.06
599.71	409.59
599.87	322.99
600.03	362.78
600.18	353.42
600.34	386.19
600.50	393.21
600.65	337.04
600.81	344.06
600.97	245.76
601.12	365.12
601.28	325.33
601.44	390.87
601.59	224.69
601.75	273.84
601.91	262.14
602.06	278.52
602.22	304.27
602.37	299.59
602.53	301.93
602.69	402.57
602.84	245.76
603.00	229.37
603.16	318.31
603.31	365.12
603.47	278.52
603.62	322.99
603.78	325.33
603.94	318.31
604.09	276.18
604.25	313.63
604.40	341.72
604.56	301.93
604.71	393.21
604.87	315.97
605.03	264.48
605.18	346.40
605.34	365.12
605.49	362.78
605.65	304.27
605.80	325.33
605.96	292.57
606.12	322.99
606.27	315.97
606.43	376.83
606.58	365.12
606.74	362.78
606.89	297.25
607.05	418.96
607.20	393.21
607.36	465.77
607.51	388.53
607.67	358.10
607.82	458.74
607.98	468.11
608.13	442.36
608.29	442.36
608.44	484.49
608.60	486.83
608.75	592.16
608.91	514.92
609.06	608.54
609.22	521.94
609.37	622.58
609.53	695.14
609.68	828.55
609.84	844.93
609.99	966.64
610.15	1116.44
610.30	1303.68
610.46	1556.46
610.61	1926.26
610.76	2527.78
610.92	2984.18
611.07	3377.39
611.23	3550.59
