SpectraSuite Data File
++++++++++++++++++++++++++++++++++++
Date: Fri Oct 04 11:42:22 GMT-05:00 2013
User: price-jones
Dark Spectrum Present: No
Reference Spectrum Present: No
Number of Sampled Component Spectra: 1
Spectrometers: USB2+H05261
Integration Time (usec): 100000 (USB2+H05261)
Spectra Averaged: 1 (USB2+H05261)
Boxcar Smoothing: 0 (USB2+H05261)
Correct for Electrical Dark: No (USB2+H05261)
Strobe/Lamp Enabled: No (USB2+H05261)
Correct for Detector Non-linearity: No (USB2+H05261)
Correct for Stray Light: No (USB2+H05261)
Number of Pixels in Processed Spectrum: 2048
>>>>>Begin Processed Spectral Data<<<<<
365.73	51.49
365.92	51.49
366.12	51.49
366.32	0.00
366.52	0.00
366.72	0.00
366.91	0.00
367.11	0.00
367.31	0.00
367.51	0.00
367.70	0.00
367.90	0.00
368.10	0.00
368.30	0.00
368.49	0.00
368.69	0.00
368.89	0.00
369.09	7.02
369.28	2.34
369.48	0.00
369.68	0.00
369.87	9.36
370.07	32.77
370.27	39.79
370.47	142.77
370.66	306.61
370.86	341.72
371.06	388.53
371.25	425.98
371.45	299.59
371.65	339.38
371.84	416.62
372.04	315.97
372.24	344.06
372.44	358.10
372.63	374.49
372.83	414.27
373.03	407.25
373.22	311.29
373.42	304.27
373.62	458.74
373.81	411.93
374.01	383.85
374.21	369.80
374.40	315.97
374.60	355.76
374.79	402.57
374.99	388.53
375.19	470.45
375.38	491.51
375.58	430.66
375.78	465.77
375.97	433.00
376.17	550.03
376.37	465.77
376.56	400.23
376.76	472.79
376.95	484.49
377.15	585.13
377.35	631.94
377.54	496.19
377.74	550.03
377.93	571.09
378.13	550.03
378.33	589.82
378.52	550.03
378.72	498.53
378.91	580.45
379.11	507.90
379.31	395.55
379.50	451.72
379.70	533.64
379.89	587.47
380.09	528.96
380.28	472.79
380.48	496.19
380.68	505.56
380.87	538.32
381.07	512.58
381.26	433.00
381.46	428.32
381.65	512.58
381.85	435.34
382.04	395.55
382.24	421.30
382.43	440.02
382.63	362.78
382.83	379.17
383.02	423.64
383.22	475.13
383.41	355.76
383.61	402.57
383.80	423.64
384.00	454.06
384.19	496.19
384.39	505.56
384.58	524.28
384.78	557.05
384.97	578.11
385.17	559.39
385.36	454.06
385.56	496.19
385.75	477.47
385.95	484.49
386.14	561.73
386.34	503.22
386.53	554.71
386.72	561.73
386.92	538.32
387.11	578.11
387.31	582.79
387.50	580.45
387.70	514.92
387.89	482.15
388.09	573.43
388.28	585.13
388.48	566.41
388.67	603.86
388.86	533.64
389.06	578.11
389.25	669.39
389.45	678.76
389.64	685.78
389.84	636.63
390.03	613.22
390.22	622.58
390.42	667.05
390.61	615.56
390.81	744.29
391.00	730.25
391.19	741.95
391.39	713.86
391.58	657.69
391.78	692.80
391.97	601.52
392.16	568.75
392.36	580.45
392.55	521.94
392.75	437.68
392.94	414.27
393.13	447.04
393.33	428.32
393.52	447.04
393.71	500.87
393.91	664.71
394.10	655.35
394.29	716.20
394.49	692.80
394.68	781.74
394.88	777.06
395.07	786.42
395.26	793.44
395.46	786.42
395.65	807.48
395.84	580.45
396.04	676.41
396.23	407.25
396.42	393.21
396.62	449.38
396.81	514.92
397.00	657.69
397.19	788.76
397.39	833.23
397.58	830.89
397.77	912.81
397.97	908.13
398.16	910.47
398.35	1013.45
398.55	997.07
398.74	1076.65
398.93	1048.56
399.12	1008.77
399.32	1029.84
399.51	1022.81
399.70	983.02
399.90	1004.09
400.09	1015.79
400.28	992.39
400.47	990.05
400.67	1130.48
400.86	1151.54
401.05	1064.94
401.24	1158.57
401.44	1256.87
401.63	1210.06
401.82	1203.04
402.01	1100.05
402.21	1083.67
402.40	1146.86
402.59	1053.24
402.78	1071.97
402.97	1057.92
403.17	1046.22
403.36	1196.01
403.55	1240.48
403.74	1184.31
403.93	1214.74
404.13	1254.53
404.32	1086.01
404.51	1214.74
404.70	1181.97
404.89	1125.80
405.09	1224.10
405.28	1144.52
405.47	1151.54
405.66	1153.88
405.85	1088.35
406.05	1090.69
406.24	1086.01
406.43	1053.24
406.62	1160.91
406.81	1191.33
407.00	1093.03
407.20	1055.58
407.39	1142.18
407.58	1177.29
407.77	1186.65
407.96	1240.48
408.15	1277.93
408.34	1270.91
408.54	1233.46
408.73	1350.49
408.92	1327.08
409.11	1263.89
409.30	1210.06
409.49	1170.27
409.68	1097.71
409.87	1043.88
410.07	1057.92
410.26	1179.63
410.45	1261.55
410.64	1313.04
410.83	1245.16
411.02	1306.02
411.21	1437.09
411.40	1387.94
411.59	1373.89
411.78	1430.07
411.98	1336.45
412.17	1313.04
412.36	1404.32
412.55	1350.49
412.74	1334.11
412.93	1348.15
413.12	1331.76
413.31	1467.52
413.50	1493.26
413.69	1481.56
413.88	1418.36
414.07	1289.64
414.26	1310.70
414.45	1465.18
414.64	1446.45
414.83	1593.90
415.02	1387.94
415.22	1310.70
415.41	1490.92
415.60	1488.58
415.79	1430.07
415.98	1598.59
416.17	1584.54
416.36	1430.07
416.55	1497.94
416.74	1537.73
416.93	1362.19
417.12	1432.41
417.31	1476.88
417.50	1476.88
417.69	1561.14
417.88	1540.07
418.07	1437.09
418.26	1488.58
418.45	1420.71
418.64	1572.84
418.83	1509.65
419.02	1600.93
419.21	1535.39
419.39	1413.68
419.58	1364.53
419.77	1413.68
419.96	1441.77
420.15	1502.62
420.34	1519.01
420.53	1678.16
420.72	1664.12
420.91	1729.66
421.10	1593.90
421.29	1479.22
421.48	1741.36
421.67	1554.12
421.86	1685.19
422.05	1465.18
422.24	1441.77
422.43	1268.57
422.61	1465.18
422.80	1568.16
422.99	1603.27
423.18	1500.28
423.37	1586.88
423.56	1516.67
423.75	1467.52
423.94	1423.05
424.13	1416.02
424.32	1423.05
424.50	1453.47
424.69	1558.80
424.88	1434.75
425.07	1533.05
425.26	1383.26
425.45	1514.33
425.64	1390.28
425.83	1533.05
426.01	1483.90
426.20	1526.03
426.39	1427.73
426.58	1437.09
426.77	1350.49
426.96	1261.55
427.15	1336.45
427.33	1266.23
427.52	1568.16
427.71	1465.18
427.90	1486.24
428.09	1397.30
428.28	1432.41
428.46	1294.32
428.65	1327.08
428.84	1362.19
429.03	1362.19
429.22	1287.29
429.40	1301.34
429.59	1165.59
429.78	1111.75
429.97	1198.35
430.16	1064.94
430.34	1083.67
430.53	997.07
430.72	1069.62
430.91	1224.10
431.10	1355.17
431.28	1467.52
431.47	1682.85
431.66	1673.48
431.85	1540.07
432.03	1462.83
432.22	1451.13
432.41	1514.33
432.60	1603.27
432.79	1568.16
432.97	1556.46
433.16	1687.53
433.35	1551.78
433.54	1420.71
433.72	1348.15
433.91	1474.54
434.10	1551.78
434.28	1645.40
434.47	1643.06
434.66	1652.42
434.85	1631.35
435.03	1701.57
435.22	1879.45
435.41	2153.29
435.59	2230.53
435.78	2076.06
435.97	2083.08
436.16	1837.32
436.34	1682.85
436.53	1743.70
436.72	1858.39
436.90	1722.63
437.09	1621.99
437.28	1671.14
437.46	1682.85
437.65	1722.63
437.84	1586.88
438.02	1537.73
438.21	1490.92
438.40	1474.54
438.58	1626.67
438.77	1600.93
438.96	1612.63
439.14	1762.42
439.33	1722.63
439.52	1753.06
439.70	1811.57
439.89	1783.49
440.08	1678.16
440.26	1643.06
440.45	1813.92
440.63	1860.73
440.82	1947.33
441.01	1898.17
441.19	1820.94
441.38	1867.75
441.57	1998.82
441.75	1954.35
441.94	2005.84
442.12	1949.67
442.31	1959.03
442.50	2040.95
442.68	2010.52
442.87	1900.52
443.05	1842.00
443.24	2029.24
443.43	2071.37
443.61	2015.20
443.80	2073.71
443.98	1930.94
444.17	1886.47
444.35	2085.42
444.54	2059.67
444.73	2040.95
444.91	2040.95
445.10	1923.92
445.28	1785.83
445.47	1832.64
445.65	1811.57
445.84	1788.17
446.02	1919.24
446.21	1956.69
446.39	1998.82
446.58	2012.86
446.77	1959.03
446.95	2090.10
447.14	2010.52
447.32	2078.40
447.51	1966.05
447.69	1989.46
447.88	1886.47
448.06	1909.88
448.25	2003.50
448.43	2031.58
448.62	2003.50
448.80	1956.69
448.99	2059.67
449.17	2017.54
449.36	1998.82
449.54	2050.31
449.73	2059.67
449.91	2106.48
450.10	2146.27
450.28	2204.78
450.46	2260.96
450.65	2209.47
450.83	2169.68
451.02	2083.08
451.20	2141.59
451.39	2148.61
451.57	2150.95
451.76	2045.63
451.94	2078.40
452.13	2174.36
452.31	2078.40
452.49	1921.58
452.68	1994.14
452.86	1884.13
453.05	1975.41
453.23	2026.90
453.42	2029.24
453.60	2143.93
453.78	2092.44
453.97	2031.58
454.15	2080.74
454.34	2090.10
454.52	2050.31
454.70	2043.29
454.89	2022.22
455.07	1963.71
455.26	2083.08
455.44	2146.27
455.62	2279.68
455.81	2193.08
455.99	2087.76
456.17	2193.08
456.36	2113.50
456.54	2108.82
456.73	2183.72
456.91	2167.34
457.09	2239.89
457.28	2188.40
457.46	2253.94
457.64	2253.94
457.83	2071.37
458.01	2136.91
458.19	2211.81
458.38	2122.87
458.56	2153.29
458.74	2155.63
458.93	2113.50
459.11	2094.78
459.29	2167.34
459.48	2228.19
459.66	2263.30
459.84	2167.34
460.03	2263.30
460.21	2242.23
460.39	2132.23
460.57	2239.89
460.76	2279.68
460.94	2265.64
461.12	2104.14
461.31	2242.23
461.49	2176.70
461.67	2183.72
461.85	2303.09
462.04	2195.42
462.22	2438.84
462.40	2340.54
462.59	2347.56
462.77	2314.79
462.95	2284.36
463.13	2169.68
463.32	2326.49
463.50	2246.91
463.68	2335.85
463.86	2176.70
464.05	2169.68
464.23	2188.40
464.41	2181.38
464.59	2043.29
464.78	2246.91
464.96	2092.44
465.14	2265.64
465.32	2223.51
465.50	2300.75
465.69	2342.88
465.87	2235.21
466.05	2188.40
466.23	2120.53
466.41	2120.53
466.60	2186.06
466.78	2190.74
466.96	2237.55
467.14	2186.06
467.32	2186.06
467.51	2181.38
467.69	2214.15
467.87	2221.17
468.05	2202.44
468.23	2125.21
468.41	2195.42
468.60	2150.95
468.78	2267.98
468.96	2165.00
469.14	2321.81
469.32	2214.15
469.50	2218.83
469.69	2249.25
469.87	2211.81
470.05	2157.97
470.23	2092.44
470.41	2218.83
470.59	2214.15
470.77	2218.83
470.95	2235.21
471.14	2279.68
471.32	2092.44
471.50	2347.56
471.68	2310.11
471.86	2333.51
472.04	2340.54
472.22	2396.71
472.40	2228.19
472.58	2218.83
472.77	2303.09
472.95	2216.49
473.13	2394.37
473.31	2420.11
473.49	2282.02
473.67	2385.01
473.85	2359.26
474.03	2401.39
474.21	2413.09
474.39	2487.99
474.57	2553.52
474.75	2516.08
474.93	2417.77
475.12	2333.51
475.30	2385.01
475.48	2363.94
475.66	2427.14
475.84	2366.28
476.02	2406.07
476.20	2375.64
476.38	2445.86
476.56	2511.39
476.74	2448.20
476.92	2483.31
477.10	2429.48
477.28	2574.59
477.46	2555.86
477.64	2651.83
477.82	2722.04
478.00	2621.40
478.18	2656.51
478.36	2682.25
478.54	2663.53
478.72	2450.54
478.90	2670.55
479.08	2726.72
479.26	2724.38
479.44	2752.47
479.62	2740.77
479.80	2864.82
479.98	2750.13
480.16	2827.37
480.34	2829.71
480.52	2799.28
480.70	2918.65
480.88	2825.03
481.06	2925.67
481.24	2932.69
481.41	2834.39
481.59	3038.02
481.77	2892.90
481.95	3040.36
482.13	2834.39
482.31	2867.16
482.49	2974.82
482.67	2949.08
482.85	3038.02
483.03	2958.44
483.21	3096.53
483.39	3054.40
483.57	2904.60
483.74	2864.82
483.92	3077.80
484.10	3042.70
484.28	3026.31
484.46	3145.68
484.64	3173.77
484.82	3047.38
485.00	3070.78
485.18	2993.55
485.35	2937.37
485.53	2855.45
485.71	2509.05
485.89	2569.91
486.07	2539.48
486.25	2733.75
486.43	2909.29
486.61	2993.55
486.78	2925.67
486.96	3077.80
487.14	3164.40
487.32	3117.59
487.50	3091.85
487.68	3286.11
487.85	3300.16
488.03	3370.37
488.21	3239.30
488.39	3239.30
488.57	3328.24
488.75	3138.66
488.92	3424.20
489.10	3618.47
489.28	3515.48
489.46	3552.93
489.64	3662.94
489.81	3569.32
489.99	3665.28
490.17	3630.17
490.35	3805.71
490.53	3740.18
490.70	3496.76
490.88	3578.68
491.06	3758.90
491.24	3693.37
491.41	3562.30
491.59	3566.98
491.77	3267.39
491.95	3321.22
492.13	3524.85
492.30	3707.41
492.48	3868.91
492.66	3712.09
492.84	3836.14
493.01	3922.74
493.19	3737.84
493.37	3763.58
493.54	3686.34
493.72	3758.90
493.90	3981.25
494.08	4025.72
494.25	4138.07
494.43	4079.55
494.61	4147.43
494.79	4060.83
494.96	4007.00
495.14	3978.91
495.32	3798.69
495.49	3885.29
495.67	3953.16
495.85	4060.83
496.02	4011.68
496.20	4184.88
496.38	4025.72
496.55	4065.51
496.73	4154.45
496.91	4189.56
497.09	4152.11
497.26	4273.82
497.44	4241.05
497.62	4070.19
497.79	4011.68
497.97	3880.61
498.14	3882.95
498.32	3831.46
498.50	4177.86
498.67	4184.88
498.85	3999.98
499.03	4149.77
499.20	4170.83
499.38	4276.16
499.56	4166.15
499.73	3964.87
499.91	4030.40
500.08	3997.64
500.26	4056.15
500.44	3911.04
500.61	4102.96
500.79	4086.58
500.97	4081.89
501.14	3866.56
501.32	3868.91
501.49	3999.98
501.67	3911.04
501.84	3971.89
502.02	4030.40
502.20	4088.92
502.37	4278.50
502.55	3946.14
502.72	4208.28
502.90	4168.49
503.07	4156.79
503.25	4065.51
503.43	3948.48
503.60	3728.47
503.78	3712.09
503.95	3623.15
504.13	3894.65
504.30	4007.00
504.48	4191.90
504.65	4063.17
504.83	4287.86
505.01	4205.94
505.18	4238.71
505.36	4264.46
505.53	4362.76
505.71	4285.52
505.88	4461.06
506.06	4418.93
506.23	4327.65
506.41	4264.46
506.58	4201.26
506.76	4236.37
506.93	4231.69
507.11	4095.94
507.28	4334.67
507.46	4175.52
507.63	4180.20
507.81	4028.06
507.98	4128.70
508.16	4269.14
508.33	4182.54
508.50	4430.63
508.68	4404.89
508.85	4606.17
509.03	4411.91
509.20	4374.46
509.38	4299.56
509.55	4273.82
509.73	4109.98
509.90	4468.08
510.08	4243.39
510.25	4444.68
510.42	4362.76
510.60	4320.63
510.77	4346.37
510.95	4348.72
511.12	4416.59
511.30	4547.66
511.47	4617.88
511.64	4512.55
511.82	4643.62
511.99	4430.63
512.17	4365.10
512.34	4266.80
512.51	4215.30
512.69	4374.46
512.86	4325.31
513.04	4421.27
513.21	4402.55
513.38	4367.44
513.56	4325.31
513.73	4273.82
513.90	4198.92
514.08	4320.63
514.25	4332.33
514.43	4372.12
514.60	4273.82
514.77	4257.43
514.95	4418.93
515.12	4428.29
515.29	4418.93
515.47	4599.15
515.64	4479.79
515.81	4461.06
515.99	4390.84
516.16	4248.07
516.33	3918.06
516.51	3691.02
516.68	3639.53
516.85	3590.38
517.03	3536.55
517.20	3885.29
517.37	4173.18
517.54	4402.55
517.72	4353.40
517.89	4067.85
518.06	3737.84
518.24	3688.68
518.41	4016.36
518.58	4105.30
518.75	4269.14
518.93	4245.73
519.10	4217.65
519.27	4418.93
519.45	4355.74
519.62	4381.48
519.79	4505.53
519.96	4528.94
520.14	4379.14
520.31	4210.62
520.48	4358.08
520.65	4496.17
520.83	4358.08
521.00	4528.94
521.17	4503.19
521.34	4461.06
521.52	4477.44
521.69	4610.86
521.86	4564.04
522.03	4760.65
522.20	4505.53
522.38	4138.07
522.55	4367.44
522.72	4205.94
522.89	4425.95
523.07	4634.26
523.24	4493.83
523.41	4533.62
523.58	4561.70
523.75	4592.13
523.92	4681.07
524.10	4585.11
524.27	4730.22
524.44	4706.82
524.61	4582.77
524.78	4688.09
524.96	4512.55
525.13	4662.35
525.30	4690.43
525.47	4734.90
525.64	4650.64
525.81	4575.75
525.98	4332.33
526.16	4210.62
526.33	4133.39
526.50	4065.51
526.67	4065.51
526.84	3978.91
527.01	4109.98
527.18	4219.99
527.36	4337.01
527.53	4500.85
527.70	4606.17
527.87	4505.53
528.04	4435.32
528.21	4519.57
528.38	4685.75
528.55	4917.47
528.72	4882.36
528.89	4835.55
529.07	4671.71
529.24	4779.37
529.41	4699.80
529.58	4559.36
529.75	4531.28
529.92	4568.73
530.09	4652.98
530.26	4559.36
530.43	4697.46
530.60	4669.37
530.77	4898.74
530.94	4873.00
531.11	4704.48
531.28	4788.74
531.46	4660.01
531.63	4624.90
531.80	4622.56
531.97	4793.42
532.14	4540.64
532.31	4545.32
532.48	4278.50
532.65	4182.54
532.82	4397.87
532.99	4533.62
533.16	4442.34
533.33	4587.45
533.50	4873.00
533.67	4557.02
533.84	4615.54
534.01	4482.13
534.18	4748.95
534.35	4580.43
534.52	4447.02
534.69	4664.69
534.86	4709.16
535.03	4842.57
535.20	4798.10
535.37	4856.61
535.54	4929.17
535.71	4865.97
535.88	4868.31
536.05	4929.17
536.22	4770.01
536.38	4770.01
536.55	4390.84
536.72	4355.74
536.89	4238.71
537.06	4458.72
537.23	4697.46
537.40	4615.54
537.57	4620.22
537.74	4795.76
537.91	4772.35
538.08	4629.58
538.25	4589.79
538.42	4720.86
538.59	4774.69
538.75	4589.79
538.92	4573.41
539.09	4470.42
539.26	4695.11
539.43	4552.34
539.60	4535.96
539.77	4542.98
539.94	4482.13
540.11	4552.34
540.28	4400.21
540.44	4498.51
540.61	4489.15
540.78	4493.83
540.95	4540.64
541.12	4772.35
541.29	4762.99
541.46	4812.14
541.62	4889.38
541.79	4826.18
541.96	4753.63
542.13	4912.78
542.30	4828.53
542.47	4994.70
542.63	4791.08
542.80	4727.88
542.97	4791.08
543.14	4622.56
543.31	4681.07
543.48	4875.34
543.64	5048.54
543.81	5032.15
543.98	5121.09
544.15	4873.00
544.32	4734.90
544.48	4940.87
544.65	4940.87
544.82	4887.04
544.99	4882.36
545.16	4833.21
545.32	4833.21
545.49	5296.63
545.66	5633.67
545.83	5914.53
546.00	5570.48
546.16	5165.56
546.33	5067.26
546.50	4777.03
546.67	4851.93
546.83	4674.05
547.00	4720.86
547.17	4634.26
547.34	4552.34
547.50	4500.85
547.67	4531.28
547.84	4383.82
548.00	4652.98
548.17	4699.80
548.34	4711.50
548.51	4753.63
548.67	4786.40
548.84	4655.33
549.01	4713.84
549.18	4795.76
549.34	4596.81
549.51	4624.90
549.68	4402.55
549.84	4624.90
550.01	4578.09
550.18	4657.67
550.34	4587.45
550.51	4561.70
550.68	4514.89
550.84	4461.06
551.01	4397.87
551.18	4496.17
551.34	4528.94
551.51	4643.62
551.68	4498.51
551.84	4596.81
552.01	4512.55
552.18	4585.11
552.34	4519.57
552.51	4542.98
552.68	4266.80
552.84	4397.87
553.01	4449.36
553.18	4435.32
553.34	4524.26
553.51	4500.85
553.67	4554.68
553.84	4430.63
554.01	4620.22
554.17	4599.15
554.34	4470.42
554.51	4461.06
554.67	4552.34
554.84	4461.06
555.00	4425.95
555.17	4428.29
555.33	4568.73
555.50	4482.13
555.67	4297.22
555.83	4325.31
556.00	4486.81
556.16	4531.28
556.33	4271.48
556.50	4421.27
556.66	4329.99
556.83	4315.95
556.99	4304.25
557.16	4339.35
557.32	4231.69
557.49	4285.52
557.65	4308.93
557.82	4301.90
557.98	4257.43
558.15	4238.71
558.32	3999.98
558.48	4023.38
558.65	3995.29
558.81	4093.60
558.98	4194.24
559.14	4149.77
559.31	4234.03
559.47	4215.30
559.64	4250.41
559.80	4086.58
559.97	4084.23
560.13	4133.39
560.30	4145.09
560.46	4250.41
560.63	4358.08
560.79	4301.90
560.96	4269.14
561.12	4161.47
561.29	4112.32
561.45	4021.04
561.61	4086.58
561.78	4210.62
561.94	4212.96
562.11	3960.19
562.27	4023.38
562.44	4187.22
562.60	4278.50
562.77	4390.84
562.93	4276.16
563.10	4243.39
563.26	4105.30
563.42	4250.41
563.59	4102.96
563.75	3985.93
563.92	4011.68
564.08	4100.62
564.24	4107.64
564.41	4102.96
564.57	4084.23
564.74	4042.11
564.90	4217.65
565.07	4088.92
565.23	4147.43
565.39	3932.10
565.56	3925.08
565.72	3857.20
565.88	3817.41
566.05	3873.59
566.21	3894.65
566.38	3969.55
566.54	3948.48
566.70	4011.68
566.87	3976.57
567.03	3948.48
567.19	4140.41
567.36	4009.34
567.52	3950.82
567.68	3988.27
567.85	3985.93
568.01	3779.97
568.17	3737.84
568.34	3726.13
568.50	3707.41
568.66	3595.06
568.83	3658.26
568.99	3768.26
569.15	3737.84
569.32	3730.81
569.48	3672.30
569.64	3763.58
569.81	3630.17
569.97	3665.28
570.13	3714.43
570.30	3742.52
570.46	3688.68
570.62	3625.49
570.78	3562.30
570.95	3700.39
571.11	3733.15
571.27	3747.20
571.43	3768.26
571.60	3817.41
571.76	3854.86
571.92	3744.86
572.09	3761.24
572.25	3838.48
572.41	3805.71
572.57	3850.18
572.74	3892.31
572.90	3817.41
573.06	3735.50
573.22	3775.28
573.38	3749.54
573.55	3716.77
573.71	3786.99
573.87	3794.01
574.03	3779.97
574.20	3672.30
574.36	3709.75
574.52	3665.28
574.68	3665.28
574.84	3581.02
575.01	3597.40
575.17	3606.77
575.33	3578.68
575.49	3655.92
575.65	3604.42
575.82	3634.85
575.98	3581.02
576.14	3803.37
576.30	3744.86
576.46	3744.86
576.62	3953.16
576.79	3950.82
576.95	3716.77
577.11	3651.24
577.27	3789.33
577.43	3585.70
577.59	3684.00
577.75	3606.77
577.92	3473.36
578.08	3506.12
578.24	3478.04
578.40	3574.00
578.56	3634.85
578.72	3761.24
578.88	3801.03
579.04	3761.24
579.21	3735.50
579.37	3726.13
579.53	3749.54
579.69	3618.47
579.85	3662.94
580.01	3868.91
580.17	3747.20
580.33	3681.66
580.49	3693.37
580.65	3639.53
580.82	3702.73
580.98	3651.24
581.14	3632.51
581.30	3740.18
581.46	3653.58
581.62	3857.20
581.78	3700.39
581.94	3735.50
582.10	3719.11
582.26	3779.97
582.42	3712.09
582.58	3719.11
582.74	3758.90
582.90	3927.42
583.06	3695.71
583.22	3756.56
583.38	3691.02
583.54	3714.43
583.70	3843.16
583.86	3747.20
584.02	3737.84
584.18	3705.07
584.34	3859.54
584.50	3749.54
584.66	3660.60
584.82	3730.81
584.98	3726.13
585.14	3581.02
585.30	3527.19
585.46	3466.33
585.62	3534.21
585.78	3433.57
585.94	3445.27
586.10	3391.44
586.26	3658.26
586.42	3581.02
586.58	3726.13
586.74	3393.78
586.90	3562.30
587.06	3576.34
587.22	3555.27
587.38	3522.51
587.54	3508.46
587.70	3201.85
587.86	3220.58
588.02	3197.17
588.18	3119.93
588.34	3061.42
588.49	2759.49
588.65	2455.22
588.81	2565.23
588.97	2579.27
589.13	2675.23
589.29	2621.40
589.45	2656.51
589.61	2609.70
589.77	2787.58
589.93	2778.22
590.08	2942.05
590.24	3007.59
590.40	3035.67
590.56	3000.57
590.72	2925.67
590.88	2977.16
591.04	2991.20
591.20	2979.50
591.35	2867.16
591.51	2918.65
591.67	2935.03
591.83	2995.89
591.99	2942.05
592.15	2925.67
592.31	3061.42
592.46	3138.66
592.62	3206.53
592.78	3126.96
592.94	3166.74
593.10	3150.36
593.26	3293.13
593.41	3218.24
593.57	3192.49
593.73	3012.27
593.89	3030.99
594.05	2902.26
594.20	2799.28
594.36	2722.04
594.52	2787.58
594.68	2733.75
594.84	2867.16
594.99	2951.42
595.15	2991.20
595.31	3000.57
595.47	3005.25
595.62	3089.51
595.78	3028.65
595.94	2986.52
596.10	3190.15
596.25	2928.01
596.41	2935.03
596.57	2965.46
596.73	2958.44
596.88	2993.55
597.04	3143.34
597.20	3014.61
597.36	3162.06
597.51	2986.52
597.67	2963.12
597.83	3117.59
597.99	3117.59
