SpectraSuite Data File
++++++++++++++++++++++++++++++++++++
Date: Fri Oct 04 11:41:52 GMT-05:00 2013
User: price-jones
Dark Spectrum Present: No
Reference Spectrum Present: No
Number of Sampled Component Spectra: 1
Spectrometers: USB2+H05261
Integration Time (usec): 100000 (USB2+H05261)
Spectra Averaged: 1 (USB2+H05261)
Boxcar Smoothing: 0 (USB2+H05261)
Correct for Electrical Dark: No (USB2+H05261)
Strobe/Lamp Enabled: No (USB2+H05261)
Correct for Detector Non-linearity: No (USB2+H05261)
Correct for Stray Light: No (USB2+H05261)
Number of Pixels in Processed Spectrum: 2048
>>>>>Begin Processed Spectral Data<<<<<
365.73	23.41
365.92	23.41
366.12	23.41
366.32	0.00
366.52	0.00
366.72	0.00
366.91	0.00
367.11	0.00
367.31	0.00
367.51	0.00
367.70	0.00
367.90	0.00
368.10	0.00
368.30	0.00
368.49	0.00
368.69	0.00
368.89	0.00
369.09	0.00
369.28	0.00
369.48	0.00
369.68	0.00
369.87	81.92
370.07	0.00
370.27	25.75
370.47	37.45
370.66	74.90
370.86	65.54
371.06	124.05
371.25	98.30
371.45	70.22
371.65	126.39
371.84	42.13
372.04	65.54
372.24	117.03
372.44	126.39
372.63	133.41
372.83	166.18
373.03	133.41
373.22	175.54
373.42	88.94
373.62	56.17
373.81	114.69
374.01	140.43
374.21	177.88
374.40	63.19
374.60	156.82
374.79	128.73
374.99	110.01
375.19	142.77
375.38	166.18
375.58	140.43
375.78	128.73
375.97	145.11
376.17	220.01
376.37	156.82
376.56	119.37
376.76	145.11
376.95	100.64
377.15	49.15
377.35	110.01
377.54	203.63
377.74	88.94
377.93	131.07
378.13	191.92
378.33	177.88
378.52	121.71
378.72	189.58
378.91	131.07
379.11	149.79
379.31	131.07
379.50	72.56
379.70	159.16
379.89	124.05
380.09	159.16
380.28	138.09
380.48	128.73
380.68	149.79
380.87	98.30
381.07	182.56
381.26	110.01
381.46	110.01
381.65	105.32
381.85	152.13
382.04	114.69
382.24	180.22
382.43	133.41
382.63	79.58
382.83	135.75
383.02	189.58
383.22	140.43
383.41	107.66
383.61	117.03
383.80	128.73
384.00	131.07
384.19	88.94
384.39	107.66
384.58	161.50
384.78	114.69
384.97	81.92
385.17	142.77
385.36	98.30
385.56	86.60
385.75	51.49
385.95	79.58
386.14	133.41
386.34	58.51
386.53	135.75
386.72	56.17
386.92	149.79
387.11	170.86
387.31	126.39
387.50	91.28
387.70	119.37
387.89	91.28
388.09	72.56
388.28	152.13
388.48	128.73
388.67	187.24
388.86	124.05
389.06	173.20
389.25	166.18
389.45	131.07
389.64	100.64
389.84	147.45
390.03	180.22
390.22	196.60
390.42	102.98
390.61	84.26
390.81	100.64
391.00	135.75
391.19	170.86
391.39	189.58
391.58	67.88
391.78	212.99
391.97	154.48
392.16	79.58
392.36	70.22
392.55	198.95
392.75	88.94
392.94	93.62
393.13	124.05
393.33	91.28
393.52	121.71
393.71	187.24
393.91	72.56
394.10	95.96
394.29	79.58
394.49	72.56
394.68	140.43
394.88	163.84
395.07	133.41
395.26	168.52
395.46	147.45
395.65	187.24
395.84	168.52
396.04	208.31
396.23	140.43
396.42	161.50
396.62	110.01
396.81	184.90
397.00	128.73
397.19	161.50
397.39	110.01
397.58	117.03
397.77	79.58
397.97	147.45
398.16	145.11
398.35	145.11
398.55	70.22
398.74	98.30
398.93	161.50
399.12	187.24
399.32	156.82
399.51	217.67
399.70	110.01
399.90	173.20
400.09	138.09
400.28	149.79
400.47	107.66
400.67	222.35
400.86	124.05
401.05	25.75
401.24	196.60
401.44	173.20
401.63	250.44
401.82	196.60
402.01	147.45
402.21	159.16
402.40	220.01
402.59	161.50
402.78	177.88
402.97	229.37
403.17	236.39
403.36	304.27
403.55	332.36
403.74	720.88
403.93	2104.14
404.13	5390.25
404.32	7857.18
404.51	6970.12
404.70	4149.77
404.89	1547.09
405.09	486.83
405.28	339.38
405.47	259.80
405.66	212.99
405.85	252.78
406.05	196.60
406.24	245.76
406.43	215.33
406.62	264.48
406.81	250.44
407.00	362.78
407.20	566.41
407.39	997.07
407.58	1029.84
407.77	882.38
407.96	472.79
408.15	252.78
408.34	166.18
408.54	194.26
408.73	145.11
408.92	173.20
409.11	217.67
409.30	238.73
409.49	227.03
409.68	259.80
409.87	182.56
410.07	170.86
410.26	175.54
410.45	180.22
410.64	149.79
410.83	231.71
411.02	201.29
411.21	259.80
411.40	208.31
411.59	173.20
411.78	138.09
411.98	250.44
412.17	156.82
412.36	259.80
412.55	110.01
412.74	227.03
412.93	273.84
413.12	229.37
413.31	222.35
413.50	128.73
413.69	205.97
413.88	234.05
414.07	266.82
414.26	205.97
414.45	201.29
414.64	320.65
414.83	212.99
415.02	198.95
415.22	264.48
415.41	304.27
415.60	308.95
415.79	154.48
415.98	210.65
416.17	170.86
416.36	292.57
416.55	196.60
416.74	311.29
416.93	227.03
417.12	229.37
417.31	170.86
417.50	257.46
417.69	344.06
417.88	220.01
418.07	182.56
418.26	257.46
418.45	191.92
418.64	252.78
418.83	212.99
419.02	205.97
419.21	290.23
419.39	266.82
419.58	301.93
419.77	280.86
419.96	271.50
420.15	306.61
420.34	318.31
420.53	266.82
420.72	332.36
420.91	259.80
421.10	283.20
421.29	341.72
421.48	297.25
421.67	280.86
421.86	322.99
422.05	285.55
422.24	287.89
422.43	292.57
422.61	210.65
422.80	248.10
422.99	266.82
423.18	229.37
423.37	325.33
423.56	292.57
423.75	276.18
423.94	262.14
424.13	283.20
424.32	315.97
424.50	372.15
424.69	360.44
424.88	344.06
425.07	290.23
425.26	383.85
425.45	276.18
425.64	367.46
425.83	311.29
426.01	374.49
426.20	388.53
426.39	423.64
426.58	330.02
426.77	292.57
426.96	351.08
427.15	442.36
427.33	322.99
427.52	318.31
427.71	322.99
427.90	315.97
428.09	339.38
428.28	344.06
428.46	360.44
428.65	355.76
428.84	428.32
429.03	468.11
429.22	402.57
429.40	313.63
429.59	358.10
429.78	367.46
429.97	435.34
430.16	353.42
430.34	362.78
430.53	411.93
430.72	409.59
430.91	362.78
431.10	283.20
431.28	421.30
431.47	484.49
431.66	383.85
431.85	428.32
432.03	442.36
432.22	564.07
432.41	444.70
432.60	498.53
432.79	514.92
432.97	484.49
433.16	533.64
433.35	526.62
433.54	704.50
433.72	702.16
433.91	648.33
434.10	676.41
434.28	931.53
434.47	1034.52
434.66	1174.95
434.85	1420.71
435.03	3456.97
435.22	12830.82
435.41	30948.90
435.59	35936.59
435.78	23346.84
435.97	11606.72
436.16	4652.98
436.34	1659.44
436.53	961.96
436.72	791.10
436.90	660.03
437.09	571.09
437.28	622.58
437.46	587.47
437.65	425.98
437.84	561.73
438.02	491.51
438.21	500.87
438.40	517.26
438.58	496.19
438.77	524.28
438.96	449.38
439.14	461.09
439.33	489.17
439.52	559.39
439.70	475.13
439.89	517.26
440.08	496.19
440.26	510.24
440.45	547.69
440.63	500.87
440.82	444.70
441.01	465.77
441.19	500.87
441.38	465.77
441.57	594.50
441.75	475.13
441.94	540.66
442.12	435.34
442.31	486.83
442.50	550.03
442.68	479.81
442.87	493.85
443.05	386.19
443.24	514.92
443.43	437.68
443.61	610.88
443.80	433.00
443.98	519.60
444.17	463.43
444.35	507.90
444.54	512.58
444.73	507.90
444.91	510.24
445.10	493.85
445.28	554.71
445.47	463.43
445.65	482.15
445.84	456.40
446.02	437.68
446.21	416.62
446.39	444.70
446.58	435.34
446.77	428.32
446.95	435.34
447.14	449.38
447.32	512.58
447.51	507.90
447.69	512.58
447.88	444.70
448.06	521.94
448.25	404.91
448.43	465.77
448.62	369.80
448.80	458.74
448.99	512.58
449.17	458.74
449.36	454.06
449.54	477.47
449.73	519.60
449.91	428.32
450.10	386.19
450.28	514.92
450.46	519.60
450.65	538.32
450.83	498.53
451.02	447.04
451.20	444.70
451.39	596.84
451.57	463.43
451.76	510.24
451.94	423.64
452.13	468.11
452.31	517.26
452.49	470.45
452.68	498.53
452.86	454.06
453.05	465.77
453.23	470.45
453.42	423.64
453.60	489.17
453.78	493.85
453.97	393.21
454.15	418.96
454.34	491.51
454.52	489.17
454.70	486.83
454.89	479.81
455.07	421.30
455.26	526.62
455.44	624.92
455.62	533.64
455.81	423.64
455.99	468.11
456.17	493.85
456.36	475.13
456.54	442.36
456.73	388.53
456.91	458.74
457.09	472.79
457.28	477.47
457.46	425.98
457.64	519.60
457.83	407.25
458.01	402.57
458.19	465.77
458.38	461.09
458.56	528.96
458.74	447.04
458.93	444.70
459.11	463.43
459.29	395.55
459.48	479.81
459.66	463.43
459.84	440.02
460.03	477.47
460.21	454.06
460.39	500.87
460.57	458.74
460.76	465.77
460.94	470.45
461.12	447.04
461.31	477.47
461.49	498.53
461.67	402.57
461.85	461.09
462.04	425.98
462.22	978.34
462.40	510.24
462.59	451.72
462.77	402.57
462.95	440.02
463.13	470.45
463.32	444.70
463.50	543.00
463.68	442.36
463.86	388.53
464.05	440.02
464.23	484.49
464.41	580.45
464.59	435.34
464.78	573.43
464.96	379.17
465.14	505.56
465.32	491.51
465.50	489.17
465.69	505.56
465.87	437.68
466.05	454.06
466.23	456.40
466.41	550.03
466.60	594.50
466.78	543.00
466.96	498.53
467.14	585.13
467.32	510.24
467.51	528.96
467.69	491.51
467.87	512.58
468.05	470.45
468.23	465.77
468.41	458.74
468.60	451.72
468.78	449.38
468.96	456.40
469.14	416.62
469.32	341.72
469.50	358.10
469.69	390.87
469.87	402.57
470.05	402.57
470.23	351.08
470.41	491.51
470.59	320.65
470.77	444.70
470.95	418.96
471.14	507.90
471.32	444.70
471.50	493.85
471.68	390.87
471.86	449.38
472.04	409.59
472.22	425.98
472.40	421.30
472.58	433.00
472.77	372.15
472.95	407.25
473.13	430.66
473.31	444.70
473.49	393.21
473.67	402.57
473.85	479.81
474.03	477.47
474.21	390.87
474.39	456.40
474.57	468.11
474.75	451.72
474.93	437.68
475.12	435.34
475.30	423.64
475.48	433.00
475.66	433.00
475.84	491.51
476.02	421.30
476.20	498.53
476.38	440.02
476.56	519.60
476.74	428.32
476.92	444.70
477.10	404.91
477.28	423.64
477.46	493.85
477.64	496.19
477.82	423.64
478.00	477.47
478.18	505.56
478.36	454.06
478.54	454.06
478.72	540.66
478.90	521.94
479.08	629.60
479.26	557.05
479.44	552.37
479.62	627.26
479.80	571.09
479.98	568.75
480.16	627.26
480.34	627.26
480.52	664.71
480.70	699.82
480.88	711.52
481.06	800.46
481.24	816.85
481.41	915.15
481.59	835.57
481.77	1062.60
481.95	938.55
482.13	1128.14
482.31	1067.28
482.49	1050.90
482.67	1296.66
482.85	1390.28
483.03	1423.05
483.21	1493.26
483.39	1633.69
483.57	1607.95
483.74	1935.62
483.92	1912.22
484.10	1916.90
484.28	2001.16
484.46	2265.64
484.64	2267.98
484.82	2349.90
485.00	2590.97
485.18	2677.57
485.35	2799.28
485.53	2832.05
485.71	3232.28
485.89	3346.97
486.07	3325.90
486.25	3382.07
486.43	3433.57
486.61	3370.37
486.78	3318.88
486.96	3442.93
487.14	3466.33
487.32	3279.09
487.50	3208.87
487.68	3243.98
487.85	3258.03
488.03	3124.62
488.21	3220.58
488.39	3098.87
488.57	3063.76
488.75	2981.84
488.92	3173.77
489.10	2897.58
489.28	2698.64
489.46	2752.47
489.64	2782.90
489.81	2686.94
489.99	2644.81
490.17	2569.91
490.35	2736.09
490.53	2518.42
490.70	2558.21
490.88	2429.48
491.06	2665.87
491.24	2843.75
491.41	2834.39
491.59	2752.47
491.77	2506.71
491.95	2457.56
492.13	2345.22
492.30	2319.47
492.48	2207.13
492.66	2209.47
492.84	2195.42
493.01	2209.47
493.19	2157.97
493.37	2040.95
493.54	2125.21
493.72	2115.84
493.90	1968.39
494.08	2012.86
494.25	1952.01
494.43	1947.33
494.61	1914.56
494.79	1891.15
494.96	1872.43
495.14	1797.53
495.32	1732.00
495.49	1863.07
495.67	1771.79
495.85	1785.83
496.02	1600.93
496.20	1708.59
496.38	1675.82
496.55	1696.89
496.73	1582.20
496.91	1563.48
497.09	1593.90
497.26	1631.35
497.44	1385.60
497.62	1371.55
497.79	1488.58
497.97	1362.19
498.14	1460.49
498.32	1355.17
498.50	1341.13
498.67	1315.38
498.85	1308.36
499.03	1301.34
499.20	1245.16
499.38	1179.63
499.56	1219.42
499.73	1205.38
499.91	1170.27
500.08	1086.01
500.26	1174.95
500.44	1060.26
500.61	994.73
500.79	922.17
500.97	917.49
501.14	945.58
501.32	835.57
501.49	938.55
501.67	875.36
501.84	781.74
502.02	861.32
502.20	880.04
502.37	884.72
502.55	772.38
502.72	760.67
502.90	737.27
503.07	760.67
503.25	706.84
503.43	617.90
503.60	685.78
503.78	709.18
503.95	631.94
504.13	695.14
504.30	624.92
504.48	571.09
504.65	596.84
504.83	510.24
505.01	575.77
505.18	557.05
505.36	512.58
505.53	575.77
505.71	477.47
505.88	547.69
506.06	571.09
506.23	484.49
506.41	496.19
506.58	540.66
506.76	533.64
506.93	475.13
507.11	547.69
507.28	503.22
507.46	519.60
507.63	386.19
507.81	433.00
507.98	531.30
508.16	531.30
508.33	545.34
508.50	550.03
508.68	435.34
508.85	489.17
509.03	503.22
509.20	592.16
509.38	482.15
509.55	564.07
509.73	454.06
509.90	566.41
510.08	447.04
510.25	475.13
510.42	528.96
510.60	559.39
510.77	463.43
510.95	433.00
511.12	418.96
511.30	435.34
511.47	531.30
511.64	470.45
511.82	444.70
511.99	454.06
512.17	442.36
512.34	416.62
512.51	465.77
512.69	388.53
512.86	461.09
513.04	482.15
513.21	402.57
513.38	320.65
513.56	421.30
513.73	461.09
513.90	322.99
514.08	521.94
514.25	421.30
514.43	442.36
514.60	393.21
514.77	346.40
514.95	365.12
515.12	374.49
515.29	435.34
515.47	433.00
515.64	400.23
515.81	454.06
515.99	489.17
516.16	416.62
516.33	451.72
516.51	444.70
516.68	351.08
516.85	425.98
517.03	285.55
517.20	346.40
517.37	383.85
517.54	437.68
517.72	376.83
517.89	346.40
518.06	367.46
518.24	418.96
518.41	430.66
518.58	400.23
518.75	360.44
518.93	402.57
519.10	407.25
519.27	372.15
519.45	409.59
519.62	362.78
519.79	308.95
519.96	339.38
520.14	311.29
520.31	449.38
520.48	390.87
520.65	355.76
520.83	440.02
521.00	376.83
521.17	400.23
521.34	337.04
521.52	411.93
521.69	393.21
521.86	372.15
522.03	393.21
522.20	372.15
522.38	332.36
522.55	358.10
522.72	360.44
522.89	283.20
523.07	465.77
523.24	362.78
523.41	344.06
523.58	327.68
523.75	416.62
523.92	362.78
524.10	355.76
524.27	330.02
524.44	407.25
524.61	376.83
524.78	393.21
524.96	423.64
525.13	479.81
525.30	367.46
525.47	395.55
525.64	397.89
525.81	442.36
525.98	449.38
526.16	411.93
526.33	407.25
526.50	337.04
526.67	414.27
526.84	318.31
527.01	414.27
527.18	521.94
527.36	465.77
527.53	435.34
527.70	486.83
527.87	444.70
528.04	521.94
528.21	440.02
528.38	465.77
528.55	510.24
528.72	524.28
528.89	564.07
529.07	498.53
529.24	528.96
529.41	493.85
529.58	514.92
529.75	514.92
529.92	507.90
530.09	470.45
530.26	528.96
530.43	573.43
530.60	514.92
530.77	589.82
530.94	580.45
531.11	503.22
531.28	599.18
531.46	629.60
531.63	685.78
531.80	716.20
531.97	725.57
532.14	828.55
532.31	961.96
532.48	1174.95
532.65	1329.42
532.82	1406.66
532.99	1724.97
533.16	1944.99
533.33	2090.10
533.50	1926.26
533.67	1694.55
533.84	1453.47
534.01	1240.48
534.18	1158.57
534.35	1172.61
534.52	1200.69
534.69	1308.36
534.86	1268.57
535.03	1280.27
535.20	1313.04
535.37	1418.36
535.54	1495.60
535.71	1558.80
535.88	1771.79
536.05	1795.19
536.22	1832.64
536.38	1954.35
536.55	2230.53
536.72	2333.51
536.89	2644.81
537.06	2822.69
537.23	3400.80
537.40	3684.00
537.57	3833.80
537.74	4259.78
537.91	4428.29
538.08	4643.62
538.25	4568.73
538.42	4585.11
538.59	4711.50
538.75	4849.59
538.92	5114.07
539.09	5694.52
539.26	6279.66
539.43	7115.23
539.60	7850.16
539.77	9001.70
539.94	10169.63
540.11	11162.01
540.28	12035.03
540.44	13312.97
540.61	15021.56
540.78	16858.88
540.95	20020.94
541.12	23711.97
541.29	27559.81
541.46	29022.64
541.62	28332.18
541.79	27709.60
541.96	25729.51
542.13	23543.45
542.30	21809.11
542.47	20861.19
542.63	19618.37
542.80	18602.58
542.97	18885.78
543.14	18707.90
543.31	18525.34
543.48	18508.96
543.64	19110.47
543.81	19063.66
543.98	19412.40
544.15	19314.10
544.32	19318.78
544.48	19335.17
544.65	19021.53
544.82	18860.04
544.99	18986.43
545.16	19447.51
545.32	20404.79
545.49	32063.00
545.66	55875.61
545.83	63042.33
546.00	58944.05
546.16	45848.75
546.33	34047.77
546.50	25266.08
546.67	19672.20
546.83	17523.59
547.00	16826.11
547.17	15637.12
547.34	15164.33
547.50	14871.76
547.67	14307.69
547.84	13310.63
548.00	12849.54
548.17	12603.78
548.34	11861.84
548.51	11618.42
548.67	11173.72
548.84	10539.43
549.01	10097.07
549.18	9720.24
549.34	9151.49
549.51	9004.04
549.68	8601.47
549.84	8135.70
550.01	7854.84
550.18	7494.40
550.34	7075.44
550.51	6644.78
550.68	6396.68
550.84	6136.88
551.01	5682.82
551.18	5273.23
551.34	5324.72
551.51	4978.32
551.68	4805.12
551.84	4791.08
552.01	4521.92
552.18	4341.69
552.34	4161.47
552.51	3920.40
552.68	3644.21
552.84	3641.87
553.01	3531.87
553.18	3370.37
553.34	3297.81
553.51	3206.53
553.67	2981.84
553.84	3033.33
554.01	2799.28
554.17	2658.85
554.34	2443.52
554.51	2277.34
554.67	2143.93
554.84	2057.33
555.00	2022.22
555.17	1935.62
555.33	1842.00
555.50	1764.76
555.67	1629.01
555.83	1418.36
556.00	1355.17
556.16	1610.29
556.33	1486.24
556.50	1371.55
556.66	1371.55
556.83	1308.36
556.99	1221.76
557.16	1219.42
557.32	1191.33
557.49	1109.41
557.65	1107.07
557.82	1036.86
557.98	1128.14
558.15	1020.47
558.32	1111.75
558.48	884.72
558.65	940.90
558.81	966.64
558.98	945.58
559.14	1008.77
559.31	910.47
559.47	931.53
559.64	908.13
559.80	884.72
559.97	835.57
560.13	791.10
560.30	774.72
560.46	786.42
560.63	837.91
560.79	812.17
560.96	798.12
561.12	837.91
561.29	854.30
561.45	781.74
561.61	826.21
561.78	800.46
561.94	844.93
562.11	720.88
562.27	791.10
562.44	793.44
562.60	753.65
562.77	755.99
562.93	814.51
563.10	788.76
563.26	748.97
563.42	697.48
563.59	786.42
563.75	674.07
563.92	720.88
564.08	704.50
564.24	739.61
564.41	695.14
564.57	657.69
564.74	653.01
564.90	660.03
565.07	697.48
565.23	671.73
565.39	692.80
565.56	617.90
565.72	676.41
565.88	622.58
566.05	711.52
566.21	681.10
566.38	655.35
566.54	685.78
566.70	650.67
566.87	650.67
567.03	573.43
567.19	678.76
567.36	667.05
567.52	599.18
567.68	695.14
567.85	657.69
568.01	622.58
568.17	615.56
568.34	683.44
568.50	683.44
568.66	610.88
568.83	755.99
568.99	606.20
569.15	650.67
569.32	566.41
569.48	599.18
569.64	547.69
569.81	557.05
569.97	564.07
570.13	538.32
570.30	540.66
570.46	540.66
570.62	493.85
570.78	533.64
570.95	461.09
571.11	524.28
571.27	470.45
571.43	447.04
571.60	477.47
571.76	564.07
571.92	510.24
572.09	557.05
572.25	517.26
572.41	514.92
572.57	507.90
572.74	535.98
572.90	589.82
573.06	447.04
573.22	512.58
573.38	510.24
573.55	477.47
573.71	585.13
573.87	624.92
574.03	561.73
574.20	613.22
574.36	603.86
574.52	568.75
574.68	550.03
574.84	678.76
575.01	615.56
575.17	739.61
575.33	706.84
575.49	809.83
575.65	821.53
575.82	882.38
575.98	990.05
576.14	1097.71
576.30	2040.95
576.46	6384.98
576.62	12629.53
576.79	14607.28
576.95	10157.92
577.11	6492.65
577.27	4629.58
577.43	3131.64
577.59	2054.99
577.75	1612.63
577.92	1460.49
578.08	1343.47
578.24	1474.54
578.40	2260.96
578.56	6073.69
578.72	11166.70
578.88	12222.28
579.04	9114.05
579.21	6303.06
579.37	4978.32
579.53	3740.18
579.69	3485.06
579.85	4248.07
580.01	5128.11
580.17	4882.36
580.33	4142.75
580.49	3700.39
580.65	3236.96
580.82	3000.57
580.98	2745.45
581.14	2815.66
581.30	3016.95
581.46	3346.97
581.62	3463.99
581.78	3691.02
581.94	4088.92
582.10	4365.10
582.26	4545.32
582.42	4505.53
582.58	4741.93
582.74	4695.11
582.90	4652.98
583.06	4844.91
583.22	4762.99
583.38	4786.40
583.54	4924.49
583.70	4952.57
583.86	4830.87
584.02	4629.58
584.18	4610.86
584.34	4435.32
584.50	4486.81
584.66	4353.40
584.82	4428.29
584.98	4615.54
585.14	4269.14
585.30	4156.79
585.46	4191.90
585.62	3882.95
585.78	4025.72
585.94	4093.60
586.10	4299.56
586.26	4334.67
586.42	4875.34
586.58	5853.68
586.74	7140.97
586.90	8730.20
587.06	9280.22
587.22	9282.56
587.38	8435.29
587.54	7236.94
587.70	6200.08
587.86	5280.25
588.02	4524.26
588.18	3899.33
588.34	3646.55
588.49	3260.37
588.65	2949.08
588.81	2977.16
588.97	2750.13
589.13	2661.19
589.29	2626.08
589.45	2773.53
589.61	2733.75
589.77	2703.32
589.93	2747.79
590.08	2818.00
590.24	2909.29
590.40	3047.38
590.56	3038.02
590.72	3180.79
590.88	3164.40
591.04	3339.94
591.20	3529.53
591.35	3531.87
591.51	3733.15
591.67	3847.84
591.83	4042.11
591.99	4552.34
592.15	4786.40
592.31	5270.89
592.46	5781.12
592.62	6359.24
592.78	6654.14
592.94	6878.83
593.10	6700.95
593.26	6675.21
593.41	6022.20
593.57	5294.29
593.73	4709.16
593.89	4297.22
594.05	3784.65
594.20	3417.18
594.36	3187.81
594.52	2843.75
594.68	2729.06
594.84	2588.63
594.99	2719.70
595.15	2469.27
595.31	2445.86
595.47	2363.94
595.62	2387.35
595.78	2455.22
595.94	2506.71
596.10	2464.58
596.25	2459.90
596.41	2387.35
596.57	2354.58
596.73	2452.88
596.88	2413.09
597.04	2300.75
597.20	2361.60
597.36	2530.12
597.51	2644.81
597.67	2736.09
597.83	2700.98
597.99	2974.82
598.14	3028.65
598.30	3272.07
598.46	3363.35
598.61	3637.19
598.77	3817.41
598.93	3915.72
599.09	3967.21
599.24	4117.00
599.40	3976.57
599.56	4044.45
599.71	3644.21
599.87	3574.00
600.03	3452.29
600.18	3124.62
600.34	3009.93
600.50	2768.85
600.65	2635.44
600.81	2431.82
600.97	2319.47
601.12	2228.19
601.28	1996.48
601.44	1963.71
601.59	2019.88
601.75	1961.37
601.91	1865.41
602.06	1769.44
602.22	1671.14
602.37	1570.50
602.53	1607.95
602.69	1657.10
602.84	1605.61
603.00	1528.37
603.16	1701.57
603.31	1720.29
603.47	1727.32
603.62	1631.35
603.78	1795.19
603.94	1743.70
604.09	1914.56
604.25	1935.62
604.40	1851.36
604.56	1858.39
604.71	1973.07
604.87	1888.81
605.03	1970.73
605.18	1954.35
