SpectraSuite Data File
++++++++++++++++++++++++++++++++++++
Date: Fri Oct 04 11:42:01 GMT-05:00 2013
User: price-jones
Dark Spectrum Present: No
Reference Spectrum Present: No
Number of Sampled Component Spectra: 1
Spectrometers: USB2+H05261
Integration Time (usec): 100000 (USB2+H05261)
Spectra Averaged: 1 (USB2+H05261)
Boxcar Smoothing: 0 (USB2+H05261)
Correct for Electrical Dark: No (USB2+H05261)
Strobe/Lamp Enabled: No (USB2+H05261)
Correct for Detector Non-linearity: No (USB2+H05261)
Correct for Stray Light: No (USB2+H05261)
Number of Pixels in Processed Spectrum: 2048
>>>>>Begin Processed Spectral Data<<<<<
365.73	42.13
365.92	42.13
366.12	42.13
366.32	11.70
366.52	0.00
366.72	0.00
366.91	0.00
367.11	0.00
367.31	0.00
367.51	2.34
367.70	0.00
367.90	0.00
368.10	0.00
368.30	0.00
368.49	0.00
368.69	0.00
368.89	0.00
369.09	0.00
369.28	0.00
369.48	0.00
369.68	0.00
369.87	0.00
370.07	9.36
370.27	0.00
370.47	0.00
370.66	51.49
370.86	102.98
371.06	112.35
371.25	105.32
371.45	114.69
371.65	72.56
371.84	0.00
372.04	84.26
372.24	63.19
372.44	102.98
372.63	166.18
372.83	124.05
373.03	128.73
373.22	121.71
373.42	117.03
373.62	131.07
373.81	135.75
374.01	114.69
374.21	95.96
374.40	131.07
374.60	112.35
374.79	91.28
374.99	117.03
375.19	98.30
375.38	100.64
375.58	128.73
375.78	231.71
375.97	166.18
376.17	196.60
376.37	156.82
376.56	112.35
376.76	110.01
376.95	147.45
377.15	159.16
377.35	56.17
377.54	98.30
377.74	84.26
377.93	93.62
378.13	105.32
378.33	110.01
378.52	51.49
378.72	168.52
378.91	112.35
379.11	53.83
379.31	74.90
379.50	138.09
379.70	72.56
379.89	95.96
380.09	88.94
380.28	117.03
380.48	135.75
380.68	124.05
380.87	72.56
381.07	81.92
381.26	140.43
381.46	67.88
381.65	128.73
381.85	140.43
382.04	32.77
382.24	67.88
382.43	86.60
382.63	119.37
382.83	91.28
383.02	168.52
383.22	105.32
383.41	58.51
383.61	74.90
383.80	77.24
384.00	128.73
384.19	161.50
384.39	79.58
384.58	159.16
384.78	114.69
384.97	49.15
385.17	44.47
385.36	117.03
385.56	135.75
385.75	102.98
385.95	110.01
386.14	91.28
386.34	126.39
386.53	119.37
386.72	124.05
386.92	112.35
387.11	72.56
387.31	98.30
387.50	140.43
387.70	95.96
387.89	145.11
388.09	138.09
388.28	93.62
388.48	53.83
388.67	84.26
388.86	142.77
389.06	117.03
389.25	128.73
389.45	102.98
389.64	138.09
389.84	140.43
390.03	86.60
390.22	128.73
390.42	117.03
390.61	117.03
390.81	110.01
391.00	60.85
391.19	201.29
391.39	86.60
391.58	11.70
391.78	142.77
391.97	98.30
392.16	140.43
392.36	196.60
392.55	102.98
392.75	142.77
392.94	91.28
393.13	138.09
393.33	154.48
393.52	77.24
393.71	145.11
393.91	149.79
394.10	79.58
394.29	84.26
394.49	149.79
394.68	140.43
394.88	131.07
395.07	152.13
395.26	145.11
395.46	39.79
395.65	131.07
395.84	79.58
396.04	222.35
396.23	145.11
396.42	154.48
396.62	117.03
396.81	102.98
397.00	142.77
397.19	102.98
397.39	145.11
397.58	138.09
397.77	65.54
397.97	105.32
398.16	86.60
398.35	138.09
398.55	117.03
398.74	93.62
398.93	156.82
399.12	25.75
399.32	77.24
399.51	121.71
399.70	131.07
399.90	114.69
400.09	117.03
400.28	163.84
400.47	126.39
400.67	152.13
400.86	142.77
401.05	142.77
401.24	117.03
401.44	110.01
401.63	168.52
401.82	133.41
402.01	133.41
402.21	154.48
402.40	128.73
402.59	145.11
402.78	140.43
402.97	168.52
403.17	131.07
403.36	140.43
403.55	88.94
403.74	133.41
403.93	163.84
404.13	203.63
404.32	184.90
404.51	205.97
404.70	210.65
404.89	117.03
405.09	170.86
405.28	124.05
405.47	119.37
405.66	161.50
405.85	140.43
406.05	149.79
406.24	65.54
406.43	147.45
406.62	100.64
406.81	161.50
407.00	114.69
407.20	224.69
407.39	161.50
407.58	229.37
407.77	142.77
407.96	149.79
408.15	126.39
408.34	198.95
408.54	168.52
408.73	107.66
408.92	131.07
409.11	149.79
409.30	159.16
409.49	49.15
409.68	56.17
409.87	105.32
410.07	145.11
410.26	140.43
410.45	145.11
410.64	156.82
410.83	91.28
411.02	112.35
411.21	177.88
411.40	140.43
411.59	86.60
411.78	112.35
411.98	142.77
412.17	166.18
412.36	161.50
412.55	117.03
412.74	182.56
412.93	145.11
413.12	131.07
413.31	194.26
413.50	88.94
413.69	177.88
413.88	154.48
414.07	126.39
414.26	117.03
414.45	53.83
414.64	131.07
414.83	124.05
415.02	203.63
415.22	201.29
415.41	248.10
415.60	117.03
415.79	88.94
415.98	161.50
416.17	149.79
416.36	117.03
416.55	194.26
416.74	131.07
416.93	135.75
417.12	159.16
417.31	152.13
417.50	135.75
417.69	142.77
417.88	154.48
418.07	4.68
418.26	166.18
418.45	177.88
418.64	215.33
418.83	102.98
419.02	88.94
419.21	114.69
419.39	126.39
419.58	147.45
419.77	114.69
419.96	93.62
420.15	138.09
420.34	114.69
420.53	138.09
420.72	149.79
420.91	189.58
421.10	105.32
421.29	170.86
421.48	121.71
421.67	184.90
421.86	147.45
422.05	175.54
422.24	98.30
422.43	128.73
422.61	124.05
422.80	140.43
422.99	138.09
423.18	133.41
423.37	156.82
423.56	156.82
423.75	138.09
423.94	53.83
424.13	201.29
424.32	138.09
424.50	161.50
424.69	212.99
424.88	159.16
425.07	126.39
425.26	124.05
425.45	98.30
425.64	147.45
425.83	163.84
426.01	152.13
426.20	107.66
426.39	152.13
426.58	65.54
426.77	79.58
426.96	126.39
427.15	154.48
427.33	191.92
427.52	112.35
427.71	107.66
427.90	147.45
428.09	112.35
428.28	147.45
428.46	121.71
428.65	105.32
428.84	147.45
429.03	215.33
429.22	196.60
429.40	119.37
429.59	149.79
429.78	161.50
429.97	175.54
430.16	135.75
430.34	138.09
430.53	145.11
430.72	124.05
430.91	184.90
431.10	198.95
431.28	163.84
431.47	180.22
431.66	133.41
431.85	84.26
432.03	170.86
432.22	184.90
432.41	102.98
432.60	184.90
432.79	77.24
432.97	156.82
433.16	152.13
433.35	114.69
433.54	95.96
433.72	152.13
433.91	182.56
434.10	112.35
434.28	161.50
434.47	112.35
434.66	210.65
434.85	128.73
435.03	299.59
435.22	528.96
435.41	863.66
435.59	926.85
435.78	653.01
435.97	456.40
436.16	255.12
436.34	173.20
436.53	149.79
436.72	147.45
436.90	241.08
437.09	152.13
437.28	182.56
437.46	124.05
437.65	180.22
437.84	194.26
438.02	163.84
438.21	170.86
438.40	131.07
438.58	102.98
438.77	117.03
438.96	124.05
439.14	168.52
439.33	159.16
439.52	140.43
439.70	124.05
439.89	170.86
440.08	86.60
440.26	79.58
440.45	128.73
440.63	177.88
440.82	187.24
441.01	166.18
441.19	156.82
441.38	180.22
441.57	142.77
441.75	201.29
441.94	159.16
442.12	154.48
442.31	119.37
442.50	238.73
442.68	163.84
442.87	152.13
443.05	112.35
443.24	208.31
443.43	189.58
443.61	248.10
443.80	152.13
443.98	105.32
444.17	128.73
444.35	187.24
444.54	173.20
444.73	135.75
444.91	93.62
445.10	210.65
445.28	124.05
445.47	159.16
445.65	184.90
445.84	105.32
446.02	147.45
446.21	189.58
446.39	117.03
446.58	189.58
446.77	217.67
446.95	86.60
447.14	198.95
447.32	163.84
447.51	175.54
447.69	196.60
447.88	135.75
448.06	187.24
448.25	189.58
448.43	98.30
448.62	81.92
448.80	182.56
448.99	177.88
449.17	154.48
449.36	170.86
449.54	170.86
449.73	182.56
449.91	159.16
450.10	168.52
450.28	212.99
450.46	243.42
450.65	234.05
450.83	177.88
451.02	152.13
451.20	149.79
451.39	175.54
451.57	173.20
451.76	154.48
451.94	98.30
452.13	201.29
452.31	168.52
452.49	217.67
452.68	114.69
452.86	201.29
453.05	177.88
453.23	126.39
453.42	140.43
453.60	133.41
453.78	189.58
453.97	142.77
454.15	156.82
454.34	198.95
454.52	149.79
454.70	203.63
454.89	163.84
455.07	107.66
455.26	238.73
455.44	142.77
455.62	161.50
455.81	231.71
455.99	198.95
456.17	180.22
456.36	243.42
456.54	128.73
456.73	203.63
456.91	182.56
457.09	149.79
457.28	177.88
457.46	138.09
457.64	187.24
457.83	227.03
458.01	128.73
458.19	175.54
458.38	154.48
458.56	159.16
458.74	180.22
458.93	196.60
459.11	128.73
459.29	102.98
459.48	131.07
459.66	210.65
459.84	198.95
460.03	215.33
460.21	208.31
460.39	198.95
460.57	159.16
460.76	182.56
460.94	149.79
461.12	201.29
461.31	198.95
461.49	168.52
461.67	224.69
461.85	187.24
462.04	166.18
462.22	568.75
462.40	229.37
462.59	191.92
462.77	159.16
462.95	135.75
463.13	170.86
463.32	241.08
463.50	154.48
463.68	142.77
463.86	114.69
464.05	126.39
464.23	236.39
464.41	191.92
464.59	156.82
464.78	133.41
464.96	234.05
465.14	170.86
465.32	138.09
465.50	187.24
465.69	88.94
465.87	220.01
466.05	147.45
466.23	161.50
466.41	175.54
466.60	117.03
466.78	255.12
466.96	124.05
467.14	163.84
467.32	159.16
467.51	184.90
467.69	147.45
467.87	269.16
468.05	147.45
468.23	212.99
468.41	205.97
468.60	184.90
468.78	196.60
468.96	201.29
469.14	177.88
469.32	170.86
469.50	135.75
469.69	189.58
469.87	189.58
470.05	126.39
470.23	124.05
470.41	140.43
470.59	163.84
470.77	154.48
470.95	114.69
471.14	187.24
471.32	149.79
471.50	182.56
471.68	198.95
471.86	224.69
472.04	161.50
472.22	102.98
472.40	166.18
472.58	208.31
472.77	243.42
472.95	161.50
473.13	210.65
473.31	208.31
473.49	194.26
473.67	124.05
473.85	205.97
474.03	220.01
474.21	107.66
474.39	191.92
474.57	231.71
474.75	86.60
474.93	105.32
475.12	135.75
475.30	220.01
475.48	156.82
475.66	212.99
475.84	152.13
476.02	63.19
476.20	138.09
476.38	135.75
476.56	208.31
476.74	102.98
476.92	168.52
477.10	128.73
477.28	201.29
477.46	203.63
477.64	255.12
477.82	170.86
478.00	215.33
478.18	194.26
478.36	168.52
478.54	191.92
478.72	154.48
478.90	187.24
479.08	159.16
479.26	161.50
479.44	135.75
479.62	180.22
479.80	156.82
479.98	184.90
480.16	222.35
480.34	187.24
480.52	168.52
480.70	257.46
480.88	161.50
481.06	217.67
481.24	163.84
481.41	205.97
481.59	248.10
481.77	205.97
481.95	243.42
482.13	210.65
482.31	187.24
482.49	168.52
482.67	159.16
482.85	273.84
483.03	264.48
483.21	166.18
483.39	196.60
483.57	187.24
483.74	243.42
483.92	196.60
484.10	241.08
484.28	276.18
484.46	255.12
484.64	273.84
484.82	285.55
485.00	278.52
485.18	229.37
485.35	271.50
485.53	299.59
485.71	320.65
485.89	215.33
486.07	227.03
486.25	294.91
486.43	252.78
486.61	273.84
486.78	308.95
486.96	311.29
487.14	297.25
487.32	252.78
487.50	330.02
487.68	285.55
487.85	252.78
488.03	285.55
488.21	259.80
488.39	248.10
488.57	231.71
488.75	210.65
488.92	568.75
489.10	248.10
489.28	287.89
489.46	262.14
489.64	297.25
489.81	217.67
489.99	320.65
490.17	287.89
490.35	386.19
490.53	259.80
490.70	266.82
490.88	227.03
491.06	241.08
491.24	301.93
491.41	262.14
491.59	252.78
491.77	269.16
491.95	280.86
492.13	276.18
492.30	236.39
492.48	276.18
492.66	278.52
492.84	194.26
493.01	236.39
493.19	252.78
493.37	372.15
493.54	222.35
493.72	243.42
493.90	182.56
494.08	201.29
494.25	294.91
494.43	322.99
494.61	231.71
494.79	271.50
494.96	245.76
495.14	236.39
495.32	208.31
495.49	273.84
495.67	290.23
495.85	210.65
496.02	205.97
496.20	238.73
496.38	280.86
496.55	278.52
496.73	264.48
496.91	269.16
497.09	250.44
497.26	234.05
497.44	210.65
497.62	287.89
497.79	313.63
497.97	238.73
498.14	304.27
498.32	241.08
498.50	294.91
498.67	196.60
498.85	231.71
499.03	259.80
499.20	334.70
499.38	231.71
499.56	231.71
499.73	241.08
499.91	243.42
500.08	255.12
500.26	271.50
500.44	229.37
500.61	234.05
500.79	222.35
500.97	203.63
501.14	248.10
501.32	177.88
501.49	266.82
501.67	201.29
501.84	208.31
502.02	259.80
502.20	210.65
502.37	168.52
502.55	138.09
502.72	229.37
502.90	217.67
503.07	205.97
503.25	217.67
503.43	198.95
503.60	212.99
503.78	238.73
503.95	236.39
504.13	290.23
504.30	236.39
504.48	362.78
504.65	318.31
504.83	189.58
505.01	215.33
505.18	262.14
505.36	280.86
505.53	262.14
505.71	259.80
505.88	273.84
506.06	201.29
506.23	266.82
506.41	248.10
506.58	287.89
506.76	203.63
506.93	229.37
507.11	238.73
507.28	241.08
507.46	236.39
507.63	269.16
507.81	250.44
507.98	205.97
508.16	271.50
508.33	269.16
508.50	273.84
508.68	229.37
508.85	262.14
509.03	215.33
509.20	222.35
509.38	161.50
509.55	344.06
509.73	313.63
509.90	280.86
510.08	283.20
510.25	245.76
510.42	184.90
510.60	257.46
510.77	266.82
510.95	212.99
511.12	168.52
511.30	187.24
511.47	243.42
511.64	318.31
511.82	217.67
511.99	198.95
512.17	248.10
512.34	182.56
512.51	184.90
512.69	220.01
512.86	215.33
513.04	231.71
513.21	220.01
513.38	259.80
513.56	234.05
513.73	217.67
513.90	135.75
514.08	222.35
514.25	194.26
514.43	248.10
514.60	266.82
514.77	173.20
514.95	184.90
515.12	166.18
515.29	269.16
515.47	327.68
515.64	234.05
515.81	266.82
515.99	248.10
516.16	194.26
516.33	210.65
516.51	180.22
516.68	201.29
516.85	271.50
517.03	285.55
517.20	264.48
517.37	245.76
517.54	266.82
517.72	229.37
517.89	203.63
518.06	210.65
518.24	220.01
518.41	266.82
518.58	159.16
518.75	231.71
518.93	205.97
519.10	220.01
519.27	224.69
519.45	271.50
519.62	220.01
519.79	252.78
519.96	203.63
520.14	201.29
520.31	252.78
520.48	266.82
520.65	168.52
520.83	301.93
521.00	273.84
521.17	224.69
521.34	229.37
521.52	264.48
521.69	241.08
521.86	231.71
522.03	180.22
522.20	231.71
522.38	241.08
522.55	187.24
522.72	177.88
522.89	290.23
523.07	285.55
523.24	234.05
523.41	210.65
523.58	252.78
523.75	163.84
523.92	280.86
524.10	255.12
524.27	280.86
524.44	220.01
524.61	315.97
524.78	212.99
524.96	304.27
525.13	245.76
525.30	292.57
525.47	287.89
525.64	203.63
525.81	220.01
525.98	238.73
526.16	238.73
526.33	241.08
526.50	212.99
526.67	222.35
526.84	196.60
527.01	177.88
527.18	245.76
527.36	313.63
527.53	315.97
527.70	297.25
527.87	252.78
528.04	252.78
528.21	255.12
528.38	306.61
528.55	304.27
528.72	205.97
528.89	175.54
529.07	229.37
529.24	278.52
529.41	313.63
529.58	276.18
529.75	276.18
529.92	210.65
530.09	236.39
530.26	271.50
530.43	255.12
530.60	205.97
530.77	245.76
530.94	262.14
531.11	273.84
531.28	234.05
531.46	280.86
531.63	325.33
531.80	292.57
531.97	271.50
532.14	304.27
532.31	222.35
532.48	255.12
532.65	287.89
532.82	330.02
532.99	301.93
533.16	276.18
533.33	294.91
533.50	252.78
533.67	276.18
533.84	257.46
534.01	348.74
534.18	229.37
534.35	297.25
534.52	287.89
534.69	315.97
534.86	248.10
535.03	290.23
535.20	243.42
535.37	327.68
535.54	285.55
535.71	257.46
535.88	339.38
536.05	217.67
536.22	290.23
536.38	273.84
536.55	320.65
536.72	306.61
536.89	306.61
537.06	330.02
537.23	325.33
537.40	344.06
537.57	390.87
537.74	355.76
537.91	353.42
538.08	425.98
538.25	374.49
538.42	414.27
538.59	440.02
538.75	362.78
538.92	411.93
539.09	484.49
539.26	393.21
539.43	465.77
539.60	442.36
539.77	456.40
539.94	491.51
540.11	603.86
540.28	545.34
540.44	657.69
540.61	671.73
540.78	760.67
540.95	788.76
541.12	905.79
541.29	997.07
541.46	1081.33
541.62	1034.52
541.79	1107.07
541.96	1034.52
542.13	957.28
542.30	971.32
542.47	931.53
542.63	917.49
542.80	851.96
542.97	961.96
543.14	929.19
543.31	912.81
543.48	863.66
543.64	947.92
543.81	805.14
543.98	858.98
544.15	959.62
544.32	976.00
544.48	987.71
544.65	905.79
544.82	873.02
544.99	833.23
545.16	905.79
545.32	905.79
545.49	1352.83
545.66	2052.65
545.83	2321.81
546.00	2139.25
546.16	1575.18
546.33	1205.38
546.50	903.45
546.67	868.34
546.83	671.73
547.00	725.57
547.17	725.57
547.34	685.78
547.50	674.07
547.67	641.31
547.84	660.03
548.00	587.47
548.17	599.18
548.34	538.32
548.51	631.94
548.67	552.37
548.84	552.37
549.01	500.87
549.18	582.79
549.34	528.96
549.51	533.64
549.68	468.11
549.84	461.09
550.01	496.19
550.18	566.41
550.34	547.69
550.51	433.00
550.68	425.98
550.84	374.49
551.01	416.62
551.18	423.64
551.34	479.81
551.51	407.25
551.68	383.85
551.84	409.59
552.01	390.87
552.18	264.48
552.34	388.53
552.51	325.33
552.68	390.87
552.84	297.25
553.01	325.33
553.18	388.53
553.34	360.44
553.51	393.21
553.67	390.87
553.84	379.17
554.01	379.17
554.17	351.08
554.34	283.20
554.51	292.57
554.67	304.27
554.84	304.27
555.00	322.99
555.17	266.82
555.33	301.93
555.50	346.40
555.67	346.40
555.83	269.16
556.00	346.40
556.16	383.85
556.33	292.57
556.50	285.55
556.66	210.65
556.83	222.35
556.99	297.25
557.16	278.52
557.32	215.33
557.49	243.42
557.65	243.42
557.82	320.65
557.98	271.50
558.15	259.80
558.32	252.78
558.48	234.05
558.65	243.42
558.81	262.14
558.98	182.56
559.14	287.89
559.31	236.39
559.47	229.37
559.64	248.10
559.80	337.04
559.97	215.33
560.13	283.20
560.30	252.78
560.46	234.05
560.63	313.63
560.79	210.65
560.96	294.91
561.12	182.56
561.29	224.69
561.45	262.14
561.61	145.11
561.78	374.49
561.94	252.78
562.11	215.33
562.27	266.82
562.44	245.76
562.60	243.42
562.77	224.69
562.93	278.52
563.10	234.05
563.26	290.23
563.42	280.86
563.59	276.18
563.75	220.01
563.92	269.16
564.08	341.72
564.24	250.44
564.41	252.78
564.57	210.65
564.74	231.71
564.90	273.84
565.07	238.73
565.23	248.10
565.39	320.65
565.56	154.48
565.72	283.20
565.88	255.12
566.05	264.48
566.21	187.24
566.38	273.84
566.54	227.03
566.70	224.69
566.87	250.44
567.03	217.67
567.19	196.60
567.36	248.10
567.52	220.01
567.68	208.31
567.85	229.37
568.01	290.23
568.17	224.69
568.34	217.67
568.50	290.23
568.66	238.73
568.83	315.97
568.99	212.99
569.15	292.57
569.32	255.12
569.48	210.65
569.64	170.86
569.81	203.63
569.97	217.67
570.13	273.84
570.30	269.16
570.46	191.92
570.62	231.71
570.78	112.35
570.95	245.76
571.11	290.23
571.27	170.86
571.43	243.42
571.60	308.95
571.76	238.73
571.92	252.78
572.09	177.88
572.25	255.12
572.41	255.12
572.57	255.12
572.74	217.67
572.90	297.25
573.06	290.23
573.22	236.39
573.38	241.08
573.55	262.14
573.71	224.69
573.87	231.71
574.03	220.01
574.20	227.03
574.36	238.73
574.52	262.14
574.68	269.16
574.84	227.03
575.01	191.92
575.17	301.93
575.33	241.08
575.49	299.59
575.65	203.63
575.82	205.97
575.98	273.84
576.14	318.31
576.30	346.40
576.46	461.09
576.62	594.50
576.79	634.29
576.95	507.90
577.11	327.68
577.27	311.29
577.43	280.86
577.59	351.08
577.75	311.29
577.92	250.44
578.08	217.67
578.24	266.82
578.40	372.15
578.56	430.66
578.72	624.92
578.88	610.88
579.04	531.30
579.21	414.27
579.37	409.59
579.53	264.48
579.69	388.53
579.85	409.59
580.01	393.21
580.17	372.15
580.33	360.44
580.49	369.80
580.65	353.42
580.82	348.74
580.98	369.80
581.14	388.53
581.30	381.51
581.46	325.33
581.62	400.23
581.78	381.51
581.94	320.65
582.10	330.02
582.26	372.15
582.42	404.91
582.58	381.51
582.74	430.66
582.90	332.36
583.06	463.43
583.22	320.65
583.38	369.80
583.54	407.25
583.70	433.00
583.86	322.99
584.02	409.59
584.18	367.46
584.34	320.65
584.50	411.93
584.66	360.44
584.82	367.46
584.98	397.89
585.14	351.08
585.30	360.44
585.46	379.17
585.62	355.76
585.78	369.80
585.94	346.40
586.10	404.91
586.26	372.15
586.42	407.25
586.58	435.34
586.74	468.11
586.90	416.62
587.06	557.05
587.22	568.75
587.38	519.60
587.54	447.04
587.70	470.45
587.86	393.21
588.02	397.89
588.18	447.04
588.34	299.59
588.49	318.31
588.65	351.08
588.81	252.78
588.97	278.52
589.13	332.36
589.29	311.29
589.45	346.40
589.61	283.20
589.77	271.50
589.93	278.52
590.08	280.86
590.24	227.03
590.40	294.91
590.56	374.49
590.72	234.05
590.88	287.89
591.04	283.20
591.20	266.82
591.35	290.23
591.51	191.92
591.67	264.48
591.83	332.36
591.99	409.59
592.15	383.85
592.31	358.10
592.46	421.30
592.62	425.98
592.78	521.94
592.94	507.90
593.10	437.68
593.26	407.25
593.41	404.91
593.57	318.31
593.73	332.36
593.89	269.16
594.05	325.33
594.20	231.71
594.36	266.82
594.52	215.33
594.68	243.42
594.84	264.48
594.99	292.57
595.15	339.38
595.31	341.72
595.47	283.20
595.62	215.33
595.78	297.25
595.94	236.39
596.10	227.03
596.25	212.99
596.41	278.52
596.57	358.10
596.73	257.46
596.88	262.14
597.04	224.69
597.20	339.38
597.36	294.91
597.51	285.55
597.67	210.65
597.83	290.23
597.99	332.36
598.14	353.42
598.30	372.15
598.46	262.14
598.61	313.63
598.77	344.06
598.93	311.29
599.09	372.15
599.24	344.06
599.40	393.21
599.56	344.06
599.71	290.23
599.87	339.38
600.03	301.93
600.18	360.44
600.34	327.68
600.50	318.31
600.65	231.71
600.81	358.10
600.97	262.14
601.12	283.20
601.28	327.68
601.44	299.59
601.59	266.82
601.75	353.42
601.91	217.67
602.06	250.44
602.22	301.93
602.37	287.89
602.53	212.99
602.69	147.45
602.84	264.48
603.00	229.37
603.16	273.84
603.31	252.78
603.47	283.20
603.62	306.61
603.78	344.06
603.94	278.52
604.09	315.97
604.25	341.72
604.40	191.92
604.56	278.52
604.71	301.93
604.87	182.56
605.03	215.33
605.18	234.05
605.34	234.05
605.49	304.27
605.65	215.33
605.80	320.65
605.96	257.46
606.12	337.04
606.27	294.91
606.43	215.33
606.58	301.93
606.74	257.46
606.89	358.10
607.05	227.03
607.20	283.20
607.36	358.10
607.51	315.97
607.67	376.83
607.82	344.06
607.98	344.06
608.13	330.02
608.29	339.38
608.44	409.59
608.60	325.33
608.75	416.62
608.91	465.77
609.06	477.47
609.22	477.47
609.37	491.51
609.53	592.16
609.68	613.22
609.84	664.71
609.99	788.76
610.15	725.57
610.30	828.55
610.46	1198.35
610.61	1432.41
610.76	1809.23
610.92	2062.01
611.07	2314.79
611.23	2375.64
611.38	2197.76
