SpectraSuite Data File
++++++++++++++++++++++++++++++++++++
Date: Fri Oct 04 11:42:00 GMT-05:00 2013
User: price-jones
Dark Spectrum Present: No
Reference Spectrum Present: No
Number of Sampled Component Spectra: 1
Spectrometers: USB2+H05261
Integration Time (usec): 100000 (USB2+H05261)
Spectra Averaged: 1 (USB2+H05261)
Boxcar Smoothing: 0 (USB2+H05261)
Correct for Electrical Dark: No (USB2+H05261)
Strobe/Lamp Enabled: No (USB2+H05261)
Correct for Detector Non-linearity: No (USB2+H05261)
Correct for Stray Light: No (USB2+H05261)
Number of Pixels in Processed Spectrum: 2048
>>>>>Begin Processed Spectral Data<<<<<
365.73	44.47
365.92	44.47
366.12	44.47
366.32	0.00
366.52	0.00
366.72	46.81
366.91	0.00
367.11	0.00
367.31	0.00
367.51	0.00
367.70	0.00
367.90	0.00
368.10	0.00
368.30	0.00
368.49	0.00
368.69	0.00
368.89	0.00
369.09	0.00
369.28	0.00
369.48	0.00
369.68	0.00
369.87	0.00
370.07	42.13
370.27	53.83
370.47	0.00
370.66	49.15
370.86	0.00
371.06	60.85
371.25	110.01
371.45	49.15
371.65	72.56
371.84	72.56
372.04	58.51
372.24	79.58
372.44	138.09
372.63	72.56
372.83	74.90
373.03	173.20
373.22	124.05
373.42	98.30
373.62	74.90
373.81	91.28
374.01	156.82
374.21	124.05
374.40	205.97
374.60	163.84
374.79	56.17
374.99	100.64
375.19	95.96
375.38	84.26
375.58	98.30
375.78	145.11
375.97	156.82
376.17	166.18
376.37	131.07
376.56	140.43
376.76	77.24
376.95	70.22
377.15	168.52
377.35	100.64
377.54	91.28
377.74	67.88
377.93	119.37
378.13	131.07
378.33	121.71
378.52	156.82
378.72	149.79
378.91	161.50
379.11	79.58
379.31	110.01
379.50	70.22
379.70	154.48
379.89	84.26
380.09	44.47
380.28	72.56
380.48	93.62
380.68	128.73
380.87	117.03
381.07	112.35
381.26	210.65
381.46	168.52
381.65	105.32
381.85	142.77
382.04	53.83
382.24	133.41
382.43	42.13
382.63	140.43
382.83	105.32
383.02	114.69
383.22	131.07
383.41	60.85
383.61	126.39
383.80	102.98
384.00	114.69
384.19	86.60
384.39	159.16
384.58	140.43
384.78	147.45
384.97	86.60
385.17	44.47
385.36	88.94
385.56	79.58
385.75	121.71
385.95	93.62
386.14	102.98
386.34	35.11
386.53	107.66
386.72	107.66
386.92	140.43
387.11	135.75
387.31	65.54
387.50	88.94
387.70	170.86
387.89	102.98
388.09	112.35
388.28	58.51
388.48	107.66
388.67	175.54
388.86	77.24
389.06	105.32
389.25	159.16
389.45	140.43
389.64	91.28
389.84	173.20
390.03	133.41
390.22	159.16
390.42	168.52
390.61	124.05
390.81	98.30
391.00	168.52
391.19	152.13
391.39	42.13
391.58	145.11
391.78	107.66
391.97	133.41
392.16	138.09
392.36	126.39
392.55	93.62
392.75	159.16
392.94	98.30
393.13	102.98
393.33	98.30
393.52	72.56
393.71	154.48
393.91	168.52
394.10	37.45
394.29	142.77
394.49	72.56
394.68	180.22
394.88	161.50
395.07	182.56
395.26	152.13
395.46	205.97
395.65	220.01
395.84	182.56
396.04	166.18
396.23	152.13
396.42	142.77
396.62	170.86
396.81	95.96
397.00	126.39
397.19	88.94
397.39	124.05
397.58	210.65
397.77	86.60
397.97	117.03
398.16	156.82
398.35	70.22
398.55	140.43
398.74	208.31
398.93	91.28
399.12	110.01
399.32	154.48
399.51	102.98
399.70	102.98
399.90	149.79
400.09	91.28
400.28	110.01
400.47	138.09
400.67	156.82
400.86	142.77
401.05	149.79
401.24	79.58
401.44	133.41
401.63	177.88
401.82	145.11
402.01	142.77
402.21	222.35
402.40	124.05
402.59	152.13
402.78	180.22
402.97	173.20
403.17	173.20
403.36	159.16
403.55	205.97
403.74	505.56
403.93	1486.24
404.13	3026.31
404.32	3550.59
404.51	2843.75
404.70	1830.30
404.89	620.24
405.09	262.14
405.28	238.73
405.47	198.95
405.66	98.30
405.85	105.32
406.05	163.84
406.24	154.48
406.43	105.32
406.62	184.90
406.81	170.86
407.00	327.68
407.20	428.32
407.39	599.18
407.58	543.00
407.77	423.64
407.96	308.95
408.15	210.65
408.34	117.03
408.54	152.13
408.73	187.24
408.92	86.60
409.11	154.48
409.30	149.79
409.49	126.39
409.68	149.79
409.87	191.92
410.07	156.82
410.26	191.92
410.45	215.33
410.64	105.32
410.83	147.45
411.02	163.84
411.21	142.77
411.40	224.69
411.59	112.35
411.78	121.71
411.98	227.03
412.17	163.84
412.36	152.13
412.55	189.58
412.74	203.63
412.93	220.01
413.12	177.88
413.31	180.22
413.50	91.28
413.69	173.20
413.88	175.54
414.07	135.75
414.26	182.56
414.45	189.58
414.64	241.08
414.83	217.67
415.02	145.11
415.22	184.90
415.41	152.13
415.60	215.33
415.79	142.77
415.98	222.35
416.17	177.88
416.36	145.11
416.55	95.96
416.74	203.63
416.93	166.18
417.12	259.80
417.31	110.01
417.50	229.37
417.69	212.99
417.88	208.31
418.07	257.46
418.26	220.01
418.45	175.54
418.64	280.86
418.83	250.44
419.02	210.65
419.21	184.90
419.39	149.79
419.58	124.05
419.77	170.86
419.96	128.73
420.15	191.92
420.34	215.33
420.53	241.08
420.72	241.08
420.91	227.03
421.10	177.88
421.29	241.08
421.48	229.37
421.67	276.18
421.86	201.29
422.05	220.01
422.24	238.73
422.43	234.05
422.61	187.24
422.80	222.35
422.99	168.52
423.18	191.92
423.37	238.73
423.56	287.89
423.75	229.37
423.94	196.60
424.13	227.03
424.32	294.91
424.50	201.29
424.69	231.71
424.88	276.18
425.07	285.55
425.26	250.44
425.45	297.25
425.64	280.86
425.83	201.29
426.01	255.12
426.20	222.35
426.39	196.60
426.58	250.44
426.77	220.01
426.96	194.26
427.15	229.37
427.33	264.48
427.52	266.82
427.71	224.69
427.90	306.61
428.09	322.99
428.28	168.52
428.46	161.50
428.65	264.48
428.84	297.25
429.03	322.99
429.22	229.37
429.40	222.35
429.59	229.37
429.78	320.65
429.97	208.31
430.16	220.01
430.34	227.03
430.53	238.73
430.72	264.48
430.91	278.52
431.10	201.29
431.28	252.78
431.47	224.69
431.66	245.76
431.85	327.68
432.03	322.99
432.22	299.59
432.41	278.52
432.60	175.54
432.79	311.29
432.97	294.91
433.16	297.25
433.35	353.42
433.54	374.49
433.72	454.06
433.91	381.51
434.10	365.12
434.28	559.39
434.47	587.47
434.66	589.82
434.85	774.72
435.03	2415.43
435.22	8468.06
435.41	15866.49
435.59	14398.98
435.78	9341.08
435.97	4594.47
436.16	1856.04
436.34	713.86
436.53	503.22
436.72	526.62
436.90	381.51
437.09	330.02
437.28	402.57
437.46	383.85
437.65	339.38
437.84	355.76
438.02	322.99
438.21	334.70
438.40	292.57
438.58	285.55
438.77	315.97
438.96	222.35
439.14	245.76
439.33	325.33
439.52	322.99
439.70	276.18
439.89	348.74
440.08	308.95
440.26	271.50
440.45	409.59
440.63	299.59
440.82	306.61
441.01	257.46
441.19	271.50
441.38	334.70
441.57	308.95
441.75	236.39
441.94	404.91
442.12	339.38
442.31	318.31
442.50	301.93
442.68	320.65
442.87	304.27
443.05	248.10
443.24	355.76
443.43	344.06
443.61	318.31
443.80	360.44
443.98	325.33
444.17	283.20
444.35	372.15
444.54	308.95
444.73	252.78
444.91	320.65
445.10	351.08
445.28	271.50
445.47	299.59
445.65	327.68
445.84	255.12
446.02	330.02
446.21	248.10
446.39	217.67
446.58	290.23
446.77	339.38
446.95	220.01
447.14	430.66
447.32	421.30
447.51	362.78
447.69	325.33
447.88	301.93
448.06	381.51
448.25	283.20
448.43	283.20
448.62	306.61
448.80	320.65
448.99	325.33
449.17	245.76
449.36	210.65
449.54	301.93
449.73	315.97
449.91	348.74
450.10	318.31
450.28	386.19
450.46	416.62
450.65	290.23
450.83	292.57
451.02	264.48
451.20	353.42
451.39	388.53
451.57	344.06
451.76	334.70
451.94	320.65
452.13	315.97
452.31	315.97
452.49	313.63
452.68	327.68
452.86	301.93
453.05	341.72
453.23	339.38
453.42	231.71
453.60	220.01
453.78	248.10
453.97	259.80
454.15	278.52
454.34	245.76
454.52	313.63
454.70	280.86
454.89	285.55
455.07	283.20
455.26	325.33
455.44	346.40
455.62	266.82
455.81	271.50
455.99	285.55
456.17	332.36
456.36	283.20
456.54	308.95
456.73	276.18
456.91	306.61
457.09	332.36
457.28	322.99
457.46	292.57
457.64	320.65
457.83	322.99
458.01	285.55
458.19	315.97
458.38	355.76
458.56	322.99
458.74	276.18
458.93	369.80
459.11	255.12
459.29	278.52
459.48	262.14
459.66	330.02
459.84	397.89
460.03	353.42
460.21	416.62
460.39	313.63
460.57	308.95
460.76	271.50
460.94	330.02
461.12	264.48
461.31	313.63
461.49	327.68
461.67	271.50
461.85	334.70
462.04	301.93
462.22	840.25
462.40	341.72
462.59	315.97
462.77	299.59
462.95	276.18
463.13	241.08
463.32	315.97
463.50	306.61
463.68	337.04
463.86	292.57
464.05	334.70
464.23	322.99
464.41	271.50
464.59	252.78
464.78	290.23
464.96	294.91
465.14	334.70
465.32	180.22
465.50	339.38
465.69	308.95
465.87	269.16
466.05	322.99
466.23	259.80
466.41	346.40
466.60	400.23
466.78	292.57
466.96	280.86
467.14	318.31
467.32	369.80
467.51	390.87
467.69	285.55
467.87	386.19
468.05	231.71
468.23	255.12
468.41	248.10
468.60	271.50
468.78	348.74
468.96	292.57
469.14	297.25
469.32	271.50
469.50	273.84
469.69	365.12
469.87	318.31
470.05	278.52
470.23	301.93
470.41	252.78
470.59	301.93
470.77	358.10
470.95	269.16
471.14	266.82
471.32	236.39
471.50	358.10
471.68	318.31
471.86	243.42
472.04	259.80
472.22	308.95
472.40	341.72
472.58	315.97
472.77	238.73
472.95	346.40
473.13	269.16
473.31	383.85
473.49	318.31
473.67	180.22
473.85	252.78
474.03	234.05
474.21	400.23
474.39	341.72
474.57	315.97
474.75	313.63
474.93	243.42
475.12	236.39
475.30	294.91
475.48	308.95
475.66	308.95
475.84	287.89
476.02	227.03
476.20	369.80
476.38	294.91
476.56	397.89
476.74	234.05
476.92	290.23
477.10	311.29
477.28	327.68
477.46	276.18
477.64	318.31
477.82	306.61
478.00	346.40
478.18	259.80
478.36	332.36
478.54	322.99
478.72	315.97
478.90	374.49
479.08	346.40
479.26	339.38
479.44	362.78
479.62	332.36
479.80	292.57
479.98	325.33
480.16	346.40
480.34	416.62
480.52	379.17
480.70	461.09
480.88	440.02
481.06	414.27
481.24	472.79
481.41	519.60
481.59	470.45
481.77	592.16
481.95	514.92
482.13	559.39
482.31	657.69
482.49	636.63
482.67	772.38
482.85	620.24
483.03	746.63
483.21	866.00
483.39	884.72
483.57	854.30
483.74	940.90
483.92	1013.45
484.10	1041.54
484.28	1128.14
484.46	1224.10
484.64	1151.54
484.82	1200.69
485.00	1308.36
485.18	1394.96
485.35	1427.73
485.53	1500.28
485.71	1519.01
485.89	1455.81
486.07	1654.76
486.25	1736.68
486.43	1743.70
486.61	1654.76
486.78	1600.93
486.96	1600.93
487.14	1547.09
487.32	1640.72
487.50	1694.55
487.68	1614.97
487.85	1636.03
488.03	1542.41
488.21	1537.73
488.39	1472.20
488.57	1481.56
488.75	1465.18
488.92	1729.66
489.10	1451.13
489.28	1394.96
489.46	1280.27
489.64	1313.04
489.81	1313.04
489.99	1362.19
490.17	1299.00
490.35	1390.28
490.53	1217.08
490.70	1240.48
490.88	1334.11
491.06	1348.15
491.24	1359.85
491.41	1469.86
491.59	1315.38
491.77	1366.87
491.95	1224.10
492.13	1186.65
492.30	1247.51
492.48	1074.31
492.66	1242.82
492.84	1203.04
493.01	1118.78
493.19	1125.80
493.37	1137.50
493.54	1088.35
493.72	1013.45
493.90	1034.52
494.08	1032.18
494.25	1006.43
494.43	1069.62
494.61	1081.33
494.79	966.64
494.96	947.92
495.14	889.40
495.32	964.30
495.49	1008.77
495.67	933.87
495.85	910.47
496.02	919.83
496.20	926.85
496.38	929.19
496.55	894.08
496.73	861.32
496.91	847.27
497.09	844.93
497.26	823.87
497.44	805.14
497.62	711.52
497.79	748.97
497.97	793.44
498.14	772.38
498.32	739.61
498.50	814.51
498.67	699.82
498.85	699.82
499.03	723.23
499.20	695.14
499.38	669.39
499.56	645.99
499.73	650.67
499.91	624.92
500.08	702.16
500.26	543.00
500.44	606.20
500.61	587.47
500.79	573.43
500.97	507.90
501.14	566.41
501.32	580.45
501.49	486.83
501.67	486.83
501.84	486.83
502.02	524.28
502.20	538.32
502.37	449.38
502.55	479.81
502.72	533.64
502.90	433.00
503.07	468.11
503.25	395.55
503.43	425.98
503.60	404.91
503.78	379.17
503.95	376.83
504.13	449.38
504.30	386.19
504.48	388.53
504.65	482.15
504.83	475.13
505.01	400.23
505.18	425.98
505.36	421.30
505.53	388.53
505.71	404.91
505.88	409.59
506.06	383.85
506.23	341.72
506.41	311.29
506.58	348.74
506.76	339.38
506.93	306.61
507.11	341.72
507.28	278.52
507.46	355.76
507.63	404.91
507.81	337.04
507.98	404.91
508.16	351.08
508.33	315.97
508.50	362.78
508.68	367.46
508.85	411.93
509.03	390.87
509.20	304.27
509.38	355.76
509.55	414.27
509.73	404.91
509.90	414.27
510.08	400.23
510.25	388.53
510.42	346.40
510.60	376.83
510.77	362.78
510.95	325.33
511.12	362.78
511.30	334.70
511.47	348.74
511.64	367.46
511.82	404.91
511.99	330.02
512.17	351.08
512.34	292.57
512.51	346.40
512.69	355.76
512.86	407.25
513.04	287.89
513.21	362.78
513.38	327.68
513.56	341.72
513.73	337.04
513.90	250.44
514.08	299.59
514.25	330.02
514.43	301.93
514.60	332.36
514.77	297.25
514.95	299.59
515.12	280.86
515.29	322.99
515.47	332.36
515.64	365.12
515.81	297.25
515.99	292.57
516.16	315.97
516.33	322.99
516.51	294.91
516.68	294.91
516.85	327.68
517.03	348.74
517.20	280.86
517.37	262.14
517.54	304.27
517.72	264.48
517.89	308.95
518.06	257.46
518.24	346.40
518.41	280.86
518.58	308.95
518.75	283.20
518.93	248.10
519.10	315.97
519.27	313.63
519.45	315.97
519.62	332.36
519.79	320.65
519.96	334.70
520.14	358.10
520.31	400.23
520.48	264.48
520.65	367.46
520.83	294.91
521.00	393.21
521.17	341.72
521.34	308.95
521.52	304.27
521.69	245.76
521.86	280.86
522.03	308.95
522.20	367.46
522.38	259.80
522.55	250.44
522.72	266.82
522.89	283.20
523.07	365.12
523.24	287.89
523.41	252.78
523.58	313.63
523.75	269.16
523.92	278.52
524.10	360.44
524.27	245.76
524.44	379.17
524.61	313.63
524.78	322.99
524.96	402.57
525.13	299.59
525.30	374.49
525.47	374.49
525.64	374.49
525.81	337.04
525.98	322.99
526.16	304.27
526.33	318.31
526.50	252.78
526.67	337.04
526.84	318.31
527.01	264.48
527.18	369.80
527.36	425.98
527.53	376.83
527.70	304.27
527.87	400.23
528.04	327.68
528.21	327.68
528.38	418.96
528.55	337.04
528.72	416.62
528.89	346.40
529.07	327.68
529.24	383.85
529.41	437.68
529.58	390.87
529.75	353.42
529.92	383.85
530.09	325.33
530.26	365.12
530.43	339.38
530.60	346.40
530.77	437.68
530.94	416.62
531.11	418.96
531.28	416.62
531.46	348.74
531.63	355.76
531.80	442.36
531.97	465.77
532.14	531.30
532.31	615.56
532.48	727.91
532.65	739.61
532.82	887.06
532.99	973.66
533.16	943.24
533.33	1067.28
533.50	1001.75
533.67	844.93
533.84	809.83
534.01	648.33
534.18	638.97
534.35	704.50
534.52	678.76
534.69	690.46
534.86	814.51
535.03	795.78
535.20	798.12
535.37	809.83
535.54	854.30
535.71	842.59
535.88	931.53
536.05	992.39
536.22	1060.26
536.38	1048.56
536.55	1217.08
536.72	1444.11
536.89	1460.49
537.06	1568.16
537.23	1792.85
537.40	1860.73
537.57	1940.30
537.74	2069.03
537.91	2218.83
538.08	2225.85
538.25	2165.00
538.42	2345.22
538.59	2289.04
538.75	2410.75
538.92	2495.01
539.09	2810.98
539.26	3213.56
539.43	3569.32
539.60	3798.69
539.77	4217.65
539.94	4669.37
540.11	5284.93
540.28	5830.27
540.44	6190.72
540.61	6939.69
540.78	7850.16
540.95	9778.76
541.12	11222.87
541.29	12540.59
541.46	12903.37
541.62	12917.42
541.79	12042.06
541.96	11325.85
542.13	10380.28
542.30	9678.12
542.47	9261.50
542.63	8919.78
542.80	8662.32
542.97	8561.68
543.14	8613.17
543.31	8606.15
543.48	8629.56
543.64	8674.03
543.81	8788.71
543.98	8833.18
544.15	8814.46
544.32	8975.95
544.48	9078.94
544.65	8718.50
544.82	8758.28
544.99	8842.54
545.16	9128.09
545.32	9710.88
545.49	18778.12
545.66	32079.38
545.83	35288.26
546.00	28435.17
546.16	19435.81
546.33	14204.71
546.50	10967.75
546.67	8821.48
546.83	7943.78
547.00	7499.08
547.17	7325.88
547.34	6729.04
547.50	6551.16
547.67	6345.19
547.84	6127.52
548.00	5944.96
548.17	5724.95
548.34	5584.52
548.51	5366.85
548.67	5013.43
548.84	4800.44
549.01	4550.00
549.18	4482.13
549.34	4306.59
549.51	4152.11
549.68	3946.14
549.84	3838.48
550.01	3620.81
550.18	3478.04
550.34	3431.23
550.51	3300.16
550.68	3052.06
550.84	2885.88
551.01	2717.36
551.18	2651.83
551.34	2443.52
551.51	2452.88
551.68	2289.04
551.84	2321.81
552.01	2223.51
552.18	2087.76
552.34	2073.71
552.51	2019.88
552.68	1909.88
552.84	1781.15
553.01	1781.15
553.18	1760.08
553.34	1535.39
553.51	1511.99
553.67	1563.48
553.84	1528.37
554.01	1490.92
554.17	1348.15
554.34	1259.21
554.51	1238.14
554.67	1198.35
554.84	1191.33
555.00	1008.77
555.17	1111.75
555.33	1064.94
555.50	976.00
555.67	828.55
555.83	835.57
556.00	835.57
556.16	954.94
556.33	786.42
556.50	777.06
556.66	732.59
556.83	709.18
556.99	758.33
557.16	716.20
557.32	641.31
557.49	657.69
557.65	636.63
557.82	645.99
557.98	667.05
558.15	678.76
558.32	660.03
558.48	463.43
558.65	589.82
558.81	557.05
558.98	648.33
559.14	636.63
559.31	496.19
559.47	531.30
559.64	489.17
559.80	643.65
559.97	461.09
560.13	594.50
560.30	517.26
560.46	524.28
560.63	540.66
560.79	533.64
560.96	475.13
561.12	498.53
561.29	519.60
561.45	498.53
561.61	510.24
561.78	550.03
561.94	486.83
562.11	484.49
562.27	524.28
562.44	521.94
562.60	517.26
562.77	503.22
562.93	451.72
563.10	510.24
563.26	491.51
563.42	507.90
563.59	519.60
563.75	505.56
563.92	472.79
564.08	433.00
564.24	465.77
564.41	423.64
564.57	404.91
564.74	348.74
564.90	456.40
565.07	407.25
565.23	430.66
565.39	418.96
565.56	458.74
565.72	369.80
565.88	395.55
566.05	449.38
566.21	418.96
566.38	386.19
566.54	409.59
566.70	454.06
566.87	463.43
567.03	409.59
567.19	477.47
567.36	423.64
567.52	435.34
567.68	458.74
567.85	489.17
568.01	437.68
568.17	423.64
568.34	463.43
568.50	451.72
568.66	465.77
568.83	535.98
568.99	411.93
569.15	449.38
569.32	456.40
569.48	402.57
569.64	383.85
569.81	360.44
569.97	372.15
570.13	397.89
570.30	383.85
570.46	344.06
570.62	353.42
570.78	313.63
570.95	259.80
571.11	442.36
571.27	374.49
571.43	386.19
571.60	369.80
571.76	355.76
571.92	313.63
572.09	397.89
572.25	437.68
572.41	409.59
572.57	348.74
572.74	374.49
572.90	330.02
573.06	362.78
573.22	407.25
573.38	449.38
573.55	337.04
573.71	451.72
573.87	409.59
574.03	397.89
574.20	353.42
574.36	386.19
574.52	383.85
574.68	339.38
574.84	435.34
575.01	418.96
575.17	411.93
575.33	461.09
575.49	503.22
575.65	564.07
575.82	507.90
575.98	617.90
576.14	660.03
576.30	1432.41
576.46	4156.79
576.62	5998.79
576.79	5980.07
576.95	4112.32
577.11	2799.28
577.27	2062.01
577.43	1542.41
577.59	954.94
577.75	812.17
577.92	737.27
578.08	819.19
578.24	781.74
578.40	1511.99
578.56	3871.25
578.72	5479.19
578.88	5455.79
579.04	4219.99
579.21	2906.95
579.37	2186.06
579.53	1804.55
579.69	1877.11
579.85	2225.85
580.01	2429.48
580.17	2291.38
580.33	1991.80
580.49	1746.04
580.65	1554.12
580.82	1434.75
580.98	1472.20
581.14	1380.92
581.30	1554.12
581.46	1668.80
581.62	1694.55
581.78	1811.57
581.94	1898.17
582.10	2064.35
582.26	2223.51
582.42	2385.01
582.58	2422.45
582.74	2457.56
582.90	2408.41
583.06	2326.49
583.22	2270.32
583.38	2361.60
583.54	2312.45
583.70	2246.91
583.86	2232.87
584.02	2165.00
584.18	2246.91
584.34	2111.16
584.50	2059.67
584.66	2104.14
584.82	2160.31
584.98	2165.00
585.14	1959.03
585.30	2005.84
585.46	1893.49
585.62	1872.43
585.78	1987.11
585.94	2017.54
586.10	2008.18
586.26	2026.90
586.42	2396.71
586.58	2885.88
586.74	3693.37
586.90	4067.85
587.06	4418.93
587.22	4236.37
587.38	3765.92
587.54	3332.92
587.70	2857.79
587.86	2499.69
588.02	2207.13
588.18	1966.05
588.34	1703.91
588.49	1526.03
588.65	1495.60
588.81	1434.75
588.97	1364.53
589.13	1444.11
589.29	1355.17
589.45	1416.02
589.61	1315.38
589.77	1394.96
589.93	1371.55
590.08	1430.07
590.24	1404.32
590.40	1469.86
590.56	1565.82
590.72	1476.88
590.88	1516.67
591.04	1713.27
591.20	1678.16
591.35	1776.47
591.51	1732.00
591.67	1863.07
591.83	2062.01
591.99	2190.74
592.15	2476.29
592.31	2576.93
592.46	2637.78
592.62	2984.18
592.78	3117.59
592.94	3162.06
593.10	3274.41
593.26	2913.97
593.41	2761.83
593.57	2483.31
593.73	2179.04
593.89	1996.48
594.05	1767.10
594.20	1596.25
594.36	1561.14
594.52	1472.20
594.68	1364.53
594.84	1289.64
594.99	1303.68
595.15	1299.00
595.31	1254.53
595.47	1277.93
595.62	1210.06
595.78	1156.22
595.94	1287.29
596.10	1174.95
596.25	1214.74
596.41	1151.54
596.57	1132.82
596.73	1231.12
596.88	1210.06
597.04	1224.10
597.20	1322.40
597.36	1376.24
597.51	1303.68
597.67	1289.64
597.83	1284.95
597.99	1542.41
598.14	1652.42
598.30	1521.35
598.46	1647.74
598.61	1797.53
598.77	1891.15
598.93	1879.45
599.09	1956.69
599.24	1944.99
599.40	1980.09
599.56	1980.09
599.71	1877.11
599.87	1720.29
600.03	1703.91
600.18	1605.61
600.34	1446.45
600.50	1306.02
600.65	1259.21
600.81	1245.16
600.97	1179.63
601.12	1006.43
601.28	1137.50
601.44	1011.11
601.59	830.89
601.75	896.43
601.91	889.40
602.06	887.06
602.22	915.15
602.37	891.74
602.53	840.25
602.69	887.06
602.84	828.55
603.00	805.14
603.16	922.17
603.31	844.93
603.47	926.85
603.62	894.08
603.78	933.87
603.94	905.79
604.09	917.49
604.25	999.41
604.40	994.73
604.56	968.98
604.71	1029.84
604.87	973.66
605.03	968.98
605.18	1064.94
605.34	1083.67
605.49	1018.13
605.65	1041.54
605.80	1083.67
605.96	1121.12
606.12	1196.01
606.27	1179.63
606.43	1294.32
606.58	1320.06
606.74	1394.96
606.89	1493.26
607.05	1535.39
607.20	1565.82
