SpectraSuite Data File
++++++++++++++++++++++++++++++++++++
Date: Fri Oct 04 11:41:52 GMT-05:00 2013
User: price-jones
Dark Spectrum Present: No
Reference Spectrum Present: No
Number of Sampled Component Spectra: 1
Spectrometers: USB2+H05261
Integration Time (usec): 100000 (USB2+H05261)
Spectra Averaged: 1 (USB2+H05261)
Boxcar Smoothing: 0 (USB2+H05261)
Correct for Electrical Dark: No (USB2+H05261)
Strobe/Lamp Enabled: No (USB2+H05261)
Correct for Detector Non-linearity: No (USB2+H05261)
Correct for Stray Light: No (USB2+H05261)
Number of Pixels in Processed Spectrum: 2048
>>>>>Begin Processed Spectral Data<<<<<
365.73	105.32
365.92	105.32
366.12	105.32
366.32	4.68
366.52	0.00
366.72	0.00
366.91	0.00
367.11	0.00
367.31	0.00
367.51	0.00
367.70	0.00
367.90	0.00
368.10	0.00
368.30	0.00
368.49	0.00
368.69	0.00
368.89	4.68
369.09	0.00
369.28	0.00
369.48	0.00
369.68	35.11
369.87	11.70
370.07	0.00
370.27	98.30
370.47	30.43
370.66	74.90
370.86	39.79
371.06	42.13
371.25	51.49
371.45	32.77
371.65	112.35
371.84	4.68
372.04	21.06
372.24	72.56
372.44	77.24
372.63	65.54
372.83	98.30
373.03	93.62
373.22	102.98
373.42	133.41
373.62	135.75
373.81	140.43
374.01	105.32
374.21	100.64
374.40	191.92
374.60	86.60
374.79	124.05
374.99	140.43
375.19	142.77
375.38	138.09
375.58	168.52
375.78	133.41
375.97	110.01
376.17	173.20
376.37	86.60
376.56	152.13
376.76	170.86
376.95	128.73
377.15	121.71
377.35	112.35
377.54	121.71
377.74	93.62
377.93	65.54
378.13	131.07
378.33	135.75
378.52	74.90
378.72	124.05
378.91	119.37
379.11	51.49
379.31	49.15
379.50	117.03
379.70	105.32
379.89	168.52
380.09	98.30
380.28	112.35
380.48	67.88
380.68	114.69
380.87	140.43
381.07	128.73
381.26	114.69
381.46	163.84
381.65	100.64
381.85	124.05
382.04	119.37
382.24	79.58
382.43	117.03
382.63	98.30
382.83	184.90
383.02	159.16
383.22	159.16
383.41	88.94
383.61	154.48
383.80	110.01
384.00	81.92
384.19	102.98
384.39	107.66
384.58	67.88
384.78	70.22
384.97	105.32
385.17	124.05
385.36	100.64
385.56	133.41
385.75	81.92
385.95	51.49
386.14	161.50
386.34	114.69
386.53	25.75
386.72	133.41
386.92	184.90
387.11	112.35
387.31	105.32
387.50	72.56
387.70	128.73
387.89	166.18
388.09	79.58
388.28	7.02
388.48	121.71
388.67	93.62
388.86	133.41
389.06	159.16
389.25	126.39
389.45	119.37
389.64	168.52
389.84	112.35
390.03	117.03
390.22	77.24
390.42	119.37
390.61	126.39
390.81	44.47
391.00	147.45
391.19	217.67
391.39	131.07
391.58	67.88
391.78	98.30
391.97	86.60
392.16	121.71
392.36	166.18
392.55	98.30
392.75	100.64
392.94	60.85
393.13	166.18
393.33	114.69
393.52	107.66
393.71	114.69
393.91	95.96
394.10	149.79
394.29	107.66
394.49	121.71
394.68	135.75
394.88	126.39
395.07	140.43
395.26	189.58
395.46	133.41
395.65	149.79
395.84	170.86
396.04	117.03
396.23	156.82
396.42	77.24
396.62	138.09
396.81	128.73
397.00	140.43
397.19	110.01
397.39	182.56
397.58	173.20
397.77	161.50
397.97	124.05
398.16	182.56
398.35	196.60
398.55	70.22
398.74	91.28
398.93	182.56
399.12	81.92
399.32	121.71
399.51	88.94
399.70	163.84
399.90	196.60
400.09	135.75
400.28	168.52
400.47	112.35
400.67	114.69
400.86	191.92
401.05	224.69
401.24	154.48
401.44	229.37
401.63	198.95
401.82	198.95
402.01	145.11
402.21	124.05
402.40	227.03
402.59	198.95
402.78	170.86
402.97	203.63
403.17	217.67
403.36	248.10
403.55	266.82
403.74	554.71
403.93	1907.54
404.13	4383.82
404.32	5654.73
404.51	4777.03
404.70	2799.28
404.89	1086.01
405.09	461.09
405.28	241.08
405.47	205.97
405.66	177.88
405.85	177.88
406.05	149.79
406.24	126.39
406.43	159.16
406.62	170.86
406.81	255.12
407.00	365.12
407.20	603.86
407.39	868.34
407.58	753.65
407.77	629.60
407.96	358.10
408.15	285.55
408.34	210.65
408.54	201.29
408.73	180.22
408.92	175.54
409.11	196.60
409.30	201.29
409.49	212.99
409.68	91.28
409.87	140.43
410.07	210.65
410.26	245.76
410.45	222.35
410.64	191.92
410.83	252.78
411.02	182.56
411.21	163.84
411.40	252.78
411.59	163.84
411.78	196.60
411.98	210.65
412.17	250.44
412.36	217.67
412.55	166.18
412.74	208.31
412.93	259.80
413.12	189.58
413.31	269.16
413.50	238.73
413.69	196.60
413.88	163.84
414.07	222.35
414.26	227.03
414.45	231.71
414.64	208.31
414.83	231.71
415.02	222.35
415.22	187.24
415.41	152.13
415.60	147.45
415.79	234.05
415.98	273.84
416.17	187.24
416.36	229.37
416.55	241.08
416.74	227.03
416.93	203.63
417.12	180.22
417.31	212.99
417.50	227.03
417.69	212.99
417.88	215.33
418.07	257.46
418.26	163.84
418.45	245.76
418.64	215.33
418.83	255.12
419.02	182.56
419.21	250.44
419.39	285.55
419.58	278.52
419.77	224.69
419.96	159.16
420.15	271.50
420.34	248.10
420.53	212.99
420.72	217.67
420.91	210.65
421.10	278.52
421.29	271.50
421.48	318.31
421.67	320.65
421.86	252.78
422.05	266.82
422.24	294.91
422.43	255.12
422.61	243.42
422.80	177.88
422.99	241.08
423.18	166.18
423.37	222.35
423.56	252.78
423.75	278.52
423.94	227.03
424.13	220.01
424.32	220.01
424.50	311.29
424.69	227.03
424.88	241.08
425.07	264.48
425.26	262.14
425.45	280.86
425.64	262.14
425.83	248.10
426.01	330.02
426.20	327.68
426.39	266.82
426.58	290.23
426.77	243.42
426.96	304.27
427.15	255.12
427.33	294.91
427.52	327.68
427.71	287.89
427.90	304.27
428.09	276.18
428.28	255.12
428.46	297.25
428.65	337.04
428.84	341.72
429.03	355.76
429.22	327.68
429.40	248.10
429.59	360.44
429.78	320.65
429.97	358.10
430.16	259.80
430.34	339.38
430.53	229.37
430.72	339.38
430.91	332.36
431.10	360.44
431.28	330.02
431.47	304.27
431.66	327.68
431.85	390.87
432.03	358.10
432.22	409.59
432.41	360.44
432.60	397.89
432.79	358.10
432.97	456.40
433.16	388.53
433.35	407.25
433.54	468.11
433.72	510.24
433.91	594.50
434.10	550.03
434.28	753.65
434.47	767.70
434.66	929.19
434.85	1142.18
435.03	3033.33
435.22	11515.44
435.41	25010.96
435.59	24809.68
435.78	16027.99
435.97	8168.47
436.16	2993.55
436.34	1191.33
436.53	723.23
436.72	599.18
436.90	486.83
437.09	510.24
437.28	449.38
437.46	456.40
437.65	444.70
437.84	456.40
438.02	454.06
438.21	379.17
438.40	397.89
438.58	346.40
438.77	369.80
438.96	348.74
439.14	376.83
439.33	409.59
439.52	425.98
439.70	390.87
439.89	444.70
440.08	386.19
440.26	393.21
440.45	369.80
440.63	435.34
440.82	334.70
441.01	430.66
441.19	400.23
441.38	442.36
441.57	402.57
441.75	442.36
441.94	433.00
442.12	430.66
442.31	449.38
442.50	430.66
442.68	351.08
442.87	404.91
443.05	337.04
443.24	332.36
443.43	528.96
443.61	404.91
443.80	461.09
443.98	327.68
444.17	341.72
444.35	425.98
444.54	425.98
444.73	358.10
444.91	449.38
445.10	397.89
445.28	400.23
445.47	414.27
445.65	409.59
445.84	458.74
446.02	315.97
446.21	372.15
446.39	313.63
446.58	430.66
446.77	437.68
446.95	393.21
447.14	461.09
447.32	355.76
447.51	393.21
447.69	435.34
447.88	423.64
448.06	409.59
448.25	386.19
448.43	388.53
448.62	360.44
448.80	395.55
448.99	330.02
449.17	348.74
449.36	327.68
449.54	409.59
449.73	423.64
449.91	388.53
450.10	346.40
450.28	447.04
450.46	402.57
450.65	383.85
450.83	386.19
451.02	360.44
451.20	404.91
451.39	386.19
451.57	372.15
451.76	318.31
451.94	346.40
452.13	416.62
452.31	433.00
452.49	386.19
452.68	411.93
452.86	418.96
453.05	339.38
453.23	393.21
453.42	358.10
453.60	400.23
453.78	381.51
453.97	334.70
454.15	416.62
454.34	430.66
454.52	390.87
454.70	456.40
454.89	484.49
455.07	456.40
455.26	400.23
455.44	390.87
455.62	418.96
455.81	388.53
455.99	402.57
456.17	458.74
456.36	353.42
456.54	395.55
456.73	383.85
456.91	437.68
457.09	322.99
457.28	409.59
457.46	330.02
457.64	397.89
457.83	393.21
458.01	395.55
458.19	365.12
458.38	360.44
458.56	411.93
458.74	355.76
458.93	332.36
459.11	365.12
459.29	386.19
459.48	376.83
459.66	407.25
459.84	287.89
460.03	468.11
460.21	351.08
460.39	393.21
460.57	437.68
460.76	390.87
460.94	388.53
461.12	477.47
461.31	337.04
461.49	444.70
461.67	407.25
461.85	344.06
462.04	395.55
462.22	854.30
462.40	379.17
462.59	418.96
462.77	404.91
462.95	341.72
463.13	374.49
463.32	358.10
463.50	299.59
463.68	381.51
463.86	411.93
464.05	393.21
464.23	456.40
464.41	421.30
464.59	337.04
464.78	376.83
464.96	383.85
465.14	376.83
465.32	407.25
465.50	372.15
465.69	318.31
465.87	315.97
466.05	388.53
466.23	250.44
466.41	414.27
466.60	456.40
466.78	376.83
466.96	440.02
467.14	390.87
467.32	390.87
467.51	390.87
467.69	423.64
467.87	390.87
468.05	414.27
468.23	383.85
468.41	383.85
468.60	365.12
468.78	355.76
468.96	411.93
469.14	339.38
469.32	299.59
469.50	353.42
469.69	332.36
469.87	404.91
470.05	339.38
470.23	337.04
470.41	404.91
470.59	411.93
470.77	402.57
470.95	407.25
471.14	318.31
471.32	390.87
471.50	451.72
471.68	287.89
471.86	318.31
472.04	358.10
472.22	372.15
472.40	393.21
472.58	437.68
472.77	376.83
472.95	294.91
473.13	519.60
473.31	351.08
473.49	337.04
473.67	365.12
473.85	395.55
474.03	362.78
474.21	297.25
474.39	402.57
474.57	442.36
474.75	383.85
474.93	404.91
475.12	346.40
475.30	353.42
475.48	334.70
475.66	346.40
475.84	418.96
476.02	437.68
476.20	374.49
476.38	334.70
476.56	447.04
476.74	388.53
476.92	330.02
477.10	407.25
477.28	418.96
477.46	360.44
477.64	332.36
477.82	404.91
478.00	393.21
478.18	404.91
478.36	447.04
478.54	397.89
478.72	407.25
478.90	454.06
479.08	470.45
479.26	458.74
479.44	458.74
479.62	477.47
479.80	489.17
479.98	519.60
480.16	545.34
480.34	568.75
480.52	524.28
480.70	641.31
480.88	528.96
481.06	608.54
481.24	648.33
481.41	596.84
481.59	676.41
481.77	669.39
481.95	730.25
482.13	905.79
482.31	877.70
482.49	945.58
482.67	1029.84
482.85	1015.79
483.03	1167.93
483.21	1100.05
483.39	1170.27
483.57	1329.42
483.74	1437.09
483.92	1495.60
484.10	1533.05
484.28	1565.82
484.46	1706.25
484.64	1732.00
484.82	1788.17
485.00	2038.61
485.18	2108.82
485.35	2062.01
485.53	2289.04
485.71	2331.17
485.89	2431.82
486.07	2448.20
486.25	2506.71
486.43	2595.65
486.61	2476.29
486.78	2583.95
486.96	2452.88
487.14	2551.18
487.32	2605.02
487.50	2450.54
487.68	2527.78
487.85	2457.56
488.03	2436.50
488.21	2455.22
488.39	2174.36
488.57	2225.85
488.75	2239.89
488.92	2359.26
489.10	2204.78
489.28	2169.68
489.46	2176.70
489.64	2038.61
489.81	1968.39
489.99	2003.50
490.17	1884.13
490.35	1930.94
490.53	1827.96
490.70	1940.30
490.88	1940.30
491.06	2015.20
491.24	2043.29
491.41	2085.42
491.59	2080.74
491.77	1935.62
491.95	1935.62
492.13	1874.77
492.30	1682.85
492.48	1732.00
492.66	1675.82
492.84	1659.44
493.01	1636.03
493.19	1593.90
493.37	1610.29
493.54	1554.12
493.72	1535.39
493.90	1451.13
494.08	1493.26
494.25	1519.01
494.43	1540.07
494.61	1430.07
494.79	1371.55
494.96	1413.68
495.14	1387.94
495.32	1366.87
495.49	1416.02
495.67	1413.68
495.85	1334.11
496.02	1235.80
496.20	1191.33
496.38	1268.57
496.55	1212.40
496.73	1249.85
496.91	1205.38
497.09	1249.85
497.26	1160.91
497.44	1170.27
497.62	1219.42
497.79	1071.97
497.97	1046.22
498.14	1137.50
498.32	1095.37
498.50	1043.88
498.67	964.30
498.85	947.92
499.03	999.41
499.20	983.02
499.38	999.41
499.56	866.00
499.73	957.28
499.91	854.30
500.08	828.55
500.26	784.08
500.44	849.61
500.61	765.36
500.79	734.93
500.97	791.10
501.14	758.33
501.32	725.57
501.49	788.76
501.67	725.57
501.84	702.16
502.02	655.35
502.20	674.07
502.37	660.03
502.55	596.84
502.72	608.54
502.90	610.88
503.07	594.50
503.25	486.83
503.43	543.00
503.60	561.73
503.78	575.77
503.95	550.03
504.13	496.19
504.30	489.17
504.48	540.66
504.65	475.13
504.83	428.32
505.01	477.47
505.18	528.96
505.36	482.15
505.53	451.72
505.71	472.79
505.88	507.90
506.06	444.70
506.23	437.68
506.41	367.46
506.58	500.87
506.76	407.25
506.93	416.62
507.11	379.17
507.28	414.27
507.46	484.49
507.63	468.11
507.81	463.43
507.98	435.34
508.16	425.98
508.33	433.00
508.50	320.65
508.68	395.55
508.85	418.96
509.03	447.04
509.20	447.04
509.38	484.49
509.55	393.21
509.73	493.85
509.90	470.45
510.08	433.00
510.25	451.72
510.42	386.19
510.60	374.49
510.77	320.65
510.95	418.96
511.12	433.00
511.30	365.12
511.47	334.70
511.64	449.38
511.82	344.06
511.99	369.80
512.17	362.78
512.34	409.59
512.51	365.12
512.69	358.10
512.86	348.74
513.04	390.87
513.21	355.76
513.38	397.89
513.56	379.17
513.73	386.19
513.90	409.59
514.08	390.87
514.25	407.25
514.43	337.04
514.60	393.21
514.77	334.70
514.95	339.38
515.12	320.65
515.29	294.91
515.47	355.76
515.64	425.98
515.81	383.85
515.99	411.93
516.16	433.00
516.33	395.55
516.51	355.76
516.68	369.80
516.85	418.96
517.03	334.70
517.20	414.27
517.37	372.15
517.54	383.85
517.72	362.78
517.89	269.16
518.06	294.91
518.24	418.96
518.41	334.70
518.58	313.63
518.75	313.63
518.93	280.86
519.10	339.38
519.27	238.73
519.45	383.85
519.62	353.42
519.79	344.06
519.96	365.12
520.14	285.55
520.31	320.65
520.48	311.29
520.65	339.38
520.83	290.23
521.00	344.06
521.17	365.12
521.34	262.14
521.52	280.86
521.69	280.86
521.86	348.74
522.03	332.36
522.20	409.59
522.38	353.42
522.55	273.84
522.72	346.40
522.89	306.61
523.07	344.06
523.24	411.93
523.41	283.20
523.58	362.78
523.75	395.55
523.92	315.97
524.10	337.04
524.27	325.33
524.44	337.04
524.61	421.30
524.78	397.89
524.96	418.96
525.13	374.49
525.30	320.65
525.47	355.76
525.64	341.72
525.81	393.21
525.98	374.49
526.16	386.19
526.33	374.49
526.50	390.87
526.67	362.78
526.84	409.59
527.01	430.66
527.18	461.09
527.36	409.59
527.53	416.62
527.70	512.58
527.87	456.40
528.04	437.68
528.21	442.36
528.38	376.83
528.55	491.51
528.72	430.66
528.89	472.79
529.07	358.10
529.24	395.55
529.41	535.98
529.58	362.78
529.75	442.36
529.92	425.98
530.09	496.19
530.26	498.53
530.43	437.68
530.60	379.17
530.77	423.64
530.94	514.92
531.11	519.60
531.28	528.96
531.46	472.79
531.63	526.62
531.80	557.05
531.97	566.41
532.14	683.44
532.31	732.59
532.48	952.60
532.65	1060.26
532.82	1043.88
532.99	1399.64
533.16	1558.80
533.33	1497.94
533.50	1465.18
533.67	1259.21
533.84	1048.56
534.01	882.38
534.18	894.08
534.35	905.79
534.52	866.00
534.69	1006.43
534.86	1046.22
535.03	997.07
535.20	1015.79
535.37	1090.69
535.54	1114.10
535.71	1203.04
535.88	1397.30
536.05	1371.55
536.22	1519.01
536.38	1596.25
536.55	1633.69
536.72	1980.09
536.89	2066.69
537.06	2307.77
537.23	2562.89
537.40	2827.37
537.57	2953.76
537.74	3117.59
537.91	3258.03
538.08	3407.82
538.25	3400.80
538.42	3346.97
538.59	3485.06
538.75	3494.42
538.92	3637.19
539.09	4180.20
539.26	4676.39
539.43	5200.67
539.60	5881.77
539.77	6581.59
539.94	7410.14
540.11	7934.42
540.28	8910.42
540.44	9626.62
540.61	10752.42
540.78	12430.59
540.95	14707.93
541.12	17699.13
541.29	19906.26
541.46	20711.40
541.62	20737.15
541.79	19651.14
541.96	18333.42
542.13	16760.58
542.30	15735.42
542.47	14906.87
542.63	14068.96
542.80	13696.82
542.97	13579.79
543.14	13235.73
543.31	13303.60
543.48	13563.40
543.64	13830.23
543.81	13736.60
543.98	13954.27
544.15	13965.98
544.32	14272.59
544.48	14101.73
544.65	13909.80
544.82	13858.31
544.99	13319.99
545.16	14085.34
545.32	14726.65
545.49	25879.30
545.66	46518.15
545.83	53036.54
546.00	45858.12
546.16	31924.91
546.33	23562.17
546.50	17774.03
546.67	14012.79
546.83	12589.74
547.00	11831.41
547.17	11232.23
547.34	11014.56
547.50	10494.96
547.67	10169.63
547.84	9748.33
548.00	9392.57
548.17	8975.95
548.34	8505.51
548.51	8194.22
548.67	8168.47
548.84	7667.60
549.01	7211.19
549.18	6874.15
549.34	6754.79
549.51	6445.84
549.68	6361.58
549.84	6019.86
550.01	5668.78
550.18	5406.64
550.34	5160.88
550.51	4919.81
550.68	4669.37
550.84	4777.03
551.01	4212.96
551.18	4133.39
551.34	3845.50
551.51	3723.79
551.68	3545.91
551.84	3396.12
552.01	3279.09
552.18	3133.98
552.34	3091.85
552.51	2904.60
552.68	2918.65
552.84	2799.28
553.01	2647.15
553.18	2462.24
553.34	2434.16
553.51	2380.32
553.67	2340.54
553.84	2267.98
554.01	2104.14
554.17	1966.05
554.34	1774.13
554.51	1778.81
554.67	1643.06
554.84	1544.75
555.00	1579.86
555.17	1352.83
555.33	1401.98
555.50	1270.91
555.67	1240.48
555.83	1111.75
556.00	1214.74
556.16	1219.42
556.33	1069.62
556.50	1102.39
556.66	1062.60
556.83	999.41
556.99	987.71
557.16	950.26
557.32	933.87
557.49	870.68
557.65	938.55
557.82	922.17
557.98	833.23
558.15	814.51
558.32	873.02
558.48	837.91
558.65	828.55
558.81	699.82
558.98	741.95
559.14	720.88
559.31	702.16
559.47	748.97
559.64	702.16
559.80	763.01
559.97	725.57
560.13	683.44
560.30	683.44
560.46	681.10
560.63	664.71
560.79	552.37
560.96	667.05
561.12	636.63
561.29	636.63
561.45	627.26
561.61	662.37
561.78	781.74
561.94	655.35
562.11	667.05
562.27	667.05
562.44	667.05
562.60	636.63
562.77	638.97
562.93	669.39
563.10	631.94
563.26	610.88
563.42	648.33
563.59	538.32
563.75	599.18
563.92	554.71
564.08	587.47
564.24	528.96
564.41	617.90
564.57	561.73
564.74	454.06
564.90	533.64
565.07	521.94
565.23	566.41
565.39	423.64
565.56	449.38
565.72	535.98
565.88	613.22
566.05	500.87
566.21	486.83
566.38	505.56
566.54	552.37
566.70	580.45
566.87	543.00
567.03	557.05
567.19	547.69
567.36	620.24
567.52	463.43
567.68	538.32
567.85	496.19
568.01	510.24
568.17	470.45
568.34	596.84
568.50	528.96
568.66	517.26
568.83	596.84
568.99	493.85
569.15	514.92
569.32	430.66
569.48	440.02
569.64	468.11
569.81	449.38
569.97	461.09
570.13	519.60
570.30	470.45
570.46	425.98
570.62	421.30
570.78	348.74
570.95	379.17
571.11	451.72
571.27	486.83
571.43	355.76
571.60	454.06
571.76	489.17
571.92	367.46
572.09	395.55
572.25	435.34
572.41	411.93
572.57	404.91
572.74	425.98
572.90	376.83
573.06	517.26
573.22	372.15
573.38	510.24
573.55	477.47
573.71	428.32
573.87	510.24
574.03	435.34
574.20	397.89
574.36	526.62
574.52	503.22
574.68	507.90
574.84	603.86
575.01	559.39
575.17	557.05
575.33	517.26
575.49	610.88
575.65	685.78
575.82	709.18
575.98	755.99
576.14	842.59
576.30	1739.02
576.46	5689.84
576.62	9291.93
576.79	9652.37
576.95	6965.43
577.11	4547.66
577.27	3124.62
577.43	2024.56
577.59	1530.71
577.75	1151.54
577.92	1158.57
578.08	1046.22
578.24	1088.35
578.40	1954.35
578.56	5270.89
578.72	8552.32
578.88	8524.23
579.04	6193.06
579.21	4596.81
579.37	3393.78
579.53	2710.34
579.69	2569.91
579.85	3094.19
580.01	3634.85
580.17	3463.99
580.33	2867.16
580.49	2595.65
580.65	2272.66
580.82	2237.55
580.98	2155.63
581.14	2228.19
581.30	2188.40
581.46	2356.92
581.62	2544.16
581.78	2745.45
581.94	2953.76
582.10	3169.09
582.26	3194.83
582.42	3302.50
582.58	3522.51
582.74	3578.68
582.90	3513.14
583.06	3658.26
583.22	3468.67
583.38	3606.77
583.54	3517.83
583.70	3501.44
583.86	3588.04
584.02	3555.27
584.18	3419.52
584.34	3262.71
584.50	3297.81
584.66	3155.04
584.82	3197.17
584.98	3204.19
585.14	3077.80
585.30	3152.70
585.46	2981.84
585.62	2979.50
585.78	3103.55
585.94	2965.46
586.10	3012.27
586.26	3211.22
586.42	3632.51
586.58	4252.75
586.74	5317.70
586.90	6394.34
587.06	6909.26
587.22	6574.56
587.38	5841.98
587.54	5203.01
587.70	4451.70
587.86	3721.45
588.02	3258.03
588.18	2906.95
588.34	2595.65
588.49	2406.07
588.65	2157.97
588.81	2202.44
588.97	2024.56
589.13	1973.07
589.29	2043.29
589.45	2047.97
589.61	1994.14
589.77	1956.69
589.93	1982.43
590.08	2022.22
590.24	2120.53
590.40	2279.68
590.56	2272.66
590.72	2422.45
590.88	2197.76
591.04	2356.92
591.20	2663.53
591.35	2651.83
591.51	2801.62
591.67	2801.62
591.83	2986.52
591.99	3262.71
592.15	3501.44
592.31	3861.88
592.46	4222.33
592.62	4599.15
592.78	4774.69
592.94	4943.21
593.10	4835.55
593.26	4608.51
593.41	4325.31
593.57	3861.88
593.73	3400.80
593.89	3063.76
594.05	2757.15
594.20	2319.47
594.36	2246.91
594.52	2062.01
594.68	2008.18
594.84	1928.60
594.99	2047.97
595.15	1891.15
595.31	1842.00
595.47	1816.26
595.62	1818.60
595.78	1832.64
595.94	1802.21
596.10	1776.47
596.25	1722.63
596.41	1839.66
596.57	1860.73
596.73	1687.53
596.88	1741.36
597.04	1898.17
597.20	1788.17
597.36	1827.96
597.51	1781.15
597.67	2036.27
597.83	1987.11
597.99	2139.25
598.14	2307.77
598.30	2457.56
598.46	2539.48
598.61	2794.60
598.77	2822.69
598.93	2977.16
599.09	2878.86
599.24	2986.52
599.40	2951.42
599.56	2939.71
599.71	2768.85
599.87	2661.19
600.03	2436.50
600.18	2246.91
600.34	2211.81
600.50	2083.08
600.65	1900.52
600.81	1823.28
600.97	1614.97
601.12	1535.39
601.28	1544.75
601.44	1596.25
601.59	1366.87
601.75	1401.98
601.91	1352.83
602.06	1308.36
602.22	1320.06
602.37	1228.78
602.53	1291.98
602.69	1240.48
602.84	1212.40
603.00	1238.14
603.16	1315.38
603.31	1284.95
603.47	1210.06
603.62	1245.16
603.78	1275.59
603.94	1362.19
604.09	1380.92
604.25	1390.28
604.40	1455.81
604.56	1423.05
604.71	1427.73
604.87	1331.76
605.03	1453.47
605.18	1537.73
605.34	1544.75
605.49	1544.75
605.65	1570.50
605.80	1558.80
