SpectraSuite Data File
++++++++++++++++++++++++++++++++++++
Date: Fri Oct 04 11:42:30 GMT-05:00 2013
User: price-jones
Dark Spectrum Present: No
Reference Spectrum Present: No
Number of Sampled Component Spectra: 1
Spectrometers: USB2+H05261
Integration Time (usec): 100000 (USB2+H05261)
Spectra Averaged: 1 (USB2+H05261)
Boxcar Smoothing: 0 (USB2+H05261)
Correct for Electrical Dark: No (USB2+H05261)
Strobe/Lamp Enabled: No (USB2+H05261)
Correct for Detector Non-linearity: No (USB2+H05261)
Correct for Stray Light: No (USB2+H05261)
Number of Pixels in Processed Spectrum: 2048
>>>>>Begin Processed Spectral Data<<<<<
365.73	98.30
365.92	98.30
366.12	98.30
366.32	0.00
366.52	0.00
366.72	0.00
366.91	0.00
367.11	0.00
367.31	0.00
367.51	0.00
367.70	0.00
367.90	0.00
368.10	0.00
368.30	0.00
368.49	0.00
368.69	0.00
368.89	0.00
369.09	0.00
369.28	0.00
369.48	0.00
369.68	0.00
369.87	0.00
370.07	4.68
370.27	0.00
370.47	0.00
370.66	72.56
370.86	14.04
371.06	14.04
371.25	23.41
371.45	58.51
371.65	35.11
371.84	81.92
372.04	95.96
372.24	135.75
372.44	79.58
372.63	74.90
372.83	142.77
373.03	84.26
373.22	138.09
373.42	44.47
373.62	79.58
373.81	88.94
374.01	79.58
374.21	156.82
374.40	128.73
374.60	114.69
374.79	114.69
374.99	105.32
375.19	72.56
375.38	88.94
375.58	91.28
375.78	175.54
375.97	84.26
376.17	131.07
376.37	154.48
376.56	121.71
376.76	149.79
376.95	100.64
377.15	119.37
377.35	112.35
377.54	180.22
377.74	138.09
377.93	102.98
378.13	65.54
378.33	163.84
378.52	98.30
378.72	187.24
378.91	147.45
379.11	70.22
379.31	95.96
379.50	135.75
379.70	126.39
379.89	95.96
380.09	142.77
380.28	49.15
380.48	126.39
380.68	105.32
380.87	98.30
381.07	152.13
381.26	88.94
381.46	81.92
381.65	110.01
381.85	128.73
382.04	110.01
382.24	42.13
382.43	119.37
382.63	112.35
382.83	110.01
383.02	161.50
383.22	180.22
383.41	107.66
383.61	51.49
383.80	84.26
384.00	58.51
384.19	91.28
384.39	121.71
384.58	156.82
384.78	177.88
384.97	91.28
385.17	86.60
385.36	67.88
385.56	77.24
385.75	23.41
385.95	117.03
386.14	142.77
386.34	161.50
386.53	105.32
386.72	58.51
386.92	140.43
387.11	110.01
387.31	149.79
387.50	86.60
387.70	121.71
387.89	35.11
388.09	117.03
388.28	112.35
388.48	39.79
388.67	138.09
388.86	84.26
389.06	121.71
389.25	112.35
389.45	81.92
389.64	88.94
389.84	114.69
390.03	81.92
390.22	124.05
390.42	201.29
390.61	81.92
390.81	56.17
391.00	98.30
391.19	131.07
391.39	149.79
391.58	112.35
391.78	138.09
391.97	152.13
392.16	86.60
392.36	65.54
392.55	84.26
392.75	107.66
392.94	74.90
393.13	81.92
393.33	42.13
393.52	114.69
393.71	180.22
393.91	142.77
394.10	156.82
394.29	70.22
394.49	84.26
394.68	110.01
394.88	191.92
395.07	131.07
395.26	88.94
395.46	173.20
395.65	191.92
395.84	126.39
396.04	154.48
396.23	35.11
396.42	124.05
396.62	102.98
396.81	175.54
397.00	95.96
397.19	93.62
397.39	126.39
397.58	74.90
397.77	140.43
397.97	119.37
398.16	149.79
398.35	100.64
398.55	128.73
398.74	154.48
398.93	95.96
399.12	79.58
399.32	39.79
399.51	84.26
399.70	93.62
399.90	88.94
400.09	35.11
400.28	147.45
400.47	21.06
400.67	117.03
400.86	145.11
401.05	180.22
401.24	140.43
401.44	81.92
401.63	142.77
401.82	126.39
402.01	107.66
402.21	102.98
402.40	112.35
402.59	140.43
402.78	168.52
402.97	93.62
403.17	135.75
403.36	128.73
403.55	112.35
403.74	102.98
403.93	173.20
404.13	255.12
404.32	241.08
404.51	285.55
404.70	168.52
404.89	163.84
405.09	142.77
405.28	149.79
405.47	95.96
405.66	84.26
405.85	184.90
406.05	102.98
406.24	142.77
406.43	135.75
406.62	201.29
406.81	173.20
407.00	140.43
407.20	131.07
407.39	142.77
407.58	156.82
407.77	135.75
407.96	145.11
408.15	121.71
408.34	215.33
408.54	201.29
408.73	173.20
408.92	93.62
409.11	84.26
409.30	168.52
409.49	124.05
409.68	140.43
409.87	95.96
410.07	112.35
410.26	112.35
410.45	187.24
410.64	147.45
410.83	142.77
411.02	138.09
411.21	88.94
411.40	175.54
411.59	133.41
411.78	201.29
411.98	117.03
412.17	102.98
412.36	77.24
412.55	140.43
412.74	166.18
412.93	224.69
413.12	42.13
413.31	191.92
413.50	25.75
413.69	21.06
413.88	238.73
414.07	112.35
414.26	133.41
414.45	124.05
414.64	177.88
414.83	112.35
415.02	126.39
415.22	67.88
415.41	189.58
415.60	98.30
415.79	88.94
415.98	205.97
416.17	79.58
416.36	105.32
416.55	138.09
416.74	177.88
416.93	124.05
417.12	49.15
417.31	112.35
417.50	128.73
417.69	248.10
417.88	149.79
418.07	131.07
418.26	156.82
418.45	72.56
418.64	180.22
418.83	126.39
419.02	114.69
419.21	196.60
419.39	198.95
419.58	147.45
419.77	147.45
419.96	189.58
420.15	154.48
420.34	142.77
420.53	166.18
420.72	119.37
420.91	98.30
421.10	175.54
421.29	147.45
421.48	117.03
421.67	191.92
421.86	161.50
422.05	79.58
422.24	124.05
422.43	95.96
422.61	142.77
422.80	140.43
422.99	184.90
423.18	142.77
423.37	166.18
423.56	145.11
423.75	182.56
423.94	98.30
424.13	117.03
424.32	86.60
424.50	149.79
424.69	114.69
424.88	173.20
425.07	91.28
425.26	121.71
425.45	100.64
425.64	147.45
425.83	177.88
426.01	147.45
426.20	126.39
426.39	121.71
426.58	131.07
426.77	180.22
426.96	159.16
427.15	177.88
427.33	100.64
427.52	128.73
427.71	142.77
427.90	133.41
428.09	149.79
428.28	145.11
428.46	166.18
428.65	163.84
428.84	107.66
429.03	236.39
429.22	117.03
429.40	93.62
429.59	112.35
429.78	156.82
429.97	4.68
430.16	124.05
430.34	182.56
430.53	35.11
430.72	156.82
430.91	156.82
431.10	117.03
431.28	152.13
431.47	166.18
431.66	180.22
431.85	84.26
432.03	128.73
432.22	184.90
432.41	126.39
432.60	224.69
432.79	124.05
432.97	147.45
433.16	131.07
433.35	156.82
433.54	220.01
433.72	81.92
433.91	100.64
434.10	175.54
434.28	175.54
434.47	86.60
434.66	184.90
434.85	173.20
435.03	341.72
435.22	641.31
435.41	978.34
435.59	1135.16
435.78	774.72
435.97	517.26
436.16	341.72
436.34	184.90
436.53	117.03
436.72	152.13
436.90	203.63
437.09	191.92
437.28	168.52
437.46	159.16
437.65	161.50
437.84	184.90
438.02	173.20
438.21	170.86
438.40	180.22
438.58	156.82
438.77	163.84
438.96	170.86
439.14	173.20
439.33	161.50
439.52	177.88
439.70	173.20
439.89	187.24
440.08	180.22
440.26	93.62
440.45	189.58
440.63	210.65
440.82	156.82
441.01	205.97
441.19	138.09
441.38	215.33
441.57	187.24
441.75	222.35
441.94	177.88
442.12	163.84
442.31	140.43
442.50	121.71
442.68	170.86
442.87	182.56
443.05	224.69
443.24	220.01
443.43	180.22
443.61	159.16
443.80	191.92
443.98	114.69
444.17	140.43
444.35	184.90
444.54	149.79
444.73	147.45
444.91	140.43
445.10	201.29
445.28	184.90
445.47	177.88
445.65	135.75
445.84	175.54
446.02	191.92
446.21	112.35
446.39	161.50
446.58	159.16
446.77	119.37
446.95	138.09
447.14	196.60
447.32	191.92
447.51	126.39
447.69	149.79
447.88	112.35
448.06	194.26
448.25	203.63
448.43	117.03
448.62	79.58
448.80	194.26
448.99	238.73
449.17	215.33
449.36	205.97
449.54	180.22
449.73	149.79
449.91	182.56
450.10	220.01
450.28	210.65
450.46	287.89
450.65	201.29
450.83	159.16
451.02	173.20
451.20	98.30
451.39	196.60
451.57	184.90
451.76	203.63
451.94	262.14
452.13	205.97
452.31	229.37
452.49	198.95
452.68	112.35
452.86	124.05
453.05	217.67
453.23	161.50
453.42	124.05
453.60	126.39
453.78	203.63
453.97	119.37
454.15	180.22
454.34	159.16
454.52	182.56
454.70	194.26
454.89	210.65
455.07	196.60
455.26	187.24
455.44	189.58
455.62	138.09
455.81	135.75
455.99	149.79
456.17	212.99
456.36	231.71
456.54	163.84
456.73	231.71
456.91	177.88
457.09	227.03
457.28	194.26
457.46	142.77
457.64	252.78
457.83	175.54
458.01	138.09
458.19	145.11
458.38	194.26
458.56	163.84
458.74	184.90
458.93	212.99
459.11	205.97
459.29	128.73
459.48	166.18
459.66	152.13
459.84	177.88
460.03	175.54
460.21	175.54
460.39	128.73
460.57	194.26
460.76	229.37
460.94	184.90
461.12	215.33
461.31	105.32
461.49	133.41
461.67	140.43
461.85	198.95
462.04	163.84
462.22	376.83
462.40	119.37
462.59	168.52
462.77	149.79
462.95	159.16
463.13	163.84
463.32	184.90
463.50	175.54
463.68	184.90
463.86	145.11
464.05	184.90
464.23	227.03
464.41	177.88
464.59	145.11
464.78	163.84
464.96	173.20
465.14	86.60
465.32	170.86
465.50	175.54
465.69	215.33
465.87	149.79
466.05	215.33
466.23	203.63
466.41	168.52
466.60	131.07
466.78	128.73
466.96	252.78
467.14	140.43
467.32	149.79
467.51	149.79
467.69	234.05
467.87	201.29
468.05	140.43
468.23	210.65
468.41	149.79
468.60	198.95
468.78	100.64
468.96	131.07
469.14	234.05
469.32	173.20
469.50	145.11
469.69	63.19
469.87	231.71
470.05	166.18
470.23	168.52
470.41	191.92
470.59	102.98
470.77	170.86
470.95	128.73
471.14	238.73
471.32	163.84
471.50	229.37
471.68	149.79
471.86	215.33
472.04	163.84
472.22	236.39
472.40	135.75
472.58	166.18
472.77	208.31
472.95	121.71
473.13	229.37
473.31	194.26
473.49	156.82
473.67	238.73
473.85	191.92
474.03	229.37
474.21	119.37
474.39	124.05
474.57	156.82
474.75	159.16
474.93	128.73
475.12	161.50
475.30	208.31
475.48	184.90
475.66	102.98
475.84	173.20
476.02	112.35
476.20	224.69
476.38	110.01
476.56	198.95
476.74	191.92
476.92	201.29
477.10	175.54
477.28	187.24
477.46	168.52
477.64	198.95
477.82	184.90
478.00	177.88
478.18	131.07
478.36	124.05
478.54	191.92
478.72	175.54
478.90	142.77
479.08	191.92
479.26	177.88
479.44	168.52
479.62	117.03
479.80	140.43
479.98	196.60
480.16	210.65
480.34	224.69
480.52	187.24
480.70	222.35
480.88	252.78
481.06	168.52
481.24	215.33
481.41	217.67
481.59	182.56
481.77	154.48
481.95	205.97
482.13	245.76
482.31	175.54
482.49	220.01
482.67	231.71
482.85	220.01
483.03	280.86
483.21	159.16
483.39	234.05
483.57	224.69
483.74	301.93
483.92	301.93
484.10	234.05
484.28	283.20
484.46	325.33
484.64	311.29
484.82	250.44
485.00	346.40
485.18	262.14
485.35	306.61
485.53	257.46
485.71	388.53
485.89	257.46
486.07	250.44
486.25	376.83
486.43	339.38
486.61	374.49
486.78	255.12
486.96	311.29
487.14	269.16
487.32	262.14
487.50	271.50
487.68	395.55
487.85	227.03
488.03	320.65
488.21	414.27
488.39	390.87
488.57	273.84
488.75	280.86
488.92	571.09
489.10	308.95
489.28	264.48
489.46	355.76
489.64	330.02
489.81	271.50
489.99	322.99
490.17	283.20
490.35	367.46
490.53	278.52
490.70	250.44
490.88	308.95
491.06	348.74
491.24	313.63
491.41	337.04
491.59	266.82
491.77	266.82
491.95	276.18
492.13	318.31
492.30	311.29
492.48	248.10
492.66	259.80
492.84	325.33
493.01	327.68
493.19	306.61
493.37	383.85
493.54	287.89
493.72	264.48
493.90	301.93
494.08	308.95
494.25	255.12
494.43	243.42
494.61	262.14
494.79	278.52
494.96	262.14
495.14	208.31
495.32	257.46
495.49	248.10
495.67	297.25
495.85	313.63
496.02	250.44
496.20	334.70
496.38	353.42
496.55	264.48
496.73	301.93
496.91	287.89
497.09	402.57
497.26	306.61
497.44	231.71
497.62	259.80
497.79	292.57
497.97	299.59
498.14	222.35
498.32	308.95
498.50	231.71
498.67	208.31
498.85	196.60
499.03	271.50
499.20	292.57
499.38	299.59
499.56	245.76
499.73	297.25
499.91	285.55
500.08	313.63
500.26	264.48
500.44	224.69
500.61	285.55
500.79	245.76
500.97	212.99
501.14	320.65
501.32	184.90
501.49	299.59
501.67	276.18
501.84	243.42
502.02	191.92
502.20	294.91
502.37	306.61
502.55	224.69
502.72	278.52
502.90	187.24
503.07	269.16
503.25	224.69
503.43	201.29
503.60	187.24
503.78	245.76
503.95	215.33
504.13	227.03
504.30	182.56
504.48	262.14
504.65	308.95
504.83	203.63
505.01	231.71
505.18	252.78
505.36	203.63
505.53	210.65
505.71	187.24
505.88	276.18
506.06	161.50
506.23	168.52
506.41	220.01
506.58	255.12
506.76	290.23
506.93	255.12
507.11	283.20
507.28	208.31
507.46	220.01
507.63	243.42
507.81	250.44
507.98	222.35
508.16	224.69
508.33	259.80
508.50	212.99
508.68	220.01
508.85	287.89
509.03	243.42
509.20	170.86
509.38	252.78
509.55	271.50
509.73	252.78
509.90	280.86
510.08	231.71
510.25	231.71
510.42	182.56
510.60	210.65
510.77	231.71
510.95	241.08
511.12	269.16
511.30	262.14
511.47	264.48
511.64	297.25
511.82	220.01
511.99	252.78
512.17	224.69
512.34	236.39
512.51	292.57
512.69	231.71
512.86	255.12
513.04	194.26
513.21	287.89
513.38	269.16
513.56	269.16
513.73	234.05
513.90	180.22
514.08	184.90
514.25	292.57
514.43	173.20
514.60	245.76
514.77	257.46
514.95	236.39
515.12	243.42
515.29	266.82
515.47	248.10
515.64	346.40
515.81	234.05
515.99	262.14
516.16	304.27
516.33	245.76
516.51	252.78
516.68	266.82
516.85	220.01
517.03	205.97
517.20	241.08
517.37	210.65
517.54	241.08
517.72	198.95
517.89	262.14
518.06	250.44
518.24	266.82
518.41	290.23
518.58	266.82
518.75	248.10
518.93	250.44
519.10	201.29
519.27	252.78
519.45	264.48
519.62	276.18
519.79	269.16
519.96	191.92
520.14	292.57
520.31	215.33
520.48	231.71
520.65	283.20
520.83	283.20
521.00	173.20
521.17	271.50
521.34	217.67
521.52	252.78
521.69	215.33
521.86	259.80
522.03	351.08
522.20	294.91
522.38	222.35
522.55	241.08
522.72	212.99
522.89	224.69
523.07	259.80
523.24	252.78
523.41	205.97
523.58	222.35
523.75	287.89
523.92	278.52
524.10	276.18
524.27	308.95
524.44	234.05
524.61	301.93
524.78	243.42
524.96	266.82
525.13	210.65
525.30	290.23
525.47	330.02
525.64	234.05
525.81	266.82
525.98	250.44
526.16	229.37
526.33	255.12
526.50	299.59
526.67	229.37
526.84	276.18
527.01	290.23
527.18	290.23
527.36	287.89
527.53	210.65
527.70	264.48
527.87	243.42
528.04	308.95
528.21	259.80
528.38	250.44
528.55	320.65
528.72	297.25
528.89	346.40
529.07	259.80
529.24	259.80
529.41	241.08
529.58	236.39
529.75	217.67
529.92	283.20
530.09	285.55
530.26	215.33
530.43	210.65
530.60	297.25
530.77	304.27
530.94	301.93
531.11	250.44
531.28	255.12
531.46	264.48
531.63	238.73
531.80	217.67
531.97	255.12
532.14	332.36
532.31	255.12
532.48	245.76
532.65	262.14
532.82	262.14
532.99	285.55
533.16	292.57
533.33	294.91
533.50	269.16
533.67	299.59
533.84	301.93
534.01	334.70
534.18	273.84
534.35	315.97
534.52	224.69
534.69	292.57
534.86	351.08
535.03	353.42
535.20	266.82
535.37	322.99
535.54	311.29
535.71	381.51
535.88	362.78
536.05	306.61
536.22	311.29
536.38	388.53
536.55	351.08
536.72	292.57
536.89	311.29
537.06	360.44
537.23	353.42
537.40	341.72
537.57	351.08
537.74	376.83
537.91	409.59
538.08	344.06
538.25	379.17
538.42	355.76
538.59	346.40
538.75	400.23
538.92	482.15
539.09	475.13
539.26	433.00
539.43	472.79
539.60	470.45
539.77	571.09
539.94	592.16
540.11	545.34
540.28	702.16
540.44	664.71
540.61	716.20
540.78	774.72
540.95	891.74
541.12	1015.79
541.29	1081.33
541.46	1254.53
541.62	1273.25
541.79	1177.29
541.96	1214.74
542.13	1210.06
542.30	1104.73
542.47	1146.86
542.63	1165.59
542.80	1130.48
542.97	1090.69
543.14	1123.46
543.31	1121.12
543.48	1130.48
543.64	1198.35
543.81	1097.71
543.98	1097.71
544.15	1114.10
544.32	1078.99
544.48	1100.05
544.65	1011.11
544.82	1057.92
544.99	917.49
545.16	1011.11
545.32	1104.73
545.49	1678.16
545.66	2340.54
545.83	2825.03
546.00	2471.61
546.16	1785.83
546.33	1317.72
546.50	1022.81
546.67	793.44
546.83	784.08
547.00	711.52
547.17	732.59
547.34	753.65
547.50	763.01
547.67	716.20
547.84	641.31
548.00	653.01
548.17	645.99
548.34	702.16
548.51	734.93
548.67	657.69
548.84	596.84
549.01	594.50
549.18	578.11
549.34	603.86
549.51	601.52
549.68	596.84
549.84	486.83
550.01	514.92
550.18	631.94
550.34	608.54
550.51	526.62
550.68	533.64
550.84	442.36
551.01	430.66
551.18	514.92
551.34	454.06
551.51	463.43
551.68	388.53
551.84	531.30
552.01	423.64
552.18	458.74
552.34	433.00
552.51	470.45
552.68	430.66
552.84	458.74
553.01	348.74
553.18	400.23
553.34	397.89
553.51	334.70
553.67	379.17
553.84	421.30
554.01	369.80
554.17	308.95
554.34	393.21
554.51	306.61
554.67	304.27
554.84	341.72
555.00	334.70
555.17	241.08
555.33	339.38
555.50	208.31
555.67	313.63
555.83	245.76
556.00	306.61
556.16	416.62
556.33	273.84
556.50	318.31
556.66	337.04
556.83	241.08
556.99	276.18
557.16	241.08
557.32	287.89
557.49	250.44
557.65	194.26
557.82	273.84
557.98	243.42
558.15	245.76
558.32	238.73
558.48	248.10
558.65	245.76
558.81	262.14
558.98	252.78
559.14	306.61
559.31	280.86
559.47	241.08
559.64	248.10
559.80	346.40
559.97	259.80
560.13	304.27
560.30	280.86
560.46	255.12
560.63	313.63
560.79	320.65
560.96	283.20
561.12	191.92
561.29	334.70
561.45	248.10
561.61	208.31
561.78	388.53
561.94	248.10
562.11	266.82
562.27	325.33
562.44	334.70
562.60	187.24
562.77	243.42
562.93	351.08
563.10	212.99
563.26	250.44
563.42	262.14
563.59	278.52
563.75	285.55
563.92	231.71
564.08	191.92
564.24	236.39
564.41	334.70
564.57	224.69
564.74	266.82
564.90	315.97
565.07	278.52
565.23	283.20
565.39	227.03
565.56	264.48
565.72	278.52
565.88	222.35
566.05	234.05
566.21	241.08
566.38	177.88
566.54	330.02
566.70	339.38
566.87	231.71
567.03	227.03
567.19	313.63
567.36	252.78
567.52	255.12
567.68	224.69
567.85	264.48
568.01	255.12
568.17	212.99
568.34	238.73
568.50	280.86
568.66	220.01
568.83	348.74
568.99	191.92
569.15	294.91
569.32	222.35
569.48	238.73
569.64	222.35
569.81	212.99
569.97	201.29
570.13	308.95
570.30	234.05
570.46	159.16
570.62	220.01
570.78	276.18
570.95	231.71
571.11	248.10
571.27	294.91
571.43	198.95
571.60	229.37
571.76	252.78
571.92	280.86
572.09	166.18
572.25	187.24
572.41	304.27
572.57	182.56
572.74	241.08
572.90	259.80
573.06	236.39
573.22	285.55
573.38	276.18
573.55	308.95
573.71	283.20
573.87	325.33
574.03	187.24
574.20	248.10
574.36	273.84
574.52	241.08
574.68	208.31
574.84	248.10
575.01	269.16
575.17	278.52
575.33	248.10
575.49	224.69
575.65	266.82
575.82	255.12
575.98	339.38
576.14	259.80
576.30	278.52
576.46	512.58
576.62	594.50
576.79	653.01
576.95	580.45
577.11	437.68
577.27	409.59
577.43	353.42
577.59	390.87
577.75	308.95
577.92	301.93
578.08	276.18
578.24	304.27
578.40	367.46
578.56	451.72
578.72	667.05
578.88	683.44
579.04	524.28
579.21	454.06
579.37	414.27
579.53	435.34
579.69	461.09
579.85	423.64
580.01	379.17
580.17	374.49
580.33	468.11
580.49	358.10
580.65	306.61
580.82	372.15
580.98	337.04
581.14	332.36
581.30	313.63
581.46	362.78
581.62	386.19
581.78	362.78
581.94	355.76
582.10	421.30
582.26	311.29
582.42	416.62
582.58	440.02
582.74	447.04
582.90	486.83
583.06	465.77
583.22	477.47
583.38	444.70
583.54	360.44
583.70	550.03
583.86	521.94
584.02	369.80
584.18	397.89
584.34	374.49
584.50	437.68
584.66	451.72
584.82	397.89
584.98	369.80
585.14	379.17
585.30	503.22
585.46	430.66
585.62	337.04
585.78	372.15
585.94	334.70
586.10	360.44
586.26	388.53
586.42	503.22
586.58	510.24
586.74	512.58
586.90	477.47
587.06	566.41
587.22	617.90
587.38	526.62
587.54	526.62
587.70	524.28
587.86	437.68
588.02	374.49
588.18	437.68
588.34	332.36
588.49	311.29
588.65	414.27
588.81	334.70
588.97	283.20
589.13	271.50
589.29	325.33
589.45	355.76
589.61	238.73
589.77	353.42
589.93	367.46
590.08	360.44
590.24	306.61
590.40	276.18
590.56	447.04
590.72	334.70
590.88	344.06
591.04	339.38
591.20	308.95
591.35	318.31
591.51	381.51
591.67	339.38
591.83	414.27
591.99	383.85
592.15	367.46
592.31	372.15
592.46	337.04
592.62	463.43
592.78	416.62
592.94	440.02
593.10	409.59
593.26	482.15
593.41	360.44
593.57	325.33
593.73	381.51
593.89	425.98
594.05	395.55
594.20	313.63
594.36	367.46
594.52	248.10
594.68	259.80
594.84	287.89
594.99	355.76
595.15	257.46
595.31	311.29
595.47	313.63
595.62	306.61
595.78	346.40
595.94	301.93
596.10	327.68
596.25	353.42
596.41	330.02
596.57	332.36
596.73	304.27
596.88	264.48
597.04	238.73
597.20	287.89
597.36	280.86
597.51	299.59
597.67	290.23
597.83	278.52
597.99	276.18
598.14	339.38
598.30	327.68
598.46	346.40
598.61	315.97
598.77	344.06
598.93	313.63
599.09	425.98
599.24	414.27
599.40	332.36
599.56	341.72
599.71	297.25
599.87	320.65
600.03	311.29
600.18	330.02
600.34	330.02
600.50	320.65
600.65	264.48
600.81	280.86
600.97	318.31
601.12	297.25
601.28	320.65
601.44	271.50
601.59	273.84
601.75	241.08
601.91	301.93
602.06	304.27
602.22	320.65
602.37	304.27
602.53	205.97
602.69	238.73
602.84	257.46
603.00	203.63
603.16	290.23
603.31	315.97
603.47	224.69
603.62	290.23
603.78	250.44
603.94	276.18
604.09	238.73
604.25	248.10
604.40	227.03
604.56	243.42
604.71	196.60
604.87	271.50
605.03	297.25
605.18	322.99
605.34	205.97
605.49	208.31
605.65	215.33
605.80	243.42
605.96	227.03
606.12	306.61
606.27	273.84
606.43	264.48
606.58	311.29
606.74	283.20
606.89	259.80
607.05	318.31
607.20	299.59
607.36	367.46
607.51	360.44
607.67	353.42
607.82	393.21
607.98	411.93
608.13	327.68
608.29	358.10
608.44	423.64
608.60	468.11
608.75	362.78
608.91	456.40
609.06	503.22
609.22	533.64
609.37	524.28
609.53	592.16
609.68	620.24
609.84	725.57
609.99	784.08
610.15	877.70
610.30	966.64
610.46	1219.42
610.61	1472.20
610.76	2047.97
610.92	2382.67
611.07	2567.57
611.23	2654.17
611.38	2513.74
