SpectraSuite Data File
++++++++++++++++++++++++++++++++++++
Date: Fri Oct 04 11:41:59 GMT-05:00 2013
User: price-jones
Dark Spectrum Present: No
Reference Spectrum Present: No
Number of Sampled Component Spectra: 1
Spectrometers: USB2+H05261
Integration Time (usec): 100000 (USB2+H05261)
Spectra Averaged: 1 (USB2+H05261)
Boxcar Smoothing: 0 (USB2+H05261)
Correct for Electrical Dark: No (USB2+H05261)
Strobe/Lamp Enabled: No (USB2+H05261)
Correct for Detector Non-linearity: No (USB2+H05261)
Correct for Stray Light: No (USB2+H05261)
Number of Pixels in Processed Spectrum: 2048
>>>>>Begin Processed Spectral Data<<<<<
365.73	0.00
365.92	0.00
366.12	0.00
366.32	0.00
366.52	0.00
366.72	0.00
366.91	0.00
367.11	0.00
367.31	0.00
367.51	0.00
367.70	7.02
367.90	0.00
368.10	0.00
368.30	4.68
368.49	0.00
368.69	0.00
368.89	0.00
369.09	0.00
369.28	0.00
369.48	0.00
369.68	0.00
369.87	0.00
370.07	0.00
370.27	0.00
370.47	11.70
370.66	16.38
370.86	72.56
371.06	121.71
371.25	81.92
371.45	60.85
371.65	102.98
371.84	70.22
372.04	81.92
372.24	95.96
372.44	84.26
372.63	74.90
372.83	114.69
373.03	105.32
373.22	145.11
373.42	105.32
373.62	72.56
373.81	86.60
374.01	145.11
374.21	201.29
374.40	105.32
374.60	166.18
374.79	128.73
374.99	79.58
375.19	175.54
375.38	117.03
375.58	177.88
375.78	215.33
375.97	102.98
376.17	142.77
376.37	152.13
376.56	84.26
376.76	81.92
376.95	145.11
377.15	102.98
377.35	112.35
377.54	138.09
377.74	91.28
377.93	175.54
378.13	110.01
378.33	119.37
378.52	142.77
378.72	149.79
378.91	133.41
379.11	88.94
379.31	126.39
379.50	86.60
379.70	154.48
379.89	112.35
380.09	131.07
380.28	170.86
380.48	67.88
380.68	58.51
380.87	88.94
381.07	131.07
381.26	135.75
381.46	205.97
381.65	117.03
381.85	133.41
382.04	117.03
382.24	140.43
382.43	60.85
382.63	133.41
382.83	72.56
383.02	91.28
383.22	177.88
383.41	126.39
383.61	133.41
383.80	98.30
384.00	112.35
384.19	98.30
384.39	117.03
384.58	98.30
384.78	95.96
384.97	95.96
385.17	124.05
385.36	117.03
385.56	182.56
385.75	56.17
385.95	70.22
386.14	93.62
386.34	77.24
386.53	177.88
386.72	117.03
386.92	105.32
387.11	121.71
387.31	147.45
387.50	86.60
387.70	7.02
387.89	81.92
388.09	58.51
388.28	79.58
388.48	95.96
388.67	102.98
388.86	63.19
389.06	51.49
389.25	100.64
389.45	110.01
389.64	152.13
389.84	126.39
390.03	84.26
390.22	119.37
390.42	81.92
390.61	142.77
390.81	98.30
391.00	159.16
391.19	161.50
391.39	180.22
391.58	117.03
391.78	121.71
391.97	42.13
392.16	152.13
392.36	147.45
392.55	196.60
392.75	65.54
392.94	114.69
393.13	184.90
393.33	98.30
393.52	74.90
393.71	124.05
393.91	156.82
394.10	98.30
394.29	35.11
394.49	105.32
394.68	91.28
394.88	194.26
395.07	112.35
395.26	152.13
395.46	95.96
395.65	88.94
395.84	135.75
396.04	191.92
396.23	67.88
396.42	81.92
396.62	77.24
396.81	128.73
397.00	112.35
397.19	126.39
397.39	117.03
397.58	124.05
397.77	53.83
397.97	152.13
398.16	138.09
398.35	135.75
398.55	105.32
398.74	175.54
398.93	117.03
399.12	110.01
399.32	124.05
399.51	95.96
399.70	156.82
399.90	131.07
400.09	124.05
400.28	126.39
400.47	121.71
400.67	145.11
400.86	149.79
401.05	77.24
401.24	191.92
401.44	166.18
401.63	201.29
401.82	163.84
402.01	117.03
402.21	124.05
402.40	159.16
402.59	35.11
402.78	98.30
402.97	133.41
403.17	114.69
403.36	210.65
403.55	191.92
403.74	416.62
403.93	1114.10
404.13	1839.66
404.32	2062.01
404.51	1713.27
404.70	1095.37
404.89	437.68
405.09	285.55
405.28	107.66
405.47	119.37
405.66	154.48
405.85	227.03
406.05	152.13
406.24	81.92
406.43	145.11
406.62	163.84
406.81	257.46
407.00	196.60
407.20	337.04
407.39	376.83
407.58	409.59
407.77	224.69
407.96	175.54
408.15	154.48
408.34	163.84
408.54	119.37
408.73	124.05
408.92	173.20
409.11	135.75
409.30	163.84
409.49	117.03
409.68	142.77
409.87	161.50
410.07	163.84
410.26	166.18
410.45	168.52
410.64	117.03
410.83	173.20
411.02	81.92
411.21	142.77
411.40	126.39
411.59	180.22
411.78	191.92
411.98	142.77
412.17	128.73
412.36	198.95
412.55	117.03
412.74	212.99
412.93	234.05
413.12	133.41
413.31	170.86
413.50	196.60
413.69	210.65
413.88	154.48
414.07	201.29
414.26	149.79
414.45	177.88
414.64	210.65
414.83	156.82
415.02	210.65
415.22	133.41
415.41	205.97
415.60	133.41
415.79	51.49
415.98	173.20
416.17	203.63
416.36	194.26
416.55	203.63
416.74	236.39
416.93	187.24
417.12	173.20
417.31	208.31
417.50	173.20
417.69	201.29
417.88	194.26
418.07	238.73
418.26	159.16
418.45	184.90
418.64	168.52
418.83	187.24
419.02	168.52
419.21	182.56
419.39	215.33
419.58	191.92
419.77	182.56
419.96	184.90
420.15	117.03
420.34	194.26
420.53	180.22
420.72	203.63
420.91	194.26
421.10	145.11
421.29	180.22
421.48	212.99
421.67	140.43
421.86	205.97
422.05	180.22
422.24	163.84
422.43	170.86
422.61	124.05
422.80	208.31
422.99	210.65
423.18	145.11
423.37	161.50
423.56	147.45
423.75	159.16
423.94	152.13
424.13	236.39
424.32	140.43
424.50	114.69
424.69	203.63
424.88	257.46
425.07	88.94
425.26	203.63
425.45	210.65
425.64	131.07
425.83	168.52
426.01	222.35
426.20	182.56
426.39	210.65
426.58	163.84
426.77	271.50
426.96	163.84
427.15	191.92
427.33	189.58
427.52	168.52
427.71	229.37
427.90	119.37
428.09	161.50
428.28	124.05
428.46	46.81
428.65	257.46
428.84	283.20
429.03	264.48
429.22	201.29
429.40	191.92
429.59	264.48
429.78	299.59
429.97	149.79
430.16	180.22
430.34	159.16
430.53	227.03
430.72	205.97
430.91	205.97
431.10	212.99
431.28	177.88
431.47	205.97
431.66	250.44
431.85	205.97
432.03	224.69
432.22	299.59
432.41	320.65
432.60	285.55
432.79	201.29
432.97	173.20
433.16	241.08
433.35	322.99
433.54	330.02
433.72	269.16
433.91	318.31
434.10	304.27
434.28	393.21
434.47	402.57
434.66	447.04
434.85	535.98
435.03	1804.55
435.22	5724.95
435.41	9050.85
435.59	7974.21
435.78	5179.61
435.97	2567.57
436.16	1088.35
436.34	484.49
436.53	344.06
436.72	273.84
436.90	255.12
437.09	341.72
437.28	285.55
437.46	222.35
437.65	276.18
437.84	287.89
438.02	292.57
438.21	252.78
438.40	255.12
438.58	210.65
438.77	245.76
438.96	187.24
439.14	250.44
439.33	320.65
439.52	294.91
439.70	301.93
439.89	271.50
440.08	332.36
440.26	205.97
440.45	287.89
440.63	278.52
440.82	271.50
441.01	276.18
441.19	217.67
441.38	215.33
441.57	220.01
441.75	306.61
441.94	194.26
442.12	266.82
442.31	234.05
442.50	231.71
442.68	273.84
442.87	248.10
443.05	292.57
443.24	236.39
443.43	313.63
443.61	259.80
443.80	147.45
443.98	201.29
444.17	201.29
444.35	238.73
444.54	283.20
444.73	229.37
444.91	273.84
445.10	259.80
445.28	299.59
445.47	278.52
445.65	229.37
445.84	255.12
446.02	222.35
446.21	266.82
446.39	306.61
446.58	241.08
446.77	250.44
446.95	145.11
447.14	262.14
447.32	217.67
447.51	220.01
447.69	264.48
447.88	301.93
448.06	339.38
448.25	210.65
448.43	273.84
448.62	224.69
448.80	231.71
448.99	271.50
449.17	243.42
449.36	299.59
449.54	306.61
449.73	269.16
449.91	252.78
450.10	210.65
450.28	379.17
450.46	271.50
450.65	217.67
450.83	259.80
451.02	227.03
451.20	229.37
451.39	285.55
451.57	189.58
451.76	266.82
451.94	229.37
452.13	252.78
452.31	308.95
452.49	194.26
452.68	187.24
452.86	301.93
453.05	227.03
453.23	252.78
453.42	283.20
453.60	285.55
453.78	231.71
453.97	248.10
454.15	231.71
454.34	210.65
454.52	287.89
454.70	308.95
454.89	210.65
455.07	196.60
455.26	285.55
455.44	255.12
455.62	252.78
455.81	241.08
455.99	311.29
456.17	318.31
456.36	184.90
456.54	220.01
456.73	250.44
456.91	266.82
457.09	234.05
457.28	257.46
457.46	248.10
457.64	248.10
457.83	205.97
458.01	208.31
458.19	264.48
458.38	236.39
458.56	236.39
458.74	252.78
458.93	212.99
459.11	313.63
459.29	271.50
459.48	257.46
459.66	299.59
459.84	227.03
460.03	386.19
460.21	404.91
460.39	203.63
460.57	255.12
460.76	159.16
460.94	236.39
461.12	315.97
461.31	234.05
461.49	280.86
461.67	180.22
461.85	257.46
462.04	259.80
462.22	645.99
462.40	290.23
462.59	269.16
462.77	287.89
462.95	259.80
463.13	210.65
463.32	243.42
463.50	224.69
463.68	269.16
463.86	287.89
464.05	229.37
464.23	315.97
464.41	266.82
464.59	229.37
464.78	304.27
464.96	229.37
465.14	264.48
465.32	201.29
465.50	259.80
465.69	278.52
465.87	201.29
466.05	241.08
466.23	243.42
466.41	234.05
466.60	327.68
466.78	231.71
466.96	234.05
467.14	301.93
467.32	322.99
467.51	205.97
467.69	215.33
467.87	255.12
468.05	191.92
468.23	365.12
468.41	231.71
468.60	201.29
468.78	278.52
468.96	320.65
469.14	238.73
469.32	234.05
469.50	196.60
469.69	276.18
469.87	250.44
470.05	222.35
470.23	217.67
470.41	255.12
470.59	205.97
470.77	241.08
470.95	184.90
471.14	262.14
471.32	264.48
471.50	262.14
471.68	297.25
471.86	234.05
472.04	262.14
472.22	271.50
472.40	203.63
472.58	182.56
472.77	220.01
472.95	234.05
473.13	294.91
473.31	278.52
473.49	266.82
473.67	262.14
473.85	224.69
474.03	255.12
474.21	227.03
474.39	210.65
474.57	241.08
474.75	203.63
474.93	250.44
475.12	170.86
475.30	252.78
475.48	266.82
475.66	266.82
475.84	243.42
476.02	262.14
476.20	252.78
476.38	231.71
476.56	320.65
476.74	264.48
476.92	205.97
477.10	203.63
477.28	252.78
477.46	269.16
477.64	269.16
477.82	250.44
478.00	264.48
478.18	252.78
478.36	229.37
478.54	318.31
478.72	381.51
478.90	241.08
479.08	248.10
479.26	304.27
479.44	236.39
479.62	276.18
479.80	292.57
479.98	276.18
480.16	273.84
480.34	334.70
480.52	315.97
480.70	320.65
480.88	348.74
481.06	386.19
481.24	334.70
481.41	353.42
481.59	423.64
481.77	416.62
481.95	454.06
482.13	372.15
482.31	425.98
482.49	418.96
482.67	491.51
482.85	601.52
483.03	528.96
483.21	559.39
483.39	636.63
483.57	573.43
483.74	617.90
483.92	676.41
484.10	554.71
484.28	739.61
484.46	849.61
484.64	734.93
484.82	725.57
485.00	847.27
485.18	828.55
485.35	915.15
485.53	837.91
485.71	854.30
485.89	1001.75
486.07	1064.94
486.25	1071.97
486.43	1062.60
486.61	1116.44
486.78	1053.24
486.96	980.68
487.14	997.07
487.32	1067.28
487.50	992.39
487.68	976.00
487.85	1095.37
488.03	1015.79
488.21	964.30
488.39	947.92
488.57	933.87
488.75	952.60
488.92	1074.31
489.10	959.62
489.28	919.83
489.46	866.00
489.64	830.89
489.81	877.70
489.99	826.21
490.17	795.78
490.35	889.40
490.53	802.80
490.70	788.76
490.88	863.66
491.06	910.47
491.24	858.98
491.41	856.64
491.59	903.45
491.77	784.08
491.95	765.36
492.13	718.54
492.30	779.40
492.48	718.54
492.66	760.67
492.84	716.20
493.01	805.14
493.19	770.04
493.37	709.18
493.54	730.25
493.72	692.80
493.90	587.47
494.08	578.11
494.25	748.97
494.43	716.20
494.61	671.73
494.79	587.47
494.96	662.37
495.14	610.88
495.32	631.94
495.49	650.67
495.67	620.24
495.85	641.31
496.02	575.77
496.20	688.12
496.38	678.76
496.55	606.20
496.73	587.47
496.91	561.73
497.09	559.39
497.26	620.24
497.44	538.32
497.62	449.38
497.79	594.50
497.97	505.56
498.14	566.41
498.32	559.39
498.50	512.58
498.67	496.19
498.85	440.02
499.03	425.98
499.20	440.02
499.38	456.40
499.56	444.70
499.73	451.72
499.91	479.81
500.08	447.04
500.26	339.38
500.44	397.89
500.61	351.08
500.79	395.55
500.97	430.66
501.14	395.55
501.32	440.02
501.49	433.00
501.67	360.44
501.84	435.34
502.02	407.25
502.20	409.59
502.37	334.70
502.55	360.44
502.72	346.40
502.90	315.97
503.07	353.42
503.25	308.95
503.43	358.10
503.60	264.48
503.78	367.46
503.95	299.59
504.13	332.36
504.30	292.57
504.48	409.59
504.65	313.63
504.83	299.59
505.01	301.93
505.18	292.57
505.36	255.12
505.53	318.31
505.71	318.31
505.88	311.29
506.06	334.70
506.23	334.70
506.41	355.76
506.58	337.04
506.76	243.42
506.93	273.84
507.11	287.89
507.28	248.10
507.46	332.36
507.63	280.86
507.81	308.95
507.98	236.39
508.16	334.70
508.33	369.80
508.50	346.40
508.68	299.59
508.85	351.08
509.03	264.48
509.20	287.89
509.38	306.61
509.55	306.61
509.73	381.51
509.90	245.76
510.08	266.82
510.25	210.65
510.42	304.27
510.60	290.23
510.77	330.02
510.95	318.31
511.12	285.55
511.30	292.57
511.47	297.25
511.64	285.55
511.82	311.29
511.99	290.23
512.17	294.91
512.34	257.46
512.51	290.23
512.69	278.52
512.86	285.55
513.04	245.76
513.21	308.95
513.38	262.14
513.56	220.01
513.73	203.63
513.90	215.33
514.08	308.95
514.25	337.04
514.43	346.40
514.60	248.10
514.77	203.63
514.95	344.06
515.12	297.25
515.29	241.08
515.47	416.62
515.64	280.86
515.81	212.99
515.99	306.61
516.16	337.04
516.33	348.74
516.51	252.78
516.68	276.18
516.85	306.61
517.03	238.73
517.20	280.86
517.37	259.80
517.54	332.36
517.72	264.48
517.89	245.76
518.06	205.97
518.24	290.23
518.41	304.27
518.58	217.67
518.75	212.99
518.93	266.82
519.10	238.73
519.27	257.46
519.45	313.63
519.62	264.48
519.79	259.80
519.96	191.92
520.14	259.80
520.31	358.10
520.48	320.65
520.65	290.23
520.83	243.42
521.00	348.74
521.17	285.55
521.34	248.10
521.52	301.93
521.69	252.78
521.86	273.84
522.03	341.72
522.20	266.82
522.38	339.38
522.55	320.65
522.72	278.52
522.89	259.80
523.07	311.29
523.24	262.14
523.41	259.80
523.58	287.89
523.75	273.84
523.92	276.18
524.10	306.61
524.27	243.42
524.44	252.78
524.61	301.93
524.78	262.14
524.96	271.50
525.13	294.91
525.30	306.61
525.47	285.55
525.64	215.33
525.81	351.08
525.98	351.08
526.16	255.12
526.33	245.76
526.50	318.31
526.67	273.84
526.84	231.71
527.01	280.86
527.18	285.55
527.36	320.65
527.53	339.38
527.70	320.65
527.87	311.29
528.04	304.27
528.21	238.73
528.38	269.16
528.55	353.42
528.72	304.27
528.89	411.93
529.07	257.46
529.24	301.93
529.41	355.76
529.58	351.08
529.75	264.48
529.92	313.63
530.09	299.59
530.26	320.65
530.43	339.38
530.60	330.02
530.77	360.44
530.94	299.59
531.11	362.78
531.28	367.46
531.46	367.46
531.63	400.23
531.80	402.57
531.97	435.34
532.14	414.27
532.31	465.77
532.48	477.47
532.65	543.00
532.82	538.32
532.99	650.67
533.16	716.20
533.33	664.71
533.50	681.10
533.67	533.64
533.84	578.11
534.01	566.41
534.18	552.37
534.35	543.00
534.52	496.19
534.69	463.43
534.86	491.51
535.03	493.85
535.20	521.94
535.37	695.14
535.54	519.60
535.71	571.09
535.88	690.46
536.05	573.43
536.22	667.05
536.38	716.20
536.55	760.67
536.72	938.55
536.89	983.02
537.06	992.39
537.23	1142.18
537.40	1184.31
537.57	1313.04
537.74	1289.64
537.91	1336.45
538.08	1392.62
538.25	1390.28
538.42	1308.36
538.59	1451.13
538.75	1420.71
538.92	1626.67
539.09	1685.19
539.26	1842.00
539.43	2071.37
539.60	2284.36
539.77	2537.14
539.94	2829.71
540.11	3105.89
540.28	3405.48
540.44	3688.68
540.61	3953.16
540.78	4739.58
540.95	5523.66
541.12	6614.35
541.29	6853.09
541.46	7122.25
541.62	7220.55
541.79	6761.81
541.96	6520.73
542.13	6076.03
542.30	5631.33
542.47	5322.38
542.63	5235.78
542.80	4990.02
542.97	4973.64
543.14	5018.11
543.31	4964.28
543.48	4875.34
543.64	5046.20
543.81	5039.17
543.98	5163.22
544.15	5053.22
544.32	5064.92
544.48	5116.41
544.65	5193.65
544.82	5085.98
544.99	4975.98
545.16	5139.82
545.32	5465.15
545.49	11978.86
545.66	17699.13
545.83	18869.40
546.00	15337.53
546.16	10558.16
546.33	7941.44
546.50	6073.69
546.67	5036.83
546.83	4432.97
547.00	4285.52
547.17	4149.77
547.34	3906.35
547.50	3768.26
547.67	3634.85
547.84	3471.01
548.00	3391.44
548.17	3201.85
548.34	3206.53
548.51	3049.72
548.67	2932.69
548.84	2803.96
549.01	2686.94
549.18	2616.72
549.34	2574.59
549.51	2305.43
549.68	2345.22
549.84	2225.85
550.01	2071.37
550.18	2085.42
550.34	2022.22
550.51	1975.41
550.68	1937.96
550.84	1703.91
551.01	1682.85
551.18	1647.74
551.34	1568.16
551.51	1544.75
551.68	1439.43
551.84	1373.89
552.01	1371.55
552.18	1289.64
552.34	1284.95
552.51	1322.40
552.68	1238.14
552.84	1097.71
553.01	1027.50
553.18	1097.71
553.34	1032.18
553.51	1001.75
553.67	1027.50
553.84	973.66
554.01	891.74
554.17	833.23
554.34	807.48
554.51	823.87
554.67	788.76
554.84	643.65
555.00	697.48
555.17	664.71
555.33	755.99
555.50	631.94
555.67	634.29
555.83	599.18
556.00	571.09
556.16	664.71
556.33	615.56
556.50	507.90
556.66	543.00
556.83	493.85
556.99	533.64
557.16	470.45
557.32	505.56
557.49	435.34
557.65	482.15
557.82	489.17
557.98	524.28
558.15	369.80
558.32	444.70
558.48	435.34
558.65	437.68
558.81	472.79
558.98	447.04
559.14	407.25
559.31	451.72
559.47	376.83
559.64	416.62
559.80	449.38
559.97	376.83
560.13	351.08
560.30	313.63
560.46	374.49
560.63	437.68
560.79	346.40
560.96	418.96
561.12	430.66
561.29	395.55
561.45	367.46
561.61	433.00
561.78	451.72
561.94	346.40
562.11	383.85
562.27	402.57
562.44	355.76
562.60	402.57
562.77	369.80
562.93	449.38
563.10	351.08
563.26	358.10
563.42	388.53
563.59	360.44
563.75	379.17
563.92	447.04
564.08	416.62
564.24	341.72
564.41	421.30
564.57	372.15
564.74	334.70
564.90	308.95
565.07	404.91
565.23	351.08
565.39	395.55
565.56	409.59
565.72	409.59
565.88	301.93
566.05	290.23
566.21	353.42
566.38	414.27
566.54	308.95
566.70	376.83
566.87	327.68
567.03	358.10
567.19	402.57
567.36	325.33
567.52	283.20
567.68	360.44
567.85	339.38
568.01	421.30
568.17	276.18
568.34	369.80
568.50	327.68
568.66	353.42
568.83	423.64
568.99	348.74
569.15	383.85
569.32	320.65
569.48	287.89
569.64	355.76
569.81	315.97
569.97	353.42
570.13	297.25
570.30	266.82
570.46	290.23
570.62	264.48
570.78	337.04
570.95	257.46
571.11	355.76
571.27	285.55
571.43	269.16
571.60	248.10
571.76	351.08
571.92	337.04
572.09	327.68
572.25	313.63
572.41	320.65
572.57	355.76
572.74	325.33
572.90	304.27
573.06	318.31
573.22	355.76
573.38	334.70
573.55	278.52
573.71	283.20
573.87	325.33
574.03	269.16
574.20	318.31
574.36	315.97
574.52	365.12
574.68	344.06
574.84	461.09
575.01	318.31
575.17	299.59
575.33	365.12
575.49	458.74
575.65	470.45
575.82	463.43
575.98	468.11
576.14	463.43
576.30	1046.22
576.46	2586.29
576.62	3330.58
576.79	3246.32
576.95	2377.98
577.11	1680.50
577.27	1226.44
577.43	936.21
577.59	617.90
577.75	622.58
577.92	538.32
578.08	545.34
578.24	568.75
578.40	997.07
578.56	2359.26
578.72	3080.14
578.88	3033.33
579.04	2326.49
579.21	1696.89
579.37	1291.98
579.53	1076.65
579.69	1139.84
579.85	1348.15
580.01	1420.71
580.17	1291.98
580.33	1252.19
580.49	1041.54
580.65	1053.24
580.82	933.87
580.98	889.40
581.14	943.24
581.30	990.05
581.46	1041.54
581.62	1004.09
581.78	1224.10
581.94	1224.10
582.10	1350.49
582.26	1324.74
582.42	1481.56
582.58	1387.94
582.74	1301.34
582.90	1392.62
583.06	1451.13
583.22	1385.60
583.38	1434.75
583.54	1423.05
583.70	1427.73
583.86	1458.15
584.02	1397.30
584.18	1352.83
584.34	1313.04
584.50	1291.98
584.66	1313.04
584.82	1238.14
584.98	1397.30
585.14	1158.57
585.30	1282.61
585.46	1188.99
585.62	1128.14
585.78	1207.72
585.94	1174.95
586.10	1303.68
586.26	1233.46
586.42	1404.32
586.58	1724.97
586.74	2176.70
586.90	2420.11
587.06	2616.72
587.22	2349.90
587.38	2275.00
587.54	1961.37
587.70	1645.40
587.86	1556.46
588.02	1235.80
588.18	1160.91
588.34	1069.62
588.49	917.49
588.65	938.55
588.81	959.62
588.97	901.11
589.13	854.30
589.29	777.06
589.45	828.55
589.61	889.40
589.77	847.27
589.93	929.19
590.08	772.38
590.24	870.68
590.40	957.28
590.56	940.90
590.72	968.98
590.88	873.02
591.04	1057.92
591.20	1069.62
591.35	1055.58
591.51	1132.82
591.67	1191.33
591.83	1280.27
591.99	1296.66
592.15	1469.86
592.31	1540.07
592.46	1584.54
592.62	1865.41
592.78	1788.17
592.94	1870.09
593.10	1816.26
593.26	1760.08
593.41	1621.99
593.57	1486.24
593.73	1301.34
593.89	1235.80
594.05	1067.28
594.20	919.83
594.36	968.98
594.52	866.00
594.68	854.30
594.84	849.61
594.99	784.08
595.15	755.99
595.31	805.14
595.47	723.23
595.62	767.70
595.78	781.74
595.94	690.46
596.10	844.93
596.25	861.32
596.41	737.27
596.57	732.59
596.73	800.46
596.88	807.48
597.04	744.29
597.20	770.04
597.36	772.38
597.51	880.04
597.67	748.97
597.83	821.53
597.99	978.34
598.14	1018.13
598.30	1078.99
598.46	1036.86
598.61	1083.67
598.77	1153.88
598.93	1067.28
599.09	1048.56
599.24	1153.88
599.40	1151.54
599.56	1149.20
599.71	1078.99
599.87	1015.79
600.03	1008.77
600.18	1022.81
600.34	924.51
600.50	847.27
600.65	739.61
600.81	809.83
600.97	711.52
601.12	692.80
601.28	624.92
601.44	610.88
601.59	671.73
601.75	603.86
601.91	587.47
602.06	566.41
602.22	718.54
602.37	620.24
602.53	566.41
602.69	580.45
602.84	517.26
603.00	528.96
603.16	643.65
603.31	641.31
603.47	650.67
603.62	580.45
603.78	748.97
603.94	662.37
604.09	660.03
604.25	596.84
604.40	699.82
604.56	599.18
604.71	629.60
604.87	660.03
605.03	535.98
605.18	676.41
605.34	692.80
605.49	730.25
605.65	650.67
605.80	624.92
605.96	643.65
606.12	711.52
606.27	765.36
606.43	795.78
606.58	823.87
606.74	844.93
606.89	819.19
607.05	978.34
607.20	1027.50
607.36	1001.75
607.51	1111.75
607.67	1060.26
607.82	1107.07
607.98	1221.76
608.13	1369.21
608.29	1359.85
608.44	1600.93
608.60	1673.48
608.75	1715.61
