SpectraSuite Data File
++++++++++++++++++++++++++++++++++++
Date: Fri Oct 04 11:42:16 GMT-05:00 2013
User: price-jones
Dark Spectrum Present: No
Reference Spectrum Present: No
Number of Sampled Component Spectra: 1
Spectrometers: USB2+H05261
Integration Time (usec): 100000 (USB2+H05261)
Spectra Averaged: 1 (USB2+H05261)
Boxcar Smoothing: 0 (USB2+H05261)
Correct for Electrical Dark: No (USB2+H05261)
Strobe/Lamp Enabled: No (USB2+H05261)
Correct for Detector Non-linearity: No (USB2+H05261)
Correct for Stray Light: No (USB2+H05261)
Number of Pixels in Processed Spectrum: 2048
>>>>>Begin Processed Spectral Data<<<<<
365.73	18.72
365.92	18.72
366.12	18.72
366.32	0.00
366.52	0.00
366.72	0.00
366.91	0.00
367.11	0.00
367.31	0.00
367.51	0.00
367.70	0.00
367.90	0.00
368.10	0.00
368.30	0.00
368.49	0.00
368.69	0.00
368.89	0.00
369.09	18.72
369.28	32.77
369.48	0.00
369.68	35.11
369.87	0.00
370.07	0.00
370.27	107.66
370.47	112.35
370.66	222.35
370.86	252.78
371.06	304.27
371.25	381.51
371.45	301.93
371.65	259.80
371.84	229.37
372.04	220.01
372.24	250.44
372.44	339.38
372.63	348.74
372.83	285.55
373.03	294.91
373.22	198.95
373.42	276.18
373.62	236.39
373.81	304.27
374.01	351.08
374.21	297.25
374.40	285.55
374.60	348.74
374.79	386.19
374.99	339.38
375.19	351.08
375.38	348.74
375.58	311.29
375.78	285.55
375.97	376.83
376.17	383.85
376.37	360.44
376.56	365.12
376.76	337.04
376.95	337.04
377.15	372.15
377.35	418.96
377.54	421.30
377.74	386.19
377.93	404.91
378.13	423.64
378.33	388.53
378.52	414.27
378.72	428.32
378.91	374.49
379.11	318.31
379.31	271.50
379.50	353.42
379.70	374.49
379.89	456.40
380.09	374.49
380.28	402.57
380.48	437.68
380.68	346.40
380.87	414.27
381.07	355.76
381.26	379.17
381.46	367.46
381.65	290.23
381.85	276.18
382.04	311.29
382.24	358.10
382.43	283.20
382.63	217.67
382.83	294.91
383.02	280.86
383.22	327.68
383.41	210.65
383.61	318.31
383.80	348.74
384.00	428.32
384.19	330.02
384.39	369.80
384.58	423.64
384.78	493.85
384.97	395.55
385.17	395.55
385.36	299.59
385.56	383.85
385.75	358.10
385.95	383.85
386.14	451.72
386.34	395.55
386.53	449.38
386.72	409.59
386.92	411.93
387.11	402.57
387.31	423.64
387.50	397.89
387.70	344.06
387.89	414.27
388.09	348.74
388.28	428.32
388.48	430.66
388.67	437.68
388.86	404.91
389.06	484.49
389.25	496.19
389.45	482.15
389.64	510.24
389.84	503.22
390.03	475.13
390.22	526.62
390.42	496.19
390.61	540.66
390.81	491.51
391.00	540.66
391.19	596.84
391.39	552.37
391.58	491.51
391.78	468.11
391.97	528.96
392.16	463.43
392.36	418.96
392.55	414.27
392.75	238.73
392.94	222.35
393.13	220.01
393.33	365.12
393.52	348.74
393.71	404.91
393.91	386.19
394.10	435.34
394.29	500.87
394.49	528.96
394.68	512.58
394.88	585.13
395.07	596.84
395.26	585.13
395.46	564.07
395.65	585.13
395.84	524.28
396.04	475.13
396.23	388.53
396.42	358.10
396.62	351.08
396.81	376.83
397.00	454.06
397.19	496.19
397.39	629.60
397.58	603.86
397.77	674.07
397.97	702.16
398.16	723.23
398.35	746.63
398.55	702.16
398.74	837.91
398.93	755.99
399.12	697.48
399.32	713.86
399.51	786.42
399.70	725.57
399.90	739.61
400.09	741.95
400.28	744.29
400.47	746.63
400.67	758.33
400.86	842.59
401.05	772.38
401.24	744.29
401.44	746.63
401.63	915.15
401.82	863.66
402.01	784.08
402.21	816.85
402.40	828.55
402.59	777.06
402.78	758.33
402.97	758.33
403.17	758.33
403.36	866.00
403.55	952.60
403.74	826.21
403.93	835.57
404.13	854.30
404.32	959.62
404.51	884.72
404.70	910.47
404.89	835.57
405.09	807.48
405.28	868.34
405.47	812.17
405.66	760.67
405.85	814.51
406.05	744.29
406.24	748.97
406.43	734.93
406.62	772.38
406.81	863.66
407.00	835.57
407.20	882.38
407.39	814.51
407.58	875.36
407.77	947.92
407.96	847.27
408.15	880.04
408.34	966.64
408.54	903.45
408.73	966.64
408.92	964.30
409.11	858.98
409.30	915.15
409.49	788.76
409.68	791.10
409.87	779.40
410.07	812.17
410.26	777.06
410.45	1001.75
410.64	866.00
410.83	875.36
411.02	896.43
411.21	922.17
411.40	957.28
411.59	973.66
411.78	943.24
411.98	894.08
412.17	978.34
412.36	976.00
412.55	947.92
412.74	1018.13
412.93	983.02
413.12	873.02
413.31	1076.65
413.50	1036.86
413.69	1008.77
413.88	997.07
414.07	980.68
414.26	1008.77
414.45	936.21
414.64	985.37
414.83	1046.22
415.02	1041.54
415.22	1013.45
415.41	1041.54
415.60	1027.50
415.79	1116.44
415.98	1057.92
416.17	1088.35
416.36	1074.31
416.55	1015.79
416.74	901.11
416.93	1027.50
417.12	898.77
417.31	1020.47
417.50	1062.60
417.69	1050.90
417.88	1057.92
418.07	1036.86
418.26	999.41
418.45	1013.45
418.64	1100.05
418.83	1053.24
419.02	1036.86
419.21	1008.77
419.39	980.68
419.58	1022.81
419.77	1078.99
419.96	1074.31
420.15	1053.24
420.34	1128.14
420.53	1069.62
420.72	1184.31
420.91	1100.05
421.10	1137.50
421.29	1083.67
421.48	1088.35
421.67	1156.22
421.86	1130.48
422.05	1074.31
422.24	938.55
422.43	983.02
422.61	1050.90
422.80	1083.67
422.99	1025.15
423.18	1107.07
423.37	1039.20
423.56	1032.18
423.75	1109.41
423.94	1078.99
424.13	1015.79
424.32	957.28
424.50	980.68
424.69	1055.58
424.88	1170.27
425.07	1034.52
425.26	964.30
425.45	1006.43
425.64	1067.28
425.83	1088.35
426.01	1074.31
426.20	1144.52
426.39	1046.22
426.58	961.96
426.77	912.81
426.96	952.60
427.15	994.73
427.33	1039.20
427.52	978.34
427.71	1046.22
427.90	1118.78
428.09	957.28
428.28	976.00
428.46	1015.79
428.65	964.30
428.84	994.73
429.03	1015.79
429.22	891.74
429.40	983.02
429.59	887.06
429.78	842.59
429.97	774.72
430.16	842.59
430.34	734.93
430.53	868.34
430.72	774.72
430.91	898.77
431.10	936.21
431.28	1149.20
431.47	1076.65
431.66	1156.22
431.85	1027.50
432.03	1036.86
432.22	940.90
432.41	1025.15
432.60	1149.20
432.79	1170.27
432.97	1247.51
433.16	1144.52
433.35	1083.67
433.54	1022.81
433.72	936.21
433.91	964.30
434.10	1043.88
434.28	1132.82
434.47	1123.46
434.66	1111.75
434.85	1153.88
435.03	1240.48
435.22	1547.09
435.41	1954.35
435.59	2106.48
435.78	1769.44
435.97	1540.07
436.16	1317.72
436.34	1210.06
436.53	1282.61
436.72	1263.89
436.90	1179.63
437.09	1125.80
437.28	1142.18
437.46	1158.57
437.65	1181.97
437.84	1104.73
438.02	950.26
438.21	1050.90
438.40	1083.67
438.58	1181.97
438.77	1198.35
438.96	1245.16
439.14	1193.67
439.33	1282.61
439.52	1242.82
439.70	1245.16
439.89	1228.78
440.08	1116.44
440.26	1184.31
440.45	1184.31
440.63	1277.93
440.82	1287.29
441.01	1268.57
441.19	1280.27
441.38	1280.27
441.57	1366.87
441.75	1350.49
441.94	1369.21
442.12	1390.28
442.31	1348.15
442.50	1446.45
442.68	1371.55
442.87	1409.00
443.05	1336.45
443.24	1277.93
443.43	1392.62
443.61	1430.07
443.80	1430.07
443.98	1313.04
444.17	1317.72
444.35	1446.45
444.54	1472.20
444.73	1483.90
444.91	1401.98
445.10	1376.24
445.28	1256.87
445.47	1270.91
445.65	1188.99
445.84	1320.06
446.02	1299.00
446.21	1420.71
446.39	1252.19
446.58	1404.32
446.77	1411.34
446.95	1376.24
447.14	1427.73
447.32	1502.62
447.51	1411.34
447.69	1453.47
447.88	1409.00
448.06	1502.62
448.25	1446.45
448.43	1453.47
448.62	1371.55
448.80	1444.11
448.99	1439.43
449.17	1495.60
449.36	1341.13
449.54	1500.28
449.73	1465.18
449.91	1558.80
450.10	1675.82
450.28	1598.59
450.46	1645.40
450.65	1549.43
450.83	1554.12
451.02	1439.43
451.20	1554.12
451.39	1502.62
451.57	1540.07
451.76	1397.30
451.94	1467.52
452.13	1568.16
452.31	1462.83
452.49	1380.92
452.68	1345.81
452.86	1338.79
453.05	1409.00
453.23	1437.09
453.42	1390.28
453.60	1455.81
453.78	1416.02
453.97	1451.13
454.15	1336.45
454.34	1401.98
454.52	1483.90
454.70	1413.68
454.89	1462.83
455.07	1455.81
455.26	1476.88
455.44	1664.12
455.62	1584.54
455.81	1523.69
455.99	1558.80
456.17	1547.09
456.36	1540.07
456.54	1554.12
456.73	1516.67
456.91	1504.96
457.09	1561.14
457.28	1600.93
457.46	1476.88
457.64	1537.73
457.83	1516.67
458.01	1413.68
458.19	1519.01
458.38	1460.49
458.56	1437.09
458.74	1519.01
458.93	1448.79
459.11	1497.94
459.29	1502.62
459.48	1605.61
459.66	1460.49
459.84	1474.54
460.03	1586.88
460.21	1598.59
460.39	1575.18
460.57	1600.93
460.76	1514.33
460.94	1558.80
461.12	1614.97
461.31	1607.95
461.49	1469.86
461.67	1493.26
461.85	1579.86
462.04	1600.93
462.22	1760.08
462.40	1652.42
462.59	1617.31
462.77	1631.35
462.95	1652.42
463.13	1647.74
463.32	1563.48
463.50	1519.01
463.68	1565.82
463.86	1551.78
464.05	1502.62
464.23	1554.12
464.41	1563.48
464.59	1437.09
464.78	1542.41
464.96	1507.30
465.14	1621.99
465.32	1530.71
465.50	1540.07
465.69	1654.76
465.87	1528.37
466.05	1507.30
466.23	1558.80
466.41	1462.83
466.60	1516.67
466.78	1502.62
466.96	1413.68
467.14	1535.39
467.32	1572.84
467.51	1516.67
467.69	1521.35
467.87	1523.69
468.05	1596.25
468.23	1514.33
468.41	1664.12
468.60	1563.48
468.78	1575.18
468.96	1607.95
469.14	1685.19
469.32	1643.06
469.50	1540.07
469.69	1514.33
469.87	1472.20
470.05	1434.75
470.23	1472.20
470.41	1390.28
470.59	1537.73
470.77	1530.71
470.95	1619.65
471.14	1596.25
471.32	1589.22
471.50	1596.25
471.68	1732.00
471.86	1650.08
472.04	1666.46
472.22	1575.18
472.40	1579.86
472.58	1629.01
472.77	1666.46
472.95	1577.52
473.13	1710.93
473.31	1586.88
473.49	1638.38
473.67	1664.12
473.85	1736.68
474.03	1654.76
474.21	1701.57
474.39	1682.85
474.57	1743.70
474.75	1764.76
474.93	1701.57
475.12	1645.40
475.30	1650.08
475.48	1521.35
475.66	1633.69
475.84	1619.65
476.02	1577.52
476.20	1717.95
476.38	1657.10
476.56	1720.29
476.74	1680.50
476.92	1846.68
477.10	1739.02
477.28	1823.28
477.46	1839.66
477.64	1844.34
477.82	1823.28
478.00	1870.09
478.18	1870.09
478.36	1764.76
478.54	1788.17
478.72	1846.68
478.90	1895.83
479.08	1912.22
479.26	1933.28
479.44	2050.31
479.62	2001.16
479.80	1940.30
479.98	1874.77
480.16	1937.96
480.34	1947.33
480.52	1813.92
480.70	2012.86
480.88	1956.69
481.06	1942.64
481.24	1994.14
481.41	1982.43
481.59	2073.71
481.77	2031.58
481.95	2066.69
482.13	2073.71
482.31	1987.11
482.49	2111.16
482.67	2059.67
482.85	2092.44
483.03	1975.41
483.21	2108.82
483.39	2127.55
483.57	2113.50
483.74	2155.63
483.92	2026.90
484.10	2113.50
484.28	2127.55
484.46	2235.21
484.64	2148.61
484.82	2249.25
485.00	2099.46
485.18	2115.84
485.35	2157.97
485.53	1937.96
485.71	1879.45
485.89	1783.49
486.07	1879.45
486.25	2099.46
486.43	2108.82
486.61	2054.99
486.78	2141.59
486.96	2078.40
487.14	2204.78
487.32	2143.93
487.50	2399.05
487.68	2347.56
487.85	2352.24
488.03	2459.90
488.21	2401.39
488.39	2408.41
488.57	2221.17
488.75	2403.73
488.92	2558.21
489.10	2459.90
489.28	2576.93
489.46	2534.80
489.64	2583.95
489.81	2579.27
489.99	2497.35
490.17	2607.36
490.35	2670.55
490.53	2478.63
490.70	2506.71
490.88	2480.97
491.06	2605.02
491.24	2541.82
491.41	2534.80
491.59	2415.43
491.77	2319.47
491.95	2436.50
492.13	2548.84
492.30	2626.08
492.48	2609.70
492.66	2654.17
492.84	2623.74
493.01	2675.23
493.19	2492.67
493.37	2621.40
493.54	2541.82
493.72	2614.38
493.90	2705.66
494.08	2698.64
494.25	2733.75
494.43	2787.58
494.61	2818.00
494.79	2836.73
494.96	2874.18
495.14	2794.60
495.32	2799.28
495.49	2628.42
495.67	2668.21
495.85	2899.92
496.02	2918.65
496.20	2937.37
496.38	2899.92
496.55	2810.98
496.73	2909.29
496.91	2815.66
497.09	2963.12
497.26	3033.33
497.44	2930.35
497.62	2796.94
497.79	2764.17
497.97	2736.09
498.14	2771.19
498.32	2780.56
498.50	2839.07
498.67	2876.52
498.85	2951.42
499.03	2839.07
499.20	2923.33
499.38	2930.35
499.56	2953.76
499.73	2848.43
499.91	2822.69
500.08	2822.69
500.26	2612.04
500.44	2696.30
500.61	2796.94
500.79	2785.24
500.97	2829.71
501.14	2780.56
501.32	2663.53
501.49	2731.41
501.67	2864.82
501.84	2719.70
502.02	2869.50
502.20	2789.92
502.37	2881.20
502.55	2848.43
502.72	2881.20
502.90	2874.18
503.07	2932.69
503.25	2754.81
503.43	2581.61
503.60	2612.04
503.78	2633.10
503.95	2656.51
504.13	2705.66
504.30	2878.86
504.48	2920.99
504.65	2839.07
504.83	2930.35
505.01	2874.18
505.18	2883.54
505.36	2991.20
505.53	3000.57
505.71	2949.08
505.88	3124.62
506.06	2972.48
506.23	2979.50
506.41	2916.31
506.58	2956.10
506.76	2920.99
506.93	3002.91
507.11	2878.86
507.28	2820.35
507.46	2794.60
507.63	2708.00
507.81	2722.04
507.98	2892.90
508.16	2846.09
508.33	2951.42
508.50	3056.74
508.68	3110.57
508.85	3082.49
509.03	3045.04
509.20	3026.31
509.38	3047.38
509.55	3082.49
509.73	2932.69
509.90	2963.12
510.08	2974.82
510.25	3059.08
510.42	2911.63
510.60	2998.23
510.77	2998.23
510.95	3014.61
511.12	3014.61
511.30	2981.84
511.47	3208.87
511.64	3211.22
511.82	3148.02
511.99	2967.80
512.17	2972.48
512.34	2930.35
512.51	2953.76
512.69	2930.35
512.86	3019.29
513.04	2981.84
513.21	3059.08
513.38	3068.44
513.56	2930.35
513.73	2874.18
513.90	2890.56
514.08	2913.97
514.25	2862.48
514.43	2988.86
514.60	2904.60
514.77	3012.27
514.95	3082.49
515.12	3049.72
515.29	2960.78
515.47	3066.10
515.64	3103.55
515.81	3047.38
515.99	2960.78
516.16	2813.32
516.33	2616.72
516.51	2640.12
516.68	2387.35
516.85	2345.22
517.03	2455.22
517.20	2656.51
517.37	2913.97
517.54	2960.78
517.72	2951.42
517.89	2717.36
518.06	2527.78
518.24	2668.21
518.41	2691.62
518.58	2867.16
518.75	2871.84
518.93	2871.84
519.10	2963.12
519.27	2902.26
519.45	2913.97
519.62	3075.46
519.79	3012.27
519.96	2906.95
520.14	2888.22
520.31	2995.89
520.48	2937.37
520.65	2956.10
520.83	3138.66
521.00	3180.79
521.17	3023.97
521.34	2925.67
521.52	3061.42
521.69	3143.34
521.86	3152.70
522.03	3206.53
522.20	3028.65
522.38	2946.73
522.55	2853.11
522.72	2981.84
522.89	2986.52
523.07	3000.57
523.24	3035.67
523.41	3145.68
523.58	3082.49
523.75	3248.66
523.92	3112.91
524.10	3141.00
524.27	3190.15
524.44	3150.36
524.61	3110.57
524.78	3059.08
524.96	3122.27
525.13	3023.97
525.30	3115.25
525.47	3173.77
525.64	3199.51
525.81	3056.74
525.98	2930.35
526.16	2731.41
526.33	2647.15
526.50	2609.70
526.67	2736.09
526.84	2818.00
527.01	2722.04
527.18	2829.71
527.36	2956.10
527.53	3070.78
527.70	3136.32
527.87	3190.15
528.04	3112.91
528.21	3068.44
528.38	3187.81
528.55	3178.45
528.72	3143.34
528.89	3377.39
529.07	3215.90
529.24	3103.55
529.41	3056.74
529.58	2993.55
529.75	2986.52
529.92	3056.74
530.09	3084.83
530.26	3169.09
530.43	3265.05
530.60	3082.49
530.77	3272.07
530.94	3393.78
531.11	3159.72
531.28	3012.27
531.46	3138.66
531.63	3105.89
531.80	3141.00
531.97	3101.21
532.14	3150.36
532.31	2991.20
532.48	2923.33
532.65	2789.92
532.82	2923.33
532.99	3080.14
533.16	2902.26
533.33	3185.47
533.50	3166.74
533.67	2988.86
533.84	3042.70
534.01	3145.68
534.18	3105.89
534.35	3141.00
534.52	3056.74
534.69	3122.27
534.86	3096.53
535.03	3187.81
535.20	3199.51
535.37	3059.08
535.54	3239.30
535.71	3215.90
535.88	3295.47
536.05	3094.19
536.22	3105.89
536.38	3080.14
536.55	2935.03
536.72	2998.23
536.89	2888.22
537.06	2949.08
537.23	3115.25
537.40	3012.27
537.57	3290.79
537.74	3185.47
537.91	3119.93
538.08	3248.66
538.25	3255.69
538.42	3110.57
538.59	3295.47
538.75	3110.57
538.92	3166.74
539.09	3150.36
539.26	3136.32
539.43	3148.02
539.60	3119.93
539.77	3187.81
539.94	3246.32
540.11	3190.15
540.28	3103.55
540.44	3169.09
540.61	3272.07
540.78	3286.11
540.95	3466.33
541.12	3810.39
541.29	3803.37
541.46	3779.97
541.62	3765.92
541.79	3808.05
541.96	3756.56
542.13	3559.95
542.30	3695.71
542.47	3630.17
542.63	3534.21
542.80	3522.51
542.97	3602.08
543.14	3494.42
543.31	3452.29
543.48	3506.12
543.64	3728.47
543.81	3824.44
543.98	3634.85
544.15	3566.98
544.32	3527.19
544.48	3590.38
544.65	3592.72
544.82	3562.30
544.99	3550.59
545.16	3613.79
545.32	3480.38
545.49	4124.02
545.66	4954.91
545.83	5205.35
546.00	4985.34
546.16	4248.07
546.33	3969.55
546.50	3543.57
546.67	3468.67
546.83	3349.31
547.00	3342.28
547.17	3410.16
547.34	3255.69
547.50	3281.43
547.67	3236.96
547.84	3344.63
548.00	3332.92
548.17	3370.37
548.34	3304.84
548.51	3208.87
548.67	3208.87
548.84	3255.69
549.01	3304.84
549.18	3351.65
549.34	3262.71
549.51	3183.13
549.68	3115.25
549.84	3297.81
550.01	3162.06
550.18	3166.74
550.34	3155.04
550.51	3185.47
550.68	3152.70
550.84	3042.70
551.01	3063.76
551.18	3119.93
551.34	2993.55
551.51	3082.49
551.68	3094.19
551.84	3180.79
552.01	3129.30
552.18	2986.52
552.34	2895.24
552.51	2981.84
552.68	2808.64
552.84	3026.31
553.01	2918.65
553.18	3101.21
553.34	3026.31
553.51	3045.04
553.67	3045.04
553.84	3047.38
554.01	3180.79
554.17	3063.76
554.34	2902.26
554.51	3033.33
554.67	2977.16
554.84	2984.18
555.00	3005.25
555.17	2897.58
555.33	2939.71
555.50	2963.12
555.67	2801.62
555.83	2895.24
556.00	2890.56
556.16	2963.12
556.33	2829.71
556.50	2904.60
556.66	2792.26
556.83	2803.96
556.99	2806.30
557.16	2686.94
557.32	2729.06
557.49	2850.77
557.65	2829.71
557.82	2813.32
557.98	2839.07
558.15	2729.06
558.32	2815.66
558.48	2710.34
558.65	2733.75
558.81	2715.02
558.98	2766.51
559.14	2773.53
559.31	2733.75
559.47	2672.89
559.64	2679.91
559.80	2656.51
559.97	2740.77
560.13	2672.89
560.30	2775.88
560.46	2890.56
560.63	2726.72
560.79	2745.45
560.96	2913.97
561.12	2799.28
561.29	2787.58
561.45	2654.17
561.61	2773.53
561.78	2958.44
561.94	2789.92
562.11	2726.72
562.27	2752.47
562.44	2799.28
562.60	2665.87
562.77	2745.45
562.93	2899.92
563.10	2665.87
563.26	2675.23
563.42	2675.23
563.59	2757.15
563.75	2665.87
563.92	2754.81
564.08	2729.06
564.24	2787.58
564.41	2738.43
564.57	2743.11
564.74	2696.30
564.90	2834.39
565.07	2700.98
565.23	2764.17
565.39	2609.70
565.56	2623.74
565.72	2551.18
565.88	2541.82
566.05	2679.91
566.21	2637.78
566.38	2703.32
566.54	2602.68
566.70	2623.74
566.87	2782.90
567.03	2663.53
567.19	2626.08
567.36	2630.76
567.52	2630.76
567.68	2722.04
567.85	2565.23
568.01	2518.42
568.17	2448.20
568.34	2492.67
568.50	2558.21
568.66	2445.86
568.83	2583.95
568.99	2525.44
569.15	2443.52
569.32	2457.56
569.48	2485.65
569.64	2506.71
569.81	2485.65
569.97	2356.92
570.13	2415.43
570.30	2511.39
570.46	2452.88
570.62	2389.69
570.78	2420.11
570.95	2223.51
571.11	2469.27
571.27	2359.26
571.43	2438.84
571.60	2487.99
571.76	2431.82
571.92	2485.65
572.09	2565.23
572.25	2436.50
572.41	2537.14
572.57	2480.97
572.74	2382.67
572.90	2593.31
573.06	2464.58
573.22	2504.37
573.38	2520.76
573.55	2422.45
573.71	2385.01
573.87	2434.16
574.03	2399.05
574.20	2436.50
574.36	2352.24
574.52	2422.45
574.68	2502.03
574.84	2490.33
575.01	2385.01
575.17	2394.37
575.33	2457.56
575.49	2321.81
575.65	2349.90
575.82	2410.75
575.98	2375.64
576.14	2368.62
576.30	2541.82
576.46	2684.59
576.62	2754.81
576.79	2930.35
576.95	2686.94
577.11	2602.68
577.27	2464.58
577.43	2527.78
577.59	2438.84
577.75	2420.11
577.92	2387.35
578.08	2333.51
578.24	2408.41
578.40	2448.20
578.56	2595.65
578.72	2757.15
578.88	2806.30
579.04	2670.55
579.21	2609.70
579.37	2462.24
579.53	2492.67
579.69	2551.18
579.85	2525.44
580.01	2581.61
580.17	2401.39
580.33	2420.11
580.49	2469.27
580.65	2516.08
580.82	2469.27
580.98	2471.61
581.14	2441.18
581.30	2464.58
581.46	2490.33
581.62	2576.93
581.78	2537.14
581.94	2576.93
582.10	2499.69
582.26	2619.06
582.42	2555.86
582.58	2647.15
582.74	2492.67
582.90	2548.84
583.06	2544.16
583.22	2583.95
583.38	2562.89
583.54	2569.91
583.70	2518.42
583.86	2612.04
584.02	2546.50
584.18	2637.78
584.34	2487.99
584.50	2572.25
584.66	2597.99
584.82	2464.58
584.98	2443.52
585.14	2424.80
585.30	2438.84
585.46	2305.43
585.62	2298.41
585.78	2347.56
585.94	2455.22
586.10	2476.29
586.26	2504.37
586.42	2441.18
586.58	2518.42
586.74	2506.71
586.90	2511.39
587.06	2565.23
587.22	2560.55
587.38	2436.50
587.54	2406.07
587.70	2420.11
587.86	2296.07
588.02	2064.35
588.18	2174.36
588.34	2022.22
588.49	1909.88
588.65	1870.09
588.81	1804.55
588.97	1858.39
589.13	1865.41
589.29	1825.62
589.45	1816.26
589.61	1792.85
589.77	1926.26
589.93	1998.82
590.08	2031.58
590.24	2001.16
590.40	2080.74
590.56	2101.80
590.72	2097.12
590.88	2024.56
591.04	2101.80
591.20	2064.35
591.35	2064.35
591.51	2050.31
591.67	1914.56
591.83	2099.46
591.99	1994.14
592.15	2054.99
592.31	2148.61
592.46	2246.91
592.62	2289.04
592.78	2197.76
592.94	2228.19
593.10	2216.49
593.26	2253.94
593.41	2143.93
593.57	2209.47
593.73	2101.80
593.89	1928.60
594.05	1867.75
594.20	1806.89
594.36	1933.28
594.52	1952.01
594.68	1942.64
594.84	1944.99
594.99	2076.06
595.15	2071.37
595.31	2071.37
595.47	2101.80
595.62	2001.16
595.78	2101.80
595.94	2143.93
596.10	2092.44
596.25	2052.65
596.41	1994.14
596.57	1984.77
596.73	2094.78
596.88	2078.40
597.04	2052.65
597.20	1998.82
597.36	2047.97
597.51	1980.09
597.67	2069.03
597.83	2036.27
597.99	2148.61
598.14	2062.01
598.30	2129.89
598.46	1982.43
598.61	2036.27
598.77	2214.15
598.93	2083.08
599.09	2228.19
