SpectraSuite Data File
++++++++++++++++++++++++++++++++++++
Date: Fri Oct 04 11:41:58 GMT-05:00 2013
User: price-jones
Dark Spectrum Present: No
Reference Spectrum Present: No
Number of Sampled Component Spectra: 1
Spectrometers: USB2+H05261
Integration Time (usec): 100000 (USB2+H05261)
Spectra Averaged: 1 (USB2+H05261)
Boxcar Smoothing: 0 (USB2+H05261)
Correct for Electrical Dark: No (USB2+H05261)
Strobe/Lamp Enabled: No (USB2+H05261)
Correct for Detector Non-linearity: No (USB2+H05261)
Correct for Stray Light: No (USB2+H05261)
Number of Pixels in Processed Spectrum: 2048
>>>>>Begin Processed Spectral Data<<<<<
365.73	58.51
365.92	58.51
366.12	58.51
366.32	0.00
366.52	0.00
366.72	0.00
366.91	0.00
367.11	0.00
367.31	0.00
367.51	0.00
367.70	0.00
367.90	0.00
368.10	0.00
368.30	0.00
368.49	0.00
368.69	23.41
368.89	0.00
369.09	0.00
369.28	0.00
369.48	0.00
369.68	0.00
369.87	0.00
370.07	25.75
370.27	77.24
370.47	11.70
370.66	16.38
370.86	84.26
371.06	0.00
371.25	100.64
371.45	65.54
371.65	142.77
371.84	86.60
372.04	138.09
372.24	105.32
372.44	81.92
372.63	98.30
372.83	126.39
373.03	114.69
373.22	145.11
373.42	175.54
373.62	98.30
373.81	98.30
374.01	100.64
374.21	110.01
374.40	131.07
374.60	88.94
374.79	117.03
374.99	140.43
375.19	77.24
375.38	30.43
375.58	124.05
375.78	152.13
375.97	138.09
376.17	173.20
376.37	138.09
376.56	159.16
376.76	56.17
376.95	126.39
377.15	117.03
377.35	95.96
377.54	133.41
377.74	161.50
377.93	30.43
378.13	102.98
378.33	117.03
378.52	112.35
378.72	91.28
378.91	159.16
379.11	58.51
379.31	126.39
379.50	126.39
379.70	131.07
379.89	117.03
380.09	107.66
380.28	121.71
380.48	135.75
380.68	133.41
380.87	72.56
381.07	131.07
381.26	147.45
381.46	114.69
381.65	135.75
381.85	81.92
382.04	126.39
382.24	72.56
382.43	88.94
382.63	112.35
382.83	110.01
383.02	102.98
383.22	95.96
383.41	135.75
383.61	117.03
383.80	156.82
384.00	159.16
384.19	102.98
384.39	60.85
384.58	37.45
384.78	91.28
384.97	117.03
385.17	81.92
385.36	88.94
385.56	140.43
385.75	102.98
385.95	110.01
386.14	135.75
386.34	67.88
386.53	140.43
386.72	107.66
386.92	149.79
387.11	170.86
387.31	98.30
387.50	124.05
387.70	67.88
387.89	173.20
388.09	74.90
388.28	56.17
388.48	65.54
388.67	149.79
388.86	58.51
389.06	131.07
389.25	93.62
389.45	58.51
389.64	107.66
389.84	196.60
390.03	63.19
390.22	86.60
390.42	88.94
390.61	170.86
390.81	95.96
391.00	124.05
391.19	154.48
391.39	93.62
391.58	159.16
391.78	133.41
391.97	131.07
392.16	112.35
392.36	161.50
392.55	166.18
392.75	126.39
392.94	58.51
393.13	135.75
393.33	100.64
393.52	95.96
393.71	49.15
393.91	107.66
394.10	180.22
394.29	63.19
394.49	74.90
394.68	107.66
394.88	93.62
395.07	102.98
395.26	100.64
395.46	81.92
395.65	170.86
395.84	119.37
396.04	110.01
396.23	65.54
396.42	42.13
396.62	126.39
396.81	205.97
397.00	105.32
397.19	100.64
397.39	124.05
397.58	98.30
397.77	107.66
397.97	74.90
398.16	110.01
398.35	131.07
398.55	119.37
398.74	159.16
398.93	105.32
399.12	30.43
399.32	187.24
399.51	93.62
399.70	163.84
399.90	224.69
400.09	100.64
400.28	117.03
400.47	79.58
400.67	154.48
400.86	93.62
401.05	121.71
401.24	196.60
401.44	138.09
401.63	128.73
401.82	131.07
402.01	133.41
402.21	53.83
402.40	159.16
402.59	79.58
402.78	187.24
402.97	93.62
403.17	142.77
403.36	98.30
403.55	84.26
403.74	65.54
403.93	252.78
404.13	238.73
404.32	262.14
404.51	205.97
404.70	198.95
404.89	189.58
405.09	210.65
405.28	95.96
405.47	135.75
405.66	142.77
405.85	121.71
406.05	147.45
406.24	58.51
406.43	79.58
406.62	163.84
406.81	175.54
407.00	248.10
407.20	210.65
407.39	63.19
407.58	112.35
407.77	117.03
407.96	255.12
408.15	81.92
408.34	98.30
408.54	140.43
408.73	102.98
408.92	124.05
409.11	114.69
409.30	95.96
409.49	86.60
409.68	91.28
409.87	166.18
410.07	70.22
410.26	145.11
410.45	100.64
410.64	152.13
410.83	152.13
411.02	63.19
411.21	182.56
411.40	79.58
411.59	100.64
411.78	201.29
411.98	107.66
412.17	114.69
412.36	117.03
412.55	126.39
412.74	126.39
412.93	114.69
413.12	142.77
413.31	117.03
413.50	142.77
413.69	163.84
413.88	245.76
414.07	271.50
414.26	105.32
414.45	112.35
414.64	95.96
414.83	147.45
415.02	135.75
415.22	234.05
415.41	133.41
415.60	107.66
415.79	208.31
415.98	138.09
416.17	131.07
416.36	95.96
416.55	152.13
416.74	67.88
416.93	191.92
417.12	145.11
417.31	133.41
417.50	86.60
417.69	112.35
417.88	119.37
418.07	133.41
418.26	156.82
418.45	170.86
418.64	121.71
418.83	166.18
419.02	128.73
419.21	156.82
419.39	175.54
419.58	124.05
419.77	72.56
419.96	175.54
420.15	166.18
420.34	102.98
420.53	203.63
420.72	156.82
420.91	180.22
421.10	182.56
421.29	145.11
421.48	128.73
421.67	95.96
421.86	107.66
422.05	166.18
422.24	173.20
422.43	161.50
422.61	107.66
422.80	140.43
422.99	159.16
423.18	84.26
423.37	203.63
423.56	133.41
423.75	208.31
423.94	72.56
424.13	63.19
424.32	124.05
424.50	142.77
424.69	114.69
424.88	212.99
425.07	135.75
425.26	159.16
425.45	152.13
425.64	135.75
425.83	152.13
426.01	208.31
426.20	163.84
426.39	170.86
426.58	105.32
426.77	72.56
426.96	152.13
427.15	100.64
427.33	220.01
427.52	142.77
427.71	133.41
427.90	149.79
428.09	121.71
428.28	142.77
428.46	142.77
428.65	119.37
428.84	121.71
429.03	152.13
429.22	161.50
429.40	189.58
429.59	117.03
429.78	243.42
429.97	133.41
430.16	81.92
430.34	184.90
430.53	161.50
430.72	147.45
430.91	189.58
431.10	114.69
431.28	124.05
431.47	180.22
431.66	142.77
431.85	100.64
432.03	138.09
432.22	128.73
432.41	161.50
432.60	147.45
432.79	147.45
432.97	138.09
433.16	198.95
433.35	138.09
433.54	140.43
433.72	152.13
433.91	224.69
434.10	182.56
434.28	70.22
434.47	217.67
434.66	194.26
434.85	159.16
435.03	299.59
435.22	676.41
435.41	985.37
435.59	1114.10
435.78	823.87
435.97	489.17
436.16	257.46
436.34	182.56
436.53	117.03
436.72	229.37
436.90	191.92
437.09	107.66
437.28	133.41
437.46	196.60
437.65	175.54
437.84	142.77
438.02	189.58
438.21	189.58
438.40	112.35
438.58	133.41
438.77	152.13
438.96	112.35
439.14	180.22
439.33	227.03
439.52	210.65
439.70	168.52
439.89	191.92
440.08	203.63
440.26	229.37
440.45	215.33
440.63	147.45
440.82	201.29
441.01	187.24
441.19	170.86
441.38	159.16
441.57	156.82
441.75	161.50
441.94	203.63
442.12	145.11
442.31	159.16
442.50	149.79
442.68	145.11
442.87	154.48
443.05	191.92
443.24	170.86
443.43	201.29
443.61	117.03
443.80	79.58
443.98	145.11
444.17	154.48
444.35	222.35
444.54	173.20
444.73	161.50
444.91	241.08
445.10	105.32
445.28	138.09
445.47	222.35
445.65	126.39
445.84	124.05
446.02	210.65
446.21	220.01
446.39	182.56
446.58	138.09
446.77	117.03
446.95	180.22
447.14	81.92
447.32	257.46
447.51	182.56
447.69	163.84
447.88	131.07
448.06	234.05
448.25	168.52
448.43	173.20
448.62	110.01
448.80	138.09
448.99	140.43
449.17	102.98
449.36	154.48
449.54	156.82
449.73	238.73
449.91	210.65
450.10	205.97
450.28	212.99
450.46	224.69
450.65	121.71
450.83	210.65
451.02	208.31
451.20	93.62
451.39	159.16
451.57	159.16
451.76	149.79
451.94	173.20
452.13	231.71
452.31	166.18
452.49	180.22
452.68	201.29
452.86	191.92
453.05	229.37
453.23	163.84
453.42	187.24
453.60	173.20
453.78	170.86
453.97	271.50
454.15	119.37
454.34	140.43
454.52	187.24
454.70	203.63
454.89	154.48
455.07	184.90
455.26	156.82
455.44	212.99
455.62	161.50
455.81	182.56
455.99	154.48
456.17	163.84
456.36	168.52
456.54	194.26
456.73	126.39
456.91	273.84
457.09	234.05
457.28	191.92
457.46	196.60
457.64	212.99
457.83	154.48
458.01	154.48
458.19	180.22
458.38	154.48
458.56	175.54
458.74	173.20
458.93	220.01
459.11	133.41
459.29	135.75
459.48	208.31
459.66	222.35
459.84	133.41
460.03	250.44
460.21	177.88
460.39	201.29
460.57	210.65
460.76	234.05
460.94	154.48
461.12	210.65
461.31	184.90
461.49	147.45
461.67	145.11
461.85	124.05
462.04	142.77
462.22	594.50
462.40	184.90
462.59	175.54
462.77	124.05
462.95	217.67
463.13	227.03
463.32	156.82
463.50	210.65
463.68	217.67
463.86	175.54
464.05	212.99
464.23	215.33
464.41	131.07
464.59	100.64
464.78	138.09
464.96	201.29
465.14	133.41
465.32	210.65
465.50	191.92
465.69	243.42
465.87	175.54
466.05	88.94
466.23	152.13
466.41	147.45
466.60	194.26
466.78	208.31
466.96	215.33
467.14	161.50
467.32	215.33
467.51	177.88
467.69	189.58
467.87	149.79
468.05	205.97
468.23	198.95
468.41	198.95
468.60	201.29
468.78	236.39
468.96	203.63
469.14	217.67
469.32	133.41
469.50	180.22
469.69	177.88
469.87	145.11
470.05	156.82
470.23	208.31
470.41	205.97
470.59	203.63
470.77	175.54
470.95	77.24
471.14	238.73
471.32	203.63
471.50	205.97
471.68	212.99
471.86	95.96
472.04	117.03
472.22	142.77
472.40	177.88
472.58	198.95
472.77	201.29
472.95	145.11
473.13	241.08
473.31	217.67
473.49	114.69
473.67	222.35
473.85	182.56
474.03	196.60
474.21	222.35
474.39	262.14
474.57	208.31
474.75	243.42
474.93	198.95
475.12	149.79
475.30	208.31
475.48	149.79
475.66	196.60
475.84	220.01
476.02	161.50
476.20	259.80
476.38	217.67
476.56	241.08
476.74	201.29
476.92	156.82
477.10	124.05
477.28	189.58
477.46	177.88
477.64	191.92
477.82	189.58
478.00	215.33
478.18	159.16
478.36	191.92
478.54	175.54
478.72	187.24
478.90	163.84
479.08	168.52
479.26	191.92
479.44	231.71
479.62	145.11
479.80	163.84
479.98	154.48
480.16	159.16
480.34	133.41
480.52	114.69
480.70	266.82
480.88	154.48
481.06	110.01
481.24	149.79
481.41	250.44
481.59	234.05
481.77	205.97
481.95	187.24
482.13	241.08
482.31	187.24
482.49	252.78
482.67	208.31
482.85	236.39
483.03	138.09
483.21	203.63
483.39	212.99
483.57	215.33
483.74	227.03
483.92	294.91
484.10	222.35
484.28	301.93
484.46	322.99
484.64	264.48
484.82	301.93
485.00	227.03
485.18	287.89
485.35	376.83
485.53	337.04
485.71	264.48
485.89	152.13
486.07	341.72
486.25	320.65
486.43	330.02
486.61	318.31
486.78	287.89
486.96	255.12
487.14	220.01
487.32	276.18
487.50	194.26
487.68	297.25
487.85	290.23
488.03	313.63
488.21	290.23
488.39	332.36
488.57	301.93
488.75	306.61
488.92	543.00
489.10	325.33
489.28	339.38
489.46	222.35
489.64	292.57
489.81	308.95
489.99	250.44
490.17	299.59
490.35	351.08
490.53	299.59
490.70	271.50
490.88	299.59
491.06	273.84
491.24	304.27
491.41	351.08
491.59	367.46
491.77	313.63
491.95	241.08
492.13	287.89
492.30	311.29
492.48	297.25
492.66	280.86
492.84	212.99
493.01	306.61
493.19	271.50
493.37	344.06
493.54	285.55
493.72	257.46
493.90	271.50
494.08	325.33
494.25	236.39
494.43	278.52
494.61	266.82
494.79	292.57
494.96	252.78
495.14	292.57
495.32	259.80
495.49	212.99
495.67	311.29
495.85	236.39
496.02	196.60
496.20	330.02
496.38	292.57
496.55	252.78
496.73	262.14
496.91	315.97
497.09	299.59
497.26	236.39
497.44	252.78
497.62	287.89
497.79	231.71
497.97	313.63
498.14	255.12
498.32	283.20
498.50	308.95
498.67	327.68
498.85	299.59
499.03	203.63
499.20	222.35
499.38	313.63
499.56	210.65
499.73	327.68
499.91	283.20
500.08	290.23
500.26	208.31
500.44	262.14
500.61	306.61
500.79	203.63
500.97	311.29
501.14	238.73
501.32	245.76
501.49	320.65
501.67	250.44
501.84	264.48
502.02	215.33
502.20	276.18
502.37	189.58
502.55	177.88
502.72	198.95
502.90	287.89
503.07	245.76
503.25	273.84
503.43	238.73
503.60	236.39
503.78	215.33
503.95	255.12
504.13	255.12
504.30	245.76
504.48	241.08
504.65	250.44
504.83	231.71
505.01	166.18
505.18	255.12
505.36	191.92
505.53	238.73
505.71	351.08
505.88	287.89
506.06	220.01
506.23	327.68
506.41	170.86
506.58	262.14
506.76	287.89
506.93	220.01
507.11	271.50
507.28	191.92
507.46	182.56
507.63	222.35
507.81	224.69
507.98	245.76
508.16	217.67
508.33	215.33
508.50	248.10
508.68	217.67
508.85	259.80
509.03	205.97
509.20	163.84
509.38	220.01
509.55	299.59
509.73	217.67
509.90	308.95
510.08	250.44
510.25	287.89
510.42	287.89
510.60	196.60
510.77	201.29
510.95	241.08
511.12	224.69
511.30	227.03
511.47	269.16
511.64	271.50
511.82	252.78
511.99	292.57
512.17	269.16
512.34	215.33
512.51	208.31
512.69	266.82
512.86	203.63
513.04	248.10
513.21	210.65
513.38	311.29
513.56	234.05
513.73	243.42
513.90	217.67
514.08	182.56
514.25	269.16
514.43	259.80
514.60	231.71
514.77	201.29
514.95	297.25
515.12	241.08
515.29	273.84
515.47	229.37
515.64	238.73
515.81	194.26
515.99	252.78
516.16	252.78
516.33	292.57
516.51	196.60
516.68	180.22
516.85	191.92
517.03	222.35
517.20	287.89
517.37	290.23
517.54	299.59
517.72	196.60
517.89	255.12
518.06	182.56
518.24	306.61
518.41	177.88
518.58	292.57
518.75	205.97
518.93	212.99
519.10	201.29
519.27	131.07
519.45	248.10
519.62	212.99
519.79	252.78
519.96	166.18
520.14	248.10
520.31	257.46
520.48	273.84
520.65	264.48
520.83	322.99
521.00	273.84
521.17	203.63
521.34	210.65
521.52	252.78
521.69	245.76
521.86	248.10
522.03	257.46
522.20	231.71
522.38	142.77
522.55	182.56
522.72	283.20
522.89	224.69
523.07	304.27
523.24	231.71
523.41	264.48
523.58	294.91
523.75	156.82
523.92	308.95
524.10	212.99
524.27	294.91
524.44	234.05
524.61	255.12
524.78	243.42
524.96	182.56
525.13	262.14
525.30	318.31
525.47	231.71
525.64	297.25
525.81	259.80
525.98	257.46
526.16	248.10
526.33	210.65
526.50	198.95
526.67	191.92
526.84	201.29
527.01	212.99
527.18	320.65
527.36	245.76
527.53	229.37
527.70	367.46
527.87	297.25
528.04	266.82
528.21	236.39
528.38	311.29
528.55	271.50
528.72	283.20
528.89	285.55
529.07	250.44
529.24	285.55
529.41	292.57
529.58	313.63
529.75	318.31
529.92	301.93
530.09	250.44
530.26	341.72
530.43	330.02
530.60	294.91
530.77	262.14
530.94	255.12
531.11	205.97
531.28	273.84
531.46	189.58
531.63	241.08
531.80	227.03
531.97	304.27
532.14	245.76
532.31	248.10
532.48	252.78
532.65	257.46
532.82	271.50
532.99	245.76
533.16	322.99
533.33	337.04
533.50	252.78
533.67	344.06
533.84	287.89
534.01	262.14
534.18	320.65
534.35	238.73
534.52	299.59
534.69	292.57
534.86	315.97
535.03	255.12
535.20	271.50
535.37	308.95
535.54	330.02
535.71	330.02
535.88	278.52
536.05	294.91
536.22	290.23
536.38	334.70
536.55	334.70
536.72	322.99
536.89	266.82
537.06	355.76
537.23	264.48
537.40	409.59
537.57	327.68
537.74	416.62
537.91	327.68
538.08	400.23
538.25	425.98
538.42	421.30
538.59	477.47
538.75	528.96
538.92	447.04
539.09	454.06
539.26	451.72
539.43	463.43
539.60	550.03
539.77	552.37
539.94	519.60
540.11	641.31
540.28	685.78
540.44	711.52
540.61	723.23
540.78	784.08
540.95	772.38
541.12	1039.20
541.29	1062.60
541.46	1158.57
541.62	1238.14
541.79	1221.76
541.96	1102.39
542.13	1174.95
542.30	1004.09
542.47	1132.82
542.63	1008.77
542.80	1086.01
542.97	971.32
543.14	1025.15
543.31	1039.20
543.48	1034.52
543.64	1057.92
543.81	971.32
543.98	966.64
544.15	976.00
544.32	1008.77
544.48	978.34
544.65	908.13
544.82	1039.20
544.99	961.96
545.16	983.02
545.32	940.90
545.49	1472.20
545.66	2321.81
545.83	2745.45
546.00	2480.97
546.16	1741.36
546.33	1352.83
546.50	1074.31
546.67	877.70
546.83	891.74
547.00	737.27
547.17	603.86
547.34	643.65
547.50	763.01
547.67	653.01
547.84	610.88
548.00	662.37
548.17	685.78
548.34	624.92
548.51	713.86
548.67	641.31
548.84	571.09
549.01	519.60
549.18	615.56
549.34	636.63
549.51	624.92
549.68	458.74
549.84	503.22
550.01	552.37
550.18	596.84
550.34	524.28
550.51	407.25
550.68	451.72
550.84	479.81
551.01	545.34
551.18	430.66
551.34	402.57
551.51	440.02
551.68	393.21
551.84	461.09
552.01	372.15
552.18	470.45
552.34	472.79
552.51	397.89
552.68	402.57
552.84	353.42
553.01	332.36
553.18	393.21
553.34	374.49
553.51	243.42
553.67	318.31
553.84	325.33
554.01	393.21
554.17	325.33
554.34	341.72
554.51	292.57
554.67	330.02
554.84	294.91
555.00	257.46
555.17	311.29
555.33	334.70
555.50	344.06
555.67	332.36
555.83	273.84
556.00	313.63
556.16	512.58
556.33	346.40
556.50	313.63
556.66	325.33
556.83	222.35
556.99	301.93
557.16	285.55
557.32	245.76
557.49	264.48
557.65	273.84
557.82	236.39
557.98	278.52
558.15	227.03
558.32	322.99
558.48	255.12
558.65	255.12
558.81	301.93
558.98	203.63
559.14	194.26
559.31	280.86
559.47	318.31
559.64	334.70
559.80	301.93
559.97	243.42
560.13	280.86
560.30	308.95
560.46	257.46
560.63	304.27
560.79	376.83
560.96	259.80
561.12	283.20
561.29	318.31
561.45	264.48
561.61	276.18
561.78	348.74
561.94	292.57
562.11	299.59
562.27	259.80
562.44	266.82
562.60	236.39
562.77	301.93
562.93	273.84
563.10	234.05
563.26	264.48
563.42	264.48
563.59	283.20
563.75	276.18
563.92	229.37
564.08	222.35
564.24	280.86
564.41	306.61
564.57	238.73
564.74	177.88
564.90	259.80
565.07	231.71
565.23	332.36
565.39	201.29
565.56	241.08
565.72	224.69
565.88	266.82
566.05	245.76
566.21	287.89
566.38	238.73
566.54	266.82
566.70	196.60
566.87	262.14
567.03	173.20
567.19	255.12
567.36	301.93
567.52	318.31
567.68	285.55
567.85	250.44
568.01	217.67
568.17	194.26
568.34	283.20
568.50	313.63
568.66	257.46
568.83	308.95
568.99	196.60
569.15	250.44
569.32	173.20
569.48	245.76
569.64	189.58
569.81	184.90
569.97	210.65
570.13	290.23
570.30	308.95
570.46	227.03
570.62	250.44
570.78	304.27
570.95	248.10
571.11	278.52
571.27	294.91
571.43	205.97
571.60	231.71
571.76	285.55
571.92	255.12
572.09	252.78
572.25	264.48
572.41	264.48
572.57	241.08
572.74	271.50
572.90	283.20
573.06	273.84
573.22	248.10
573.38	259.80
573.55	217.67
573.71	311.29
573.87	238.73
574.03	252.78
574.20	238.73
574.36	269.16
574.52	231.71
574.68	220.01
574.84	250.44
575.01	196.60
575.17	208.31
575.33	276.18
575.49	306.61
575.65	250.44
575.82	234.05
575.98	313.63
576.14	257.46
576.30	355.76
576.46	503.22
576.62	657.69
576.79	699.82
576.95	566.41
577.11	421.30
577.27	334.70
577.43	449.38
577.59	330.02
577.75	217.67
577.92	245.76
578.08	276.18
578.24	227.03
578.40	386.19
578.56	514.92
578.72	697.48
578.88	622.58
579.04	554.71
579.21	447.04
579.37	332.36
579.53	351.08
579.69	325.33
579.85	348.74
580.01	407.25
580.17	322.99
580.33	407.25
580.49	386.19
580.65	330.02
580.82	337.04
580.98	301.93
581.14	407.25
581.30	383.85
581.46	407.25
581.62	332.36
581.78	440.02
581.94	409.59
582.10	372.15
582.26	407.25
582.42	365.12
582.58	386.19
582.74	458.74
582.90	379.17
583.06	430.66
583.22	388.53
583.38	435.34
583.54	365.12
583.70	447.04
583.86	449.38
584.02	486.83
584.18	491.51
584.34	458.74
584.50	507.90
584.66	369.80
584.82	344.06
584.98	395.55
585.14	381.51
585.30	430.66
585.46	390.87
585.62	346.40
585.78	397.89
585.94	437.68
586.10	463.43
586.26	322.99
586.42	390.87
586.58	442.36
586.74	528.96
586.90	568.75
587.06	580.45
587.22	540.66
587.38	505.56
587.54	484.49
587.70	440.02
587.86	451.72
588.02	407.25
588.18	411.93
588.34	367.46
588.49	327.68
588.65	341.72
588.81	283.20
588.97	388.53
589.13	365.12
589.29	330.02
589.45	339.38
589.61	306.61
589.77	313.63
589.93	248.10
590.08	238.73
590.24	315.97
590.40	292.57
590.56	238.73
590.72	362.78
590.88	428.32
591.04	341.72
591.20	287.89
591.35	433.00
591.51	365.12
591.67	353.42
591.83	327.68
591.99	423.64
592.15	351.08
592.31	374.49
592.46	411.93
592.62	435.34
592.78	381.51
592.94	430.66
593.10	472.79
593.26	327.68
593.41	423.64
593.57	456.40
593.73	397.89
593.89	416.62
594.05	308.95
594.20	395.55
594.36	276.18
594.52	315.97
594.68	330.02
594.84	245.76
594.99	322.99
595.15	299.59
595.31	304.27
595.47	269.16
595.62	297.25
595.78	283.20
595.94	229.37
596.10	327.68
596.25	236.39
596.41	217.67
596.57	201.29
596.73	266.82
596.88	248.10
597.04	283.20
597.20	341.72
597.36	271.50
597.51	266.82
597.67	334.70
597.83	334.70
597.99	351.08
598.14	425.98
598.30	259.80
598.46	306.61
598.61	299.59
598.77	339.38
598.93	395.55
599.09	334.70
599.24	259.80
599.40	418.96
599.56	397.89
599.71	414.27
599.87	332.36
600.03	332.36
600.18	292.57
600.34	327.68
600.50	308.95
600.65	257.46
600.81	365.12
600.97	318.31
601.12	243.42
601.28	339.38
601.44	334.70
601.59	299.59
601.75	271.50
601.91	262.14
602.06	320.65
602.22	311.29
602.37	250.44
602.53	273.84
602.69	215.33
602.84	194.26
603.00	322.99
603.16	280.86
603.31	236.39
603.47	280.86
603.62	222.35
603.78	304.27
603.94	285.55
604.09	294.91
604.25	252.78
604.40	243.42
604.56	283.20
604.71	322.99
604.87	215.33
605.03	243.42
605.18	234.05
605.34	264.48
605.49	231.71
605.65	252.78
605.80	308.95
605.96	318.31
606.12	290.23
606.27	332.36
606.43	285.55
606.58	269.16
606.74	337.04
606.89	299.59
607.05	313.63
607.20	318.31
607.36	334.70
607.51	337.04
607.67	325.33
607.82	348.74
607.98	383.85
608.13	393.21
608.29	360.44
608.44	388.53
608.60	404.91
608.75	496.19
608.91	437.68
609.06	449.38
609.22	559.39
609.37	482.15
609.53	550.03
609.68	737.27
609.84	636.63
609.99	727.91
610.15	912.81
610.30	1086.01
610.46	1238.14
610.61	1493.26
610.76	2010.52
610.92	2284.36
611.07	2415.43
611.23	2670.55
