SpectraSuite Data File
++++++++++++++++++++++++++++++++++++
Date: Fri Oct 04 11:41:50 GMT-05:00 2013
User: price-jones
Dark Spectrum Present: No
Reference Spectrum Present: No
Number of Sampled Component Spectra: 1
Spectrometers: USB2+H05261
Integration Time (usec): 100000 (USB2+H05261)
Spectra Averaged: 1 (USB2+H05261)
Boxcar Smoothing: 0 (USB2+H05261)
Correct for Electrical Dark: No (USB2+H05261)
Strobe/Lamp Enabled: No (USB2+H05261)
Correct for Detector Non-linearity: No (USB2+H05261)
Correct for Stray Light: No (USB2+H05261)
Number of Pixels in Processed Spectrum: 2048
>>>>>Begin Processed Spectral Data<<<<<
365.73	14.04
365.92	14.04
366.12	14.04
366.32	0.00
366.52	0.00
366.72	0.00
366.91	0.00
367.11	0.00
367.31	0.00
367.51	0.00
367.70	0.00
367.90	0.00
368.10	0.00
368.30	0.00
368.49	0.00
368.69	0.00
368.89	0.00
369.09	0.00
369.28	0.00
369.48	0.00
369.68	7.02
369.87	23.41
370.07	18.72
370.27	39.79
370.47	44.47
370.66	0.00
370.86	49.15
371.06	9.36
371.25	77.24
371.45	51.49
371.65	74.90
371.84	0.00
372.04	58.51
372.24	63.19
372.44	58.51
372.63	117.03
372.83	154.48
373.03	168.52
373.22	88.94
373.42	39.79
373.62	126.39
373.81	133.41
374.01	187.24
374.21	102.98
374.40	37.45
374.60	119.37
374.79	81.92
374.99	60.85
375.19	135.75
375.38	112.35
375.58	56.17
375.78	175.54
375.97	194.26
376.17	154.48
376.37	135.75
376.56	128.73
376.76	121.71
376.95	152.13
377.15	156.82
377.35	131.07
377.54	133.41
377.74	51.49
377.93	105.32
378.13	77.24
378.33	161.50
378.52	133.41
378.72	250.44
378.91	156.82
379.11	152.13
379.31	138.09
379.50	91.28
379.70	135.75
379.89	140.43
380.09	56.17
380.28	170.86
380.48	63.19
380.68	154.48
380.87	51.49
381.07	147.45
381.26	124.05
381.46	91.28
381.65	124.05
381.85	145.11
382.04	112.35
382.24	145.11
382.43	124.05
382.63	121.71
382.83	84.26
383.02	88.94
383.22	182.56
383.41	74.90
383.61	110.01
383.80	126.39
384.00	145.11
384.19	135.75
384.39	145.11
384.58	114.69
384.78	105.32
384.97	74.90
385.17	121.71
385.36	140.43
385.56	121.71
385.75	166.18
385.95	86.60
386.14	140.43
386.34	67.88
386.53	126.39
386.72	100.64
386.92	152.13
387.11	107.66
387.31	170.86
387.50	114.69
387.70	65.54
387.89	126.39
388.09	182.56
388.28	138.09
388.48	198.95
388.67	88.94
388.86	142.77
389.06	140.43
389.25	168.52
389.45	149.79
389.64	119.37
389.84	173.20
390.03	145.11
390.22	229.37
390.42	91.28
390.61	135.75
390.81	166.18
391.00	142.77
391.19	184.90
391.39	117.03
391.58	119.37
391.78	112.35
391.97	124.05
392.16	93.62
392.36	173.20
392.55	128.73
392.75	100.64
392.94	107.66
393.13	149.79
393.33	119.37
393.52	65.54
393.71	107.66
393.91	133.41
394.10	79.58
394.29	152.13
394.49	140.43
394.68	147.45
394.88	128.73
395.07	86.60
395.26	170.86
395.46	93.62
395.65	86.60
395.84	133.41
396.04	182.56
396.23	72.56
396.42	102.98
396.62	147.45
396.81	79.58
397.00	95.96
397.19	102.98
397.39	154.48
397.58	208.31
397.77	114.69
397.97	79.58
398.16	110.01
398.35	145.11
398.55	147.45
398.74	140.43
398.93	182.56
399.12	91.28
399.32	191.92
399.51	124.05
399.70	152.13
399.90	147.45
400.09	173.20
400.28	166.18
400.47	145.11
400.67	166.18
400.86	138.09
401.05	161.50
401.24	166.18
401.44	142.77
401.63	163.84
401.82	236.39
402.01	168.52
402.21	201.29
402.40	166.18
402.59	170.86
402.78	177.88
402.97	220.01
403.17	227.03
403.36	236.39
403.55	360.44
403.74	697.48
403.93	2090.10
404.13	4957.25
404.32	6768.83
404.51	5664.10
404.70	3574.00
404.89	1380.92
405.09	409.59
405.28	271.50
405.47	238.73
405.66	222.35
405.85	205.97
406.05	107.66
406.24	241.08
406.43	196.60
406.62	243.42
406.81	271.50
407.00	393.21
407.20	709.18
407.39	936.21
407.58	1004.09
407.77	669.39
407.96	390.87
408.15	173.20
408.34	203.63
408.54	140.43
408.73	227.03
408.92	184.90
409.11	159.16
409.30	210.65
409.49	187.24
409.68	224.69
409.87	170.86
410.07	250.44
410.26	220.01
410.45	198.95
410.64	229.37
410.83	140.43
411.02	168.52
411.21	194.26
411.40	201.29
411.59	229.37
411.78	198.95
411.98	222.35
412.17	177.88
412.36	198.95
412.55	210.65
412.74	243.42
412.93	280.86
413.12	189.58
413.31	248.10
413.50	191.92
413.69	189.58
413.88	252.78
414.07	154.48
414.26	222.35
414.45	215.33
414.64	334.70
414.83	201.29
415.02	301.93
415.22	245.76
415.41	252.78
415.60	234.05
415.79	210.65
415.98	243.42
416.17	266.82
416.36	322.99
416.55	234.05
416.74	276.18
416.93	238.73
417.12	292.57
417.31	248.10
417.50	287.89
417.69	308.95
417.88	175.54
418.07	210.65
418.26	205.97
418.45	266.82
418.64	280.86
418.83	266.82
419.02	306.61
419.21	301.93
419.39	299.59
419.58	299.59
419.77	166.18
419.96	325.33
420.15	339.38
420.34	194.26
420.53	320.65
420.72	299.59
420.91	290.23
421.10	341.72
421.29	273.84
421.48	182.56
421.67	250.44
421.86	266.82
422.05	264.48
422.24	285.55
422.43	266.82
422.61	287.89
422.80	273.84
422.99	304.27
423.18	278.52
423.37	304.27
423.56	297.25
423.75	304.27
423.94	287.89
424.13	355.76
424.32	266.82
424.50	285.55
424.69	313.63
424.88	346.40
425.07	280.86
425.26	259.80
425.45	255.12
425.64	320.65
425.83	271.50
426.01	276.18
426.20	285.55
426.39	276.18
426.58	337.04
426.77	376.83
426.96	379.17
427.15	301.93
427.33	271.50
427.52	322.99
427.71	353.42
427.90	353.42
428.09	285.55
428.28	341.72
428.46	341.72
428.65	334.70
428.84	313.63
429.03	428.32
429.22	273.84
429.40	308.95
429.59	435.34
429.78	418.96
429.97	362.78
430.16	346.40
430.34	390.87
430.53	388.53
430.72	414.27
430.91	400.23
431.10	334.70
431.28	376.83
431.47	414.27
431.66	395.55
431.85	428.32
432.03	423.64
432.22	486.83
432.41	468.11
432.60	444.70
432.79	351.08
432.97	447.04
433.16	468.11
433.35	533.64
433.54	524.28
433.72	660.03
433.91	559.39
434.10	674.07
434.28	791.10
434.47	1029.84
434.66	1100.05
434.85	1210.06
435.03	3356.33
435.22	12798.05
435.41	29174.78
435.59	31007.42
435.78	20177.76
435.97	10129.84
436.16	4063.17
436.34	1483.90
436.53	847.27
436.72	641.31
436.90	610.88
437.09	580.45
437.28	493.85
437.46	547.69
437.65	489.17
437.84	533.64
438.02	512.58
438.21	491.51
438.40	435.34
438.58	456.40
438.77	425.98
438.96	442.36
439.14	390.87
439.33	498.53
439.52	369.80
439.70	388.53
439.89	456.40
440.08	388.53
440.26	416.62
440.45	421.30
440.63	421.30
440.82	486.83
441.01	416.62
441.19	437.68
441.38	486.83
441.57	425.98
441.75	484.49
441.94	528.96
442.12	437.68
442.31	465.77
442.50	397.89
442.68	353.42
442.87	498.53
443.05	409.59
443.24	477.47
443.43	498.53
443.61	456.40
443.80	510.24
443.98	386.19
444.17	407.25
444.35	465.77
444.54	486.83
444.73	437.68
444.91	498.53
445.10	430.66
445.28	425.98
445.47	433.00
445.65	447.04
445.84	475.13
446.02	414.27
446.21	376.83
446.39	461.09
446.58	451.72
446.77	425.98
446.95	458.74
447.14	491.51
447.32	479.81
447.51	386.19
447.69	514.92
447.88	421.30
448.06	559.39
448.25	528.96
448.43	442.36
448.62	414.27
448.80	379.17
448.99	440.02
449.17	447.04
449.36	416.62
449.54	451.72
449.73	440.02
449.91	433.00
450.10	381.51
450.28	526.62
450.46	444.70
450.65	486.83
450.83	461.09
451.02	395.55
451.20	437.68
451.39	430.66
451.57	475.13
451.76	477.47
451.94	470.45
452.13	468.11
452.31	461.09
452.49	447.04
452.68	491.51
452.86	461.09
453.05	447.04
453.23	388.53
453.42	381.51
453.60	449.38
453.78	388.53
453.97	383.85
454.15	397.89
454.34	418.96
454.52	433.00
454.70	442.36
454.89	425.98
455.07	383.85
455.26	440.02
455.44	482.15
455.62	475.13
455.81	404.91
455.99	472.79
456.17	409.59
456.36	437.68
456.54	444.70
456.73	409.59
456.91	458.74
457.09	379.17
457.28	407.25
457.46	421.30
457.64	444.70
457.83	465.77
458.01	397.89
458.19	454.06
458.38	402.57
458.56	418.96
458.74	430.66
458.93	388.53
459.11	444.70
459.29	374.49
459.48	447.04
459.66	514.92
459.84	465.77
460.03	468.11
460.21	449.38
460.39	376.83
460.57	437.68
460.76	334.70
460.94	397.89
461.12	425.98
461.31	472.79
461.49	404.91
461.67	390.87
461.85	425.98
462.04	376.83
462.22	884.72
462.40	451.72
462.59	472.79
462.77	423.64
462.95	418.96
463.13	486.83
463.32	430.66
463.50	514.92
463.68	379.17
463.86	458.74
464.05	390.87
464.23	428.32
464.41	386.19
464.59	383.85
464.78	435.34
464.96	425.98
465.14	383.85
465.32	353.42
465.50	475.13
465.69	440.02
465.87	376.83
466.05	472.79
466.23	353.42
466.41	442.36
466.60	451.72
466.78	423.64
466.96	533.64
467.14	475.13
467.32	561.73
467.51	435.34
467.69	482.15
467.87	500.87
468.05	440.02
468.23	489.17
468.41	433.00
468.60	365.12
468.78	390.87
468.96	421.30
469.14	442.36
469.32	425.98
469.50	280.86
469.69	416.62
469.87	407.25
470.05	374.49
470.23	386.19
470.41	400.23
470.59	374.49
470.77	372.15
470.95	409.59
471.14	491.51
471.32	353.42
471.50	451.72
471.68	428.32
471.86	381.51
472.04	344.06
472.22	477.47
472.40	367.46
472.58	376.83
472.77	381.51
472.95	442.36
473.13	454.06
473.31	390.87
473.49	486.83
473.67	461.09
473.85	421.30
474.03	423.64
474.21	468.11
474.39	428.32
474.57	472.79
474.75	409.59
474.93	423.64
475.12	430.66
475.30	383.85
475.48	383.85
475.66	440.02
475.84	355.76
476.02	360.44
476.20	491.51
476.38	456.40
476.56	491.51
476.74	423.64
476.92	463.43
477.10	367.46
477.28	402.57
477.46	414.27
477.64	435.34
477.82	390.87
478.00	510.24
478.18	463.43
478.36	540.66
478.54	433.00
478.72	463.43
478.90	475.13
479.08	463.43
479.26	521.94
479.44	507.90
479.62	493.85
479.80	606.20
479.98	554.71
480.16	557.05
480.34	620.24
480.52	566.41
480.70	571.09
480.88	699.82
481.06	685.78
481.24	753.65
481.41	772.38
481.59	772.38
481.77	868.34
481.95	922.17
482.13	947.92
482.31	1050.90
482.49	1015.79
482.67	1151.54
482.85	1196.01
483.03	1338.79
483.21	1315.38
483.39	1448.79
483.57	1582.20
483.74	1743.70
483.92	1659.44
484.10	1774.13
484.28	1830.30
484.46	2047.97
484.64	1956.69
484.82	2129.89
485.00	2270.32
485.18	2436.50
485.35	2560.55
485.53	2609.70
485.71	2869.50
485.89	2970.14
486.07	2958.44
486.25	3000.57
486.43	3038.02
486.61	2956.10
486.78	3009.93
486.96	3054.40
487.14	2944.39
487.32	2944.39
487.50	2979.50
487.68	2981.84
487.85	2836.73
488.03	2923.33
488.21	2785.24
488.39	2822.69
488.57	2834.39
488.75	2609.70
488.92	2916.31
489.10	2499.69
489.28	2434.16
489.46	2445.86
489.64	2392.03
489.81	2352.24
489.99	2415.43
490.17	2356.92
490.35	2319.47
490.53	2310.11
490.70	2354.58
490.88	2267.98
491.06	2429.48
491.24	2441.18
491.41	2537.14
491.59	2333.51
491.77	2282.02
491.95	2176.70
492.13	2148.61
492.30	2085.42
492.48	1907.54
492.66	1909.88
492.84	2062.01
493.01	1970.73
493.19	2033.93
493.37	1952.01
493.54	1853.70
493.72	1877.11
493.90	1783.49
494.08	1713.27
494.25	1790.51
494.43	1863.07
494.61	1802.21
494.79	1760.08
494.96	1617.31
495.14	1687.53
495.32	1593.90
495.49	1579.86
495.67	1584.54
495.85	1542.41
496.02	1593.90
496.20	1668.80
496.38	1519.01
496.55	1451.13
496.73	1474.54
496.91	1371.55
497.09	1502.62
497.26	1444.11
497.44	1434.75
497.62	1416.02
497.79	1287.29
497.97	1275.59
498.14	1306.02
498.32	1299.00
498.50	1247.51
498.67	1156.22
498.85	1086.01
499.03	1151.54
499.20	1125.80
499.38	1081.33
499.56	1097.71
499.73	1057.92
499.91	1071.97
500.08	999.41
500.26	891.74
500.44	943.24
500.61	840.25
500.79	828.55
500.97	891.74
501.14	823.87
501.32	809.83
501.49	880.04
501.67	819.19
501.84	685.78
502.02	683.44
502.20	765.36
502.37	664.71
502.55	753.65
502.72	737.27
502.90	657.69
503.07	601.52
503.25	664.71
503.43	674.07
503.60	681.10
503.78	608.54
503.95	620.24
504.13	601.52
504.30	557.05
504.48	547.69
504.65	592.16
504.83	561.73
505.01	500.87
505.18	503.22
505.36	505.56
505.53	507.90
505.71	416.62
505.88	599.18
506.06	451.72
506.23	540.66
506.41	479.81
506.58	409.59
506.76	489.17
506.93	423.64
507.11	538.32
507.28	428.32
507.46	437.68
507.63	404.91
507.81	454.06
507.98	430.66
508.16	475.13
508.33	423.64
508.50	526.62
508.68	414.27
508.85	552.37
509.03	535.98
509.20	463.43
509.38	484.49
509.55	524.28
509.73	402.57
509.90	479.81
510.08	423.64
510.25	545.34
510.42	482.15
510.60	456.40
510.77	465.77
510.95	451.72
511.12	355.76
511.30	355.76
511.47	440.02
511.64	486.83
511.82	379.17
511.99	383.85
512.17	388.53
512.34	395.55
512.51	451.72
512.69	390.87
512.86	550.03
513.04	442.36
513.21	362.78
513.38	325.33
513.56	390.87
513.73	407.25
513.90	435.34
514.08	360.44
514.25	393.21
514.43	400.23
514.60	358.10
514.77	320.65
514.95	313.63
515.12	332.36
515.29	388.53
515.47	360.44
515.64	376.83
515.81	341.72
515.99	491.51
516.16	477.47
516.33	360.44
516.51	330.02
516.68	344.06
516.85	407.25
517.03	388.53
517.20	444.70
517.37	407.25
517.54	421.30
517.72	311.29
517.89	360.44
518.06	332.36
518.24	430.66
518.41	379.17
518.58	327.68
518.75	311.29
518.93	374.49
519.10	259.80
519.27	351.08
519.45	423.64
519.62	390.87
519.79	400.23
519.96	428.32
520.14	404.91
520.31	376.83
520.48	421.30
520.65	271.50
520.83	348.74
521.00	351.08
521.17	334.70
521.34	404.91
521.52	346.40
521.69	287.89
521.86	294.91
522.03	280.86
522.20	313.63
522.38	458.74
522.55	322.99
522.72	283.20
522.89	327.68
523.07	451.72
523.24	332.36
523.41	397.89
523.58	306.61
523.75	395.55
523.92	440.02
524.10	407.25
524.27	381.51
524.44	318.31
524.61	360.44
524.78	383.85
524.96	360.44
525.13	390.87
525.30	421.30
525.47	505.56
525.64	390.87
525.81	437.68
525.98	437.68
526.16	388.53
526.33	376.83
526.50	393.21
526.67	353.42
526.84	367.46
527.01	388.53
527.18	512.58
527.36	538.32
527.53	486.83
527.70	528.96
527.87	425.98
528.04	496.19
528.21	416.62
528.38	461.09
528.55	475.13
528.72	447.04
528.89	470.45
529.07	468.11
529.24	433.00
529.41	489.17
529.58	479.81
529.75	465.77
529.92	517.26
530.09	517.26
530.26	463.43
530.43	528.96
530.60	540.66
530.77	486.83
530.94	519.60
531.11	531.30
531.28	592.16
531.46	524.28
531.63	603.86
531.80	685.78
531.97	713.86
532.14	774.72
532.31	877.70
532.48	1118.78
532.65	1226.44
532.82	1357.51
532.99	1540.07
533.16	1795.19
533.33	1860.73
533.50	1743.70
533.67	1458.15
533.84	1282.61
534.01	1118.78
534.18	1100.05
534.35	1102.39
534.52	1032.18
534.69	1177.29
534.86	1191.33
535.03	1123.46
535.20	1256.87
535.37	1317.72
535.54	1401.98
535.71	1299.00
535.88	1413.68
536.05	1514.33
536.22	1778.81
536.38	1830.30
536.55	2085.42
536.72	2312.45
536.89	2462.24
537.06	2679.91
537.23	3033.33
537.40	3363.35
537.57	3499.10
537.74	3772.94
537.91	3950.82
538.08	3985.93
538.25	4081.89
538.42	4088.92
538.59	4248.07
538.75	4250.41
538.92	4615.54
539.09	5163.22
539.26	5509.62
539.43	6352.21
539.60	7178.42
539.77	8077.19
539.94	8812.12
540.11	9923.87
540.28	10684.55
540.44	12093.55
540.61	13151.47
540.78	15124.54
540.95	18071.28
541.12	21472.07
541.29	23962.40
541.46	25713.13
541.62	24851.81
541.79	23728.35
541.96	22478.50
542.13	20851.83
542.30	18956.00
542.47	17942.55
542.63	17130.38
542.80	16769.94
542.97	16365.03
543.14	16393.11
543.31	16468.01
543.48	16430.56
543.64	16685.68
543.81	16819.09
543.98	16732.49
544.15	16779.30
544.32	17050.80
544.48	17310.60
544.65	16727.81
544.82	17048.46
544.99	17071.87
545.16	17532.95
545.32	18068.94
545.49	29745.87
545.66	53743.38
545.83	59866.22
546.00	55229.62
546.16	40779.15
546.33	30471.43
546.50	22897.46
546.67	17497.84
546.83	15480.30
547.00	14775.80
547.17	13825.54
547.34	13392.55
547.50	13102.32
547.67	12339.30
547.84	11714.38
548.00	11403.09
548.17	11063.71
548.34	10469.22
548.51	9975.36
548.67	9673.43
548.84	9385.55
549.01	8805.10
549.18	8519.55
549.34	8109.96
549.51	7702.70
549.68	7379.71
549.84	7185.44
550.01	6857.77
550.18	6644.78
550.34	6349.87
550.51	5989.43
550.68	5834.96
550.84	5401.96
551.01	5116.41
551.18	4943.21
551.34	4559.36
551.51	4311.27
551.68	4257.43
551.84	4271.48
552.01	3915.72
552.18	3775.28
552.34	3583.36
552.51	3552.93
552.68	3346.97
552.84	3365.69
553.01	3080.14
553.18	3126.96
553.34	3045.04
553.51	2883.54
553.67	2822.69
553.84	2895.24
554.01	2462.24
554.17	2422.45
554.34	2202.44
554.51	1994.14
554.67	1982.43
554.84	1963.71
555.00	1757.74
555.17	1671.14
555.33	1507.30
555.50	1425.39
555.67	1535.39
555.83	1425.39
556.00	1338.79
556.16	1451.13
556.33	1299.00
556.50	1172.61
556.66	1186.65
556.83	1172.61
556.99	1219.42
557.16	1149.20
557.32	1048.56
557.49	1062.60
557.65	994.73
557.82	985.37
557.98	957.28
558.15	901.11
558.32	905.79
558.48	863.66
558.65	896.43
558.81	828.55
558.98	842.59
559.14	858.98
559.31	868.34
559.47	788.76
559.64	755.99
559.80	737.27
559.97	732.59
560.13	645.99
560.30	802.80
560.46	739.61
560.63	835.57
560.79	774.72
560.96	884.72
561.12	800.46
561.29	819.19
561.45	725.57
561.61	723.23
561.78	798.12
561.94	840.25
562.11	723.23
562.27	786.42
562.44	734.93
562.60	734.93
562.77	683.44
562.93	795.78
563.10	660.03
563.26	648.33
563.42	800.46
563.59	739.61
563.75	648.33
563.92	636.63
564.08	716.20
564.24	615.56
564.41	608.54
564.57	606.20
564.74	615.56
564.90	695.14
565.07	631.94
565.23	664.71
565.39	571.09
565.56	603.86
565.72	596.84
565.88	561.73
566.05	578.11
566.21	601.52
566.38	594.50
566.54	643.65
566.70	554.71
566.87	589.82
567.03	603.86
567.19	580.45
567.36	636.63
567.52	580.45
567.68	603.86
567.85	617.90
568.01	636.63
568.17	552.37
568.34	592.16
568.50	629.60
568.66	587.47
568.83	617.90
568.99	514.92
569.15	592.16
569.32	528.96
569.48	519.60
569.64	505.56
569.81	477.47
569.97	514.92
570.13	526.62
570.30	491.51
570.46	433.00
570.62	444.70
570.78	470.45
570.95	463.43
571.11	486.83
571.27	503.22
571.43	423.64
571.60	454.06
571.76	493.85
571.92	433.00
572.09	444.70
572.25	404.91
572.41	411.93
572.57	430.66
572.74	507.90
572.90	561.73
573.06	442.36
573.22	463.43
573.38	477.47
573.55	528.96
573.71	519.60
573.87	552.37
574.03	440.02
574.20	505.56
574.36	592.16
574.52	535.98
574.68	538.32
574.84	713.86
575.01	631.94
575.17	676.41
575.33	683.44
575.49	732.59
575.65	807.48
575.82	807.48
575.98	938.55
576.14	929.19
576.30	1900.52
576.46	5940.28
576.62	11131.59
576.79	12372.07
576.95	8613.17
577.11	5603.24
577.27	3847.84
577.43	2560.55
577.59	1750.72
577.75	1390.28
577.92	1235.80
578.08	1301.34
578.24	1366.87
578.40	2118.18
578.56	5912.19
578.72	10333.47
578.88	11375.00
579.04	8236.35
579.21	5448.77
579.37	4056.15
579.53	3201.85
579.69	3129.30
579.85	3845.50
580.01	4526.60
580.17	4184.88
580.33	3618.47
580.49	3290.79
580.65	2857.79
580.82	2471.61
580.98	2462.24
581.14	2516.08
581.30	2782.90
581.46	2836.73
581.62	3028.65
581.78	3335.26
581.94	3524.85
582.10	3709.75
582.26	3969.55
582.42	4063.17
582.58	4180.20
582.74	4367.44
582.90	4390.84
583.06	4154.45
583.22	4248.07
583.38	4210.62
583.54	4248.07
583.70	4159.13
583.86	4131.05
584.02	4149.77
584.18	4227.01
584.34	4067.85
584.50	3981.25
584.66	3859.54
584.82	3824.44
584.98	3658.26
585.14	3721.45
585.30	3665.28
585.46	3693.37
585.62	3588.04
585.78	3611.45
585.94	3616.13
586.10	3763.58
586.26	3911.04
586.42	4374.46
586.58	5408.98
586.74	6422.43
586.90	7627.81
587.06	8601.47
587.22	8407.20
587.38	7438.22
587.54	6396.68
587.70	5526.00
587.86	4638.94
588.02	4065.51
588.18	3637.19
588.34	3166.74
588.49	2897.58
588.65	2719.70
588.81	2703.32
588.97	2569.91
589.13	2455.22
589.29	2410.75
589.45	2352.24
589.61	2310.11
589.77	2436.50
589.93	2513.74
590.08	2525.44
590.24	2516.08
590.40	2661.19
590.56	2698.64
590.72	2649.49
590.88	2792.26
591.04	2993.55
591.20	3045.04
591.35	3232.28
591.51	3208.87
591.67	3318.88
591.83	3660.60
591.99	3976.57
592.15	4283.18
592.31	4533.62
592.46	5212.37
592.62	5640.69
592.78	5970.71
592.94	6162.63
593.10	5959.00
593.26	5643.03
593.41	5188.97
593.57	4755.97
593.73	4194.24
593.89	3669.96
594.05	3260.37
594.20	2911.63
594.36	2771.19
594.52	2499.69
594.68	2392.03
594.84	2509.05
594.99	2246.91
595.15	2188.40
595.31	2118.18
595.47	2289.04
595.62	2279.68
595.78	2235.21
595.94	2125.21
596.10	2174.36
596.25	2076.06
596.41	2111.16
596.57	2176.70
596.73	2099.46
596.88	2136.91
597.04	2197.76
597.20	2111.16
597.36	2296.07
597.51	2377.98
597.67	2314.79
597.83	2385.01
597.99	2623.74
598.14	2825.03
598.30	2883.54
598.46	3049.72
598.61	3206.53
598.77	3286.11
598.93	3318.88
599.09	3545.91
599.24	3740.18
599.40	3679.32
599.56	3466.33
599.71	3410.16
599.87	3091.85
600.03	2939.71
600.18	2677.57
600.34	2710.34
600.50	2492.67
600.65	2232.87
600.81	2265.64
600.97	2113.50
601.12	1926.26
601.28	1849.02
601.44	1799.87
601.59	1605.61
601.75	1636.03
601.91	1682.85
602.06	1589.22
602.22	1629.01
602.37	1572.84
602.53	1413.68
602.69	1511.99
602.84	1385.60
603.00	1390.28
603.16	1511.99
603.31	1542.41
603.47	1462.83
603.62	1488.58
603.78	1521.35
603.94	1563.48
604.09	1612.63
604.25	1533.05
604.40	1633.69
604.56	1575.18
604.71	1732.00
604.87	1802.21
605.03	1832.64
605.18	1849.02
605.34	1741.36
605.49	1811.57
