SpectraSuite Data File
++++++++++++++++++++++++++++++++++++
Date: Fri Oct 04 11:41:39 GMT-05:00 2013
User: price-jones
Dark Spectrum Present: No
Reference Spectrum Present: No
Number of Sampled Component Spectra: 1
Spectrometers: USB2+H05261
Integration Time (usec): 100000 (USB2+H05261)
Spectra Averaged: 1 (USB2+H05261)
Boxcar Smoothing: 0 (USB2+H05261)
Correct for Electrical Dark: No (USB2+H05261)
Strobe/Lamp Enabled: No (USB2+H05261)
Correct for Detector Non-linearity: No (USB2+H05261)
Correct for Stray Light: No (USB2+H05261)
Number of Pixels in Processed Spectrum: 2048
>>>>>Begin Processed Spectral Data<<<<<
365.73	74.90
365.92	74.90
366.12	74.90
366.32	0.00
366.52	0.00
366.72	0.00
366.91	0.00
367.11	0.00
367.31	0.00
367.51	0.00
367.70	0.00
367.90	0.00
368.10	0.00
368.30	0.00
368.49	0.00
368.69	0.00
368.89	0.00
369.09	0.00
369.28	0.00
369.48	14.04
369.68	0.00
369.87	0.00
370.07	7.02
370.27	42.13
370.47	77.24
370.66	14.04
370.86	53.83
371.06	37.45
371.25	86.60
371.45	84.26
371.65	121.71
371.84	44.47
372.04	70.22
372.24	119.37
372.44	84.26
372.63	63.19
372.83	81.92
373.03	91.28
373.22	138.09
373.42	149.79
373.62	84.26
373.81	100.64
374.01	135.75
374.21	65.54
374.40	86.60
374.60	133.41
374.79	110.01
374.99	44.47
375.19	159.16
375.38	117.03
375.58	88.94
375.78	112.35
375.97	133.41
376.17	112.35
376.37	117.03
376.56	81.92
376.76	117.03
376.95	114.69
377.15	159.16
377.35	126.39
377.54	131.07
377.74	110.01
377.93	107.66
378.13	149.79
378.33	91.28
378.52	91.28
378.72	156.82
378.91	124.05
379.11	58.51
379.31	149.79
379.50	56.17
379.70	149.79
379.89	187.24
380.09	39.79
380.28	79.58
380.48	163.84
380.68	110.01
380.87	51.49
381.07	142.77
381.26	142.77
381.46	121.71
381.65	138.09
381.85	84.26
382.04	187.24
382.24	107.66
382.43	182.56
382.63	117.03
382.83	112.35
383.02	86.60
383.22	147.45
383.41	74.90
383.61	166.18
383.80	107.66
384.00	79.58
384.19	117.03
384.39	56.17
384.58	72.56
384.78	142.77
384.97	93.62
385.17	81.92
385.36	70.22
385.56	140.43
385.75	74.90
385.95	88.94
386.14	159.16
386.34	128.73
386.53	128.73
386.72	53.83
386.92	173.20
387.11	154.48
387.31	133.41
387.50	79.58
387.70	121.71
387.89	105.32
388.09	93.62
388.28	100.64
388.48	88.94
388.67	147.45
388.86	110.01
389.06	105.32
389.25	126.39
389.45	9.36
389.64	46.81
389.84	196.60
390.03	112.35
390.22	98.30
390.42	74.90
390.61	81.92
390.81	93.62
391.00	93.62
391.19	210.65
391.39	128.73
391.58	128.73
391.78	149.79
391.97	91.28
392.16	114.69
392.36	154.48
392.55	65.54
392.75	121.71
392.94	142.77
393.13	39.79
393.33	142.77
393.52	203.63
393.71	187.24
393.91	72.56
394.10	95.96
394.29	72.56
394.49	102.98
394.68	128.73
394.88	67.88
395.07	110.01
395.26	131.07
395.46	142.77
395.65	114.69
395.84	168.52
396.04	189.58
396.23	156.82
396.42	175.54
396.62	100.64
396.81	72.56
397.00	135.75
397.19	154.48
397.39	156.82
397.58	166.18
397.77	93.62
397.97	84.26
398.16	142.77
398.35	133.41
398.55	70.22
398.74	107.66
398.93	107.66
399.12	100.64
399.32	205.97
399.51	168.52
399.70	128.73
399.90	191.92
400.09	100.64
400.28	166.18
400.47	117.03
400.67	72.56
400.86	84.26
401.05	159.16
401.24	149.79
401.44	138.09
401.63	159.16
401.82	128.73
402.01	140.43
402.21	98.30
402.40	163.84
402.59	88.94
402.78	67.88
402.97	117.03
403.17	126.39
403.36	131.07
403.55	145.11
403.74	86.60
403.93	194.26
404.13	189.58
404.32	217.67
404.51	222.35
404.70	220.01
404.89	77.24
405.09	112.35
405.28	138.09
405.47	58.51
405.66	107.66
405.85	173.20
406.05	131.07
406.24	86.60
406.43	159.16
406.62	93.62
406.81	133.41
407.00	156.82
407.20	154.48
407.39	180.22
407.58	138.09
407.77	124.05
407.96	170.86
408.15	114.69
408.34	128.73
408.54	86.60
408.73	124.05
408.92	128.73
409.11	168.52
409.30	117.03
409.49	107.66
409.68	100.64
409.87	126.39
410.07	84.26
410.26	138.09
410.45	161.50
410.64	100.64
410.83	140.43
411.02	121.71
411.21	145.11
411.40	107.66
411.59	107.66
411.78	156.82
411.98	110.01
412.17	128.73
412.36	145.11
412.55	131.07
412.74	147.45
412.93	154.48
413.12	156.82
413.31	154.48
413.50	121.71
413.69	131.07
413.88	114.69
414.07	128.73
414.26	93.62
414.45	86.60
414.64	135.75
414.83	166.18
415.02	184.90
415.22	119.37
415.41	187.24
415.60	86.60
415.79	102.98
415.98	102.98
416.17	39.79
416.36	98.30
416.55	177.88
416.74	170.86
416.93	32.77
417.12	145.11
417.31	173.20
417.50	241.08
417.69	173.20
417.88	187.24
418.07	135.75
418.26	81.92
418.45	39.79
418.64	140.43
418.83	102.98
419.02	163.84
419.21	191.92
419.39	91.28
419.58	166.18
419.77	105.32
419.96	152.13
420.15	145.11
420.34	72.56
420.53	191.92
420.72	110.01
420.91	290.23
421.10	135.75
421.29	149.79
421.48	168.52
421.67	163.84
421.86	70.22
422.05	98.30
422.24	166.18
422.43	110.01
422.61	102.98
422.80	191.92
422.99	133.41
423.18	117.03
423.37	194.26
423.56	271.50
423.75	220.01
423.94	81.92
424.13	131.07
424.32	145.11
424.50	215.33
424.69	166.18
424.88	189.58
425.07	131.07
425.26	154.48
425.45	168.52
425.64	74.90
425.83	194.26
426.01	170.86
426.20	147.45
426.39	147.45
426.58	105.32
426.77	70.22
426.96	215.33
427.15	114.69
427.33	203.63
427.52	198.95
427.71	175.54
427.90	203.63
428.09	168.52
428.28	177.88
428.46	117.03
428.65	245.76
428.84	212.99
429.03	159.16
429.22	149.79
429.40	187.24
429.59	119.37
429.78	184.90
429.97	91.28
430.16	77.24
430.34	121.71
430.53	107.66
430.72	79.58
430.91	135.75
431.10	119.37
431.28	173.20
431.47	168.52
431.66	124.05
431.85	140.43
432.03	117.03
432.22	196.60
432.41	231.71
432.60	194.26
432.79	161.50
432.97	224.69
433.16	168.52
433.35	161.50
433.54	163.84
433.72	227.03
433.91	168.52
434.10	168.52
434.28	210.65
434.47	203.63
434.66	217.67
434.85	215.33
435.03	283.20
435.22	645.99
435.41	1170.27
435.59	1184.31
435.78	856.64
435.97	531.30
436.16	257.46
436.34	212.99
436.53	173.20
436.72	205.97
436.90	229.37
437.09	210.65
437.28	135.75
437.46	117.03
437.65	142.77
437.84	149.79
438.02	72.56
438.21	140.43
438.40	266.82
438.58	166.18
438.77	194.26
438.96	180.22
439.14	173.20
439.33	198.95
439.52	159.16
439.70	170.86
439.89	173.20
440.08	117.03
440.26	124.05
440.45	220.01
440.63	175.54
440.82	117.03
441.01	135.75
441.19	173.20
441.38	138.09
441.57	182.56
441.75	177.88
441.94	224.69
442.12	149.79
442.31	117.03
442.50	154.48
442.68	201.29
442.87	196.60
443.05	166.18
443.24	217.67
443.43	297.25
443.61	234.05
443.80	210.65
443.98	131.07
444.17	159.16
444.35	189.58
444.54	163.84
444.73	168.52
444.91	166.18
445.10	198.95
445.28	110.01
445.47	168.52
445.65	173.20
445.84	142.77
446.02	152.13
446.21	166.18
446.39	196.60
446.58	224.69
446.77	196.60
446.95	187.24
447.14	140.43
447.32	220.01
447.51	163.84
447.69	191.92
447.88	189.58
448.06	145.11
448.25	191.92
448.43	88.94
448.62	224.69
448.80	201.29
448.99	203.63
449.17	180.22
449.36	159.16
449.54	215.33
449.73	156.82
449.91	184.90
450.10	147.45
450.28	217.67
450.46	231.71
450.65	210.65
450.83	201.29
451.02	215.33
451.20	142.77
451.39	112.35
451.57	173.20
451.76	131.07
451.94	182.56
452.13	168.52
452.31	217.67
452.49	234.05
452.68	198.95
452.86	156.82
453.05	135.75
453.23	177.88
453.42	229.37
453.60	93.62
453.78	154.48
453.97	191.92
454.15	145.11
454.34	217.67
454.52	119.37
454.70	187.24
454.89	227.03
455.07	191.92
455.26	210.65
455.44	173.20
455.62	198.95
455.81	201.29
455.99	234.05
456.17	210.65
456.36	227.03
456.54	156.82
456.73	198.95
456.91	152.13
457.09	170.86
457.28	191.92
457.46	203.63
457.64	278.52
457.83	177.88
458.01	191.92
458.19	196.60
458.38	102.98
458.56	156.82
458.74	184.90
458.93	177.88
459.11	149.79
459.29	182.56
459.48	220.01
459.66	215.33
459.84	163.84
460.03	264.48
460.21	285.55
460.39	173.20
460.57	220.01
460.76	173.20
460.94	112.35
461.12	194.26
461.31	152.13
461.49	135.75
461.67	177.88
461.85	243.42
462.04	184.90
462.22	292.57
462.40	180.22
462.59	121.71
462.77	126.39
462.95	215.33
463.13	205.97
463.32	278.52
463.50	149.79
463.68	238.73
463.86	257.46
464.05	159.16
464.23	229.37
464.41	173.20
464.59	161.50
464.78	231.71
464.96	161.50
465.14	189.58
465.32	173.20
465.50	189.58
465.69	327.68
465.87	152.13
466.05	161.50
466.23	229.37
466.41	201.29
466.60	154.48
466.78	140.43
466.96	147.45
467.14	180.22
467.32	142.77
467.51	224.69
467.69	224.69
467.87	124.05
468.05	142.77
468.23	285.55
468.41	170.86
468.60	156.82
468.78	149.79
468.96	175.54
469.14	142.77
469.32	152.13
469.50	117.03
469.69	196.60
469.87	173.20
470.05	161.50
470.23	189.58
470.41	217.67
470.59	152.13
470.77	135.75
470.95	161.50
471.14	126.39
471.32	149.79
471.50	220.01
471.68	215.33
471.86	194.26
472.04	224.69
472.22	215.33
472.40	154.48
472.58	245.76
472.77	177.88
472.95	168.52
473.13	210.65
473.31	203.63
473.49	194.26
473.67	152.13
473.85	208.31
474.03	119.37
474.21	227.03
474.39	201.29
474.57	198.95
474.75	177.88
474.93	215.33
475.12	205.97
475.30	227.03
475.48	191.92
475.66	241.08
475.84	173.20
476.02	210.65
476.20	161.50
476.38	182.56
476.56	330.02
476.74	222.35
476.92	177.88
477.10	236.39
477.28	222.35
477.46	248.10
477.64	229.37
477.82	180.22
478.00	201.29
478.18	175.54
478.36	201.29
478.54	220.01
478.72	210.65
478.90	154.48
479.08	205.97
479.26	166.18
479.44	128.73
479.62	145.11
479.80	154.48
479.98	205.97
480.16	147.45
480.34	252.78
480.52	133.41
480.70	119.37
480.88	252.78
481.06	238.73
481.24	212.99
481.41	161.50
481.59	280.86
481.77	229.37
481.95	205.97
482.13	227.03
482.31	243.42
482.49	154.48
482.67	229.37
482.85	269.16
483.03	210.65
483.21	252.78
483.39	215.33
483.57	250.44
483.74	262.14
483.92	278.52
484.10	250.44
484.28	353.42
484.46	381.51
484.64	266.82
484.82	290.23
485.00	285.55
485.18	278.52
485.35	264.48
485.53	285.55
485.71	290.23
485.89	196.60
486.07	334.70
486.25	315.97
486.43	346.40
486.61	355.76
486.78	311.29
486.96	379.17
487.14	330.02
487.32	318.31
487.50	372.15
487.68	409.59
487.85	308.95
488.03	379.17
488.21	386.19
488.39	290.23
488.57	285.55
488.75	308.95
488.92	638.97
489.10	322.99
489.28	269.16
489.46	334.70
489.64	400.23
489.81	294.91
489.99	292.57
490.17	330.02
490.35	358.10
490.53	271.50
490.70	341.72
490.88	334.70
491.06	276.18
491.24	341.72
491.41	318.31
491.59	348.74
491.77	304.27
491.95	320.65
492.13	330.02
492.30	299.59
492.48	297.25
492.66	318.31
492.84	250.44
493.01	220.01
493.19	259.80
493.37	308.95
493.54	278.52
493.72	243.42
493.90	252.78
494.08	266.82
494.25	210.65
494.43	294.91
494.61	327.68
494.79	273.84
494.96	285.55
495.14	292.57
495.32	257.46
495.49	248.10
495.67	250.44
495.85	273.84
496.02	257.46
496.20	299.59
496.38	308.95
496.55	297.25
496.73	313.63
496.91	245.76
497.09	311.29
497.26	278.52
497.44	313.63
497.62	271.50
497.79	241.08
497.97	299.59
498.14	250.44
498.32	287.89
498.50	315.97
498.67	365.12
498.85	259.80
499.03	262.14
499.20	325.33
499.38	271.50
499.56	189.58
499.73	311.29
499.91	299.59
500.08	259.80
500.26	229.37
500.44	184.90
500.61	257.46
500.79	238.73
500.97	278.52
501.14	346.40
501.32	311.29
501.49	280.86
501.67	266.82
501.84	301.93
502.02	220.01
502.20	278.52
502.37	217.67
502.55	266.82
502.72	245.76
502.90	224.69
503.07	273.84
503.25	217.67
503.43	175.54
503.60	201.29
503.78	271.50
503.95	156.82
504.13	229.37
504.30	332.36
504.48	320.65
504.65	264.48
504.83	269.16
505.01	339.38
505.18	243.42
505.36	238.73
505.53	224.69
505.71	271.50
505.88	234.05
506.06	231.71
506.23	238.73
506.41	220.01
506.58	322.99
506.76	262.14
506.93	210.65
507.11	234.05
507.28	245.76
507.46	250.44
507.63	224.69
507.81	196.60
507.98	196.60
508.16	287.89
508.33	280.86
508.50	243.42
508.68	374.49
508.85	304.27
509.03	290.23
509.20	212.99
509.38	299.59
509.55	224.69
509.73	264.48
509.90	238.73
510.08	266.82
510.25	280.86
510.42	217.67
510.60	205.97
510.77	227.03
510.95	287.89
511.12	201.29
511.30	166.18
511.47	266.82
511.64	318.31
511.82	311.29
511.99	252.78
512.17	205.97
512.34	257.46
512.51	222.35
512.69	301.93
512.86	292.57
513.04	315.97
513.21	306.61
513.38	166.18
513.56	271.50
513.73	285.55
513.90	238.73
514.08	308.95
514.25	252.78
514.43	290.23
514.60	290.23
514.77	243.42
514.95	297.25
515.12	290.23
515.29	257.46
515.47	301.93
515.64	210.65
515.81	264.48
515.99	308.95
516.16	156.82
516.33	248.10
516.51	241.08
516.68	236.39
516.85	252.78
517.03	266.82
517.20	191.92
517.37	241.08
517.54	217.67
517.72	191.92
517.89	220.01
518.06	245.76
518.24	292.57
518.41	290.23
518.58	264.48
518.75	177.88
518.93	224.69
519.10	262.14
519.27	184.90
519.45	257.46
519.62	234.05
519.79	257.46
519.96	236.39
520.14	304.27
520.31	306.61
520.48	250.44
520.65	222.35
520.83	243.42
521.00	243.42
521.17	285.55
521.34	208.31
521.52	264.48
521.69	227.03
521.86	322.99
522.03	301.93
522.20	285.55
522.38	241.08
522.55	180.22
522.72	266.82
522.89	262.14
523.07	290.23
523.24	290.23
523.41	236.39
523.58	294.91
523.75	259.80
523.92	285.55
524.10	241.08
524.27	311.29
524.44	264.48
524.61	332.36
524.78	287.89
524.96	250.44
525.13	217.67
525.30	304.27
525.47	264.48
525.64	177.88
525.81	252.78
525.98	297.25
526.16	217.67
526.33	252.78
526.50	255.12
526.67	262.14
526.84	238.73
527.01	245.76
527.18	285.55
527.36	311.29
527.53	194.26
527.70	301.93
527.87	231.71
528.04	276.18
528.21	227.03
528.38	292.57
528.55	259.80
528.72	376.83
528.89	280.86
529.07	234.05
529.24	280.86
529.41	292.57
529.58	241.08
529.75	294.91
529.92	299.59
530.09	252.78
530.26	285.55
530.43	210.65
530.60	259.80
530.77	306.61
530.94	283.20
531.11	318.31
531.28	264.48
531.46	278.52
531.63	301.93
531.80	252.78
531.97	241.08
532.14	292.57
532.31	224.69
532.48	290.23
532.65	332.36
532.82	208.31
532.99	297.25
533.16	337.04
533.33	327.68
533.50	245.76
533.67	304.27
533.84	397.89
534.01	191.92
534.18	266.82
534.35	299.59
534.52	236.39
534.69	416.62
534.86	269.16
535.03	341.72
535.20	271.50
535.37	330.02
535.54	301.93
535.71	227.03
535.88	243.42
536.05	327.68
536.22	280.86
536.38	287.89
536.55	308.95
536.72	369.80
536.89	369.80
537.06	351.08
537.23	327.68
537.40	386.19
537.57	320.65
537.74	456.40
537.91	433.00
538.08	447.04
538.25	447.04
538.42	418.96
538.59	388.53
538.75	430.66
538.92	409.59
539.09	552.37
539.26	491.51
539.43	568.75
539.60	545.34
539.77	667.05
539.94	594.50
540.11	603.86
540.28	760.67
540.44	795.78
540.61	854.30
540.78	858.98
540.95	1020.47
541.12	1256.87
541.29	1245.16
541.46	1371.55
541.62	1341.13
541.79	1350.49
541.96	1359.85
542.13	1118.78
542.30	1219.42
542.47	1224.10
542.63	1188.99
542.80	1163.25
542.97	1081.33
543.14	1057.92
543.31	1149.20
543.48	1179.63
543.64	1181.97
543.81	1107.07
543.98	1109.41
544.15	1043.88
544.32	1018.13
544.48	1057.92
544.65	1088.35
544.82	1041.54
544.99	1006.43
545.16	1055.58
545.32	1125.80
545.49	1647.74
545.66	2668.21
545.83	3185.47
546.00	2825.03
546.16	1926.26
546.33	1547.09
546.50	1135.16
546.67	1006.43
546.83	915.15
547.00	940.90
547.17	741.95
547.34	784.08
547.50	819.19
547.67	842.59
547.84	716.20
548.00	786.42
548.17	683.44
548.34	709.18
548.51	755.99
548.67	706.84
548.84	767.70
549.01	620.24
549.18	571.09
549.34	615.56
549.51	608.54
549.68	751.31
549.84	585.13
550.01	545.34
550.18	664.71
550.34	496.19
550.51	475.13
550.68	486.83
550.84	545.34
551.01	472.79
551.18	484.49
551.34	458.74
551.51	454.06
551.68	393.21
551.84	468.11
552.01	416.62
552.18	442.36
552.34	458.74
552.51	362.78
552.68	456.40
552.84	397.89
553.01	383.85
553.18	407.25
553.34	383.85
553.51	325.33
553.67	341.72
553.84	393.21
554.01	358.10
554.17	358.10
554.34	285.55
554.51	334.70
554.67	308.95
554.84	313.63
555.00	327.68
555.17	330.02
555.33	395.55
555.50	285.55
555.67	294.91
555.83	283.20
556.00	334.70
556.16	381.51
556.33	205.97
556.50	341.72
556.66	285.55
556.83	283.20
556.99	304.27
557.16	290.23
557.32	203.63
557.49	264.48
557.65	306.61
557.82	311.29
557.98	227.03
558.15	238.73
558.32	255.12
558.48	320.65
558.65	287.89
558.81	294.91
558.98	191.92
559.14	273.84
559.31	301.93
559.47	287.89
559.64	290.23
559.80	227.03
559.97	262.14
560.13	283.20
560.30	262.14
560.46	332.36
560.63	287.89
560.79	231.71
560.96	259.80
561.12	301.93
561.29	285.55
561.45	297.25
561.61	257.46
561.78	416.62
561.94	283.20
562.11	278.52
562.27	257.46
562.44	231.71
562.60	276.18
562.77	234.05
562.93	353.42
563.10	271.50
563.26	205.97
563.42	262.14
563.59	283.20
563.75	159.16
563.92	337.04
564.08	229.37
564.24	269.16
564.41	337.04
564.57	208.31
564.74	241.08
564.90	294.91
565.07	245.76
565.23	313.63
565.39	269.16
565.56	320.65
565.72	271.50
565.88	220.01
566.05	287.89
566.21	280.86
566.38	212.99
566.54	283.20
566.70	264.48
566.87	313.63
567.03	269.16
567.19	217.67
567.36	252.78
567.52	229.37
567.68	217.67
567.85	262.14
568.01	198.95
568.17	189.58
568.34	217.67
568.50	248.10
568.66	215.33
568.83	292.57
568.99	241.08
569.15	266.82
569.32	292.57
569.48	269.16
569.64	135.75
569.81	269.16
569.97	271.50
570.13	238.73
570.30	276.18
570.46	187.24
570.62	292.57
570.78	332.36
570.95	194.26
571.11	276.18
571.27	257.46
571.43	252.78
571.60	313.63
571.76	290.23
571.92	257.46
572.09	220.01
572.25	220.01
572.41	227.03
572.57	217.67
572.74	306.61
572.90	243.42
573.06	269.16
573.22	224.69
573.38	299.59
573.55	222.35
573.71	245.76
573.87	238.73
574.03	231.71
574.20	266.82
574.36	264.48
574.52	236.39
574.68	236.39
574.84	248.10
575.01	264.48
575.17	294.91
575.33	212.99
575.49	318.31
575.65	315.97
575.82	320.65
575.98	334.70
576.14	283.20
576.30	346.40
576.46	524.28
576.62	706.84
576.79	711.52
576.95	585.13
577.11	400.23
577.27	397.89
577.43	428.32
577.59	299.59
577.75	304.27
577.92	201.29
578.08	269.16
578.24	283.20
578.40	383.85
578.56	610.88
578.72	723.23
578.88	753.65
579.04	671.73
579.21	528.96
579.37	437.68
579.53	383.85
579.69	348.74
579.85	430.66
580.01	521.94
580.17	414.27
580.33	411.93
580.49	243.42
580.65	428.32
580.82	409.59
580.98	301.93
581.14	264.48
581.30	372.15
581.46	325.33
581.62	388.53
581.78	454.06
581.94	353.42
582.10	428.32
582.26	449.38
582.42	390.87
582.58	351.08
582.74	463.43
582.90	484.49
583.06	489.17
583.22	456.40
583.38	491.51
583.54	390.87
583.70	510.24
583.86	479.81
584.02	353.42
584.18	510.24
584.34	341.72
584.50	498.53
584.66	479.81
584.82	411.93
584.98	390.87
585.14	493.85
585.30	447.04
585.46	395.55
585.62	440.02
585.78	435.34
585.94	327.68
586.10	430.66
586.26	430.66
586.42	400.23
586.58	437.68
586.74	543.00
586.90	613.22
587.06	645.99
587.22	613.22
587.38	585.13
587.54	573.43
587.70	510.24
587.86	418.96
588.02	395.55
588.18	402.57
588.34	367.46
588.49	339.38
588.65	365.12
588.81	365.12
588.97	255.12
589.13	341.72
589.29	365.12
589.45	355.76
589.61	308.95
589.77	304.27
589.93	325.33
590.08	320.65
590.24	344.06
590.40	334.70
590.56	280.86
590.72	346.40
590.88	304.27
591.04	337.04
591.20	346.40
591.35	404.91
591.51	271.50
591.67	294.91
591.83	409.59
591.99	414.27
592.15	379.17
592.31	475.13
592.46	479.81
592.62	547.69
592.78	475.13
592.94	479.81
593.10	531.30
593.26	475.13
593.41	451.72
593.57	472.79
593.73	409.59
593.89	463.43
594.05	351.08
594.20	397.89
594.36	362.78
594.52	318.31
594.68	318.31
594.84	252.78
594.99	341.72
595.15	287.89
595.31	262.14
595.47	325.33
595.62	318.31
595.78	306.61
595.94	344.06
596.10	315.97
596.25	367.46
596.41	346.40
596.57	292.57
596.73	355.76
596.88	278.52
597.04	245.76
597.20	250.44
597.36	290.23
597.51	287.89
597.67	266.82
597.83	283.20
597.99	355.76
598.14	372.15
598.30	369.80
598.46	355.76
598.61	339.38
598.77	393.21
598.93	388.53
599.09	388.53
599.24	430.66
599.40	376.83
599.56	353.42
599.71	374.49
599.87	479.81
600.03	330.02
600.18	369.80
600.34	339.38
600.50	304.27
600.65	301.93
600.81	337.04
600.97	264.48
601.12	297.25
601.28	322.99
601.44	241.08
601.59	294.91
601.75	262.14
601.91	259.80
602.06	299.59
602.22	315.97
602.37	355.76
602.53	248.10
602.69	290.23
602.84	205.97
603.00	280.86
603.16	280.86
603.31	252.78
603.47	292.57
603.62	217.67
603.78	262.14
603.94	245.76
604.09	262.14
604.25	238.73
604.40	285.55
604.56	311.29
604.71	255.12
604.87	245.76
605.03	320.65
605.18	280.86
605.34	325.33
605.49	273.84
605.65	290.23
605.80	250.44
605.96	358.10
606.12	297.25
606.27	301.93
606.43	285.55
606.58	374.49
606.74	271.50
606.89	327.68
607.05	404.91
607.20	365.12
607.36	264.48
607.51	381.51
607.67	301.93
607.82	397.89
607.98	407.25
608.13	383.85
608.29	381.51
608.44	411.93
608.60	505.56
608.75	540.66
608.91	484.49
609.06	533.64
609.22	617.90
609.37	603.86
609.53	641.31
609.68	695.14
609.84	805.14
609.99	870.68
610.15	1046.22
610.30	1212.40
610.46	1544.75
610.61	1895.83
610.76	2251.60
610.92	2621.40
611.07	2960.78
