SpectraSuite Data File
++++++++++++++++++++++++++++++++++++
Date: Fri Oct 04 11:42:13 GMT-05:00 2013
User: price-jones
Dark Spectrum Present: No
Reference Spectrum Present: No
Number of Sampled Component Spectra: 1
Spectrometers: USB2+H05261
Integration Time (usec): 100000 (USB2+H05261)
Spectra Averaged: 1 (USB2+H05261)
Boxcar Smoothing: 0 (USB2+H05261)
Correct for Electrical Dark: No (USB2+H05261)
Strobe/Lamp Enabled: No (USB2+H05261)
Correct for Detector Non-linearity: No (USB2+H05261)
Correct for Stray Light: No (USB2+H05261)
Number of Pixels in Processed Spectrum: 2048
>>>>>Begin Processed Spectral Data<<<<<
365.73	95.96
365.92	95.96
366.12	95.96
366.32	0.00
366.52	0.00
366.72	0.00
366.91	0.00
367.11	0.00
367.31	0.00
367.51	0.00
367.70	0.00
367.90	0.00
368.10	0.00
368.30	0.00
368.49	0.00
368.69	0.00
368.89	0.00
369.09	0.00
369.28	0.00
369.48	0.00
369.68	0.00
369.87	46.81
370.07	0.00
370.27	42.13
370.47	0.00
370.66	0.00
370.86	60.85
371.06	100.64
371.25	145.11
371.45	18.72
371.65	56.17
371.84	138.09
372.04	9.36
372.24	84.26
372.44	72.56
372.63	126.39
372.83	121.71
373.03	159.16
373.22	105.32
373.42	110.01
373.62	135.75
373.81	86.60
374.01	126.39
374.21	135.75
374.40	79.58
374.60	140.43
374.79	149.79
374.99	133.41
375.19	166.18
375.38	177.88
375.58	91.28
375.78	184.90
375.97	180.22
376.17	131.07
376.37	74.90
376.56	107.66
376.76	121.71
376.95	79.58
377.15	128.73
377.35	145.11
377.54	168.52
377.74	84.26
377.93	149.79
378.13	163.84
378.33	119.37
378.52	117.03
378.72	128.73
378.91	112.35
379.11	86.60
379.31	93.62
379.50	95.96
379.70	121.71
379.89	182.56
380.09	102.98
380.28	112.35
380.48	154.48
380.68	241.08
380.87	70.22
381.07	102.98
381.26	231.71
381.46	131.07
381.65	147.45
381.85	114.69
382.04	117.03
382.24	166.18
382.43	39.79
382.63	117.03
382.83	91.28
383.02	95.96
383.22	98.30
383.41	173.20
383.61	37.45
383.80	67.88
384.00	180.22
384.19	126.39
384.39	173.20
384.58	159.16
384.78	114.69
384.97	154.48
385.17	100.64
385.36	156.82
385.56	135.75
385.75	145.11
385.95	91.28
386.14	187.24
386.34	9.36
386.53	119.37
386.72	133.41
386.92	201.29
387.11	72.56
387.31	133.41
387.50	79.58
387.70	86.60
387.89	84.26
388.09	63.19
388.28	170.86
388.48	81.92
388.67	86.60
388.86	166.18
389.06	163.84
389.25	140.43
389.45	112.35
389.64	95.96
389.84	177.88
390.03	105.32
390.22	152.13
390.42	102.98
390.61	124.05
390.81	112.35
391.00	53.83
391.19	145.11
391.39	98.30
391.58	112.35
391.78	149.79
391.97	121.71
392.16	32.77
392.36	112.35
392.55	114.69
392.75	81.92
392.94	100.64
393.13	128.73
393.33	145.11
393.52	117.03
393.71	159.16
393.91	56.17
394.10	93.62
394.29	184.90
394.49	98.30
394.68	161.50
394.88	163.84
395.07	220.01
395.26	135.75
395.46	93.62
395.65	189.58
395.84	121.71
396.04	175.54
396.23	135.75
396.42	86.60
396.62	135.75
396.81	133.41
397.00	128.73
397.19	128.73
397.39	135.75
397.58	140.43
397.77	191.92
397.97	152.13
398.16	138.09
398.35	145.11
398.55	84.26
398.74	107.66
398.93	32.77
399.12	105.32
399.32	135.75
399.51	117.03
399.70	191.92
399.90	67.88
400.09	67.88
400.28	147.45
400.47	93.62
400.67	196.60
400.86	147.45
401.05	163.84
401.24	154.48
401.44	117.03
401.63	100.64
401.82	215.33
402.01	147.45
402.21	145.11
402.40	152.13
402.59	126.39
402.78	196.60
402.97	88.94
403.17	84.26
403.36	227.03
403.55	234.05
403.74	519.60
403.93	1390.28
404.13	3251.00
404.32	3810.39
404.51	3108.23
404.70	1811.57
404.89	653.01
405.09	313.63
405.28	203.63
405.47	243.42
405.66	154.48
405.85	187.24
406.05	145.11
406.24	145.11
406.43	227.03
406.62	243.42
406.81	308.95
407.00	351.08
407.20	409.59
407.39	606.20
407.58	575.77
407.77	301.93
407.96	283.20
408.15	121.71
408.34	159.16
408.54	145.11
408.73	170.86
408.92	114.69
409.11	166.18
409.30	215.33
409.49	140.43
409.68	201.29
409.87	170.86
410.07	49.15
410.26	131.07
410.45	152.13
410.64	163.84
410.83	220.01
411.02	128.73
411.21	182.56
411.40	227.03
411.59	156.82
411.78	149.79
411.98	182.56
412.17	159.16
412.36	180.22
412.55	163.84
412.74	196.60
412.93	252.78
413.12	236.39
413.31	252.78
413.50	189.58
413.69	163.84
413.88	131.07
414.07	170.86
414.26	177.88
414.45	173.20
414.64	189.58
414.83	227.03
415.02	212.99
415.22	81.92
415.41	177.88
415.60	135.75
415.79	215.33
415.98	224.69
416.17	215.33
416.36	114.69
416.55	215.33
416.74	191.92
416.93	142.77
417.12	159.16
417.31	149.79
417.50	175.54
417.69	248.10
417.88	201.29
418.07	189.58
418.26	173.20
418.45	194.26
418.64	215.33
418.83	252.78
419.02	175.54
419.21	191.92
419.39	126.39
419.58	191.92
419.77	184.90
419.96	290.23
420.15	231.71
420.34	180.22
420.53	210.65
420.72	217.67
420.91	252.78
421.10	159.16
421.29	166.18
421.48	255.12
421.67	255.12
421.86	280.86
422.05	128.73
422.24	182.56
422.43	189.58
422.61	194.26
422.80	236.39
422.99	147.45
423.18	196.60
423.37	236.39
423.56	252.78
423.75	234.05
423.94	182.56
424.13	217.67
424.32	227.03
424.50	145.11
424.69	203.63
424.88	313.63
425.07	177.88
425.26	142.77
425.45	180.22
425.64	271.50
425.83	255.12
426.01	313.63
426.20	301.93
426.39	182.56
426.58	269.16
426.77	241.08
426.96	271.50
427.15	271.50
427.33	243.42
427.52	297.25
427.71	189.58
427.90	301.93
428.09	243.42
428.28	231.71
428.46	257.46
428.65	306.61
428.84	252.78
429.03	330.02
429.22	344.06
429.40	173.20
429.59	313.63
429.78	322.99
429.97	250.44
430.16	255.12
430.34	212.99
430.53	292.57
430.72	271.50
430.91	243.42
431.10	287.89
431.28	264.48
431.47	278.52
431.66	332.36
431.85	252.78
432.03	308.95
432.22	306.61
432.41	322.99
432.60	376.83
432.79	332.36
432.97	271.50
433.16	287.89
433.35	259.80
433.54	397.89
433.72	383.85
433.91	433.00
434.10	496.19
434.28	540.66
434.47	575.77
434.66	622.58
434.85	844.93
435.03	2347.56
435.22	8601.47
435.41	16753.55
435.59	15419.45
435.78	9966.00
435.97	4973.64
436.16	1907.54
436.34	648.33
436.53	461.09
436.72	386.19
436.90	425.98
437.09	327.68
437.28	353.42
437.46	297.25
437.65	322.99
437.84	322.99
438.02	360.44
438.21	280.86
438.40	337.04
438.58	320.65
438.77	297.25
438.96	337.04
439.14	285.55
439.33	306.61
439.52	351.08
439.70	337.04
439.89	322.99
440.08	334.70
440.26	367.46
440.45	344.06
440.63	320.65
440.82	330.02
441.01	400.23
441.19	285.55
441.38	276.18
441.57	285.55
441.75	294.91
441.94	372.15
442.12	362.78
442.31	360.44
442.50	325.33
442.68	299.59
442.87	287.89
443.05	283.20
443.24	353.42
443.43	299.59
443.61	297.25
443.80	355.76
443.98	327.68
444.17	285.55
444.35	355.76
444.54	318.31
444.73	306.61
444.91	341.72
445.10	353.42
445.28	351.08
445.47	285.55
445.65	367.46
445.84	339.38
446.02	269.16
446.21	285.55
446.39	301.93
446.58	325.33
446.77	348.74
446.95	315.97
447.14	325.33
447.32	341.72
447.51	280.86
447.69	278.52
447.88	306.61
448.06	311.29
448.25	292.57
448.43	255.12
448.62	280.86
448.80	339.38
448.99	285.55
449.17	285.55
449.36	369.80
449.54	334.70
449.73	283.20
449.91	285.55
450.10	287.89
450.28	376.83
450.46	362.78
450.65	299.59
450.83	285.55
451.02	351.08
451.20	327.68
451.39	362.78
451.57	280.86
451.76	278.52
451.94	351.08
452.13	297.25
452.31	318.31
452.49	299.59
452.68	243.42
452.86	292.57
453.05	325.33
453.23	306.61
453.42	320.65
453.60	308.95
453.78	299.59
453.97	227.03
454.15	269.16
454.34	278.52
454.52	292.57
454.70	306.61
454.89	243.42
455.07	276.18
455.26	320.65
455.44	351.08
455.62	278.52
455.81	351.08
455.99	308.95
456.17	259.80
456.36	332.36
456.54	304.27
456.73	262.14
456.91	283.20
457.09	308.95
457.28	369.80
457.46	280.86
457.64	334.70
457.83	308.95
458.01	313.63
458.19	365.12
458.38	315.97
458.56	362.78
458.74	301.93
458.93	278.52
459.11	337.04
459.29	325.33
459.48	341.72
459.66	353.42
459.84	365.12
460.03	381.51
460.21	325.33
460.39	348.74
460.57	315.97
460.76	280.86
460.94	304.27
461.12	390.87
461.31	358.10
461.49	369.80
461.67	234.05
461.85	325.33
462.04	227.03
462.22	500.87
462.40	290.23
462.59	325.33
462.77	315.97
462.95	365.12
463.13	322.99
463.32	311.29
463.50	292.57
463.68	276.18
463.86	299.59
464.05	299.59
464.23	308.95
464.41	311.29
464.59	313.63
464.78	276.18
464.96	271.50
465.14	259.80
465.32	353.42
465.50	322.99
465.69	332.36
465.87	252.78
466.05	325.33
466.23	334.70
466.41	362.78
466.60	339.38
466.78	367.46
466.96	283.20
467.14	362.78
467.32	334.70
467.51	353.42
467.69	264.48
467.87	311.29
468.05	287.89
468.23	292.57
468.41	248.10
468.60	243.42
468.78	280.86
468.96	369.80
469.14	301.93
469.32	231.71
469.50	346.40
469.69	348.74
469.87	257.46
470.05	290.23
470.23	245.76
470.41	276.18
470.59	257.46
470.77	332.36
470.95	222.35
471.14	341.72
471.32	318.31
471.50	280.86
471.68	301.93
471.86	369.80
472.04	259.80
472.22	278.52
472.40	278.52
472.58	264.48
472.77	283.20
472.95	285.55
473.13	299.59
473.31	346.40
473.49	278.52
473.67	278.52
473.85	255.12
474.03	355.76
474.21	224.69
474.39	294.91
474.57	360.44
474.75	290.23
474.93	344.06
475.12	271.50
475.30	301.93
475.48	320.65
475.66	262.14
475.84	224.69
476.02	273.84
476.20	276.18
476.38	327.68
476.56	327.68
476.74	262.14
476.92	266.82
477.10	297.25
477.28	320.65
477.46	390.87
477.64	362.78
477.82	285.55
478.00	306.61
478.18	294.91
478.36	301.93
478.54	308.95
478.72	362.78
478.90	409.59
479.08	362.78
479.26	339.38
479.44	365.12
479.62	362.78
479.80	393.21
479.98	376.83
480.16	433.00
480.34	379.17
480.52	367.46
480.70	454.06
480.88	421.30
481.06	451.72
481.24	491.51
481.41	599.18
481.59	566.41
481.77	582.79
481.95	521.94
482.13	596.84
482.31	678.76
482.49	650.67
482.67	732.59
482.85	751.31
483.03	763.01
483.21	856.64
483.39	784.08
483.57	840.25
483.74	1025.15
483.92	971.32
484.10	983.02
484.28	1130.48
484.46	1277.93
484.64	1214.74
484.82	1163.25
485.00	1324.74
485.18	1404.32
485.35	1439.43
485.53	1479.22
485.71	1554.12
485.89	1652.42
486.07	1661.78
486.25	1689.87
486.43	1734.34
486.61	1799.87
486.78	1809.23
486.96	1600.93
487.14	1671.14
487.32	1626.67
487.50	1621.99
487.68	1614.97
487.85	1638.38
488.03	1558.80
488.21	1612.63
488.39	1516.67
488.57	1439.43
488.75	1533.05
488.92	1720.29
489.10	1376.24
489.28	1430.07
489.46	1315.38
489.64	1329.42
489.81	1387.94
489.99	1336.45
490.17	1322.40
490.35	1324.74
490.53	1254.53
490.70	1345.81
490.88	1401.98
491.06	1383.26
491.24	1348.15
491.41	1584.54
491.59	1446.45
491.77	1270.91
491.95	1280.27
492.13	1263.89
492.30	1149.20
492.48	1256.87
492.66	1151.54
492.84	1153.88
493.01	1158.57
493.19	1067.28
493.37	1214.74
493.54	1076.65
493.72	1151.54
493.90	1102.39
494.08	992.39
494.25	1116.44
494.43	1132.82
494.61	971.32
494.79	957.28
494.96	971.32
495.14	997.07
495.32	947.92
495.49	929.19
495.67	990.05
495.85	910.47
496.02	903.45
496.20	882.38
496.38	912.81
496.55	828.55
496.73	847.27
496.91	814.51
497.09	795.78
497.26	795.78
497.44	781.74
497.62	777.06
497.79	805.14
497.97	716.20
498.14	777.06
498.32	840.25
498.50	692.80
498.67	784.08
498.85	692.80
499.03	674.07
499.20	767.70
499.38	664.71
499.56	690.46
499.73	711.52
499.91	744.29
500.08	610.88
500.26	653.01
500.44	526.62
500.61	489.17
500.79	552.37
500.97	617.90
501.14	650.67
501.32	507.90
501.49	526.62
501.67	442.36
501.84	547.69
502.02	496.19
502.20	543.00
502.37	512.58
502.55	486.83
502.72	498.53
502.90	514.92
503.07	390.87
503.25	454.06
503.43	409.59
503.60	498.53
503.78	381.51
503.95	395.55
504.13	383.85
504.30	442.36
504.48	428.32
504.65	500.87
504.83	472.79
505.01	486.83
505.18	470.45
505.36	346.40
505.53	388.53
505.71	374.49
505.88	402.57
506.06	341.72
506.23	339.38
506.41	320.65
506.58	304.27
506.76	308.95
506.93	353.42
507.11	355.76
507.28	327.68
507.46	379.17
507.63	353.42
507.81	346.40
507.98	360.44
508.16	374.49
508.33	376.83
508.50	428.32
508.68	341.72
508.85	346.40
509.03	379.17
509.20	327.68
509.38	393.21
509.55	383.85
509.73	320.65
509.90	330.02
510.08	325.33
510.25	320.65
510.42	388.53
510.60	290.23
510.77	404.91
510.95	341.72
511.12	325.33
511.30	365.12
511.47	280.86
511.64	360.44
511.82	290.23
511.99	365.12
512.17	346.40
512.34	306.61
512.51	308.95
512.69	304.27
512.86	339.38
513.04	334.70
513.21	299.59
513.38	360.44
513.56	311.29
513.73	301.93
513.90	308.95
514.08	390.87
514.25	376.83
514.43	348.74
514.60	367.46
514.77	308.95
514.95	383.85
515.12	381.51
515.29	280.86
515.47	344.06
515.64	341.72
515.81	348.74
515.99	383.85
516.16	379.17
516.33	315.97
516.51	313.63
516.68	243.42
516.85	330.02
517.03	337.04
517.20	320.65
517.37	290.23
517.54	294.91
517.72	360.44
517.89	203.63
518.06	264.48
518.24	390.87
518.41	409.59
518.58	313.63
518.75	250.44
518.93	271.50
519.10	308.95
519.27	294.91
519.45	327.68
519.62	332.36
519.79	285.55
519.96	297.25
520.14	374.49
520.31	344.06
520.48	337.04
520.65	191.92
520.83	297.25
521.00	330.02
521.17	292.57
521.34	315.97
521.52	313.63
521.69	348.74
521.86	397.89
522.03	311.29
522.20	320.65
522.38	245.76
522.55	330.02
522.72	327.68
522.89	311.29
523.07	318.31
523.24	264.48
523.41	250.44
523.58	271.50
523.75	315.97
523.92	273.84
524.10	341.72
524.27	250.44
524.44	301.93
524.61	367.46
524.78	308.95
524.96	292.57
525.13	341.72
525.30	283.20
525.47	327.68
525.64	318.31
525.81	334.70
525.98	351.08
526.16	339.38
526.33	358.10
526.50	327.68
526.67	283.20
526.84	301.93
527.01	304.27
527.18	315.97
527.36	379.17
527.53	404.91
527.70	360.44
527.87	311.29
528.04	341.72
528.21	351.08
528.38	400.23
528.55	334.70
528.72	411.93
528.89	379.17
529.07	353.42
529.24	365.12
529.41	355.76
529.58	362.78
529.75	411.93
529.92	339.38
530.09	496.19
530.26	456.40
530.43	425.98
530.60	339.38
530.77	421.30
530.94	479.81
531.11	411.93
531.28	477.47
531.46	425.98
531.63	458.74
531.80	472.79
531.97	479.81
532.14	479.81
532.31	615.56
532.48	744.29
532.65	704.50
532.82	784.08
532.99	882.38
533.16	1078.99
533.33	1060.26
533.50	905.79
533.67	959.62
533.84	758.33
534.01	688.12
534.18	655.35
534.35	678.76
534.52	772.38
534.69	622.58
534.86	816.85
535.03	772.38
535.20	770.04
535.37	889.40
535.54	854.30
535.71	964.30
535.88	978.34
536.05	973.66
536.22	959.62
536.38	992.39
536.55	1200.69
536.72	1310.70
536.89	1383.26
537.06	1453.47
537.23	1717.95
537.40	1809.23
537.57	1928.60
537.74	2092.44
537.91	2246.91
538.08	2150.95
538.25	2183.72
538.42	2174.36
538.59	2333.51
538.75	2314.79
538.92	2492.67
539.09	2775.88
539.26	2977.16
539.43	3475.70
539.60	3815.07
539.77	4255.09
539.94	4641.28
540.11	5085.98
540.28	5607.92
540.44	6106.46
540.61	6729.04
540.78	7634.83
540.95	9345.76
541.12	11407.77
541.29	12374.41
541.46	12727.83
541.62	12322.92
541.79	12046.74
541.96	11147.97
542.13	10389.64
542.30	9966.00
542.47	9345.76
542.63	8784.03
542.80	8566.36
542.97	8475.08
543.14	8397.84
543.31	8318.26
543.48	8358.05
543.64	8489.12
543.81	8482.10
543.98	8688.07
544.15	8650.62
544.32	8674.03
544.48	8571.04
544.65	8437.63
544.82	8493.80
544.99	8454.02
545.16	8788.71
545.32	9423.00
545.49	17486.14
545.66	30761.66
545.83	35201.66
546.00	28510.07
546.16	19293.04
546.33	14237.48
546.50	10590.92
546.67	8652.96
546.83	7698.02
547.00	7321.20
547.17	6979.48
547.34	6693.93
547.50	6424.77
547.67	6319.45
547.84	6022.20
548.00	5926.24
548.17	5556.43
548.34	5420.68
548.51	5322.38
548.67	4954.91
548.84	4791.08
549.01	4610.86
549.18	4320.63
549.34	4053.81
549.51	4021.04
549.68	3941.46
549.84	3595.06
550.01	3585.70
550.18	3524.85
550.34	3220.58
550.51	3166.74
550.68	3068.44
550.84	2775.88
551.01	2675.23
551.18	2492.67
551.34	2403.73
551.51	2363.94
551.68	2349.90
551.84	2221.17
552.01	2155.63
552.18	1975.41
552.34	1846.68
552.51	1928.60
552.68	1813.92
552.84	1802.21
553.01	1722.63
553.18	1687.53
553.34	1577.52
553.51	1488.58
553.67	1547.09
553.84	1446.45
554.01	1472.20
554.17	1373.89
554.34	1366.87
554.51	1214.74
554.67	1132.82
554.84	1001.75
555.00	943.24
555.17	999.41
555.33	931.53
555.50	905.79
555.67	868.34
555.83	884.72
556.00	861.32
556.16	866.00
556.33	744.29
556.50	777.06
556.66	674.07
556.83	645.99
556.99	645.99
557.16	713.86
557.32	650.67
557.49	667.05
557.65	528.96
557.82	573.43
557.98	624.92
558.15	601.52
558.32	606.20
558.48	493.85
558.65	578.11
558.81	550.03
558.98	538.32
559.14	566.41
559.31	517.26
559.47	540.66
559.64	470.45
559.80	550.03
559.97	514.92
560.13	486.83
560.30	484.49
560.46	528.96
560.63	491.51
560.79	566.41
560.96	510.24
561.12	463.43
561.29	526.62
561.45	489.17
561.61	500.87
561.78	645.99
561.94	538.32
562.11	479.81
562.27	526.62
562.44	486.83
562.60	496.19
562.77	425.98
562.93	552.37
563.10	538.32
563.26	465.77
563.42	528.96
563.59	430.66
563.75	388.53
563.92	449.38
564.08	346.40
564.24	521.94
564.41	465.77
564.57	393.21
564.74	402.57
564.90	395.55
565.07	449.38
565.23	374.49
565.39	416.62
565.56	423.64
565.72	425.98
565.88	456.40
566.05	444.70
566.21	367.46
566.38	444.70
566.54	461.09
566.70	411.93
566.87	409.59
567.03	414.27
567.19	437.68
567.36	388.53
567.52	440.02
567.68	433.00
567.85	470.45
568.01	341.72
568.17	451.72
568.34	386.19
568.50	407.25
568.66	360.44
568.83	524.28
568.99	404.91
569.15	461.09
569.32	390.87
569.48	379.17
569.64	397.89
569.81	388.53
569.97	334.70
570.13	379.17
570.30	344.06
570.46	346.40
570.62	388.53
570.78	301.93
570.95	365.12
571.11	330.02
571.27	397.89
571.43	327.68
571.60	292.57
571.76	386.19
571.92	383.85
572.09	353.42
572.25	372.15
572.41	299.59
572.57	388.53
572.74	344.06
572.90	301.93
573.06	386.19
573.22	372.15
573.38	315.97
573.55	379.17
573.71	372.15
573.87	374.49
574.03	379.17
574.20	386.19
574.36	489.17
574.52	437.68
574.68	358.10
574.84	475.13
575.01	440.02
575.17	414.27
575.33	449.38
575.49	521.94
575.65	503.22
575.82	582.79
575.98	582.79
576.14	589.82
576.30	1324.74
576.46	3648.90
576.62	5210.03
576.79	5832.62
576.95	4201.26
577.11	2775.88
577.27	2026.90
577.43	1387.94
577.59	1013.45
577.75	800.46
577.92	774.72
578.08	681.10
578.24	821.53
578.40	1352.83
578.56	3709.75
578.72	5341.10
578.88	5268.55
579.04	3815.07
579.21	2663.53
579.37	2134.57
579.53	1640.72
579.69	1748.38
579.85	2134.57
580.01	2272.66
580.17	2108.82
580.33	1767.10
580.49	1673.48
580.65	1563.48
580.82	1446.45
580.98	1306.02
581.14	1287.29
581.30	1444.11
581.46	1493.26
581.62	1631.35
581.78	1867.75
581.94	1867.75
582.10	1970.73
582.26	2108.82
582.42	2101.80
582.58	2216.49
582.74	2235.21
582.90	2188.40
583.06	2310.11
583.22	2305.43
583.38	2265.64
583.54	2204.78
583.70	2071.37
583.86	2256.28
584.02	2043.29
584.18	2195.42
584.34	2200.10
584.50	2118.18
584.66	1966.05
584.82	2015.20
584.98	1994.14
585.14	1909.88
585.30	1837.32
585.46	1886.47
585.62	1832.64
585.78	1923.92
585.94	1907.54
586.10	1933.28
586.26	2022.22
586.42	2422.45
586.58	2843.75
586.74	3344.63
586.90	3885.29
587.06	3974.23
587.22	4011.68
587.38	3604.42
587.54	3166.74
587.70	2686.94
587.86	2352.24
588.02	2052.65
588.18	1827.96
588.34	1689.87
588.49	1575.18
588.65	1458.15
588.81	1352.83
588.97	1296.66
589.13	1399.64
589.29	1210.06
589.45	1338.79
589.61	1306.02
589.77	1359.85
589.93	1341.13
590.08	1366.87
590.24	1432.41
590.40	1397.30
590.56	1495.60
590.72	1462.83
590.88	1514.33
591.04	1530.71
591.20	1568.16
591.35	1636.03
591.51	1722.63
591.67	1827.96
591.83	1886.47
591.99	2057.33
592.15	2267.98
592.31	2394.37
592.46	2555.86
592.62	2747.79
592.78	3005.25
592.94	3021.63
593.10	2956.10
593.26	2738.43
593.41	2560.55
593.57	2377.98
593.73	2101.80
593.89	1830.30
594.05	1657.10
594.20	1509.65
594.36	1416.02
594.52	1308.36
594.68	1329.42
594.84	1331.76
594.99	1310.70
595.15	1184.31
595.31	1256.87
595.47	1158.57
595.62	1172.61
595.78	1083.67
595.94	1093.03
596.10	1179.63
596.25	1247.51
596.41	1146.86
596.57	1111.75
596.73	1114.10
596.88	1130.48
597.04	1149.20
597.20	1174.95
597.36	1153.88
597.51	1135.16
597.67	1315.38
597.83	1310.70
597.99	1432.41
598.14	1437.09
598.30	1439.43
598.46	1584.54
598.61	1689.87
598.77	1823.28
598.93	1755.40
599.09	1825.62
599.24	1823.28
599.40	1827.96
599.56	1640.72
599.71	1699.23
599.87	1652.42
600.03	1600.93
600.18	1383.26
600.34	1336.45
600.50	1303.68
600.65	1186.65
600.81	1170.27
600.97	1121.12
601.12	1060.26
601.28	1069.62
601.44	992.39
601.59	959.62
601.75	976.00
601.91	751.31
602.06	959.62
602.22	854.30
602.37	800.46
602.53	847.27
602.69	751.31
602.84	837.91
603.00	826.21
603.16	887.06
603.31	793.44
603.47	833.23
603.62	842.59
603.78	905.79
603.94	866.00
604.09	910.47
604.25	880.04
604.40	957.28
604.56	1015.79
604.71	990.05
604.87	875.36
605.03	938.55
605.18	884.72
605.34	1071.97
605.49	987.71
605.65	1029.84
605.80	1069.62
605.96	1121.12
606.12	1097.71
606.27	1139.84
606.43	1170.27
606.58	1221.76
606.74	1399.64
606.89	1437.09
607.05	1451.13
607.20	1458.15
