SpectraSuite Data File
++++++++++++++++++++++++++++++++++++
Date: Fri Oct 04 11:41:56 GMT-05:00 2013
User: price-jones
Dark Spectrum Present: No
Reference Spectrum Present: No
Number of Sampled Component Spectra: 1
Spectrometers: USB2+H05261
Integration Time (usec): 100000 (USB2+H05261)
Spectra Averaged: 1 (USB2+H05261)
Boxcar Smoothing: 0 (USB2+H05261)
Correct for Electrical Dark: No (USB2+H05261)
Strobe/Lamp Enabled: No (USB2+H05261)
Correct for Detector Non-linearity: No (USB2+H05261)
Correct for Stray Light: No (USB2+H05261)
Number of Pixels in Processed Spectrum: 2048
>>>>>Begin Processed Spectral Data<<<<<
365.73	16.38
365.92	16.38
366.12	16.38
366.32	0.00
366.52	0.00
366.72	0.00
366.91	0.00
367.11	0.00
367.31	0.00
367.51	18.72
367.70	0.00
367.90	0.00
368.10	0.00
368.30	0.00
368.49	0.00
368.69	0.00
368.89	0.00
369.09	0.00
369.28	0.00
369.48	0.00
369.68	0.00
369.87	23.41
370.07	23.41
370.27	0.00
370.47	32.77
370.66	32.77
370.86	39.79
371.06	100.64
371.25	121.71
371.45	81.92
371.65	67.88
371.84	91.28
372.04	35.11
372.24	138.09
372.44	30.43
372.63	119.37
372.83	166.18
373.03	119.37
373.22	112.35
373.42	88.94
373.62	135.75
373.81	145.11
374.01	168.52
374.21	140.43
374.40	161.50
374.60	182.56
374.79	154.48
374.99	91.28
375.19	121.71
375.38	95.96
375.58	124.05
375.78	175.54
375.97	112.35
376.17	180.22
376.37	110.01
376.56	159.16
376.76	189.58
376.95	88.94
377.15	142.77
377.35	110.01
377.54	114.69
377.74	121.71
377.93	142.77
378.13	173.20
378.33	163.84
378.52	159.16
378.72	191.92
378.91	117.03
379.11	140.43
379.31	156.82
379.50	114.69
379.70	149.79
379.89	154.48
380.09	107.66
380.28	117.03
380.48	86.60
380.68	93.62
380.87	112.35
381.07	70.22
381.26	163.84
381.46	131.07
381.65	86.60
381.85	67.88
382.04	149.79
382.24	93.62
382.43	112.35
382.63	161.50
382.83	93.62
383.02	81.92
383.22	217.67
383.41	133.41
383.61	180.22
383.80	145.11
384.00	110.01
384.19	112.35
384.39	177.88
384.58	131.07
384.78	175.54
384.97	42.13
385.17	86.60
385.36	98.30
385.56	147.45
385.75	91.28
385.95	28.09
386.14	175.54
386.34	79.58
386.53	72.56
386.72	140.43
386.92	154.48
387.11	124.05
387.31	140.43
387.50	70.22
387.70	126.39
387.89	145.11
388.09	110.01
388.28	93.62
388.48	102.98
388.67	149.79
388.86	95.96
389.06	95.96
389.25	110.01
389.45	114.69
389.64	100.64
389.84	135.75
390.03	163.84
390.22	163.84
390.42	177.88
390.61	84.26
390.81	37.45
391.00	140.43
391.19	170.86
391.39	154.48
391.58	191.92
391.78	100.64
391.97	131.07
392.16	128.73
392.36	152.13
392.55	110.01
392.75	79.58
392.94	98.30
393.13	154.48
393.33	133.41
393.52	93.62
393.71	203.63
393.91	138.09
394.10	112.35
394.29	147.45
394.49	114.69
394.68	51.49
394.88	110.01
395.07	166.18
395.26	131.07
395.46	184.90
395.65	182.56
395.84	98.30
396.04	145.11
396.23	121.71
396.42	217.67
396.62	152.13
396.81	217.67
397.00	168.52
397.19	189.58
397.39	46.81
397.58	74.90
397.77	72.56
397.97	135.75
398.16	175.54
398.35	156.82
398.55	156.82
398.74	205.97
398.93	173.20
399.12	100.64
399.32	182.56
399.51	117.03
399.70	191.92
399.90	133.41
400.09	201.29
400.28	145.11
400.47	70.22
400.67	175.54
400.86	220.01
401.05	161.50
401.24	217.67
401.44	135.75
401.63	100.64
401.82	187.24
402.01	98.30
402.21	135.75
402.40	145.11
402.59	182.56
402.78	161.50
402.97	222.35
403.17	201.29
403.36	215.33
403.55	294.91
403.74	627.26
403.93	2092.44
404.13	4933.85
404.32	7028.63
404.51	6169.65
404.70	3756.56
404.89	1474.54
405.09	526.62
405.28	290.23
405.47	173.20
405.66	262.14
405.85	227.03
406.05	191.92
406.24	156.82
406.43	191.92
406.62	182.56
406.81	266.82
407.00	332.36
407.20	664.71
407.39	983.02
407.58	1064.94
407.77	755.99
407.96	386.19
408.15	294.91
408.34	215.33
408.54	196.60
408.73	145.11
408.92	180.22
409.11	222.35
409.30	231.71
409.49	215.33
409.68	161.50
409.87	208.31
410.07	70.22
410.26	238.73
410.45	238.73
410.64	196.60
410.83	245.76
411.02	220.01
411.21	189.58
411.40	264.48
411.59	210.65
411.78	105.32
411.98	184.90
412.17	203.63
412.36	248.10
412.55	208.31
412.74	215.33
412.93	283.20
413.12	229.37
413.31	250.44
413.50	208.31
413.69	212.99
413.88	180.22
414.07	217.67
414.26	220.01
414.45	243.42
414.64	205.97
414.83	220.01
415.02	241.08
415.22	287.89
415.41	273.84
415.60	294.91
415.79	315.97
415.98	264.48
416.17	330.02
416.36	142.77
416.55	217.67
416.74	306.61
416.93	297.25
417.12	205.97
417.31	280.86
417.50	227.03
417.69	259.80
417.88	271.50
418.07	266.82
418.26	215.33
418.45	234.05
418.64	334.70
418.83	269.16
419.02	210.65
419.21	280.86
419.39	297.25
419.58	238.73
419.77	217.67
419.96	243.42
420.15	325.33
420.34	229.37
420.53	243.42
420.72	332.36
420.91	287.89
421.10	238.73
421.29	304.27
421.48	234.05
421.67	294.91
421.86	301.93
422.05	243.42
422.24	229.37
422.43	320.65
422.61	278.52
422.80	299.59
422.99	283.20
423.18	344.06
423.37	308.95
423.56	299.59
423.75	189.58
423.94	294.91
424.13	290.23
424.32	315.97
424.50	285.55
424.69	262.14
424.88	353.42
425.07	229.37
425.26	351.08
425.45	320.65
425.64	292.57
425.83	320.65
426.01	334.70
426.20	360.44
426.39	255.12
426.58	379.17
426.77	236.39
426.96	318.31
427.15	386.19
427.33	322.99
427.52	322.99
427.71	367.46
427.90	369.80
428.09	297.25
428.28	215.33
428.46	425.98
428.65	355.76
428.84	355.76
429.03	421.30
429.22	390.87
429.40	379.17
429.59	285.55
429.78	421.30
429.97	318.31
430.16	337.04
430.34	369.80
430.53	416.62
430.72	414.27
430.91	332.36
431.10	367.46
431.28	376.83
431.47	507.90
431.66	355.76
431.85	381.51
432.03	390.87
432.22	561.73
432.41	423.64
432.60	500.87
432.79	535.98
432.97	484.49
433.16	507.90
433.35	543.00
433.54	561.73
433.72	674.07
433.91	685.78
434.10	667.05
434.28	828.55
434.47	1039.20
434.66	1032.18
434.85	1280.27
435.03	3349.31
435.22	12727.83
435.41	30160.14
435.59	33743.50
435.78	21083.55
435.97	10560.50
436.16	4138.07
436.34	1425.39
436.53	936.21
436.72	767.70
436.90	643.65
437.09	596.84
437.28	470.45
437.46	573.43
437.65	507.90
437.84	472.79
438.02	433.00
438.21	444.70
438.40	507.90
438.58	402.57
438.77	451.72
438.96	463.43
439.14	397.89
439.33	526.62
439.52	414.27
439.70	461.09
439.89	496.19
440.08	507.90
440.26	465.77
440.45	559.39
440.63	442.36
440.82	472.79
441.01	514.92
441.19	418.96
441.38	458.74
441.57	444.70
441.75	498.53
441.94	510.24
442.12	489.17
442.31	425.98
442.50	521.94
442.68	517.26
442.87	479.81
443.05	479.81
443.24	517.26
443.43	458.74
443.61	608.54
443.80	484.49
443.98	444.70
444.17	517.26
444.35	468.11
444.54	409.59
444.73	470.45
444.91	477.47
445.10	339.38
445.28	423.64
445.47	472.79
445.65	491.51
445.84	451.72
446.02	486.83
446.21	428.32
446.39	435.34
446.58	404.91
446.77	500.87
446.95	400.23
447.14	442.36
447.32	435.34
447.51	489.17
447.69	425.98
447.88	435.34
448.06	496.19
448.25	463.43
448.43	421.30
448.62	444.70
448.80	484.49
448.99	486.83
449.17	430.66
449.36	528.96
449.54	470.45
449.73	512.58
449.91	404.91
450.10	449.38
450.28	500.87
450.46	540.66
450.65	430.66
450.83	430.66
451.02	386.19
451.20	463.43
451.39	514.92
451.57	465.77
451.76	369.80
451.94	383.85
452.13	433.00
452.31	482.15
452.49	519.60
452.68	376.83
452.86	454.06
453.05	484.49
453.23	402.57
453.42	409.59
453.60	430.66
453.78	486.83
453.97	433.00
454.15	493.85
454.34	416.62
454.52	451.72
454.70	472.79
454.89	496.19
455.07	388.53
455.26	435.34
455.44	411.93
455.62	390.87
455.81	423.64
455.99	407.25
456.17	456.40
456.36	369.80
456.54	475.13
456.73	416.62
456.91	383.85
457.09	519.60
457.28	507.90
457.46	472.79
457.64	491.51
457.83	411.93
458.01	423.64
458.19	390.87
458.38	393.21
458.56	381.51
458.74	456.40
458.93	454.06
459.11	535.98
459.29	444.70
459.48	409.59
459.66	458.74
459.84	463.43
460.03	526.62
460.21	507.90
460.39	468.11
460.57	409.59
460.76	479.81
460.94	433.00
461.12	552.37
461.31	404.91
461.49	437.68
461.67	423.64
461.85	451.72
462.04	393.21
462.22	924.51
462.40	535.98
462.59	465.77
462.77	402.57
462.95	479.81
463.13	418.96
463.32	526.62
463.50	416.62
463.68	369.80
463.86	402.57
464.05	477.47
464.23	500.87
464.41	491.51
464.59	538.32
464.78	486.83
464.96	472.79
465.14	503.22
465.32	376.83
465.50	489.17
465.69	512.58
465.87	376.83
466.05	477.47
466.23	411.93
466.41	458.74
466.60	463.43
466.78	461.09
466.96	433.00
467.14	477.47
467.32	482.15
467.51	414.27
467.69	433.00
467.87	503.22
468.05	479.81
468.23	433.00
468.41	435.34
468.60	402.57
468.78	400.23
468.96	461.09
469.14	433.00
469.32	315.97
469.50	365.12
469.69	430.66
469.87	451.72
470.05	393.21
470.23	402.57
470.41	301.93
470.59	416.62
470.77	374.49
470.95	407.25
471.14	376.83
471.32	376.83
471.50	477.47
471.68	393.21
471.86	458.74
472.04	486.83
472.22	454.06
472.40	367.46
472.58	341.72
472.77	322.99
472.95	461.09
473.13	547.69
473.31	395.55
473.49	449.38
473.67	475.13
473.85	411.93
474.03	442.36
474.21	379.17
474.39	566.41
474.57	407.25
474.75	428.32
474.93	491.51
475.12	423.64
475.30	404.91
475.48	447.04
475.66	451.72
475.84	458.74
476.02	418.96
476.20	440.02
476.38	409.59
476.56	390.87
476.74	390.87
476.92	390.87
477.10	517.26
477.28	486.83
477.46	404.91
477.64	477.47
477.82	475.13
478.00	496.19
478.18	540.66
478.36	421.30
478.54	505.56
478.72	433.00
478.90	484.49
479.08	521.94
479.26	528.96
479.44	543.00
479.62	592.16
479.80	610.88
479.98	564.07
480.16	674.07
480.34	634.29
480.52	599.18
480.70	627.26
480.88	608.54
481.06	809.83
481.24	734.93
481.41	786.42
481.59	926.85
481.77	929.19
481.95	959.62
482.13	971.32
482.31	1062.60
482.49	997.07
482.67	1233.46
482.85	1196.01
483.03	1352.83
483.21	1425.39
483.39	1549.43
483.57	1614.97
483.74	1643.06
483.92	1715.61
484.10	1921.58
484.28	2092.44
484.46	2136.91
484.64	2197.76
484.82	2218.83
485.00	2396.71
485.18	2567.57
485.35	2569.91
485.53	2708.00
485.71	2979.50
485.89	3117.59
486.07	3089.51
486.25	3124.62
486.43	3171.43
486.61	3187.81
486.78	3110.57
486.96	3073.12
487.14	3173.77
487.32	3229.94
487.50	3049.72
487.68	3054.40
487.85	3019.29
488.03	3091.85
488.21	3019.29
488.39	2963.12
488.57	2836.73
488.75	2871.84
488.92	3033.33
489.10	2691.62
489.28	2693.96
489.46	2562.89
489.64	2534.80
489.81	2513.74
489.99	2516.08
490.17	2490.33
490.35	2525.44
490.53	2497.35
490.70	2328.83
490.88	2401.39
491.06	2520.76
491.24	2693.96
491.41	2682.25
491.59	2546.50
491.77	2471.61
491.95	2289.04
492.13	2127.55
492.30	2094.78
492.48	2223.51
492.66	2136.91
492.84	2097.12
493.01	2071.37
493.19	1984.77
493.37	2064.35
493.54	2115.84
493.72	2111.16
493.90	2005.84
494.08	1956.69
494.25	1987.11
494.43	1813.92
494.61	1795.19
494.79	1734.34
494.96	1771.79
495.14	1696.89
495.32	1732.00
495.49	1820.94
495.67	1710.93
495.85	1706.25
496.02	1680.50
496.20	1682.85
496.38	1640.72
496.55	1479.22
496.73	1610.29
496.91	1500.28
497.09	1486.24
497.26	1336.45
497.44	1401.98
497.62	1406.66
497.79	1357.51
497.97	1376.24
498.14	1476.88
498.32	1280.27
498.50	1240.48
498.67	1259.21
498.85	1231.12
499.03	1151.54
499.20	1196.01
499.38	1050.90
499.56	1048.56
499.73	1160.91
499.91	1008.77
500.08	1118.78
500.26	1027.50
500.44	877.70
500.61	997.07
500.79	905.79
500.97	903.45
501.14	952.60
501.32	924.51
501.49	826.21
501.67	816.85
501.84	812.17
502.02	784.08
502.20	863.66
502.37	777.06
502.55	702.16
502.72	767.70
502.90	725.57
503.07	662.37
503.25	737.27
503.43	613.22
503.60	624.92
503.78	613.22
503.95	641.31
504.13	631.94
504.30	566.41
504.48	561.73
504.65	603.86
504.83	589.82
505.01	601.52
505.18	571.09
505.36	580.45
505.53	514.92
505.71	503.22
505.88	601.52
506.06	552.37
506.23	425.98
506.41	491.51
506.58	596.84
506.76	554.71
506.93	507.90
507.11	533.64
507.28	421.30
507.46	430.66
507.63	479.81
507.81	451.72
507.98	531.30
508.16	367.46
508.33	454.06
508.50	430.66
508.68	484.49
508.85	500.87
509.03	514.92
509.20	463.43
509.38	514.92
509.55	463.43
509.73	486.83
509.90	514.92
510.08	458.74
510.25	428.32
510.42	491.51
510.60	458.74
510.77	526.62
510.95	470.45
511.12	470.45
511.30	526.62
511.47	470.45
511.64	470.45
511.82	510.24
511.99	482.15
512.17	397.89
512.34	372.15
512.51	500.87
512.69	454.06
512.86	360.44
513.04	369.80
513.21	428.32
513.38	440.02
513.56	444.70
513.73	437.68
513.90	402.57
514.08	383.85
514.25	395.55
514.43	341.72
514.60	348.74
514.77	374.49
514.95	397.89
515.12	365.12
515.29	386.19
515.47	376.83
515.64	325.33
515.81	355.76
515.99	447.04
516.16	428.32
516.33	365.12
516.51	362.78
516.68	388.53
516.85	430.66
517.03	294.91
517.20	416.62
517.37	351.08
517.54	461.09
517.72	351.08
517.89	400.23
518.06	362.78
518.24	500.87
518.41	327.68
518.58	409.59
518.75	383.85
518.93	339.38
519.10	400.23
519.27	400.23
519.45	390.87
519.62	367.46
519.79	355.76
519.96	353.42
520.14	390.87
520.31	330.02
520.48	393.21
520.65	339.38
520.83	369.80
521.00	355.76
521.17	416.62
521.34	372.15
521.52	379.17
521.69	327.68
521.86	365.12
522.03	327.68
522.20	395.55
522.38	386.19
522.55	402.57
522.72	334.70
522.89	383.85
523.07	465.77
523.24	372.15
523.41	374.49
523.58	353.42
523.75	308.95
523.92	367.46
524.10	344.06
524.27	358.10
524.44	407.25
524.61	402.57
524.78	468.11
524.96	386.19
525.13	447.04
525.30	461.09
525.47	465.77
525.64	393.21
525.81	442.36
525.98	383.85
526.16	416.62
526.33	411.93
526.50	365.12
526.67	428.32
526.84	425.98
527.01	433.00
527.18	428.32
527.36	552.37
527.53	437.68
527.70	416.62
527.87	393.21
528.04	456.40
528.21	479.81
528.38	479.81
528.55	468.11
528.72	463.43
528.89	498.53
529.07	437.68
529.24	482.15
529.41	498.53
529.58	517.26
529.75	428.32
529.92	496.19
530.09	461.09
530.26	610.88
530.43	470.45
530.60	589.82
530.77	587.47
530.94	585.13
531.11	552.37
531.28	627.26
531.46	613.22
531.63	674.07
531.80	746.63
531.97	702.16
532.14	800.46
532.31	917.49
532.48	1097.71
532.65	1245.16
532.82	1451.13
532.99	1654.76
533.16	1923.92
533.33	2017.54
533.50	1776.47
533.67	1533.05
533.84	1376.24
534.01	1294.32
534.18	1139.84
534.35	1174.95
534.52	1226.44
534.69	1149.20
534.86	1191.33
535.03	1294.32
535.20	1320.06
535.37	1373.89
535.54	1277.93
535.71	1556.46
535.88	1638.38
536.05	1689.87
536.22	1849.02
536.38	1937.96
536.55	2225.85
536.72	2424.80
536.89	2527.78
537.06	3047.38
537.23	3332.92
537.40	3660.60
537.57	3847.84
537.74	4044.45
537.91	4276.16
538.08	4273.82
538.25	4224.67
538.42	4386.16
538.59	4531.28
538.75	4561.70
538.92	4877.68
539.09	5359.83
539.26	5907.51
539.43	6712.66
539.60	7496.74
539.77	8442.31
539.94	9692.16
540.11	10623.69
540.28	11503.73
540.44	12713.79
540.61	13832.57
540.78	15978.84
540.95	19346.87
541.12	23393.65
541.29	25818.45
541.46	27091.70
541.62	27424.06
541.79	26441.03
541.96	23967.09
542.13	22471.48
542.30	20896.30
542.47	19868.81
542.63	18808.54
542.80	17909.78
542.97	17563.38
543.14	17544.66
543.31	17591.47
543.48	17282.52
543.64	18171.92
543.81	18171.92
543.98	18249.16
544.15	18368.52
544.32	18511.30
544.48	18518.32
544.65	18328.74
544.82	18284.26
544.99	18132.13
545.16	18719.60
545.32	19590.28
545.49	31281.26
545.66	54855.14
545.83	61504.60
546.00	56942.89
546.16	43459.07
546.33	31842.99
546.50	23971.77
546.67	18572.15
546.83	16816.75
547.00	16011.60
547.17	15101.14
547.34	14270.25
547.50	13881.72
547.67	13392.55
547.84	12802.73
548.00	12292.49
548.17	11857.15
548.34	11176.06
548.51	10761.78
548.67	10623.69
548.84	10101.75
549.01	9446.40
549.18	9167.88
549.34	8795.73
549.51	8432.95
549.68	8276.13
549.84	7941.44
550.01	7513.12
550.18	7133.95
550.34	6712.66
550.51	6502.01
550.68	6300.72
550.84	5760.06
551.01	5535.37
551.18	5249.82
551.34	5048.54
551.51	4793.42
551.68	4643.62
551.84	4519.57
552.01	4142.75
552.18	4250.41
552.34	3901.67
552.51	3768.26
552.68	3581.02
552.84	3480.38
553.01	3407.82
553.18	3316.54
553.34	3201.85
553.51	3075.46
553.67	2932.69
553.84	2719.70
554.01	2635.44
554.17	2424.80
554.34	2427.14
554.51	2228.19
554.67	2139.25
554.84	2050.31
555.00	1980.09
555.17	1809.23
555.33	1696.89
555.50	1713.27
555.67	1523.69
555.83	1549.43
556.00	1586.88
556.16	1547.09
556.33	1334.11
556.50	1226.44
556.66	1256.87
556.83	1160.91
556.99	1193.67
557.16	1205.38
557.32	1097.71
557.49	1184.31
557.65	1074.31
557.82	1008.77
557.98	1046.22
558.15	917.49
558.32	1018.13
558.48	976.00
558.65	922.17
558.81	854.30
558.98	833.23
559.14	957.28
559.31	870.68
559.47	915.15
559.64	798.12
559.80	858.98
559.97	858.98
560.13	770.04
560.30	851.96
560.46	842.59
560.63	767.70
560.79	828.55
560.96	826.21
561.12	821.53
561.29	896.43
561.45	873.02
561.61	748.97
561.78	894.08
561.94	800.46
562.11	734.93
562.27	800.46
562.44	744.29
562.60	767.70
562.77	791.10
562.93	807.48
563.10	788.76
563.26	755.99
563.42	739.61
563.59	770.04
563.75	674.07
563.92	676.41
564.08	650.67
564.24	704.50
564.41	669.39
564.57	641.31
564.74	650.67
564.90	638.97
565.07	711.52
565.23	664.71
565.39	580.45
565.56	603.86
565.72	645.99
565.88	660.03
566.05	601.52
566.21	615.56
566.38	634.29
566.54	610.88
566.70	643.65
566.87	620.24
567.03	636.63
567.19	622.58
567.36	685.78
567.52	681.10
567.68	617.90
567.85	582.79
568.01	575.77
568.17	561.73
568.34	608.54
568.50	608.54
568.66	596.84
568.83	678.76
568.99	638.97
569.15	615.56
569.32	561.73
569.48	645.99
569.64	507.90
569.81	540.66
569.97	578.11
570.13	519.60
570.30	524.28
570.46	437.68
570.62	430.66
570.78	470.45
570.95	416.62
571.11	566.41
571.27	465.77
571.43	451.72
571.60	477.47
571.76	528.96
571.92	472.79
572.09	484.49
572.25	521.94
572.41	386.19
572.57	545.34
572.74	528.96
572.90	430.66
573.06	498.53
573.22	535.98
573.38	564.07
573.55	479.81
573.71	472.79
573.87	594.50
574.03	505.56
574.20	496.19
574.36	578.11
574.52	517.26
574.68	543.00
574.84	631.94
575.01	547.69
575.17	678.76
575.33	634.29
575.49	732.59
575.65	905.79
575.82	922.17
575.98	990.05
576.14	1043.88
576.30	1980.09
576.46	6319.45
576.62	11847.79
576.79	13310.63
576.95	9179.58
577.11	6050.28
577.27	4400.21
577.43	2885.88
577.59	1947.33
577.75	1467.52
577.92	1336.45
578.08	1348.15
578.24	1327.08
578.40	2275.00
578.56	6436.47
578.72	11131.59
578.88	12255.04
579.04	9011.06
579.21	6293.70
579.37	4566.39
579.53	3522.51
579.69	3293.13
579.85	4147.43
580.01	4840.23
580.17	4449.36
580.33	4030.40
580.49	3262.71
580.65	2991.20
580.82	2705.66
580.98	2754.81
581.14	2752.47
581.30	2789.92
581.46	3033.33
581.62	3396.12
581.78	3557.61
581.94	3758.90
582.10	4131.05
582.26	4250.41
582.42	4409.57
582.58	4482.13
582.74	4608.51
582.90	4770.01
583.06	4713.84
583.22	4552.34
583.38	4531.28
583.54	4627.24
583.70	4739.58
583.86	4404.89
584.02	4479.79
584.18	4416.59
584.34	4447.02
584.50	4245.73
584.66	4189.56
584.82	4332.33
584.98	4196.58
585.14	4140.41
585.30	3990.61
585.46	3964.87
585.62	3714.43
585.78	3822.09
585.94	3782.31
586.10	4021.04
586.26	4266.80
586.42	4809.80
586.58	5561.11
586.74	7016.93
586.90	8269.11
587.06	9095.32
587.22	9048.51
587.38	8119.32
587.54	7194.81
587.70	5963.68
587.86	4856.61
588.02	4367.44
588.18	3864.22
588.34	3541.23
588.49	3068.44
588.65	3005.25
588.81	2810.98
588.97	2593.31
589.13	2661.19
589.29	2672.89
589.45	2637.78
589.61	2607.36
589.77	2586.29
589.93	2651.83
590.08	2700.98
590.24	2724.38
590.40	2890.56
590.56	3021.63
590.72	3021.63
590.88	3061.42
591.04	3199.51
591.20	3316.54
591.35	3421.86
591.51	3449.95
591.67	3707.41
591.83	4053.81
591.99	4348.72
592.15	4695.11
592.31	5029.81
592.46	5579.84
592.62	5994.11
592.78	6354.55
592.94	6675.21
593.10	6541.80
593.26	6115.82
593.41	5753.04
593.57	5081.30
593.73	4489.15
593.89	4109.98
594.05	3588.04
594.20	3143.34
594.36	2998.23
594.52	2897.58
594.68	2752.47
594.84	2597.99
594.99	2520.76
595.15	2370.96
595.31	2513.74
595.47	2338.20
595.62	2347.56
595.78	2413.09
595.94	2291.38
596.10	2352.24
596.25	2382.67
596.41	2368.62
596.57	2228.19
596.73	2251.60
596.88	2221.17
597.04	2352.24
597.20	2354.58
597.36	2359.26
597.51	2399.05
597.67	2537.14
597.83	2649.49
597.99	2773.53
598.14	2932.69
598.30	3108.23
598.46	3337.60
598.61	3452.29
598.77	3585.70
598.93	3772.94
599.09	3892.31
599.24	3819.75
599.40	4037.42
599.56	3833.80
599.71	3630.17
599.87	3485.06
600.03	3297.81
600.18	2937.37
600.34	2911.63
600.50	2647.15
600.65	2450.54
600.81	2434.16
600.97	2246.91
601.12	2183.72
601.28	2087.76
601.44	2019.88
601.59	1839.66
601.75	1755.40
601.91	1699.23
602.06	1736.68
602.22	1636.03
602.37	1657.10
602.53	1680.50
602.69	1638.38
602.84	1502.62
603.00	1596.25
603.16	1647.74
603.31	1607.95
603.47	1561.14
603.62	1572.84
603.78	1687.53
603.94	1680.50
604.09	1748.38
604.25	1741.36
604.40	1750.72
604.56	1825.62
604.71	1842.00
604.87	1881.79
605.03	1898.17
605.18	1977.75
605.34	2062.01
