SpectraSuite Data File
++++++++++++++++++++++++++++++++++++
Date: Fri Oct 04 11:42:18 GMT-05:00 2013
User: price-jones
Dark Spectrum Present: No
Reference Spectrum Present: No
Number of Sampled Component Spectra: 1
Spectrometers: USB2+H05261
Integration Time (usec): 100000 (USB2+H05261)
Spectra Averaged: 1 (USB2+H05261)
Boxcar Smoothing: 0 (USB2+H05261)
Correct for Electrical Dark: No (USB2+H05261)
Strobe/Lamp Enabled: No (USB2+H05261)
Correct for Detector Non-linearity: No (USB2+H05261)
Correct for Stray Light: No (USB2+H05261)
Number of Pixels in Processed Spectrum: 2048
>>>>>Begin Processed Spectral Data<<<<<
365.73	74.90
365.92	74.90
366.12	74.90
366.32	0.00
366.52	0.00
366.72	37.45
366.91	0.00
367.11	0.00
367.31	0.00
367.51	0.00
367.70	0.00
367.90	0.00
368.10	0.00
368.30	0.00
368.49	0.00
368.69	0.00
368.89	0.00
369.09	2.34
369.28	0.00
369.48	0.00
369.68	0.00
369.87	28.09
370.07	0.00
370.27	42.13
370.47	11.70
370.66	14.04
370.86	7.02
371.06	117.03
371.25	117.03
371.45	35.11
371.65	81.92
371.84	102.98
372.04	14.04
372.24	32.77
372.44	35.11
372.63	131.07
372.83	203.63
373.03	138.09
373.22	119.37
373.42	81.92
373.62	173.20
373.81	58.51
374.01	163.84
374.21	135.75
374.40	114.69
374.60	93.62
374.79	105.32
374.99	126.39
375.19	133.41
375.38	107.66
375.58	152.13
375.78	140.43
375.97	145.11
376.17	147.45
376.37	112.35
376.56	149.79
376.76	42.13
376.95	133.41
377.15	131.07
377.35	133.41
377.54	142.77
377.74	98.30
377.93	152.13
378.13	100.64
378.33	198.95
378.52	88.94
378.72	149.79
378.91	88.94
379.11	95.96
379.31	91.28
379.50	86.60
379.70	77.24
379.89	149.79
380.09	98.30
380.28	95.96
380.48	121.71
380.68	112.35
380.87	110.01
381.07	105.32
381.26	138.09
381.46	135.75
381.65	100.64
381.85	84.26
382.04	81.92
382.24	110.01
382.43	56.17
382.63	147.45
382.83	147.45
383.02	105.32
383.22	63.19
383.41	112.35
383.61	51.49
383.80	112.35
384.00	203.63
384.19	86.60
384.39	105.32
384.58	107.66
384.78	93.62
384.97	110.01
385.17	138.09
385.36	98.30
385.56	149.79
385.75	112.35
385.95	65.54
386.14	124.05
386.34	86.60
386.53	121.71
386.72	88.94
386.92	110.01
387.11	133.41
387.31	138.09
387.50	100.64
387.70	30.43
387.89	102.98
388.09	145.11
388.28	60.85
388.48	67.88
388.67	149.79
388.86	124.05
389.06	95.96
389.25	100.64
389.45	86.60
389.64	135.75
389.84	131.07
390.03	110.01
390.22	105.32
390.42	152.13
390.61	159.16
390.81	124.05
391.00	117.03
391.19	149.79
391.39	175.54
391.58	161.50
391.78	166.18
391.97	140.43
392.16	133.41
392.36	203.63
392.55	126.39
392.75	145.11
392.94	170.86
393.13	107.66
393.33	25.75
393.52	173.20
393.71	133.41
393.91	128.73
394.10	98.30
394.29	133.41
394.49	93.62
394.68	149.79
394.88	100.64
395.07	173.20
395.26	67.88
395.46	145.11
395.65	126.39
395.84	135.75
396.04	175.54
396.23	128.73
396.42	77.24
396.62	147.45
396.81	117.03
397.00	81.92
397.19	98.30
397.39	168.52
397.58	159.16
397.77	154.48
397.97	124.05
398.16	170.86
398.35	112.35
398.55	184.90
398.74	117.03
398.93	107.66
399.12	131.07
399.32	135.75
399.51	49.15
399.70	131.07
399.90	166.18
400.09	180.22
400.28	72.56
400.47	93.62
400.67	187.24
400.86	196.60
401.05	152.13
401.24	184.90
401.44	208.31
401.63	128.73
401.82	159.16
402.01	81.92
402.21	177.88
402.40	168.52
402.59	173.20
402.78	81.92
402.97	77.24
403.17	102.98
403.36	189.58
403.55	241.08
403.74	271.50
403.93	737.27
404.13	1446.45
404.32	1600.93
404.51	1416.02
404.70	884.72
404.89	440.02
405.09	299.59
405.28	145.11
405.47	208.31
405.66	140.43
405.85	156.82
406.05	112.35
406.24	140.43
406.43	131.07
406.62	182.56
406.81	93.62
407.00	248.10
407.20	266.82
407.39	365.12
407.58	351.08
407.77	252.78
407.96	271.50
408.15	126.39
408.34	131.07
408.54	161.50
408.73	107.66
408.92	135.75
409.11	208.31
409.30	177.88
409.49	72.56
409.68	117.03
409.87	131.07
410.07	145.11
410.26	177.88
410.45	126.39
410.64	121.71
410.83	110.01
411.02	161.50
411.21	170.86
411.40	170.86
411.59	102.98
411.78	154.48
411.98	124.05
412.17	112.35
412.36	140.43
412.55	70.22
412.74	149.79
412.93	166.18
413.12	147.45
413.31	133.41
413.50	189.58
413.69	149.79
413.88	135.75
414.07	189.58
414.26	121.71
414.45	114.69
414.64	133.41
414.83	140.43
415.02	220.01
415.22	154.48
415.41	248.10
415.60	105.32
415.79	149.79
415.98	145.11
416.17	152.13
416.36	152.13
416.55	147.45
416.74	119.37
416.93	224.69
417.12	201.29
417.31	175.54
417.50	205.97
417.69	224.69
417.88	224.69
418.07	166.18
418.26	184.90
418.45	191.92
418.64	210.65
418.83	159.16
419.02	119.37
419.21	180.22
419.39	194.26
419.58	124.05
419.77	177.88
419.96	203.63
420.15	191.92
420.34	168.52
420.53	152.13
420.72	224.69
420.91	201.29
421.10	175.54
421.29	168.52
421.48	205.97
421.67	234.05
421.86	236.39
422.05	182.56
422.24	175.54
422.43	234.05
422.61	142.77
422.80	154.48
422.99	264.48
423.18	196.60
423.37	177.88
423.56	147.45
423.75	222.35
423.94	184.90
424.13	154.48
424.32	198.95
424.50	175.54
424.69	210.65
424.88	212.99
425.07	220.01
425.26	194.26
425.45	241.08
425.64	231.71
425.83	203.63
426.01	156.82
426.20	154.48
426.39	147.45
426.58	128.73
426.77	243.42
426.96	234.05
427.15	173.20
427.33	147.45
427.52	184.90
427.71	217.67
427.90	187.24
428.09	159.16
428.28	159.16
428.46	252.78
428.65	194.26
428.84	198.95
429.03	273.84
429.22	308.95
429.40	166.18
429.59	203.63
429.78	208.31
429.97	149.79
430.16	156.82
430.34	142.77
430.53	187.24
430.72	95.96
430.91	273.84
431.10	264.48
431.28	163.84
431.47	224.69
431.66	187.24
431.85	191.92
432.03	248.10
432.22	205.97
432.41	189.58
432.60	205.97
432.79	222.35
432.97	245.76
433.16	252.78
433.35	271.50
433.54	236.39
433.72	236.39
433.91	280.86
434.10	262.14
434.28	365.12
434.47	339.38
434.66	423.64
434.85	493.85
435.03	1125.80
435.22	3691.02
435.41	7056.72
435.59	6462.22
435.78	4191.90
435.97	2265.64
436.16	929.19
436.34	440.02
436.53	362.78
436.72	308.95
436.90	287.89
437.09	278.52
437.28	243.42
437.46	229.37
437.65	208.31
437.84	196.60
438.02	182.56
438.21	252.78
438.40	205.97
438.58	250.44
438.77	201.29
438.96	224.69
439.14	156.82
439.33	252.78
439.52	163.84
439.70	107.66
439.89	250.44
440.08	177.88
440.26	220.01
440.45	243.42
440.63	227.03
440.82	161.50
441.01	248.10
441.19	205.97
441.38	234.05
441.57	287.89
441.75	224.69
441.94	327.68
442.12	245.76
442.31	184.90
442.50	297.25
442.68	212.99
442.87	161.50
443.05	194.26
443.24	175.54
443.43	269.16
443.61	313.63
443.80	227.03
443.98	271.50
444.17	191.92
444.35	215.33
444.54	224.69
444.73	184.90
444.91	222.35
445.10	280.86
445.28	238.73
445.47	229.37
445.65	248.10
445.84	208.31
446.02	231.71
446.21	264.48
446.39	180.22
446.58	355.76
446.77	292.57
446.95	264.48
447.14	173.20
447.32	311.29
447.51	220.01
447.69	297.25
447.88	210.65
448.06	264.48
448.25	262.14
448.43	222.35
448.62	222.35
448.80	227.03
448.99	205.97
449.17	217.67
449.36	210.65
449.54	161.50
449.73	245.76
449.91	248.10
450.10	266.82
450.28	238.73
450.46	294.91
450.65	290.23
450.83	252.78
451.02	170.86
451.20	191.92
451.39	248.10
451.57	198.95
451.76	196.60
451.94	271.50
452.13	184.90
452.31	203.63
452.49	217.67
452.68	252.78
452.86	287.89
453.05	271.50
453.23	159.16
453.42	212.99
453.60	231.71
453.78	196.60
453.97	191.92
454.15	283.20
454.34	266.82
454.52	128.73
454.70	245.76
454.89	278.52
455.07	229.37
455.26	224.69
455.44	220.01
455.62	278.52
455.81	262.14
455.99	278.52
456.17	269.16
456.36	208.31
456.54	259.80
456.73	224.69
456.91	163.84
457.09	140.43
457.28	191.92
457.46	229.37
457.64	203.63
457.83	257.46
458.01	236.39
458.19	248.10
458.38	276.18
458.56	262.14
458.74	313.63
458.93	229.37
459.11	236.39
459.29	264.48
459.48	259.80
459.66	222.35
459.84	255.12
460.03	292.57
460.21	259.80
460.39	198.95
460.57	227.03
460.76	227.03
460.94	222.35
461.12	304.27
461.31	201.29
461.49	227.03
461.67	149.79
461.85	287.89
462.04	177.88
462.22	369.80
462.40	290.23
462.59	255.12
462.77	201.29
462.95	273.84
463.13	203.63
463.32	243.42
463.50	208.31
463.68	241.08
463.86	222.35
464.05	241.08
464.23	287.89
464.41	278.52
464.59	262.14
464.78	208.31
464.96	224.69
465.14	203.63
465.32	215.33
465.50	166.18
465.69	259.80
465.87	187.24
466.05	234.05
466.23	234.05
466.41	245.76
466.60	227.03
466.78	138.09
466.96	220.01
467.14	257.46
467.32	198.95
467.51	208.31
467.69	308.95
467.87	220.01
468.05	238.73
468.23	252.78
468.41	248.10
468.60	255.12
468.78	198.95
468.96	234.05
469.14	278.52
469.32	170.86
469.50	201.29
469.69	311.29
469.87	276.18
470.05	280.86
470.23	142.77
470.41	250.44
470.59	156.82
470.77	259.80
470.95	245.76
471.14	264.48
471.32	266.82
471.50	161.50
471.68	184.90
471.86	241.08
472.04	278.52
472.22	269.16
472.40	229.37
472.58	203.63
472.77	222.35
472.95	301.93
473.13	332.36
473.31	217.67
473.49	245.76
473.67	255.12
473.85	166.18
474.03	271.50
474.21	259.80
474.39	252.78
474.57	241.08
474.75	248.10
474.93	224.69
475.12	177.88
475.30	229.37
475.48	201.29
475.66	259.80
475.84	201.29
476.02	154.48
476.20	290.23
476.38	196.60
476.56	374.49
476.74	191.92
476.92	212.99
477.10	201.29
477.28	250.44
477.46	273.84
477.64	313.63
477.82	238.73
478.00	257.46
478.18	285.55
478.36	271.50
478.54	278.52
478.72	292.57
478.90	332.36
479.08	313.63
479.26	294.91
479.44	271.50
479.62	231.71
479.80	269.16
479.98	355.76
480.16	308.95
480.34	287.89
480.52	308.95
480.70	318.31
480.88	341.72
481.06	283.20
481.24	320.65
481.41	421.30
481.59	362.78
481.77	255.12
481.95	358.10
482.13	397.89
482.31	339.38
482.49	400.23
482.67	407.25
482.85	444.70
483.03	442.36
483.21	477.47
483.39	503.22
483.57	500.87
483.74	631.94
483.92	564.07
484.10	559.39
484.28	566.41
484.46	627.26
484.64	617.90
484.82	690.46
485.00	699.82
485.18	711.52
485.35	669.39
485.53	725.57
485.71	828.55
485.89	746.63
486.07	765.36
486.25	961.96
486.43	889.40
486.61	847.27
486.78	833.23
486.96	791.10
487.14	840.25
487.32	795.78
487.50	821.53
487.68	805.14
487.85	739.61
488.03	863.66
488.21	770.04
488.39	802.80
488.57	741.95
488.75	770.04
488.92	1069.62
489.10	676.41
489.28	781.74
489.46	690.46
489.64	697.48
489.81	732.59
489.99	653.01
490.17	770.04
490.35	725.57
490.53	690.46
490.70	753.65
490.88	730.25
491.06	755.99
491.24	683.44
491.41	671.73
491.59	692.80
491.77	692.80
491.95	657.69
492.13	622.58
492.30	578.11
492.48	617.90
492.66	664.71
492.84	641.31
493.01	706.84
493.19	641.31
493.37	702.16
493.54	636.63
493.72	543.00
493.90	505.56
494.08	599.18
494.25	711.52
494.43	573.43
494.61	636.63
494.79	533.64
494.96	573.43
495.14	402.57
495.32	547.69
495.49	622.58
495.67	528.96
495.85	524.28
496.02	552.37
496.20	521.94
496.38	575.77
496.55	603.86
496.73	507.90
496.91	381.51
497.09	578.11
497.26	489.17
497.44	491.51
497.62	482.15
497.79	514.92
497.97	484.49
498.14	444.70
498.32	404.91
498.50	535.98
498.67	458.74
498.85	475.13
499.03	510.24
499.20	433.00
499.38	404.91
499.56	414.27
499.73	414.27
499.91	468.11
500.08	442.36
500.26	348.74
500.44	330.02
500.61	400.23
500.79	400.23
500.97	372.15
501.14	341.72
501.32	409.59
501.49	369.80
501.67	358.10
501.84	360.44
502.02	325.33
502.20	444.70
502.37	418.96
502.55	355.76
502.72	341.72
502.90	339.38
503.07	353.42
503.25	339.38
503.43	308.95
503.60	276.18
503.78	325.33
503.95	198.95
504.13	362.78
504.30	245.76
504.48	407.25
504.65	346.40
504.83	358.10
505.01	234.05
505.18	248.10
505.36	301.93
505.53	372.15
505.71	330.02
505.88	358.10
506.06	372.15
506.23	315.97
506.41	292.57
506.58	315.97
506.76	322.99
506.93	332.36
507.11	217.67
507.28	304.27
507.46	269.16
507.63	264.48
507.81	311.29
507.98	245.76
508.16	245.76
508.33	231.71
508.50	294.91
508.68	341.72
508.85	369.80
509.03	250.44
509.20	313.63
509.38	376.83
509.55	311.29
509.73	351.08
509.90	355.76
510.08	304.27
510.25	290.23
510.42	351.08
510.60	332.36
510.77	241.08
510.95	266.82
511.12	205.97
511.30	290.23
511.47	252.78
511.64	330.02
511.82	201.29
511.99	372.15
512.17	334.70
512.34	297.25
512.51	283.20
512.69	315.97
512.86	339.38
513.04	287.89
513.21	271.50
513.38	271.50
513.56	271.50
513.73	245.76
513.90	245.76
514.08	280.86
514.25	264.48
514.43	299.59
514.60	290.23
514.77	266.82
514.95	325.33
515.12	297.25
515.29	285.55
515.47	322.99
515.64	292.57
515.81	306.61
515.99	322.99
516.16	271.50
516.33	292.57
516.51	320.65
516.68	220.01
516.85	308.95
517.03	243.42
517.20	273.84
517.37	283.20
517.54	283.20
517.72	278.52
517.89	257.46
518.06	222.35
518.24	241.08
518.41	264.48
518.58	341.72
518.75	269.16
518.93	297.25
519.10	224.69
519.27	266.82
519.45	241.08
519.62	294.91
519.79	304.27
519.96	278.52
520.14	285.55
520.31	330.02
520.48	318.31
520.65	250.44
520.83	245.76
521.00	318.31
521.17	297.25
521.34	236.39
521.52	299.59
521.69	271.50
521.86	294.91
522.03	353.42
522.20	297.25
522.38	351.08
522.55	278.52
522.72	222.35
522.89	299.59
523.07	376.83
523.24	259.80
523.41	257.46
523.58	376.83
523.75	306.61
523.92	299.59
524.10	308.95
524.27	294.91
524.44	322.99
524.61	301.93
524.78	294.91
524.96	306.61
525.13	276.18
525.30	285.55
525.47	238.73
525.64	332.36
525.81	285.55
525.98	311.29
526.16	264.48
526.33	304.27
526.50	262.14
526.67	278.52
526.84	252.78
527.01	332.36
527.18	346.40
527.36	365.12
527.53	337.04
527.70	353.42
527.87	297.25
528.04	428.32
528.21	372.15
528.38	372.15
528.55	421.30
528.72	411.93
528.89	421.30
529.07	315.97
529.24	301.93
529.41	299.59
529.58	337.04
529.75	280.86
529.92	358.10
530.09	332.36
530.26	374.49
530.43	433.00
530.60	285.55
530.77	430.66
530.94	311.29
531.11	369.80
531.28	330.02
531.46	390.87
531.63	299.59
531.80	320.65
531.97	372.15
532.14	381.51
532.31	444.70
532.48	468.11
532.65	451.72
532.82	505.56
532.99	538.32
533.16	641.31
533.33	601.52
533.50	559.39
533.67	582.79
533.84	540.66
534.01	500.87
534.18	493.85
534.35	559.39
534.52	425.98
534.69	491.51
534.86	472.79
535.03	465.77
535.20	472.79
535.37	531.30
535.54	559.39
535.71	573.43
535.88	557.05
536.05	638.97
536.22	660.03
536.38	667.05
536.55	767.70
536.72	739.61
536.89	777.06
537.06	777.06
537.23	924.51
537.40	959.62
537.57	1041.54
537.74	1093.03
537.91	1135.16
538.08	1015.79
538.25	1114.10
538.42	1093.03
538.59	1165.59
538.75	1107.07
538.92	1238.14
539.09	1390.28
539.26	1488.58
539.43	1589.22
539.60	1842.00
539.77	2012.86
539.94	2162.66
540.11	2300.75
540.28	2511.39
540.44	2874.18
540.61	3150.36
540.78	3506.12
540.95	4126.36
541.12	4929.17
541.29	5280.25
541.46	5579.84
541.62	5533.03
541.79	5401.96
541.96	4816.82
542.13	4725.54
542.30	4451.70
542.47	4351.06
542.63	4095.94
542.80	3861.88
542.97	3913.38
543.14	3702.73
543.31	3775.28
543.48	3911.04
543.64	3971.89
543.81	3943.80
543.98	3868.91
544.15	3878.27
544.32	3983.59
544.48	4053.81
544.65	3882.95
544.82	3768.26
544.99	3749.54
545.16	3896.99
545.32	4119.34
545.49	7655.89
545.66	13104.66
545.83	14588.56
546.00	12283.13
546.16	8585.08
546.33	6333.49
546.50	5001.72
546.67	3962.53
546.83	3449.95
547.00	3283.77
547.17	3150.36
547.34	3152.70
547.50	3073.12
547.67	2902.26
547.84	2731.41
548.00	2773.53
548.17	2476.29
548.34	2471.61
548.51	2532.46
548.67	2487.99
548.84	2275.00
549.01	2071.37
549.18	2129.89
549.34	1926.26
549.51	1863.07
549.68	1907.54
549.84	1823.28
550.01	1813.92
550.18	1652.42
550.34	1666.46
550.51	1624.33
550.68	1549.43
550.84	1348.15
551.01	1315.38
551.18	1378.58
551.34	1163.25
551.51	1146.86
551.68	1284.95
551.84	1163.25
552.01	1036.86
552.18	1123.46
552.34	1076.65
552.51	1020.47
552.68	910.47
552.84	863.66
553.01	915.15
553.18	964.30
553.34	887.06
553.51	887.06
553.67	851.96
553.84	800.46
554.01	786.42
554.17	709.18
554.34	608.54
554.51	716.20
554.67	690.46
554.84	629.60
555.00	550.03
555.17	622.58
555.33	568.75
555.50	496.19
555.67	482.15
555.83	514.92
556.00	528.96
556.16	676.41
556.33	425.98
556.50	486.83
556.66	491.51
556.83	486.83
556.99	416.62
557.16	433.00
557.32	414.27
557.49	512.58
557.65	451.72
557.82	395.55
557.98	416.62
558.15	355.76
558.32	283.20
558.48	372.15
558.65	437.68
558.81	390.87
558.98	411.93
559.14	367.46
559.31	402.57
559.47	379.17
559.64	315.97
559.80	360.44
559.97	320.65
560.13	330.02
560.30	337.04
560.46	353.42
560.63	327.68
560.79	388.53
560.96	358.10
561.12	393.21
561.29	351.08
561.45	390.87
561.61	418.96
561.78	456.40
561.94	372.15
562.11	344.06
562.27	372.15
562.44	346.40
562.60	304.27
562.77	433.00
562.93	416.62
563.10	379.17
563.26	332.36
563.42	344.06
563.59	374.49
563.75	257.46
563.92	386.19
564.08	355.76
564.24	386.19
564.41	332.36
564.57	332.36
564.74	327.68
564.90	346.40
565.07	290.23
565.23	381.51
565.39	313.63
565.56	322.99
565.72	262.14
565.88	313.63
566.05	271.50
566.21	360.44
566.38	365.12
566.54	313.63
566.70	299.59
566.87	353.42
567.03	355.76
567.19	290.23
567.36	308.95
567.52	313.63
567.68	311.29
567.85	330.02
568.01	362.78
568.17	313.63
568.34	283.20
568.50	386.19
568.66	259.80
568.83	332.36
568.99	320.65
569.15	404.91
569.32	294.91
569.48	313.63
569.64	320.65
569.81	313.63
569.97	330.02
570.13	339.38
570.30	315.97
570.46	259.80
570.62	325.33
570.78	203.63
570.95	287.89
571.11	367.46
571.27	259.80
571.43	224.69
571.60	264.48
571.76	252.78
571.92	299.59
572.09	266.82
572.25	259.80
572.41	322.99
572.57	250.44
572.74	337.04
572.90	362.78
573.06	358.10
573.22	304.27
573.38	301.93
573.55	308.95
573.71	341.72
573.87	376.83
574.03	297.25
574.20	334.70
574.36	351.08
574.52	407.25
574.68	304.27
574.84	351.08
575.01	365.12
575.17	353.42
575.33	346.40
575.49	407.25
575.65	376.83
575.82	332.36
575.98	390.87
576.14	465.77
576.30	727.91
576.46	1844.34
576.62	2628.42
576.79	2656.51
576.95	1877.11
577.11	1366.87
577.27	1006.43
577.43	828.55
577.59	554.71
577.75	543.00
577.92	507.90
578.08	521.94
578.24	475.13
578.40	781.74
578.56	1736.68
578.72	2377.98
578.88	2548.84
579.04	1893.49
579.21	1369.21
579.37	1029.84
579.53	875.36
579.69	898.77
579.85	1062.60
580.01	1205.38
580.17	1121.12
580.33	1004.09
580.49	924.51
580.65	856.64
580.82	657.69
580.98	781.74
581.14	746.63
581.30	819.19
581.46	889.40
581.62	919.83
581.78	912.81
581.94	987.71
582.10	957.28
582.26	1090.69
582.42	1130.48
582.58	1139.84
582.74	1046.22
582.90	1104.73
583.06	1160.91
583.22	1252.19
583.38	1172.61
583.54	1170.27
583.70	1144.52
583.86	1135.16
584.02	1111.75
584.18	1165.59
584.34	1184.31
584.50	1011.11
584.66	1090.69
584.82	1069.62
584.98	983.02
585.14	1018.13
585.30	1067.28
585.46	1064.94
585.62	901.11
585.78	1004.09
585.94	1011.11
586.10	999.41
586.26	1062.60
586.42	1238.14
586.58	1373.89
586.74	1687.53
586.90	1771.79
587.06	2057.33
587.22	1942.64
587.38	1717.95
587.54	1537.73
587.70	1387.94
587.86	1219.42
588.02	1057.92
588.18	1015.79
588.34	903.45
588.49	866.00
588.65	723.23
588.81	784.08
588.97	770.04
589.13	730.25
589.29	709.18
589.45	685.78
589.61	723.23
589.77	683.44
589.93	704.50
590.08	788.76
590.24	678.76
590.40	730.25
590.56	763.01
590.72	793.44
590.88	746.63
591.04	807.48
591.20	830.89
591.35	873.02
591.51	779.40
591.67	936.21
591.83	901.11
591.99	1111.75
592.15	1118.78
592.31	1193.67
592.46	1217.08
592.62	1530.71
592.78	1364.53
592.94	1404.32
593.10	1460.49
593.26	1317.72
593.41	1310.70
593.57	1139.84
593.73	1025.15
593.89	1027.50
594.05	924.51
594.20	732.59
594.36	638.97
594.52	758.33
594.68	627.26
594.84	739.61
594.99	744.29
595.15	601.52
595.31	699.82
595.47	678.76
595.62	669.39
595.78	645.99
595.94	615.56
596.10	648.33
596.25	674.07
596.41	711.52
596.57	589.82
596.73	622.58
596.88	641.31
597.04	669.39
597.20	620.24
597.36	608.54
597.51	622.58
597.67	692.80
597.83	688.12
597.99	758.33
598.14	741.95
598.30	812.17
598.46	830.89
598.61	884.72
598.77	994.73
598.93	990.05
599.09	997.07
599.24	997.07
599.40	957.28
599.56	957.28
599.71	896.43
599.87	903.45
600.03	793.44
600.18	732.59
600.34	755.99
600.50	688.12
600.65	667.05
600.81	667.05
600.97	559.39
601.12	557.05
601.28	608.54
601.44	521.94
601.59	543.00
601.75	503.22
601.91	585.13
602.06	594.50
602.22	500.87
602.37	557.05
602.53	580.45
602.69	519.60
602.84	526.62
603.00	528.96
603.16	524.28
603.31	566.41
603.47	557.05
603.62	519.60
603.78	454.06
603.94	496.19
604.09	526.62
604.25	587.47
604.40	561.73
604.56	514.92
604.71	561.73
604.87	491.51
605.03	505.56
605.18	526.62
605.34	561.73
605.49	622.58
605.65	554.71
605.80	552.37
605.96	573.43
606.12	587.47
606.27	629.60
606.43	664.71
606.58	748.97
606.74	751.31
606.89	727.91
607.05	760.67
607.20	807.48
607.36	887.06
607.51	901.11
607.67	976.00
607.82	1011.11
607.98	1067.28
608.13	1048.56
608.29	1064.94
608.44	1294.32
608.60	1207.72
608.75	1416.02
608.91	1542.41
609.06	1694.55
609.22	1790.51
