SpectraSuite Data File
++++++++++++++++++++++++++++++++++++
Date: Fri Oct 04 11:42:04 GMT-05:00 2013
User: price-jones
Dark Spectrum Present: No
Reference Spectrum Present: No
Number of Sampled Component Spectra: 1
Spectrometers: USB2+H05261
Integration Time (usec): 100000 (USB2+H05261)
Spectra Averaged: 1 (USB2+H05261)
Boxcar Smoothing: 0 (USB2+H05261)
Correct for Electrical Dark: No (USB2+H05261)
Strobe/Lamp Enabled: No (USB2+H05261)
Correct for Detector Non-linearity: No (USB2+H05261)
Correct for Stray Light: No (USB2+H05261)
Number of Pixels in Processed Spectrum: 2048
>>>>>Begin Processed Spectral Data<<<<<
365.73	0.00
365.92	0.00
366.12	0.00
366.32	0.00
366.52	0.00
366.72	21.06
366.91	0.00
367.11	0.00
367.31	0.00
367.51	0.00
367.70	0.00
367.90	0.00
368.10	0.00
368.30	0.00
368.49	0.00
368.69	0.00
368.89	7.02
369.09	0.00
369.28	0.00
369.48	28.09
369.68	4.68
369.87	49.15
370.07	0.00
370.27	81.92
370.47	0.00
370.66	0.00
370.86	7.02
371.06	121.71
371.25	60.85
371.45	2.34
371.65	60.85
371.84	110.01
372.04	79.58
372.24	46.81
372.44	84.26
372.63	135.75
372.83	161.50
373.03	65.54
373.22	128.73
373.42	156.82
373.62	117.03
373.81	93.62
374.01	180.22
374.21	58.51
374.40	124.05
374.60	112.35
374.79	86.60
374.99	102.98
375.19	93.62
375.38	156.82
375.58	81.92
375.78	100.64
375.97	152.13
376.17	163.84
376.37	147.45
376.56	124.05
376.76	138.09
376.95	98.30
377.15	205.97
377.35	168.52
377.54	128.73
377.74	138.09
377.93	70.22
378.13	161.50
378.33	79.58
378.52	105.32
378.72	100.64
378.91	117.03
379.11	7.02
379.31	138.09
379.50	74.90
379.70	84.26
379.89	112.35
380.09	67.88
380.28	0.00
380.48	117.03
380.68	173.20
380.87	95.96
381.07	53.83
381.26	117.03
381.46	126.39
381.65	86.60
381.85	128.73
382.04	131.07
382.24	145.11
382.43	81.92
382.63	126.39
382.83	88.94
383.02	140.43
383.22	133.41
383.41	84.26
383.61	65.54
383.80	112.35
384.00	110.01
384.19	180.22
384.39	72.56
384.58	88.94
384.78	161.50
384.97	102.98
385.17	135.75
385.36	51.49
385.56	159.16
385.75	65.54
385.95	88.94
386.14	102.98
386.34	67.88
386.53	95.96
386.72	124.05
386.92	135.75
387.11	149.79
387.31	140.43
387.50	81.92
387.70	121.71
387.89	98.30
388.09	100.64
388.28	88.94
388.48	170.86
388.67	154.48
388.86	95.96
389.06	81.92
389.25	147.45
389.45	79.58
389.64	152.13
389.84	112.35
390.03	154.48
390.22	147.45
390.42	126.39
390.61	95.96
390.81	86.60
391.00	152.13
391.19	138.09
391.39	191.92
391.58	72.56
391.78	142.77
391.97	91.28
392.16	84.26
392.36	121.71
392.55	159.16
392.75	131.07
392.94	46.81
393.13	135.75
393.33	65.54
393.52	163.84
393.71	88.94
393.91	95.96
394.10	98.30
394.29	131.07
394.49	67.88
394.68	138.09
394.88	124.05
395.07	110.01
395.26	140.43
395.46	121.71
395.65	124.05
395.84	131.07
396.04	156.82
396.23	86.60
396.42	67.88
396.62	105.32
396.81	70.22
397.00	166.18
397.19	91.28
397.39	100.64
397.58	102.98
397.77	77.24
397.97	135.75
398.16	112.35
398.35	168.52
398.55	126.39
398.74	98.30
398.93	105.32
399.12	100.64
399.32	98.30
399.51	58.51
399.70	84.26
399.90	95.96
400.09	79.58
400.28	91.28
400.47	58.51
400.67	126.39
400.86	163.84
401.05	187.24
401.24	194.26
401.44	128.73
401.63	95.96
401.82	100.64
402.01	74.90
402.21	114.69
402.40	138.09
402.59	168.52
402.78	112.35
402.97	128.73
403.17	126.39
403.36	39.79
403.55	161.50
403.74	203.63
403.93	187.24
404.13	266.82
404.32	273.84
404.51	217.67
404.70	156.82
404.89	154.48
405.09	159.16
405.28	121.71
405.47	145.11
405.66	175.54
405.85	177.88
406.05	112.35
406.24	145.11
406.43	74.90
406.62	149.79
406.81	102.98
407.00	180.22
407.20	114.69
407.39	124.05
407.58	210.65
407.77	100.64
407.96	56.17
408.15	194.26
408.34	56.17
408.54	112.35
408.73	107.66
408.92	170.86
409.11	124.05
409.30	156.82
409.49	67.88
409.68	88.94
409.87	145.11
410.07	128.73
410.26	140.43
410.45	215.33
410.64	65.54
410.83	81.92
411.02	72.56
411.21	65.54
411.40	86.60
411.59	119.37
411.78	131.07
411.98	107.66
412.17	168.52
412.36	175.54
412.55	100.64
412.74	110.01
412.93	98.30
413.12	102.98
413.31	98.30
413.50	102.98
413.69	121.71
413.88	182.56
414.07	161.50
414.26	110.01
414.45	126.39
414.64	126.39
414.83	126.39
415.02	114.69
415.22	135.75
415.41	138.09
415.60	102.98
415.79	173.20
415.98	149.79
416.17	140.43
416.36	112.35
416.55	142.77
416.74	173.20
416.93	98.30
417.12	126.39
417.31	159.16
417.50	177.88
417.69	187.24
417.88	166.18
418.07	105.32
418.26	152.13
418.45	107.66
418.64	135.75
418.83	163.84
419.02	156.82
419.21	140.43
419.39	126.39
419.58	105.32
419.77	105.32
419.96	168.52
420.15	187.24
420.34	170.86
420.53	154.48
420.72	147.45
420.91	102.98
421.10	161.50
421.29	128.73
421.48	135.75
421.67	166.18
421.86	138.09
422.05	110.01
422.24	187.24
422.43	203.63
422.61	145.11
422.80	128.73
422.99	112.35
423.18	112.35
423.37	110.01
423.56	147.45
423.75	168.52
423.94	112.35
424.13	110.01
424.32	149.79
424.50	88.94
424.69	124.05
424.88	210.65
425.07	201.29
425.26	135.75
425.45	175.54
425.64	86.60
425.83	187.24
426.01	159.16
426.20	140.43
426.39	77.24
426.58	241.08
426.77	65.54
426.96	210.65
427.15	175.54
427.33	98.30
427.52	205.97
427.71	74.90
427.90	198.95
428.09	124.05
428.28	98.30
428.46	152.13
428.65	161.50
428.84	184.90
429.03	205.97
429.22	102.98
429.40	121.71
429.59	121.71
429.78	194.26
429.97	140.43
430.16	131.07
430.34	102.98
430.53	135.75
430.72	187.24
430.91	198.95
431.10	170.86
431.28	149.79
431.47	175.54
431.66	184.90
431.85	105.32
432.03	142.77
432.22	182.56
432.41	58.51
432.60	145.11
432.79	149.79
432.97	177.88
433.16	145.11
433.35	49.15
433.54	133.41
433.72	145.11
433.91	201.29
434.10	224.69
434.28	191.92
434.47	161.50
434.66	187.24
434.85	210.65
435.03	229.37
435.22	603.86
435.41	1011.11
435.59	1018.13
435.78	737.27
435.97	407.25
436.16	285.55
436.34	124.05
436.53	182.56
436.72	257.46
436.90	198.95
437.09	227.03
437.28	110.01
437.46	145.11
437.65	95.96
437.84	114.69
438.02	175.54
438.21	236.39
438.40	112.35
438.58	177.88
438.77	138.09
438.96	131.07
439.14	166.18
439.33	142.77
439.52	102.98
439.70	142.77
439.89	191.92
440.08	133.41
440.26	156.82
440.45	147.45
440.63	215.33
440.82	170.86
441.01	142.77
441.19	140.43
441.38	110.01
441.57	154.48
441.75	168.52
441.94	175.54
442.12	152.13
442.31	140.43
442.50	121.71
442.68	100.64
442.87	224.69
443.05	86.60
443.24	88.94
443.43	182.56
443.61	222.35
443.80	212.99
443.98	168.52
444.17	147.45
444.35	170.86
444.54	166.18
444.73	166.18
444.91	198.95
445.10	98.30
445.28	135.75
445.47	142.77
445.65	184.90
445.84	119.37
446.02	166.18
446.21	187.24
446.39	128.73
446.58	138.09
446.77	196.60
446.95	205.97
447.14	175.54
447.32	234.05
447.51	79.58
447.69	159.16
447.88	184.90
448.06	189.58
448.25	154.48
448.43	131.07
448.62	128.73
448.80	191.92
448.99	212.99
449.17	175.54
449.36	224.69
449.54	156.82
449.73	217.67
449.91	191.92
450.10	128.73
450.28	177.88
450.46	191.92
450.65	173.20
450.83	147.45
451.02	124.05
451.20	191.92
451.39	177.88
451.57	156.82
451.76	180.22
451.94	173.20
452.13	121.71
452.31	180.22
452.49	182.56
452.68	159.16
452.86	163.84
453.05	215.33
453.23	194.26
453.42	124.05
453.60	166.18
453.78	180.22
453.97	114.69
454.15	145.11
454.34	189.58
454.52	208.31
454.70	184.90
454.89	161.50
455.07	229.37
455.26	229.37
455.44	208.31
455.62	154.48
455.81	217.67
455.99	175.54
456.17	168.52
456.36	168.52
456.54	121.71
456.73	198.95
456.91	142.77
457.09	152.13
457.28	39.79
457.46	166.18
457.64	187.24
457.83	128.73
458.01	128.73
458.19	184.90
458.38	147.45
458.56	205.97
458.74	182.56
458.93	161.50
459.11	198.95
459.29	124.05
459.48	166.18
459.66	222.35
459.84	180.22
460.03	255.12
460.21	229.37
460.39	147.45
460.57	222.35
460.76	180.22
460.94	227.03
461.12	173.20
461.31	203.63
461.49	215.33
461.67	187.24
461.85	154.48
462.04	145.11
462.22	606.20
462.40	196.60
462.59	168.52
462.77	229.37
462.95	159.16
463.13	142.77
463.32	203.63
463.50	203.63
463.68	229.37
463.86	117.03
464.05	203.63
464.23	198.95
464.41	182.56
464.59	135.75
464.78	107.66
464.96	140.43
465.14	152.13
465.32	196.60
465.50	231.71
465.69	140.43
465.87	117.03
466.05	210.65
466.23	203.63
466.41	212.99
466.60	156.82
466.78	212.99
466.96	227.03
467.14	175.54
467.32	138.09
467.51	191.92
467.69	175.54
467.87	231.71
468.05	166.18
468.23	198.95
468.41	191.92
468.60	163.84
468.78	163.84
468.96	170.86
469.14	187.24
469.32	107.66
469.50	177.88
469.69	53.83
469.87	142.77
470.05	140.43
470.23	182.56
470.41	154.48
470.59	119.37
470.77	189.58
470.95	203.63
471.14	259.80
471.32	177.88
471.50	194.26
471.68	154.48
471.86	154.48
472.04	133.41
472.22	227.03
472.40	95.96
472.58	161.50
472.77	117.03
472.95	189.58
473.13	241.08
473.31	285.55
473.49	201.29
473.67	255.12
473.85	159.16
474.03	142.77
474.21	131.07
474.39	161.50
474.57	301.93
474.75	145.11
474.93	196.60
475.12	224.69
475.30	189.58
475.48	180.22
475.66	182.56
475.84	201.29
476.02	131.07
476.20	280.86
476.38	152.13
476.56	271.50
476.74	131.07
476.92	210.65
477.10	166.18
477.28	271.50
477.46	145.11
477.64	203.63
477.82	142.77
478.00	189.58
478.18	170.86
478.36	210.65
478.54	201.29
478.72	231.71
478.90	173.20
479.08	180.22
479.26	117.03
479.44	166.18
479.62	152.13
479.80	128.73
479.98	149.79
480.16	149.79
480.34	126.39
480.52	191.92
480.70	198.95
480.88	107.66
481.06	187.24
481.24	163.84
481.41	107.66
481.59	189.58
481.77	227.03
481.95	259.80
482.13	292.57
482.31	224.69
482.49	217.67
482.67	196.60
482.85	292.57
483.03	203.63
483.21	149.79
483.39	180.22
483.57	215.33
483.74	208.31
483.92	196.60
484.10	210.65
484.28	238.73
484.46	262.14
484.64	243.42
484.82	292.57
485.00	245.76
485.18	224.69
485.35	234.05
485.53	262.14
485.71	320.65
485.89	287.89
486.07	255.12
486.25	421.30
486.43	339.38
486.61	362.78
486.78	304.27
486.96	269.16
487.14	344.06
487.32	358.10
487.50	271.50
487.68	292.57
487.85	294.91
488.03	271.50
488.21	313.63
488.39	264.48
488.57	250.44
488.75	269.16
488.92	528.96
489.10	287.89
489.28	266.82
489.46	222.35
489.64	322.99
489.81	257.46
489.99	280.86
490.17	344.06
490.35	414.27
490.53	264.48
490.70	353.42
490.88	299.59
491.06	241.08
491.24	280.86
491.41	306.61
491.59	306.61
491.77	250.44
491.95	266.82
492.13	297.25
492.30	283.20
492.48	271.50
492.66	311.29
492.84	231.71
493.01	278.52
493.19	243.42
493.37	358.10
493.54	245.76
493.72	220.01
493.90	278.52
494.08	250.44
494.25	315.97
494.43	283.20
494.61	243.42
494.79	205.97
494.96	220.01
495.14	341.72
495.32	238.73
495.49	227.03
495.67	248.10
495.85	191.92
496.02	248.10
496.20	259.80
496.38	381.51
496.55	283.20
496.73	330.02
496.91	191.92
497.09	198.95
497.26	210.65
497.44	299.59
497.62	234.05
497.79	229.37
497.97	257.46
498.14	255.12
498.32	285.55
498.50	297.25
498.67	205.97
498.85	243.42
499.03	196.60
499.20	301.93
499.38	231.71
499.56	180.22
499.73	205.97
499.91	269.16
500.08	243.42
500.26	212.99
500.44	198.95
500.61	257.46
500.79	292.57
500.97	250.44
501.14	257.46
501.32	297.25
501.49	236.39
501.67	215.33
501.84	262.14
502.02	266.82
502.20	280.86
502.37	285.55
502.55	180.22
502.72	243.42
502.90	203.63
503.07	201.29
503.25	166.18
503.43	248.10
503.60	196.60
503.78	222.35
503.95	262.14
504.13	191.92
504.30	252.78
504.48	262.14
504.65	287.89
504.83	220.01
505.01	278.52
505.18	285.55
505.36	285.55
505.53	248.10
505.71	255.12
505.88	255.12
506.06	280.86
506.23	294.91
506.41	241.08
506.58	231.71
506.76	203.63
506.93	212.99
507.11	212.99
507.28	182.56
507.46	262.14
507.63	170.86
507.81	262.14
507.98	215.33
508.16	210.65
508.33	177.88
508.50	227.03
508.68	238.73
508.85	285.55
509.03	264.48
509.20	264.48
509.38	269.16
509.55	196.60
509.73	262.14
509.90	250.44
510.08	163.84
510.25	271.50
510.42	229.37
510.60	250.44
510.77	229.37
510.95	236.39
511.12	184.90
511.30	280.86
511.47	212.99
511.64	252.78
511.82	161.50
511.99	224.69
512.17	149.79
512.34	180.22
512.51	191.92
512.69	210.65
512.86	257.46
513.04	189.58
513.21	248.10
513.38	273.84
513.56	308.95
513.73	217.67
513.90	168.52
514.08	236.39
514.25	238.73
514.43	299.59
514.60	222.35
514.77	276.18
514.95	243.42
515.12	236.39
515.29	217.67
515.47	269.16
515.64	231.71
515.81	205.97
515.99	290.23
516.16	194.26
516.33	229.37
516.51	194.26
516.68	175.54
516.85	168.52
517.03	177.88
517.20	210.65
517.37	203.63
517.54	236.39
517.72	198.95
517.89	173.20
518.06	205.97
518.24	264.48
518.41	278.52
518.58	250.44
518.75	145.11
518.93	222.35
519.10	243.42
519.27	227.03
519.45	243.42
519.62	208.31
519.79	212.99
519.96	224.69
520.14	241.08
520.31	250.44
520.48	234.05
520.65	248.10
520.83	285.55
521.00	231.71
521.17	224.69
521.34	212.99
521.52	252.78
521.69	245.76
521.86	229.37
522.03	283.20
522.20	304.27
522.38	229.37
522.55	266.82
522.72	180.22
522.89	236.39
523.07	257.46
523.24	229.37
523.41	266.82
523.58	269.16
523.75	271.50
523.92	241.08
524.10	241.08
524.27	252.78
524.44	241.08
524.61	308.95
524.78	236.39
524.96	241.08
525.13	227.03
525.30	245.76
525.47	205.97
525.64	187.24
525.81	245.76
525.98	252.78
526.16	236.39
526.33	194.26
526.50	231.71
526.67	147.45
526.84	170.86
527.01	100.64
527.18	264.48
527.36	234.05
527.53	229.37
527.70	301.93
527.87	250.44
528.04	322.99
528.21	241.08
528.38	252.78
528.55	234.05
528.72	315.97
528.89	315.97
529.07	290.23
529.24	224.69
529.41	280.86
529.58	276.18
529.75	318.31
529.92	182.56
530.09	273.84
530.26	269.16
530.43	283.20
530.60	278.52
530.77	269.16
530.94	276.18
531.11	236.39
531.28	271.50
531.46	266.82
531.63	224.69
531.80	285.55
531.97	278.52
532.14	236.39
532.31	250.44
532.48	294.91
532.65	241.08
532.82	266.82
532.99	280.86
533.16	313.63
533.33	287.89
533.50	325.33
533.67	304.27
533.84	325.33
534.01	238.73
534.18	259.80
534.35	271.50
534.52	294.91
534.69	351.08
534.86	273.84
535.03	201.29
535.20	245.76
535.37	238.73
535.54	250.44
535.71	280.86
535.88	287.89
536.05	344.06
536.22	304.27
536.38	227.03
536.55	238.73
536.72	393.21
536.89	304.27
537.06	381.51
537.23	301.93
537.40	390.87
537.57	365.12
537.74	428.32
537.91	395.55
538.08	428.32
538.25	374.49
538.42	355.76
538.59	346.40
538.75	374.49
538.92	425.98
539.09	355.76
539.26	402.57
539.43	486.83
539.60	643.65
539.77	573.43
539.94	615.56
540.11	655.35
540.28	650.67
540.44	690.46
540.61	739.61
540.78	744.29
540.95	863.66
541.12	1048.56
541.29	1104.73
541.46	1170.27
541.62	1142.18
541.79	1055.58
541.96	1149.20
542.13	1032.18
542.30	1015.79
542.47	1018.13
542.63	1022.81
542.80	1025.15
542.97	950.26
543.14	971.32
543.31	1006.43
543.48	1015.79
543.64	973.66
543.81	980.68
543.98	954.94
544.15	994.73
544.32	968.98
544.48	889.40
544.65	910.47
544.82	915.15
544.99	926.85
545.16	964.30
545.32	891.74
545.49	1465.18
545.66	2298.41
545.83	2677.57
546.00	2300.75
546.16	1706.25
546.33	1317.72
546.50	999.41
546.67	851.96
546.83	777.06
547.00	664.71
547.17	716.20
547.34	657.69
547.50	683.44
547.67	709.18
547.84	564.07
548.00	671.73
548.17	547.69
548.34	648.33
548.51	613.22
548.67	638.97
548.84	496.19
549.01	573.43
549.18	573.43
549.34	566.41
549.51	564.07
549.68	559.39
549.84	414.27
550.01	472.79
550.18	606.20
550.34	531.30
550.51	435.34
550.68	477.47
550.84	493.85
551.01	344.06
551.18	393.21
551.34	407.25
551.51	388.53
551.68	386.19
551.84	416.62
552.01	400.23
552.18	337.04
552.34	360.44
552.51	367.46
552.68	360.44
552.84	315.97
553.01	325.33
553.18	390.87
553.34	290.23
553.51	402.57
553.67	299.59
553.84	433.00
554.01	369.80
554.17	330.02
554.34	315.97
554.51	327.68
554.67	390.87
554.84	353.42
555.00	327.68
555.17	301.93
555.33	301.93
555.50	306.61
555.67	271.50
555.83	238.73
556.00	262.14
556.16	421.30
556.33	163.84
556.50	252.78
556.66	210.65
556.83	297.25
556.99	306.61
557.16	248.10
557.32	283.20
557.49	276.18
557.65	212.99
557.82	222.35
557.98	297.25
558.15	203.63
558.32	224.69
558.48	243.42
558.65	252.78
558.81	266.82
558.98	196.60
559.14	287.89
559.31	276.18
559.47	297.25
559.64	285.55
559.80	220.01
559.97	252.78
560.13	196.60
560.30	210.65
560.46	283.20
560.63	217.67
560.79	245.76
560.96	208.31
561.12	229.37
561.29	227.03
561.45	212.99
561.61	175.54
561.78	327.68
561.94	262.14
562.11	201.29
562.27	262.14
562.44	224.69
562.60	287.89
562.77	294.91
562.93	285.55
563.10	238.73
563.26	269.16
563.42	271.50
563.59	208.31
563.75	248.10
563.92	278.52
564.08	287.89
564.24	241.08
564.41	278.52
564.57	175.54
564.74	210.65
564.90	273.84
565.07	220.01
565.23	215.33
565.39	189.58
565.56	285.55
565.72	280.86
565.88	210.65
566.05	196.60
566.21	187.24
566.38	245.76
566.54	196.60
566.70	294.91
566.87	196.60
567.03	259.80
567.19	262.14
567.36	252.78
567.52	252.78
567.68	238.73
567.85	285.55
568.01	229.37
568.17	234.05
568.34	224.69
568.50	285.55
568.66	170.86
568.83	334.70
568.99	238.73
569.15	306.61
569.32	175.54
569.48	182.56
569.64	191.92
569.81	337.04
569.97	173.20
570.13	294.91
570.30	210.65
570.46	191.92
570.62	269.16
570.78	205.97
570.95	252.78
571.11	299.59
571.27	194.26
571.43	220.01
571.60	266.82
571.76	245.76
571.92	273.84
572.09	229.37
572.25	124.05
572.41	243.42
572.57	220.01
572.74	379.17
572.90	208.31
573.06	208.31
573.22	276.18
573.38	243.42
573.55	236.39
573.71	285.55
573.87	332.36
574.03	250.44
574.20	243.42
574.36	217.67
574.52	266.82
574.68	292.57
574.84	257.46
575.01	224.69
575.17	222.35
575.33	166.18
575.49	227.03
575.65	301.93
575.82	301.93
575.98	290.23
576.14	259.80
576.30	355.76
576.46	526.62
576.62	645.99
576.79	690.46
576.95	547.69
577.11	421.30
577.27	381.51
577.43	299.59
577.59	276.18
577.75	198.95
577.92	168.52
578.08	161.50
578.24	271.50
578.40	344.06
578.56	463.43
578.72	589.82
578.88	629.60
579.04	468.11
579.21	479.81
579.37	400.23
579.53	365.12
579.69	322.99
579.85	313.63
580.01	315.97
580.17	318.31
580.33	393.21
580.49	273.84
580.65	376.83
580.82	306.61
580.98	315.97
581.14	271.50
581.30	280.86
581.46	358.10
581.62	416.62
581.78	311.29
581.94	332.36
582.10	393.21
582.26	393.21
582.42	308.95
582.58	327.68
582.74	395.55
582.90	393.21
583.06	411.93
583.22	421.30
583.38	400.23
583.54	484.49
583.70	381.51
583.86	383.85
584.02	458.74
584.18	365.12
584.34	379.17
584.50	414.27
584.66	365.12
584.82	414.27
584.98	334.70
585.14	386.19
585.30	257.46
585.46	334.70
585.62	416.62
585.78	393.21
585.94	421.30
586.10	358.10
586.26	383.85
586.42	447.04
586.58	409.59
586.74	430.66
586.90	477.47
587.06	557.05
587.22	559.39
587.38	447.04
587.54	470.45
587.70	404.91
587.86	433.00
588.02	411.93
588.18	386.19
588.34	313.63
588.49	294.91
588.65	372.15
588.81	318.31
588.97	308.95
589.13	241.08
589.29	205.97
589.45	322.99
589.61	369.80
589.77	322.99
589.93	301.93
590.08	311.29
590.24	257.46
590.40	297.25
590.56	245.76
590.72	315.97
590.88	271.50
591.04	353.42
591.20	332.36
591.35	404.91
591.51	344.06
591.67	355.76
591.83	290.23
591.99	273.84
592.15	294.91
592.31	386.19
592.46	440.02
592.62	369.80
592.78	458.74
592.94	430.66
593.10	425.98
593.26	402.57
593.41	477.47
593.57	365.12
593.73	278.52
593.89	351.08
594.05	292.57
594.20	257.46
594.36	308.95
594.52	299.59
594.68	212.99
594.84	332.36
594.99	306.61
595.15	269.16
595.31	250.44
595.47	315.97
595.62	264.48
595.78	290.23
595.94	332.36
596.10	203.63
596.25	224.69
596.41	292.57
596.57	262.14
596.73	292.57
596.88	259.80
597.04	236.39
597.20	245.76
597.36	255.12
597.51	227.03
597.67	301.93
597.83	299.59
597.99	351.08
598.14	301.93
598.30	381.51
598.46	355.76
598.61	369.80
598.77	360.44
598.93	341.72
599.09	322.99
599.24	297.25
599.40	388.53
599.56	320.65
599.71	311.29
599.87	243.42
600.03	337.04
600.18	297.25
600.34	315.97
600.50	248.10
600.65	266.82
600.81	365.12
600.97	283.20
601.12	290.23
601.28	252.78
601.44	271.50
601.59	243.42
601.75	297.25
601.91	290.23
602.06	241.08
602.22	337.04
602.37	264.48
602.53	297.25
602.69	205.97
602.84	280.86
603.00	287.89
603.16	283.20
603.31	287.89
603.47	306.61
603.62	245.76
603.78	252.78
603.94	231.71
604.09	220.01
604.25	241.08
604.40	259.80
604.56	299.59
604.71	355.76
604.87	142.77
605.03	224.69
605.18	292.57
605.34	250.44
605.49	245.76
605.65	290.23
605.80	229.37
605.96	231.71
606.12	313.63
606.27	287.89
606.43	278.52
606.58	304.27
606.74	278.52
606.89	304.27
607.05	313.63
607.20	252.78
607.36	341.72
607.51	374.49
607.67	306.61
607.82	327.68
607.98	369.80
608.13	332.36
608.29	341.72
608.44	404.91
608.60	360.44
608.75	402.57
608.91	500.87
609.06	507.90
609.22	528.96
609.37	512.58
609.53	561.73
609.68	561.73
609.84	692.80
609.99	692.80
610.15	819.19
610.30	1083.67
610.46	1186.65
610.61	1570.50
610.76	1851.36
610.92	2179.04
611.07	2387.35
611.23	2586.29
611.38	2340.54
