SpectraSuite Data File
++++++++++++++++++++++++++++++++++++
Date: Fri Oct 04 11:41:59 GMT-05:00 2013
User: price-jones
Dark Spectrum Present: No
Reference Spectrum Present: No
Number of Sampled Component Spectra: 1
Spectrometers: USB2+H05261
Integration Time (usec): 100000 (USB2+H05261)
Spectra Averaged: 1 (USB2+H05261)
Boxcar Smoothing: 0 (USB2+H05261)
Correct for Electrical Dark: No (USB2+H05261)
Strobe/Lamp Enabled: No (USB2+H05261)
Correct for Detector Non-linearity: No (USB2+H05261)
Correct for Stray Light: No (USB2+H05261)
Number of Pixels in Processed Spectrum: 2048
>>>>>Begin Processed Spectral Data<<<<<
365.73	51.49
365.92	51.49
366.12	51.49
366.32	0.00
366.52	0.00
366.72	4.68
366.91	0.00
367.11	0.00
367.31	0.00
367.51	0.00
367.70	0.00
367.90	0.00
368.10	0.00
368.30	0.00
368.49	0.00
368.69	0.00
368.89	0.00
369.09	0.00
369.28	0.00
369.48	0.00
369.68	0.00
369.87	0.00
370.07	25.75
370.27	30.43
370.47	4.68
370.66	32.77
370.86	79.58
371.06	128.73
371.25	65.54
371.45	77.24
371.65	37.45
371.84	77.24
372.04	51.49
372.24	105.32
372.44	161.50
372.63	91.28
372.83	128.73
373.03	114.69
373.22	156.82
373.42	196.60
373.62	131.07
373.81	131.07
374.01	102.98
374.21	121.71
374.40	114.69
374.60	182.56
374.79	140.43
374.99	114.69
375.19	140.43
375.38	91.28
375.58	161.50
375.78	170.86
375.97	203.63
376.17	166.18
376.37	105.32
376.56	234.05
376.76	187.24
376.95	131.07
377.15	182.56
377.35	112.35
377.54	133.41
377.74	128.73
377.93	110.01
378.13	145.11
378.33	100.64
378.52	191.92
378.72	117.03
378.91	154.48
379.11	79.58
379.31	79.58
379.50	121.71
379.70	203.63
379.89	187.24
380.09	138.09
380.28	124.05
380.48	124.05
380.68	112.35
380.87	114.69
381.07	91.28
381.26	180.22
381.46	142.77
381.65	98.30
381.85	16.38
382.04	93.62
382.24	88.94
382.43	98.30
382.63	145.11
382.83	84.26
383.02	163.84
383.22	241.08
383.41	166.18
383.61	117.03
383.80	58.51
384.00	154.48
384.19	156.82
384.39	131.07
384.58	124.05
384.78	32.77
384.97	67.88
385.17	100.64
385.36	147.45
385.56	170.86
385.75	91.28
385.95	91.28
386.14	161.50
386.34	121.71
386.53	180.22
386.72	102.98
386.92	161.50
387.11	147.45
387.31	135.75
387.50	152.13
387.70	100.64
387.89	152.13
388.09	133.41
388.28	63.19
388.48	98.30
388.67	177.88
388.86	170.86
389.06	161.50
389.25	84.26
389.45	177.88
389.64	135.75
389.84	100.64
390.03	177.88
390.22	177.88
390.42	102.98
390.61	173.20
390.81	86.60
391.00	128.73
391.19	156.82
391.39	102.98
391.58	128.73
391.78	147.45
391.97	58.51
392.16	98.30
392.36	173.20
392.55	177.88
392.75	138.09
392.94	145.11
393.13	124.05
393.33	149.79
393.52	124.05
393.71	196.60
393.91	121.71
394.10	70.22
394.29	131.07
394.49	81.92
394.68	166.18
394.88	138.09
395.07	107.66
395.26	84.26
395.46	114.69
395.65	100.64
395.84	149.79
396.04	156.82
396.23	65.54
396.42	119.37
396.62	163.84
396.81	128.73
397.00	81.92
397.19	145.11
397.39	105.32
397.58	126.39
397.77	98.30
397.97	149.79
398.16	149.79
398.35	161.50
398.55	133.41
398.74	166.18
398.93	128.73
399.12	170.86
399.32	170.86
399.51	152.13
399.70	138.09
399.90	154.48
400.09	117.03
400.28	217.67
400.47	198.95
400.67	198.95
400.86	163.84
401.05	166.18
401.24	126.39
401.44	187.24
401.63	140.43
401.82	159.16
402.01	149.79
402.21	194.26
402.40	159.16
402.59	222.35
402.78	189.58
402.97	234.05
403.17	215.33
403.36	168.52
403.55	341.72
403.74	643.65
403.93	2052.65
404.13	4966.62
404.32	7314.17
404.51	6427.11
404.70	4011.68
404.89	1563.48
405.09	440.02
405.28	358.10
405.47	224.69
405.66	198.95
405.85	236.39
406.05	170.86
406.24	201.29
406.43	135.75
406.62	210.65
406.81	257.46
407.00	383.85
407.20	641.31
407.39	905.79
407.58	1121.12
407.77	678.76
407.96	421.30
408.15	318.31
408.34	236.39
408.54	177.88
408.73	250.44
408.92	210.65
409.11	159.16
409.30	212.99
409.49	142.77
409.68	187.24
409.87	264.48
410.07	161.50
410.26	170.86
410.45	210.65
410.64	198.95
410.83	220.01
411.02	217.67
411.21	210.65
411.40	222.35
411.59	266.82
411.78	234.05
411.98	212.99
412.17	210.65
412.36	205.97
412.55	180.22
412.74	222.35
412.93	205.97
413.12	241.08
413.31	245.76
413.50	212.99
413.69	201.29
413.88	205.97
414.07	156.82
414.26	215.33
414.45	210.65
414.64	238.73
414.83	236.39
415.02	217.67
415.22	257.46
415.41	198.95
415.60	224.69
415.79	259.80
415.98	388.53
416.17	290.23
416.36	304.27
416.55	273.84
416.74	283.20
416.93	292.57
417.12	208.31
417.31	266.82
417.50	273.84
417.69	280.86
417.88	264.48
418.07	283.20
418.26	262.14
418.45	255.12
418.64	252.78
418.83	280.86
419.02	224.69
419.21	255.12
419.39	278.52
419.58	177.88
419.77	283.20
419.96	332.36
420.15	297.25
420.34	241.08
420.53	322.99
420.72	271.50
420.91	292.57
421.10	292.57
421.29	292.57
421.48	292.57
421.67	304.27
421.86	217.67
422.05	227.03
422.24	234.05
422.43	306.61
422.61	252.78
422.80	273.84
422.99	320.65
423.18	243.42
423.37	327.68
423.56	306.61
423.75	306.61
423.94	276.18
424.13	257.46
424.32	273.84
424.50	259.80
424.69	304.27
424.88	325.33
425.07	320.65
425.26	362.78
425.45	369.80
425.64	330.02
425.83	292.57
426.01	304.27
426.20	301.93
426.39	365.12
426.58	353.42
426.77	388.53
426.96	187.24
427.15	318.31
427.33	407.25
427.52	351.08
427.71	299.59
427.90	339.38
428.09	351.08
428.28	285.55
428.46	250.44
428.65	320.65
428.84	299.59
429.03	386.19
429.22	358.10
429.40	353.42
429.59	339.38
429.78	346.40
429.97	311.29
430.16	409.59
430.34	351.08
430.53	322.99
430.72	379.17
430.91	437.68
431.10	332.36
431.28	395.55
431.47	425.98
431.66	428.32
431.85	362.78
432.03	395.55
432.22	393.21
432.41	423.64
432.60	381.51
432.79	444.70
432.97	510.24
433.16	456.40
433.35	545.34
433.54	624.92
433.72	671.73
433.91	716.20
434.10	692.80
434.28	877.70
434.47	990.05
434.66	1036.86
434.85	1275.59
435.03	3440.59
435.22	12596.76
435.41	29806.72
435.59	33914.36
435.78	22221.05
435.97	10925.62
436.16	4112.32
436.34	1460.49
436.53	933.87
436.72	763.01
436.90	617.90
437.09	624.92
437.28	624.92
437.46	470.45
437.65	484.49
437.84	491.51
438.02	503.22
438.21	510.24
438.40	451.72
438.58	447.04
438.77	414.27
438.96	416.62
439.14	421.30
439.33	479.81
439.52	456.40
439.70	463.43
439.89	477.47
440.08	383.85
440.26	428.32
440.45	514.92
440.63	463.43
440.82	425.98
441.01	400.23
441.19	484.49
441.38	468.11
441.57	496.19
441.75	428.32
441.94	496.19
442.12	447.04
442.31	484.49
442.50	505.56
442.68	470.45
442.87	397.89
443.05	425.98
443.24	512.58
443.43	512.58
443.61	517.26
443.80	404.91
443.98	407.25
444.17	411.93
444.35	538.32
444.54	430.66
444.73	461.09
444.91	477.47
445.10	421.30
445.28	416.62
445.47	477.47
445.65	468.11
445.84	463.43
446.02	461.09
446.21	458.74
446.39	477.47
446.58	489.17
446.77	423.64
446.95	500.87
447.14	458.74
447.32	440.02
447.51	423.64
447.69	435.34
447.88	437.68
448.06	477.47
448.25	458.74
448.43	491.51
448.62	526.62
448.80	372.15
448.99	505.56
449.17	470.45
449.36	430.66
449.54	433.00
449.73	425.98
449.91	418.96
450.10	400.23
450.28	512.58
450.46	512.58
450.65	461.09
450.83	559.39
451.02	447.04
451.20	500.87
451.39	482.15
451.57	503.22
451.76	447.04
451.94	440.02
452.13	491.51
452.31	517.26
452.49	475.13
452.68	428.32
452.86	447.04
453.05	545.34
453.23	440.02
453.42	440.02
453.60	435.34
453.78	491.51
453.97	416.62
454.15	421.30
454.34	482.15
454.52	454.06
454.70	449.38
454.89	517.26
455.07	404.91
455.26	433.00
455.44	505.56
455.62	379.17
455.81	470.45
455.99	428.32
456.17	447.04
456.36	442.36
456.54	437.68
456.73	477.47
456.91	454.06
457.09	540.66
457.28	484.49
457.46	397.89
457.64	386.19
457.83	521.94
458.01	484.49
458.19	407.25
458.38	379.17
458.56	465.77
458.74	486.83
458.93	400.23
459.11	397.89
459.29	372.15
459.48	517.26
459.66	423.64
459.84	470.45
460.03	496.19
460.21	456.40
460.39	393.21
460.57	496.19
460.76	543.00
460.94	477.47
461.12	514.92
461.31	479.81
461.49	486.83
461.67	465.77
461.85	503.22
462.04	463.43
462.22	938.55
462.40	550.03
462.59	475.13
462.77	514.92
462.95	454.06
463.13	423.64
463.32	444.70
463.50	449.38
463.68	458.74
463.86	479.81
464.05	416.62
464.23	477.47
464.41	491.51
464.59	409.59
464.78	514.92
464.96	451.72
465.14	507.90
465.32	355.76
465.50	416.62
465.69	463.43
465.87	407.25
466.05	507.90
466.23	484.49
466.41	521.94
466.60	477.47
466.78	491.51
466.96	416.62
467.14	465.77
467.32	428.32
467.51	526.62
467.69	475.13
467.87	449.38
468.05	442.36
468.23	416.62
468.41	383.85
468.60	440.02
468.78	369.80
468.96	425.98
469.14	348.74
469.32	365.12
469.50	486.83
469.69	423.64
469.87	397.89
470.05	440.02
470.23	348.74
470.41	407.25
470.59	362.78
470.77	372.15
470.95	393.21
471.14	458.74
471.32	404.91
471.50	468.11
471.68	461.09
471.86	435.34
472.04	374.49
472.22	491.51
472.40	390.87
472.58	402.57
472.77	376.83
472.95	428.32
473.13	528.96
473.31	402.57
473.49	486.83
473.67	404.91
473.85	475.13
474.03	491.51
474.21	404.91
474.39	468.11
474.57	358.10
474.75	409.59
474.93	428.32
475.12	362.78
475.30	381.51
475.48	418.96
475.66	482.15
475.84	435.34
476.02	428.32
476.20	393.21
476.38	468.11
476.56	512.58
476.74	423.64
476.92	449.38
477.10	442.36
477.28	411.93
477.46	409.59
477.64	482.15
477.82	397.89
478.00	472.79
478.18	379.17
478.36	430.66
478.54	505.56
478.72	503.22
478.90	503.22
479.08	552.37
479.26	533.64
479.44	568.75
479.62	526.62
479.80	587.47
479.98	580.45
480.16	617.90
480.34	622.58
480.52	603.86
480.70	713.86
480.88	734.93
481.06	753.65
481.24	685.78
481.41	788.76
481.59	814.51
481.77	887.06
481.95	903.45
482.13	1067.28
482.31	1118.78
482.49	1142.18
482.67	1128.14
482.85	1146.86
483.03	1371.55
483.21	1469.86
483.39	1558.80
483.57	1629.01
483.74	1743.70
483.92	1853.70
484.10	1813.92
484.28	1944.99
484.46	2085.42
484.64	2165.00
484.82	2260.96
485.00	2307.77
485.18	2597.99
485.35	2649.49
485.53	2743.11
485.71	2986.52
485.89	3063.76
486.07	3040.36
486.25	3054.40
486.43	3190.15
486.61	3098.87
486.78	3148.02
486.96	3148.02
487.14	3204.19
487.32	3103.55
487.50	3098.87
487.68	3187.81
487.85	3007.59
488.03	3033.33
488.21	3124.62
488.39	3012.27
488.57	2942.05
488.75	2717.36
488.92	2981.84
489.10	2597.99
489.28	2670.55
489.46	2565.23
489.64	2480.97
489.81	2441.18
489.99	2427.14
490.17	2506.71
490.35	2560.55
490.53	2445.86
490.70	2319.47
490.88	2513.74
491.06	2607.36
491.24	2771.19
491.41	2750.13
491.59	2539.48
491.77	2427.14
491.95	2291.38
492.13	2307.77
492.30	2188.40
492.48	2155.63
492.66	2150.95
492.84	1977.75
493.01	2022.22
493.19	2010.52
493.37	2087.76
493.54	1970.73
493.72	1982.43
493.90	2026.90
494.08	1877.11
494.25	1865.41
494.43	1881.79
494.61	1858.39
494.79	1781.15
494.96	1736.68
495.14	1722.63
495.32	1722.63
495.49	1687.53
495.67	1626.67
495.85	1584.54
496.02	1647.74
496.20	1715.61
496.38	1631.35
496.55	1448.79
496.73	1535.39
496.91	1537.73
497.09	1600.93
497.26	1479.22
497.44	1401.98
497.62	1352.83
497.79	1406.66
497.97	1296.66
498.14	1345.81
498.32	1327.08
498.50	1348.15
498.67	1200.69
498.85	1301.34
499.03	1177.29
499.20	1135.16
499.38	1221.76
499.56	1104.73
499.73	1177.29
499.91	1097.71
500.08	1015.79
500.26	1048.56
500.44	1006.43
500.61	950.26
500.79	936.21
500.97	964.30
501.14	898.77
501.32	866.00
501.49	770.04
501.67	765.36
501.84	739.61
502.02	784.08
502.20	770.04
502.37	791.10
502.55	849.61
502.72	683.44
502.90	791.10
503.07	737.27
503.25	720.88
503.43	645.99
503.60	543.00
503.78	622.58
503.95	594.50
504.13	594.50
504.30	603.86
504.48	662.37
504.65	582.79
504.83	528.96
505.01	547.69
505.18	564.07
505.36	545.34
505.53	566.41
505.71	559.39
505.88	603.86
506.06	573.43
506.23	489.17
506.41	552.37
506.58	559.39
506.76	472.79
506.93	484.49
507.11	510.24
507.28	468.11
507.46	440.02
507.63	442.36
507.81	510.24
507.98	519.60
508.16	404.91
508.33	503.22
508.50	531.30
508.68	578.11
508.85	540.66
509.03	486.83
509.20	510.24
509.38	545.34
509.55	538.32
509.73	521.94
509.90	503.22
510.08	540.66
510.25	423.64
510.42	418.96
510.60	435.34
510.77	402.57
510.95	449.38
511.12	465.77
511.30	388.53
511.47	430.66
511.64	512.58
511.82	463.43
511.99	444.70
512.17	407.25
512.34	433.00
512.51	416.62
512.69	379.17
512.86	468.11
513.04	472.79
513.21	484.49
513.38	423.64
513.56	479.81
513.73	421.30
513.90	475.13
514.08	435.34
514.25	414.27
514.43	425.98
514.60	407.25
514.77	362.78
514.95	414.27
515.12	390.87
515.29	435.34
515.47	358.10
515.64	374.49
515.81	433.00
515.99	449.38
516.16	393.21
516.33	376.83
516.51	355.76
516.68	348.74
516.85	435.34
517.03	435.34
517.20	344.06
517.37	393.21
517.54	365.12
517.72	381.51
517.89	311.29
518.06	318.31
518.24	351.08
518.41	444.70
518.58	355.76
518.75	428.32
518.93	313.63
519.10	339.38
519.27	355.76
519.45	416.62
519.62	397.89
519.79	472.79
519.96	362.78
520.14	285.55
520.31	390.87
520.48	311.29
520.65	393.21
520.83	393.21
521.00	381.51
521.17	383.85
521.34	341.72
521.52	337.04
521.69	393.21
521.86	353.42
522.03	379.17
522.20	365.12
522.38	313.63
522.55	358.10
522.72	283.20
522.89	390.87
523.07	386.19
523.24	393.21
523.41	440.02
523.58	360.44
523.75	395.55
523.92	383.85
524.10	435.34
524.27	376.83
524.44	255.12
524.61	376.83
524.78	346.40
524.96	409.59
525.13	353.42
525.30	402.57
525.47	486.83
525.64	428.32
525.81	404.91
525.98	367.46
526.16	397.89
526.33	418.96
526.50	381.51
526.67	376.83
526.84	351.08
527.01	433.00
527.18	479.81
527.36	505.56
527.53	477.47
527.70	496.19
527.87	430.66
528.04	550.03
528.21	458.74
528.38	498.53
528.55	547.69
528.72	603.86
528.89	571.09
529.07	440.02
529.24	479.81
529.41	484.49
529.58	472.79
529.75	477.47
529.92	475.13
530.09	603.86
530.26	533.64
530.43	624.92
530.60	554.71
530.77	526.62
530.94	550.03
531.11	624.92
531.28	599.18
531.46	643.65
531.63	655.35
531.80	615.56
531.97	753.65
532.14	819.19
532.31	919.83
532.48	1004.09
532.65	1242.82
532.82	1341.13
532.99	1633.69
533.16	1820.94
533.33	1982.43
533.50	1771.79
533.67	1575.18
533.84	1355.17
534.01	1212.40
534.18	1118.78
534.35	1111.75
534.52	1186.65
534.69	1177.29
534.86	1093.03
535.03	1254.53
535.20	1345.81
535.37	1338.79
535.54	1460.49
535.71	1514.33
535.88	1617.31
536.05	1593.90
536.22	1750.72
536.38	1998.82
536.55	2090.10
536.72	2420.11
536.89	2616.72
537.06	3002.91
537.23	3239.30
537.40	3655.92
537.57	3843.16
537.74	4014.02
537.91	4145.09
538.08	4280.84
538.25	4329.99
538.42	4337.01
538.59	4629.58
538.75	4652.98
538.92	5029.81
539.09	5385.57
539.26	6015.18
539.43	6677.55
539.60	7456.95
539.77	8734.88
539.94	9652.37
540.11	10651.78
540.28	11578.63
540.44	12676.34
540.61	13818.52
540.78	15873.51
540.95	18963.02
541.12	23227.48
541.29	26326.35
541.46	27543.42
541.62	27503.64
541.79	26274.85
541.96	24126.24
542.13	22553.40
542.30	20903.32
542.47	19613.69
542.63	18625.98
542.80	18078.30
542.97	17748.28
543.14	17507.21
543.31	17439.33
543.48	17855.95
543.64	18178.94
543.81	18387.25
543.98	18459.81
544.15	18108.72
544.32	18555.77
544.48	18328.74
544.65	18090.00
544.82	18473.85
544.99	18150.85
545.16	18523.00
545.32	19658.16
545.49	30960.61
545.66	54803.64
545.83	62199.74
546.00	58028.90
546.16	43922.49
546.33	32402.38
546.50	24453.92
546.67	18845.99
546.83	16837.81
547.00	15948.41
547.17	15229.87
547.34	14527.71
547.50	14015.13
547.67	13118.70
547.84	12732.51
548.00	12402.50
548.17	12060.78
548.34	11407.77
548.51	11197.12
548.67	10373.25
548.84	9937.91
549.01	9359.80
549.18	9345.76
549.34	8954.89
549.51	8552.32
549.68	8145.06
549.84	7810.37
550.01	7382.05
550.18	7133.95
550.34	6820.32
550.51	6700.95
550.68	6216.46
550.84	5792.83
551.01	5518.98
551.18	5203.01
551.34	5149.18
551.51	4819.16
551.68	4540.64
551.84	4596.81
552.01	4397.87
552.18	4163.81
552.34	3843.16
552.51	3803.37
552.68	3541.23
552.84	3478.04
553.01	3393.78
553.18	3272.07
553.34	3176.11
553.51	3145.68
553.67	3028.65
553.84	2960.78
554.01	2633.10
554.17	2530.12
554.34	2443.52
554.51	2275.00
554.67	2129.89
554.84	2015.20
555.00	1853.70
555.17	1795.19
555.33	1743.70
555.50	1722.63
555.67	1577.52
555.83	1497.94
556.00	1441.77
556.16	1612.63
556.33	1327.08
556.50	1359.85
556.66	1334.11
556.83	1186.65
556.99	1226.44
557.16	1163.25
557.32	1259.21
557.49	1137.50
557.65	1156.22
557.82	1025.15
557.98	1022.81
558.15	978.34
558.32	1022.81
558.48	919.83
558.65	903.45
558.81	936.21
558.98	891.74
559.14	898.77
559.31	929.19
559.47	870.68
559.64	798.12
559.80	861.32
559.97	830.89
560.13	835.57
560.30	819.19
560.46	748.97
560.63	798.12
560.79	774.72
560.96	795.78
561.12	800.46
561.29	739.61
561.45	798.12
561.61	833.23
561.78	901.11
561.94	748.97
562.11	889.40
562.27	746.63
562.44	720.88
562.60	791.10
562.77	676.41
562.93	823.87
563.10	758.33
563.26	751.31
563.42	645.99
563.59	683.44
563.75	648.33
563.92	695.14
564.08	592.16
564.24	667.05
564.41	737.27
564.57	681.10
564.74	676.41
564.90	669.39
565.07	662.37
565.23	683.44
565.39	564.07
565.56	608.54
565.72	519.60
565.88	566.41
566.05	540.66
566.21	533.64
566.38	575.77
566.54	650.67
566.70	589.82
566.87	624.92
567.03	608.54
567.19	739.61
567.36	643.65
567.52	596.84
567.68	643.65
567.85	667.05
568.01	557.05
568.17	559.39
568.34	638.97
568.50	770.04
568.66	613.22
568.83	634.29
568.99	599.18
569.15	643.65
569.32	484.49
569.48	519.60
569.64	512.58
569.81	585.13
569.97	463.43
570.13	580.45
570.30	449.38
570.46	475.13
570.62	496.19
570.78	479.81
570.95	442.36
571.11	477.47
571.27	463.43
571.43	447.04
571.60	461.09
571.76	489.17
571.92	428.32
572.09	477.47
572.25	510.24
572.41	454.06
572.57	463.43
572.74	482.15
572.90	461.09
573.06	561.73
573.22	472.79
573.38	477.47
573.55	482.15
573.71	454.06
573.87	547.69
574.03	470.45
574.20	592.16
574.36	531.30
574.52	568.75
574.68	566.41
574.84	580.45
575.01	601.52
575.17	678.76
575.33	662.37
575.49	748.97
575.65	833.23
575.82	905.79
575.98	926.85
576.14	971.32
576.30	1963.71
576.46	6150.93
576.62	12140.36
576.79	13322.33
576.95	9525.98
577.11	6321.79
577.27	4510.21
577.43	3019.29
577.59	2045.63
577.75	1549.43
577.92	1343.47
578.08	1282.61
578.24	1465.18
578.40	2150.95
578.56	6132.20
578.72	10780.51
578.88	12461.01
579.04	9102.34
579.21	6141.57
579.37	4561.70
579.53	3646.55
579.69	3384.41
579.85	4154.45
580.01	4877.68
580.17	4655.33
580.33	4023.38
580.49	3405.48
580.65	3169.09
580.82	2860.13
580.98	2740.77
581.14	2637.78
581.30	2923.33
581.46	3040.36
581.62	3386.76
581.78	3508.46
581.94	3747.20
582.10	4016.36
582.26	4337.01
582.42	4517.23
582.58	4482.13
582.74	4535.96
582.90	4720.86
583.06	4645.96
583.22	4594.47
583.38	4578.09
583.54	4718.52
583.70	4716.18
583.86	4528.94
584.02	4423.61
584.18	4360.42
584.34	4376.80
584.50	4318.29
584.66	4208.28
584.82	4135.73
584.98	4201.26
585.14	4159.13
585.30	3866.56
585.46	3925.08
585.62	3854.86
585.78	3847.84
585.94	3953.16
586.10	3957.85
586.26	4191.90
586.42	4793.42
586.58	5614.95
586.74	7023.95
586.90	8547.64
587.06	9289.59
587.22	9158.52
587.38	8315.92
587.54	7122.25
587.70	6026.88
587.86	5088.32
588.02	4252.75
588.18	3845.50
588.34	3428.88
588.49	3171.43
588.65	2988.86
588.81	2862.48
588.97	2647.15
589.13	2691.62
589.29	2635.44
589.45	2586.29
589.61	2534.80
589.77	2670.55
589.93	2597.99
590.08	2729.06
590.24	2832.05
590.40	2843.75
590.56	2949.08
590.72	2932.69
590.88	2993.55
591.04	3126.96
591.20	3269.73
591.35	3506.12
591.51	3653.58
591.67	3737.84
591.83	4004.66
591.99	4262.12
592.15	4648.30
592.31	5100.03
592.46	5469.83
592.62	6181.35
592.78	6338.17
592.94	6607.33
593.10	6361.58
593.26	6157.95
593.41	5753.04
593.57	5090.67
593.73	4674.05
593.89	4063.17
594.05	3606.77
594.20	3236.96
594.36	3047.38
594.52	2808.64
594.68	2679.91
594.84	2450.54
594.99	2403.73
595.15	2286.70
595.31	2441.18
595.47	2326.49
595.62	2277.34
595.78	2228.19
595.94	2359.26
596.10	2232.87
596.25	2331.17
596.41	2333.51
596.57	2307.77
596.73	2258.62
596.88	2300.75
597.04	2413.09
597.20	2377.98
597.36	2473.95
597.51	2476.29
597.67	2478.63
597.83	2672.89
597.99	2745.45
598.14	2864.82
598.30	3098.87
598.46	3358.67
598.61	3449.95
598.77	3803.37
598.93	3562.30
599.09	3957.85
599.24	3880.61
599.40	3906.35
599.56	3772.94
599.71	3550.59
599.87	3358.67
600.03	3288.45
600.18	3087.17
600.34	2916.31
600.50	2593.31
600.65	2427.14
600.81	2321.81
600.97	2298.41
601.12	2120.53
601.28	2008.18
601.44	1968.39
601.59	1823.28
601.75	1830.30
601.91	1781.15
602.06	1673.48
602.22	1654.76
602.37	1600.93
602.53	1448.79
602.69	1596.25
602.84	1521.35
603.00	1481.56
603.16	1610.29
603.31	1633.69
603.47	1619.65
603.62	1673.48
603.78	1645.40
603.94	1809.23
604.09	1750.72
604.25	1891.15
604.40	1799.87
604.56	1839.66
604.71	1816.26
604.87	1851.36
605.03	1916.90
605.18	1968.39
