SpectraSuite Data File
++++++++++++++++++++++++++++++++++++
Date: Fri Oct 04 11:42:13 GMT-05:00 2013
User: price-jones
Dark Spectrum Present: No
Reference Spectrum Present: No
Number of Sampled Component Spectra: 1
Spectrometers: USB2+H05261
Integration Time (usec): 100000 (USB2+H05261)
Spectra Averaged: 1 (USB2+H05261)
Boxcar Smoothing: 0 (USB2+H05261)
Correct for Electrical Dark: No (USB2+H05261)
Strobe/Lamp Enabled: No (USB2+H05261)
Correct for Detector Non-linearity: No (USB2+H05261)
Correct for Stray Light: No (USB2+H05261)
Number of Pixels in Processed Spectrum: 2048
>>>>>Begin Processed Spectral Data<<<<<
365.73	30.43
365.92	30.43
366.12	30.43
366.32	18.72
366.52	0.00
366.72	0.00
366.91	0.00
367.11	0.00
367.31	0.00
367.51	0.00
367.70	0.00
367.90	16.38
368.10	0.00
368.30	4.68
368.49	0.00
368.69	32.77
368.89	37.45
369.09	0.00
369.28	23.41
369.48	0.00
369.68	0.00
369.87	0.00
370.07	0.00
370.27	23.41
370.47	0.00
370.66	37.45
370.86	67.88
371.06	65.54
371.25	65.54
371.45	112.35
371.65	105.32
371.84	11.70
372.04	44.47
372.24	114.69
372.44	32.77
372.63	84.26
372.83	166.18
373.03	53.83
373.22	74.90
373.42	72.56
373.62	205.97
373.81	149.79
374.01	154.48
374.21	138.09
374.40	180.22
374.60	147.45
374.79	131.07
374.99	147.45
375.19	117.03
375.38	128.73
375.58	126.39
375.78	138.09
375.97	100.64
376.17	152.13
376.37	81.92
376.56	147.45
376.76	161.50
376.95	149.79
377.15	168.52
377.35	77.24
377.54	121.71
377.74	91.28
377.93	203.63
378.13	126.39
378.33	133.41
378.52	72.56
378.72	119.37
378.91	156.82
379.11	51.49
379.31	84.26
379.50	91.28
379.70	114.69
379.89	140.43
380.09	81.92
380.28	23.41
380.48	105.32
380.68	63.19
380.87	42.13
381.07	124.05
381.26	149.79
381.46	177.88
381.65	131.07
381.85	70.22
382.04	112.35
382.24	112.35
382.43	131.07
382.63	44.47
382.83	56.17
383.02	177.88
383.22	149.79
383.41	28.09
383.61	98.30
383.80	51.49
384.00	81.92
384.19	37.45
384.39	95.96
384.58	58.51
384.78	93.62
384.97	163.84
385.17	117.03
385.36	81.92
385.56	65.54
385.75	86.60
385.95	91.28
386.14	198.95
386.34	88.94
386.53	182.56
386.72	72.56
386.92	140.43
387.11	102.98
387.31	163.84
387.50	63.19
387.70	100.64
387.89	110.01
388.09	140.43
388.28	152.13
388.48	98.30
388.67	65.54
388.86	110.01
389.06	112.35
389.25	152.13
389.45	114.69
389.64	93.62
389.84	138.09
390.03	126.39
390.22	117.03
390.42	70.22
390.61	102.98
390.81	93.62
391.00	86.60
391.19	201.29
391.39	84.26
391.58	84.26
391.78	63.19
391.97	102.98
392.16	53.83
392.36	149.79
392.55	93.62
392.75	67.88
392.94	135.75
393.13	88.94
393.33	79.58
393.52	117.03
393.71	107.66
393.91	149.79
394.10	112.35
394.29	79.58
394.49	86.60
394.68	205.97
394.88	142.77
395.07	154.48
395.26	117.03
395.46	128.73
395.65	154.48
395.84	60.85
396.04	112.35
396.23	152.13
396.42	119.37
396.62	93.62
396.81	91.28
397.00	112.35
397.19	72.56
397.39	180.22
397.58	189.58
397.77	65.54
397.97	121.71
398.16	126.39
398.35	168.52
398.55	121.71
398.74	117.03
398.93	102.98
399.12	60.85
399.32	154.48
399.51	72.56
399.70	98.30
399.90	149.79
400.09	205.97
400.28	166.18
400.47	67.88
400.67	88.94
400.86	126.39
401.05	131.07
401.24	140.43
401.44	173.20
401.63	135.75
401.82	208.31
402.01	107.66
402.21	121.71
402.40	124.05
402.59	102.98
402.78	14.04
402.97	140.43
403.17	91.28
403.36	182.56
403.55	88.94
403.74	140.43
403.93	135.75
404.13	297.25
404.32	252.78
404.51	224.69
404.70	248.10
404.89	163.84
405.09	168.52
405.28	128.73
405.47	102.98
405.66	102.98
405.85	166.18
406.05	149.79
406.24	145.11
406.43	166.18
406.62	135.75
406.81	166.18
407.00	154.48
407.20	100.64
407.39	149.79
407.58	149.79
407.77	102.98
407.96	119.37
408.15	149.79
408.34	112.35
408.54	81.92
408.73	65.54
408.92	67.88
409.11	112.35
409.30	142.77
409.49	110.01
409.68	77.24
409.87	128.73
410.07	88.94
410.26	138.09
410.45	175.54
410.64	147.45
410.83	154.48
411.02	93.62
411.21	191.92
411.40	126.39
411.59	67.88
411.78	112.35
411.98	42.13
412.17	72.56
412.36	210.65
412.55	124.05
412.74	60.85
412.93	149.79
413.12	119.37
413.31	100.64
413.50	117.03
413.69	175.54
413.88	208.31
414.07	102.98
414.26	145.11
414.45	154.48
414.64	102.98
414.83	145.11
415.02	133.41
415.22	177.88
415.41	168.52
415.60	147.45
415.79	138.09
415.98	124.05
416.17	100.64
416.36	131.07
416.55	161.50
416.74	154.48
416.93	145.11
417.12	100.64
417.31	173.20
417.50	145.11
417.69	187.24
417.88	124.05
418.07	131.07
418.26	142.77
418.45	191.92
418.64	184.90
418.83	152.13
419.02	156.82
419.21	187.24
419.39	159.16
419.58	105.32
419.77	149.79
419.96	191.92
420.15	170.86
420.34	107.66
420.53	177.88
420.72	187.24
420.91	140.43
421.10	159.16
421.29	145.11
421.48	163.84
421.67	86.60
421.86	142.77
422.05	135.75
422.24	238.73
422.43	156.82
422.61	105.32
422.80	112.35
422.99	154.48
423.18	140.43
423.37	133.41
423.56	163.84
423.75	124.05
423.94	152.13
424.13	224.69
424.32	170.86
424.50	128.73
424.69	173.20
424.88	142.77
425.07	81.92
425.26	234.05
425.45	154.48
425.64	119.37
425.83	166.18
426.01	138.09
426.20	72.56
426.39	182.56
426.58	105.32
426.77	156.82
426.96	166.18
427.15	93.62
427.33	168.52
427.52	161.50
427.71	91.28
427.90	67.88
428.09	112.35
428.28	114.69
428.46	198.95
428.65	128.73
428.84	187.24
429.03	173.20
429.22	79.58
429.40	95.96
429.59	121.71
429.78	180.22
429.97	128.73
430.16	166.18
430.34	201.29
430.53	166.18
430.72	205.97
430.91	152.13
431.10	79.58
431.28	217.67
431.47	205.97
431.66	203.63
431.85	182.56
432.03	147.45
432.22	124.05
432.41	166.18
432.60	189.58
432.79	95.96
432.97	198.95
433.16	189.58
433.35	16.38
433.54	126.39
433.72	255.12
433.91	163.84
434.10	112.35
434.28	184.90
434.47	187.24
434.66	133.41
434.85	217.67
435.03	334.70
435.22	751.31
435.41	1217.08
435.59	1345.81
435.78	1121.12
435.97	568.75
436.16	379.17
436.34	184.90
436.53	154.48
436.72	161.50
436.90	163.84
437.09	156.82
437.28	135.75
437.46	166.18
437.65	173.20
437.84	208.31
438.02	121.71
438.21	196.60
438.40	154.48
438.58	187.24
438.77	159.16
438.96	140.43
439.14	67.88
439.33	154.48
439.52	147.45
439.70	177.88
439.89	189.58
440.08	231.71
440.26	177.88
440.45	203.63
440.63	173.20
440.82	170.86
441.01	177.88
441.19	131.07
441.38	121.71
441.57	152.13
441.75	138.09
441.94	175.54
442.12	142.77
442.31	135.75
442.50	170.86
442.68	191.92
442.87	145.11
443.05	241.08
443.24	138.09
443.43	184.90
443.61	191.92
443.80	138.09
443.98	212.99
444.17	175.54
444.35	163.84
444.54	128.73
444.73	177.88
444.91	210.65
445.10	241.08
445.28	147.45
445.47	135.75
445.65	180.22
445.84	220.01
446.02	154.48
446.21	180.22
446.39	138.09
446.58	184.90
446.77	163.84
446.95	180.22
447.14	182.56
447.32	168.52
447.51	152.13
447.69	166.18
447.88	117.03
448.06	231.71
448.25	217.67
448.43	191.92
448.62	175.54
448.80	168.52
448.99	234.05
449.17	229.37
449.36	117.03
449.54	184.90
449.73	128.73
449.91	231.71
450.10	203.63
450.28	269.16
450.46	234.05
450.65	236.39
450.83	147.45
451.02	140.43
451.20	114.69
451.39	67.88
451.57	182.56
451.76	196.60
451.94	159.16
452.13	175.54
452.31	266.82
452.49	147.45
452.68	175.54
452.86	140.43
453.05	147.45
453.23	173.20
453.42	159.16
453.60	154.48
453.78	198.95
453.97	180.22
454.15	182.56
454.34	187.24
454.52	107.66
454.70	187.24
454.89	215.33
455.07	140.43
455.26	128.73
455.44	142.77
455.62	168.52
455.81	145.11
455.99	175.54
456.17	121.71
456.36	194.26
456.54	86.60
456.73	175.54
456.91	159.16
457.09	133.41
457.28	159.16
457.46	250.44
457.64	229.37
457.83	205.97
458.01	128.73
458.19	236.39
458.38	191.92
458.56	105.32
458.74	203.63
458.93	147.45
459.11	147.45
459.29	170.86
459.48	285.55
459.66	266.82
459.84	201.29
460.03	299.59
460.21	189.58
460.39	152.13
460.57	222.35
460.76	180.22
460.94	189.58
461.12	241.08
461.31	163.84
461.49	180.22
461.67	168.52
461.85	175.54
462.04	147.45
462.22	271.50
462.40	231.71
462.59	156.82
462.77	231.71
462.95	184.90
463.13	210.65
463.32	241.08
463.50	191.92
463.68	215.33
463.86	184.90
464.05	208.31
464.23	187.24
464.41	182.56
464.59	170.86
464.78	196.60
464.96	250.44
465.14	234.05
465.32	187.24
465.50	184.90
465.69	198.95
465.87	91.28
466.05	180.22
466.23	135.75
466.41	189.58
466.60	196.60
466.78	212.99
466.96	177.88
467.14	184.90
467.32	175.54
467.51	163.84
467.69	156.82
467.87	238.73
468.05	184.90
468.23	203.63
468.41	212.99
468.60	191.92
468.78	229.37
468.96	168.52
469.14	147.45
469.32	74.90
469.50	58.51
469.69	105.32
469.87	163.84
470.05	208.31
470.23	201.29
470.41	198.95
470.59	168.52
470.77	234.05
470.95	95.96
471.14	252.78
471.32	142.77
471.50	156.82
471.68	212.99
471.86	236.39
472.04	238.73
472.22	140.43
472.40	210.65
472.58	231.71
472.77	168.52
472.95	152.13
473.13	187.24
473.31	248.10
473.49	135.75
473.67	187.24
473.85	241.08
474.03	189.58
474.21	203.63
474.39	238.73
474.57	210.65
474.75	159.16
474.93	145.11
475.12	220.01
475.30	163.84
475.48	189.58
475.66	159.16
475.84	198.95
476.02	95.96
476.20	198.95
476.38	175.54
476.56	308.95
476.74	196.60
476.92	156.82
477.10	220.01
477.28	234.05
477.46	163.84
477.64	161.50
477.82	212.99
478.00	168.52
478.18	224.69
478.36	248.10
478.54	191.92
478.72	208.31
478.90	131.07
479.08	215.33
479.26	217.67
479.44	194.26
479.62	152.13
479.80	187.24
479.98	128.73
480.16	175.54
480.34	189.58
480.52	180.22
480.70	198.95
480.88	175.54
481.06	175.54
481.24	203.63
481.41	161.50
481.59	224.69
481.77	182.56
481.95	231.71
482.13	227.03
482.31	264.48
482.49	208.31
482.67	255.12
482.85	315.97
483.03	306.61
483.21	306.61
483.39	222.35
483.57	215.33
483.74	301.93
483.92	266.82
484.10	231.71
484.28	234.05
484.46	381.51
484.64	301.93
484.82	330.02
485.00	224.69
485.18	341.72
485.35	262.14
485.53	299.59
485.71	379.17
485.89	248.10
486.07	250.44
486.25	358.10
486.43	374.49
486.61	388.53
486.78	337.04
486.96	348.74
487.14	348.74
487.32	315.97
487.50	395.55
487.68	311.29
487.85	287.89
488.03	379.17
488.21	355.76
488.39	320.65
488.57	379.17
488.75	276.18
488.92	629.60
489.10	355.76
489.28	358.10
489.46	299.59
489.64	266.82
489.81	337.04
489.99	259.80
490.17	358.10
490.35	313.63
490.53	341.72
490.70	341.72
490.88	306.61
491.06	322.99
491.24	367.46
491.41	351.08
491.59	306.61
491.77	341.72
491.95	330.02
492.13	367.46
492.30	304.27
492.48	330.02
492.66	334.70
492.84	297.25
493.01	346.40
493.19	304.27
493.37	311.29
493.54	301.93
493.72	355.76
493.90	294.91
494.08	318.31
494.25	383.85
494.43	248.10
494.61	290.23
494.79	334.70
494.96	262.14
495.14	325.33
495.32	245.76
495.49	269.16
495.67	262.14
495.85	346.40
496.02	287.89
496.20	236.39
496.38	290.23
496.55	341.72
496.73	250.44
496.91	222.35
497.09	306.61
497.26	285.55
497.44	208.31
497.62	292.57
497.79	320.65
497.97	245.76
498.14	259.80
498.32	285.55
498.50	262.14
498.67	273.84
498.85	280.86
499.03	287.89
499.20	227.03
499.38	210.65
499.56	294.91
499.73	294.91
499.91	292.57
500.08	180.22
500.26	255.12
500.44	222.35
500.61	203.63
500.79	248.10
500.97	212.99
501.14	290.23
501.32	299.59
501.49	297.25
501.67	196.60
501.84	255.12
502.02	241.08
502.20	292.57
502.37	259.80
502.55	257.46
502.72	177.88
502.90	287.89
503.07	238.73
503.25	224.69
503.43	238.73
503.60	152.13
503.78	248.10
503.95	283.20
504.13	168.52
504.30	264.48
504.48	243.42
504.65	236.39
504.83	229.37
505.01	241.08
505.18	262.14
505.36	283.20
505.53	252.78
505.71	212.99
505.88	269.16
506.06	173.20
506.23	250.44
506.41	229.37
506.58	210.65
506.76	212.99
506.93	243.42
507.11	227.03
507.28	208.31
507.46	210.65
507.63	248.10
507.81	173.20
507.98	304.27
508.16	280.86
508.33	248.10
508.50	299.59
508.68	224.69
508.85	273.84
509.03	287.89
509.20	138.09
509.38	243.42
509.55	259.80
509.73	252.78
509.90	264.48
510.08	266.82
510.25	264.48
510.42	175.54
510.60	224.69
510.77	241.08
510.95	241.08
511.12	229.37
511.30	236.39
511.47	229.37
511.64	297.25
511.82	182.56
511.99	245.76
512.17	266.82
512.34	173.20
512.51	227.03
512.69	227.03
512.86	208.31
513.04	248.10
513.21	313.63
513.38	339.38
513.56	196.60
513.73	227.03
513.90	205.97
514.08	196.60
514.25	238.73
514.43	201.29
514.60	294.91
514.77	217.67
514.95	294.91
515.12	191.92
515.29	271.50
515.47	201.29
515.64	231.71
515.81	177.88
515.99	269.16
516.16	159.16
516.33	280.86
516.51	292.57
516.68	205.97
516.85	194.26
517.03	227.03
517.20	229.37
517.37	177.88
517.54	220.01
517.72	292.57
517.89	236.39
518.06	229.37
518.24	273.84
518.41	196.60
518.58	280.86
518.75	184.90
518.93	294.91
519.10	241.08
519.27	243.42
519.45	248.10
519.62	163.84
519.79	187.24
519.96	283.20
520.14	330.02
520.31	241.08
520.48	264.48
520.65	250.44
520.83	248.10
521.00	191.92
521.17	252.78
521.34	210.65
521.52	252.78
521.69	245.76
521.86	332.36
522.03	264.48
522.20	262.14
522.38	210.65
522.55	234.05
522.72	283.20
522.89	301.93
523.07	318.31
523.24	187.24
523.41	224.69
523.58	276.18
523.75	318.31
523.92	236.39
524.10	306.61
524.27	276.18
524.44	280.86
524.61	308.95
524.78	248.10
524.96	276.18
525.13	269.16
525.30	374.49
525.47	327.68
525.64	252.78
525.81	308.95
525.98	271.50
526.16	234.05
526.33	271.50
526.50	278.52
526.67	255.12
526.84	154.48
527.01	259.80
527.18	191.92
527.36	243.42
527.53	266.82
527.70	283.20
527.87	257.46
528.04	273.84
528.21	255.12
528.38	367.46
528.55	341.72
528.72	283.20
528.89	297.25
529.07	196.60
529.24	301.93
529.41	271.50
529.58	248.10
529.75	292.57
529.92	273.84
530.09	245.76
530.26	229.37
530.43	259.80
530.60	203.63
530.77	299.59
530.94	327.68
531.11	313.63
531.28	308.95
531.46	184.90
531.63	196.60
531.80	189.58
531.97	257.46
532.14	362.78
532.31	327.68
532.48	334.70
532.65	311.29
532.82	196.60
532.99	252.78
533.16	273.84
533.33	292.57
533.50	304.27
533.67	259.80
533.84	287.89
534.01	248.10
534.18	283.20
534.35	250.44
534.52	276.18
534.69	393.21
534.86	306.61
535.03	273.84
535.20	250.44
535.37	369.80
535.54	271.50
535.71	358.10
535.88	346.40
536.05	358.10
536.22	379.17
536.38	365.12
536.55	337.04
536.72	367.46
536.89	372.15
537.06	386.19
537.23	341.72
537.40	348.74
537.57	397.89
537.74	386.19
537.91	463.43
538.08	496.19
538.25	454.06
538.42	454.06
538.59	477.47
538.75	526.62
538.92	458.74
539.09	571.09
539.26	535.98
539.43	559.39
539.60	617.90
539.77	681.10
539.94	716.20
540.11	706.84
540.28	781.74
540.44	809.83
540.61	870.68
540.78	912.81
540.95	1057.92
541.12	1221.76
541.29	1401.98
541.46	1420.71
541.62	1507.30
541.79	1413.68
541.96	1352.83
542.13	1266.23
542.30	1338.79
542.47	1261.55
542.63	1284.95
542.80	1188.99
542.97	1296.66
543.14	1205.38
543.31	1217.08
543.48	1263.89
543.64	1200.69
543.81	1296.66
543.98	1226.44
544.15	1100.05
544.32	1191.33
544.48	1235.80
544.65	1128.14
544.82	1191.33
544.99	1153.88
545.16	1212.40
545.32	1198.35
545.49	1870.09
545.66	2918.65
545.83	3691.02
546.00	3232.28
546.16	2275.00
546.33	1647.74
546.50	1343.47
546.67	1095.37
546.83	1057.92
547.00	898.77
547.17	922.17
547.34	847.27
547.50	889.40
547.67	880.04
547.84	774.72
548.00	786.42
548.17	725.57
548.34	734.93
548.51	779.40
548.67	844.93
548.84	706.84
549.01	676.41
549.18	671.73
549.34	643.65
549.51	575.77
549.68	624.92
549.84	615.56
550.01	653.01
550.18	667.05
550.34	643.65
550.51	559.39
550.68	599.18
550.84	514.92
551.01	554.71
551.18	512.58
551.34	449.38
551.51	489.17
551.68	435.34
551.84	456.40
552.01	491.51
552.18	493.85
552.34	486.83
552.51	435.34
552.68	421.30
552.84	397.89
553.01	414.27
553.18	416.62
553.34	411.93
553.51	404.91
553.67	355.76
553.84	369.80
554.01	374.49
554.17	397.89
554.34	346.40
554.51	367.46
554.67	341.72
554.84	383.85
555.00	463.43
555.17	386.19
555.33	421.30
555.50	390.87
555.67	395.55
555.83	287.89
556.00	201.29
556.16	484.49
556.33	264.48
556.50	334.70
556.66	299.59
556.83	205.97
556.99	320.65
557.16	304.27
557.32	330.02
557.49	311.29
557.65	278.52
557.82	285.55
557.98	252.78
558.15	215.33
558.32	292.57
558.48	278.52
558.65	262.14
558.81	269.16
558.98	271.50
559.14	248.10
559.31	308.95
559.47	294.91
559.64	339.38
559.80	301.93
559.97	224.69
560.13	351.08
560.30	220.01
560.46	313.63
560.63	273.84
560.79	212.99
560.96	344.06
561.12	229.37
561.29	388.53
561.45	257.46
561.61	236.39
561.78	304.27
561.94	297.25
562.11	308.95
562.27	203.63
562.44	217.67
562.60	222.35
562.77	273.84
562.93	332.36
563.10	231.71
563.26	280.86
563.42	327.68
563.59	217.67
563.75	205.97
563.92	313.63
564.08	315.97
564.24	304.27
564.41	339.38
564.57	217.67
564.74	187.24
564.90	259.80
565.07	308.95
565.23	283.20
565.39	266.82
565.56	229.37
565.72	250.44
565.88	184.90
566.05	243.42
566.21	248.10
566.38	236.39
566.54	266.82
566.70	294.91
566.87	269.16
567.03	255.12
567.19	252.78
567.36	227.03
567.52	278.52
567.68	327.68
567.85	241.08
568.01	224.69
568.17	215.33
568.34	220.01
568.50	344.06
568.66	229.37
568.83	339.38
568.99	236.39
569.15	243.42
569.32	257.46
569.48	283.20
569.64	208.31
569.81	224.69
569.97	175.54
570.13	299.59
570.30	299.59
570.46	250.44
570.62	238.73
570.78	262.14
570.95	236.39
571.11	269.16
571.27	271.50
571.43	196.60
571.60	236.39
571.76	177.88
571.92	156.82
572.09	283.20
572.25	278.52
572.41	294.91
572.57	180.22
572.74	203.63
572.90	320.65
573.06	227.03
573.22	201.29
573.38	290.23
573.55	276.18
573.71	292.57
573.87	234.05
574.03	283.20
574.20	273.84
574.36	290.23
574.52	203.63
574.68	264.48
574.84	315.97
575.01	203.63
575.17	236.39
575.33	217.67
575.49	243.42
575.65	245.76
575.82	330.02
575.98	306.61
576.14	339.38
576.30	311.29
576.46	538.32
576.62	772.38
576.79	826.21
576.95	727.91
577.11	477.47
577.27	411.93
577.43	411.93
577.59	393.21
577.75	304.27
577.92	360.44
578.08	266.82
578.24	243.42
578.40	351.08
578.56	519.60
578.72	711.52
578.88	802.80
579.04	711.52
579.21	470.45
579.37	428.32
579.53	421.30
579.69	526.62
579.85	411.93
580.01	503.22
580.17	374.49
580.33	465.77
580.49	348.74
580.65	379.17
580.82	416.62
580.98	400.23
581.14	454.06
581.30	297.25
581.46	322.99
581.62	442.36
581.78	311.29
581.94	383.85
582.10	437.68
582.26	472.79
582.42	484.49
582.58	411.93
582.74	454.06
582.90	524.28
583.06	482.15
583.22	435.34
583.38	545.34
583.54	418.96
583.70	498.53
583.86	430.66
584.02	510.24
584.18	386.19
584.34	442.36
584.50	470.45
584.66	430.66
584.82	430.66
584.98	498.53
585.14	444.70
585.30	390.87
585.46	390.87
585.62	400.23
585.78	351.08
585.94	383.85
586.10	477.47
586.26	440.02
586.42	526.62
586.58	603.86
586.74	620.24
586.90	615.56
587.06	681.10
587.22	669.39
587.38	655.35
587.54	617.90
587.70	578.11
587.86	552.37
588.02	402.57
588.18	374.49
588.34	430.66
588.49	369.80
588.65	367.46
588.81	397.89
588.97	367.46
589.13	306.61
589.29	299.59
589.45	325.33
589.61	299.59
589.77	339.38
589.93	276.18
590.08	320.65
590.24	365.12
590.40	339.38
590.56	425.98
590.72	337.04
590.88	308.95
591.04	348.74
591.20	334.70
591.35	496.19
591.51	379.17
591.67	372.15
591.83	341.72
591.99	440.02
592.15	479.81
592.31	400.23
592.46	430.66
592.62	489.17
592.78	472.79
592.94	486.83
593.10	533.64
593.26	484.49
593.41	421.30
593.57	547.69
593.73	397.89
593.89	353.42
594.05	379.17
594.20	234.05
594.36	383.85
594.52	386.19
594.68	330.02
594.84	400.23
594.99	362.78
595.15	365.12
595.31	306.61
595.47	287.89
595.62	299.59
595.78	266.82
595.94	283.20
596.10	358.10
596.25	283.20
596.41	386.19
596.57	318.31
596.73	322.99
596.88	313.63
597.04	266.82
597.20	287.89
597.36	313.63
597.51	241.08
597.67	334.70
597.83	322.99
597.99	294.91
598.14	337.04
598.30	379.17
598.46	337.04
598.61	414.27
598.77	400.23
598.93	353.42
599.09	341.72
599.24	388.53
599.40	360.44
599.56	318.31
599.71	285.55
599.87	451.72
600.03	367.46
600.18	337.04
600.34	383.85
600.50	372.15
600.65	400.23
600.81	346.40
600.97	376.83
601.12	372.15
601.28	283.20
601.44	238.73
601.59	327.68
601.75	259.80
601.91	339.38
602.06	264.48
602.22	388.53
602.37	358.10
602.53	248.10
602.69	297.25
602.84	344.06
603.00	346.40
603.16	292.57
603.31	351.08
603.47	393.21
603.62	313.63
603.78	322.99
603.94	337.04
604.09	271.50
604.25	276.18
604.40	304.27
604.56	301.93
604.71	297.25
604.87	322.99
605.03	259.80
605.18	325.33
605.34	245.76
605.49	257.46
605.65	299.59
605.80	299.59
605.96	322.99
606.12	264.48
606.27	355.76
606.43	285.55
606.58	383.85
606.74	334.70
606.89	379.17
607.05	383.85
607.20	397.89
607.36	322.99
607.51	365.12
607.67	393.21
607.82	374.49
607.98	444.70
608.13	451.72
608.29	414.27
608.44	428.32
608.60	456.40
608.75	528.96
608.91	552.37
609.06	507.90
609.22	643.65
609.37	662.37
609.53	669.39
609.68	720.88
609.84	875.36
609.99	863.66
610.15	1055.58
610.30	1263.89
610.46	1570.50
610.61	1863.07
610.76	2331.17
610.92	2839.07
611.07	3222.92
