SpectraSuite Data File
++++++++++++++++++++++++++++++++++++
Date: Fri Oct 04 11:42:01 GMT-05:00 2013
User: price-jones
Dark Spectrum Present: No
Reference Spectrum Present: No
Number of Sampled Component Spectra: 1
Spectrometers: USB2+H05261
Integration Time (usec): 100000 (USB2+H05261)
Spectra Averaged: 1 (USB2+H05261)
Boxcar Smoothing: 0 (USB2+H05261)
Correct for Electrical Dark: No (USB2+H05261)
Strobe/Lamp Enabled: No (USB2+H05261)
Correct for Detector Non-linearity: No (USB2+H05261)
Correct for Stray Light: No (USB2+H05261)
Number of Pixels in Processed Spectrum: 2048
>>>>>Begin Processed Spectral Data<<<<<
365.73	42.13
365.92	42.13
366.12	42.13
366.32	0.00
366.52	0.00
366.72	0.00
366.91	0.00
367.11	0.00
367.31	0.00
367.51	0.00
367.70	0.00
367.90	0.00
368.10	0.00
368.30	0.00
368.49	0.00
368.69	0.00
368.89	0.00
369.09	0.00
369.28	37.45
369.48	0.00
369.68	0.00
369.87	67.88
370.07	0.00
370.27	51.49
370.47	0.00
370.66	44.47
370.86	121.71
371.06	86.60
371.25	107.66
371.45	119.37
371.65	53.83
371.84	84.26
372.04	72.56
372.24	63.19
372.44	42.13
372.63	112.35
372.83	175.54
373.03	42.13
373.22	91.28
373.42	30.43
373.62	149.79
373.81	168.52
374.01	227.03
374.21	131.07
374.40	128.73
374.60	161.50
374.79	100.64
374.99	187.24
375.19	138.09
375.38	135.75
375.58	81.92
375.78	222.35
375.97	126.39
376.17	163.84
376.37	138.09
376.56	98.30
376.76	138.09
376.95	124.05
377.15	163.84
377.35	124.05
377.54	147.45
377.74	53.83
377.93	77.24
378.13	105.32
378.33	170.86
378.52	161.50
378.72	119.37
378.91	215.33
379.11	95.96
379.31	135.75
379.50	107.66
379.70	166.18
379.89	117.03
380.09	117.03
380.28	159.16
380.48	67.88
380.68	74.90
380.87	131.07
381.07	121.71
381.26	100.64
381.46	156.82
381.65	180.22
381.85	170.86
382.04	117.03
382.24	95.96
382.43	60.85
382.63	100.64
382.83	117.03
383.02	60.85
383.22	105.32
383.41	95.96
383.61	91.28
383.80	128.73
384.00	88.94
384.19	119.37
384.39	208.31
384.58	14.04
384.78	124.05
384.97	56.17
385.17	138.09
385.36	98.30
385.56	166.18
385.75	63.19
385.95	121.71
386.14	131.07
386.34	102.98
386.53	138.09
386.72	95.96
386.92	215.33
387.11	156.82
387.31	140.43
387.50	100.64
387.70	95.96
387.89	140.43
388.09	42.13
388.28	133.41
388.48	152.13
388.67	147.45
388.86	124.05
389.06	81.92
389.25	168.52
389.45	177.88
389.64	140.43
389.84	189.58
390.03	187.24
390.22	138.09
390.42	196.60
390.61	95.96
390.81	112.35
391.00	100.64
391.19	175.54
391.39	107.66
391.58	142.77
391.78	173.20
391.97	114.69
392.16	152.13
392.36	217.67
392.55	112.35
392.75	81.92
392.94	84.26
393.13	177.88
393.33	98.30
393.52	51.49
393.71	182.56
393.91	79.58
394.10	156.82
394.29	152.13
394.49	159.16
394.68	149.79
394.88	135.75
395.07	131.07
395.26	110.01
395.46	98.30
395.65	163.84
395.84	177.88
396.04	210.65
396.23	173.20
396.42	187.24
396.62	191.92
396.81	147.45
397.00	187.24
397.19	105.32
397.39	222.35
397.58	81.92
397.77	102.98
397.97	166.18
398.16	170.86
398.35	105.32
398.55	117.03
398.74	121.71
398.93	95.96
399.12	191.92
399.32	138.09
399.51	147.45
399.70	124.05
399.90	77.24
400.09	159.16
400.28	112.35
400.47	154.48
400.67	210.65
400.86	110.01
401.05	166.18
401.24	114.69
401.44	180.22
401.63	149.79
401.82	170.86
402.01	147.45
402.21	110.01
402.40	184.90
402.59	241.08
402.78	175.54
402.97	142.77
403.17	280.86
403.36	220.01
403.55	255.12
403.74	608.54
403.93	1970.73
404.13	4961.94
404.32	7260.34
404.51	6298.38
404.70	3824.44
404.89	1521.35
405.09	428.32
405.28	273.84
405.47	269.16
405.66	177.88
405.85	271.50
406.05	173.20
406.24	222.35
406.43	201.29
406.62	201.29
406.81	273.84
407.00	365.12
407.20	601.52
407.39	971.32
407.58	1022.81
407.77	760.67
407.96	479.81
408.15	194.26
408.34	149.79
408.54	163.84
408.73	203.63
408.92	138.09
409.11	266.82
409.30	175.54
409.49	161.50
409.68	187.24
409.87	231.71
410.07	201.29
410.26	196.60
410.45	161.50
410.64	135.75
410.83	271.50
411.02	182.56
411.21	194.26
411.40	152.13
411.59	152.13
411.78	173.20
411.98	182.56
412.17	220.01
412.36	231.71
412.55	170.86
412.74	234.05
412.93	255.12
413.12	212.99
413.31	222.35
413.50	198.95
413.69	222.35
413.88	250.44
414.07	191.92
414.26	227.03
414.45	248.10
414.64	170.86
414.83	243.42
415.02	306.61
415.22	215.33
415.41	292.57
415.60	159.16
415.79	266.82
415.98	196.60
416.17	262.14
416.36	262.14
416.55	222.35
416.74	245.76
416.93	266.82
417.12	217.67
417.31	255.12
417.50	264.48
417.69	315.97
417.88	264.48
418.07	208.31
418.26	205.97
418.45	278.52
418.64	271.50
418.83	238.73
419.02	243.42
419.21	271.50
419.39	243.42
419.58	255.12
419.77	250.44
419.96	325.33
420.15	283.20
420.34	166.18
420.53	262.14
420.72	278.52
420.91	292.57
421.10	313.63
421.29	294.91
421.48	236.39
421.67	313.63
421.86	255.12
422.05	304.27
422.24	259.80
422.43	271.50
422.61	297.25
422.80	297.25
422.99	299.59
423.18	278.52
423.37	299.59
423.56	266.82
423.75	330.02
423.94	351.08
424.13	299.59
424.32	339.38
424.50	283.20
424.69	276.18
424.88	297.25
425.07	283.20
425.26	299.59
425.45	294.91
425.64	290.23
425.83	313.63
426.01	348.74
426.20	271.50
426.39	313.63
426.58	280.86
426.77	308.95
426.96	297.25
427.15	318.31
427.33	308.95
427.52	220.01
427.71	315.97
427.90	315.97
428.09	311.29
428.28	262.14
428.46	315.97
428.65	315.97
428.84	353.42
429.03	348.74
429.22	346.40
429.40	346.40
429.59	236.39
429.78	411.93
429.97	269.16
430.16	327.68
430.34	365.12
430.53	360.44
430.72	372.15
430.91	379.17
431.10	341.72
431.28	358.10
431.47	465.77
431.66	369.80
431.85	367.46
432.03	470.45
432.22	383.85
432.41	395.55
432.60	468.11
432.79	393.21
432.97	543.00
433.16	498.53
433.35	421.30
433.54	528.96
433.72	657.69
433.91	578.11
434.10	695.14
434.28	795.78
434.47	929.19
434.66	1102.39
434.85	1224.10
435.03	3438.25
435.22	12140.36
435.41	29216.91
435.59	32636.43
435.78	21184.19
435.97	10326.44
436.16	4159.13
436.34	1437.09
436.53	809.83
436.72	713.86
436.90	664.71
437.09	526.62
437.28	585.13
437.46	428.32
437.65	545.34
437.84	489.17
438.02	510.24
438.21	451.72
438.40	500.87
438.58	402.57
438.77	449.38
438.96	514.92
439.14	484.49
439.33	461.09
439.52	475.13
439.70	444.70
439.89	463.43
440.08	454.06
440.26	386.19
440.45	512.58
440.63	456.40
440.82	528.96
441.01	500.87
441.19	489.17
441.38	409.59
441.57	486.83
441.75	390.87
441.94	486.83
442.12	433.00
442.31	451.72
442.50	475.13
442.68	496.19
442.87	449.38
443.05	472.79
443.24	475.13
443.43	489.17
443.61	578.11
443.80	461.09
443.98	428.32
444.17	440.02
444.35	489.17
444.54	388.53
444.73	484.49
444.91	561.73
445.10	404.91
445.28	456.40
445.47	463.43
445.65	400.23
445.84	395.55
446.02	458.74
446.21	472.79
446.39	491.51
446.58	451.72
446.77	390.87
446.95	442.36
447.14	484.49
447.32	496.19
447.51	449.38
447.69	456.40
447.88	475.13
448.06	498.53
448.25	458.74
448.43	449.38
448.62	470.45
448.80	503.22
448.99	484.49
449.17	421.30
449.36	454.06
449.54	416.62
449.73	374.49
449.91	461.09
450.10	416.62
450.28	486.83
450.46	512.58
450.65	423.64
450.83	411.93
451.02	465.77
451.20	498.53
451.39	437.68
451.57	407.25
451.76	449.38
451.94	447.04
452.13	463.43
452.31	444.70
452.49	451.72
452.68	355.76
452.86	421.30
453.05	458.74
453.23	461.09
453.42	379.17
453.60	484.49
453.78	421.30
453.97	362.78
454.15	430.66
454.34	386.19
454.52	463.43
454.70	465.77
454.89	390.87
455.07	430.66
455.26	463.43
455.44	367.46
455.62	475.13
455.81	440.02
455.99	433.00
456.17	454.06
456.36	496.19
456.54	503.22
456.73	475.13
456.91	440.02
457.09	458.74
457.28	498.53
457.46	414.27
457.64	475.13
457.83	369.80
458.01	421.30
458.19	510.24
458.38	425.98
458.56	423.64
458.74	374.49
458.93	430.66
459.11	425.98
459.29	409.59
459.48	456.40
459.66	430.66
459.84	461.09
460.03	486.83
460.21	400.23
460.39	397.89
460.57	435.34
460.76	428.32
460.94	454.06
461.12	454.06
461.31	454.06
461.49	395.55
461.67	451.72
461.85	425.98
462.04	423.64
462.22	936.21
462.40	491.51
462.59	479.81
462.77	421.30
462.95	447.04
463.13	430.66
463.32	500.87
463.50	470.45
463.68	454.06
463.86	456.40
464.05	444.70
464.23	500.87
464.41	519.60
464.59	458.74
464.78	477.47
464.96	353.42
465.14	407.25
465.32	388.53
465.50	402.57
465.69	442.36
465.87	421.30
466.05	402.57
466.23	386.19
466.41	468.11
466.60	440.02
466.78	447.04
466.96	454.06
467.14	463.43
467.32	437.68
467.51	409.59
467.69	435.34
467.87	489.17
468.05	339.38
468.23	397.89
468.41	451.72
468.60	447.04
468.78	332.36
468.96	365.12
469.14	315.97
469.32	365.12
469.50	325.33
469.69	404.91
469.87	433.00
470.05	369.80
470.23	402.57
470.41	449.38
470.59	355.76
470.77	386.19
470.95	402.57
471.14	468.11
471.32	369.80
471.50	447.04
471.68	435.34
471.86	428.32
472.04	362.78
472.22	344.06
472.40	425.98
472.58	365.12
472.77	407.25
472.95	351.08
473.13	484.49
473.31	393.21
473.49	470.45
473.67	372.15
473.85	475.13
474.03	475.13
474.21	470.45
474.39	386.19
474.57	512.58
474.75	423.64
474.93	433.00
475.12	362.78
475.30	430.66
475.48	423.64
475.66	416.62
475.84	493.85
476.02	433.00
476.20	479.81
476.38	454.06
476.56	498.53
476.74	409.59
476.92	433.00
477.10	425.98
477.28	425.98
477.46	400.23
477.64	465.77
477.82	430.66
478.00	552.37
478.18	507.90
478.36	554.71
478.54	543.00
478.72	442.36
478.90	484.49
479.08	564.07
479.26	559.39
479.44	482.15
479.62	500.87
479.80	601.52
479.98	564.07
480.16	526.62
480.34	655.35
480.52	662.37
480.70	662.37
480.88	655.35
481.06	624.92
481.24	812.17
481.41	805.14
481.59	875.36
481.77	830.89
481.95	945.58
482.13	990.05
482.31	973.66
482.49	1041.54
482.67	1158.57
482.85	1284.95
483.03	1308.36
483.21	1313.04
483.39	1523.69
483.57	1554.12
483.74	1563.48
483.92	1710.93
484.10	1767.10
484.28	1923.92
484.46	2047.97
484.64	2148.61
484.82	2186.06
485.00	2331.17
485.18	2614.38
485.35	2637.78
485.53	2747.79
485.71	2928.01
485.89	2979.50
486.07	3087.17
486.25	3061.42
486.43	3126.96
486.61	3000.57
486.78	3091.85
486.96	2981.84
487.14	3150.36
487.32	3112.91
487.50	2967.80
487.68	3070.78
487.85	2984.18
488.03	2834.39
488.21	2906.95
488.39	2925.67
488.57	2803.96
488.75	2708.00
488.92	2920.99
489.10	2541.82
489.28	2670.55
489.46	2497.35
489.64	2464.58
489.81	2487.99
489.99	2464.58
490.17	2218.83
490.35	2342.88
490.53	2333.51
490.70	2354.58
490.88	2431.82
491.06	2443.52
491.24	2548.84
491.41	2684.59
491.59	2572.25
491.77	2349.90
491.95	2310.11
492.13	2022.22
492.30	2160.31
492.48	2228.19
492.66	2183.72
492.84	2258.62
493.01	2001.16
493.19	2012.86
493.37	2076.06
493.54	1907.54
493.72	2008.18
493.90	1853.70
494.08	1877.11
494.25	1905.20
494.43	1867.75
494.61	1708.59
494.79	1863.07
494.96	1715.61
495.14	1799.87
495.32	1727.32
495.49	1703.91
495.67	1643.06
495.85	1621.99
496.02	1572.84
496.20	1598.59
496.38	1530.71
496.55	1547.09
496.73	1500.28
496.91	1493.26
497.09	1425.39
497.26	1453.47
497.44	1366.87
497.62	1357.51
497.79	1401.98
497.97	1345.81
498.14	1359.85
498.32	1317.72
498.50	1249.85
498.67	1249.85
498.85	1160.91
499.03	1057.92
499.20	1090.69
499.38	1086.01
499.56	1095.37
499.73	1123.46
499.91	1067.28
500.08	1163.25
500.26	990.05
500.44	950.26
500.61	1015.79
500.79	868.34
500.97	931.53
501.14	924.51
501.32	976.00
501.49	819.19
501.67	840.25
501.84	763.01
502.02	678.76
502.20	758.33
502.37	685.78
502.55	751.31
502.72	746.63
502.90	732.59
503.07	685.78
503.25	671.73
503.43	657.69
503.60	634.29
503.78	648.33
503.95	720.88
504.13	528.96
504.30	636.63
504.48	568.75
504.65	622.58
504.83	653.01
505.01	519.60
505.18	498.53
505.36	573.43
505.53	557.05
505.71	535.98
505.88	519.60
506.06	538.32
506.23	528.96
506.41	486.83
506.58	528.96
506.76	461.09
506.93	465.77
507.11	425.98
507.28	447.04
507.46	507.90
507.63	482.15
507.81	411.93
507.98	503.22
508.16	465.77
508.33	533.64
508.50	503.22
508.68	545.34
508.85	552.37
509.03	519.60
509.20	437.68
509.38	526.62
509.55	573.43
509.73	433.00
509.90	484.49
510.08	503.22
510.25	437.68
510.42	470.45
510.60	428.32
510.77	437.68
510.95	463.43
511.12	416.62
511.30	517.26
511.47	447.04
511.64	514.92
511.82	505.56
511.99	461.09
512.17	425.98
512.34	416.62
512.51	416.62
512.69	491.51
512.86	425.98
513.04	383.85
513.21	493.85
513.38	388.53
513.56	465.77
513.73	390.87
513.90	400.23
514.08	414.27
514.25	407.25
514.43	360.44
514.60	388.53
514.77	360.44
514.95	383.85
515.12	304.27
515.29	451.72
515.47	386.19
515.64	395.55
515.81	367.46
515.99	390.87
516.16	416.62
516.33	428.32
516.51	376.83
516.68	348.74
516.85	395.55
517.03	379.17
517.20	407.25
517.37	353.42
517.54	351.08
517.72	283.20
517.89	217.67
518.06	383.85
518.24	416.62
518.41	383.85
518.58	454.06
518.75	390.87
518.93	355.76
519.10	330.02
519.27	355.76
519.45	390.87
519.62	456.40
519.79	407.25
519.96	330.02
520.14	475.13
520.31	449.38
520.48	390.87
520.65	376.83
520.83	348.74
521.00	358.10
521.17	395.55
521.34	383.85
521.52	341.72
521.69	379.17
521.86	367.46
522.03	344.06
522.20	430.66
522.38	334.70
522.55	320.65
522.72	365.12
522.89	407.25
523.07	322.99
523.24	475.13
523.41	383.85
523.58	381.51
523.75	407.25
523.92	425.98
524.10	489.17
524.27	381.51
524.44	320.65
524.61	449.38
524.78	351.08
524.96	344.06
525.13	402.57
525.30	407.25
525.47	433.00
525.64	376.83
525.81	381.51
525.98	407.25
526.16	388.53
526.33	397.89
526.50	369.80
526.67	414.27
526.84	404.91
527.01	407.25
527.18	470.45
527.36	425.98
527.53	477.47
527.70	578.11
527.87	557.05
528.04	512.58
528.21	407.25
528.38	433.00
528.55	491.51
528.72	517.26
528.89	442.36
529.07	498.53
529.24	540.66
529.41	486.83
529.58	430.66
529.75	447.04
529.92	521.94
530.09	482.15
530.26	540.66
530.43	503.22
530.60	564.07
530.77	608.54
530.94	582.79
531.11	498.53
531.28	561.73
531.46	674.07
531.63	674.07
531.80	601.52
531.97	760.67
532.14	823.87
532.31	929.19
532.48	1060.26
532.65	1252.19
532.82	1404.32
532.99	1586.88
533.16	1846.68
533.33	1898.17
533.50	1888.81
533.67	1554.12
533.84	1392.62
534.01	1270.91
534.18	1100.05
534.35	1196.01
534.52	1055.58
534.69	1118.78
534.86	1196.01
535.03	1217.08
535.20	1256.87
535.37	1331.76
535.54	1448.79
535.71	1451.13
535.88	1561.14
536.05	1629.01
536.22	1713.27
536.38	2003.50
536.55	2134.57
536.72	2368.62
536.89	2590.97
537.06	2855.45
537.23	3206.53
537.40	3445.27
537.57	3815.07
537.74	3896.99
537.91	4093.60
538.08	4053.81
538.25	4292.54
538.42	4219.99
538.59	4423.61
538.75	4517.23
538.92	4891.72
539.09	5359.83
539.26	5942.62
539.43	6572.22
539.60	7379.71
539.77	8327.63
539.94	9418.32
540.11	10211.76
540.28	11147.97
540.44	12243.34
540.61	13474.46
540.78	15379.66
540.95	19058.98
541.12	22422.33
541.29	25755.26
541.46	26717.22
541.62	26703.17
541.79	25495.46
541.96	23681.54
542.13	21638.25
542.30	20676.29
542.47	19381.98
542.63	18043.19
542.80	17837.22
542.97	17514.23
543.14	17345.71
543.31	17586.79
543.48	17774.03
543.64	18087.66
543.81	17750.62
543.98	17865.31
544.15	18132.13
544.32	18090.00
544.48	17987.02
544.65	17788.07
544.82	17921.48
544.99	17781.05
545.16	18097.02
545.32	19077.71
545.49	30532.29
545.66	54080.42
545.83	60903.08
546.00	56559.05
546.16	41958.78
546.33	31182.96
546.50	23073.00
546.67	18216.39
546.83	16439.92
547.00	15480.30
547.17	14787.50
547.34	14164.92
547.50	13640.64
547.67	13139.77
547.84	12365.05
548.00	12255.04
548.17	11822.05
548.34	11105.84
548.51	10885.83
548.67	10260.91
548.84	9778.76
549.01	9172.56
549.18	8912.76
549.34	8500.83
549.51	8154.43
549.68	7976.55
549.84	7548.23
550.01	7302.47
550.18	6937.35
550.34	6712.66
550.51	6272.64
550.68	5994.11
550.84	5767.08
551.01	5434.72
551.18	5179.61
551.34	4873.00
551.51	4795.76
551.68	4421.27
551.84	4540.64
552.01	4177.86
552.18	4133.39
552.34	3847.84
552.51	3653.58
552.68	3508.46
552.84	3398.46
553.01	3192.49
553.18	3190.15
553.34	3091.85
553.51	2932.69
553.67	2822.69
553.84	2839.07
554.01	2628.42
554.17	2576.93
554.34	2225.85
554.51	2188.40
554.67	2031.58
554.84	1970.73
555.00	1832.64
555.17	1755.40
555.33	1638.38
555.50	1537.73
555.67	1483.90
555.83	1640.72
556.00	1409.00
556.16	1446.45
556.33	1308.36
556.50	1284.95
556.66	1275.59
556.83	1233.46
556.99	1128.14
557.16	1043.88
557.32	1184.31
557.49	1100.05
557.65	1109.41
557.82	1071.97
557.98	1025.15
558.15	947.92
558.32	922.17
558.48	926.85
558.65	830.89
558.81	992.39
558.98	947.92
559.14	870.68
559.31	877.70
559.47	774.72
559.64	828.55
559.80	828.55
559.97	786.42
560.13	791.10
560.30	793.44
560.46	788.76
560.63	737.27
560.79	763.01
560.96	784.08
561.12	779.40
561.29	828.55
561.45	795.78
561.61	837.91
561.78	840.25
561.94	805.14
562.11	744.29
562.27	798.12
562.44	781.74
562.60	781.74
562.77	744.29
562.93	770.04
563.10	760.67
563.26	723.23
563.42	758.33
563.59	702.16
563.75	676.41
563.92	648.33
564.08	695.14
564.24	622.58
564.41	678.76
564.57	695.14
564.74	671.73
564.90	713.86
565.07	690.46
565.23	641.31
565.39	547.69
565.56	755.99
565.72	697.48
565.88	566.41
566.05	596.84
566.21	538.32
566.38	641.31
566.54	667.05
566.70	695.14
566.87	580.45
567.03	627.26
567.19	505.56
567.36	568.75
567.52	634.29
567.68	643.65
567.85	578.11
568.01	631.94
568.17	627.26
568.34	575.77
568.50	697.48
568.66	697.48
568.83	683.44
568.99	566.41
569.15	606.20
569.32	594.50
569.48	578.11
569.64	440.02
569.81	561.73
569.97	465.77
570.13	526.62
570.30	540.66
570.46	510.24
570.62	493.85
570.78	510.24
570.95	456.40
571.11	491.51
571.27	491.51
571.43	451.72
571.60	381.51
571.76	456.40
571.92	482.15
572.09	437.68
572.25	451.72
572.41	503.22
572.57	475.13
572.74	524.28
572.90	500.87
573.06	547.69
573.22	585.13
573.38	470.45
573.55	510.24
573.71	531.30
573.87	559.39
574.03	526.62
574.20	559.39
574.36	624.92
574.52	601.52
574.68	557.05
574.84	554.71
575.01	578.11
575.17	727.91
575.33	784.08
575.49	767.70
575.65	725.57
575.82	807.48
575.98	931.53
576.14	964.30
576.30	1982.43
576.46	6434.13
576.62	11932.05
576.79	12865.92
576.95	9219.37
577.11	6195.40
577.27	4250.41
577.43	2902.26
577.59	1966.05
577.75	1420.71
577.92	1294.32
578.08	1331.76
578.24	1357.51
578.40	2282.02
578.56	6001.13
578.72	10782.85
578.88	12058.44
579.04	9055.53
579.21	5909.85
579.37	4545.32
579.53	3463.99
579.69	3379.73
579.85	3955.51
580.01	4713.84
580.17	4542.98
580.33	3859.54
580.49	3344.63
580.65	2888.22
580.82	2876.52
580.98	2607.36
581.14	2633.10
581.30	2808.64
581.46	3026.31
581.62	3192.49
581.78	3363.35
581.94	3698.05
582.10	3932.10
582.26	4210.62
582.42	4421.27
582.58	4620.22
582.74	4528.94
582.90	4704.48
583.06	4603.83
583.22	4676.39
583.38	4582.77
583.54	4704.48
583.70	4482.13
583.86	4519.57
584.02	4292.54
584.18	4318.29
584.34	4346.37
584.50	4093.60
584.66	4117.00
584.82	4091.26
584.98	4058.49
585.14	3981.25
585.30	3901.67
585.46	3889.97
585.62	3777.62
585.78	3801.03
585.94	3892.31
586.10	3955.51
586.26	4109.98
586.42	4514.89
586.58	5383.23
586.74	6691.59
586.90	8051.44
587.06	8940.85
587.22	8760.63
587.38	8025.70
587.54	6658.82
587.70	5755.38
587.86	4978.32
588.02	4456.38
588.18	3786.99
588.34	3344.63
588.49	3150.36
588.65	2841.41
588.81	2745.45
588.97	2717.36
589.13	2612.04
589.29	2541.82
589.45	2597.99
589.61	2520.76
589.77	2640.12
589.93	2595.65
590.08	2602.68
590.24	2736.09
590.40	2935.03
590.56	2984.18
590.72	2888.22
590.88	2967.80
591.04	3091.85
591.20	3105.89
591.35	3276.75
591.51	3431.23
591.67	3674.64
591.83	3999.98
591.99	4231.69
592.15	4561.70
592.31	4865.97
592.46	5284.93
592.62	5767.08
592.78	6305.40
592.94	6408.39
593.10	6246.89
593.26	6143.91
593.41	5453.45
593.57	5097.69
593.73	4360.42
593.89	4039.76
594.05	3456.97
594.20	3115.25
594.36	2988.86
594.52	2708.00
594.68	2670.55
594.84	2527.78
594.99	2499.69
595.15	2403.73
595.31	2312.45
595.47	2354.58
595.62	2263.30
595.78	2275.00
595.94	2228.19
596.10	2242.23
596.25	2197.76
596.41	2314.79
596.57	2174.36
596.73	2235.21
596.88	2239.89
597.04	2263.30
597.20	2195.42
597.36	2387.35
597.51	2340.54
597.67	2473.95
597.83	2593.31
597.99	2644.81
598.14	3016.95
598.30	3194.83
598.46	3213.56
598.61	3548.25
598.77	3545.91
598.93	3646.55
599.09	3698.05
599.24	3878.27
599.40	3840.82
599.56	3693.37
599.71	3562.30
599.87	3346.97
600.03	3211.22
600.18	2888.22
600.34	2738.43
600.50	2490.33
600.65	2300.75
600.81	2279.68
600.97	2160.31
601.12	2150.95
601.28	1942.64
601.44	1907.54
601.59	1750.72
601.75	1762.42
601.91	1720.29
602.06	1621.99
602.22	1781.15
602.37	1680.50
602.53	1535.39
602.69	1610.29
602.84	1575.18
603.00	1617.31
603.16	1549.43
603.31	1593.90
603.47	1584.54
603.62	1540.07
603.78	1664.12
603.94	1746.04
604.09	1748.38
604.25	1739.02
604.40	1863.07
604.56	1842.00
604.71	1720.29
604.87	1748.38
605.03	1753.06
605.18	1825.62
605.34	1900.52
