SpectraSuite Data File
++++++++++++++++++++++++++++++++++++
Date: Fri Oct 04 11:41:48 GMT-05:00 2013
User: price-jones
Dark Spectrum Present: No
Reference Spectrum Present: No
Number of Sampled Component Spectra: 1
Spectrometers: USB2+H05261
Integration Time (usec): 100000 (USB2+H05261)
Spectra Averaged: 1 (USB2+H05261)
Boxcar Smoothing: 0 (USB2+H05261)
Correct for Electrical Dark: No (USB2+H05261)
Strobe/Lamp Enabled: No (USB2+H05261)
Correct for Detector Non-linearity: No (USB2+H05261)
Correct for Stray Light: No (USB2+H05261)
Number of Pixels in Processed Spectrum: 2048
>>>>>Begin Processed Spectral Data<<<<<
365.73	91.28
365.92	91.28
366.12	91.28
366.32	0.00
366.52	0.00
366.72	0.00
366.91	0.00
367.11	0.00
367.31	0.00
367.51	0.00
367.70	0.00
367.90	0.00
368.10	0.00
368.30	0.00
368.49	0.00
368.69	0.00
368.89	0.00
369.09	0.00
369.28	0.00
369.48	0.00
369.68	0.00
369.87	7.02
370.07	14.04
370.27	14.04
370.47	60.85
370.66	51.49
370.86	70.22
371.06	98.30
371.25	74.90
371.45	42.13
371.65	77.24
371.84	74.90
372.04	84.26
372.24	84.26
372.44	14.04
372.63	95.96
372.83	100.64
373.03	98.30
373.22	114.69
373.42	98.30
373.62	107.66
373.81	142.77
374.01	105.32
374.21	138.09
374.40	163.84
374.60	135.75
374.79	126.39
374.99	194.26
375.19	88.94
375.38	124.05
375.58	142.77
375.78	124.05
375.97	114.69
376.17	163.84
376.37	154.48
376.56	117.03
376.76	98.30
376.95	84.26
377.15	114.69
377.35	100.64
377.54	121.71
377.74	58.51
377.93	138.09
378.13	175.54
378.33	131.07
378.52	77.24
378.72	147.45
378.91	201.29
379.11	107.66
379.31	142.77
379.50	102.98
379.70	168.52
379.89	126.39
380.09	149.79
380.28	95.96
380.48	140.43
380.68	138.09
380.87	107.66
381.07	149.79
381.26	112.35
381.46	184.90
381.65	175.54
381.85	91.28
382.04	95.96
382.24	74.90
382.43	149.79
382.63	112.35
382.83	114.69
383.02	142.77
383.22	142.77
383.41	128.73
383.61	46.81
383.80	107.66
384.00	175.54
384.19	159.16
384.39	86.60
384.58	168.52
384.78	138.09
384.97	128.73
385.17	91.28
385.36	84.26
385.56	60.85
385.75	124.05
385.95	93.62
386.14	187.24
386.34	126.39
386.53	126.39
386.72	149.79
386.92	198.95
387.11	135.75
387.31	182.56
387.50	105.32
387.70	102.98
387.89	53.83
388.09	88.94
388.28	81.92
388.48	208.31
388.67	86.60
388.86	46.81
389.06	93.62
389.25	128.73
389.45	44.47
389.64	107.66
389.84	107.66
390.03	114.69
390.22	81.92
390.42	189.58
390.61	147.45
390.81	138.09
391.00	173.20
391.19	201.29
391.39	74.90
391.58	201.29
391.78	86.60
391.97	117.03
392.16	187.24
392.36	201.29
392.55	229.37
392.75	147.45
392.94	131.07
393.13	184.90
393.33	163.84
393.52	114.69
393.71	152.13
393.91	105.32
394.10	126.39
394.29	18.72
394.49	133.41
394.68	140.43
394.88	180.22
395.07	72.56
395.26	177.88
395.46	203.63
395.65	159.16
395.84	131.07
396.04	182.56
396.23	142.77
396.42	147.45
396.62	112.35
396.81	93.62
397.00	135.75
397.19	170.86
397.39	131.07
397.58	187.24
397.77	140.43
397.97	95.96
398.16	140.43
398.35	159.16
398.55	159.16
398.74	177.88
398.93	177.88
399.12	131.07
399.32	156.82
399.51	131.07
399.70	135.75
399.90	175.54
400.09	180.22
400.28	217.67
400.47	170.86
400.67	191.92
400.86	140.43
401.05	145.11
401.24	210.65
401.44	189.58
401.63	177.88
401.82	222.35
402.01	182.56
402.21	173.20
402.40	212.99
402.59	252.78
402.78	184.90
402.97	234.05
403.17	191.92
403.36	182.56
403.55	311.29
403.74	706.84
403.93	2289.04
404.13	5708.57
404.32	9001.70
404.51	8903.40
404.70	5689.84
404.89	2054.99
405.09	610.88
405.28	334.70
405.47	208.31
405.66	276.18
405.85	248.10
406.05	173.20
406.24	135.75
406.43	145.11
406.62	250.44
406.81	311.29
407.00	367.46
407.20	702.16
407.39	1172.61
407.58	1352.83
407.77	1025.15
407.96	540.66
408.15	287.89
408.34	201.29
408.54	220.01
408.73	271.50
408.92	205.97
409.11	224.69
409.30	236.39
409.49	182.56
409.68	201.29
409.87	234.05
410.07	248.10
410.26	250.44
410.45	220.01
410.64	220.01
410.83	306.61
411.02	252.78
411.21	236.39
411.40	245.76
411.59	210.65
411.78	236.39
411.98	220.01
412.17	241.08
412.36	224.69
412.55	229.37
412.74	250.44
412.93	273.84
413.12	250.44
413.31	283.20
413.50	217.67
413.69	266.82
413.88	259.80
414.07	255.12
414.26	194.26
414.45	236.39
414.64	245.76
414.83	341.72
415.02	191.92
415.22	283.20
415.41	294.91
415.60	210.65
415.79	248.10
415.98	301.93
416.17	292.57
416.36	205.97
416.55	276.18
416.74	322.99
416.93	325.33
417.12	278.52
417.31	257.46
417.50	320.65
417.69	332.36
417.88	308.95
418.07	358.10
418.26	351.08
418.45	234.05
418.64	341.72
418.83	313.63
419.02	266.82
419.21	285.55
419.39	283.20
419.58	280.86
419.77	255.12
419.96	306.61
420.15	400.23
420.34	311.29
420.53	308.95
420.72	262.14
420.91	369.80
421.10	308.95
421.29	294.91
421.48	313.63
421.67	358.10
421.86	344.06
422.05	332.36
422.24	386.19
422.43	355.76
422.61	271.50
422.80	257.46
422.99	386.19
423.18	341.72
423.37	374.49
423.56	325.33
423.75	360.44
423.94	332.36
424.13	325.33
424.32	386.19
424.50	374.49
424.69	344.06
424.88	388.53
425.07	337.04
425.26	395.55
425.45	411.93
425.64	402.57
425.83	383.85
426.01	423.64
426.20	372.15
426.39	407.25
426.58	369.80
426.77	379.17
426.96	348.74
427.15	360.44
427.33	454.06
427.52	388.53
427.71	435.34
427.90	470.45
428.09	330.02
428.28	358.10
428.46	374.49
428.65	482.15
428.84	372.15
429.03	428.32
429.22	409.59
429.40	341.72
429.59	313.63
429.78	465.77
429.97	423.64
430.16	421.30
430.34	416.62
430.53	461.09
430.72	440.02
430.91	423.64
431.10	479.81
431.28	463.43
431.47	519.60
431.66	510.24
431.85	440.02
432.03	475.13
432.22	561.73
432.41	573.43
432.60	545.34
432.79	421.30
432.97	580.45
433.16	650.67
433.35	732.59
433.54	730.25
433.72	821.53
433.91	751.31
434.10	816.85
434.28	966.64
434.47	1247.51
434.66	1366.87
434.85	1607.95
435.03	3918.06
435.22	13996.40
435.41	35519.97
435.59	46412.82
435.78	31864.05
435.97	14958.36
436.16	5647.71
436.34	1900.52
436.53	1088.35
436.72	898.77
436.90	697.48
437.09	730.25
437.28	671.73
437.46	645.99
437.65	697.48
437.84	702.16
438.02	599.18
438.21	566.41
438.40	613.22
438.58	524.28
438.77	599.18
438.96	674.07
439.14	486.83
439.33	543.00
439.52	540.66
439.70	552.37
439.89	580.45
440.08	564.07
440.26	571.09
440.45	578.11
440.63	528.96
440.82	524.28
441.01	491.51
441.19	526.62
441.38	547.69
441.57	561.73
441.75	606.20
441.94	531.30
442.12	629.60
442.31	552.37
442.50	543.00
442.68	477.47
442.87	603.86
443.05	582.79
443.24	599.18
443.43	683.44
443.61	587.47
443.80	615.56
443.98	554.71
444.17	557.05
444.35	550.03
444.54	582.79
444.73	578.11
444.91	667.05
445.10	566.41
445.28	545.34
445.47	505.56
445.65	503.22
445.84	561.73
446.02	538.32
446.21	552.37
446.39	594.50
446.58	521.94
446.77	463.43
446.95	475.13
447.14	608.54
447.32	531.30
447.51	603.86
447.69	552.37
447.88	503.22
448.06	582.79
448.25	461.09
448.43	463.43
448.62	587.47
448.80	447.04
448.99	533.64
449.17	514.92
449.36	512.58
449.54	561.73
449.73	514.92
449.91	575.77
450.10	543.00
450.28	622.58
450.46	552.37
450.65	615.56
450.83	521.94
451.02	489.17
451.20	552.37
451.39	557.05
451.57	561.73
451.76	571.09
451.94	477.47
452.13	500.87
452.31	538.32
452.49	550.03
452.68	568.75
452.86	517.26
453.05	587.47
453.23	594.50
453.42	528.96
453.60	533.64
453.78	514.92
453.97	440.02
454.15	500.87
454.34	484.49
454.52	533.64
454.70	528.96
454.89	585.13
455.07	552.37
455.26	561.73
455.44	524.28
455.62	545.34
455.81	521.94
455.99	486.83
456.17	524.28
456.36	540.66
456.54	496.19
456.73	552.37
456.91	564.07
457.09	559.39
457.28	568.75
457.46	664.71
457.64	564.07
457.83	526.62
458.01	512.58
458.19	493.85
458.38	524.28
458.56	528.96
458.74	486.83
458.93	531.30
459.11	543.00
459.29	519.60
459.48	493.85
459.66	547.69
459.84	573.43
460.03	564.07
460.21	526.62
460.39	484.49
460.57	596.84
460.76	528.96
460.94	582.79
461.12	603.86
461.31	580.45
461.49	489.17
461.67	475.13
461.85	552.37
462.04	484.49
462.22	1004.09
462.40	552.37
462.59	531.30
462.77	491.51
462.95	543.00
463.13	486.83
463.32	524.28
463.50	451.72
463.68	517.26
463.86	472.79
464.05	491.51
464.23	533.64
464.41	510.24
464.59	535.98
464.78	543.00
464.96	575.77
465.14	463.43
465.32	465.77
465.50	510.24
465.69	578.11
465.87	472.79
466.05	524.28
466.23	482.15
466.41	440.02
466.60	479.81
466.78	510.24
466.96	580.45
467.14	624.92
467.32	589.82
467.51	603.86
467.69	545.34
467.87	489.17
468.05	472.79
468.23	519.60
468.41	545.34
468.60	564.07
468.78	465.77
468.96	496.19
469.14	491.51
469.32	411.93
469.50	423.64
469.69	451.72
469.87	512.58
470.05	463.43
470.23	493.85
470.41	430.66
470.59	521.94
470.77	456.40
470.95	463.43
471.14	547.69
471.32	559.39
471.50	479.81
471.68	444.70
471.86	505.56
472.04	465.77
472.22	472.79
472.40	496.19
472.58	388.53
472.77	582.79
472.95	505.56
473.13	566.41
473.31	507.90
473.49	496.19
473.67	503.22
473.85	482.15
474.03	493.85
474.21	472.79
474.39	498.53
474.57	498.53
474.75	535.98
474.93	514.92
475.12	456.40
475.30	440.02
475.48	470.45
475.66	514.92
475.84	491.51
476.02	484.49
476.20	477.47
476.38	526.62
476.56	631.94
476.74	505.56
476.92	468.11
477.10	547.69
477.28	468.11
477.46	547.69
477.64	531.30
477.82	500.87
478.00	535.98
478.18	585.13
478.36	571.09
478.54	629.60
478.72	615.56
478.90	613.22
479.08	706.84
479.26	645.99
479.44	711.52
479.62	676.41
479.80	667.05
479.98	699.82
480.16	692.80
480.34	821.53
480.52	767.70
480.70	807.48
480.88	802.80
481.06	917.49
481.24	884.72
481.41	964.30
481.59	1102.39
481.77	1036.86
481.95	1193.67
482.13	1193.67
482.31	1294.32
482.49	1280.27
482.67	1394.96
482.85	1540.07
483.03	1734.34
483.21	1717.95
483.39	1942.64
483.57	1998.82
483.74	2167.34
483.92	2256.28
484.10	2377.98
484.28	2555.86
484.46	2637.78
484.64	2778.22
484.82	2911.63
485.00	3047.38
485.18	3293.13
485.35	3391.44
485.53	3660.60
485.71	3779.97
485.89	3885.29
486.07	4100.62
486.25	4063.17
486.43	4095.94
486.61	4112.32
486.78	4126.36
486.96	4046.79
487.14	4117.00
487.32	4081.89
487.50	3981.25
487.68	3990.61
487.85	3920.40
488.03	3850.18
488.21	3772.94
488.39	3824.44
488.57	3564.64
488.75	3559.95
488.92	3819.75
489.10	3482.72
489.28	3389.10
489.46	3358.67
489.64	3115.25
489.81	3164.40
489.99	3119.93
490.17	3162.06
490.35	3075.46
490.53	3103.55
490.70	3052.06
490.88	3068.44
491.06	3157.38
491.24	3328.24
491.41	3574.00
491.59	3241.64
491.77	3021.63
491.95	2995.89
492.13	2754.81
492.30	2768.85
492.48	2766.51
492.66	2682.25
492.84	2633.10
493.01	2623.74
493.19	2614.38
493.37	2525.44
493.54	2595.65
493.72	2450.54
493.90	2349.90
494.08	2485.65
494.25	2499.69
494.43	2387.35
494.61	2211.81
494.79	2277.34
494.96	2207.13
495.14	2209.47
495.32	2174.36
495.49	2118.18
495.67	2047.97
495.85	2106.48
496.02	2010.52
496.20	1970.73
496.38	1863.07
496.55	1944.99
496.73	1893.49
496.91	1778.81
497.09	1863.07
497.26	1811.57
497.44	1743.70
497.62	1722.63
497.79	1743.70
497.97	1612.63
498.14	1612.63
498.32	1629.01
498.50	1643.06
498.67	1509.65
498.85	1446.45
499.03	1308.36
499.20	1437.09
499.38	1296.66
499.56	1352.83
499.73	1348.15
499.91	1280.27
500.08	1427.73
500.26	1322.40
500.44	1214.74
500.61	1214.74
500.79	1067.28
500.97	1111.75
501.14	1022.81
501.32	1025.15
501.49	1128.14
501.67	924.51
501.84	957.28
502.02	863.66
502.20	873.02
502.37	875.36
502.55	908.13
502.72	945.58
502.90	884.72
503.07	823.87
503.25	798.12
503.43	777.06
503.60	758.33
503.78	760.67
503.95	779.40
504.13	711.52
504.30	692.80
504.48	657.69
504.65	688.12
504.83	734.93
505.01	645.99
505.18	755.99
505.36	606.20
505.53	645.99
505.71	580.45
505.88	699.82
506.06	554.71
506.23	531.30
506.41	582.79
506.58	606.20
506.76	573.43
506.93	559.39
507.11	524.28
507.28	526.62
507.46	489.17
507.63	573.43
507.81	552.37
507.98	507.90
508.16	608.54
508.33	543.00
508.50	531.30
508.68	535.98
508.85	603.86
509.03	580.45
509.20	554.71
509.38	594.50
509.55	552.37
509.73	533.64
509.90	524.28
510.08	454.06
510.25	559.39
510.42	493.85
510.60	512.58
510.77	486.83
510.95	545.34
511.12	468.11
511.30	575.77
511.47	465.77
511.64	596.84
511.82	524.28
511.99	463.43
512.17	521.94
512.34	468.11
512.51	510.24
512.69	491.51
512.86	519.60
513.04	449.38
513.21	482.15
513.38	472.79
513.56	418.96
513.73	512.58
513.90	402.57
514.08	423.64
514.25	519.60
514.43	379.17
514.60	458.74
514.77	433.00
514.95	397.89
515.12	477.47
515.29	418.96
515.47	421.30
515.64	411.93
515.81	428.32
515.99	505.56
516.16	486.83
516.33	449.38
516.51	475.13
516.68	545.34
516.85	456.40
517.03	437.68
517.20	433.00
517.37	433.00
517.54	407.25
517.72	393.21
517.89	315.97
518.06	372.15
518.24	526.62
518.41	437.68
518.58	411.93
518.75	421.30
518.93	322.99
519.10	372.15
519.27	360.44
519.45	421.30
519.62	362.78
519.79	402.57
519.96	428.32
520.14	418.96
520.31	482.15
520.48	521.94
520.65	456.40
520.83	404.91
521.00	425.98
521.17	421.30
521.34	344.06
521.52	313.63
521.69	390.87
521.86	365.12
522.03	334.70
522.20	365.12
522.38	369.80
522.55	386.19
522.72	351.08
522.89	362.78
523.07	489.17
523.24	311.29
523.41	390.87
523.58	430.66
523.75	423.64
523.92	365.12
524.10	433.00
524.27	435.34
524.44	538.32
524.61	430.66
524.78	428.32
524.96	470.45
525.13	376.83
525.30	430.66
525.47	411.93
525.64	449.38
525.81	519.60
525.98	425.98
526.16	383.85
526.33	407.25
526.50	444.70
526.67	416.62
526.84	491.51
527.01	503.22
527.18	510.24
527.36	573.43
527.53	564.07
527.70	587.47
527.87	463.43
528.04	573.43
528.21	535.98
528.38	507.90
528.55	524.28
528.72	543.00
528.89	596.84
529.07	503.22
529.24	573.43
529.41	596.84
529.58	517.26
529.75	589.82
529.92	557.05
530.09	594.50
530.26	629.60
530.43	620.24
530.60	580.45
530.77	716.20
530.94	702.16
531.11	697.48
531.28	664.71
531.46	683.44
531.63	725.57
531.80	844.93
531.97	779.40
532.14	954.94
532.31	1142.18
532.48	1322.40
532.65	1514.33
532.82	1636.03
532.99	2057.33
533.16	2326.49
533.33	2464.58
533.50	2345.22
533.67	1921.58
533.84	1659.44
534.01	1568.16
534.18	1327.08
534.35	1390.28
534.52	1240.48
534.69	1481.56
534.86	1401.98
535.03	1516.67
535.20	1598.59
535.37	1755.40
535.54	1694.55
535.71	1858.39
535.88	1987.11
536.05	1998.82
536.22	2298.41
536.38	2326.49
536.55	2724.38
536.72	2871.84
536.89	3243.98
537.06	3641.87
537.23	4203.60
537.40	4442.34
537.57	4734.90
537.74	4950.23
537.91	5310.68
538.08	5376.21
538.25	5488.56
538.42	5565.79
538.59	5734.31
538.75	5837.30
538.92	6160.29
539.09	6815.64
539.26	7494.40
539.43	8470.40
539.60	9486.19
539.77	10754.76
539.94	12023.33
540.11	13715.54
540.28	14801.55
540.44	16308.85
540.61	17858.29
540.78	20685.65
540.95	24713.72
541.12	29708.42
541.29	33413.49
541.46	36055.95
541.62	36037.23
541.79	34309.91
541.96	32208.11
542.13	29750.55
542.30	27159.58
542.47	25411.20
542.63	24346.25
542.80	23482.59
542.97	22815.54
543.14	22745.33
543.31	22609.58
543.48	23295.35
543.64	23487.28
543.81	23721.33
543.98	23866.44
544.15	23981.13
544.32	23777.50
544.48	23700.26
544.65	23510.68
544.82	23508.34
544.99	23379.61
545.16	24002.19
545.32	24669.25
545.49	36835.35
545.66	58911.28
545.83	65535.00
546.00	65535.00
546.16	55215.58
546.33	41647.49
546.50	31536.38
546.67	24676.27
546.83	22015.08
547.00	20950.14
547.17	19473.26
547.34	18794.50
547.50	18394.27
547.67	17369.12
547.84	16610.78
548.00	16081.82
548.17	15461.58
548.34	14963.04
548.51	14267.91
548.67	13727.24
548.84	13174.88
549.01	12397.82
549.18	11775.24
549.34	11192.44
549.51	11007.54
549.68	10443.47
549.84	10073.67
550.01	9551.73
550.18	9219.37
550.34	9076.60
550.51	8531.25
550.68	7955.48
550.84	7529.50
551.01	7267.36
551.18	6841.39
551.34	6319.45
551.51	6076.03
551.68	5982.41
551.84	5778.78
552.01	5465.15
552.18	5383.23
552.34	4999.38
552.51	4744.27
552.68	4655.33
552.84	4353.40
553.01	4145.09
553.18	4182.54
553.34	3939.12
553.51	3983.59
553.67	3742.52
553.84	3665.28
554.01	3342.28
554.17	3239.30
554.34	2988.86
554.51	2743.11
554.67	2572.25
554.84	2469.27
555.00	2396.71
555.17	2277.34
555.33	2216.49
555.50	2010.52
555.67	2057.33
555.83	1825.62
556.00	1792.85
556.16	1942.64
556.33	1710.93
556.50	1680.50
556.66	1589.22
556.83	1486.24
556.99	1397.30
557.16	1444.11
557.32	1350.49
557.49	1439.43
557.65	1238.14
557.82	1313.04
557.98	1355.17
558.15	1181.97
558.32	1226.44
558.48	1114.10
558.65	1055.58
558.81	1095.37
558.98	1076.65
559.14	1114.10
559.31	1114.10
559.47	1069.62
559.64	1041.54
559.80	1008.77
559.97	978.34
560.13	968.98
560.30	1041.54
560.46	915.15
560.63	842.59
560.79	994.73
560.96	994.73
561.12	954.94
561.29	1050.90
561.45	964.30
561.61	964.30
561.78	1027.50
561.94	943.24
562.11	957.28
562.27	889.40
562.44	877.70
562.60	922.17
562.77	959.62
562.93	1036.86
563.10	880.04
563.26	866.00
563.42	933.87
563.59	863.66
563.75	793.44
563.92	896.43
564.08	889.40
564.24	765.36
564.41	858.98
564.57	760.67
564.74	767.70
564.90	770.04
565.07	823.87
565.23	681.10
565.39	774.72
565.56	706.84
565.72	739.61
565.88	720.88
566.05	732.59
566.21	784.08
566.38	718.54
566.54	716.20
566.70	734.93
566.87	695.14
567.03	709.18
567.19	709.18
567.36	779.40
567.52	739.61
567.68	758.33
567.85	767.70
568.01	734.93
568.17	784.08
568.34	723.23
568.50	802.80
568.66	683.44
568.83	826.21
568.99	760.67
569.15	765.36
569.32	641.31
569.48	709.18
569.64	634.29
569.81	561.73
569.97	608.54
570.13	622.58
570.30	531.30
570.46	540.66
570.62	585.13
570.78	484.49
570.95	528.96
571.11	547.69
571.27	547.69
571.43	517.26
571.60	557.05
571.76	599.18
571.92	613.22
572.09	491.51
572.25	564.07
572.41	594.50
572.57	582.79
572.74	678.76
572.90	531.30
573.06	573.43
573.22	550.03
573.38	636.63
573.55	681.10
573.71	552.37
573.87	662.37
574.03	622.58
574.20	592.16
574.36	739.61
574.52	641.31
574.68	697.48
574.84	765.36
575.01	734.93
575.17	737.27
575.33	770.04
575.49	938.55
575.65	1048.56
575.82	940.90
575.98	1034.52
576.14	1308.36
576.30	2272.66
576.46	7014.59
576.62	14691.54
576.79	17909.78
576.95	13041.46
577.11	7920.37
577.27	5516.64
577.43	3737.84
577.59	2380.32
577.75	1823.28
577.92	1647.74
578.08	1638.38
578.24	1741.36
578.40	2471.61
578.56	6604.99
578.72	13275.52
578.88	17118.68
579.04	12411.86
579.21	7772.92
579.37	5806.87
579.53	4428.29
579.69	4079.55
579.85	5025.13
580.01	6174.33
580.17	6305.40
580.33	5191.31
580.49	4271.48
580.65	3887.63
580.82	3510.80
580.98	3243.98
581.14	3435.91
581.30	3616.13
581.46	3791.67
581.62	4397.87
581.78	4472.76
581.94	5083.64
582.10	5093.01
582.26	5511.96
582.42	5720.27
582.58	5865.38
582.74	5891.13
582.90	5813.89
583.06	5984.75
583.22	5928.58
583.38	5984.75
583.54	5884.11
583.70	5905.17
583.86	5998.79
584.02	5820.91
584.18	5724.95
584.34	5626.65
584.50	5617.29
584.66	5411.32
584.82	5352.81
584.98	5320.04
585.14	5118.75
585.30	5160.88
585.46	5055.56
585.62	4959.60
585.78	4980.66
585.94	4980.66
586.10	4978.32
586.26	5135.14
586.42	5863.04
586.58	7035.65
586.74	8692.75
586.90	10532.41
587.06	11665.23
587.22	11880.56
587.38	10721.99
587.54	9235.75
587.70	7988.25
587.86	6499.67
588.02	5282.59
588.18	4854.27
588.34	4248.07
588.49	3929.76
588.65	3775.28
588.81	3510.80
588.97	3431.23
589.13	3489.74
589.29	3335.26
589.45	3260.37
589.61	3206.53
589.77	3363.35
589.93	3220.58
590.08	3428.88
590.24	3538.89
590.40	3606.77
590.56	3648.90
590.72	3819.75
590.88	3939.12
591.04	4131.05
591.20	4133.39
591.35	4210.62
591.51	4489.15
591.67	4762.99
591.83	5039.17
591.99	5364.51
592.15	5982.41
592.31	6408.39
592.46	7101.19
592.62	7765.90
592.78	8079.53
592.94	8451.67
593.10	8393.16
593.26	8142.72
593.41	7407.80
593.57	6813.30
593.73	6003.47
593.89	5200.67
594.05	4762.99
594.20	4311.27
594.36	3859.54
594.52	3492.08
594.68	3342.28
594.84	3375.05
594.99	3087.17
595.15	3019.29
595.31	3026.31
595.47	3045.04
595.62	2928.01
595.78	2916.31
595.94	2946.73
596.10	2995.89
596.25	2883.54
596.41	3066.10
596.57	2881.20
596.73	2944.39
596.88	2876.52
597.04	2853.11
597.20	3047.38
597.36	3173.77
597.51	2993.55
597.67	3136.32
597.83	3302.50
597.99	3506.12
598.14	3761.24
598.30	3894.65
598.46	4126.36
598.61	4461.06
598.77	4645.96
598.93	4884.70
599.09	5088.32
599.24	4940.87
599.40	5039.17
599.56	4798.10
599.71	4739.58
599.87	4360.42
600.03	4201.26
600.18	3915.72
600.34	3602.08
600.50	3583.36
600.65	3283.77
600.81	2974.82
600.97	2836.73
601.12	2668.21
601.28	2506.71
601.44	2448.20
601.59	2408.41
601.75	2282.02
601.91	2181.38
602.06	2160.31
602.22	2104.14
602.37	1954.35
602.53	1926.26
602.69	1834.98
602.84	1998.82
603.00	2008.18
603.16	1998.82
603.31	2047.97
603.47	2026.90
603.62	1987.11
603.78	2111.16
603.94	2181.38
604.09	2267.98
604.25	2335.85
604.40	2289.04
604.56	2277.34
604.71	2394.37
604.87	2345.22
