SpectraSuite Data File
++++++++++++++++++++++++++++++++++++
Date: Fri Oct 04 11:41:57 GMT-05:00 2013
User: price-jones
Dark Spectrum Present: No
Reference Spectrum Present: No
Number of Sampled Component Spectra: 1
Spectrometers: USB2+H05261
Integration Time (usec): 100000 (USB2+H05261)
Spectra Averaged: 1 (USB2+H05261)
Boxcar Smoothing: 0 (USB2+H05261)
Correct for Electrical Dark: No (USB2+H05261)
Strobe/Lamp Enabled: No (USB2+H05261)
Correct for Detector Non-linearity: No (USB2+H05261)
Correct for Stray Light: No (USB2+H05261)
Number of Pixels in Processed Spectrum: 2048
>>>>>Begin Processed Spectral Data<<<<<
365.73	126.39
365.92	126.39
366.12	126.39
366.32	0.00
366.52	11.70
366.72	0.00
366.91	0.00
367.11	0.00
367.31	0.00
367.51	0.00
367.70	0.00
367.90	0.00
368.10	0.00
368.30	0.00
368.49	0.00
368.69	0.00
368.89	0.00
369.09	0.00
369.28	0.00
369.48	0.00
369.68	0.00
369.87	0.00
370.07	2.34
370.27	58.51
370.47	0.00
370.66	65.54
370.86	117.03
371.06	100.64
371.25	133.41
371.45	60.85
371.65	93.62
371.84	58.51
372.04	58.51
372.24	128.73
372.44	42.13
372.63	110.01
372.83	187.24
373.03	119.37
373.22	58.51
373.42	133.41
373.62	128.73
373.81	135.75
374.01	152.13
374.21	110.01
374.40	138.09
374.60	121.71
374.79	168.52
374.99	145.11
375.19	133.41
375.38	145.11
375.58	117.03
375.78	191.92
375.97	194.26
376.17	131.07
376.37	147.45
376.56	37.45
376.76	133.41
376.95	140.43
377.15	208.31
377.35	198.95
377.54	102.98
377.74	119.37
377.93	133.41
378.13	53.83
378.33	142.77
378.52	168.52
378.72	102.98
378.91	110.01
379.11	81.92
379.31	114.69
379.50	107.66
379.70	175.54
379.89	194.26
380.09	187.24
380.28	91.28
380.48	168.52
380.68	107.66
380.87	149.79
381.07	182.56
381.26	182.56
381.46	177.88
381.65	138.09
381.85	110.01
382.04	63.19
382.24	154.48
382.43	124.05
382.63	121.71
382.83	117.03
383.02	140.43
383.22	161.50
383.41	65.54
383.61	117.03
383.80	124.05
384.00	126.39
384.19	93.62
384.39	114.69
384.58	114.69
384.78	74.90
384.97	142.77
385.17	58.51
385.36	119.37
385.56	210.65
385.75	95.96
385.95	135.75
386.14	159.16
386.34	191.92
386.53	149.79
386.72	102.98
386.92	100.64
387.11	135.75
387.31	133.41
387.50	152.13
387.70	88.94
387.89	147.45
388.09	77.24
388.28	114.69
388.48	173.20
388.67	229.37
388.86	117.03
389.06	131.07
389.25	110.01
389.45	124.05
389.64	187.24
389.84	58.51
390.03	110.01
390.22	91.28
390.42	114.69
390.61	77.24
390.81	93.62
391.00	140.43
391.19	194.26
391.39	119.37
391.58	128.73
391.78	93.62
391.97	159.16
392.16	161.50
392.36	152.13
392.55	147.45
392.75	44.47
392.94	53.83
393.13	152.13
393.33	46.81
393.52	107.66
393.71	152.13
393.91	126.39
394.10	77.24
394.29	86.60
394.49	91.28
394.68	119.37
394.88	147.45
395.07	149.79
395.26	93.62
395.46	140.43
395.65	142.77
395.84	170.86
396.04	175.54
396.23	107.66
396.42	124.05
396.62	107.66
396.81	128.73
397.00	138.09
397.19	138.09
397.39	166.18
397.58	191.92
397.77	98.30
397.97	86.60
398.16	173.20
398.35	175.54
398.55	156.82
398.74	98.30
398.93	222.35
399.12	149.79
399.32	159.16
399.51	124.05
399.70	229.37
399.90	156.82
400.09	154.48
400.28	208.31
400.47	135.75
400.67	259.80
400.86	140.43
401.05	208.31
401.24	170.86
401.44	236.39
401.63	166.18
401.82	175.54
402.01	149.79
402.21	126.39
402.40	215.33
402.59	257.46
402.78	264.48
402.97	264.48
403.17	189.58
403.36	210.65
403.55	266.82
403.74	765.36
403.93	2207.13
404.13	5268.55
404.32	8086.55
404.51	7454.61
404.70	4844.91
404.89	1720.29
405.09	571.09
405.28	308.95
405.47	255.12
405.66	322.99
405.85	210.65
406.05	149.79
406.24	234.05
406.43	212.99
406.62	154.48
406.81	257.46
407.00	383.85
407.20	657.69
407.39	1083.67
407.58	1139.84
407.77	870.68
407.96	521.94
408.15	344.06
408.34	224.69
408.54	210.65
408.73	168.52
408.92	145.11
409.11	173.20
409.30	210.65
409.49	154.48
409.68	119.37
409.87	177.88
410.07	231.71
410.26	201.29
410.45	152.13
410.64	159.16
410.83	220.01
411.02	234.05
411.21	259.80
411.40	222.35
411.59	161.50
411.78	224.69
411.98	234.05
412.17	161.50
412.36	168.52
412.55	337.04
412.74	236.39
412.93	269.16
413.12	180.22
413.31	271.50
413.50	285.55
413.69	210.65
413.88	196.60
414.07	250.44
414.26	276.18
414.45	194.26
414.64	262.14
414.83	280.86
415.02	248.10
415.22	168.52
415.41	313.63
415.60	297.25
415.79	222.35
415.98	294.91
416.17	285.55
416.36	285.55
416.55	243.42
416.74	252.78
416.93	262.14
417.12	252.78
417.31	201.29
417.50	280.86
417.69	257.46
417.88	194.26
418.07	208.31
418.26	238.73
418.45	238.73
418.64	243.42
418.83	280.86
419.02	269.16
419.21	332.36
419.39	245.76
419.58	222.35
419.77	320.65
419.96	229.37
420.15	346.40
420.34	332.36
420.53	311.29
420.72	311.29
420.91	308.95
421.10	252.78
421.29	269.16
421.48	266.82
421.67	264.48
421.86	259.80
422.05	294.91
422.24	299.59
422.43	273.84
422.61	250.44
422.80	285.55
422.99	383.85
423.18	273.84
423.37	348.74
423.56	248.10
423.75	234.05
423.94	294.91
424.13	250.44
424.32	292.57
424.50	311.29
424.69	292.57
424.88	278.52
425.07	320.65
425.26	337.04
425.45	360.44
425.64	393.21
425.83	325.33
426.01	313.63
426.20	339.38
426.39	257.46
426.58	327.68
426.77	381.51
426.96	440.02
427.15	390.87
427.33	322.99
427.52	386.19
427.71	339.38
427.90	388.53
428.09	348.74
428.28	290.23
428.46	353.42
428.65	358.10
428.84	362.78
429.03	407.25
429.22	393.21
429.40	355.76
429.59	334.70
429.78	386.19
429.97	327.68
430.16	315.97
430.34	458.74
430.53	421.30
430.72	273.84
430.91	407.25
431.10	390.87
431.28	449.38
431.47	437.68
431.66	477.47
431.85	416.62
432.03	416.62
432.22	482.15
432.41	442.36
432.60	493.85
432.79	425.98
432.97	510.24
433.16	543.00
433.35	566.41
433.54	739.61
433.72	713.86
433.91	720.88
434.10	725.57
434.28	983.02
434.47	1008.77
434.66	1198.35
434.85	1441.77
435.03	3391.44
435.22	12821.45
435.41	31967.04
435.59	39157.16
435.78	25661.63
435.97	12517.18
436.16	4798.10
436.34	1621.99
436.53	929.19
436.72	777.06
436.90	650.67
437.09	596.84
437.28	601.52
437.46	500.87
437.65	533.64
437.84	489.17
438.02	475.13
438.21	524.28
438.40	475.13
438.58	486.83
438.77	491.51
438.96	433.00
439.14	447.04
439.33	447.04
439.52	606.20
439.70	435.34
439.89	493.85
440.08	571.09
440.26	575.77
440.45	559.39
440.63	512.58
440.82	533.64
441.01	479.81
441.19	491.51
441.38	573.43
441.57	440.02
441.75	533.64
441.94	528.96
442.12	489.17
442.31	512.58
442.50	592.16
442.68	521.94
442.87	498.53
443.05	568.75
443.24	484.49
443.43	519.60
443.61	468.11
443.80	465.77
443.98	479.81
444.17	411.93
444.35	437.68
444.54	578.11
444.73	454.06
444.91	550.03
445.10	390.87
445.28	507.90
445.47	484.49
445.65	484.49
445.84	456.40
446.02	449.38
446.21	430.66
446.39	545.34
446.58	477.47
446.77	470.45
446.95	465.77
447.14	512.58
447.32	582.79
447.51	500.87
447.69	531.30
447.88	468.11
448.06	531.30
448.25	489.17
448.43	433.00
448.62	444.70
448.80	517.26
448.99	475.13
449.17	528.96
449.36	489.17
449.54	484.49
449.73	435.34
449.91	484.49
450.10	454.06
450.28	500.87
450.46	575.77
450.65	482.15
450.83	498.53
451.02	498.53
451.20	521.94
451.39	463.43
451.57	463.43
451.76	425.98
451.94	491.51
452.13	489.17
452.31	559.39
452.49	547.69
452.68	421.30
452.86	458.74
453.05	554.71
453.23	472.79
453.42	475.13
453.60	540.66
453.78	449.38
453.97	503.22
454.15	449.38
454.34	482.15
454.52	505.56
454.70	437.68
454.89	547.69
455.07	489.17
455.26	507.90
455.44	596.84
455.62	461.09
455.81	451.72
455.99	547.69
456.17	484.49
456.36	411.93
456.54	535.98
456.73	444.70
456.91	500.87
457.09	449.38
457.28	505.56
457.46	397.89
457.64	376.83
457.83	404.91
458.01	456.40
458.19	489.17
458.38	472.79
458.56	510.24
458.74	550.03
458.93	414.27
459.11	414.27
459.29	458.74
459.48	454.06
459.66	528.96
459.84	496.19
460.03	580.45
460.21	514.92
460.39	447.04
460.57	514.92
460.76	491.51
460.94	500.87
461.12	440.02
461.31	477.47
461.49	489.17
461.67	472.79
461.85	503.22
462.04	449.38
462.22	940.90
462.40	526.62
462.59	496.19
462.77	498.53
462.95	479.81
463.13	435.34
463.32	449.38
463.50	491.51
463.68	451.72
463.86	454.06
464.05	402.57
464.23	472.79
464.41	433.00
464.59	566.41
464.78	472.79
464.96	463.43
465.14	503.22
465.32	517.26
465.50	489.17
465.69	479.81
465.87	456.40
466.05	447.04
466.23	428.32
466.41	472.79
466.60	514.92
466.78	463.43
466.96	475.13
467.14	550.03
467.32	493.85
467.51	491.51
467.69	524.28
467.87	561.73
468.05	456.40
468.23	500.87
468.41	411.93
468.60	358.10
468.78	440.02
468.96	388.53
469.14	437.68
469.32	421.30
469.50	421.30
469.69	454.06
469.87	376.83
470.05	397.89
470.23	437.68
470.41	437.68
470.59	402.57
470.77	475.13
470.95	484.49
471.14	409.59
471.32	435.34
471.50	486.83
471.68	418.96
471.86	470.45
472.04	475.13
472.22	454.06
472.40	395.55
472.58	479.81
472.77	465.77
472.95	437.68
473.13	496.19
473.31	517.26
473.49	421.30
473.67	477.47
473.85	491.51
474.03	517.26
474.21	519.60
474.39	416.62
474.57	442.36
474.75	442.36
474.93	437.68
475.12	465.77
475.30	360.44
475.48	507.90
475.66	409.59
475.84	447.04
476.02	428.32
476.20	390.87
476.38	456.40
476.56	552.37
476.74	477.47
476.92	390.87
477.10	468.11
477.28	477.47
477.46	489.17
477.64	472.79
477.82	484.49
478.00	484.49
478.18	524.28
478.36	493.85
478.54	491.51
478.72	479.81
478.90	489.17
479.08	606.20
479.26	641.31
479.44	615.56
479.62	620.24
479.80	608.54
479.98	615.56
480.16	709.18
480.34	746.63
480.52	697.48
480.70	795.78
480.88	767.70
481.06	880.04
481.24	748.97
481.41	945.58
481.59	952.60
481.77	1043.88
481.95	1008.77
482.13	1071.97
482.31	1102.39
482.49	1158.57
482.67	1252.19
482.85	1357.51
483.03	1519.01
483.21	1638.38
483.39	1652.42
483.57	1746.04
483.74	1832.64
483.92	1975.41
484.10	2099.46
484.28	2202.44
484.46	2380.32
484.64	2434.16
484.82	2572.25
485.00	2686.94
485.18	2818.00
485.35	3068.44
485.53	3176.11
485.71	3377.39
485.89	3463.99
486.07	3510.80
486.25	3527.19
486.43	3672.30
486.61	3555.27
486.78	3695.71
486.96	3454.63
487.14	3641.87
487.32	3501.44
487.50	3536.55
487.68	3426.54
487.85	3351.65
488.03	3368.03
488.21	3344.63
488.39	3206.53
488.57	3143.34
488.75	3143.34
488.92	3337.60
489.10	3026.31
489.28	2958.44
489.46	2878.86
489.64	2801.62
489.81	2813.32
489.99	2708.00
490.17	2708.00
490.35	2785.24
490.53	2623.74
490.70	2565.23
490.88	2782.90
491.06	2785.24
491.24	3045.04
491.41	3143.34
491.59	2991.20
491.77	2677.57
491.95	2527.78
492.13	2455.22
492.30	2326.49
492.48	2382.67
492.66	2326.49
492.84	2282.02
493.01	2370.96
493.19	2319.47
493.37	2298.41
493.54	2296.07
493.72	2232.87
493.90	2232.87
494.08	2094.78
494.25	2211.81
494.43	2010.52
494.61	1949.67
494.79	1991.80
494.96	1956.69
495.14	1935.62
495.32	1888.81
495.49	1802.21
495.67	1895.83
495.85	1902.86
496.02	1856.04
496.20	1788.17
496.38	1806.89
496.55	1771.79
496.73	1652.42
496.91	1607.95
497.09	1638.38
497.26	1589.22
497.44	1605.61
497.62	1577.52
497.79	1549.43
497.97	1462.83
498.14	1476.88
498.32	1390.28
498.50	1345.81
498.67	1317.72
498.85	1322.40
499.03	1313.04
499.20	1196.01
499.38	1299.00
499.56	1184.31
499.73	1240.48
499.91	1254.53
500.08	1172.61
500.26	1116.44
500.44	1039.20
500.61	1093.03
500.79	971.32
500.97	1006.43
501.14	964.30
501.32	894.08
501.49	973.66
501.67	936.21
501.84	880.04
502.02	912.81
502.20	828.55
502.37	887.06
502.55	800.46
502.72	737.27
502.90	709.18
503.07	662.37
503.25	786.42
503.43	650.67
503.60	648.33
503.78	746.63
503.95	704.50
504.13	655.35
504.30	720.88
504.48	716.20
504.65	704.50
504.83	709.18
505.01	531.30
505.18	636.63
505.36	543.00
505.53	585.13
505.71	585.13
505.88	624.92
506.06	521.94
506.23	510.24
506.41	456.40
506.58	582.79
506.76	531.30
506.93	477.47
507.11	547.69
507.28	550.03
507.46	510.24
507.63	617.90
507.81	528.96
507.98	482.15
508.16	486.83
508.33	491.51
508.50	484.49
508.68	496.19
508.85	540.66
509.03	482.15
509.20	547.69
509.38	561.73
509.55	615.56
509.73	550.03
509.90	503.22
510.08	451.72
510.25	411.93
510.42	470.45
510.60	444.70
510.77	479.81
510.95	472.79
511.12	461.09
511.30	533.64
511.47	449.38
511.64	505.56
511.82	477.47
511.99	491.51
512.17	472.79
512.34	482.15
512.51	449.38
512.69	472.79
512.86	505.56
513.04	514.92
513.21	524.28
513.38	507.90
513.56	440.02
513.73	484.49
513.90	472.79
514.08	428.32
514.25	435.34
514.43	479.81
514.60	416.62
514.77	358.10
514.95	348.74
515.12	461.09
515.29	404.91
515.47	339.38
515.64	381.51
515.81	418.96
515.99	442.36
516.16	458.74
516.33	435.34
516.51	425.98
516.68	407.25
516.85	379.17
517.03	449.38
517.20	400.23
517.37	421.30
517.54	374.49
517.72	372.15
517.89	374.49
518.06	346.40
518.24	407.25
518.41	470.45
518.58	472.79
518.75	367.46
518.93	383.85
519.10	407.25
519.27	306.61
519.45	418.96
519.62	395.55
519.79	360.44
519.96	318.31
520.14	421.30
520.31	409.59
520.48	454.06
520.65	358.10
520.83	468.11
521.00	440.02
521.17	381.51
521.34	360.44
521.52	358.10
521.69	411.93
521.86	407.25
522.03	365.12
522.20	367.46
522.38	311.29
522.55	348.74
522.72	402.57
522.89	418.96
523.07	430.66
523.24	348.74
523.41	437.68
523.58	327.68
523.75	351.08
523.92	344.06
524.10	402.57
524.27	348.74
524.44	381.51
524.61	411.93
524.78	437.68
524.96	463.43
525.13	411.93
525.30	498.53
525.47	514.92
525.64	442.36
525.81	442.36
525.98	407.25
526.16	449.38
526.33	390.87
526.50	402.57
526.67	477.47
526.84	423.64
527.01	514.92
527.18	440.02
527.36	587.47
527.53	458.74
527.70	505.56
527.87	503.22
528.04	564.07
528.21	454.06
528.38	571.09
528.55	538.32
528.72	477.47
528.89	580.45
529.07	538.32
529.24	468.11
529.41	545.34
529.58	463.43
529.75	524.28
529.92	620.24
530.09	620.24
530.26	535.98
530.43	575.77
530.60	535.98
530.77	568.75
530.94	650.67
531.11	631.94
531.28	592.16
531.46	634.29
531.63	725.57
531.80	760.67
531.97	823.87
532.14	837.91
532.31	987.71
532.48	1132.82
532.65	1390.28
532.82	1572.84
532.99	1769.44
533.16	2059.67
533.33	2207.13
533.50	2106.48
533.67	1860.73
533.84	1521.35
534.01	1390.28
534.18	1224.10
534.35	1191.33
534.52	1219.42
534.69	1287.29
534.86	1345.81
535.03	1364.53
535.20	1444.11
535.37	1418.36
535.54	1570.50
535.71	1689.87
535.88	1748.38
536.05	1870.09
536.22	2022.22
536.38	2113.50
536.55	2436.50
536.72	2593.31
536.89	2860.13
537.06	3253.34
537.23	3653.58
537.40	4046.79
537.57	4219.99
537.74	4531.28
537.91	4746.61
538.08	4957.25
538.25	4634.26
538.42	4837.89
538.59	4961.94
538.75	5179.61
538.92	5586.86
539.09	5898.15
539.26	6621.38
539.43	7358.64
539.60	8580.40
539.77	9453.42
539.94	10724.33
540.11	11770.55
540.28	12982.95
540.44	14279.61
540.61	15648.82
540.78	17675.73
540.95	21568.04
541.12	25970.58
541.29	29277.76
541.46	31180.62
541.62	30906.77
541.79	29771.61
541.96	27665.13
542.13	25523.54
542.30	23969.43
542.47	21958.91
542.63	21167.80
542.80	20187.12
542.97	20177.76
543.14	19695.61
543.31	20009.24
543.48	20233.93
543.64	20437.56
543.81	20467.98
543.98	20622.46
544.15	21032.05
544.32	20730.12
544.48	21132.70
544.65	20821.41
544.82	20451.60
544.99	20617.78
545.16	21060.14
545.32	22040.82
545.49	33626.48
545.66	56392.87
545.83	64570.70
546.00	61846.32
546.16	49464.88
546.33	36744.07
546.50	27229.79
546.67	21240.36
546.83	18953.66
547.00	18258.52
547.17	17303.58
547.34	16002.24
547.50	15665.21
547.67	15180.71
547.84	14480.89
548.00	14197.69
548.17	13453.40
548.34	12730.17
548.51	12257.39
548.67	11808.00
548.84	11365.64
549.01	10602.63
549.18	10356.87
549.34	9774.08
549.51	9366.82
549.68	9228.73
549.84	8835.52
550.01	8355.71
550.18	8205.92
550.34	7566.95
550.51	7241.62
550.68	6944.37
550.84	6644.78
551.01	6235.19
551.18	5858.36
551.34	5708.57
551.51	5423.02
551.68	5200.67
551.84	4980.66
552.01	4894.06
552.18	4643.62
552.34	4383.82
552.51	4248.07
552.68	3950.82
552.84	3953.16
553.01	3770.60
553.18	3588.04
553.34	3648.90
553.51	3452.29
553.67	3304.84
553.84	3262.71
554.01	2932.69
554.17	2684.59
554.34	2623.74
554.51	2574.59
554.67	2375.64
554.84	2193.08
555.00	2094.78
555.17	1998.82
555.33	1940.30
555.50	1734.34
555.67	1717.95
555.83	1732.00
556.00	1692.21
556.16	1685.19
556.33	1575.18
556.50	1416.02
556.66	1416.02
556.83	1390.28
556.99	1310.70
557.16	1329.42
557.32	1160.91
557.49	1233.46
557.65	1217.08
557.82	1104.73
557.98	1193.67
558.15	1053.24
558.32	1114.10
558.48	1039.20
558.65	1121.12
558.81	1011.11
558.98	908.13
559.14	1081.33
559.31	1018.13
559.47	931.53
559.64	908.13
559.80	915.15
559.97	910.47
560.13	908.13
560.30	873.02
560.46	891.74
560.63	788.76
560.79	912.81
560.96	835.57
561.12	840.25
561.29	868.34
561.45	826.21
561.61	952.60
561.78	940.90
561.94	880.04
562.11	741.95
562.27	828.55
562.44	884.72
562.60	816.85
562.77	807.48
562.93	805.14
563.10	821.53
563.26	816.85
563.42	774.72
563.59	828.55
563.75	788.76
563.92	718.54
564.08	760.67
564.24	667.05
564.41	765.36
564.57	723.23
564.74	676.41
564.90	779.40
565.07	662.37
565.23	667.05
565.39	706.84
565.56	678.76
565.72	608.54
565.88	634.29
566.05	720.88
566.21	594.50
566.38	723.23
566.54	730.25
566.70	709.18
566.87	711.52
567.03	587.47
567.19	669.39
567.36	678.76
567.52	667.05
567.68	657.69
567.85	674.07
568.01	709.18
568.17	692.80
568.34	681.10
568.50	741.95
568.66	725.57
568.83	767.70
568.99	683.44
569.15	739.61
569.32	627.26
569.48	589.82
569.64	629.60
569.81	561.73
569.97	535.98
570.13	573.43
570.30	543.00
570.46	533.64
570.62	526.62
570.78	543.00
570.95	451.72
571.11	589.82
571.27	575.77
571.43	512.58
571.60	596.84
571.76	538.32
571.92	442.36
572.09	486.83
572.25	547.69
572.41	454.06
572.57	517.26
572.74	519.60
572.90	561.73
573.06	472.79
573.22	535.98
573.38	552.37
573.55	645.99
573.71	603.86
573.87	622.58
574.03	610.88
574.20	561.73
574.36	610.88
574.52	531.30
574.68	678.76
574.84	603.86
575.01	655.35
575.17	678.76
575.33	828.55
575.49	751.31
575.65	763.01
575.82	917.49
575.98	1025.15
576.14	1109.41
576.30	2017.54
576.46	6457.54
576.62	13177.22
576.79	15999.90
576.95	10841.36
577.11	7009.90
577.27	4964.28
577.43	3389.10
577.59	2143.93
577.75	1724.97
577.92	1420.71
578.08	1507.30
578.24	1533.05
578.40	2434.16
578.56	6459.88
578.72	12414.20
578.88	14501.96
579.04	10635.39
579.21	7117.57
579.37	5102.37
579.53	4060.83
579.69	3508.46
579.85	4552.34
580.01	5392.59
580.17	5291.95
580.33	4528.94
580.49	3777.62
580.65	3337.60
580.82	3105.89
580.98	3002.91
581.14	3087.17
581.30	3307.18
581.46	3529.53
581.62	3768.26
581.78	3967.21
581.94	4334.67
582.10	4524.26
582.26	4868.31
582.42	4973.64
582.58	5146.84
582.74	5121.09
582.90	5329.40
583.06	5305.99
583.22	5207.69
583.38	5179.61
583.54	5163.22
583.70	5020.45
583.86	5179.61
584.02	5090.67
584.18	4938.53
584.34	4770.01
584.50	4954.91
584.66	4894.06
584.82	4802.78
584.98	4732.56
585.14	4594.47
585.30	4489.15
585.46	4547.66
585.62	4287.86
585.78	4407.23
585.94	4390.84
586.10	4554.68
586.26	4725.54
586.42	5296.63
586.58	6277.32
586.74	7557.59
586.90	9341.08
587.06	10413.04
587.22	10527.73
587.38	9343.42
587.54	8138.04
587.70	6839.05
587.86	5673.46
588.02	4863.63
588.18	4266.80
588.34	3815.07
588.49	3463.99
588.65	3290.79
588.81	3197.17
588.97	3002.91
589.13	2956.10
589.29	2967.80
589.45	2813.32
589.61	2761.83
589.77	2827.37
589.93	2925.67
590.08	2953.76
590.24	3082.49
590.40	3227.60
590.56	3309.52
590.72	3353.99
590.88	3503.78
591.04	3632.51
591.20	3843.16
591.35	3939.12
591.51	3976.57
591.67	4224.67
591.83	4393.19
591.99	4779.37
592.15	5203.01
592.31	5834.96
592.46	6143.91
592.62	6925.65
592.78	7396.09
592.94	7316.51
593.10	7215.87
593.26	7145.66
593.41	6534.78
593.57	5886.45
593.73	5160.88
593.89	4542.98
594.05	4011.68
594.20	3658.26
594.36	3564.64
594.52	3173.77
594.68	2935.03
594.84	2792.26
594.99	2733.75
595.15	2752.47
595.31	2698.64
595.47	2640.12
595.62	2665.87
595.78	2586.29
595.94	2583.95
596.10	2609.70
596.25	2693.96
596.41	2576.93
596.57	2558.21
596.73	2476.29
596.88	2579.27
597.04	2537.14
597.20	2551.18
597.36	2698.64
597.51	2827.37
597.67	2916.31
597.83	2974.82
597.99	3171.43
598.14	3251.00
598.30	3559.95
598.46	3630.17
598.61	3896.99
598.77	4018.70
598.93	4245.73
599.09	4339.35
599.24	4475.10
599.40	4456.38
599.56	4367.44
599.71	4149.77
599.87	3854.86
600.03	3758.90
600.18	3410.16
600.34	3335.26
600.50	3038.02
600.65	2787.58
600.81	2796.94
600.97	2502.03
601.12	2452.88
601.28	2235.21
601.44	2200.10
601.59	2069.03
601.75	2024.56
601.91	1879.45
602.06	1802.21
602.22	1863.07
602.37	1982.43
602.53	1734.34
602.69	1722.63
602.84	1671.14
603.00	1776.47
603.16	1755.40
603.31	1813.92
603.47	1895.83
603.62	1865.41
603.78	1781.15
603.94	1884.13
604.09	1959.03
604.25	2045.63
604.40	2092.44
604.56	2019.88
604.71	2022.22
604.87	2005.84
605.03	1970.73
