SpectraSuite Data File
++++++++++++++++++++++++++++++++++++
Date: Fri Oct 04 11:41:49 GMT-05:00 2013
User: price-jones
Dark Spectrum Present: No
Reference Spectrum Present: No
Number of Sampled Component Spectra: 1
Spectrometers: USB2+H05261
Integration Time (usec): 100000 (USB2+H05261)
Spectra Averaged: 1 (USB2+H05261)
Boxcar Smoothing: 0 (USB2+H05261)
Correct for Electrical Dark: No (USB2+H05261)
Strobe/Lamp Enabled: No (USB2+H05261)
Correct for Detector Non-linearity: No (USB2+H05261)
Correct for Stray Light: No (USB2+H05261)
Number of Pixels in Processed Spectrum: 2048
>>>>>Begin Processed Spectral Data<<<<<
365.73	14.04
365.92	14.04
366.12	14.04
366.32	0.00
366.52	0.00
366.72	0.00
366.91	0.00
367.11	0.00
367.31	0.00
367.51	0.00
367.70	0.00
367.90	0.00
368.10	0.00
368.30	0.00
368.49	0.00
368.69	0.00
368.89	0.00
369.09	0.00
369.28	0.00
369.48	0.00
369.68	0.00
369.87	0.00
370.07	0.00
370.27	0.00
370.47	74.90
370.66	25.75
370.86	95.96
371.06	140.43
371.25	67.88
371.45	25.75
371.65	74.90
371.84	60.85
372.04	121.71
372.24	154.48
372.44	147.45
372.63	74.90
372.83	168.52
373.03	156.82
373.22	93.62
373.42	91.28
373.62	182.56
373.81	110.01
374.01	138.09
374.21	133.41
374.40	110.01
374.60	149.79
374.79	100.64
374.99	124.05
375.19	107.66
375.38	175.54
375.58	124.05
375.78	117.03
375.97	163.84
376.17	140.43
376.37	107.66
376.56	152.13
376.76	105.32
376.95	91.28
377.15	177.88
377.35	196.60
377.54	102.98
377.74	77.24
377.93	187.24
378.13	126.39
378.33	93.62
378.52	140.43
378.72	205.97
378.91	133.41
379.11	180.22
379.31	152.13
379.50	142.77
379.70	198.95
379.89	170.86
380.09	93.62
380.28	140.43
380.48	133.41
380.68	102.98
380.87	84.26
381.07	234.05
381.26	205.97
381.46	124.05
381.65	147.45
381.85	100.64
382.04	126.39
382.24	91.28
382.43	56.17
382.63	53.83
382.83	168.52
383.02	93.62
383.22	88.94
383.41	124.05
383.61	95.96
383.80	152.13
384.00	149.79
384.19	112.35
384.39	107.66
384.58	142.77
384.78	147.45
384.97	86.60
385.17	93.62
385.36	133.41
385.56	149.79
385.75	121.71
385.95	128.73
386.14	149.79
386.34	95.96
386.53	119.37
386.72	86.60
386.92	91.28
387.11	128.73
387.31	105.32
387.50	56.17
387.70	91.28
387.89	189.58
388.09	23.41
388.28	159.16
388.48	184.90
388.67	114.69
388.86	126.39
389.06	142.77
389.25	166.18
389.45	145.11
389.64	102.98
389.84	149.79
390.03	131.07
390.22	156.82
390.42	191.92
390.61	154.48
390.81	114.69
391.00	140.43
391.19	229.37
391.39	203.63
391.58	117.03
391.78	163.84
391.97	128.73
392.16	72.56
392.36	152.13
392.55	170.86
392.75	145.11
392.94	175.54
393.13	168.52
393.33	142.77
393.52	149.79
393.71	135.75
393.91	147.45
394.10	131.07
394.29	163.84
394.49	145.11
394.68	121.71
394.88	131.07
395.07	159.16
395.26	126.39
395.46	189.58
395.65	131.07
395.84	88.94
396.04	234.05
396.23	152.13
396.42	84.26
396.62	86.60
396.81	227.03
397.00	117.03
397.19	105.32
397.39	184.90
397.58	170.86
397.77	180.22
397.97	88.94
398.16	112.35
398.35	119.37
398.55	119.37
398.74	147.45
398.93	196.60
399.12	248.10
399.32	126.39
399.51	100.64
399.70	147.45
399.90	166.18
400.09	112.35
400.28	121.71
400.47	194.26
400.67	161.50
400.86	180.22
401.05	159.16
401.24	205.97
401.44	208.31
401.63	222.35
401.82	138.09
402.01	250.44
402.21	198.95
402.40	243.42
402.59	212.99
402.78	222.35
402.97	210.65
403.17	222.35
403.36	280.86
403.55	341.72
403.74	812.17
403.93	2305.43
404.13	5694.52
404.32	9004.04
404.51	8549.98
404.70	5551.75
404.89	2165.00
405.09	660.03
405.28	313.63
405.47	238.73
405.66	201.29
405.85	292.57
406.05	238.73
406.24	210.65
406.43	243.42
406.62	269.16
406.81	290.23
407.00	341.72
407.20	713.86
407.39	1139.84
407.58	1376.24
407.77	1013.45
407.96	547.69
408.15	304.27
408.34	194.26
408.54	138.09
408.73	224.69
408.92	276.18
409.11	212.99
409.30	280.86
409.49	205.97
409.68	86.60
409.87	222.35
410.07	187.24
410.26	234.05
410.45	210.65
410.64	231.71
410.83	194.26
411.02	205.97
411.21	224.69
411.40	208.31
411.59	229.37
411.78	245.76
411.98	231.71
412.17	257.46
412.36	229.37
412.55	306.61
412.74	177.88
412.93	276.18
413.12	166.18
413.31	236.39
413.50	234.05
413.69	238.73
413.88	294.91
414.07	255.12
414.26	259.80
414.45	217.67
414.64	208.31
414.83	255.12
415.02	259.80
415.22	250.44
415.41	208.31
415.60	248.10
415.79	201.29
415.98	353.42
416.17	273.84
416.36	264.48
416.55	248.10
416.74	283.20
416.93	280.86
417.12	287.89
417.31	287.89
417.50	203.63
417.69	327.68
417.88	285.55
418.07	292.57
418.26	229.37
418.45	304.27
418.64	304.27
418.83	262.14
419.02	308.95
419.21	325.33
419.39	262.14
419.58	220.01
419.77	224.69
419.96	308.95
420.15	320.65
420.34	294.91
420.53	320.65
420.72	262.14
420.91	414.27
421.10	341.72
421.29	362.78
421.48	374.49
421.67	374.49
421.86	252.78
422.05	304.27
422.24	283.20
422.43	292.57
422.61	341.72
422.80	315.97
422.99	283.20
423.18	383.85
423.37	348.74
423.56	414.27
423.75	355.76
423.94	367.46
424.13	348.74
424.32	313.63
424.50	337.04
424.69	332.36
424.88	388.53
425.07	353.42
425.26	327.68
425.45	372.15
425.64	327.68
425.83	315.97
426.01	414.27
426.20	418.96
426.39	423.64
426.58	341.72
426.77	374.49
426.96	442.36
427.15	383.85
427.33	404.91
427.52	383.85
427.71	337.04
427.90	404.91
428.09	341.72
428.28	369.80
428.46	397.89
428.65	465.77
428.84	400.23
429.03	507.90
429.22	372.15
429.40	442.36
429.59	428.32
429.78	449.38
429.97	404.91
430.16	484.49
430.34	428.32
430.53	330.02
430.72	379.17
430.91	477.47
431.10	444.70
431.28	468.11
431.47	498.53
431.66	442.36
431.85	465.77
432.03	528.96
432.22	491.51
432.41	482.15
432.60	610.88
432.79	458.74
432.97	629.60
433.16	559.39
433.35	695.14
433.54	774.72
433.72	777.06
433.91	767.70
434.10	851.96
434.28	990.05
434.47	1196.01
434.66	1383.26
434.85	1519.01
435.03	3833.80
435.22	13902.78
435.41	34890.37
435.59	44638.70
435.78	31260.20
435.97	14642.39
436.16	5624.31
436.34	1877.11
436.53	1086.01
436.72	912.81
436.90	685.78
437.09	690.46
437.28	634.29
437.46	615.56
437.65	571.09
437.84	624.92
438.02	582.79
438.21	629.60
438.40	561.73
438.58	592.16
438.77	519.60
438.96	535.98
439.14	493.85
439.33	645.99
439.52	531.30
439.70	547.69
439.89	557.05
440.08	566.41
440.26	526.62
440.45	585.13
440.63	505.56
440.82	550.03
441.01	547.69
441.19	627.26
441.38	545.34
441.57	477.47
441.75	524.28
441.94	596.84
442.12	547.69
442.31	568.75
442.50	596.84
442.68	540.66
442.87	559.39
443.05	571.09
443.24	568.75
443.43	547.69
443.61	557.05
443.80	617.90
443.98	526.62
444.17	524.28
444.35	519.60
444.54	535.98
444.73	554.71
444.91	587.47
445.10	543.00
445.28	566.41
445.47	550.03
445.65	531.30
445.84	655.35
446.02	578.11
446.21	507.90
446.39	575.77
446.58	554.71
446.77	566.41
446.95	571.09
447.14	587.47
447.32	601.52
447.51	554.71
447.69	521.94
447.88	500.87
448.06	538.32
448.25	615.56
448.43	496.19
448.62	580.45
448.80	580.45
448.99	512.58
449.17	580.45
449.36	526.62
449.54	503.22
449.73	594.50
449.91	557.05
450.10	575.77
450.28	559.39
450.46	557.05
450.65	615.56
450.83	528.96
451.02	514.92
451.20	498.53
451.39	535.98
451.57	496.19
451.76	559.39
451.94	538.32
452.13	622.58
452.31	596.84
452.49	580.45
452.68	554.71
452.86	514.92
453.05	596.84
453.23	514.92
453.42	535.98
453.60	468.11
453.78	514.92
453.97	440.02
454.15	507.90
454.34	477.47
454.52	451.72
454.70	589.82
454.89	535.98
455.07	498.53
455.26	540.66
455.44	571.09
455.62	585.13
455.81	547.69
455.99	552.37
456.17	557.05
456.36	571.09
456.54	552.37
456.73	514.92
456.91	521.94
457.09	524.28
457.28	425.98
457.46	440.02
457.64	540.66
457.83	505.56
458.01	517.26
458.19	571.09
458.38	505.56
458.56	531.30
458.74	465.77
458.93	491.51
459.11	491.51
459.29	496.19
459.48	475.13
459.66	587.47
459.84	564.07
460.03	587.47
460.21	650.67
460.39	627.26
460.57	575.77
460.76	561.73
460.94	489.17
461.12	585.13
461.31	566.41
461.49	552.37
461.67	456.40
461.85	531.30
462.04	524.28
462.22	1008.77
462.40	503.22
462.59	514.92
462.77	524.28
462.95	461.09
463.13	528.96
463.32	566.41
463.50	514.92
463.68	538.32
463.86	517.26
464.05	578.11
464.23	550.03
464.41	531.30
464.59	482.15
464.78	543.00
464.96	561.73
465.14	578.11
465.32	456.40
465.50	458.74
465.69	489.17
465.87	477.47
466.05	454.06
466.23	503.22
466.41	514.92
466.60	554.71
466.78	568.75
466.96	540.66
467.14	585.13
467.32	568.75
467.51	608.54
467.69	519.60
467.87	571.09
468.05	547.69
468.23	554.71
468.41	500.87
468.60	423.64
468.78	557.05
468.96	528.96
469.14	458.74
469.32	458.74
469.50	465.77
469.69	475.13
469.87	498.53
470.05	531.30
470.23	519.60
470.41	463.43
470.59	475.13
470.77	468.11
470.95	468.11
471.14	606.20
471.32	496.19
471.50	554.71
471.68	512.58
471.86	479.81
472.04	451.72
472.22	486.83
472.40	461.09
472.58	521.94
472.77	430.66
472.95	444.70
473.13	489.17
473.31	564.07
473.49	531.30
473.67	440.02
473.85	486.83
474.03	519.60
474.21	512.58
474.39	482.15
474.57	524.28
474.75	552.37
474.93	517.26
475.12	465.77
475.30	491.51
475.48	498.53
475.66	479.81
475.84	486.83
476.02	519.60
476.20	526.62
476.38	486.83
476.56	561.73
476.74	465.77
476.92	545.34
477.10	535.98
477.28	564.07
477.46	498.53
477.64	543.00
477.82	655.35
478.00	674.07
478.18	456.40
478.36	660.03
478.54	540.66
478.72	667.05
478.90	617.90
479.08	657.69
479.26	592.16
479.44	653.01
479.62	676.41
479.80	615.56
479.98	755.99
480.16	702.16
480.34	737.27
480.52	718.54
480.70	866.00
480.88	840.25
481.06	788.76
481.24	950.26
481.41	994.73
481.59	1050.90
481.77	1013.45
481.95	1121.12
482.13	1198.35
482.31	1291.98
482.49	1324.74
482.67	1434.75
482.85	1535.39
483.03	1699.23
483.21	1830.30
483.39	1827.96
483.57	2069.03
483.74	2235.21
483.92	2202.44
484.10	2235.21
484.28	2455.22
484.46	2691.62
484.64	2712.68
484.82	2846.09
485.00	3009.93
485.18	3187.81
485.35	3400.80
485.53	3620.81
485.71	3667.62
485.89	3840.82
486.07	4028.06
486.25	4028.06
486.43	3983.59
486.61	3875.93
486.78	4035.08
486.96	3906.35
487.14	4002.32
487.32	3955.51
487.50	4021.04
487.68	3974.23
487.85	3798.69
488.03	3882.95
488.21	3861.88
488.39	3623.15
488.57	3625.49
488.75	3449.95
488.92	3632.51
489.10	3520.17
489.28	3318.88
489.46	3293.13
489.64	3136.32
489.81	3187.81
489.99	3087.17
490.17	3000.57
490.35	3052.06
490.53	2963.12
490.70	2977.16
490.88	3030.99
491.06	2979.50
491.24	3300.16
491.41	3499.10
491.59	3293.13
491.77	3080.14
491.95	2979.50
492.13	2794.60
492.30	2693.96
492.48	2661.19
492.66	2747.79
492.84	2635.44
493.01	2630.76
493.19	2698.64
493.37	2621.40
493.54	2495.01
493.72	2443.52
493.90	2373.30
494.08	2331.17
494.25	2326.49
494.43	2275.00
494.61	2230.53
494.79	2228.19
494.96	2223.51
495.14	2193.08
495.32	2129.89
495.49	2188.40
495.67	2125.21
495.85	1991.80
496.02	2052.65
496.20	1935.62
496.38	1961.37
496.55	1930.94
496.73	1806.89
496.91	1743.70
497.09	1870.09
497.26	1820.94
497.44	1788.17
497.62	1701.57
497.79	1710.93
497.97	1692.21
498.14	1699.23
498.32	1671.14
498.50	1657.10
498.67	1582.20
498.85	1502.62
499.03	1437.09
499.20	1394.96
499.38	1383.26
499.56	1301.34
499.73	1409.00
499.91	1238.14
500.08	1289.64
500.26	1240.48
500.44	1242.82
500.61	1135.16
500.79	1071.97
500.97	1069.62
501.14	1083.67
501.32	1046.22
501.49	1109.41
501.67	994.73
501.84	978.34
502.02	1018.13
502.20	950.26
502.37	915.15
502.55	912.81
502.72	863.66
502.90	809.83
503.07	725.57
503.25	819.19
503.43	791.10
503.60	788.76
503.78	812.17
503.95	709.18
504.13	610.88
504.30	641.31
504.48	692.80
504.65	744.29
504.83	674.07
505.01	695.14
505.18	573.43
505.36	571.09
505.53	678.76
505.71	524.28
505.88	641.31
506.06	526.62
506.23	521.94
506.41	606.20
506.58	667.05
506.76	592.16
506.93	519.60
507.11	589.82
507.28	496.19
507.46	627.26
507.63	519.60
507.81	533.64
507.98	594.50
508.16	491.51
508.33	498.53
508.50	512.58
508.68	543.00
508.85	601.52
509.03	580.45
509.20	627.26
509.38	594.50
509.55	650.67
509.73	582.79
509.90	552.37
510.08	538.32
510.25	517.26
510.42	461.09
510.60	444.70
510.77	505.56
510.95	526.62
511.12	447.04
511.30	489.17
511.47	528.96
511.64	524.28
511.82	531.30
511.99	458.74
512.17	496.19
512.34	458.74
512.51	510.24
512.69	463.43
512.86	575.77
513.04	374.49
513.21	421.30
513.38	535.98
513.56	442.36
513.73	388.53
513.90	449.38
514.08	475.13
514.25	451.72
514.43	510.24
514.60	463.43
514.77	468.11
514.95	423.64
515.12	435.34
515.29	416.62
515.47	407.25
515.64	332.36
515.81	468.11
515.99	451.72
516.16	395.55
516.33	514.92
516.51	393.21
516.68	468.11
516.85	418.96
517.03	428.32
517.20	404.91
517.37	456.40
517.54	428.32
517.72	418.96
517.89	320.65
518.06	404.91
518.24	491.51
518.41	451.72
518.58	390.87
518.75	451.72
518.93	388.53
519.10	418.96
519.27	358.10
519.45	397.89
519.62	428.32
519.79	390.87
519.96	402.57
520.14	400.23
520.31	479.81
520.48	430.66
520.65	341.72
520.83	423.64
521.00	411.93
521.17	393.21
521.34	332.36
521.52	449.38
521.69	423.64
521.86	348.74
522.03	404.91
522.20	447.04
522.38	463.43
522.55	409.59
522.72	351.08
522.89	416.62
523.07	395.55
523.24	372.15
523.41	376.83
523.58	447.04
523.75	402.57
523.92	388.53
524.10	367.46
524.27	400.23
524.44	440.02
524.61	442.36
524.78	454.06
524.96	369.80
525.13	442.36
525.30	486.83
525.47	461.09
525.64	397.89
525.81	477.47
525.98	465.77
526.16	484.49
526.33	397.89
526.50	433.00
526.67	486.83
526.84	507.90
527.01	463.43
527.18	545.34
527.36	552.37
527.53	430.66
527.70	554.71
527.87	596.84
528.04	636.63
528.21	510.24
528.38	477.47
528.55	444.70
528.72	599.18
528.89	524.28
529.07	568.75
529.24	603.86
529.41	641.31
529.58	575.77
529.75	533.64
529.92	624.92
530.09	554.71
530.26	643.65
530.43	615.56
530.60	629.60
530.77	610.88
530.94	674.07
531.11	636.63
531.28	655.35
531.46	566.41
531.63	737.27
531.80	781.74
531.97	795.78
532.14	889.40
532.31	1048.56
532.48	1291.98
532.65	1490.92
532.82	1741.36
532.99	1930.94
533.16	2359.26
533.33	2506.71
533.50	2317.13
533.67	2031.58
533.84	1645.40
534.01	1537.73
534.18	1420.71
534.35	1313.04
534.52	1404.32
534.69	1427.73
534.86	1526.03
535.03	1488.58
535.20	1600.93
535.37	1626.67
535.54	1739.02
535.71	1781.15
535.88	1968.39
536.05	2038.61
536.22	2195.42
536.38	2473.95
536.55	2724.38
536.72	2909.29
536.89	3288.45
537.06	3534.21
537.23	3960.19
537.40	4435.32
537.57	4727.88
537.74	5001.72
537.91	5188.97
538.08	5472.17
538.25	5441.75
538.42	5425.36
538.59	5699.20
538.75	5722.61
538.92	6097.10
539.09	6750.10
539.26	7473.33
539.43	8212.94
539.60	9563.43
539.77	10731.36
539.94	11749.49
540.11	13312.97
540.28	14867.08
540.44	16065.44
540.61	17958.93
540.78	20421.17
540.95	24247.95
541.12	29352.66
541.29	33469.66
541.46	34492.47
541.62	34848.24
541.79	33350.29
541.96	31101.04
542.13	28556.88
542.30	26766.37
542.47	25275.45
542.63	23623.03
542.80	23248.54
542.97	22808.52
543.14	22408.29
543.31	22434.03
543.48	22412.97
543.64	23056.62
543.81	23012.15
543.98	23786.86
544.15	23594.94
544.32	23751.76
544.48	23749.42
544.65	23199.39
544.82	23332.80
544.99	23281.31
545.16	23791.55
545.32	25034.37
545.49	37516.45
545.66	59047.04
545.83	65535.00
546.00	65535.00
546.16	53804.24
546.33	41198.11
546.50	30937.20
546.67	24362.64
546.83	21284.83
547.00	20030.30
547.17	19461.55
547.34	18607.26
547.50	17937.87
547.67	17394.86
547.84	16514.82
548.00	16219.91
548.17	15447.54
548.34	14703.25
548.51	14005.77
548.67	13439.36
548.84	12713.79
549.01	12042.06
549.18	11756.51
549.34	11250.96
549.51	10810.93
549.68	10544.11
549.84	10120.48
550.01	9521.30
550.18	9097.66
550.34	8564.02
550.51	8100.59
550.68	7875.90
550.84	7485.03
551.01	6988.84
551.18	6801.60
551.34	6509.03
551.51	6113.48
551.68	5849.00
551.84	5544.73
552.01	5369.19
552.18	5214.71
552.34	4877.68
552.51	4793.42
552.68	4496.17
552.84	4346.37
553.01	4306.59
553.18	4217.65
553.34	4009.34
553.51	3819.75
553.67	3688.68
553.84	3669.96
554.01	3414.84
554.17	3056.74
554.34	2785.24
554.51	2796.94
554.67	2717.36
554.84	2609.70
555.00	2345.22
555.17	2298.41
555.33	2188.40
555.50	1963.71
555.67	1944.99
555.83	1811.57
556.00	1806.89
556.16	1919.24
556.33	1717.95
556.50	1600.93
556.66	1586.88
556.83	1446.45
556.99	1413.68
557.16	1418.36
557.32	1336.45
557.49	1359.85
557.65	1242.82
557.82	1205.38
557.98	1221.76
558.15	1177.29
558.32	1254.53
558.48	1172.61
558.65	1121.12
558.81	1121.12
558.98	1046.22
559.14	1123.46
559.31	1039.20
559.47	1018.13
559.64	919.83
559.80	889.40
559.97	1006.43
560.13	997.07
560.30	954.94
560.46	887.06
560.63	968.98
560.79	896.43
560.96	901.11
561.12	983.02
561.29	959.62
561.45	844.93
561.61	947.92
561.78	980.68
561.94	887.06
562.11	816.85
562.27	828.55
562.44	854.30
562.60	917.49
562.77	889.40
562.93	983.02
563.10	870.68
563.26	842.59
563.42	933.87
563.59	943.24
563.75	774.72
563.92	842.59
564.08	833.23
564.24	833.23
564.41	884.72
564.57	809.83
564.74	704.50
564.90	814.51
565.07	716.20
565.23	798.12
565.39	716.20
565.56	734.93
565.72	725.57
565.88	685.78
566.05	617.90
566.21	741.95
566.38	732.59
566.54	828.55
566.70	638.97
566.87	725.57
567.03	667.05
567.19	704.50
567.36	725.57
567.52	793.44
567.68	781.74
567.85	704.50
568.01	791.10
568.17	807.48
568.34	727.91
568.50	830.89
568.66	688.12
568.83	823.87
568.99	711.52
569.15	720.88
569.32	720.88
569.48	603.86
569.64	624.92
569.81	650.67
569.97	582.79
570.13	564.07
570.30	538.32
570.46	622.58
570.62	503.22
570.78	606.20
570.95	472.79
571.11	561.73
571.27	589.82
571.43	580.45
571.60	521.94
571.76	650.67
571.92	521.94
572.09	543.00
572.25	517.26
572.41	547.69
572.57	449.38
572.74	566.41
572.90	585.13
573.06	582.79
573.22	599.18
573.38	559.39
573.55	575.77
573.71	517.26
573.87	596.84
574.03	580.45
574.20	629.60
574.36	653.01
574.52	706.84
574.68	662.37
574.84	655.35
575.01	814.51
575.17	793.44
575.33	791.10
575.49	915.15
575.65	894.08
575.82	1022.81
575.98	1128.14
576.14	1156.22
576.30	2204.78
576.46	6895.22
576.62	14941.98
576.79	19723.69
576.95	13383.18
577.11	8049.10
577.27	5682.82
577.43	3770.60
577.59	2331.17
577.75	1837.32
577.92	1799.87
578.08	1631.35
578.24	1647.74
578.40	2555.86
578.56	6513.71
578.72	13469.78
578.88	17099.95
579.04	12517.18
579.21	7939.10
579.37	5783.46
579.53	4367.44
579.69	3969.55
579.85	5011.09
580.01	6169.65
580.17	6038.58
580.33	5217.05
580.49	4437.66
580.65	3840.82
580.82	3510.80
580.98	3342.28
581.14	3293.13
581.30	3571.66
581.46	3688.68
581.62	4114.66
581.78	4395.53
581.94	4847.25
582.10	5025.13
582.26	5294.29
582.42	5584.52
582.58	5647.71
582.74	5713.25
582.90	5827.93
583.06	6029.22
583.22	6083.05
583.38	6136.88
583.54	5921.56
583.70	5783.46
583.86	5706.23
584.02	5596.22
584.18	5554.09
584.34	5462.81
584.50	5406.64
584.66	5366.85
584.82	5207.69
584.98	5137.48
585.14	5238.12
585.30	5060.24
585.46	4980.66
585.62	4915.12
585.78	4910.44
585.94	4840.23
586.10	5109.39
586.26	5348.12
586.42	5994.11
586.58	7080.12
586.74	8498.49
586.90	10457.51
587.06	11475.65
587.22	11660.55
587.38	10628.37
587.54	8999.36
587.70	7653.55
587.86	6462.22
588.02	5544.73
588.18	4676.39
588.34	4355.74
588.49	3906.35
588.65	3618.47
588.81	3492.08
588.97	3349.31
589.13	3236.96
589.29	3227.60
589.45	3082.49
589.61	3213.56
589.77	3279.09
589.93	3335.26
590.08	3456.97
590.24	3515.48
590.40	3559.95
590.56	3681.66
590.72	3721.45
590.88	3852.52
591.04	3981.25
591.20	4107.64
591.35	4313.61
591.51	4458.72
591.67	4601.49
591.83	4863.63
591.99	5455.79
592.15	5757.72
592.31	6202.42
592.46	6925.65
592.62	7599.72
592.78	7964.84
592.94	8320.60
593.10	8262.09
593.26	7815.05
593.41	7375.03
593.57	6511.37
593.73	5771.76
593.89	5172.58
594.05	4489.15
594.20	4072.53
594.36	3747.20
594.52	3410.16
594.68	3405.48
594.84	3187.81
594.99	3038.02
595.15	3096.53
595.31	2939.71
595.47	3021.63
595.62	2853.11
595.78	2928.01
595.94	2944.39
596.10	2920.99
596.25	3002.91
596.41	2958.44
596.57	2846.09
596.73	2813.32
596.88	2808.64
597.04	2867.16
597.20	2965.46
597.36	3014.61
597.51	3023.97
597.67	3152.70
597.83	3499.10
597.99	3576.34
598.14	3765.92
598.30	4114.66
598.46	4227.01
598.61	4360.42
598.77	4489.15
598.93	4727.88
599.09	4992.36
599.24	5139.82
599.40	5081.30
599.56	4994.70
599.71	4725.54
599.87	4482.13
600.03	4205.94
600.18	3906.35
600.34	3489.74
600.50	3283.77
600.65	3080.14
600.81	3014.61
600.97	2799.28
601.12	2621.40
601.28	2509.05
601.44	2399.05
601.59	2162.66
601.75	2190.74
601.91	2085.42
602.06	2087.76
602.22	2148.61
602.37	1977.75
602.53	1998.82
602.69	1900.52
602.84	1909.88
603.00	1973.07
603.16	1886.47
603.31	2012.86
603.47	1994.14
603.62	2017.54
603.78	2024.56
603.94	2157.97
604.09	2207.13
604.25	2097.12
604.40	2162.66
604.56	2181.38
604.71	2415.43
604.87	2275.00
