SpectraSuite Data File
++++++++++++++++++++++++++++++++++++
Date: Fri Oct 04 11:42:18 GMT-05:00 2013
User: price-jones
Dark Spectrum Present: No
Reference Spectrum Present: No
Number of Sampled Component Spectra: 1
Spectrometers: USB2+H05261
Integration Time (usec): 100000 (USB2+H05261)
Spectra Averaged: 1 (USB2+H05261)
Boxcar Smoothing: 0 (USB2+H05261)
Correct for Electrical Dark: No (USB2+H05261)
Strobe/Lamp Enabled: No (USB2+H05261)
Correct for Detector Non-linearity: No (USB2+H05261)
Correct for Stray Light: No (USB2+H05261)
Number of Pixels in Processed Spectrum: 2048
>>>>>Begin Processed Spectral Data<<<<<
365.73	53.83
365.92	53.83
366.12	53.83
366.32	30.43
366.52	0.00
366.72	14.04
366.91	0.00
367.11	0.00
367.31	0.00
367.51	2.34
367.70	0.00
367.90	0.00
368.10	0.00
368.30	0.00
368.49	0.00
368.69	0.00
368.89	0.00
369.09	0.00
369.28	30.43
369.48	0.00
369.68	14.04
369.87	0.00
370.07	0.00
370.27	79.58
370.47	117.03
370.66	383.85
370.86	334.70
371.06	435.34
371.25	449.38
371.45	365.12
371.65	395.55
371.84	367.46
372.04	325.33
372.24	388.53
372.44	454.06
372.63	493.85
372.83	496.19
373.03	374.49
373.22	355.76
373.42	351.08
373.62	390.87
373.81	437.68
374.01	521.94
374.21	470.45
374.40	418.96
374.60	416.62
374.79	468.11
374.99	526.62
375.19	559.39
375.38	587.47
375.58	454.06
375.78	564.07
375.97	566.41
376.17	578.11
376.37	465.77
376.56	554.71
376.76	519.60
376.95	610.88
377.15	695.14
377.35	676.41
377.54	624.92
377.74	634.29
377.93	582.79
378.13	634.29
378.33	603.86
378.52	592.16
378.72	587.47
378.91	468.11
379.11	550.03
379.31	559.39
379.50	479.81
379.70	620.24
379.89	566.41
380.09	601.52
380.28	571.09
380.48	671.73
380.68	622.58
380.87	617.90
381.07	566.41
381.26	631.94
381.46	531.30
381.65	543.00
381.85	528.96
382.04	507.90
382.24	458.74
382.43	470.45
382.63	411.93
382.83	447.04
383.02	388.53
383.22	400.23
383.41	409.59
383.61	465.77
383.80	477.47
384.00	521.94
384.19	578.11
384.39	648.33
384.58	578.11
384.78	582.79
384.97	643.65
385.17	667.05
385.36	535.98
385.56	545.34
385.75	629.60
385.95	561.73
386.14	615.56
386.34	631.94
386.53	641.31
386.72	554.71
386.92	540.66
387.11	610.88
387.31	596.84
387.50	664.71
387.70	669.39
387.89	683.44
388.09	575.77
388.28	615.56
388.48	634.29
388.67	716.20
388.86	613.22
389.06	690.46
389.25	737.27
389.45	798.12
389.64	791.10
389.84	767.70
390.03	753.65
390.22	739.61
390.42	774.72
390.61	758.33
390.81	844.93
391.00	858.98
391.19	889.40
391.39	940.90
391.58	823.87
391.78	746.63
391.97	741.95
392.16	688.12
392.36	653.01
392.55	540.66
392.75	503.22
392.94	322.99
393.13	461.09
393.33	444.70
393.52	543.00
393.71	657.69
393.91	723.23
394.10	795.78
394.29	760.67
394.49	966.64
394.68	835.57
394.88	926.85
395.07	964.30
395.26	931.53
395.46	912.81
395.65	816.85
395.84	709.18
396.04	877.70
396.23	571.09
396.42	519.60
396.62	545.34
396.81	622.58
397.00	699.82
397.19	795.78
397.39	910.47
397.58	987.71
397.77	978.34
397.97	1076.65
398.16	1053.24
398.35	1193.67
398.55	1100.05
398.74	1306.02
398.93	1188.99
399.12	1242.82
399.32	1207.72
399.51	1198.35
399.70	1249.85
399.90	1263.89
400.09	1226.44
400.28	1188.99
400.47	1158.57
400.67	1291.98
400.86	1327.08
401.05	1425.39
401.24	1331.76
401.44	1444.11
401.63	1348.15
401.82	1397.30
402.01	1472.20
402.21	1406.66
402.40	1341.13
402.59	1385.60
402.78	1296.66
402.97	1226.44
403.17	1188.99
403.36	1369.21
403.55	1423.05
403.74	1376.24
403.93	1409.00
404.13	1366.87
404.32	1467.52
404.51	1439.43
404.70	1479.22
404.89	1437.09
405.09	1418.36
405.28	1294.32
405.47	1418.36
405.66	1362.19
405.85	1308.36
406.05	1327.08
406.24	1331.76
406.43	1256.87
406.62	1338.79
406.81	1390.28
407.00	1282.61
407.20	1287.29
407.39	1366.87
407.58	1397.30
407.77	1521.35
407.96	1481.56
408.15	1572.84
408.34	1596.25
408.54	1554.12
408.73	1474.54
408.92	1502.62
409.11	1488.58
409.30	1472.20
409.49	1394.96
409.68	1301.34
409.87	1198.35
410.07	1320.06
410.26	1359.85
410.45	1458.15
410.64	1519.01
410.83	1509.65
411.02	1535.39
411.21	1629.01
411.40	1664.12
411.59	1638.38
411.78	1685.19
411.98	1600.93
412.17	1687.53
412.36	1540.07
412.55	1610.29
412.74	1617.31
412.93	1523.69
413.12	1610.29
413.31	1696.89
413.50	1614.97
413.69	1736.68
413.88	1781.15
414.07	1577.52
414.26	1603.27
414.45	1617.31
414.64	1717.95
414.83	1706.25
415.02	1624.33
415.22	1563.48
415.41	1666.46
415.60	1680.50
415.79	1853.70
415.98	1900.52
416.17	1743.70
416.36	1811.57
416.55	1802.21
416.74	1863.07
416.93	1685.19
417.12	1614.97
417.31	1776.47
417.50	1799.87
417.69	1813.92
417.88	1774.13
418.07	1717.95
418.26	1734.34
418.45	1720.29
418.64	1774.13
418.83	1874.77
419.02	1687.53
419.21	1729.66
419.39	1757.74
419.58	1675.82
419.77	1584.54
419.96	1823.28
420.15	1844.34
420.34	1832.64
420.53	1900.52
420.72	1980.09
420.91	1874.77
421.10	1914.56
421.29	1930.94
421.48	1802.21
421.67	1902.86
421.86	1893.49
422.05	1811.57
422.24	1636.03
422.43	1624.33
422.61	1795.19
422.80	1785.83
422.99	1776.47
423.18	1811.57
423.37	1795.19
423.56	1764.76
423.75	1685.19
423.94	1776.47
424.13	1767.10
424.32	1767.10
424.50	1720.29
424.69	1764.76
424.88	1689.87
425.07	1647.74
425.26	1769.44
425.45	1699.23
425.64	1755.40
425.83	1612.63
426.01	1776.47
426.20	1830.30
426.39	1767.10
426.58	1771.79
426.77	1659.44
426.96	1636.03
427.15	1631.35
427.33	1610.29
427.52	1717.95
427.71	1795.19
427.90	1717.95
428.09	1767.10
428.28	1696.89
428.46	1614.97
428.65	1645.40
428.84	1708.59
429.03	1664.12
429.22	1535.39
429.40	1568.16
429.59	1371.55
429.78	1245.16
429.97	1280.27
430.16	1322.40
430.34	1296.66
430.53	1249.85
430.72	1217.08
430.91	1390.28
431.10	1605.61
431.28	1818.60
431.47	2066.69
431.66	2026.90
431.85	1865.41
432.03	1729.66
432.22	1699.23
432.41	1762.42
432.60	1891.15
432.79	1933.28
432.97	2008.18
433.16	2019.88
433.35	1757.74
433.54	1689.87
433.72	1619.65
433.91	1610.29
434.10	1673.48
434.28	1973.07
434.47	2043.29
434.66	1980.09
434.85	1947.33
435.03	2115.84
435.22	2249.25
435.41	2546.50
435.59	2745.45
435.78	2532.46
435.97	2197.76
436.16	2120.53
436.34	2071.37
436.53	2064.35
436.72	2253.94
436.90	2017.54
437.09	2066.69
437.28	1982.43
437.46	1940.30
437.65	2054.99
437.84	1933.28
438.02	1739.02
438.21	1837.32
438.40	1762.42
438.58	1891.15
438.77	1907.54
438.96	2040.95
439.14	2026.90
439.33	2150.95
439.52	2160.31
439.70	2127.55
439.89	2162.66
440.08	2108.82
440.26	1991.80
440.45	2033.93
440.63	2172.02
440.82	2272.66
441.01	2291.38
441.19	2317.13
441.38	2211.81
441.57	2345.22
441.75	2424.80
441.94	2466.92
442.12	2338.20
442.31	2356.92
442.50	2366.28
442.68	2485.65
442.87	2420.11
443.05	2331.17
443.24	2265.64
443.43	2443.52
443.61	2448.20
443.80	2324.15
443.98	2223.51
444.17	2258.62
444.35	2429.48
444.54	2452.88
444.73	2406.07
444.91	2448.20
445.10	2148.61
445.28	2099.46
445.47	2132.23
445.65	2188.40
445.84	2335.85
446.02	2296.07
446.21	2345.22
446.39	2326.49
446.58	2370.96
446.77	2422.45
446.95	2448.20
447.14	2478.63
447.32	2597.99
447.51	2516.08
447.69	2370.96
447.88	2307.77
448.06	2464.58
448.25	2553.52
448.43	2415.43
448.62	2396.71
448.80	2382.67
448.99	2403.73
449.17	2438.84
449.36	2406.07
449.54	2492.67
449.73	2647.15
449.91	2523.10
450.10	2696.30
450.28	2703.32
450.46	2822.69
450.65	2621.40
450.83	2569.91
451.02	2422.45
451.20	2612.04
451.39	2551.18
451.57	2377.98
451.76	2597.99
451.94	2593.31
452.13	2457.56
452.31	2504.37
452.49	2342.88
452.68	2235.21
452.86	2345.22
453.05	2349.90
453.23	2443.52
453.42	2443.52
453.60	2436.50
453.78	2487.99
453.97	2509.05
454.15	2396.71
454.34	2363.94
454.52	2506.71
454.70	2359.26
454.89	2553.52
455.07	2450.54
455.26	2539.48
455.44	2565.23
455.62	2768.85
455.81	2574.59
455.99	2731.41
456.17	2668.21
456.36	2588.63
456.54	2700.98
456.73	2677.57
456.91	2668.21
457.09	2670.55
457.28	2677.57
457.46	2670.55
457.64	2698.64
457.83	2572.25
458.01	2462.24
458.19	2614.38
458.38	2562.89
458.56	2609.70
458.74	2693.96
458.93	2661.19
459.11	2588.63
459.29	2635.44
459.48	2663.53
459.66	2499.69
459.84	2698.64
460.03	2747.79
460.21	2640.12
460.39	2710.34
460.57	2787.58
460.76	2708.00
460.94	2738.43
461.12	2724.38
461.31	2700.98
461.49	2766.51
461.67	2801.62
461.85	2801.62
462.04	2710.34
462.22	2888.22
462.40	2855.45
462.59	2813.32
462.77	2757.15
462.95	2878.86
463.13	2827.37
463.32	2773.53
463.50	2731.41
463.68	2766.51
463.86	2647.15
464.05	2656.51
464.23	2665.87
464.41	2605.02
464.59	2469.27
464.78	2703.32
464.96	2736.09
465.14	2600.34
465.32	2759.49
465.50	2792.26
465.69	2815.66
465.87	2871.84
466.05	2682.25
466.23	2605.02
466.41	2516.08
466.60	2525.44
466.78	2693.96
466.96	2539.48
467.14	2656.51
467.32	2710.34
467.51	2698.64
467.69	2677.57
467.87	2719.70
468.05	2663.53
468.23	2750.13
468.41	2761.83
468.60	2640.12
468.78	2590.97
468.96	2583.95
469.14	2663.53
469.32	2679.91
469.50	2614.38
469.69	2719.70
469.87	2541.82
470.05	2677.57
470.23	2408.41
470.41	2729.06
470.59	2691.62
470.77	2670.55
470.95	2593.31
471.14	2719.70
471.32	2738.43
471.50	2740.77
471.68	2911.63
471.86	2911.63
472.04	2806.30
472.22	2871.84
472.40	2902.26
472.58	2808.64
472.77	2731.41
472.95	2857.79
473.13	2909.29
473.31	2799.28
473.49	2801.62
473.67	2801.62
473.85	2766.51
474.03	2958.44
474.21	2895.24
474.39	2935.03
474.57	2974.82
474.75	3073.12
474.93	3089.51
475.12	2892.90
475.30	2869.50
475.48	2867.16
475.66	2857.79
475.84	2885.88
476.02	2827.37
476.20	2675.23
476.38	3002.91
476.56	2974.82
476.74	2932.69
476.92	2946.73
477.10	2995.89
477.28	3194.83
477.46	3159.72
477.64	3105.89
477.82	3096.53
478.00	3187.81
478.18	3075.46
478.36	3211.22
478.54	3061.42
478.72	3150.36
478.90	3141.00
479.08	3398.46
479.26	3445.27
479.44	3300.16
479.62	3211.22
479.80	3346.97
479.98	3403.14
480.16	3346.97
480.34	3297.81
480.52	3435.91
480.70	3302.50
480.88	3398.46
481.06	3358.67
481.24	3571.66
481.41	3499.10
481.59	3599.74
481.77	3588.04
481.95	3588.04
482.13	3424.20
482.31	3517.83
482.49	3737.84
482.67	3665.28
482.85	3632.51
483.03	3712.09
483.21	3606.77
483.39	3665.28
483.57	3740.18
483.74	3651.24
483.92	3672.30
484.10	3618.47
484.28	3859.54
484.46	3815.07
484.64	3815.07
484.82	3641.87
485.00	3578.68
485.18	3613.79
485.35	3606.77
485.53	3295.47
485.71	3075.46
485.89	2949.08
486.07	3030.99
486.25	3396.12
486.43	3548.25
486.61	3538.89
486.78	3574.00
486.96	3566.98
487.14	3714.43
487.32	3850.18
487.50	3927.42
487.68	4007.00
487.85	4175.52
488.03	4065.51
488.21	4194.24
488.39	4053.81
488.57	3826.78
488.75	3805.71
488.92	4184.88
489.10	4100.62
489.28	4365.10
489.46	4491.49
489.64	4390.84
489.81	4470.42
489.99	4358.08
490.17	4617.88
490.35	4603.83
490.53	4531.28
490.70	4355.74
490.88	4175.52
491.06	4517.23
491.24	4517.23
491.41	4437.66
491.59	4168.49
491.77	4011.68
491.95	4194.24
492.13	4262.12
492.30	4552.34
492.48	4559.36
492.66	4608.51
492.84	4688.09
493.01	4615.54
493.19	4732.56
493.37	4664.69
493.54	4418.93
493.72	4484.47
493.90	4676.39
494.08	4865.97
494.25	5034.49
494.43	4938.53
494.61	4997.04
494.79	5034.49
494.96	4945.55
495.14	4880.02
495.32	4812.14
495.49	4514.89
495.67	4702.14
495.85	5008.75
496.02	4933.85
496.20	4966.62
496.38	4861.29
496.55	4903.42
496.73	5041.51
496.91	5163.22
497.09	5111.73
497.26	5097.69
497.44	5078.96
497.62	5020.45
497.79	4889.38
497.97	4657.67
498.14	4636.60
498.32	4779.37
498.50	4997.04
498.67	5071.94
498.85	4964.28
499.03	5008.75
499.20	5071.94
499.38	5163.22
499.56	5186.63
499.73	4973.64
499.91	4826.18
500.08	4887.04
500.26	4835.55
500.44	4812.14
500.61	4947.89
500.79	5022.79
500.97	4908.10
501.14	4957.25
501.32	4786.40
501.49	4770.01
501.67	4770.01
501.84	4788.74
502.02	4884.70
502.20	4980.66
502.37	5039.17
502.55	5027.47
502.72	4992.36
502.90	5118.75
503.07	4964.28
503.25	4868.31
503.43	4688.09
503.60	4592.13
503.78	4440.00
503.95	4547.66
504.13	4798.10
504.30	4999.38
504.48	4966.62
504.65	4938.53
504.83	5018.11
505.01	5163.22
505.18	5121.09
505.36	5277.91
505.53	5102.37
505.71	5256.84
505.88	5291.95
506.06	5324.72
506.23	5228.76
506.41	5032.15
506.58	5085.98
506.76	5320.04
506.93	5036.83
507.11	5062.58
507.28	5036.83
507.46	5004.07
507.63	4786.40
507.81	4877.68
507.98	4959.60
508.16	5022.79
508.33	5153.86
508.50	5329.40
508.68	5317.70
508.85	5446.43
509.03	5488.56
509.20	5341.10
509.38	5135.14
509.55	5069.60
509.73	5069.60
509.90	5177.26
510.08	5294.29
510.25	5441.75
510.42	5266.21
510.60	5111.73
510.77	5334.08
510.95	5336.42
511.12	5383.23
511.30	5549.41
511.47	5575.16
511.64	5488.56
511.82	5441.75
511.99	5439.40
512.17	5399.62
512.34	5139.82
512.51	5352.81
512.69	5298.97
512.86	5224.08
513.04	5547.07
513.21	5413.66
513.38	5247.48
513.56	5254.50
513.73	5050.88
513.90	5137.48
514.08	5130.45
514.25	5165.56
514.43	5170.24
514.60	5107.05
514.77	5177.26
514.95	5256.84
515.12	5167.90
515.29	5394.93
515.47	5380.89
515.64	5432.38
515.81	5373.87
515.99	5193.65
516.16	5128.11
516.33	4781.71
516.51	4575.75
516.68	4212.96
516.85	4379.14
517.03	4276.16
517.20	4688.09
517.37	4924.49
517.54	5404.30
517.72	5214.71
517.89	4791.08
518.06	4526.60
518.24	4601.49
518.41	4898.74
518.58	4966.62
518.75	4908.10
518.93	5020.45
519.10	5142.16
519.27	5151.52
519.45	5172.58
519.62	5380.89
519.79	5430.04
519.96	5357.49
520.14	5228.76
520.31	5078.96
520.48	5137.48
520.65	5097.69
520.83	5343.44
521.00	5193.65
521.17	5371.53
521.34	5458.13
521.52	5249.82
521.69	5481.53
521.86	5664.10
522.03	5558.77
522.20	5467.49
522.38	5029.81
522.55	5198.33
522.72	5160.88
522.89	5242.80
523.07	5254.50
523.24	5160.88
523.41	5444.09
523.58	5535.37
523.75	5523.66
523.92	5600.90
524.10	5628.99
524.27	5694.52
524.44	5540.05
524.61	5631.33
524.78	5504.94
524.96	5469.83
525.13	5685.16
525.30	5448.77
525.47	5628.99
525.64	5453.45
525.81	5359.83
525.98	5423.02
526.16	4943.21
526.33	4840.23
526.50	4950.23
526.67	4706.82
526.84	4575.75
527.01	4863.63
527.18	5053.22
527.36	5240.46
527.53	5458.13
527.70	5561.11
527.87	5423.02
528.04	5413.66
528.21	5357.49
528.38	5621.97
528.55	5661.76
528.72	5612.60
528.89	5851.34
529.07	5666.44
529.24	5556.43
529.41	5518.98
529.58	5366.85
529.75	5298.97
529.92	5563.45
530.09	5366.85
530.26	5376.21
530.43	5748.36
530.60	5591.54
530.77	5804.53
530.94	5706.23
531.11	5746.02
531.28	5593.88
531.46	5423.02
531.63	5568.13
531.80	5523.66
531.97	5493.24
532.14	5401.96
532.31	5156.20
532.48	5043.85
532.65	5067.26
532.82	5172.58
532.99	5221.74
533.16	5460.47
533.33	5598.56
533.50	5511.96
533.67	5364.51
533.84	5135.14
534.01	5392.59
534.18	5399.62
534.35	5514.30
534.52	5343.44
534.69	5406.64
534.86	5504.94
535.03	5540.05
535.20	5577.50
535.37	5888.79
535.54	5846.66
535.71	5645.37
535.88	5671.12
536.05	5516.64
536.22	5493.24
536.38	5380.89
536.55	5348.12
536.72	5341.10
536.89	5048.54
537.06	5336.42
537.23	5514.30
537.40	5645.37
537.57	5750.70
537.74	5598.56
537.91	5533.03
538.08	5387.91
538.25	5509.62
538.42	5596.22
538.59	5680.48
538.75	5504.94
538.92	5291.95
539.09	5385.57
539.26	5352.81
539.43	5416.00
539.60	5542.39
539.77	5418.34
539.94	5434.72
540.11	5359.83
540.28	5205.35
540.44	5284.93
540.61	5261.52
540.78	5366.85
540.95	5568.13
541.12	5806.87
541.29	5781.12
541.46	5956.66
541.62	5891.13
541.79	5914.53
541.96	5755.38
542.13	5619.63
542.30	5724.95
542.47	5916.87
542.63	5753.04
542.80	5659.42
542.97	5734.31
543.14	5465.15
543.31	5664.10
543.48	5490.90
543.64	5781.12
543.81	5968.37
543.98	6031.56
544.15	5937.94
544.32	5900.49
544.48	5865.38
544.65	5706.23
544.82	5818.57
544.99	5743.67
545.16	5710.91
545.32	5771.76
545.49	6345.19
545.66	7148.00
545.83	7232.26
546.00	6988.84
546.16	6354.55
546.33	6097.10
546.50	5870.06
546.67	5701.54
546.83	5687.50
547.00	5596.22
547.17	5661.76
547.34	5404.30
547.50	5373.87
547.67	5275.57
547.84	5455.79
548.00	5327.06
548.17	5500.26
548.34	5603.24
548.51	5556.43
548.67	5533.03
548.84	5556.43
549.01	5565.79
549.18	5451.11
549.34	5453.45
549.51	5390.25
549.68	5476.85
549.84	5352.81
550.01	5582.18
550.18	5385.57
550.34	5413.66
550.51	5390.25
550.68	5404.30
550.84	5343.44
551.01	5366.85
551.18	5177.26
551.34	5263.86
551.51	5458.13
551.68	5315.36
551.84	5434.72
552.01	5266.21
552.18	5399.62
552.34	5170.24
552.51	5235.78
552.68	5142.16
552.84	5210.03
553.01	5076.62
553.18	5170.24
553.34	5287.27
553.51	5174.92
553.67	5268.55
553.84	5397.28
554.01	5341.10
554.17	5235.78
554.34	5158.54
554.51	5392.59
554.67	5387.91
554.84	5444.09
555.00	5266.21
555.17	5053.22
555.33	5261.52
555.50	5245.14
555.67	5090.67
555.83	5125.77
556.00	5006.41
556.16	5210.03
556.33	4929.17
556.50	5048.54
556.66	4992.36
556.83	4933.85
556.99	5001.72
557.16	5018.11
557.32	4997.04
557.49	4919.81
557.65	4978.32
557.82	5146.84
557.98	5083.64
558.15	4980.66
558.32	4671.71
558.48	4784.06
558.65	4868.31
558.81	4744.27
558.98	4774.69
559.14	4887.04
559.31	4873.00
559.47	5011.09
559.64	4931.51
559.80	4880.02
559.97	4732.56
560.13	4821.50
560.30	5043.85
560.46	5032.15
560.63	5167.90
560.79	5034.49
560.96	4975.98
561.12	4931.51
561.29	4732.56
561.45	4760.65
561.61	4814.48
561.78	5083.64
561.94	4788.74
562.11	4772.35
562.27	4690.43
562.44	4830.87
562.60	4938.53
562.77	5041.51
562.93	5018.11
563.10	4973.64
563.26	4802.78
563.42	5057.90
563.59	4873.00
563.75	4678.73
563.92	4746.61
564.08	4865.97
564.24	4849.59
564.41	4945.55
564.57	4748.95
564.74	4807.46
564.90	4868.31
565.07	4762.99
565.23	4730.22
565.39	4660.01
565.56	4578.09
565.72	4617.88
565.88	4594.47
566.05	4517.23
566.21	4477.44
566.38	4587.45
566.54	4606.17
566.70	4781.71
566.87	4737.24
567.03	4903.42
567.19	4863.63
567.36	4765.33
567.52	4720.86
567.68	4667.03
567.85	4503.19
568.01	4404.89
568.17	4362.76
568.34	4332.33
568.50	4397.87
568.66	4241.05
568.83	4327.65
568.99	4482.13
569.15	4617.88
569.32	4540.64
569.48	4449.36
569.64	4409.57
569.81	4278.50
569.97	4479.79
570.13	4379.14
570.30	4407.23
570.46	4353.40
570.62	4348.72
570.78	4360.42
570.95	4135.73
571.11	4367.44
571.27	4255.09
571.43	4463.40
571.60	4390.84
571.76	4395.53
571.92	4367.44
572.09	4550.00
572.25	4432.97
572.41	4571.07
572.57	4517.23
572.74	4622.56
572.90	4437.66
573.06	4437.66
573.22	4500.85
573.38	4435.32
573.55	4346.37
573.71	4355.74
573.87	4479.79
574.03	4358.08
574.20	4339.35
574.36	4393.19
574.52	4219.99
574.68	4327.65
574.84	4318.29
575.01	4262.12
575.17	4252.75
575.33	4241.05
575.49	4215.30
575.65	4411.91
575.82	4152.11
575.98	4224.67
576.14	4278.50
576.30	4519.57
576.46	4573.41
576.62	4662.35
576.79	4624.90
576.95	4423.61
577.11	4397.87
577.27	4388.50
577.43	4358.08
577.59	4269.14
577.75	4313.61
577.92	4194.24
578.08	4189.56
578.24	4159.13
578.40	4315.95
578.56	4320.63
578.72	4559.36
578.88	4601.49
579.04	4514.89
579.21	4496.17
579.37	4285.52
579.53	4355.74
579.69	4449.36
579.85	4252.75
580.01	4358.08
580.17	4287.86
580.33	4308.93
580.49	4215.30
580.65	4224.67
580.82	4346.37
580.98	4290.20
581.14	4397.87
581.30	4212.96
581.46	4358.08
581.62	4435.32
581.78	4306.59
581.94	4329.99
582.10	4374.46
582.26	4386.16
582.42	4388.50
582.58	4456.38
582.74	4491.49
582.90	4411.91
583.06	4535.96
583.22	4547.66
583.38	4355.74
583.54	4423.61
583.70	4468.08
583.86	4397.87
584.02	4411.91
584.18	4428.29
584.34	4456.38
584.50	4322.97
584.66	4339.35
584.82	4517.23
584.98	4255.09
585.14	4205.94
585.30	4308.93
585.46	4121.68
585.62	4140.41
585.78	4060.83
585.94	4124.02
586.10	4215.30
586.26	4198.92
586.42	4362.76
586.58	4276.16
586.74	4184.88
586.90	4397.87
587.06	4299.56
587.22	4119.34
587.38	4084.23
587.54	4065.51
587.70	3922.74
587.86	3934.44
588.02	3691.02
588.18	3693.37
588.34	3562.30
588.49	3234.62
588.65	3152.70
588.81	2874.18
588.97	2967.80
589.13	3021.63
589.29	3070.78
589.45	3061.42
589.61	3173.77
589.77	3213.56
589.93	3445.27
590.08	3440.59
590.24	3566.98
590.40	3581.02
590.56	3555.27
590.72	3510.80
590.88	3578.68
591.04	3520.17
591.20	3461.65
591.35	3618.47
591.51	3407.82
591.67	3344.63
591.83	3471.01
591.99	3494.42
592.15	3417.18
592.31	3695.71
592.46	3695.71
592.62	3723.79
592.78	3698.05
592.94	3693.37
593.10	3667.62
593.26	3716.77
593.41	3850.18
593.57	3733.15
593.73	3550.59
593.89	3456.97
594.05	3421.86
594.20	3267.39
594.36	3346.97
594.52	3192.49
594.68	3218.24
594.84	3335.26
594.99	3604.42
595.15	3492.08
595.31	3531.87
595.47	3588.04
595.62	3616.13
595.78	3630.17
595.94	3719.11
596.10	3740.18
596.25	3646.55
596.41	3581.02
596.57	3417.18
596.73	3585.70
596.88	3597.40
597.04	3658.26
597.20	3576.34
597.36	3527.19
597.51	3583.36
597.67	3669.96
597.83	3466.33
