SpectraSuite Data File
++++++++++++++++++++++++++++++++++++
Date: Fri Oct 04 11:42:29 GMT-05:00 2013
User: price-jones
Dark Spectrum Present: No
Reference Spectrum Present: No
Number of Sampled Component Spectra: 1
Spectrometers: USB2+H05261
Integration Time (usec): 100000 (USB2+H05261)
Spectra Averaged: 1 (USB2+H05261)
Boxcar Smoothing: 0 (USB2+H05261)
Correct for Electrical Dark: No (USB2+H05261)
Strobe/Lamp Enabled: No (USB2+H05261)
Correct for Detector Non-linearity: No (USB2+H05261)
Correct for Stray Light: No (USB2+H05261)
Number of Pixels in Processed Spectrum: 2048
>>>>>Begin Processed Spectral Data<<<<<
365.73	0.00
365.92	0.00
366.12	0.00
366.32	0.00
366.52	0.00
366.72	0.00
366.91	0.00
367.11	0.00
367.31	0.00
367.51	0.00
367.70	0.00
367.90	0.00
368.10	0.00
368.30	0.00
368.49	0.00
368.69	0.00
368.89	0.00
369.09	0.00
369.28	35.11
369.48	0.00
369.68	0.00
369.87	16.38
370.07	0.00
370.27	23.41
370.47	0.00
370.66	0.00
370.86	72.56
371.06	65.54
371.25	140.43
371.45	60.85
371.65	37.45
371.84	77.24
372.04	70.22
372.24	93.62
372.44	98.30
372.63	107.66
372.83	170.86
373.03	154.48
373.22	117.03
373.42	142.77
373.62	159.16
373.81	88.94
374.01	102.98
374.21	140.43
374.40	98.30
374.60	95.96
374.79	51.49
374.99	168.52
375.19	93.62
375.38	138.09
375.58	152.13
375.78	128.73
375.97	117.03
376.17	194.26
376.37	114.69
376.56	124.05
376.76	131.07
376.95	72.56
377.15	166.18
377.35	88.94
377.54	173.20
377.74	112.35
377.93	53.83
378.13	88.94
378.33	121.71
378.52	79.58
378.72	140.43
378.91	161.50
379.11	53.83
379.31	128.73
379.50	105.32
379.70	191.92
379.89	187.24
380.09	63.19
380.28	25.75
380.48	95.96
380.68	65.54
380.87	23.41
381.07	138.09
381.26	133.41
381.46	168.52
381.65	74.90
381.85	95.96
382.04	135.75
382.24	145.11
382.43	63.19
382.63	102.98
382.83	138.09
383.02	159.16
383.22	100.64
383.41	21.06
383.61	102.98
383.80	121.71
384.00	79.58
384.19	149.79
384.39	126.39
384.58	65.54
384.78	81.92
384.97	84.26
385.17	49.15
385.36	91.28
385.56	88.94
385.75	88.94
385.95	131.07
386.14	147.45
386.34	65.54
386.53	86.60
386.72	121.71
386.92	126.39
387.11	154.48
387.31	133.41
387.50	0.00
387.70	135.75
387.89	114.69
388.09	86.60
388.28	117.03
388.48	105.32
388.67	102.98
388.86	37.45
389.06	81.92
389.25	142.77
389.45	119.37
389.64	147.45
389.84	121.71
390.03	112.35
390.22	86.60
390.42	105.32
390.61	119.37
390.81	117.03
391.00	110.01
391.19	117.03
391.39	98.30
391.58	154.48
391.78	166.18
391.97	30.43
392.16	107.66
392.36	138.09
392.55	196.60
392.75	119.37
392.94	65.54
393.13	98.30
393.33	72.56
393.52	100.64
393.71	152.13
393.91	102.98
394.10	81.92
394.29	98.30
394.49	131.07
394.68	88.94
394.88	138.09
395.07	110.01
395.26	56.17
395.46	166.18
395.65	72.56
395.84	39.79
396.04	210.65
396.23	173.20
396.42	156.82
396.62	102.98
396.81	168.52
397.00	100.64
397.19	25.75
397.39	156.82
397.58	128.73
397.77	140.43
397.97	86.60
398.16	147.45
398.35	140.43
398.55	107.66
398.74	98.30
398.93	131.07
399.12	98.30
399.32	112.35
399.51	102.98
399.70	224.69
399.90	63.19
400.09	86.60
400.28	177.88
400.47	224.69
400.67	154.48
400.86	98.30
401.05	205.97
401.24	128.73
401.44	161.50
401.63	124.05
401.82	119.37
402.01	51.49
402.21	112.35
402.40	86.60
402.59	152.13
402.78	124.05
402.97	81.92
403.17	147.45
403.36	81.92
403.55	173.20
403.74	98.30
403.93	255.12
404.13	365.12
404.32	276.18
404.51	304.27
404.70	208.31
404.89	161.50
405.09	105.32
405.28	161.50
405.47	102.98
405.66	100.64
405.85	114.69
406.05	110.01
406.24	107.66
406.43	81.92
406.62	105.32
406.81	180.22
407.00	152.13
407.20	149.79
407.39	102.98
407.58	131.07
407.77	163.84
407.96	203.63
408.15	166.18
408.34	117.03
408.54	135.75
408.73	117.03
408.92	124.05
409.11	131.07
409.30	135.75
409.49	93.62
409.68	88.94
409.87	119.37
410.07	81.92
410.26	180.22
410.45	138.09
410.64	95.96
410.83	142.77
411.02	124.05
411.21	145.11
411.40	145.11
411.59	107.66
411.78	117.03
411.98	133.41
412.17	152.13
412.36	98.30
412.55	154.48
412.74	163.84
412.93	161.50
413.12	126.39
413.31	135.75
413.50	208.31
413.69	152.13
413.88	205.97
414.07	161.50
414.26	58.51
414.45	110.01
414.64	163.84
414.83	126.39
415.02	91.28
415.22	149.79
415.41	124.05
415.60	102.98
415.79	215.33
415.98	245.76
416.17	154.48
416.36	126.39
416.55	189.58
416.74	194.26
416.93	182.56
417.12	128.73
417.31	114.69
417.50	110.01
417.69	100.64
417.88	105.32
418.07	110.01
418.26	107.66
418.45	63.19
418.64	184.90
418.83	212.99
419.02	184.90
419.21	152.13
419.39	95.96
419.58	140.43
419.77	119.37
419.96	161.50
420.15	224.69
420.34	140.43
420.53	142.77
420.72	161.50
420.91	133.41
421.10	124.05
421.29	135.75
421.48	135.75
421.67	124.05
421.86	81.92
422.05	88.94
422.24	126.39
422.43	184.90
422.61	154.48
422.80	93.62
422.99	161.50
423.18	135.75
423.37	180.22
423.56	149.79
423.75	121.71
423.94	53.83
424.13	184.90
424.32	88.94
424.50	175.54
424.69	182.56
424.88	243.42
425.07	187.24
425.26	149.79
425.45	166.18
425.64	72.56
425.83	72.56
426.01	138.09
426.20	145.11
426.39	140.43
426.58	105.32
426.77	131.07
426.96	124.05
427.15	128.73
427.33	133.41
427.52	149.79
427.71	149.79
427.90	128.73
428.09	72.56
428.28	110.01
428.46	91.28
428.65	114.69
428.84	131.07
429.03	184.90
429.22	133.41
429.40	166.18
429.59	81.92
429.78	152.13
429.97	128.73
430.16	173.20
430.34	142.77
430.53	142.77
430.72	163.84
430.91	196.60
431.10	154.48
431.28	152.13
431.47	142.77
431.66	161.50
431.85	121.71
432.03	91.28
432.22	138.09
432.41	124.05
432.60	189.58
432.79	152.13
432.97	210.65
433.16	152.13
433.35	156.82
433.54	166.18
433.72	145.11
433.91	215.33
434.10	196.60
434.28	182.56
434.47	119.37
434.66	243.42
434.85	154.48
435.03	409.59
435.22	945.58
435.41	1504.96
435.59	1411.34
435.78	1001.75
435.97	615.56
436.16	273.84
436.34	170.86
436.53	194.26
436.72	133.41
436.90	168.52
437.09	224.69
437.28	196.60
437.46	114.69
437.65	196.60
437.84	208.31
438.02	161.50
438.21	105.32
438.40	198.95
438.58	121.71
438.77	175.54
438.96	170.86
439.14	173.20
439.33	168.52
439.52	163.84
439.70	142.77
439.89	117.03
440.08	140.43
440.26	142.77
440.45	255.12
440.63	156.82
440.82	212.99
441.01	159.16
441.19	98.30
441.38	119.37
441.57	84.26
441.75	154.48
441.94	205.97
442.12	170.86
442.31	114.69
442.50	159.16
442.68	152.13
442.87	170.86
443.05	152.13
443.24	180.22
443.43	205.97
443.61	212.99
443.80	168.52
443.98	248.10
444.17	205.97
444.35	100.64
444.54	159.16
444.73	168.52
444.91	203.63
445.10	177.88
445.28	142.77
445.47	149.79
445.65	208.31
445.84	173.20
446.02	182.56
446.21	88.94
446.39	196.60
446.58	173.20
446.77	126.39
446.95	145.11
447.14	154.48
447.32	205.97
447.51	201.29
447.69	184.90
447.88	201.29
448.06	252.78
448.25	124.05
448.43	124.05
448.62	114.69
448.80	259.80
448.99	173.20
449.17	117.03
449.36	205.97
449.54	201.29
449.73	107.66
449.91	238.73
450.10	217.67
450.28	224.69
450.46	212.99
450.65	175.54
450.83	196.60
451.02	161.50
451.20	212.99
451.39	149.79
451.57	180.22
451.76	177.88
451.94	180.22
452.13	194.26
452.31	117.03
452.49	112.35
452.68	173.20
452.86	173.20
453.05	163.84
453.23	241.08
453.42	163.84
453.60	154.48
453.78	135.75
453.97	135.75
454.15	215.33
454.34	203.63
454.52	135.75
454.70	255.12
454.89	196.60
455.07	107.66
455.26	220.01
455.44	182.56
455.62	170.86
455.81	180.22
455.99	259.80
456.17	191.92
456.36	166.18
456.54	177.88
456.73	234.05
456.91	159.16
457.09	121.71
457.28	163.84
457.46	184.90
457.64	173.20
457.83	194.26
458.01	105.32
458.19	152.13
458.38	215.33
458.56	212.99
458.74	117.03
458.93	229.37
459.11	159.16
459.29	184.90
459.48	170.86
459.66	203.63
459.84	170.86
460.03	271.50
460.21	142.77
460.39	168.52
460.57	248.10
460.76	182.56
460.94	163.84
461.12	81.92
461.31	255.12
461.49	198.95
461.67	156.82
461.85	154.48
462.04	98.30
462.22	322.99
462.40	243.42
462.59	215.33
462.77	140.43
462.95	182.56
463.13	131.07
463.32	217.67
463.50	128.73
463.68	128.73
463.86	168.52
464.05	175.54
464.23	177.88
464.41	217.67
464.59	152.13
464.78	173.20
464.96	117.03
465.14	187.24
465.32	112.35
465.50	191.92
465.69	110.01
465.87	205.97
466.05	189.58
466.23	147.45
466.41	147.45
466.60	163.84
466.78	189.58
466.96	159.16
467.14	142.77
467.32	222.35
467.51	175.54
467.69	201.29
467.87	224.69
468.05	105.32
468.23	105.32
468.41	212.99
468.60	210.65
468.78	201.29
468.96	168.52
469.14	203.63
469.32	203.63
469.50	138.09
469.69	189.58
469.87	142.77
470.05	177.88
470.23	189.58
470.41	203.63
470.59	81.92
470.77	168.52
470.95	173.20
471.14	208.31
471.32	243.42
471.50	241.08
471.68	161.50
471.86	182.56
472.04	208.31
472.22	203.63
472.40	205.97
472.58	117.03
472.77	98.30
472.95	191.92
473.13	170.86
473.31	198.95
473.49	215.33
473.67	234.05
473.85	163.84
474.03	194.26
474.21	161.50
474.39	227.03
474.57	266.82
474.75	180.22
474.93	119.37
475.12	131.07
475.30	70.22
475.48	196.60
475.66	124.05
475.84	229.37
476.02	149.79
476.20	182.56
476.38	177.88
476.56	198.95
476.74	182.56
476.92	128.73
477.10	175.54
477.28	262.14
477.46	156.82
477.64	163.84
477.82	166.18
478.00	168.52
478.18	131.07
478.36	227.03
478.54	238.73
478.72	215.33
478.90	224.69
479.08	170.86
479.26	149.79
479.44	173.20
479.62	170.86
479.80	201.29
479.98	212.99
480.16	189.58
480.34	166.18
480.52	121.71
480.70	234.05
480.88	170.86
481.06	159.16
481.24	119.37
481.41	191.92
481.59	177.88
481.77	250.44
481.95	257.46
482.13	248.10
482.31	191.92
482.49	217.67
482.67	271.50
482.85	308.95
483.03	259.80
483.21	248.10
483.39	238.73
483.57	229.37
483.74	341.72
483.92	245.76
484.10	255.12
484.28	287.89
484.46	334.70
484.64	325.33
484.82	304.27
485.00	236.39
485.18	353.42
485.35	301.93
485.53	313.63
485.71	404.91
485.89	334.70
486.07	301.93
486.25	330.02
486.43	330.02
486.61	313.63
486.78	330.02
486.96	348.74
487.14	301.93
487.32	374.49
487.50	320.65
487.68	283.20
487.85	257.46
488.03	313.63
488.21	315.97
488.39	250.44
488.57	308.95
488.75	278.52
488.92	610.88
489.10	257.46
489.28	301.93
489.46	271.50
489.64	395.55
489.81	351.08
489.99	292.57
490.17	304.27
490.35	379.17
490.53	301.93
490.70	271.50
490.88	355.76
491.06	285.55
491.24	320.65
491.41	337.04
491.59	271.50
491.77	231.71
491.95	271.50
492.13	273.84
492.30	301.93
492.48	355.76
492.66	330.02
492.84	322.99
493.01	276.18
493.19	224.69
493.37	334.70
493.54	278.52
493.72	299.59
493.90	259.80
494.08	341.72
494.25	280.86
494.43	306.61
494.61	205.97
494.79	266.82
494.96	227.03
495.14	376.83
495.32	330.02
495.49	308.95
495.67	285.55
495.85	306.61
496.02	227.03
496.20	250.44
496.38	280.86
496.55	276.18
496.73	341.72
496.91	315.97
497.09	308.95
497.26	255.12
497.44	259.80
497.62	276.18
497.79	241.08
497.97	259.80
498.14	243.42
498.32	231.71
498.50	280.86
498.67	227.03
498.85	332.36
499.03	271.50
499.20	306.61
499.38	301.93
499.56	287.89
499.73	346.40
499.91	243.42
500.08	210.65
500.26	184.90
500.44	217.67
500.61	259.80
500.79	205.97
500.97	236.39
501.14	245.76
501.32	255.12
501.49	304.27
501.67	259.80
501.84	248.10
502.02	234.05
502.20	259.80
502.37	304.27
502.55	245.76
502.72	234.05
502.90	245.76
503.07	241.08
503.25	175.54
503.43	198.95
503.60	131.07
503.78	194.26
503.95	161.50
504.13	252.78
504.30	159.16
504.48	318.31
504.65	264.48
504.83	229.37
505.01	220.01
505.18	205.97
505.36	278.52
505.53	257.46
505.71	318.31
505.88	337.04
506.06	313.63
506.23	330.02
506.41	269.16
506.58	229.37
506.76	273.84
506.93	205.97
507.11	250.44
507.28	238.73
507.46	205.97
507.63	257.46
507.81	227.03
507.98	236.39
508.16	229.37
508.33	227.03
508.50	182.56
508.68	294.91
508.85	208.31
509.03	220.01
509.20	208.31
509.38	173.20
509.55	271.50
509.73	285.55
509.90	259.80
510.08	278.52
510.25	248.10
510.42	168.52
510.60	269.16
510.77	259.80
510.95	252.78
511.12	248.10
511.30	208.31
511.47	210.65
511.64	327.68
511.82	252.78
511.99	332.36
512.17	210.65
512.34	259.80
512.51	145.11
512.69	245.76
512.86	250.44
513.04	119.37
513.21	191.92
513.38	217.67
513.56	222.35
513.73	208.31
513.90	292.57
514.08	234.05
514.25	257.46
514.43	259.80
514.60	180.22
514.77	224.69
514.95	241.08
515.12	182.56
515.29	290.23
515.47	280.86
515.64	175.54
515.81	227.03
515.99	224.69
516.16	166.18
516.33	234.05
516.51	238.73
516.68	187.24
516.85	196.60
517.03	236.39
517.20	229.37
517.37	187.24
517.54	266.82
517.72	262.14
517.89	257.46
518.06	220.01
518.24	224.69
518.41	283.20
518.58	227.03
518.75	257.46
518.93	208.31
519.10	271.50
519.27	224.69
519.45	276.18
519.62	234.05
519.79	250.44
519.96	283.20
520.14	248.10
520.31	285.55
520.48	215.33
520.65	278.52
520.83	238.73
521.00	236.39
521.17	278.52
521.34	210.65
521.52	292.57
521.69	297.25
521.86	283.20
522.03	227.03
522.20	262.14
522.38	182.56
522.55	224.69
522.72	208.31
522.89	257.46
523.07	311.29
523.24	299.59
523.41	198.95
523.58	283.20
523.75	304.27
523.92	227.03
524.10	280.86
524.27	241.08
524.44	208.31
524.61	234.05
524.78	236.39
524.96	278.52
525.13	311.29
525.30	285.55
525.47	266.82
525.64	220.01
525.81	334.70
525.98	255.12
526.16	243.42
526.33	212.99
526.50	210.65
526.67	264.48
526.84	280.86
527.01	203.63
527.18	252.78
527.36	208.31
527.53	229.37
527.70	308.95
527.87	227.03
528.04	271.50
528.21	236.39
528.38	273.84
528.55	283.20
528.72	184.90
528.89	379.17
529.07	259.80
529.24	259.80
529.41	266.82
529.58	184.90
529.75	222.35
529.92	304.27
530.09	276.18
530.26	227.03
530.43	287.89
530.60	212.99
530.77	222.35
530.94	255.12
531.11	196.60
531.28	234.05
531.46	257.46
531.63	159.16
531.80	257.46
531.97	330.02
532.14	297.25
532.31	276.18
532.48	250.44
532.65	306.61
532.82	292.57
532.99	252.78
533.16	285.55
533.33	283.20
533.50	386.19
533.67	231.71
533.84	353.42
534.01	280.86
534.18	290.23
534.35	266.82
534.52	224.69
534.69	294.91
534.86	205.97
535.03	306.61
535.20	287.89
535.37	285.55
535.54	271.50
535.71	306.61
535.88	311.29
536.05	250.44
536.22	327.68
536.38	315.97
536.55	315.97
536.72	390.87
536.89	332.36
537.06	360.44
537.23	365.12
537.40	351.08
537.57	372.15
537.74	409.59
537.91	390.87
538.08	491.51
538.25	407.25
538.42	402.57
538.59	489.17
538.75	479.81
538.92	404.91
539.09	545.34
539.26	475.13
539.43	599.18
539.60	587.47
539.77	641.31
539.94	643.65
540.11	706.84
540.28	758.33
540.44	823.87
540.61	786.42
540.78	851.96
540.95	1029.84
541.12	1165.59
541.29	1228.78
541.46	1327.08
541.62	1231.12
541.79	1167.93
541.96	1306.02
542.13	1193.67
542.30	1217.08
542.47	1207.72
542.63	1193.67
542.80	1043.88
542.97	1153.88
543.14	1069.62
543.31	1104.73
543.48	1135.16
543.64	1025.15
543.81	1104.73
543.98	1095.37
544.15	992.39
544.32	1057.92
544.48	1067.28
544.65	1055.58
544.82	1053.24
544.99	987.71
545.16	1090.69
545.32	1102.39
545.49	1905.20
545.66	2663.53
545.83	3117.59
546.00	2717.36
546.16	2031.58
546.33	1483.90
546.50	1224.10
546.67	1046.22
546.83	887.06
547.00	819.19
547.17	765.36
547.34	793.44
547.50	784.08
547.67	781.74
547.84	662.37
548.00	741.95
548.17	718.54
548.34	704.50
548.51	739.61
548.67	683.44
548.84	645.99
549.01	653.01
549.18	596.84
549.34	620.24
549.51	601.52
549.68	599.18
549.84	592.16
550.01	540.66
550.18	638.97
550.34	547.69
550.51	526.62
550.68	580.45
550.84	475.13
551.01	491.51
551.18	491.51
551.34	437.68
551.51	484.49
551.68	404.91
551.84	444.70
552.01	458.74
552.18	416.62
552.34	454.06
552.51	360.44
552.68	411.93
552.84	379.17
553.01	416.62
553.18	311.29
553.34	360.44
553.51	276.18
553.67	407.25
553.84	376.83
554.01	397.89
554.17	358.10
554.34	290.23
554.51	365.12
554.67	376.83
554.84	374.49
555.00	330.02
555.17	315.97
555.33	297.25
555.50	255.12
555.67	248.10
555.83	257.46
556.00	301.93
556.16	463.43
556.33	266.82
556.50	271.50
556.66	217.67
556.83	255.12
556.99	210.65
557.16	273.84
557.32	208.31
557.49	304.27
557.65	191.92
557.82	245.76
557.98	255.12
558.15	205.97
558.32	283.20
558.48	210.65
558.65	280.86
558.81	337.04
558.98	250.44
559.14	285.55
559.31	220.01
559.47	243.42
559.64	189.58
559.80	252.78
559.97	255.12
560.13	290.23
560.30	241.08
560.46	283.20
560.63	238.73
560.79	294.91
560.96	210.65
561.12	294.91
561.29	266.82
561.45	280.86
561.61	234.05
561.78	365.12
561.94	283.20
562.11	236.39
562.27	276.18
562.44	198.95
562.60	252.78
562.77	248.10
562.93	285.55
563.10	271.50
563.26	292.57
563.42	250.44
563.59	299.59
563.75	238.73
563.92	252.78
564.08	229.37
564.24	325.33
564.41	339.38
564.57	234.05
564.74	182.56
564.90	292.57
565.07	276.18
565.23	201.29
565.39	227.03
565.56	224.69
565.72	248.10
565.88	224.69
566.05	273.84
566.21	236.39
566.38	273.84
566.54	229.37
566.70	280.86
566.87	222.35
567.03	236.39
567.19	280.86
567.36	208.31
567.52	278.52
567.68	266.82
567.85	280.86
568.01	245.76
568.17	304.27
568.34	273.84
568.50	322.99
568.66	241.08
568.83	320.65
568.99	187.24
569.15	320.65
569.32	285.55
569.48	297.25
569.64	234.05
569.81	262.14
569.97	198.95
570.13	257.46
570.30	287.89
570.46	269.16
570.62	238.73
570.78	299.59
570.95	276.18
571.11	264.48
571.27	330.02
571.43	208.31
571.60	245.76
571.76	271.50
571.92	252.78
572.09	224.69
572.25	252.78
572.41	266.82
572.57	245.76
572.74	212.99
572.90	245.76
573.06	222.35
573.22	191.92
573.38	159.16
573.55	231.71
573.71	217.67
573.87	198.95
574.03	250.44
574.20	241.08
574.36	271.50
574.52	205.97
574.68	234.05
574.84	234.05
575.01	299.59
575.17	257.46
575.33	297.25
575.49	290.23
575.65	248.10
575.82	212.99
575.98	283.20
576.14	229.37
576.30	351.08
576.46	526.62
576.62	709.18
576.79	805.14
576.95	650.67
577.11	510.24
577.27	348.74
577.43	362.78
577.59	395.55
577.75	273.84
577.92	285.55
578.08	212.99
578.24	264.48
578.40	332.36
578.56	491.51
578.72	667.05
578.88	704.50
579.04	631.94
579.21	440.02
579.37	435.34
579.53	325.33
579.69	337.04
579.85	447.04
580.01	451.72
580.17	362.78
580.33	414.27
580.49	386.19
580.65	348.74
580.82	313.63
580.98	290.23
581.14	332.36
581.30	402.57
581.46	369.80
581.62	372.15
581.78	423.64
581.94	423.64
582.10	358.10
582.26	402.57
582.42	388.53
582.58	404.91
582.74	383.85
582.90	400.23
583.06	470.45
583.22	395.55
583.38	404.91
583.54	447.04
583.70	404.91
583.86	442.36
584.02	411.93
584.18	435.34
584.34	407.25
584.50	351.08
584.66	381.51
584.82	337.04
584.98	379.17
585.14	332.36
585.30	372.15
585.46	409.59
585.62	353.42
585.78	400.23
585.94	482.15
586.10	416.62
586.26	404.91
586.42	435.34
586.58	505.56
586.74	547.69
586.90	606.20
587.06	608.54
587.22	620.24
587.38	552.37
587.54	489.17
587.70	472.79
587.86	510.24
588.02	395.55
588.18	390.87
588.34	411.93
588.49	292.57
588.65	390.87
588.81	313.63
588.97	297.25
589.13	381.51
589.29	360.44
589.45	344.06
589.61	337.04
589.77	390.87
589.93	280.86
590.08	325.33
590.24	208.31
590.40	332.36
590.56	271.50
590.72	327.68
590.88	369.80
591.04	320.65
591.20	351.08
591.35	365.12
591.51	325.33
591.67	346.40
591.83	365.12
591.99	351.08
592.15	430.66
592.31	379.17
592.46	348.74
592.62	512.58
592.78	491.51
592.94	486.83
593.10	465.77
593.26	444.70
593.41	430.66
593.57	437.68
593.73	306.61
593.89	322.99
594.05	287.89
594.20	372.15
594.36	367.46
594.52	372.15
594.68	283.20
594.84	273.84
594.99	383.85
595.15	308.95
595.31	346.40
595.47	334.70
595.62	360.44
595.78	304.27
595.94	330.02
596.10	290.23
596.25	271.50
596.41	353.42
596.57	367.46
596.73	313.63
596.88	243.42
597.04	318.31
597.20	264.48
597.36	304.27
597.51	369.80
597.67	311.29
597.83	311.29
597.99	376.83
598.14	322.99
598.30	269.16
598.46	388.53
598.61	416.62
598.77	393.21
598.93	383.85
599.09	334.70
599.24	416.62
599.40	390.87
599.56	397.89
599.71	369.80
599.87	376.83
600.03	325.33
600.18	311.29
600.34	308.95
600.50	327.68
600.65	262.14
600.81	330.02
600.97	318.31
601.12	304.27
601.28	330.02
601.44	339.38
601.59	290.23
601.75	290.23
601.91	231.71
602.06	259.80
602.22	376.83
602.37	266.82
602.53	229.37
602.69	311.29
602.84	332.36
603.00	269.16
603.16	238.73
603.31	262.14
603.47	287.89
603.62	217.67
603.78	194.26
603.94	259.80
604.09	301.93
604.25	257.46
604.40	358.10
604.56	248.10
604.71	273.84
604.87	215.33
605.03	252.78
605.18	168.52
605.34	374.49
605.49	308.95
605.65	161.50
605.80	259.80
605.96	292.57
606.12	369.80
606.27	273.84
606.43	365.12
606.58	381.51
606.74	362.78
606.89	334.70
607.05	379.17
607.20	320.65
607.36	292.57
607.51	245.76
607.67	334.70
607.82	395.55
607.98	479.81
608.13	491.51
608.29	372.15
608.44	444.70
608.60	479.81
608.75	465.77
608.91	386.19
609.06	468.11
609.22	498.53
609.37	589.82
609.53	561.73
609.68	650.67
609.84	716.20
609.99	770.04
610.15	922.17
610.30	1139.84
610.46	1425.39
610.61	1741.36
610.76	2047.97
610.92	2532.46
611.07	2738.43
611.23	2916.31
