SpectraSuite Data File
++++++++++++++++++++++++++++++++++++
Date: Fri Oct 04 11:42:20 GMT-05:00 2013
User: price-jones
Dark Spectrum Present: No
Reference Spectrum Present: No
Number of Sampled Component Spectra: 1
Spectrometers: USB2+H05261
Integration Time (usec): 100000 (USB2+H05261)
Spectra Averaged: 1 (USB2+H05261)
Boxcar Smoothing: 0 (USB2+H05261)
Correct for Electrical Dark: No (USB2+H05261)
Strobe/Lamp Enabled: No (USB2+H05261)
Correct for Detector Non-linearity: No (USB2+H05261)
Correct for Stray Light: No (USB2+H05261)
Number of Pixels in Processed Spectrum: 2048
>>>>>Begin Processed Spectral Data<<<<<
365.73	72.56
365.92	72.56
366.12	72.56
366.32	0.00
366.52	0.00
366.72	18.72
366.91	0.00
367.11	0.00
367.31	0.00
367.51	0.00
367.70	0.00
367.90	0.00
368.10	0.00
368.30	0.00
368.49	0.00
368.69	0.00
368.89	0.00
369.09	0.00
369.28	0.00
369.48	0.00
369.68	14.04
369.87	0.00
370.07	0.00
370.27	0.00
370.47	0.00
370.66	88.94
370.86	79.58
371.06	91.28
371.25	107.66
371.45	100.64
371.65	107.66
371.84	98.30
372.04	51.49
372.24	121.71
372.44	65.54
372.63	110.01
372.83	102.98
373.03	72.56
373.22	126.39
373.42	107.66
373.62	65.54
373.81	156.82
374.01	159.16
374.21	81.92
374.40	138.09
374.60	105.32
374.79	149.79
374.99	91.28
375.19	170.86
375.38	95.96
375.58	140.43
375.78	93.62
375.97	98.30
376.17	161.50
376.37	77.24
376.56	182.56
376.76	163.84
376.95	72.56
377.15	194.26
377.35	117.03
377.54	95.96
377.74	98.30
377.93	131.07
378.13	100.64
378.33	138.09
378.52	105.32
378.72	51.49
378.91	198.95
379.11	114.69
379.31	110.01
379.50	60.85
379.70	105.32
379.89	168.52
380.09	107.66
380.28	81.92
380.48	95.96
380.68	81.92
380.87	124.05
381.07	124.05
381.26	135.75
381.46	189.58
381.65	128.73
381.85	65.54
382.04	100.64
382.24	79.58
382.43	107.66
382.63	91.28
382.83	159.16
383.02	95.96
383.22	72.56
383.41	81.92
383.61	121.71
383.80	86.60
384.00	102.98
384.19	133.41
384.39	124.05
384.58	67.88
384.78	166.18
384.97	58.51
385.17	152.13
385.36	147.45
385.56	142.77
385.75	79.58
385.95	65.54
386.14	128.73
386.34	51.49
386.53	107.66
386.72	117.03
386.92	107.66
387.11	110.01
387.31	133.41
387.50	131.07
387.70	81.92
387.89	112.35
388.09	161.50
388.28	121.71
388.48	121.71
388.67	126.39
388.86	53.83
389.06	163.84
389.25	18.72
389.45	100.64
389.64	95.96
389.84	95.96
390.03	117.03
390.22	149.79
390.42	156.82
390.61	121.71
390.81	110.01
391.00	9.36
391.19	30.43
391.39	110.01
391.58	145.11
391.78	107.66
391.97	131.07
392.16	119.37
392.36	175.54
392.55	161.50
392.75	67.88
392.94	77.24
393.13	93.62
393.33	124.05
393.52	102.98
393.71	95.96
393.91	138.09
394.10	138.09
394.29	49.15
394.49	138.09
394.68	107.66
394.88	147.45
395.07	203.63
395.26	168.52
395.46	102.98
395.65	124.05
395.84	86.60
396.04	152.13
396.23	93.62
396.42	86.60
396.62	112.35
396.81	100.64
397.00	95.96
397.19	194.26
397.39	135.75
397.58	238.73
397.77	145.11
397.97	102.98
398.16	79.58
398.35	173.20
398.55	79.58
398.74	112.35
398.93	175.54
399.12	72.56
399.32	154.48
399.51	93.62
399.70	138.09
399.90	133.41
400.09	65.54
400.28	175.54
400.47	51.49
400.67	138.09
400.86	110.01
401.05	91.28
401.24	133.41
401.44	208.31
401.63	131.07
401.82	161.50
402.01	168.52
402.21	238.73
402.40	145.11
402.59	119.37
402.78	163.84
402.97	166.18
403.17	271.50
403.36	264.48
403.55	257.46
403.74	552.37
403.93	1767.10
404.13	3960.19
404.32	4959.60
404.51	4107.64
404.70	2441.18
404.89	922.17
405.09	435.34
405.28	234.05
405.47	215.33
405.66	184.90
405.85	189.58
406.05	100.64
406.24	107.66
406.43	196.60
406.62	147.45
406.81	255.12
407.00	400.23
407.20	587.47
407.39	685.78
407.58	725.57
407.77	552.37
407.96	315.97
408.15	238.73
408.34	140.43
408.54	128.73
408.73	175.54
408.92	159.16
409.11	170.86
409.30	180.22
409.49	93.62
409.68	128.73
409.87	173.20
410.07	196.60
410.26	201.29
410.45	105.32
410.64	100.64
410.83	227.03
411.02	98.30
411.21	229.37
411.40	231.71
411.59	142.77
411.78	138.09
411.98	196.60
412.17	145.11
412.36	220.01
412.55	177.88
412.74	194.26
412.93	198.95
413.12	184.90
413.31	212.99
413.50	159.16
413.69	168.52
413.88	161.50
414.07	196.60
414.26	224.69
414.45	159.16
414.64	182.56
414.83	189.58
415.02	241.08
415.22	229.37
415.41	215.33
415.60	236.39
415.79	203.63
415.98	236.39
416.17	215.33
416.36	208.31
416.55	170.86
416.74	163.84
416.93	259.80
417.12	208.31
417.31	227.03
417.50	231.71
417.69	220.01
417.88	203.63
418.07	191.92
418.26	191.92
418.45	189.58
418.64	259.80
418.83	304.27
419.02	257.46
419.21	264.48
419.39	227.03
419.58	227.03
419.77	194.26
419.96	220.01
420.15	252.78
420.34	208.31
420.53	241.08
420.72	189.58
420.91	266.82
421.10	194.26
421.29	203.63
421.48	252.78
421.67	252.78
421.86	245.76
422.05	224.69
422.24	257.46
422.43	189.58
422.61	252.78
422.80	142.77
422.99	294.91
423.18	318.31
423.37	290.23
423.56	266.82
423.75	217.67
423.94	187.24
424.13	222.35
424.32	241.08
424.50	187.24
424.69	180.22
424.88	215.33
425.07	227.03
425.26	306.61
425.45	301.93
425.64	238.73
425.83	264.48
426.01	299.59
426.20	283.20
426.39	259.80
426.58	217.67
426.77	365.12
426.96	280.86
427.15	287.89
427.33	297.25
427.52	241.08
427.71	358.10
427.90	294.91
428.09	271.50
428.28	243.42
428.46	308.95
428.65	227.03
428.84	348.74
429.03	311.29
429.22	280.86
429.40	262.14
429.59	257.46
429.78	306.61
429.97	266.82
430.16	257.46
430.34	337.04
430.53	325.33
430.72	262.14
430.91	390.87
431.10	334.70
431.28	299.59
431.47	344.06
431.66	383.85
431.85	278.52
432.03	259.80
432.22	400.23
432.41	353.42
432.60	325.33
432.79	362.78
432.97	369.80
433.16	477.47
433.35	411.93
433.54	437.68
433.72	535.98
433.91	402.57
434.10	566.41
434.28	627.26
434.47	725.57
434.66	854.30
434.85	964.30
435.03	2825.03
435.22	10626.03
435.41	21919.12
435.59	21345.69
435.78	13586.81
435.97	6906.92
436.16	2700.98
436.34	983.02
436.53	699.82
436.72	573.43
436.90	552.37
437.09	505.56
437.28	435.34
437.46	428.32
437.65	472.79
437.84	367.46
438.02	388.53
438.21	383.85
438.40	404.91
438.58	428.32
438.77	348.74
438.96	472.79
439.14	355.76
439.33	425.98
439.52	433.00
439.70	332.36
439.89	372.15
440.08	346.40
440.26	379.17
440.45	409.59
440.63	337.04
440.82	386.19
441.01	381.51
441.19	379.17
441.38	362.78
441.57	365.12
441.75	442.36
441.94	271.50
442.12	301.93
442.31	367.46
442.50	341.72
442.68	348.74
442.87	327.68
443.05	411.93
443.24	404.91
443.43	369.80
443.61	379.17
443.80	355.76
443.98	393.21
444.17	304.27
444.35	425.98
444.54	404.91
444.73	395.55
444.91	472.79
445.10	348.74
445.28	294.91
445.47	355.76
445.65	430.66
445.84	339.38
446.02	400.23
446.21	381.51
446.39	287.89
446.58	390.87
446.77	304.27
446.95	386.19
447.14	393.21
447.32	409.59
447.51	339.38
447.69	376.83
447.88	344.06
448.06	393.21
448.25	381.51
448.43	388.53
448.62	322.99
448.80	425.98
448.99	493.85
449.17	440.02
449.36	285.55
449.54	482.15
449.73	379.17
449.91	332.36
450.10	376.83
450.28	444.70
450.46	451.72
450.65	367.46
450.83	334.70
451.02	334.70
451.20	409.59
451.39	383.85
451.57	362.78
451.76	353.42
451.94	372.15
452.13	409.59
452.31	327.68
452.49	402.57
452.68	255.12
452.86	337.04
453.05	330.02
453.23	252.78
453.42	262.14
453.60	433.00
453.78	395.55
453.97	308.95
454.15	334.70
454.34	362.78
454.52	374.49
454.70	386.19
454.89	334.70
455.07	322.99
455.26	404.91
455.44	372.15
455.62	320.65
455.81	334.70
455.99	437.68
456.17	325.33
456.36	285.55
456.54	299.59
456.73	358.10
456.91	362.78
457.09	402.57
457.28	320.65
457.46	327.68
457.64	386.19
457.83	383.85
458.01	330.02
458.19	383.85
458.38	381.51
458.56	360.44
458.74	294.91
458.93	362.78
459.11	376.83
459.29	283.20
459.48	372.15
459.66	390.87
459.84	365.12
460.03	416.62
460.21	465.77
460.39	334.70
460.57	430.66
460.76	348.74
460.94	404.91
461.12	425.98
461.31	362.78
461.49	421.30
461.67	402.57
461.85	353.42
462.04	322.99
462.22	435.34
462.40	379.17
462.59	374.49
462.77	287.89
462.95	287.89
463.13	294.91
463.32	358.10
463.50	369.80
463.68	358.10
463.86	330.02
464.05	360.44
464.23	330.02
464.41	390.87
464.59	411.93
464.78	383.85
464.96	381.51
465.14	339.38
465.32	294.91
465.50	402.57
465.69	437.68
465.87	358.10
466.05	423.64
466.23	313.63
466.41	360.44
466.60	346.40
466.78	386.19
466.96	400.23
467.14	407.25
467.32	393.21
467.51	381.51
467.69	369.80
467.87	355.76
468.05	313.63
468.23	351.08
468.41	278.52
468.60	341.72
468.78	360.44
468.96	294.91
469.14	287.89
469.32	278.52
469.50	283.20
469.69	353.42
469.87	330.02
470.05	341.72
470.23	362.78
470.41	341.72
470.59	341.72
470.77	287.89
470.95	367.46
471.14	353.42
471.32	353.42
471.50	423.64
471.68	322.99
471.86	435.34
472.04	241.08
472.22	332.36
472.40	311.29
472.58	367.46
472.77	315.97
472.95	334.70
473.13	362.78
473.31	372.15
473.49	290.23
473.67	290.23
473.85	433.00
474.03	386.19
474.21	337.04
474.39	301.93
474.57	402.57
474.75	344.06
474.93	360.44
475.12	360.44
475.30	360.44
475.48	348.74
475.66	362.78
475.84	280.86
476.02	369.80
476.20	369.80
476.38	437.68
476.56	386.19
476.74	397.89
476.92	327.68
477.10	318.31
477.28	421.30
477.46	339.38
477.64	465.77
477.82	416.62
478.00	360.44
478.18	353.42
478.36	397.89
478.54	430.66
478.72	416.62
478.90	358.10
479.08	491.51
479.26	425.98
479.44	341.72
479.62	379.17
479.80	423.64
479.98	514.92
480.16	440.02
480.34	400.23
480.52	498.53
480.70	557.05
480.88	517.26
481.06	531.30
481.24	505.56
481.41	571.09
481.59	667.05
481.77	685.78
481.95	765.36
482.13	828.55
482.31	774.72
482.49	835.57
482.67	882.38
482.85	1006.43
483.03	980.68
483.21	1050.90
483.39	1137.50
483.57	1090.69
483.74	1240.48
483.92	1359.85
484.10	1420.71
484.28	1411.34
484.46	1603.27
484.64	1605.61
484.82	1680.50
485.00	1673.48
485.18	1865.41
485.35	1926.26
485.53	1949.67
485.71	2132.23
485.89	2195.42
486.07	2186.06
486.25	2366.28
486.43	2249.25
486.61	2174.36
486.78	2251.60
486.96	2218.83
487.14	2169.68
487.32	2190.74
487.50	2169.68
487.68	2235.21
487.85	2237.55
488.03	2197.76
488.21	2073.71
488.39	2071.37
488.57	2099.46
488.75	1966.05
488.92	2214.15
489.10	1877.11
489.28	1888.81
489.46	1818.60
489.64	1785.83
489.81	1816.26
489.99	1790.51
490.17	1664.12
490.35	1809.23
490.53	1724.97
490.70	1727.32
490.88	1638.38
491.06	1858.39
491.24	1994.14
491.41	2003.50
491.59	1809.23
491.77	1708.59
491.95	1657.10
492.13	1617.31
492.30	1544.75
492.48	1582.20
492.66	1495.60
492.84	1462.83
493.01	1502.62
493.19	1479.22
493.37	1474.54
493.54	1469.86
493.72	1486.24
493.90	1366.87
494.08	1387.94
494.25	1394.96
494.43	1306.02
494.61	1341.13
494.79	1277.93
494.96	1240.48
495.14	1252.19
495.32	1130.48
495.49	1287.29
495.67	1259.21
495.85	1093.03
496.02	1144.52
496.20	1139.84
496.38	1186.65
496.55	1167.93
496.73	1172.61
496.91	1130.48
497.09	1086.01
497.26	1086.01
497.44	1048.56
497.62	1095.37
497.79	1034.52
497.97	1013.45
498.14	1015.79
498.32	990.05
498.50	973.66
498.67	931.53
498.85	823.87
499.03	896.43
499.20	915.15
499.38	847.27
499.56	866.00
499.73	870.68
499.91	748.97
500.08	819.19
500.26	725.57
500.44	777.06
500.61	744.29
500.79	741.95
500.97	692.80
501.14	615.56
501.32	669.39
501.49	678.76
501.67	615.56
501.84	641.31
502.02	571.09
502.20	599.18
502.37	676.41
502.55	566.41
502.72	557.05
502.90	615.56
503.07	507.90
503.25	573.43
503.43	463.43
503.60	472.79
503.78	491.51
503.95	463.43
504.13	519.60
504.30	423.64
504.48	482.15
504.65	458.74
504.83	528.96
505.01	470.45
505.18	425.98
505.36	355.76
505.53	348.74
505.71	428.32
505.88	498.53
506.06	388.53
506.23	386.19
506.41	425.98
506.58	404.91
506.76	435.34
506.93	440.02
507.11	379.17
507.28	416.62
507.46	442.36
507.63	393.21
507.81	283.20
507.98	458.74
508.16	367.46
508.33	409.59
508.50	435.34
508.68	386.19
508.85	397.89
509.03	463.43
509.20	414.27
509.38	402.57
509.55	463.43
509.73	477.47
509.90	414.27
510.08	362.78
510.25	421.30
510.42	313.63
510.60	374.49
510.77	383.85
510.95	388.53
511.12	344.06
511.30	358.10
511.47	383.85
511.64	428.32
511.82	400.23
511.99	379.17
512.17	292.57
512.34	341.72
512.51	337.04
512.69	372.15
512.86	344.06
513.04	344.06
513.21	325.33
513.38	367.46
513.56	337.04
513.73	372.15
513.90	365.12
514.08	325.33
514.25	313.63
514.43	397.89
514.60	372.15
514.77	327.68
514.95	355.76
515.12	381.51
515.29	365.12
515.47	358.10
515.64	367.46
515.81	346.40
515.99	395.55
516.16	369.80
516.33	395.55
516.51	299.59
516.68	287.89
516.85	287.89
517.03	285.55
517.20	327.68
517.37	311.29
517.54	442.36
517.72	369.80
517.89	362.78
518.06	238.73
518.24	341.72
518.41	470.45
518.58	341.72
518.75	308.95
518.93	360.44
519.10	311.29
519.27	271.50
519.45	383.85
519.62	320.65
519.79	390.87
519.96	278.52
520.14	330.02
520.31	278.52
520.48	386.19
520.65	341.72
520.83	297.25
521.00	355.76
521.17	411.93
521.34	327.68
521.52	341.72
521.69	301.93
521.86	334.70
522.03	301.93
522.20	318.31
522.38	304.27
522.55	355.76
522.72	285.55
522.89	294.91
523.07	332.36
523.24	297.25
523.41	320.65
523.58	358.10
523.75	346.40
523.92	344.06
524.10	421.30
524.27	376.83
524.44	327.68
524.61	379.17
524.78	346.40
524.96	318.31
525.13	355.76
525.30	341.72
525.47	376.83
525.64	390.87
525.81	400.23
525.98	346.40
526.16	315.97
526.33	322.99
526.50	287.89
526.67	367.46
526.84	294.91
527.01	367.46
527.18	402.57
527.36	458.74
527.53	465.77
527.70	442.36
527.87	531.30
528.04	435.34
528.21	360.44
528.38	484.49
528.55	344.06
528.72	447.04
528.89	482.15
529.07	318.31
529.24	388.53
529.41	435.34
529.58	362.78
529.75	407.25
529.92	383.85
530.09	435.34
530.26	444.70
530.43	395.55
530.60	449.38
530.77	486.83
530.94	498.53
531.11	404.91
531.28	472.79
531.46	437.68
531.63	543.00
531.80	517.26
531.97	477.47
532.14	702.16
532.31	798.12
532.48	908.13
532.65	873.02
532.82	985.37
532.99	1128.14
533.16	1399.64
533.33	1479.22
533.50	1200.69
533.67	1137.50
533.84	1041.54
534.01	1008.77
534.18	819.19
534.35	795.78
534.52	791.10
534.69	870.68
534.86	922.17
535.03	779.40
535.20	898.77
535.37	1015.79
535.54	1163.25
535.71	1074.31
535.88	1191.33
536.05	1193.67
536.22	1282.61
536.38	1476.88
536.55	1593.90
536.72	1680.50
536.89	1778.81
537.06	2012.86
537.23	2237.55
537.40	2509.05
537.57	2656.51
537.74	2768.85
537.91	2981.84
538.08	2972.48
538.25	2981.84
538.42	2981.84
538.59	2991.20
538.75	3190.15
538.92	3435.91
539.09	3761.24
539.26	4117.00
539.43	4683.41
539.60	5217.05
539.77	5790.49
539.94	6600.31
540.11	7023.95
540.28	7744.83
540.44	8657.64
540.61	9689.82
540.78	11084.78
540.95	13256.79
541.12	15815.00
541.29	17441.67
541.46	18244.48
541.62	17949.57
541.79	17193.58
541.96	16203.53
542.13	14682.18
542.30	13916.83
542.47	13046.15
542.63	12416.54
542.80	11950.78
542.97	11840.77
543.14	11756.51
543.31	11651.19
543.48	11768.21
543.64	11983.54
543.81	12093.55
543.98	12166.10
544.15	12142.70
544.32	12266.75
544.48	12320.58
544.65	12072.48
544.82	12081.85
544.99	11978.86
545.16	12432.93
545.32	13317.65
545.49	23569.19
545.66	42859.89
545.83	49043.59
546.00	41998.57
546.16	28514.75
546.33	20886.94
546.50	15901.60
546.67	12531.23
546.83	11143.29
547.00	10429.43
547.17	10122.82
547.34	9399.59
547.50	9303.63
547.67	9048.51
547.84	8578.06
548.00	8173.15
548.17	7880.58
548.34	7440.56
548.51	7321.20
548.67	6937.35
548.84	6747.76
549.01	6532.44
549.18	6097.10
549.34	5731.97
549.51	5727.29
549.68	5483.88
549.84	5268.55
550.01	5004.07
550.18	4870.65
550.34	4505.53
550.51	4376.80
550.68	4198.92
550.84	4011.68
551.01	3735.50
551.18	3480.38
551.34	3398.46
551.51	3323.56
551.68	3105.89
551.84	3019.29
552.01	2899.92
552.18	2775.88
552.34	2675.23
552.51	2614.38
552.68	2424.80
552.84	2448.20
553.01	2399.05
553.18	2307.77
553.34	2167.34
553.51	2122.87
553.67	2097.12
553.84	1987.11
554.01	1935.62
554.17	1753.06
554.34	1666.46
554.51	1544.75
554.67	1516.67
554.84	1306.02
555.00	1291.98
555.17	1231.12
555.33	1214.74
555.50	1043.88
555.67	1200.69
555.83	1067.28
556.00	994.73
556.16	1184.31
556.33	961.96
556.50	945.58
556.66	957.28
556.83	940.90
556.99	926.85
557.16	814.51
557.32	772.38
557.49	781.74
557.65	833.23
557.82	739.61
557.98	781.74
558.15	725.57
558.32	704.50
558.48	720.88
558.65	664.71
558.81	699.82
558.98	624.92
559.14	671.73
559.31	674.07
559.47	631.94
559.64	674.07
559.80	617.90
559.97	547.69
560.13	610.88
560.30	608.54
560.46	622.58
560.63	606.20
560.79	627.26
560.96	615.56
561.12	678.76
561.29	594.50
561.45	540.66
561.61	620.24
561.78	671.73
561.94	603.86
562.11	540.66
562.27	585.13
562.44	636.63
562.60	629.60
562.77	568.75
562.93	596.84
563.10	547.69
563.26	533.64
563.42	580.45
563.59	575.77
563.75	531.30
563.92	608.54
564.08	545.34
564.24	550.03
564.41	589.82
564.57	568.75
564.74	496.19
564.90	557.05
565.07	538.32
565.23	512.58
565.39	517.26
565.56	505.56
565.72	456.40
565.88	477.47
566.05	559.39
566.21	454.06
566.38	603.86
566.54	514.92
566.70	596.84
566.87	468.11
567.03	470.45
567.19	479.81
567.36	531.30
567.52	493.85
567.68	479.81
567.85	517.26
568.01	430.66
568.17	489.17
568.34	498.53
568.50	489.17
568.66	470.45
568.83	669.39
568.99	479.81
569.15	500.87
569.32	475.13
569.48	528.96
569.64	482.15
569.81	447.04
569.97	402.57
570.13	400.23
570.30	381.51
570.46	421.30
570.62	327.68
570.78	369.80
570.95	428.32
571.11	479.81
571.27	433.00
571.43	414.27
571.60	411.93
571.76	388.53
571.92	421.30
572.09	430.66
572.25	381.51
572.41	477.47
572.57	381.51
572.74	407.25
572.90	362.78
573.06	447.04
573.22	404.91
573.38	477.47
573.55	484.49
573.71	543.00
573.87	491.51
574.03	402.57
574.20	362.78
574.36	484.49
574.52	404.91
574.68	461.09
574.84	559.39
575.01	517.26
575.17	564.07
575.33	550.03
575.49	585.13
575.65	669.39
575.82	622.58
575.98	732.59
576.14	802.80
576.30	1603.27
576.46	5006.41
576.62	7960.16
576.79	8704.45
576.95	6012.84
577.11	3913.38
577.27	2827.37
577.43	1963.71
577.59	1228.78
577.75	1015.79
577.92	1036.86
578.08	966.64
578.24	997.07
578.40	1834.98
578.56	4795.76
578.72	7492.05
578.88	7892.29
579.04	5650.05
579.21	4035.08
579.37	3075.46
579.53	2303.09
579.69	2340.54
579.85	2878.86
580.01	3288.45
580.17	3000.57
580.33	2537.14
580.49	2270.32
580.65	2069.03
580.82	1916.90
580.98	1947.33
581.14	1792.85
581.30	2092.44
581.46	2148.61
581.62	2258.62
581.78	2483.31
581.94	2600.34
582.10	2729.06
582.26	2796.94
582.42	2946.73
582.58	3012.27
582.74	3070.78
582.90	3021.63
583.06	3183.13
583.22	3290.79
583.38	3206.53
583.54	2956.10
583.70	3005.25
583.86	2974.82
584.02	2925.67
584.18	3014.61
584.34	2918.65
584.50	2963.12
584.66	2897.58
584.82	2675.23
584.98	2630.76
585.14	2693.96
585.30	2640.12
585.46	2684.59
585.62	2635.44
585.78	2600.34
585.94	2663.53
586.10	2766.51
586.26	2944.39
586.42	3438.25
586.58	3880.61
586.74	4578.09
586.90	5713.25
587.06	5830.27
587.22	5968.37
587.38	5242.80
587.54	4479.79
587.70	3758.90
587.86	3199.51
588.02	2813.32
588.18	2473.95
588.34	2331.17
588.49	2155.63
588.65	1966.05
588.81	1870.09
588.97	1940.30
589.13	1837.32
589.29	1668.80
589.45	1804.55
589.61	1804.55
589.77	1860.73
589.93	1694.55
590.08	1893.49
590.24	1970.73
590.40	1888.81
590.56	2139.25
590.72	2059.67
590.88	1987.11
591.04	2143.93
591.20	2263.30
591.35	2272.66
591.51	2363.94
591.67	2602.68
591.83	2619.06
591.99	2930.35
592.15	3108.23
592.31	3414.84
592.46	3625.49
592.62	4016.36
592.78	4271.48
592.94	4337.01
593.10	4259.78
593.26	3941.46
593.41	3777.62
593.57	3302.50
593.73	3089.51
593.89	2616.72
594.05	2352.24
594.20	2111.16
594.36	1970.73
594.52	1837.32
594.68	1767.10
594.84	1689.87
594.99	1675.82
595.15	1621.99
595.31	1657.10
595.47	1607.95
595.62	1586.88
595.78	1600.93
595.94	1500.28
596.10	1624.33
596.25	1558.80
596.41	1603.27
596.57	1682.85
596.73	1596.25
596.88	1507.30
597.04	1526.03
597.20	1526.03
597.36	1600.93
597.51	1682.85
597.67	1832.64
597.83	1776.47
597.99	1877.11
598.14	1961.37
598.30	2036.27
598.46	2207.13
598.61	2375.64
598.77	2284.36
598.93	2427.14
599.09	2551.18
599.24	2576.93
599.40	2607.36
599.56	2389.69
599.71	2434.16
599.87	2303.09
600.03	2277.34
600.18	1966.05
600.34	1930.94
600.50	1757.74
600.65	1650.08
600.81	1610.29
600.97	1488.58
601.12	1467.52
601.28	1383.26
601.44	1364.53
601.59	1306.02
601.75	1273.25
601.91	1210.06
602.06	1158.57
602.22	1238.14
602.37	1130.48
602.53	1036.86
602.69	1097.71
602.84	1125.80
603.00	1057.92
603.16	1081.33
603.31	1174.95
603.47	1125.80
603.62	1064.94
603.78	1184.31
603.94	1167.93
604.09	1135.16
604.25	1177.29
604.40	1240.48
604.56	1205.38
604.71	1390.28
604.87	1313.04
605.03	1315.38
605.18	1308.36
605.34	1350.49
605.49	1329.42
605.65	1434.75
605.80	1413.68
605.96	1380.92
606.12	1535.39
