SpectraSuite Data File
++++++++++++++++++++++++++++++++++++
Date: Fri Oct 04 11:41:57 GMT-05:00 2013
User: price-jones
Dark Spectrum Present: No
Reference Spectrum Present: No
Number of Sampled Component Spectra: 1
Spectrometers: USB2+H05261
Integration Time (usec): 100000 (USB2+H05261)
Spectra Averaged: 1 (USB2+H05261)
Boxcar Smoothing: 0 (USB2+H05261)
Correct for Electrical Dark: No (USB2+H05261)
Strobe/Lamp Enabled: No (USB2+H05261)
Correct for Detector Non-linearity: No (USB2+H05261)
Correct for Stray Light: No (USB2+H05261)
Number of Pixels in Processed Spectrum: 2048
>>>>>Begin Processed Spectral Data<<<<<
365.73	84.26
365.92	84.26
366.12	84.26
366.32	0.00
366.52	0.00
366.72	0.00
366.91	0.00
367.11	0.00
367.31	0.00
367.51	0.00
367.70	0.00
367.90	0.00
368.10	0.00
368.30	0.00
368.49	0.00
368.69	0.00
368.89	0.00
369.09	0.00
369.28	0.00
369.48	0.00
369.68	4.68
369.87	51.49
370.07	23.41
370.27	70.22
370.47	0.00
370.66	0.00
370.86	67.88
371.06	9.36
371.25	91.28
371.45	140.43
371.65	65.54
371.84	25.75
372.04	70.22
372.24	23.41
372.44	191.92
372.63	35.11
372.83	166.18
373.03	74.90
373.22	16.38
373.42	180.22
373.62	126.39
373.81	131.07
374.01	149.79
374.21	168.52
374.40	140.43
374.60	133.41
374.79	81.92
374.99	35.11
375.19	149.79
375.38	105.32
375.58	114.69
375.78	168.52
375.97	163.84
376.17	114.69
376.37	201.29
376.56	63.19
376.76	135.75
376.95	72.56
377.15	77.24
377.35	114.69
377.54	161.50
377.74	166.18
377.93	138.09
378.13	145.11
378.33	133.41
378.52	51.49
378.72	135.75
378.91	84.26
379.11	46.81
379.31	77.24
379.50	58.51
379.70	117.03
379.89	84.26
380.09	112.35
380.28	142.77
380.48	117.03
380.68	91.28
380.87	72.56
381.07	163.84
381.26	182.56
381.46	60.85
381.65	124.05
381.85	102.98
382.04	25.75
382.24	63.19
382.43	0.00
382.63	161.50
382.83	98.30
383.02	114.69
383.22	145.11
383.41	93.62
383.61	56.17
383.80	121.71
384.00	107.66
384.19	98.30
384.39	70.22
384.58	138.09
384.78	42.13
384.97	128.73
385.17	74.90
385.36	88.94
385.56	161.50
385.75	135.75
385.95	102.98
386.14	140.43
386.34	95.96
386.53	119.37
386.72	56.17
386.92	124.05
387.11	131.07
387.31	220.01
387.50	46.81
387.70	93.62
387.89	86.60
388.09	93.62
388.28	152.13
388.48	161.50
388.67	166.18
388.86	84.26
389.06	102.98
389.25	88.94
389.45	145.11
389.64	79.58
389.84	152.13
390.03	74.90
390.22	152.13
390.42	168.52
390.61	105.32
390.81	86.60
391.00	110.01
391.19	149.79
391.39	114.69
391.58	107.66
391.78	88.94
391.97	110.01
392.16	84.26
392.36	220.01
392.55	145.11
392.75	42.13
392.94	70.22
393.13	177.88
393.33	112.35
393.52	77.24
393.71	110.01
393.91	149.79
394.10	131.07
394.29	46.81
394.49	105.32
394.68	81.92
394.88	210.65
395.07	152.13
395.26	88.94
395.46	191.92
395.65	110.01
395.84	117.03
396.04	201.29
396.23	114.69
396.42	133.41
396.62	77.24
396.81	119.37
397.00	119.37
397.19	91.28
397.39	133.41
397.58	135.75
397.77	93.62
397.97	184.90
398.16	147.45
398.35	175.54
398.55	112.35
398.74	112.35
398.93	149.79
399.12	138.09
399.32	110.01
399.51	95.96
399.70	152.13
399.90	170.86
400.09	126.39
400.28	191.92
400.47	77.24
400.67	105.32
400.86	194.26
401.05	222.35
401.24	121.71
401.44	196.60
401.63	149.79
401.82	189.58
402.01	142.77
402.21	140.43
402.40	177.88
402.59	191.92
402.78	163.84
402.97	163.84
403.17	121.71
403.36	220.01
403.55	177.88
403.74	512.58
403.93	1486.24
404.13	2843.75
404.32	3370.37
404.51	2759.49
404.70	1614.97
404.89	723.23
405.09	344.06
405.28	168.52
405.47	138.09
405.66	198.95
405.85	262.14
406.05	173.20
406.24	170.86
406.43	147.45
406.62	161.50
406.81	166.18
407.00	315.97
407.20	500.87
407.39	550.03
407.58	524.28
407.77	428.32
407.96	224.69
408.15	217.67
408.34	215.33
408.54	187.24
408.73	152.13
408.92	138.09
409.11	205.97
409.30	189.58
409.49	128.73
409.68	145.11
409.87	229.37
410.07	166.18
410.26	182.56
410.45	170.86
410.64	168.52
410.83	154.48
411.02	145.11
411.21	140.43
411.40	124.05
411.59	119.37
411.78	212.99
411.98	114.69
412.17	128.73
412.36	170.86
412.55	102.98
412.74	149.79
412.93	112.35
413.12	203.63
413.31	161.50
413.50	224.69
413.69	154.48
413.88	184.90
414.07	227.03
414.26	107.66
414.45	161.50
414.64	74.90
414.83	168.52
415.02	180.22
415.22	121.71
415.41	203.63
415.60	229.37
415.79	175.54
415.98	105.32
416.17	182.56
416.36	229.37
416.55	140.43
416.74	189.58
416.93	215.33
417.12	203.63
417.31	229.37
417.50	236.39
417.69	325.33
417.88	238.73
418.07	191.92
418.26	168.52
418.45	212.99
418.64	252.78
418.83	184.90
419.02	154.48
419.21	215.33
419.39	238.73
419.58	198.95
419.77	180.22
419.96	163.84
420.15	173.20
420.34	271.50
420.53	210.65
420.72	231.71
420.91	248.10
421.10	189.58
421.29	159.16
421.48	227.03
421.67	189.58
421.86	227.03
422.05	220.01
422.24	121.71
422.43	220.01
422.61	210.65
422.80	269.16
422.99	269.16
423.18	224.69
423.37	201.29
423.56	262.14
423.75	252.78
423.94	194.26
424.13	154.48
424.32	266.82
424.50	222.35
424.69	163.84
424.88	229.37
425.07	208.31
425.26	205.97
425.45	243.42
425.64	264.48
425.83	248.10
426.01	238.73
426.20	234.05
426.39	227.03
426.58	215.33
426.77	196.60
426.96	231.71
427.15	205.97
427.33	201.29
427.52	208.31
427.71	236.39
427.90	220.01
428.09	217.67
428.28	248.10
428.46	231.71
428.65	203.63
428.84	278.52
429.03	294.91
429.22	159.16
429.40	227.03
429.59	222.35
429.78	287.89
429.97	184.90
430.16	252.78
430.34	318.31
430.53	297.25
430.72	262.14
430.91	257.46
431.10	229.37
431.28	301.93
431.47	245.76
431.66	327.68
431.85	355.76
432.03	266.82
432.22	306.61
432.41	285.55
432.60	337.04
432.79	283.20
432.97	252.78
433.16	308.95
433.35	332.36
433.54	292.57
433.72	299.59
433.91	327.68
434.10	386.19
434.28	587.47
434.47	571.09
434.66	615.56
434.85	795.78
435.03	2349.90
435.22	8245.71
435.41	15688.61
435.59	14881.13
435.78	9376.19
435.97	4737.24
436.16	1816.26
436.34	732.59
436.53	456.40
436.72	491.51
436.90	414.27
437.09	381.51
437.28	332.36
437.46	297.25
437.65	327.68
437.84	322.99
438.02	355.76
438.21	330.02
438.40	255.12
438.58	276.18
438.77	334.70
438.96	330.02
439.14	245.76
439.33	266.82
439.52	308.95
439.70	280.86
439.89	294.91
440.08	290.23
440.26	327.68
440.45	376.83
440.63	360.44
440.82	367.46
441.01	257.46
441.19	311.29
441.38	330.02
441.57	257.46
441.75	367.46
441.94	283.20
442.12	292.57
442.31	334.70
442.50	308.95
442.68	264.48
442.87	227.03
443.05	248.10
443.24	318.31
443.43	416.62
443.61	280.86
443.80	301.93
443.98	304.27
444.17	259.80
444.35	283.20
444.54	315.97
444.73	339.38
444.91	271.50
445.10	313.63
445.28	285.55
445.47	264.48
445.65	304.27
445.84	299.59
446.02	304.27
446.21	280.86
446.39	285.55
446.58	273.84
446.77	297.25
446.95	285.55
447.14	222.35
447.32	341.72
447.51	330.02
447.69	322.99
447.88	243.42
448.06	320.65
448.25	315.97
448.43	306.61
448.62	313.63
448.80	283.20
448.99	217.67
449.17	292.57
449.36	348.74
449.54	292.57
449.73	257.46
449.91	308.95
450.10	322.99
450.28	311.29
450.46	330.02
450.65	358.10
450.83	269.16
451.02	353.42
451.20	325.33
451.39	320.65
451.57	299.59
451.76	311.29
451.94	341.72
452.13	301.93
452.31	311.29
452.49	262.14
452.68	299.59
452.86	292.57
453.05	386.19
453.23	264.48
453.42	313.63
453.60	315.97
453.78	290.23
453.97	322.99
454.15	269.16
454.34	278.52
454.52	301.93
454.70	292.57
454.89	311.29
455.07	264.48
455.26	308.95
455.44	304.27
455.62	245.76
455.81	292.57
455.99	369.80
456.17	304.27
456.36	259.80
456.54	250.44
456.73	304.27
456.91	306.61
457.09	332.36
457.28	273.84
457.46	250.44
457.64	351.08
457.83	404.91
458.01	322.99
458.19	262.14
458.38	248.10
458.56	346.40
458.74	308.95
458.93	266.82
459.11	297.25
459.29	255.12
459.48	365.12
459.66	266.82
459.84	348.74
460.03	393.21
460.21	341.72
460.39	341.72
460.57	243.42
460.76	322.99
460.94	341.72
461.12	379.17
461.31	276.18
461.49	191.92
461.67	266.82
461.85	236.39
462.04	337.04
462.22	695.14
462.40	322.99
462.59	365.12
462.77	344.06
462.95	257.46
463.13	255.12
463.32	306.61
463.50	255.12
463.68	252.78
463.86	278.52
464.05	304.27
464.23	348.74
464.41	315.97
464.59	318.31
464.78	311.29
464.96	264.48
465.14	271.50
465.32	299.59
465.50	269.16
465.69	262.14
465.87	294.91
466.05	320.65
466.23	271.50
466.41	346.40
466.60	390.87
466.78	257.46
466.96	264.48
467.14	224.69
467.32	346.40
467.51	315.97
467.69	332.36
467.87	393.21
468.05	369.80
468.23	304.27
468.41	311.29
468.60	285.55
468.78	259.80
468.96	341.72
469.14	318.31
469.32	330.02
469.50	271.50
469.69	290.23
469.87	285.55
470.05	308.95
470.23	252.78
470.41	315.97
470.59	198.95
470.77	255.12
470.95	220.01
471.14	313.63
471.32	299.59
471.50	255.12
471.68	269.16
471.86	266.82
472.04	341.72
472.22	297.25
472.40	205.97
472.58	294.91
472.77	339.38
472.95	308.95
473.13	294.91
473.31	351.08
473.49	231.71
473.67	369.80
473.85	388.53
474.03	306.61
474.21	271.50
474.39	351.08
474.57	393.21
474.75	383.85
474.93	283.20
475.12	217.67
475.30	269.16
475.48	287.89
475.66	360.44
475.84	320.65
476.02	308.95
476.20	273.84
476.38	294.91
476.56	372.15
476.74	255.12
476.92	290.23
477.10	313.63
477.28	332.36
477.46	325.33
477.64	362.78
477.82	397.89
478.00	351.08
478.18	250.44
478.36	313.63
478.54	320.65
478.72	337.04
478.90	390.87
479.08	262.14
479.26	304.27
479.44	418.96
479.62	308.95
479.80	332.36
479.98	402.57
480.16	351.08
480.34	372.15
480.52	423.64
480.70	397.89
480.88	468.11
481.06	388.53
481.24	435.34
481.41	491.51
481.59	498.53
481.77	484.49
481.95	580.45
482.13	617.90
482.31	608.54
482.49	606.20
482.67	711.52
482.85	718.54
483.03	763.01
483.21	842.59
483.39	894.08
483.57	887.06
483.74	936.21
483.92	976.00
484.10	966.64
484.28	1015.79
484.46	1196.01
484.64	1069.62
484.82	1235.80
485.00	1284.95
485.18	1380.92
485.35	1378.58
485.53	1385.60
485.71	1605.61
485.89	1586.88
486.07	1654.76
486.25	1647.74
486.43	1671.14
486.61	1671.14
486.78	1699.23
486.96	1647.74
487.14	1619.65
487.32	1624.33
487.50	1600.93
487.68	1586.88
487.85	1528.37
488.03	1621.99
488.21	1556.46
488.39	1476.88
488.57	1476.88
488.75	1479.22
488.92	1526.03
489.10	1387.94
489.28	1437.09
489.46	1455.81
489.64	1352.83
489.81	1357.51
489.99	1289.64
490.17	1334.11
490.35	1334.11
490.53	1334.11
490.70	1226.44
490.88	1324.74
491.06	1327.08
491.24	1427.73
491.41	1338.79
491.59	1392.62
491.77	1280.27
491.95	1263.89
492.13	1212.40
492.30	1177.29
492.48	1172.61
492.66	1090.69
492.84	1078.99
493.01	1130.48
493.19	1107.07
493.37	1121.12
493.54	1013.45
493.72	1165.59
493.90	1036.86
494.08	1013.45
494.25	968.98
494.43	1064.94
494.61	1025.15
494.79	1006.43
494.96	957.28
495.14	959.62
495.32	959.62
495.49	954.94
495.67	887.06
495.85	936.21
496.02	910.47
496.20	917.49
496.38	877.70
496.55	901.11
496.73	926.85
496.91	793.44
497.09	870.68
497.26	763.01
497.44	826.21
497.62	840.25
497.79	828.55
497.97	798.12
498.14	823.87
498.32	830.89
498.50	755.99
498.67	770.04
498.85	669.39
499.03	690.46
499.20	734.93
499.38	615.56
499.56	645.99
499.73	669.39
499.91	594.50
500.08	622.58
500.26	653.01
500.44	610.88
500.61	594.50
500.79	531.30
500.97	629.60
501.14	512.58
501.32	533.64
501.49	472.79
501.67	491.51
501.84	517.26
502.02	524.28
502.20	521.94
502.37	559.39
502.55	486.83
502.72	440.02
502.90	465.77
503.07	435.34
503.25	477.47
503.43	393.21
503.60	430.66
503.78	498.53
503.95	416.62
504.13	507.90
504.30	486.83
504.48	386.19
504.65	437.68
504.83	386.19
505.01	358.10
505.18	433.00
505.36	400.23
505.53	393.21
505.71	404.91
505.88	376.83
506.06	358.10
506.23	402.57
506.41	388.53
506.58	381.51
506.76	402.57
506.93	320.65
507.11	332.36
507.28	313.63
507.46	341.72
507.63	411.93
507.81	330.02
507.98	318.31
508.16	358.10
508.33	454.06
508.50	388.53
508.68	362.78
508.85	381.51
509.03	308.95
509.20	332.36
509.38	304.27
509.55	374.49
509.73	390.87
509.90	360.44
510.08	290.23
510.25	374.49
510.42	348.74
510.60	341.72
510.77	315.97
510.95	271.50
511.12	402.57
511.30	348.74
511.47	330.02
511.64	365.12
511.82	313.63
511.99	304.27
512.17	379.17
512.34	297.25
512.51	346.40
512.69	322.99
512.86	390.87
513.04	365.12
513.21	383.85
513.38	404.91
513.56	348.74
513.73	266.82
513.90	360.44
514.08	280.86
514.25	294.91
514.43	311.29
514.60	266.82
514.77	330.02
514.95	327.68
515.12	299.59
515.29	304.27
515.47	320.65
515.64	327.68
515.81	344.06
515.99	416.62
516.16	198.95
516.33	304.27
516.51	346.40
516.68	320.65
516.85	259.80
517.03	320.65
517.20	355.76
517.37	348.74
517.54	423.64
517.72	189.58
517.89	215.33
518.06	292.57
518.24	341.72
518.41	306.61
518.58	304.27
518.75	248.10
518.93	341.72
519.10	358.10
519.27	245.76
519.45	264.48
519.62	231.71
519.79	299.59
519.96	285.55
520.14	278.52
520.31	327.68
520.48	337.04
520.65	330.02
520.83	346.40
521.00	369.80
521.17	184.90
521.34	276.18
521.52	358.10
521.69	325.33
521.86	290.23
522.03	362.78
522.20	379.17
522.38	351.08
522.55	308.95
522.72	255.12
522.89	346.40
523.07	367.46
523.24	355.76
523.41	322.99
523.58	292.57
523.75	313.63
523.92	313.63
524.10	255.12
524.27	278.52
524.44	301.93
524.61	362.78
524.78	243.42
524.96	325.33
525.13	362.78
525.30	339.38
525.47	320.65
525.64	393.21
525.81	245.76
525.98	355.76
526.16	330.02
526.33	362.78
526.50	341.72
526.67	273.84
526.84	334.70
527.01	269.16
527.18	362.78
527.36	421.30
527.53	367.46
527.70	304.27
527.87	311.29
528.04	444.70
528.21	320.65
528.38	402.57
528.55	397.89
528.72	402.57
528.89	430.66
529.07	390.87
529.24	404.91
529.41	421.30
529.58	337.04
529.75	372.15
529.92	437.68
530.09	337.04
530.26	411.93
530.43	440.02
530.60	400.23
530.77	341.72
530.94	449.38
531.11	447.04
531.28	430.66
531.46	449.38
531.63	531.30
531.80	433.00
531.97	486.83
532.14	550.03
532.31	629.60
532.48	711.52
532.65	784.08
532.82	931.53
532.99	891.74
533.16	997.07
533.33	1055.58
533.50	964.30
533.67	833.23
533.84	645.99
534.01	695.14
534.18	744.29
534.35	727.91
534.52	697.48
534.69	702.16
534.86	739.61
535.03	690.46
535.20	711.52
535.37	833.23
535.54	795.78
535.71	840.25
535.88	840.25
536.05	915.15
536.22	1123.46
536.38	1125.80
536.55	1261.55
536.72	1373.89
536.89	1401.98
537.06	1572.84
537.23	1659.44
537.40	1865.41
537.57	2059.67
537.74	2150.95
537.91	2216.49
538.08	2204.78
538.25	2368.62
538.42	2256.28
538.59	2317.13
538.75	2394.37
538.92	2647.15
539.09	2761.83
539.26	3075.46
539.43	3492.08
539.60	3913.38
539.77	4236.37
539.94	4671.71
540.11	5188.97
540.28	5715.59
540.44	5980.07
540.61	7047.35
540.78	8072.51
540.95	9664.07
541.12	11112.86
541.29	12549.95
541.46	12875.29
541.62	12519.53
541.79	12241.00
541.96	11391.39
542.13	10555.82
542.30	9977.70
542.47	9437.04
542.63	8975.95
542.80	8564.02
542.97	8659.98
543.14	8512.53
543.31	8542.96
543.48	8683.39
543.64	8767.65
543.81	8777.01
543.98	8730.20
544.15	8936.17
544.32	8788.71
544.48	9039.15
544.65	8695.09
544.82	8826.16
544.99	8812.12
545.16	8931.48
545.32	9657.05
545.49	18225.75
545.66	31782.13
545.83	35625.29
546.00	29013.28
546.16	19482.62
546.33	14546.43
546.50	11019.24
546.67	8856.59
546.83	7789.30
547.00	7581.00
547.17	7152.68
547.34	7073.10
547.50	6719.68
547.67	6408.39
547.84	6115.82
548.00	5982.41
548.17	5825.59
548.34	5547.07
548.51	5245.14
548.67	5032.15
548.84	4805.12
549.01	4723.20
549.18	4400.21
549.34	4217.65
549.51	4229.35
549.68	4037.42
549.84	3845.50
550.01	3541.23
550.18	3480.38
550.34	3344.63
550.51	3185.47
550.68	3122.27
550.84	2881.20
551.01	2806.30
551.18	2642.46
551.34	2476.29
551.51	2511.39
551.68	2317.13
551.84	2300.75
552.01	2165.00
552.18	2104.14
552.34	2118.18
552.51	1980.09
552.68	1937.96
552.84	1778.81
553.01	1757.74
553.18	1708.59
553.34	1755.40
553.51	1572.84
553.67	1610.29
553.84	1551.78
554.01	1458.15
554.17	1334.11
554.34	1273.25
554.51	1146.86
554.67	1196.01
554.84	1123.46
555.00	957.28
555.17	1029.84
555.33	870.68
555.50	987.71
555.67	931.53
555.83	866.00
556.00	863.66
556.16	877.70
556.33	800.46
556.50	767.70
556.66	727.91
556.83	655.35
556.99	690.46
557.16	711.52
557.32	645.99
557.49	699.82
557.65	653.01
557.82	624.92
557.98	622.58
558.15	678.76
558.32	587.47
558.48	552.37
558.65	578.11
558.81	561.73
558.98	486.83
559.14	561.73
559.31	641.31
559.47	521.94
559.64	472.79
559.80	561.73
559.97	472.79
560.13	557.05
560.30	510.24
560.46	519.60
560.63	496.19
560.79	526.62
560.96	535.98
561.12	552.37
561.29	475.13
561.45	559.39
561.61	521.94
561.78	592.16
561.94	535.98
562.11	528.96
562.27	470.45
562.44	517.26
562.60	407.25
562.77	451.72
562.93	528.96
563.10	510.24
563.26	475.13
563.42	531.30
563.59	543.00
563.75	491.51
563.92	468.11
564.08	425.98
564.24	416.62
564.41	514.92
564.57	451.72
564.74	440.02
564.90	437.68
565.07	463.43
565.23	451.72
565.39	409.59
565.56	444.70
565.72	397.89
565.88	397.89
566.05	397.89
566.21	379.17
566.38	435.34
566.54	423.64
566.70	430.66
566.87	383.85
567.03	365.12
567.19	400.23
567.36	418.96
567.52	407.25
567.68	404.91
567.85	404.91
568.01	470.45
568.17	365.12
568.34	486.83
568.50	444.70
568.66	374.49
568.83	505.56
568.99	444.70
569.15	444.70
569.32	390.87
569.48	397.89
569.64	414.27
569.81	395.55
569.97	367.46
570.13	428.32
570.30	395.55
570.46	327.68
570.62	348.74
570.78	327.68
570.95	315.97
571.11	416.62
571.27	437.68
571.43	306.61
571.60	339.38
571.76	360.44
571.92	367.46
572.09	351.08
572.25	332.36
572.41	315.97
572.57	369.80
572.74	444.70
572.90	376.83
573.06	421.30
573.22	433.00
573.38	418.96
573.55	428.32
573.71	332.36
573.87	353.42
574.03	372.15
574.20	430.66
574.36	430.66
574.52	463.43
574.68	454.06
574.84	425.98
575.01	414.27
575.17	514.92
575.33	517.26
575.49	517.26
575.65	545.34
575.82	568.75
575.98	554.71
576.14	688.12
576.30	1444.11
576.46	4126.36
576.62	6097.10
576.79	5865.38
576.95	4278.50
577.11	2944.39
577.27	2174.36
577.43	1448.79
577.59	1095.37
577.75	863.66
577.92	823.87
578.08	737.27
578.24	795.78
578.40	1406.66
578.56	3817.41
578.72	5495.58
578.88	5511.96
579.04	4100.62
579.21	2946.73
579.37	2211.81
579.53	1827.96
579.69	1811.57
579.85	2122.87
580.01	2382.67
580.17	2345.22
580.33	1940.30
580.49	1757.74
580.65	1502.62
580.82	1455.81
580.98	1533.05
581.14	1614.97
581.30	1689.87
581.46	1533.05
581.62	1823.28
581.78	1825.62
581.94	2003.50
582.10	2108.82
582.26	2331.17
582.42	2204.78
582.58	2373.30
582.74	2396.71
582.90	2279.68
583.06	2392.03
583.22	2368.62
583.38	2441.18
583.54	2417.77
583.70	2352.24
583.86	2328.83
584.02	2324.15
584.18	2321.81
584.34	2223.51
584.50	2179.04
584.66	2195.42
584.82	2125.21
584.98	2200.10
585.14	2012.86
585.30	2029.24
585.46	1975.41
585.62	1909.88
585.78	2026.90
585.94	2050.31
586.10	1991.80
586.26	2106.48
586.42	2565.23
586.58	2860.13
586.74	3590.38
586.90	4149.77
587.06	4528.94
587.22	4250.41
587.38	3906.35
587.54	3494.42
587.70	2963.12
587.86	2509.05
588.02	2162.66
588.18	1858.39
588.34	1750.72
588.49	1713.27
588.65	1500.28
588.81	1371.55
588.97	1390.28
589.13	1432.41
589.29	1266.23
589.45	1383.26
589.61	1284.95
589.77	1409.00
589.93	1476.88
590.08	1322.40
590.24	1390.28
590.40	1526.03
590.56	1577.52
590.72	1612.63
590.88	1565.82
591.04	1593.90
591.20	1755.40
591.35	1724.97
591.51	1727.32
591.67	1900.52
591.83	2029.24
591.99	2239.89
592.15	2270.32
592.31	2569.91
592.46	2733.75
592.62	2986.52
592.78	3115.25
592.94	3176.11
593.10	3096.53
593.26	2965.46
593.41	2841.41
593.57	2537.14
593.73	2179.04
593.89	1947.33
594.05	1832.64
594.20	1680.50
594.36	1549.43
594.52	1394.96
594.68	1296.66
594.84	1303.68
594.99	1338.79
595.15	1315.38
595.31	1170.27
595.47	1196.01
595.62	1254.53
595.78	1090.69
595.94	1123.46
596.10	1275.59
596.25	1203.04
596.41	1263.89
596.57	1217.08
596.73	1233.46
596.88	1188.99
597.04	1245.16
597.20	1217.08
597.36	1308.36
597.51	1284.95
597.67	1345.81
597.83	1378.58
597.99	1439.43
598.14	1565.82
598.30	1652.42
598.46	1680.50
598.61	1839.66
598.77	1895.83
598.93	1942.64
599.09	1921.58
599.24	1942.64
599.40	1916.90
599.56	1895.83
599.71	1849.02
599.87	1692.21
600.03	1720.29
600.18	1540.07
600.34	1418.36
600.50	1423.05
600.65	1219.42
600.81	1280.27
600.97	1188.99
601.12	1076.65
601.28	1078.99
601.44	1029.84
601.59	891.74
601.75	1053.24
601.91	952.60
602.06	849.61
602.22	912.81
602.37	814.51
602.53	936.21
602.69	861.32
602.84	863.66
603.00	926.85
603.16	868.34
603.31	919.83
603.47	910.47
603.62	938.55
603.78	903.45
603.94	976.00
604.09	968.98
604.25	973.66
604.40	990.05
604.56	971.32
604.71	985.37
604.87	990.05
605.03	985.37
605.18	1048.56
605.34	978.34
605.49	1025.15
605.65	1121.12
605.80	1151.54
605.96	1179.63
606.12	1228.78
606.27	1252.19
606.43	1280.27
606.58	1308.36
606.74	1409.00
606.89	1430.07
607.05	1526.03
607.20	1596.25
