SpectraSuite Data File
++++++++++++++++++++++++++++++++++++
Date: Fri Oct 04 11:42:28 GMT-05:00 2013
User: price-jones
Dark Spectrum Present: No
Reference Spectrum Present: No
Number of Sampled Component Spectra: 1
Spectrometers: USB2+H05261
Integration Time (usec): 100000 (USB2+H05261)
Spectra Averaged: 1 (USB2+H05261)
Boxcar Smoothing: 0 (USB2+H05261)
Correct for Electrical Dark: No (USB2+H05261)
Strobe/Lamp Enabled: No (USB2+H05261)
Correct for Detector Non-linearity: No (USB2+H05261)
Correct for Stray Light: No (USB2+H05261)
Number of Pixels in Processed Spectrum: 2048
>>>>>Begin Processed Spectral Data<<<<<
365.73	98.30
365.92	98.30
366.12	98.30
366.32	18.72
366.52	0.00
366.72	0.00
366.91	0.00
367.11	0.00
367.31	0.00
367.51	0.00
367.70	0.00
367.90	0.00
368.10	0.00
368.30	0.00
368.49	0.00
368.69	0.00
368.89	0.00
369.09	0.00
369.28	0.00
369.48	0.00
369.68	0.00
369.87	49.15
370.07	30.43
370.27	70.22
370.47	91.28
370.66	53.83
370.86	95.96
371.06	46.81
371.25	117.03
371.45	58.51
371.65	72.56
371.84	30.43
372.04	145.11
372.24	95.96
372.44	124.05
372.63	173.20
372.83	124.05
373.03	147.45
373.22	110.01
373.42	81.92
373.62	60.85
373.81	138.09
374.01	112.35
374.21	147.45
374.40	121.71
374.60	203.63
374.79	128.73
374.99	159.16
375.19	184.90
375.38	180.22
375.58	149.79
375.78	91.28
375.97	105.32
376.17	161.50
376.37	135.75
376.56	67.88
376.76	63.19
376.95	145.11
377.15	126.39
377.35	81.92
377.54	81.92
377.74	138.09
377.93	81.92
378.13	100.64
378.33	107.66
378.52	58.51
378.72	74.90
378.91	145.11
379.11	74.90
379.31	121.71
379.50	117.03
379.70	70.22
379.89	138.09
380.09	112.35
380.28	53.83
380.48	114.69
380.68	117.03
380.87	163.84
381.07	102.98
381.26	189.58
381.46	147.45
381.65	56.17
381.85	163.84
382.04	145.11
382.24	121.71
382.43	110.01
382.63	56.17
382.83	65.54
383.02	168.52
383.22	182.56
383.41	98.30
383.61	128.73
383.80	37.45
384.00	135.75
384.19	161.50
384.39	110.01
384.58	133.41
384.78	117.03
384.97	182.56
385.17	220.01
385.36	112.35
385.56	161.50
385.75	86.60
385.95	140.43
386.14	77.24
386.34	74.90
386.53	102.98
386.72	131.07
386.92	215.33
387.11	152.13
387.31	77.24
387.50	56.17
387.70	53.83
387.89	95.96
388.09	100.64
388.28	170.86
388.48	105.32
388.67	107.66
388.86	77.24
389.06	81.92
389.25	74.90
389.45	81.92
389.64	110.01
389.84	135.75
390.03	152.13
390.22	77.24
390.42	131.07
390.61	117.03
390.81	147.45
391.00	49.15
391.19	128.73
391.39	84.26
391.58	121.71
391.78	72.56
391.97	145.11
392.16	166.18
392.36	156.82
392.55	100.64
392.75	131.07
392.94	110.01
393.13	63.19
393.33	154.48
393.52	119.37
393.71	138.09
393.91	77.24
394.10	84.26
394.29	114.69
394.49	39.79
394.68	93.62
394.88	236.39
395.07	152.13
395.26	138.09
395.46	84.26
395.65	117.03
395.84	105.32
396.04	147.45
396.23	156.82
396.42	88.94
396.62	114.69
396.81	121.71
397.00	98.30
397.19	145.11
397.39	107.66
397.58	121.71
397.77	114.69
397.97	117.03
398.16	126.39
398.35	135.75
398.55	91.28
398.74	126.39
398.93	114.69
399.12	168.52
399.32	187.24
399.51	154.48
399.70	184.90
399.90	126.39
400.09	91.28
400.28	161.50
400.47	86.60
400.67	156.82
400.86	215.33
401.05	72.56
401.24	140.43
401.44	88.94
401.63	173.20
401.82	156.82
402.01	100.64
402.21	131.07
402.40	124.05
402.59	124.05
402.78	112.35
402.97	168.52
403.17	86.60
403.36	243.42
403.55	117.03
403.74	194.26
403.93	669.39
404.13	1420.71
404.32	2209.47
404.51	2094.78
404.70	1502.62
404.89	582.79
405.09	301.93
405.28	166.18
405.47	170.86
405.66	147.45
405.85	126.39
406.05	121.71
406.24	84.26
406.43	154.48
406.62	201.29
406.81	180.22
407.00	182.56
407.20	290.23
407.39	379.17
407.58	433.00
407.77	337.04
407.96	252.78
408.15	182.56
408.34	163.84
408.54	224.69
408.73	152.13
408.92	166.18
409.11	119.37
409.30	156.82
409.49	154.48
409.68	112.35
409.87	107.66
410.07	140.43
410.26	187.24
410.45	152.13
410.64	173.20
410.83	180.22
411.02	154.48
411.21	88.94
411.40	142.77
411.59	191.92
411.78	217.67
411.98	79.58
412.17	156.82
412.36	149.79
412.55	93.62
412.74	194.26
412.93	182.56
413.12	98.30
413.31	145.11
413.50	177.88
413.69	119.37
413.88	161.50
414.07	191.92
414.26	203.63
414.45	147.45
414.64	173.20
414.83	187.24
415.02	203.63
415.22	229.37
415.41	227.03
415.60	156.82
415.79	152.13
415.98	222.35
416.17	189.58
416.36	161.50
416.55	159.16
416.74	161.50
416.93	149.79
417.12	222.35
417.31	201.29
417.50	208.31
417.69	210.65
417.88	194.26
418.07	191.92
418.26	159.16
418.45	98.30
418.64	212.99
418.83	135.75
419.02	124.05
419.21	133.41
419.39	154.48
419.58	117.03
419.77	184.90
419.96	126.39
420.15	170.86
420.34	156.82
420.53	154.48
420.72	156.82
420.91	112.35
421.10	133.41
421.29	149.79
421.48	220.01
421.67	198.95
421.86	175.54
422.05	154.48
422.24	138.09
422.43	149.79
422.61	182.56
422.80	168.52
422.99	173.20
423.18	215.33
423.37	159.16
423.56	149.79
423.75	229.37
423.94	191.92
424.13	189.58
424.32	163.84
424.50	222.35
424.69	187.24
424.88	257.46
425.07	238.73
425.26	234.05
425.45	269.16
425.64	262.14
425.83	187.24
426.01	191.92
426.20	201.29
426.39	201.29
426.58	156.82
426.77	159.16
426.96	280.86
427.15	196.60
427.33	170.86
427.52	245.76
427.71	182.56
427.90	170.86
428.09	196.60
428.28	163.84
428.46	205.97
428.65	212.99
428.84	238.73
429.03	259.80
429.22	131.07
429.40	147.45
429.59	161.50
429.78	234.05
429.97	168.52
430.16	222.35
430.34	203.63
430.53	255.12
430.72	168.52
430.91	194.26
431.10	299.59
431.28	196.60
431.47	227.03
431.66	229.37
431.85	140.43
432.03	231.71
432.22	276.18
432.41	187.24
432.60	259.80
432.79	205.97
432.97	236.39
433.16	231.71
433.35	250.44
433.54	348.74
433.72	273.84
433.91	271.50
434.10	290.23
434.28	351.08
434.47	397.89
434.66	451.72
434.85	395.55
435.03	992.39
435.22	3199.51
435.41	6874.15
435.59	9069.58
435.78	6869.47
435.97	3389.10
436.16	1343.47
436.34	540.66
436.53	393.21
436.72	334.70
436.90	315.97
437.09	308.95
437.28	322.99
437.46	191.92
437.65	287.89
437.84	285.55
438.02	301.93
438.21	255.12
438.40	217.67
438.58	259.80
438.77	301.93
438.96	194.26
439.14	269.16
439.33	234.05
439.52	259.80
439.70	259.80
439.89	262.14
440.08	299.59
440.26	180.22
440.45	266.82
440.63	224.69
440.82	231.71
441.01	210.65
441.19	273.84
441.38	220.01
441.57	224.69
441.75	290.23
441.94	301.93
442.12	245.76
442.31	234.05
442.50	273.84
442.68	252.78
442.87	255.12
443.05	243.42
443.24	299.59
443.43	306.61
443.61	344.06
443.80	201.29
443.98	348.74
444.17	191.92
444.35	311.29
444.54	203.63
444.73	292.57
444.91	266.82
445.10	201.29
445.28	262.14
445.47	269.16
445.65	262.14
445.84	367.46
446.02	252.78
446.21	245.76
446.39	266.82
446.58	304.27
446.77	182.56
446.95	280.86
447.14	292.57
447.32	250.44
447.51	229.37
447.69	287.89
447.88	168.52
448.06	264.48
448.25	262.14
448.43	159.16
448.62	236.39
448.80	252.78
448.99	294.91
449.17	262.14
449.36	238.73
449.54	355.76
449.73	248.10
449.91	273.84
450.10	280.86
450.28	330.02
450.46	313.63
450.65	276.18
450.83	198.95
451.02	236.39
451.20	163.84
451.39	280.86
451.57	166.18
451.76	203.63
451.94	306.61
452.13	212.99
452.31	283.20
452.49	212.99
452.68	231.71
452.86	236.39
453.05	285.55
453.23	351.08
453.42	262.14
453.60	203.63
453.78	238.73
453.97	271.50
454.15	229.37
454.34	250.44
454.52	170.86
454.70	304.27
454.89	241.08
455.07	255.12
455.26	180.22
455.44	266.82
455.62	203.63
455.81	283.20
455.99	259.80
456.17	252.78
456.36	276.18
456.54	245.76
456.73	315.97
456.91	189.58
457.09	210.65
457.28	283.20
457.46	220.01
457.64	248.10
457.83	238.73
458.01	229.37
458.19	301.93
458.38	294.91
458.56	243.42
458.74	234.05
458.93	278.52
459.11	222.35
459.29	257.46
459.48	201.29
459.66	351.08
459.84	255.12
460.03	365.12
460.21	280.86
460.39	124.05
460.57	245.76
460.76	255.12
460.94	243.42
461.12	301.93
461.31	390.87
461.49	353.42
461.67	255.12
461.85	217.67
462.04	180.22
462.22	376.83
462.40	285.55
462.59	236.39
462.77	360.44
462.95	243.42
463.13	257.46
463.32	234.05
463.50	252.78
463.68	175.54
463.86	170.86
464.05	320.65
464.23	276.18
464.41	264.48
464.59	271.50
464.78	250.44
464.96	241.08
465.14	194.26
465.32	248.10
465.50	280.86
465.69	297.25
465.87	222.35
466.05	243.42
466.23	229.37
466.41	306.61
466.60	341.72
466.78	315.97
466.96	252.78
467.14	248.10
467.32	283.20
467.51	292.57
467.69	285.55
467.87	337.04
468.05	262.14
468.23	271.50
468.41	212.99
468.60	205.97
468.78	287.89
468.96	245.76
469.14	327.68
469.32	234.05
469.50	224.69
469.69	170.86
469.87	297.25
470.05	262.14
470.23	173.20
470.41	245.76
470.59	234.05
470.77	250.44
470.95	227.03
471.14	212.99
471.32	217.67
471.50	287.89
471.68	276.18
471.86	229.37
472.04	222.35
472.22	273.84
472.40	236.39
472.58	187.24
472.77	250.44
472.95	287.89
473.13	301.93
473.31	301.93
473.49	306.61
473.67	208.31
473.85	180.22
474.03	227.03
474.21	257.46
474.39	255.12
474.57	285.55
474.75	203.63
474.93	285.55
475.12	250.44
475.30	271.50
475.48	208.31
475.66	184.90
475.84	250.44
476.02	212.99
476.20	297.25
476.38	248.10
476.56	304.27
476.74	227.03
476.92	203.63
477.10	262.14
477.28	280.86
477.46	266.82
477.64	304.27
477.82	297.25
478.00	248.10
478.18	344.06
478.36	280.86
478.54	259.80
478.72	271.50
478.90	259.80
479.08	234.05
479.26	266.82
479.44	290.23
479.62	227.03
479.80	292.57
479.98	334.70
480.16	238.73
480.34	273.84
480.52	322.99
480.70	205.97
480.88	313.63
481.06	280.86
481.24	374.49
481.41	322.99
481.59	325.33
481.77	388.53
481.95	365.12
482.13	330.02
482.31	404.91
482.49	421.30
482.67	440.02
482.85	477.47
483.03	564.07
483.21	575.77
483.39	573.43
483.57	601.52
483.74	674.07
483.92	695.14
484.10	688.12
484.28	723.23
484.46	798.12
484.64	889.40
484.82	908.13
485.00	884.72
485.18	1043.88
485.35	1015.79
485.53	1095.37
485.71	1165.59
485.89	1142.18
486.07	1057.92
486.25	1240.48
486.43	1165.59
486.61	1184.31
486.78	1235.80
486.96	1142.18
487.14	1301.34
487.32	1238.14
487.50	1181.97
487.68	1177.29
487.85	1217.08
488.03	1308.36
488.21	1228.78
488.39	1167.93
488.57	1348.15
488.75	1188.99
488.92	1504.96
489.10	1231.12
489.28	1200.69
489.46	1198.35
489.64	1179.63
489.81	1135.16
489.99	1210.06
490.17	1088.35
490.35	1261.55
490.53	1170.27
490.70	1151.54
490.88	1088.35
491.06	1118.78
491.24	1160.91
491.41	1247.51
491.59	1067.28
491.77	1067.28
491.95	1046.22
492.13	1036.86
492.30	1069.62
492.48	990.05
492.66	1078.99
492.84	915.15
493.01	968.98
493.19	1032.18
493.37	903.45
493.54	933.87
493.72	894.08
493.90	887.06
494.08	882.38
494.25	994.73
494.43	875.36
494.61	767.70
494.79	814.51
494.96	837.91
495.14	765.36
495.32	767.70
495.49	830.89
495.67	795.78
495.85	753.65
496.02	795.78
496.20	844.93
496.38	835.57
496.55	765.36
496.73	863.66
496.91	748.97
497.09	830.89
497.26	763.01
497.44	692.80
497.62	723.23
497.79	711.52
497.97	739.61
498.14	624.92
498.32	650.67
498.50	594.50
498.67	648.33
498.85	585.13
499.03	585.13
499.20	608.54
499.38	500.87
499.56	561.73
499.73	554.71
499.91	531.30
500.08	437.68
500.26	486.83
500.44	477.47
500.61	423.64
500.79	465.77
500.97	409.59
501.14	465.77
501.32	400.23
501.49	454.06
501.67	381.51
501.84	411.93
502.02	337.04
502.20	346.40
502.37	348.74
502.55	297.25
502.72	325.33
502.90	341.72
503.07	353.42
503.25	327.68
503.43	278.52
503.60	280.86
503.78	400.23
503.95	379.17
504.13	322.99
504.30	322.99
504.48	337.04
504.65	248.10
504.83	404.91
505.01	308.95
505.18	339.38
505.36	306.61
505.53	243.42
505.71	313.63
505.88	332.36
506.06	397.89
506.23	278.52
506.41	369.80
506.58	273.84
506.76	369.80
506.93	220.01
507.11	325.33
507.28	145.11
507.46	264.48
507.63	196.60
507.81	145.11
507.98	266.82
508.16	236.39
508.33	280.86
508.50	318.31
508.68	255.12
508.85	292.57
509.03	287.89
509.20	292.57
509.38	278.52
509.55	337.04
509.73	379.17
509.90	308.95
510.08	273.84
510.25	341.72
510.42	250.44
510.60	330.02
510.77	365.12
510.95	320.65
511.12	229.37
511.30	367.46
511.47	311.29
511.64	360.44
511.82	243.42
511.99	262.14
512.17	367.46
512.34	278.52
512.51	292.57
512.69	266.82
512.86	346.40
513.04	243.42
513.21	318.31
513.38	227.03
513.56	299.59
513.73	212.99
513.90	332.36
514.08	294.91
514.25	266.82
514.43	318.31
514.60	266.82
514.77	224.69
514.95	325.33
515.12	294.91
515.29	304.27
515.47	266.82
515.64	276.18
515.81	290.23
515.99	273.84
516.16	327.68
516.33	280.86
516.51	262.14
516.68	257.46
516.85	348.74
517.03	266.82
517.20	294.91
517.37	292.57
517.54	262.14
517.72	175.54
517.89	285.55
518.06	271.50
518.24	276.18
518.41	327.68
518.58	325.33
518.75	243.42
518.93	294.91
519.10	278.52
519.27	217.67
519.45	184.90
519.62	205.97
519.79	308.95
519.96	203.63
520.14	297.25
520.31	332.36
520.48	259.80
520.65	266.82
520.83	297.25
521.00	322.99
521.17	245.76
521.34	217.67
521.52	276.18
521.69	285.55
521.86	259.80
522.03	234.05
522.20	313.63
522.38	292.57
522.55	266.82
522.72	205.97
522.89	304.27
523.07	330.02
523.24	210.65
523.41	234.05
523.58	315.97
523.75	269.16
523.92	306.61
524.10	313.63
524.27	269.16
524.44	252.78
524.61	299.59
524.78	283.20
524.96	262.14
525.13	259.80
525.30	313.63
525.47	306.61
525.64	294.91
525.81	252.78
525.98	292.57
526.16	184.90
526.33	304.27
526.50	224.69
526.67	280.86
526.84	234.05
527.01	287.89
527.18	290.23
527.36	250.44
527.53	311.29
527.70	404.91
527.87	334.70
528.04	341.72
528.21	334.70
528.38	252.78
528.55	341.72
528.72	301.93
528.89	269.16
529.07	159.16
529.24	290.23
529.41	423.64
529.58	257.46
529.75	231.71
529.92	362.78
530.09	315.97
530.26	372.15
530.43	341.72
530.60	290.23
530.77	327.68
530.94	306.61
531.11	351.08
531.28	231.71
531.46	250.44
531.63	332.36
531.80	390.87
531.97	339.38
532.14	318.31
532.31	362.78
532.48	449.38
532.65	475.13
532.82	458.74
532.99	550.03
533.16	589.82
533.33	638.97
533.50	669.39
533.67	547.69
533.84	465.77
534.01	477.47
534.18	470.45
534.35	505.56
534.52	470.45
534.69	470.45
534.86	479.81
535.03	503.22
535.20	493.85
535.37	587.47
535.54	573.43
535.71	510.24
535.88	573.43
536.05	552.37
536.22	538.32
536.38	559.39
536.55	620.24
536.72	650.67
536.89	734.93
537.06	777.06
537.23	868.34
537.40	847.27
537.57	912.81
537.74	1076.65
537.91	1165.59
538.08	1263.89
538.25	1423.05
538.42	1488.58
538.59	1490.92
538.75	1401.98
538.92	1479.22
539.09	1577.52
539.26	1636.03
539.43	1788.17
539.60	1966.05
539.77	2195.42
539.94	2317.13
540.11	2424.80
540.28	2656.51
540.44	2672.89
540.61	2902.26
540.78	3187.81
540.95	3550.59
541.12	4112.32
541.29	4908.10
541.46	5680.48
541.62	6328.81
541.79	7124.59
541.96	7803.35
542.13	8507.85
542.30	8777.01
542.47	8872.97
542.63	8531.25
542.80	8547.64
542.97	8493.80
543.14	8699.77
543.31	8622.53
543.48	8912.76
543.64	8933.82
543.81	8769.99
543.98	8376.78
544.15	8065.49
544.32	7885.26
544.48	7646.53
544.65	7091.82
544.82	6986.50
544.99	6586.27
545.16	6656.48
545.32	6211.78
545.49	8865.95
545.66	15239.23
545.83	21563.36
546.00	19700.29
546.16	12315.90
546.33	8067.83
546.50	5565.79
546.67	4126.36
546.83	3510.80
547.00	3164.40
547.17	3021.63
547.34	2724.38
547.50	2654.17
547.67	2555.86
547.84	2539.48
548.00	2691.62
548.17	2576.93
548.34	2677.57
548.51	2843.75
548.67	2920.99
548.84	2806.30
549.01	2902.26
549.18	2813.32
549.34	2857.79
549.51	2581.61
549.68	2445.86
549.84	2415.43
550.01	2232.87
550.18	2169.68
550.34	2204.78
550.51	2083.08
550.68	2165.00
550.84	1860.73
551.01	1947.33
551.18	1804.55
551.34	1802.21
551.51	1900.52
551.68	1860.73
551.84	1846.68
552.01	1797.53
552.18	1853.70
552.34	1715.61
552.51	1664.12
552.68	1577.52
552.84	1621.99
553.01	1460.49
553.18	1385.60
553.34	1254.53
553.51	1207.72
553.67	1104.73
553.84	1125.80
554.01	987.71
554.17	926.85
554.34	882.38
554.51	755.99
554.67	629.60
554.84	669.39
555.00	671.73
555.17	613.22
555.33	657.69
555.50	514.92
555.67	617.90
555.83	566.41
556.00	475.13
556.16	599.18
556.33	561.73
556.50	514.92
556.66	374.49
556.83	447.04
556.99	416.62
557.16	486.83
557.32	463.43
557.49	423.64
557.65	407.25
557.82	390.87
557.98	461.09
558.15	379.17
558.32	421.30
558.48	414.27
558.65	472.79
558.81	433.00
558.98	306.61
559.14	360.44
559.31	430.66
559.47	393.21
559.64	351.08
559.80	383.85
559.97	367.46
560.13	322.99
560.30	353.42
560.46	290.23
560.63	369.80
560.79	315.97
560.96	327.68
561.12	388.53
561.29	383.85
561.45	351.08
561.61	266.82
561.78	414.27
561.94	315.97
562.11	393.21
562.27	353.42
562.44	229.37
562.60	372.15
562.77	423.64
562.93	400.23
563.10	341.72
563.26	348.74
563.42	353.42
563.59	383.85
563.75	292.57
563.92	353.42
564.08	348.74
564.24	255.12
564.41	297.25
564.57	322.99
564.74	299.59
564.90	280.86
565.07	362.78
565.23	271.50
565.39	278.52
565.56	280.86
565.72	294.91
565.88	304.27
566.05	327.68
566.21	353.42
566.38	257.46
566.54	327.68
566.70	294.91
566.87	327.68
567.03	269.16
567.19	311.29
567.36	322.99
567.52	297.25
567.68	280.86
567.85	285.55
568.01	351.08
568.17	301.93
568.34	264.48
568.50	337.04
568.66	355.76
568.83	416.62
568.99	367.46
569.15	285.55
569.32	311.29
569.48	297.25
569.64	397.89
569.81	292.57
569.97	203.63
570.13	327.68
570.30	311.29
570.46	250.44
570.62	252.78
570.78	276.18
570.95	269.16
571.11	339.38
571.27	290.23
571.43	248.10
571.60	386.19
571.76	313.63
571.92	250.44
572.09	304.27
572.25	339.38
572.41	276.18
572.57	360.44
572.74	409.59
572.90	386.19
573.06	318.31
573.22	297.25
573.38	341.72
573.55	430.66
573.71	351.08
573.87	409.59
574.03	355.76
574.20	397.89
574.36	407.25
574.52	367.46
574.68	330.02
574.84	411.93
575.01	374.49
575.17	482.15
575.33	402.57
575.49	381.51
575.65	411.93
575.82	486.83
575.98	482.15
576.14	582.79
576.30	763.01
576.46	1699.23
576.62	3117.59
576.79	3946.14
576.95	2953.76
577.11	1743.70
577.27	1270.91
577.43	917.49
577.59	697.48
577.75	645.99
577.92	491.51
578.08	585.13
578.24	568.75
578.40	866.00
578.56	1746.04
578.72	3103.55
578.88	3740.18
579.04	2745.45
579.21	2015.20
579.37	1687.53
579.53	1409.00
579.69	1409.00
579.85	1568.16
580.01	1846.68
580.17	1853.70
580.33	1645.40
580.49	1507.30
580.65	1249.85
580.82	1174.95
580.98	1123.46
581.14	1151.54
581.30	1240.48
581.46	1170.27
581.62	1249.85
581.78	1406.66
581.94	1345.81
582.10	1383.26
582.26	1437.09
582.42	1451.13
582.58	1497.94
582.74	1624.33
582.90	1802.21
583.06	1853.70
583.22	1870.09
583.38	1891.15
583.54	1844.34
583.70	1966.05
583.86	1884.13
584.02	1842.00
584.18	1809.23
584.34	1739.02
584.50	1657.10
584.66	1699.23
584.82	1636.03
584.98	1537.73
585.14	1497.94
585.30	1537.73
585.46	1401.98
585.62	1437.09
585.78	1432.41
585.94	1497.94
586.10	1418.36
586.26	1540.07
586.42	1746.04
586.58	1916.90
586.74	2211.81
586.90	2623.74
587.06	2974.82
587.22	3077.80
587.38	2888.22
587.54	2567.57
587.70	2366.28
587.86	2001.16
588.02	1851.36
588.18	1755.40
588.34	1661.78
588.49	1458.15
588.65	1439.43
588.81	1291.98
588.97	1207.72
589.13	1306.02
589.29	1380.92
589.45	1270.91
589.61	1277.93
589.77	1238.14
589.93	1259.21
590.08	1341.13
590.24	1306.02
590.40	1198.35
590.56	1160.91
590.72	1144.52
590.88	1130.48
591.04	1142.18
591.20	1184.31
591.35	1177.29
591.51	1170.27
591.67	1186.65
591.83	1247.51
591.99	1242.82
592.15	1465.18
592.31	1458.15
592.46	1565.82
592.62	1724.97
592.78	1727.32
592.94	1933.28
593.10	1818.60
593.26	1722.63
593.41	1603.27
593.57	1411.34
593.73	1348.15
593.89	1100.05
594.05	931.53
594.20	894.08
594.36	889.40
594.52	772.38
594.68	688.12
594.84	697.48
594.99	744.29
595.15	692.80
595.31	629.60
595.47	751.31
595.62	697.48
595.78	713.86
595.94	704.50
596.10	669.39
596.25	723.23
596.41	716.20
596.57	748.97
596.73	641.31
596.88	699.82
597.04	716.20
597.20	664.71
597.36	772.38
597.51	725.57
597.67	753.65
597.83	772.38
597.99	805.14
598.14	936.21
598.30	891.74
598.46	866.00
598.61	1015.79
598.77	1046.22
598.93	1130.48
599.09	1095.37
599.24	1177.29
599.40	1212.40
599.56	1188.99
599.71	1081.33
599.87	976.00
600.03	1050.90
600.18	931.53
600.34	835.57
600.50	851.96
600.65	725.57
600.81	702.16
600.97	624.92
601.12	631.94
601.28	685.78
601.44	629.60
601.59	594.50
601.75	660.03
601.91	493.85
602.06	514.92
602.22	615.56
602.37	540.66
602.53	486.83
602.69	575.77
602.84	475.13
603.00	477.47
603.16	608.54
603.31	550.03
603.47	526.62
603.62	545.34
603.78	594.50
603.94	524.28
604.09	568.75
604.25	564.07
604.40	587.47
604.56	641.31
604.71	681.10
604.87	580.45
605.03	653.01
605.18	575.77
605.34	580.45
605.49	533.64
605.65	629.60
605.80	634.29
605.96	711.52
606.12	648.33
606.27	777.06
606.43	751.31
606.58	791.10
606.74	821.53
606.89	812.17
607.05	755.99
607.20	978.34
607.36	976.00
607.51	884.72
607.67	1018.13
607.82	1013.45
607.98	1165.59
608.13	1137.50
608.29	1268.57
