SpectraSuite Data File
++++++++++++++++++++++++++++++++++++
Date: Fri Oct 04 11:42:28 GMT-05:00 2013
User: price-jones
Dark Spectrum Present: No
Reference Spectrum Present: No
Number of Sampled Component Spectra: 1
Spectrometers: USB2+H05261
Integration Time (usec): 100000 (USB2+H05261)
Spectra Averaged: 1 (USB2+H05261)
Boxcar Smoothing: 0 (USB2+H05261)
Correct for Electrical Dark: No (USB2+H05261)
Strobe/Lamp Enabled: No (USB2+H05261)
Correct for Detector Non-linearity: No (USB2+H05261)
Correct for Stray Light: No (USB2+H05261)
Number of Pixels in Processed Spectrum: 2048
>>>>>Begin Processed Spectral Data<<<<<
365.73	60.85
365.92	60.85
366.12	60.85
366.32	0.00
366.52	0.00
366.72	0.00
366.91	0.00
367.11	0.00
367.31	0.00
367.51	0.00
367.70	0.00
367.90	0.00
368.10	0.00
368.30	0.00
368.49	0.00
368.69	0.00
368.89	0.00
369.09	0.00
369.28	0.00
369.48	0.00
369.68	0.00
369.87	32.77
370.07	46.81
370.27	0.00
370.47	2.34
370.66	16.38
370.86	37.45
371.06	53.83
371.25	84.26
371.45	0.00
371.65	56.17
371.84	79.58
372.04	105.32
372.24	105.32
372.44	72.56
372.63	168.52
372.83	107.66
373.03	163.84
373.22	147.45
373.42	84.26
373.62	81.92
373.81	159.16
374.01	168.52
374.21	210.65
374.40	142.77
374.60	149.79
374.79	79.58
374.99	49.15
375.19	102.98
375.38	126.39
375.58	194.26
375.78	135.75
375.97	95.96
376.17	168.52
376.37	161.50
376.56	95.96
376.76	91.28
376.95	81.92
377.15	119.37
377.35	70.22
377.54	128.73
377.74	46.81
377.93	91.28
378.13	166.18
378.33	145.11
378.52	161.50
378.72	95.96
378.91	102.98
379.11	117.03
379.31	79.58
379.50	112.35
379.70	84.26
379.89	138.09
380.09	112.35
380.28	107.66
380.48	124.05
380.68	100.64
380.87	95.96
381.07	79.58
381.26	95.96
381.46	149.79
381.65	135.75
381.85	49.15
382.04	60.85
382.24	60.85
382.43	42.13
382.63	72.56
382.83	98.30
383.02	161.50
383.22	114.69
383.41	182.56
383.61	149.79
383.80	95.96
384.00	91.28
384.19	177.88
384.39	128.73
384.58	152.13
384.78	119.37
384.97	156.82
385.17	114.69
385.36	124.05
385.56	131.07
385.75	70.22
385.95	107.66
386.14	147.45
386.34	147.45
386.53	110.01
386.72	67.88
386.92	140.43
387.11	147.45
387.31	124.05
387.50	131.07
387.70	86.60
387.89	102.98
388.09	133.41
388.28	65.54
388.48	46.81
388.67	77.24
388.86	133.41
389.06	63.19
389.25	156.82
389.45	194.26
389.64	100.64
389.84	184.90
390.03	98.30
390.22	112.35
390.42	110.01
390.61	154.48
390.81	98.30
391.00	159.16
391.19	208.31
391.39	135.75
391.58	184.90
391.78	93.62
391.97	126.39
392.16	67.88
392.36	166.18
392.55	88.94
392.75	98.30
392.94	114.69
393.13	170.86
393.33	7.02
393.52	74.90
393.71	93.62
393.91	131.07
394.10	49.15
394.29	135.75
394.49	84.26
394.68	147.45
394.88	145.11
395.07	163.84
395.26	72.56
395.46	77.24
395.65	114.69
395.84	131.07
396.04	175.54
396.23	37.45
396.42	91.28
396.62	77.24
396.81	98.30
397.00	25.75
397.19	138.09
397.39	168.52
397.58	124.05
397.77	131.07
397.97	149.79
398.16	133.41
398.35	131.07
398.55	86.60
398.74	126.39
398.93	117.03
399.12	63.19
399.32	173.20
399.51	110.01
399.70	152.13
399.90	133.41
400.09	121.71
400.28	168.52
400.47	145.11
400.67	177.88
400.86	182.56
401.05	107.66
401.24	131.07
401.44	98.30
401.63	128.73
401.82	133.41
402.01	88.94
402.21	124.05
402.40	175.54
402.59	128.73
402.78	77.24
402.97	102.98
403.17	102.98
403.36	180.22
403.55	175.54
403.74	234.05
403.93	538.32
404.13	1355.17
404.32	1682.85
404.51	1493.26
404.70	1034.52
404.89	477.47
405.09	205.97
405.28	140.43
405.47	161.50
405.66	147.45
405.85	126.39
406.05	168.52
406.24	105.32
406.43	152.13
406.62	149.79
406.81	126.39
407.00	241.08
407.20	224.69
407.39	383.85
407.58	334.70
407.77	339.38
407.96	198.95
408.15	121.71
408.34	149.79
408.54	112.35
408.73	152.13
408.92	168.52
409.11	184.90
409.30	105.32
409.49	126.39
409.68	131.07
409.87	107.66
410.07	140.43
410.26	72.56
410.45	138.09
410.64	124.05
410.83	88.94
411.02	229.37
411.21	135.75
411.40	173.20
411.59	107.66
411.78	147.45
411.98	105.32
412.17	142.77
412.36	84.26
412.55	112.35
412.74	117.03
412.93	194.26
413.12	124.05
413.31	180.22
413.50	184.90
413.69	203.63
413.88	168.52
414.07	131.07
414.26	135.75
414.45	72.56
414.64	147.45
414.83	117.03
415.02	156.82
415.22	124.05
415.41	124.05
415.60	187.24
415.79	145.11
415.98	166.18
416.17	81.92
416.36	126.39
416.55	154.48
416.74	135.75
416.93	208.31
417.12	154.48
417.31	102.98
417.50	194.26
417.69	262.14
417.88	184.90
418.07	166.18
418.26	145.11
418.45	149.79
418.64	128.73
418.83	177.88
419.02	163.84
419.21	138.09
419.39	142.77
419.58	100.64
419.77	189.58
419.96	177.88
420.15	166.18
420.34	147.45
420.53	191.92
420.72	166.18
420.91	161.50
421.10	126.39
421.29	173.20
421.48	149.79
421.67	182.56
421.86	191.92
422.05	175.54
422.24	84.26
422.43	180.22
422.61	131.07
422.80	133.41
422.99	173.20
423.18	201.29
423.37	241.08
423.56	184.90
423.75	210.65
423.94	177.88
424.13	264.48
424.32	194.26
424.50	168.52
424.69	177.88
424.88	220.01
425.07	156.82
425.26	163.84
425.45	182.56
425.64	149.79
425.83	147.45
426.01	177.88
426.20	210.65
426.39	121.71
426.58	84.26
426.77	215.33
426.96	203.63
427.15	217.67
427.33	187.24
427.52	243.42
427.71	241.08
427.90	187.24
428.09	170.86
428.28	159.16
428.46	189.58
428.65	203.63
428.84	222.35
429.03	201.29
429.22	180.22
429.40	168.52
429.59	142.77
429.78	241.08
429.97	152.13
430.16	163.84
430.34	238.73
430.53	184.90
430.72	217.67
430.91	243.42
431.10	189.58
431.28	163.84
431.47	203.63
431.66	217.67
431.85	212.99
432.03	154.48
432.22	287.89
432.41	215.33
432.60	227.03
432.79	154.48
432.97	229.37
433.16	220.01
433.35	273.84
433.54	217.67
433.72	285.55
433.91	220.01
434.10	238.73
434.28	355.76
434.47	383.85
434.66	409.59
434.85	437.68
435.03	919.83
435.22	3215.90
435.41	6562.86
435.59	7307.15
435.78	5104.71
435.97	2511.39
436.16	1015.79
436.34	428.32
436.53	306.61
436.72	196.60
436.90	301.93
437.09	229.37
437.28	287.89
437.46	325.33
437.65	217.67
437.84	297.25
438.02	222.35
438.21	250.44
438.40	203.63
438.58	173.20
438.77	194.26
438.96	231.71
439.14	241.08
439.33	222.35
439.52	163.84
439.70	112.35
439.89	236.39
440.08	177.88
440.26	208.31
440.45	262.14
440.63	196.60
440.82	198.95
441.01	243.42
441.19	205.97
441.38	306.61
441.57	280.86
441.75	215.33
441.94	255.12
442.12	168.52
442.31	250.44
442.50	215.33
442.68	229.37
442.87	194.26
443.05	180.22
443.24	210.65
443.43	241.08
443.61	248.10
443.80	229.37
443.98	234.05
444.17	191.92
444.35	243.42
444.54	325.33
444.73	255.12
444.91	297.25
445.10	215.33
445.28	203.63
445.47	215.33
445.65	203.63
445.84	224.69
446.02	215.33
446.21	264.48
446.39	255.12
446.58	173.20
446.77	215.33
446.95	166.18
447.14	315.97
447.32	175.54
447.51	220.01
447.69	212.99
447.88	163.84
448.06	194.26
448.25	262.14
448.43	264.48
448.62	269.16
448.80	189.58
448.99	220.01
449.17	205.97
449.36	264.48
449.54	248.10
449.73	205.97
449.91	215.33
450.10	191.92
450.28	273.84
450.46	262.14
450.65	227.03
450.83	255.12
451.02	215.33
451.20	287.89
451.39	212.99
451.57	208.31
451.76	168.52
451.94	222.35
452.13	231.71
452.31	292.57
452.49	184.90
452.68	205.97
452.86	208.31
453.05	304.27
453.23	257.46
453.42	175.54
453.60	224.69
453.78	276.18
453.97	259.80
454.15	184.90
454.34	227.03
454.52	194.26
454.70	210.65
454.89	266.82
455.07	227.03
455.26	135.75
455.44	245.76
455.62	227.03
455.81	250.44
455.99	243.42
456.17	290.23
456.36	191.92
456.54	278.52
456.73	187.24
456.91	194.26
457.09	180.22
457.28	259.80
457.46	269.16
457.64	210.65
457.83	227.03
458.01	229.37
458.19	245.76
458.38	241.08
458.56	215.33
458.74	170.86
458.93	250.44
459.11	147.45
459.29	187.24
459.48	290.23
459.66	287.89
459.84	266.82
460.03	304.27
460.21	262.14
460.39	227.03
460.57	311.29
460.76	229.37
460.94	243.42
461.12	255.12
461.31	257.46
461.49	297.25
461.67	278.52
461.85	224.69
462.04	257.46
462.22	325.33
462.40	259.80
462.59	280.86
462.77	212.99
462.95	205.97
463.13	210.65
463.32	187.24
463.50	203.63
463.68	271.50
463.86	238.73
464.05	320.65
464.23	201.29
464.41	280.86
464.59	229.37
464.78	266.82
464.96	283.20
465.14	262.14
465.32	220.01
465.50	273.84
465.69	194.26
465.87	217.67
466.05	252.78
466.23	201.29
466.41	269.16
466.60	201.29
466.78	191.92
466.96	259.80
467.14	266.82
467.32	208.31
467.51	257.46
467.69	191.92
467.87	248.10
468.05	220.01
468.23	212.99
468.41	238.73
468.60	292.57
468.78	285.55
468.96	203.63
469.14	234.05
469.32	156.82
469.50	180.22
469.69	196.60
469.87	215.33
470.05	220.01
470.23	222.35
470.41	203.63
470.59	156.82
470.77	255.12
470.95	248.10
471.14	168.52
471.32	243.42
471.50	217.67
471.68	255.12
471.86	236.39
472.04	238.73
472.22	292.57
472.40	259.80
472.58	248.10
472.77	205.97
472.95	205.97
473.13	292.57
473.31	262.14
473.49	203.63
473.67	131.07
473.85	227.03
474.03	194.26
474.21	292.57
474.39	252.78
474.57	262.14
474.75	217.67
474.93	294.91
475.12	264.48
475.30	257.46
475.48	198.95
475.66	220.01
475.84	271.50
476.02	255.12
476.20	243.42
476.38	255.12
476.56	311.29
476.74	191.92
476.92	236.39
477.10	196.60
477.28	203.63
477.46	203.63
477.64	257.46
477.82	236.39
478.00	229.37
478.18	241.08
478.36	159.16
478.54	255.12
478.72	245.76
478.90	250.44
479.08	276.18
479.26	269.16
479.44	287.89
479.62	196.60
479.80	243.42
479.98	283.20
480.16	318.31
480.34	269.16
480.52	212.99
480.70	252.78
480.88	273.84
481.06	285.55
481.24	322.99
481.41	332.36
481.59	355.76
481.77	264.48
481.95	318.31
482.13	355.76
482.31	395.55
482.49	442.36
482.67	386.19
482.85	451.72
483.03	521.94
483.21	594.50
483.39	472.79
483.57	465.77
483.74	627.26
483.92	531.30
484.10	624.92
484.28	645.99
484.46	662.37
484.64	730.25
484.82	723.23
485.00	688.12
485.18	746.63
485.35	873.02
485.53	875.36
485.71	912.81
485.89	912.81
486.07	896.43
486.25	873.02
486.43	938.55
486.61	971.32
486.78	1036.86
486.96	1025.15
487.14	1022.81
487.32	1057.92
487.50	1048.56
487.68	1107.07
487.85	999.41
488.03	966.64
488.21	1130.48
488.39	1048.56
488.57	1123.46
488.75	1086.01
488.92	1341.13
489.10	1025.15
489.28	1083.67
489.46	961.96
489.64	987.71
489.81	1011.11
489.99	973.66
490.17	957.28
490.35	1027.50
490.53	945.58
490.70	889.40
490.88	994.73
491.06	1032.18
491.24	964.30
491.41	1057.92
491.59	912.81
491.77	889.40
491.95	873.02
492.13	882.38
492.30	814.51
492.48	812.17
492.66	866.00
492.84	854.30
493.01	772.38
493.19	840.25
493.37	873.02
493.54	842.59
493.72	758.33
493.90	760.67
494.08	727.91
494.25	784.08
494.43	645.99
494.61	683.44
494.79	741.95
494.96	730.25
495.14	685.78
495.32	676.41
495.49	664.71
495.67	730.25
495.85	702.16
496.02	690.46
496.20	732.59
496.38	709.18
496.55	692.80
496.73	760.67
496.91	657.69
497.09	622.58
497.26	627.26
497.44	739.61
497.62	695.14
497.79	587.47
497.97	573.43
498.14	613.22
498.32	608.54
498.50	545.34
498.67	477.47
498.85	510.24
499.03	514.92
499.20	521.94
499.38	573.43
499.56	442.36
499.73	493.85
499.91	482.15
500.08	416.62
500.26	386.19
500.44	407.25
500.61	454.06
500.79	369.80
500.97	381.51
501.14	418.96
501.32	407.25
501.49	341.72
501.67	327.68
501.84	315.97
502.02	365.12
502.20	416.62
502.37	374.49
502.55	278.52
502.72	278.52
502.90	299.59
503.07	280.86
503.25	322.99
503.43	276.18
503.60	292.57
503.78	395.55
503.95	341.72
504.13	245.76
504.30	266.82
504.48	294.91
504.65	334.70
504.83	285.55
505.01	327.68
505.18	299.59
505.36	292.57
505.53	280.86
505.71	234.05
505.88	292.57
506.06	311.29
506.23	238.73
506.41	292.57
506.58	299.59
506.76	327.68
506.93	273.84
507.11	299.59
507.28	255.12
507.46	257.46
507.63	315.97
507.81	212.99
507.98	266.82
508.16	220.01
508.33	278.52
508.50	285.55
508.68	297.25
508.85	299.59
509.03	252.78
509.20	280.86
509.38	290.23
509.55	299.59
509.73	276.18
509.90	227.03
510.08	234.05
510.25	344.06
510.42	248.10
510.60	273.84
510.77	217.67
510.95	276.18
511.12	259.80
511.30	320.65
511.47	308.95
511.64	318.31
511.82	318.31
511.99	231.71
512.17	257.46
512.34	255.12
512.51	278.52
512.69	280.86
512.86	322.99
513.04	264.48
513.21	266.82
513.38	250.44
513.56	245.76
513.73	201.29
513.90	290.23
514.08	259.80
514.25	238.73
514.43	266.82
514.60	280.86
514.77	278.52
514.95	351.08
515.12	191.92
515.29	301.93
515.47	304.27
515.64	297.25
515.81	301.93
515.99	276.18
516.16	177.88
516.33	346.40
516.51	248.10
516.68	245.76
516.85	252.78
517.03	266.82
517.20	318.31
517.37	224.69
517.54	313.63
517.72	273.84
517.89	313.63
518.06	140.43
518.24	304.27
518.41	297.25
518.58	306.61
518.75	273.84
518.93	290.23
519.10	292.57
519.27	248.10
519.45	271.50
519.62	259.80
519.79	243.42
519.96	177.88
520.14	231.71
520.31	379.17
520.48	217.67
520.65	215.33
520.83	266.82
521.00	285.55
521.17	325.33
521.34	283.20
521.52	264.48
521.69	287.89
521.86	346.40
522.03	257.46
522.20	255.12
522.38	245.76
522.55	205.97
522.72	210.65
522.89	271.50
523.07	276.18
523.24	222.35
523.41	264.48
523.58	243.42
523.75	222.35
523.92	259.80
524.10	358.10
524.27	250.44
524.44	243.42
524.61	290.23
524.78	194.26
524.96	234.05
525.13	285.55
525.30	280.86
525.47	262.14
525.64	304.27
525.81	276.18
525.98	215.33
526.16	259.80
526.33	231.71
526.50	180.22
526.67	241.08
526.84	250.44
527.01	250.44
527.18	271.50
527.36	294.91
527.53	320.65
527.70	290.23
527.87	259.80
528.04	278.52
528.21	224.69
528.38	241.08
528.55	292.57
528.72	330.02
528.89	250.44
529.07	287.89
529.24	325.33
529.41	330.02
529.58	234.05
529.75	241.08
529.92	292.57
530.09	227.03
530.26	259.80
530.43	339.38
530.60	290.23
530.77	299.59
530.94	292.57
531.11	292.57
531.28	271.50
531.46	315.97
531.63	273.84
531.80	318.31
531.97	337.04
532.14	297.25
532.31	358.10
532.48	360.44
532.65	407.25
532.82	423.64
532.99	482.15
533.16	575.77
533.33	561.73
533.50	472.79
533.67	461.09
533.84	404.91
534.01	484.49
534.18	372.15
534.35	503.22
534.52	386.19
534.69	447.04
534.86	374.49
535.03	407.25
535.20	463.43
535.37	507.90
535.54	486.83
535.71	465.77
535.88	433.00
536.05	496.19
536.22	517.26
536.38	575.77
536.55	587.47
536.72	489.17
536.89	585.13
537.06	606.20
537.23	638.97
537.40	734.93
537.57	730.25
537.74	973.66
537.91	1036.86
538.08	1083.67
538.25	1116.44
538.42	1221.76
538.59	1261.55
538.75	1226.44
538.92	1261.55
539.09	1366.87
539.26	1352.83
539.43	1579.86
539.60	1680.50
539.77	1905.20
539.94	1975.41
540.11	2080.74
540.28	2270.32
540.44	2354.58
540.61	2392.03
540.78	2637.78
540.95	2970.14
541.12	3515.48
541.29	3992.95
541.46	4538.30
541.62	5432.38
541.79	6005.81
541.96	6544.14
542.13	6925.65
542.30	6778.19
542.47	7035.65
542.63	6743.08
542.80	6705.63
542.97	6920.96
543.14	7014.59
543.31	7077.78
543.48	7014.59
543.64	6965.43
543.81	6913.94
543.98	6548.82
544.15	6375.62
544.32	6359.24
544.48	6122.84
544.65	5959.00
544.82	5626.65
544.99	5195.99
545.16	5060.24
545.32	4999.38
545.49	7693.34
545.66	13228.71
545.83	16556.95
546.00	13898.10
546.16	9151.49
546.33	6399.02
546.50	4421.27
546.67	3300.16
546.83	2719.70
547.00	2612.04
547.17	2242.23
547.34	2242.23
547.50	2251.60
547.67	2235.21
547.84	2183.72
548.00	2157.97
548.17	2298.41
548.34	2099.46
548.51	2291.38
548.67	2392.03
548.84	2347.56
549.01	2310.11
549.18	2317.13
549.34	2321.81
549.51	2172.02
549.68	2038.61
549.84	2050.31
550.01	1877.11
550.18	1743.70
550.34	1661.78
550.51	1717.95
550.68	1645.40
550.84	1544.75
551.01	1526.03
551.18	1458.15
551.34	1533.05
551.51	1486.24
551.68	1511.99
551.84	1516.67
552.01	1540.07
552.18	1427.73
552.34	1427.73
552.51	1348.15
552.68	1362.19
552.84	1266.23
553.01	1121.12
553.18	1132.82
553.34	1074.31
553.51	997.07
553.67	903.45
553.84	950.26
554.01	788.76
554.17	774.72
554.34	664.71
554.51	657.69
554.67	688.12
554.84	685.78
555.00	557.05
555.17	557.05
555.33	512.58
555.50	507.90
555.67	411.93
555.83	393.21
556.00	414.27
556.16	545.34
556.33	472.79
556.50	454.06
556.66	421.30
556.83	390.87
556.99	400.23
557.16	428.32
557.32	372.15
557.49	383.85
557.65	285.55
557.82	456.40
557.98	383.85
558.15	393.21
558.32	416.62
558.48	367.46
558.65	304.27
558.81	332.36
558.98	416.62
559.14	346.40
559.31	320.65
559.47	325.33
559.64	339.38
559.80	355.76
559.97	306.61
560.13	334.70
560.30	362.78
560.46	404.91
560.63	360.44
560.79	276.18
560.96	395.55
561.12	318.31
561.29	322.99
561.45	248.10
561.61	437.68
561.78	416.62
561.94	250.44
562.11	308.95
562.27	301.93
562.44	353.42
562.60	337.04
562.77	292.57
562.93	351.08
563.10	287.89
563.26	369.80
563.42	306.61
563.59	372.15
563.75	278.52
563.92	332.36
564.08	374.49
564.24	266.82
564.41	341.72
564.57	238.73
564.74	287.89
564.90	318.31
565.07	238.73
565.23	287.89
565.39	341.72
565.56	248.10
565.72	266.82
565.88	278.52
566.05	292.57
566.21	299.59
566.38	332.36
566.54	234.05
566.70	250.44
566.87	339.38
567.03	187.24
567.19	292.57
567.36	369.80
567.52	264.48
567.68	334.70
567.85	325.33
568.01	283.20
568.17	245.76
568.34	229.37
568.50	327.68
568.66	351.08
568.83	320.65
568.99	276.18
569.15	353.42
569.32	257.46
569.48	320.65
569.64	220.01
569.81	325.33
569.97	259.80
570.13	278.52
570.30	238.73
570.46	205.97
570.62	327.68
570.78	271.50
570.95	198.95
571.11	337.04
571.27	259.80
571.43	271.50
571.60	294.91
571.76	276.18
571.92	358.10
572.09	299.59
572.25	320.65
572.41	294.91
572.57	257.46
572.74	325.33
572.90	271.50
573.06	320.65
573.22	360.44
573.38	259.80
573.55	306.61
573.71	271.50
573.87	341.72
574.03	287.89
574.20	299.59
574.36	360.44
574.52	341.72
574.68	315.97
574.84	344.06
575.01	341.72
575.17	322.99
575.33	358.10
575.49	423.64
575.65	416.62
575.82	351.08
575.98	409.59
576.14	507.90
576.30	746.63
576.46	1715.61
576.62	2733.75
576.79	2932.69
576.95	2200.10
577.11	1439.43
577.27	1071.97
577.43	732.59
577.59	627.26
577.75	440.02
577.92	461.09
578.08	418.96
578.24	437.68
578.40	631.94
578.56	1603.27
578.72	2394.37
578.88	2752.47
579.04	2090.10
579.21	1554.12
579.37	1317.72
579.53	1167.93
579.69	1261.55
579.85	1331.76
580.01	1565.82
580.17	1462.83
580.33	1294.32
580.49	1214.74
580.65	1048.56
580.82	1041.54
580.98	961.96
581.14	950.26
581.30	1020.47
581.46	1004.09
581.62	1114.10
581.78	1167.93
581.94	1123.46
582.10	1179.63
582.26	1125.80
582.42	1231.12
582.58	1303.68
582.74	1270.91
582.90	1502.62
583.06	1575.18
583.22	1474.54
583.38	1582.20
583.54	1409.00
583.70	1624.33
583.86	1638.38
584.02	1582.20
584.18	1519.01
584.34	1455.81
584.50	1291.98
584.66	1320.06
584.82	1259.21
584.98	1210.06
585.14	1231.12
585.30	1294.32
585.46	1203.04
585.62	1144.52
585.78	1123.46
585.94	1156.22
586.10	1151.54
586.26	1226.44
586.42	1439.43
586.58	1570.50
586.74	1865.41
586.90	2165.00
587.06	2562.89
587.22	2478.63
587.38	2172.02
587.54	2033.93
587.70	1846.68
587.86	1724.97
588.02	1441.77
588.18	1380.92
588.34	1291.98
588.49	1219.42
588.65	1158.57
588.81	1128.14
588.97	1057.92
589.13	990.05
589.29	1018.13
589.45	1004.09
589.61	992.39
589.77	994.73
589.93	1011.11
590.08	1039.20
590.24	1100.05
590.40	987.71
590.56	971.32
590.72	959.62
590.88	973.66
591.04	812.17
591.20	884.72
591.35	1006.43
591.51	912.81
591.67	952.60
591.83	987.71
591.99	1027.50
592.15	1142.18
592.31	1081.33
592.46	1280.27
592.62	1385.60
592.78	1444.11
592.94	1490.92
593.10	1441.77
593.26	1439.43
593.41	1306.02
593.57	1165.59
593.73	1036.86
593.89	940.90
594.05	758.33
594.20	781.74
594.36	767.70
594.52	592.16
594.68	662.37
594.84	730.25
594.99	681.10
595.15	634.29
595.31	526.62
595.47	615.56
595.62	617.90
595.78	547.69
595.94	573.43
596.10	638.97
596.25	709.18
596.41	667.05
596.57	491.51
596.73	528.96
596.88	587.47
597.04	545.34
597.20	594.50
597.36	634.29
597.51	587.47
597.67	617.90
597.83	709.18
597.99	645.99
598.14	627.26
598.30	760.67
598.46	786.42
598.61	774.72
598.77	894.08
598.93	812.17
599.09	884.72
599.24	908.13
599.40	938.55
599.56	842.59
599.71	924.51
599.87	868.34
600.03	863.66
600.18	706.84
600.34	725.57
600.50	631.94
600.65	688.12
600.81	695.14
600.97	507.90
601.12	526.62
601.28	585.13
601.44	592.16
601.59	519.60
601.75	470.45
601.91	449.38
602.06	355.76
602.22	552.37
602.37	498.53
602.53	454.06
602.69	444.70
602.84	393.21
603.00	472.79
603.16	400.23
603.31	425.98
603.47	507.90
603.62	505.56
603.78	479.81
603.94	503.22
604.09	454.06
604.25	519.60
604.40	561.73
604.56	482.15
604.71	510.24
604.87	484.49
605.03	519.60
605.18	538.32
605.34	547.69
605.49	493.85
605.65	503.22
605.80	634.29
605.96	489.17
606.12	650.67
606.27	641.31
606.43	617.90
606.58	669.39
606.74	650.67
606.89	755.99
607.05	716.20
607.20	791.10
607.36	744.29
607.51	772.38
607.67	786.42
607.82	816.85
607.98	919.83
608.13	985.37
608.29	992.39
608.44	1125.80
608.60	1235.80
608.75	1327.08
608.91	1446.45
609.06	1504.96
