SpectraSuite Data File
++++++++++++++++++++++++++++++++++++
Date: Fri Oct 04 11:41:47 GMT-05:00 2013
User: price-jones
Dark Spectrum Present: No
Reference Spectrum Present: No
Number of Sampled Component Spectra: 1
Spectrometers: USB2+H05261
Integration Time (usec): 100000 (USB2+H05261)
Spectra Averaged: 1 (USB2+H05261)
Boxcar Smoothing: 0 (USB2+H05261)
Correct for Electrical Dark: No (USB2+H05261)
Strobe/Lamp Enabled: No (USB2+H05261)
Correct for Detector Non-linearity: No (USB2+H05261)
Correct for Stray Light: No (USB2+H05261)
Number of Pixels in Processed Spectrum: 2048
>>>>>Begin Processed Spectral Data<<<<<
365.73	9.36
365.92	9.36
366.12	9.36
366.32	0.00
366.52	0.00
366.72	0.00
366.91	0.00
367.11	0.00
367.31	0.00
367.51	0.00
367.70	0.00
367.90	0.00
368.10	28.09
368.30	0.00
368.49	0.00
368.69	0.00
368.89	0.00
369.09	0.00
369.28	0.00
369.48	0.00
369.68	0.00
369.87	11.70
370.07	44.47
370.27	9.36
370.47	0.00
370.66	0.00
370.86	145.11
371.06	79.58
371.25	56.17
371.45	77.24
371.65	39.79
371.84	102.98
372.04	53.83
372.24	128.73
372.44	53.83
372.63	88.94
372.83	212.99
373.03	72.56
373.22	114.69
373.42	81.92
373.62	117.03
373.81	70.22
374.01	152.13
374.21	117.03
374.40	168.52
374.60	159.16
374.79	32.77
374.99	140.43
375.19	180.22
375.38	46.81
375.58	154.48
375.78	161.50
375.97	149.79
376.17	189.58
376.37	114.69
376.56	112.35
376.76	79.58
376.95	112.35
377.15	133.41
377.35	133.41
377.54	112.35
377.74	86.60
377.93	145.11
378.13	105.32
378.33	142.77
378.52	112.35
378.72	84.26
378.91	95.96
379.11	133.41
379.31	58.51
379.50	227.03
379.70	163.84
379.89	117.03
380.09	70.22
380.28	95.96
380.48	126.39
380.68	198.95
380.87	105.32
381.07	119.37
381.26	128.73
381.46	121.71
381.65	121.71
381.85	149.79
382.04	121.71
382.24	159.16
382.43	124.05
382.63	152.13
382.83	67.88
383.02	217.67
383.22	170.86
383.41	100.64
383.61	84.26
383.80	131.07
384.00	126.39
384.19	152.13
384.39	88.94
384.58	140.43
384.78	105.32
384.97	147.45
385.17	147.45
385.36	142.77
385.56	145.11
385.75	173.20
385.95	145.11
386.14	72.56
386.34	110.01
386.53	98.30
386.72	149.79
386.92	72.56
387.11	133.41
387.31	114.69
387.50	140.43
387.70	95.96
387.89	124.05
388.09	102.98
388.28	133.41
388.48	81.92
388.67	124.05
388.86	112.35
389.06	112.35
389.25	98.30
389.45	88.94
389.64	187.24
389.84	74.90
390.03	128.73
390.22	170.86
390.42	100.64
390.61	126.39
390.81	133.41
391.00	88.94
391.19	126.39
391.39	128.73
391.58	154.48
391.78	102.98
391.97	112.35
392.16	70.22
392.36	149.79
392.55	119.37
392.75	79.58
392.94	105.32
393.13	184.90
393.33	126.39
393.52	77.24
393.71	154.48
393.91	142.77
394.10	168.52
394.29	140.43
394.49	168.52
394.68	140.43
394.88	187.24
395.07	189.58
395.26	175.54
395.46	175.54
395.65	124.05
395.84	159.16
396.04	224.69
396.23	117.03
396.42	93.62
396.62	198.95
396.81	138.09
397.00	110.01
397.19	177.88
397.39	152.13
397.58	224.69
397.77	154.48
397.97	180.22
398.16	159.16
398.35	156.82
398.55	112.35
398.74	215.33
398.93	142.77
399.12	182.56
399.32	159.16
399.51	152.13
399.70	156.82
399.90	159.16
400.09	198.95
400.28	98.30
400.47	196.60
400.67	161.50
400.86	119.37
401.05	168.52
401.24	114.69
401.44	147.45
401.63	152.13
401.82	220.01
402.01	177.88
402.21	128.73
402.40	133.41
402.59	222.35
402.78	175.54
402.97	182.56
403.17	257.46
403.36	180.22
403.55	358.10
403.74	723.23
403.93	1937.96
404.13	5107.05
404.32	7618.44
404.51	6663.51
404.70	4058.49
404.89	1490.92
405.09	468.11
405.28	327.68
405.47	198.95
405.66	227.03
405.85	236.39
406.05	208.31
406.24	227.03
406.43	250.44
406.62	210.65
406.81	217.67
407.00	308.95
407.20	711.52
407.39	1034.52
407.58	1097.71
407.77	835.57
407.96	564.07
408.15	285.55
408.34	196.60
408.54	189.58
408.73	175.54
408.92	243.42
409.11	133.41
409.30	170.86
409.49	189.58
409.68	161.50
409.87	215.33
410.07	180.22
410.26	170.86
410.45	180.22
410.64	121.71
410.83	245.76
411.02	189.58
411.21	266.82
411.40	124.05
411.59	229.37
411.78	205.97
411.98	154.48
412.17	112.35
412.36	198.95
412.55	145.11
412.74	215.33
412.93	238.73
413.12	196.60
413.31	196.60
413.50	210.65
413.69	290.23
413.88	341.72
414.07	196.60
414.26	241.08
414.45	156.82
414.64	227.03
414.83	121.71
415.02	198.95
415.22	266.82
415.41	245.76
415.60	215.33
415.79	278.52
415.98	337.04
416.17	294.91
416.36	262.14
416.55	271.50
416.74	276.18
416.93	166.18
417.12	212.99
417.31	376.83
417.50	217.67
417.69	266.82
417.88	332.36
418.07	194.26
418.26	351.08
418.45	257.46
418.64	332.36
418.83	301.93
419.02	325.33
419.21	217.67
419.39	238.73
419.58	212.99
419.77	252.78
419.96	320.65
420.15	304.27
420.34	262.14
420.53	250.44
420.72	369.80
420.91	308.95
421.10	306.61
421.29	322.99
421.48	337.04
421.67	313.63
421.86	238.73
422.05	344.06
422.24	241.08
422.43	308.95
422.61	315.97
422.80	290.23
422.99	292.57
423.18	290.23
423.37	344.06
423.56	311.29
423.75	341.72
423.94	327.68
424.13	259.80
424.32	330.02
424.50	299.59
424.69	294.91
424.88	276.18
425.07	255.12
425.26	290.23
425.45	332.36
425.64	280.86
425.83	348.74
426.01	346.40
426.20	269.16
426.39	330.02
426.58	358.10
426.77	358.10
426.96	381.51
427.15	325.33
427.33	322.99
427.52	351.08
427.71	353.42
427.90	388.53
428.09	407.25
428.28	393.21
428.46	374.49
428.65	369.80
428.84	409.59
429.03	374.49
429.22	315.97
429.40	320.65
429.59	353.42
429.78	365.12
429.97	393.21
430.16	308.95
430.34	358.10
430.53	348.74
430.72	463.43
430.91	360.44
431.10	372.15
431.28	395.55
431.47	442.36
431.66	428.32
431.85	444.70
432.03	444.70
432.22	505.56
432.41	421.30
432.60	433.00
432.79	423.64
432.97	486.83
433.16	477.47
433.35	531.30
433.54	676.41
433.72	615.56
433.91	660.03
434.10	695.14
434.28	887.06
434.47	1078.99
434.66	1057.92
434.85	1387.94
435.03	3318.88
435.22	12861.24
435.41	30913.80
435.59	35328.05
435.78	22551.06
435.97	11435.86
436.16	4437.66
436.34	1514.33
436.53	915.15
436.72	767.70
436.90	631.94
437.09	505.56
437.28	587.47
437.46	617.90
437.65	543.00
437.84	517.26
438.02	461.09
438.21	472.79
438.40	489.17
438.58	358.10
438.77	479.81
438.96	524.28
439.14	447.04
439.33	519.60
439.52	458.74
439.70	477.47
439.89	449.38
440.08	477.47
440.26	468.11
440.45	496.19
440.63	479.81
440.82	486.83
441.01	447.04
441.19	458.74
441.38	486.83
441.57	437.68
441.75	524.28
441.94	589.82
442.12	468.11
442.31	526.62
442.50	482.15
442.68	433.00
442.87	470.45
443.05	489.17
443.24	468.11
443.43	475.13
443.61	592.16
443.80	524.28
443.98	409.59
444.17	451.72
444.35	517.26
444.54	503.22
444.73	533.64
444.91	472.79
445.10	486.83
445.28	418.96
445.47	421.30
445.65	430.66
445.84	402.57
446.02	383.85
446.21	440.02
446.39	428.32
446.58	475.13
446.77	472.79
446.95	470.45
447.14	498.53
447.32	550.03
447.51	486.83
447.69	491.51
447.88	421.30
448.06	479.81
448.25	510.24
448.43	414.27
448.62	421.30
448.80	386.19
448.99	402.57
449.17	528.96
449.36	465.77
449.54	465.77
449.73	404.91
449.91	493.85
450.10	451.72
450.28	528.96
450.46	477.47
450.65	442.36
450.83	496.19
451.02	493.85
451.20	543.00
451.39	428.32
451.57	454.06
451.76	456.40
451.94	444.70
452.13	535.98
452.31	540.66
452.49	489.17
452.68	440.02
452.86	440.02
453.05	535.98
453.23	528.96
453.42	451.72
453.60	479.81
453.78	425.98
453.97	535.98
454.15	397.89
454.34	407.25
454.52	458.74
454.70	514.92
454.89	512.58
455.07	435.34
455.26	482.15
455.44	507.90
455.62	451.72
455.81	470.45
455.99	484.49
456.17	456.40
456.36	484.49
456.54	409.59
456.73	425.98
456.91	528.96
457.09	479.81
457.28	463.43
457.46	482.15
457.64	468.11
457.83	444.70
458.01	433.00
458.19	486.83
458.38	430.66
458.56	489.17
458.74	404.91
458.93	402.57
459.11	393.21
459.29	477.47
459.48	496.19
459.66	543.00
459.84	428.32
460.03	503.22
460.21	463.43
460.39	390.87
460.57	454.06
460.76	456.40
460.94	388.53
461.12	486.83
461.31	482.15
461.49	531.30
461.67	451.72
461.85	482.15
462.04	435.34
462.22	884.72
462.40	458.74
462.59	496.19
462.77	430.66
462.95	465.77
463.13	451.72
463.32	463.43
463.50	491.51
463.68	482.15
463.86	528.96
464.05	479.81
464.23	440.02
464.41	491.51
464.59	451.72
464.78	510.24
464.96	418.96
465.14	430.66
465.32	386.19
465.50	442.36
465.69	421.30
465.87	395.55
466.05	468.11
466.23	447.04
466.41	416.62
466.60	447.04
466.78	449.38
466.96	482.15
467.14	475.13
467.32	489.17
467.51	510.24
467.69	505.56
467.87	484.49
468.05	425.98
468.23	472.79
468.41	444.70
468.60	414.27
468.78	437.68
468.96	365.12
469.14	425.98
469.32	411.93
469.50	383.85
469.69	390.87
469.87	379.17
470.05	393.21
470.23	404.91
470.41	414.27
470.59	535.98
470.77	411.93
470.95	468.11
471.14	489.17
471.32	475.13
471.50	395.55
471.68	369.80
471.86	414.27
472.04	416.62
472.22	430.66
472.40	386.19
472.58	512.58
472.77	339.38
472.95	430.66
473.13	559.39
473.31	414.27
473.49	430.66
473.67	447.04
473.85	540.66
474.03	425.98
474.21	423.64
474.39	456.40
474.57	451.72
474.75	442.36
474.93	365.12
475.12	372.15
475.30	442.36
475.48	404.91
475.66	430.66
475.84	386.19
476.02	404.91
476.20	470.45
476.38	526.62
476.56	484.49
476.74	449.38
476.92	430.66
477.10	482.15
477.28	414.27
477.46	456.40
477.64	582.79
477.82	512.58
478.00	507.90
478.18	482.15
478.36	524.28
478.54	477.47
478.72	550.03
478.90	528.96
479.08	531.30
479.26	533.64
479.44	528.96
479.62	456.40
479.80	601.52
479.98	620.24
480.16	571.09
480.34	723.23
480.52	688.12
480.70	744.29
480.88	599.18
481.06	664.71
481.24	800.46
481.41	826.21
481.59	844.93
481.77	910.47
481.95	1057.92
482.13	978.34
482.31	1029.84
482.49	1074.31
482.67	1181.97
482.85	1296.66
483.03	1427.73
483.21	1420.71
483.39	1612.63
483.57	1652.42
483.74	1790.51
483.92	1799.87
484.10	1856.04
484.28	1984.77
484.46	2179.04
484.64	2284.36
484.82	2275.00
485.00	2548.84
485.18	2567.57
485.35	2733.75
485.53	2843.75
485.71	3117.59
485.89	3178.45
486.07	3288.45
486.25	3187.81
486.43	3248.66
486.61	3440.59
486.78	3281.43
486.96	3304.84
487.14	3260.37
487.32	3314.20
487.50	3255.69
487.68	3309.52
487.85	3129.30
488.03	3082.49
488.21	3136.32
488.39	3033.33
488.57	2981.84
488.75	2897.58
488.92	3199.51
489.10	2803.96
489.28	2637.78
489.46	2733.75
489.64	2633.10
489.81	2574.59
489.99	2534.80
490.17	2520.76
490.35	2579.27
490.53	2523.10
490.70	2541.82
490.88	2483.31
491.06	2527.78
491.24	2567.57
491.41	2846.09
491.59	2654.17
491.77	2429.48
491.95	2356.92
492.13	2293.72
492.30	2277.34
492.48	2232.87
492.66	2073.71
492.84	2174.36
493.01	2083.08
493.19	2090.10
493.37	2134.57
493.54	2134.57
493.72	1977.75
493.90	1954.35
494.08	1987.11
494.25	1916.90
494.43	2033.93
494.61	2005.84
494.79	1874.77
494.96	1743.70
495.14	1797.53
495.32	1776.47
495.49	1757.74
495.67	1734.34
495.85	1671.14
496.02	1661.78
496.20	1717.95
496.38	1603.27
496.55	1607.95
496.73	1486.24
496.91	1591.56
497.09	1397.30
497.26	1619.65
497.44	1413.68
497.62	1359.85
497.79	1334.11
497.97	1383.26
498.14	1348.15
498.32	1434.75
498.50	1357.51
498.67	1245.16
498.85	1249.85
499.03	1137.50
499.20	1132.82
499.38	1217.08
499.56	1053.24
499.73	1144.52
499.91	1034.52
500.08	1128.14
500.26	1053.24
500.44	1027.50
500.61	997.07
500.79	924.51
500.97	1008.77
501.14	898.77
501.32	866.00
501.49	931.53
501.67	809.83
501.84	779.40
502.02	734.93
502.20	816.85
502.37	737.27
502.55	704.50
502.72	695.14
502.90	704.50
503.07	697.48
503.25	692.80
503.43	596.84
503.60	624.92
503.78	645.99
503.95	655.35
504.13	676.41
504.30	674.07
504.48	599.18
504.65	669.39
504.83	582.79
505.01	566.41
505.18	608.54
505.36	662.37
505.53	545.34
505.71	557.05
505.88	533.64
506.06	521.94
506.23	517.26
506.41	540.66
506.58	561.73
506.76	538.32
506.93	414.27
507.11	465.77
507.28	388.53
507.46	433.00
507.63	465.77
507.81	594.50
507.98	484.49
508.16	414.27
508.33	454.06
508.50	554.71
508.68	486.83
508.85	603.86
509.03	531.30
509.20	496.19
509.38	479.81
509.55	456.40
509.73	507.90
509.90	447.04
510.08	526.62
510.25	463.43
510.42	458.74
510.60	564.07
510.77	489.17
510.95	479.81
511.12	433.00
511.30	400.23
511.47	468.11
511.64	496.19
511.82	463.43
511.99	449.38
512.17	475.13
512.34	365.12
512.51	489.17
512.69	503.22
512.86	458.74
513.04	489.17
513.21	430.66
513.38	421.30
513.56	416.62
513.73	428.32
513.90	400.23
514.08	409.59
514.25	454.06
514.43	440.02
514.60	346.40
514.77	376.83
514.95	430.66
515.12	393.21
515.29	400.23
515.47	334.70
515.64	374.49
515.81	430.66
515.99	475.13
516.16	456.40
516.33	428.32
516.51	468.11
516.68	395.55
516.85	330.02
517.03	397.89
517.20	428.32
517.37	390.87
517.54	421.30
517.72	318.31
517.89	430.66
518.06	358.10
518.24	360.44
518.41	372.15
518.58	411.93
518.75	395.55
518.93	425.98
519.10	386.19
519.27	322.99
519.45	423.64
519.62	390.87
519.79	425.98
519.96	332.36
520.14	418.96
520.31	449.38
520.48	388.53
520.65	383.85
520.83	433.00
521.00	341.72
521.17	376.83
521.34	346.40
521.52	308.95
521.69	297.25
521.86	334.70
522.03	407.25
522.20	393.21
522.38	372.15
522.55	372.15
522.72	337.04
522.89	353.42
523.07	365.12
523.24	437.68
523.41	360.44
523.58	330.02
523.75	315.97
523.92	353.42
524.10	351.08
524.27	428.32
524.44	306.61
524.61	308.95
524.78	360.44
524.96	414.27
525.13	381.51
525.30	531.30
525.47	430.66
525.64	430.66
525.81	449.38
525.98	440.02
526.16	428.32
526.33	346.40
526.50	376.83
526.67	456.40
526.84	400.23
527.01	404.91
527.18	507.90
527.36	472.79
527.53	484.49
527.70	440.02
527.87	526.62
528.04	482.15
528.21	521.94
528.38	477.47
528.55	528.96
528.72	514.92
528.89	538.32
529.07	510.24
529.24	479.81
529.41	561.73
529.58	484.49
529.75	458.74
529.92	531.30
530.09	493.85
530.26	500.87
530.43	461.09
530.60	531.30
530.77	596.84
530.94	575.77
531.11	545.34
531.28	634.29
531.46	559.39
531.63	655.35
531.80	704.50
531.97	685.78
532.14	753.65
532.31	976.00
532.48	1081.33
532.65	1252.19
532.82	1343.47
532.99	1657.10
533.16	1996.48
533.33	1975.41
533.50	1820.94
533.67	1607.95
533.84	1364.53
534.01	1196.01
534.18	1170.27
534.35	1128.14
534.52	1130.48
534.69	1256.87
534.86	1135.16
535.03	1207.72
535.20	1315.38
535.37	1322.40
535.54	1502.62
535.71	1523.69
535.88	1570.50
536.05	1689.87
536.22	1832.64
536.38	1991.80
536.55	2197.76
536.72	2396.71
536.89	2520.76
537.06	2928.01
537.23	3330.58
537.40	3644.21
537.57	3880.61
537.74	4025.72
537.91	4255.09
538.08	4341.69
538.25	4456.38
538.42	4566.39
538.59	4526.60
538.75	4746.61
538.92	5015.77
539.09	5472.17
539.26	5968.37
539.43	6832.02
539.60	7728.45
539.77	8559.34
539.94	9916.85
540.11	10668.16
540.28	11941.41
540.44	12917.42
540.61	14321.74
540.78	16299.49
540.95	19852.42
541.12	23498.98
541.29	27016.80
541.46	28091.11
541.62	27983.44
541.79	26923.18
541.96	25109.27
542.13	23012.15
542.30	21535.27
542.47	20334.57
542.63	19131.54
542.80	18291.29
542.97	18141.49
543.14	18209.37
543.31	18125.11
543.48	18270.22
543.64	18443.42
543.81	18794.50
543.98	18331.08
544.15	19183.03
544.32	18960.68
544.48	18883.44
544.65	18658.75
544.82	18417.68
544.99	18338.10
545.16	18817.91
545.32	19971.79
545.49	31164.23
545.66	55608.79
545.83	62181.01
546.00	58216.14
546.16	44184.63
546.33	32327.48
546.50	24233.91
546.67	19075.37
546.83	17310.60
547.00	16325.24
547.17	15419.45
547.34	14626.01
547.50	14134.50
547.67	13605.53
547.84	12940.82
548.00	12362.71
548.17	11964.82
548.34	11609.06
548.51	11246.27
548.67	10782.85
548.84	10265.59
549.01	9799.82
549.18	9380.87
549.34	9156.18
549.51	8713.81
549.68	8374.44
549.84	7805.69
550.01	7683.98
550.18	7274.38
550.34	6839.05
550.51	6623.72
550.68	6204.76
550.84	5792.83
551.01	5673.46
551.18	5324.72
551.34	5125.77
551.51	4950.23
551.68	4730.22
551.84	4622.56
552.01	4402.55
552.18	4121.68
552.34	3990.61
552.51	3850.18
552.68	3840.82
552.84	3576.34
553.01	3377.39
553.18	3361.01
553.34	3269.73
553.51	3215.90
553.67	3038.02
553.84	2902.26
554.01	2766.51
554.17	2551.18
554.34	2401.39
554.51	2380.32
554.67	2200.10
554.84	2076.06
555.00	1898.17
555.17	1879.45
555.33	1727.32
555.50	1755.40
555.67	1584.54
555.83	1561.14
556.00	1483.90
556.16	1701.57
556.33	1369.21
556.50	1219.42
556.66	1336.45
556.83	1331.76
556.99	1259.21
557.16	1212.40
557.32	1156.22
557.49	1039.20
557.65	983.02
557.82	973.66
557.98	1022.81
558.15	1032.18
558.32	1029.84
558.48	971.32
558.65	1006.43
558.81	924.51
558.98	959.62
559.14	851.96
559.31	823.87
559.47	905.79
559.64	835.57
559.80	741.95
559.97	786.42
560.13	837.91
560.30	833.23
560.46	823.87
560.63	835.57
560.79	793.44
560.96	819.19
561.12	802.80
561.29	840.25
561.45	741.95
561.61	828.55
561.78	884.72
561.94	786.42
562.11	781.74
562.27	823.87
562.44	774.72
562.60	784.08
562.77	711.52
562.93	793.44
563.10	748.97
563.26	739.61
563.42	727.91
563.59	760.67
563.75	741.95
563.92	767.70
564.08	688.12
564.24	713.86
564.41	718.54
564.57	688.12
564.74	674.07
564.90	648.33
565.07	702.16
565.23	627.26
565.39	608.54
565.56	620.24
565.72	531.30
565.88	636.63
566.05	610.88
566.21	580.45
566.38	594.50
566.54	643.65
566.70	617.90
566.87	631.94
567.03	592.16
567.19	660.03
567.36	655.35
567.52	695.14
567.68	617.90
567.85	713.86
568.01	594.50
568.17	690.46
568.34	697.48
568.50	622.58
568.66	582.79
568.83	746.63
568.99	594.50
569.15	601.52
569.32	526.62
569.48	615.56
569.64	519.60
569.81	465.77
569.97	498.53
570.13	578.11
570.30	500.87
570.46	531.30
570.62	493.85
570.78	493.85
570.95	521.94
571.11	552.37
571.27	643.65
571.43	475.13
571.60	482.15
571.76	411.93
571.92	435.34
572.09	535.98
572.25	437.68
572.41	535.98
572.57	463.43
572.74	552.37
572.90	557.05
573.06	573.43
573.22	425.98
573.38	512.58
573.55	531.30
573.71	559.39
573.87	533.64
574.03	526.62
574.20	538.32
574.36	561.73
574.52	571.09
574.68	568.75
574.84	669.39
575.01	648.33
575.17	777.06
575.33	653.01
575.49	723.23
575.65	805.14
575.82	828.55
575.98	1034.52
576.14	1025.15
576.30	2148.61
576.46	6328.81
576.62	12449.31
576.79	13760.01
576.95	9818.55
577.11	6225.82
577.27	4472.76
577.43	2944.39
577.59	1961.37
577.75	1572.84
577.92	1348.15
578.08	1324.74
578.24	1427.73
578.40	2193.08
578.56	6066.67
578.72	11131.59
578.88	12435.27
579.04	9231.07
579.21	6207.10
579.37	4660.01
579.53	3733.15
579.69	3485.06
579.85	4161.47
580.01	4943.21
580.17	4683.41
580.33	4021.04
580.49	3496.76
580.65	3164.40
580.82	2881.20
580.98	2736.09
581.14	2810.98
581.30	3059.08
581.46	3164.40
581.62	3286.11
581.78	3559.95
581.94	3976.57
582.10	4262.12
582.26	4414.25
582.42	4437.66
582.58	4645.96
582.74	4641.28
582.90	4648.30
583.06	4734.90
583.22	4812.14
583.38	4830.87
583.54	4746.61
583.70	4882.36
583.86	4601.49
584.02	4578.09
584.18	4440.00
584.34	4329.99
584.50	4290.20
584.66	4210.62
584.82	4201.26
584.98	4227.01
585.14	4219.99
585.30	4152.11
585.46	3978.91
585.62	3798.69
585.78	3941.46
585.94	3990.61
586.10	4060.83
586.26	4215.30
586.42	4727.88
586.58	5802.19
586.74	6981.82
586.90	8514.87
587.06	9135.11
587.22	9069.58
587.38	7990.59
587.54	6883.52
587.70	6047.94
587.86	5060.24
588.02	4353.40
588.18	3868.91
588.34	3421.86
588.49	3211.22
588.65	3026.31
588.81	2808.64
588.97	2815.66
589.13	2593.31
589.29	2530.12
589.45	2710.34
589.61	2682.25
589.77	2626.08
589.93	2623.74
590.08	2766.51
590.24	2764.17
590.40	3000.57
590.56	3023.97
590.72	3098.87
590.88	3251.00
591.04	3272.07
591.20	3339.94
591.35	3501.44
591.51	3744.86
591.67	3836.14
591.83	4067.85
591.99	4402.55
592.15	4617.88
592.31	5118.75
592.46	5652.39
592.62	6253.91
592.78	6558.18
592.94	6658.82
593.10	6668.19
593.26	6225.82
593.41	5802.19
593.57	5256.84
593.73	4578.09
593.89	3950.82
594.05	3480.38
594.20	3190.15
594.36	3066.10
594.52	2768.85
594.68	2647.15
594.84	2609.70
594.99	2588.63
595.15	2495.01
595.31	2406.07
595.47	2502.03
595.62	2394.37
595.78	2253.94
595.94	2443.52
596.10	2382.67
596.25	2448.20
596.41	2335.85
596.57	2314.79
596.73	2352.24
596.88	2380.32
597.04	2286.70
597.20	2462.24
597.36	2387.35
597.51	2558.21
597.67	2541.82
597.83	2656.51
597.99	2686.94
598.14	2942.05
598.30	3049.72
598.46	3309.52
598.61	3499.10
598.77	3822.09
598.93	3964.87
599.09	3908.69
599.24	4131.05
599.40	3992.95
599.56	3995.29
599.71	3693.37
599.87	3592.72
600.03	3260.37
600.18	2970.14
600.34	2974.82
600.50	2747.79
600.65	2548.84
600.81	2499.69
600.97	2263.30
601.12	2211.81
601.28	1935.62
601.44	1895.83
601.59	1858.39
601.75	1823.28
601.91	1755.40
602.06	1708.59
602.22	1771.79
602.37	1568.16
602.53	1645.40
602.69	1629.01
602.84	1554.12
603.00	1572.84
603.16	1561.14
603.31	1598.59
603.47	1671.14
603.62	1706.25
603.78	1741.36
603.94	1682.85
604.09	1811.57
604.25	1900.52
604.40	1795.19
604.56	1746.04
604.71	1806.89
604.87	1863.07
605.03	1942.64
605.18	1963.71
