SpectraSuite Data File
++++++++++++++++++++++++++++++++++++
Date: Fri Oct 04 11:42:17 GMT-05:00 2013
User: price-jones
Dark Spectrum Present: No
Reference Spectrum Present: No
Number of Sampled Component Spectra: 1
Spectrometers: USB2+H05261
Integration Time (usec): 100000 (USB2+H05261)
Spectra Averaged: 1 (USB2+H05261)
Boxcar Smoothing: 0 (USB2+H05261)
Correct for Electrical Dark: No (USB2+H05261)
Strobe/Lamp Enabled: No (USB2+H05261)
Correct for Detector Non-linearity: No (USB2+H05261)
Correct for Stray Light: No (USB2+H05261)
Number of Pixels in Processed Spectrum: 2048
>>>>>Begin Processed Spectral Data<<<<<
365.73	107.66
365.92	107.66
366.12	107.66
366.32	0.00
366.52	0.00
366.72	0.00
366.91	0.00
367.11	0.00
367.31	0.00
367.51	0.00
367.70	0.00
367.90	0.00
368.10	0.00
368.30	0.00
368.49	0.00
368.69	0.00
368.89	0.00
369.09	0.00
369.28	0.00
369.48	0.00
369.68	0.00
369.87	72.56
370.07	70.22
370.27	46.81
370.47	110.01
370.66	477.47
370.86	620.24
371.06	718.54
371.25	753.65
371.45	631.94
371.65	662.37
371.84	587.47
372.04	636.63
372.24	608.54
372.44	741.95
372.63	669.39
372.83	634.29
373.03	648.33
373.22	552.37
373.42	550.03
373.62	587.47
373.81	732.59
374.01	690.46
374.21	688.12
374.40	547.69
374.60	692.80
374.79	692.80
374.99	816.85
375.19	774.72
375.38	802.80
375.58	795.78
375.78	765.36
375.97	753.65
376.17	938.55
376.37	816.85
376.56	802.80
376.76	851.96
376.95	814.51
377.15	1004.09
377.35	997.07
377.54	1069.62
377.74	1027.50
377.93	976.00
378.13	1011.11
378.33	959.62
378.52	933.87
378.72	924.51
378.91	833.23
379.11	840.25
379.31	880.04
379.50	814.51
379.70	903.45
379.89	1011.11
380.09	901.11
380.28	966.64
380.48	1041.54
380.68	994.73
380.87	889.40
381.07	889.40
381.26	835.57
381.46	903.45
381.65	903.45
381.85	737.27
382.04	748.97
382.24	681.10
382.43	720.88
382.63	660.03
382.83	585.13
383.02	641.31
383.22	784.08
383.41	667.05
383.61	725.57
383.80	753.65
384.00	889.40
384.19	990.05
384.39	961.96
384.58	1102.39
384.78	983.02
384.97	1013.45
385.17	887.06
385.36	894.08
385.56	910.47
385.75	940.90
385.95	976.00
386.14	1013.45
386.34	994.73
386.53	889.40
386.72	926.85
386.92	945.58
387.11	994.73
387.31	929.19
387.50	1036.86
387.70	990.05
387.89	938.55
388.09	961.96
388.28	961.96
388.48	1067.28
388.67	1116.44
388.86	1174.95
389.06	1151.54
389.25	1247.51
389.45	1329.42
389.64	1177.29
389.84	1383.26
390.03	1282.61
390.22	1289.64
390.42	1338.79
390.61	1294.32
390.81	1423.05
391.00	1460.49
391.19	1519.01
391.39	1418.36
391.58	1259.21
391.78	1303.68
391.97	1226.44
392.16	1095.37
392.36	1149.20
392.55	889.40
392.75	748.97
392.94	587.47
393.13	688.12
393.33	655.35
393.52	807.48
393.71	1086.01
393.91	1153.88
394.10	1188.99
394.29	1362.19
394.49	1376.24
394.68	1404.32
394.88	1474.54
395.07	1458.15
395.26	1526.03
395.46	1481.56
395.65	1423.05
395.84	1277.93
396.04	1095.37
396.23	947.92
396.42	856.64
396.62	737.27
396.81	863.66
397.00	1015.79
397.19	1273.25
397.39	1526.03
397.58	1708.59
397.77	1706.25
397.97	1788.17
398.16	1781.15
398.35	1961.37
398.55	1797.53
398.74	1937.96
398.93	2008.18
399.12	2017.54
399.32	1984.77
399.51	1980.09
399.70	2129.89
399.90	2122.87
400.09	2005.84
400.28	2043.29
400.47	2038.61
400.67	2223.51
400.86	2298.41
401.05	2314.79
401.24	2338.20
401.44	2218.83
401.63	2265.64
401.82	2321.81
402.01	2200.10
402.21	2193.08
402.40	2256.28
402.59	2270.32
402.78	2165.00
402.97	2162.66
403.17	2193.08
403.36	2136.91
403.55	2462.24
403.74	2277.34
403.93	2401.39
404.13	2265.64
404.32	2153.29
404.51	2195.42
404.70	2303.09
404.89	2267.98
405.09	2188.40
405.28	2160.31
405.47	2174.36
405.66	2253.94
405.85	2101.80
406.05	2104.14
406.24	2190.74
406.43	2289.04
406.62	2314.79
406.81	2340.54
407.00	2338.20
407.20	2284.36
407.39	2221.17
407.58	2244.57
407.77	2361.60
407.96	2459.90
408.15	2537.14
408.34	2506.71
408.54	2394.37
408.73	2539.48
408.92	2523.10
409.11	2499.69
409.30	2394.37
409.49	2279.68
409.68	2019.88
409.87	2040.95
410.07	2122.87
410.26	2183.72
410.45	2399.05
410.64	2380.32
410.83	2532.46
411.02	2502.03
411.21	2698.64
411.40	2637.78
411.59	2820.35
411.78	2605.02
411.98	2628.42
412.17	2691.62
412.36	2586.29
412.55	2621.40
412.74	2717.36
412.93	2595.65
413.12	2541.82
413.31	2752.47
413.50	2670.55
413.69	2860.13
413.88	2815.66
414.07	2754.81
414.26	2813.32
414.45	2825.03
414.64	2778.22
414.83	2799.28
415.02	2703.32
415.22	2773.53
415.41	2883.54
415.60	2932.69
415.79	2925.67
415.98	3038.02
416.17	3073.12
416.36	2970.14
416.55	2984.18
416.74	2801.62
416.93	2750.13
417.12	2729.06
417.31	2820.35
417.50	2801.62
417.69	2951.42
417.88	3042.70
418.07	2874.18
418.26	2787.58
418.45	2775.88
418.64	2981.84
418.83	3101.21
419.02	3052.06
419.21	2909.29
419.39	2860.13
419.58	2853.11
419.77	2712.68
419.96	2942.05
420.15	3030.99
420.34	2937.37
420.53	3148.02
420.72	3162.06
420.91	3150.36
421.10	3218.24
421.29	3143.34
421.48	3047.38
421.67	3201.85
421.86	3218.24
422.05	2874.18
422.24	2670.55
422.43	2661.19
422.61	2862.48
422.80	3016.95
422.99	3066.10
423.18	3068.44
423.37	3030.99
423.56	2937.37
423.75	2939.71
423.94	2967.80
424.13	2759.49
424.32	2841.41
424.50	2932.69
424.69	2904.60
424.88	2960.78
425.07	2836.73
425.26	2834.39
425.45	2715.02
425.64	2825.03
425.83	2708.00
426.01	3026.31
426.20	3075.46
426.39	3026.31
426.58	2820.35
426.77	2654.17
426.96	2516.08
427.15	2712.68
427.33	2813.32
427.52	2839.07
427.71	2918.65
427.90	2951.42
428.09	2801.62
428.28	2820.35
428.46	2764.17
428.65	2670.55
428.84	2736.09
429.03	2754.81
429.22	2635.44
429.40	2621.40
429.59	2279.68
429.78	2120.53
429.97	2104.14
430.16	2031.58
430.34	2141.59
430.53	2155.63
430.72	2129.89
430.91	2284.36
431.10	2616.72
431.28	2974.82
431.47	3372.71
431.66	3438.25
431.85	3012.27
432.03	2813.32
432.22	2822.69
432.41	2904.60
432.60	3068.44
432.79	3358.67
432.97	3375.05
433.16	3227.60
433.35	2993.55
433.54	2771.19
433.72	2569.91
433.91	2775.88
434.10	2925.67
434.28	3063.76
434.47	3279.09
434.66	3272.07
434.85	3129.30
435.03	3258.03
435.22	3550.59
435.41	3850.18
435.59	3871.25
435.78	3812.73
435.97	3625.49
436.16	3534.21
436.34	3569.32
436.53	3627.83
436.72	3400.80
436.90	3192.49
437.09	3335.26
437.28	3211.22
437.46	3295.47
437.65	3281.43
437.84	3122.27
438.02	2876.52
438.21	2839.07
438.40	3007.59
438.58	3117.59
438.77	3218.24
438.96	3255.69
439.14	3349.31
439.33	3548.25
439.52	3676.98
439.70	3368.03
439.89	3323.56
440.08	3337.60
440.26	3297.81
440.45	3393.78
440.63	3623.15
440.82	3918.06
441.01	3721.45
441.19	3719.11
441.38	3733.15
441.57	3939.12
441.75	4025.72
441.94	3948.48
442.12	3915.72
442.31	4028.06
442.50	3847.84
442.68	3939.12
442.87	3794.01
443.05	3971.89
443.24	3995.29
443.43	4049.13
443.61	3971.89
443.80	4107.64
443.98	3705.07
444.17	3824.44
444.35	3981.25
444.54	4126.36
444.73	4065.51
444.91	3913.38
445.10	3880.61
445.28	3653.58
445.47	3599.74
445.65	3620.81
445.84	3721.45
446.02	3831.46
446.21	3805.71
446.39	3805.71
446.58	4009.34
446.77	4009.34
446.95	3941.46
447.14	4119.34
447.32	4182.54
447.51	4128.70
447.69	3988.27
447.88	3913.38
448.06	4007.00
448.25	4077.21
448.43	4126.36
448.62	4098.28
448.80	4074.87
448.99	3971.89
449.17	3939.12
449.36	4042.11
449.54	4109.98
449.73	4304.25
449.91	4222.33
450.10	4311.27
450.28	4571.07
450.46	4493.83
450.65	4465.74
450.83	4461.06
451.02	4269.14
451.20	4217.65
451.39	4252.75
451.57	4250.41
451.76	4208.28
451.94	4109.98
452.13	4238.71
452.31	4072.53
452.49	3896.99
452.68	3934.44
452.86	3695.71
453.05	3932.10
453.23	3999.98
453.42	4102.96
453.60	4231.69
453.78	4308.93
453.97	4119.34
454.15	4290.20
454.34	4037.42
454.52	4004.66
454.70	4016.36
454.89	4114.66
455.07	4142.75
455.26	4114.66
455.44	4264.46
455.62	4332.33
455.81	4290.20
455.99	4372.12
456.17	4402.55
456.36	4348.72
456.54	4484.47
456.73	4341.69
456.91	4465.74
457.09	4477.44
457.28	4477.44
457.46	4423.61
457.64	4503.19
457.83	4311.27
458.01	4217.65
458.19	4257.43
458.38	4294.88
458.56	4444.68
458.74	4428.29
458.93	4353.40
459.11	4332.33
459.29	4266.80
459.48	4397.87
459.66	4411.91
459.84	4376.80
460.03	4552.34
460.21	4367.44
460.39	4486.81
460.57	4498.51
460.76	4669.37
460.94	4624.90
461.12	4580.43
461.31	4638.94
461.49	4505.53
461.67	4571.07
461.85	4629.58
462.04	4631.92
462.22	4627.24
462.40	4681.07
462.59	4587.45
462.77	4652.98
462.95	4629.58
463.13	4454.04
463.32	4468.08
463.50	4440.00
463.68	4589.79
463.86	4372.12
464.05	4374.46
464.23	4395.53
464.41	4351.06
464.59	4395.53
464.78	4491.49
464.96	4430.63
465.14	4337.01
465.32	4463.40
465.50	4631.92
465.69	4734.90
465.87	4477.44
466.05	4416.59
466.23	4269.14
466.41	4138.07
466.60	4262.12
466.78	4145.09
466.96	4381.48
467.14	4507.87
467.32	4454.04
467.51	4608.51
467.69	4278.50
467.87	4421.27
468.05	4489.15
468.23	4489.15
468.41	4388.50
468.60	4348.72
468.78	4580.43
468.96	4329.99
469.14	4596.81
469.32	4491.49
469.50	4393.19
469.69	4367.44
469.87	4355.74
470.05	4318.29
470.23	4332.33
470.41	4231.69
470.59	4208.28
470.77	4461.06
470.95	4402.55
471.14	4615.54
471.32	4418.93
471.50	4695.11
471.68	4762.99
471.86	4622.56
472.04	4697.46
472.22	4835.55
472.40	4578.09
472.58	4624.90
472.77	4669.37
472.95	4620.22
473.13	4753.63
473.31	4711.50
473.49	4608.51
473.67	4791.08
473.85	4739.58
474.03	5025.13
474.21	4784.06
474.39	5006.41
474.57	5100.03
474.75	4842.57
474.93	4978.32
475.12	4873.00
475.30	4910.44
475.48	4655.33
475.66	4980.66
475.84	4877.68
476.02	4819.16
476.20	4720.86
476.38	4779.37
476.56	5074.28
476.74	4931.51
476.92	4990.02
477.10	5090.67
477.28	5224.08
477.46	5188.97
477.64	5416.00
477.82	5184.29
478.00	5383.23
478.18	5191.31
478.36	5303.65
478.54	5191.31
478.72	5453.45
478.90	5408.98
479.08	5458.13
479.26	5680.48
479.44	5628.99
479.62	5638.35
479.80	5554.09
479.98	5474.51
480.16	5565.79
480.34	5509.62
480.52	5645.37
480.70	5727.29
480.88	5593.88
481.06	5746.02
481.24	5909.85
481.41	5968.37
481.59	6106.46
481.77	5919.21
481.95	6015.18
482.13	5729.63
482.31	5905.17
482.49	5928.58
482.67	6092.41
482.85	6061.99
483.03	6186.04
483.21	6174.33
483.39	6181.35
483.57	6143.91
483.74	6061.99
483.92	5961.34
484.10	5893.47
484.28	6265.61
484.46	6373.28
484.64	6363.92
484.82	6267.95
485.00	6139.23
485.18	6061.99
485.35	5937.94
485.53	5495.58
485.71	4901.08
485.89	4952.57
486.07	4943.21
486.25	5518.98
486.43	5884.11
486.61	6045.60
486.78	6040.92
486.96	5977.73
487.14	6384.98
487.32	6366.26
487.50	6492.65
487.68	6686.91
487.85	6972.46
488.03	6951.39
488.21	6909.26
488.39	6644.78
488.57	6572.22
488.75	6424.77
488.92	6944.37
489.10	6972.46
489.28	7199.49
489.46	7571.63
489.64	7365.67
489.81	7456.95
489.99	7499.08
490.17	7349.28
490.35	7517.80
490.53	7227.57
490.70	7480.35
490.88	7178.42
491.06	7538.87
491.24	7417.16
491.41	7536.52
491.59	7122.25
491.77	6738.40
491.95	7042.67
492.13	6988.84
492.30	7286.09
492.48	7744.83
492.66	8006.97
492.84	7913.35
493.01	7887.61
493.19	7653.55
493.37	7618.44
493.54	7569.29
493.72	7456.95
493.90	7878.24
494.08	8114.64
494.25	8145.06
494.43	8257.41
494.61	8446.99
494.79	8503.17
494.96	8379.12
495.14	8168.47
495.32	7866.54
495.49	7688.66
495.67	8112.30
495.85	8138.04
496.02	8369.76
496.20	8369.76
496.38	8449.33
496.55	8243.37
496.73	8606.15
496.91	8229.32
497.09	8695.09
497.26	8571.04
497.44	8524.23
497.62	8514.87
497.79	8191.88
497.97	7936.76
498.14	7906.33
498.32	8201.24
498.50	8315.92
498.67	8428.27
498.85	8531.25
499.03	8627.21
499.20	8617.85
499.38	8713.81
499.56	8425.93
499.73	8615.51
499.91	8161.45
500.08	8255.07
500.26	8112.30
500.44	8187.19
500.61	8397.84
500.79	8030.38
500.97	8002.29
501.14	7929.74
501.32	8051.44
501.49	7953.14
501.67	8142.72
501.84	8149.75
502.02	8182.51
502.20	8416.57
502.37	8397.84
502.55	8475.08
502.72	8540.61
502.90	8622.53
503.07	8484.44
503.25	8486.78
503.43	8088.89
503.60	7705.04
503.78	7772.92
503.95	7730.79
504.13	8196.56
504.30	8596.79
504.48	8503.17
504.65	8521.89
504.83	8463.38
505.01	8872.97
505.18	8613.17
505.36	8755.94
505.53	8798.07
505.71	9041.49
505.88	9067.24
506.06	8835.52
506.23	8800.41
506.41	8578.06
506.58	8730.20
506.76	8564.02
506.93	8578.06
507.11	8535.93
507.28	8671.68
507.46	8620.19
507.63	8234.00
507.81	8002.29
507.98	8269.11
508.16	8561.68
508.33	8512.53
508.50	8877.65
508.68	9048.51
508.85	9259.16
509.03	9076.60
509.20	9011.06
509.38	8844.88
509.55	8760.63
509.73	8683.39
509.90	8994.68
510.08	8877.65
510.25	8966.59
510.42	9111.71
510.60	8805.10
510.77	8947.87
510.95	9011.06
511.12	9158.52
511.30	9371.50
511.47	9430.02
511.64	9448.74
511.82	9345.76
511.99	9046.17
512.17	8828.50
512.34	8891.70
512.51	8814.46
512.69	8816.80
512.86	9055.53
513.04	9050.85
513.21	9055.53
513.38	8966.59
513.56	8800.41
513.73	8606.15
513.90	8599.13
514.08	8629.56
514.25	8781.69
514.43	8872.97
514.60	8833.18
514.77	9149.15
514.95	8940.85
515.12	9100.00
515.29	9167.88
515.47	9151.49
515.64	9364.48
515.81	9207.67
515.99	9055.53
516.16	8512.53
516.33	8079.53
516.51	7637.17
516.68	7258.00
516.85	7440.56
517.03	7290.77
517.20	7873.56
517.37	8655.30
517.54	8922.12
517.72	8936.17
517.89	8266.77
518.06	7719.09
518.24	7581.00
518.41	8142.72
518.58	8559.34
518.75	8601.47
518.93	8720.84
519.10	8613.17
519.27	8884.67
519.45	8842.54
519.62	9078.94
519.79	9004.04
519.96	9238.09
520.14	9160.86
520.31	8746.58
520.48	8861.27
520.65	8868.29
520.83	9235.75
521.00	9312.99
521.17	8978.30
521.34	8929.14
521.52	9062.55
521.69	9336.40
521.86	9441.72
522.03	9476.83
522.20	9067.24
522.38	8762.97
522.55	8739.56
522.72	8819.14
522.89	8823.82
523.07	8887.01
523.24	8982.98
523.41	9029.79
523.58	9287.25
523.75	9411.29
523.92	9296.61
524.10	9392.57
524.27	9376.19
524.44	9446.40
524.61	9437.04
524.78	9385.55
524.96	9074.26
525.13	9151.49
525.30	9441.72
525.47	9460.45
525.64	9509.60
525.81	9441.72
525.98	8697.43
526.16	8652.96
526.33	8161.45
526.50	8013.99
526.67	7957.82
526.84	8219.96
527.01	8430.61
527.18	8643.60
527.36	8851.91
527.53	9036.81
527.70	9053.19
527.87	9210.01
528.04	9022.77
528.21	9064.89
528.38	9652.37
528.55	9694.50
528.72	9638.33
528.89	9748.33
529.07	9633.64
529.24	9525.98
529.41	9085.96
529.58	9053.19
529.75	9036.81
529.92	9188.94
530.09	9228.73
530.26	9530.66
530.43	9329.38
530.60	9640.67
530.77	9610.24
530.94	9710.88
531.11	9420.66
531.28	9523.64
531.46	9474.49
531.63	9474.49
531.80	9488.53
531.97	9245.12
532.14	9078.94
532.31	8636.58
532.48	8477.42
532.65	8479.76
532.82	8734.88
532.99	9114.05
533.16	9219.37
533.33	9441.72
533.50	9488.53
533.67	9081.28
533.84	8952.55
534.01	9013.40
534.18	9158.52
534.35	9322.35
534.52	9263.84
534.69	9284.91
534.86	9219.37
535.03	9298.95
535.20	9509.60
535.37	9841.95
535.54	9867.70
535.71	9654.71
535.88	9521.30
536.05	9172.56
536.22	9214.69
536.38	9179.58
536.55	8929.14
536.72	8830.84
536.89	8758.28
537.06	9174.90
537.23	9352.78
537.40	9212.35
537.57	9221.71
537.74	9420.66
537.91	9462.79
538.08	9404.27
538.25	9350.44
538.42	9462.79
538.59	9317.67
538.75	9254.48
538.92	9130.43
539.09	9142.13
539.26	9015.74
539.43	8847.22
539.60	8842.54
539.77	9123.41
539.94	8922.12
540.11	8484.44
540.28	8734.88
540.44	8475.08
540.61	8711.47
540.78	8681.05
540.95	8828.50
541.12	9083.62
541.29	9167.88
541.46	9551.73
541.62	9289.59
541.79	9170.22
541.96	9043.83
542.13	9245.12
542.30	9266.18
542.47	9238.09
542.63	9097.66
542.80	8945.53
542.97	9378.53
543.14	8833.18
543.31	8990.00
543.48	9247.46
543.64	9654.71
543.81	9743.65
543.98	9589.17
544.15	9528.32
544.32	9233.41
544.48	9057.87
544.65	9214.69
544.82	9341.08
544.99	9380.87
545.16	9390.23
545.32	9053.19
545.49	9678.12
545.66	10005.79
545.83	10253.89
546.00	9870.04
546.16	9334.06
546.33	9238.09
546.50	9221.71
546.67	9296.61
546.83	9327.03
547.00	9111.71
547.17	8952.55
547.34	8936.17
547.50	8856.59
547.67	8795.73
547.84	8659.98
548.00	8809.78
548.17	9231.07
548.34	9085.96
548.51	9118.73
548.67	9191.28
548.84	9053.19
549.01	9088.30
549.18	9097.66
549.34	8940.85
549.51	9029.79
549.68	9165.54
549.84	9125.75
550.01	8894.04
550.18	8779.35
550.34	8926.80
550.51	8868.29
550.68	9050.85
550.84	8854.25
551.01	8903.40
551.18	8835.52
551.34	8917.44
551.51	9245.12
551.68	9102.34
551.84	8982.98
552.01	9011.06
552.18	9055.53
552.34	8802.75
552.51	8667.00
552.68	8746.58
552.84	8711.47
553.01	8889.35
553.18	8791.05
553.34	8688.07
553.51	8978.30
553.67	8807.44
553.84	9004.04
554.01	8891.70
554.17	8872.97
554.34	8870.63
554.51	8947.87
554.67	8908.08
554.84	9097.66
555.00	8926.80
555.17	8823.82
555.33	8667.00
555.50	8669.34
555.67	8760.63
555.83	8601.47
556.00	8463.38
556.16	8608.49
556.33	8266.77
556.50	8538.27
556.66	8435.29
556.83	8393.16
556.99	8491.46
557.16	8489.12
557.32	8596.79
557.49	8491.46
557.65	8430.61
557.82	8510.19
557.98	8566.36
558.15	8491.46
558.32	8336.99
558.48	7922.71
558.65	8037.40
558.81	8093.57
558.98	8084.21
559.14	8126.34
559.31	8196.56
559.47	8524.23
559.64	8006.97
559.80	8067.83
559.97	8145.06
560.13	8203.58
560.30	8393.16
560.46	8554.66
560.63	8748.92
560.79	8753.60
560.96	8582.74
561.12	8374.44
561.29	8077.19
561.45	7948.46
561.61	8203.58
561.78	8409.54
561.94	8264.43
562.11	8142.72
562.27	8276.13
562.44	8177.83
562.60	8308.90
562.77	8486.78
562.93	8446.99
563.10	8376.78
563.26	8280.82
563.42	8215.28
563.59	8102.93
563.75	7964.84
563.92	8266.77
564.08	8156.77
564.24	8049.10
564.41	8138.04
564.57	8138.04
564.74	8088.89
564.90	8175.49
565.07	8163.79
565.23	7943.78
565.39	7885.26
565.56	7705.04
565.72	7758.88
565.88	7768.24
566.05	7843.14
566.21	7953.14
566.38	7784.62
566.54	8051.44
566.70	8198.90
566.87	8088.89
567.03	8088.89
567.19	8138.04
567.36	8079.53
567.52	7885.26
567.68	8058.46
567.85	7810.37
568.01	7681.64
568.17	7489.71
568.34	7482.69
568.50	7386.73
568.66	7496.74
568.83	7496.74
568.99	7522.48
569.15	7627.81
569.32	7627.81
569.48	7337.58
569.64	7283.75
569.81	7431.20
569.97	7433.54
570.13	7433.54
570.30	7386.73
570.46	7260.34
570.62	7218.21
570.78	7241.62
570.95	7080.12
571.11	7290.77
571.27	7480.35
571.43	7506.10
571.60	7466.31
571.76	7487.37
571.92	7515.46
572.09	7389.07
572.25	7548.23
572.41	7592.70
572.57	7503.76
572.74	7597.38
572.90	7342.26
573.06	7510.78
573.22	7403.11
573.38	7384.39
573.55	7473.33
573.71	7588.02
573.87	7597.38
574.03	7389.07
574.20	7276.73
574.36	7349.28
574.52	7384.39
574.68	7192.47
574.84	7286.09
575.01	7045.01
575.17	6984.16
575.33	7145.66
575.49	7459.29
575.65	7295.45
575.82	7129.27
575.98	7042.67
576.14	7260.34
576.30	7255.66
576.46	7492.05
576.62	7616.10
576.79	7494.40
576.95	7328.22
577.11	7281.41
577.27	7185.44
577.43	7253.32
577.59	7433.54
577.75	7082.46
577.92	7091.82
578.08	6874.15
578.24	7063.74
578.40	6981.82
578.56	7176.08
578.72	7461.63
578.88	7400.77
579.04	7318.86
579.21	7241.62
579.37	7246.30
579.53	7040.33
579.69	7091.82
579.85	7148.00
580.01	7386.73
580.17	7215.87
580.33	7192.47
580.49	7353.96
580.65	7293.11
580.82	7559.93
580.98	7377.37
581.14	7248.64
581.30	7253.32
581.46	7265.02
581.62	7335.24
581.78	7307.15
581.94	7440.56
582.10	7227.57
582.26	7194.81
582.42	7485.03
582.58	7365.67
582.74	7311.83
582.90	7400.77
583.06	7407.80
583.22	7424.18
583.38	7225.23
583.54	7056.72
583.70	7351.62
583.86	7503.76
584.02	7365.67
584.18	7253.32
584.34	7342.26
584.50	7234.60
584.66	7166.72
584.82	7180.76
584.98	7164.38
585.14	6970.12
585.30	7007.56
585.46	6974.80
585.62	6595.63
585.78	6803.94
585.94	6981.82
586.10	6782.87
586.26	7087.14
586.42	6942.03
586.58	6998.20
586.74	7000.54
586.90	7091.82
587.06	6892.88
587.22	6977.14
587.38	6799.26
587.54	6684.57
587.70	6600.31
587.86	6305.40
588.02	6179.01
588.18	6122.84
588.34	5802.19
588.49	5460.47
588.65	5048.54
588.81	5097.69
588.97	5055.56
589.13	5036.83
589.29	5111.73
589.45	5153.86
589.61	5041.51
589.77	5385.57
589.93	5614.95
590.08	5715.59
590.24	5900.49
590.40	5799.85
590.56	6019.86
590.72	5858.36
590.88	5996.45
591.04	5724.95
591.20	5898.15
591.35	5942.62
591.51	5776.44
591.67	5797.51
591.83	5792.83
591.99	5518.98
592.15	5544.73
592.31	5844.32
592.46	6059.65
592.62	5860.70
592.78	6038.58
592.94	6221.14
593.10	6141.57
593.26	6267.95
593.41	6204.76
593.57	6160.29
593.73	5856.02
593.89	5783.46
594.05	5542.39
594.20	5488.56
594.36	5420.68
594.52	5345.78
594.68	5331.74
594.84	5497.92
594.99	5863.04
595.15	5902.83
595.31	6008.16
595.47	5769.42
595.62	5839.64
595.78	6045.60
595.94	5996.45
596.10	6239.87
596.25	6005.81
596.41	5832.62
596.57	5722.61
596.73	5877.09
596.88	5942.62
597.04	6265.61
597.20	5996.45
597.36	5970.71
