SpectraSuite Data File
++++++++++++++++++++++++++++++++++++
Date: Fri Oct 04 11:42:14 GMT-05:00 2013
User: price-jones
Dark Spectrum Present: No
Reference Spectrum Present: No
Number of Sampled Component Spectra: 1
Spectrometers: USB2+H05261
Integration Time (usec): 100000 (USB2+H05261)
Spectra Averaged: 1 (USB2+H05261)
Boxcar Smoothing: 0 (USB2+H05261)
Correct for Electrical Dark: No (USB2+H05261)
Strobe/Lamp Enabled: No (USB2+H05261)
Correct for Detector Non-linearity: No (USB2+H05261)
Correct for Stray Light: No (USB2+H05261)
Number of Pixels in Processed Spectrum: 2048
>>>>>Begin Processed Spectral Data<<<<<
365.73	77.24
365.92	77.24
366.12	77.24
366.32	0.00
366.52	0.00
366.72	0.00
366.91	0.00
367.11	0.00
367.31	0.00
367.51	0.00
367.70	0.00
367.90	16.38
368.10	0.00
368.30	0.00
368.49	0.00
368.69	7.02
368.89	0.00
369.09	0.00
369.28	0.00
369.48	0.00
369.68	0.00
369.87	0.00
370.07	16.38
370.27	67.88
370.47	42.13
370.66	0.00
370.86	25.75
371.06	112.35
371.25	70.22
371.45	25.75
371.65	72.56
371.84	105.32
372.04	86.60
372.24	65.54
372.44	77.24
372.63	70.22
372.83	112.35
373.03	173.20
373.22	124.05
373.42	91.28
373.62	42.13
373.81	35.11
374.01	91.28
374.21	105.32
374.40	191.92
374.60	102.98
374.79	77.24
374.99	91.28
375.19	140.43
375.38	112.35
375.58	84.26
375.78	131.07
375.97	91.28
376.17	100.64
376.37	131.07
376.56	51.49
376.76	42.13
376.95	65.54
377.15	138.09
377.35	79.58
377.54	124.05
377.74	58.51
377.93	95.96
378.13	117.03
378.33	100.64
378.52	51.49
378.72	42.13
378.91	159.16
379.11	117.03
379.31	49.15
379.50	14.04
379.70	119.37
379.89	63.19
380.09	112.35
380.28	107.66
380.48	77.24
380.68	138.09
380.87	74.90
381.07	74.90
381.26	65.54
381.46	114.69
381.65	70.22
381.85	93.62
382.04	110.01
382.24	138.09
382.43	107.66
382.63	58.51
382.83	63.19
383.02	117.03
383.22	126.39
383.41	84.26
383.61	60.85
383.80	126.39
384.00	147.45
384.19	0.00
384.39	84.26
384.58	107.66
384.78	135.75
384.97	105.32
385.17	58.51
385.36	74.90
385.56	161.50
385.75	117.03
385.95	117.03
386.14	117.03
386.34	163.84
386.53	124.05
386.72	77.24
386.92	180.22
387.11	131.07
387.31	32.77
387.50	30.43
387.70	67.88
387.89	70.22
388.09	58.51
388.28	93.62
388.48	65.54
388.67	105.32
388.86	39.79
389.06	124.05
389.25	93.62
389.45	131.07
389.64	100.64
389.84	121.71
390.03	114.69
390.22	81.92
390.42	98.30
390.61	102.98
390.81	102.98
391.00	70.22
391.19	163.84
391.39	119.37
391.58	154.48
391.78	100.64
391.97	117.03
392.16	102.98
392.36	117.03
392.55	156.82
392.75	88.94
392.94	121.71
393.13	131.07
393.33	140.43
393.52	100.64
393.71	159.16
393.91	93.62
394.10	95.96
394.29	37.45
394.49	163.84
394.68	154.48
394.88	79.58
395.07	142.77
395.26	152.13
395.46	121.71
395.65	100.64
395.84	138.09
396.04	196.60
396.23	102.98
396.42	114.69
396.62	133.41
396.81	147.45
397.00	110.01
397.19	102.98
397.39	133.41
397.58	124.05
397.77	100.64
397.97	100.64
398.16	201.29
398.35	121.71
398.55	114.69
398.74	102.98
398.93	133.41
399.12	147.45
399.32	131.07
399.51	16.38
399.70	88.94
399.90	110.01
400.09	161.50
400.28	93.62
400.47	147.45
400.67	147.45
400.86	124.05
401.05	100.64
401.24	196.60
401.44	138.09
401.63	110.01
401.82	131.07
402.01	84.26
402.21	72.56
402.40	42.13
402.59	121.71
402.78	53.83
402.97	124.05
403.17	147.45
403.36	102.98
403.55	124.05
403.74	119.37
403.93	152.13
404.13	222.35
404.32	269.16
404.51	287.89
404.70	238.73
404.89	114.69
405.09	152.13
405.28	184.90
405.47	142.77
405.66	177.88
405.85	166.18
406.05	112.35
406.24	81.92
406.43	131.07
406.62	140.43
406.81	138.09
407.00	166.18
407.20	140.43
407.39	173.20
407.58	110.01
407.77	196.60
407.96	182.56
408.15	147.45
408.34	100.64
408.54	147.45
408.73	100.64
408.92	168.52
409.11	98.30
409.30	163.84
409.49	98.30
409.68	102.98
409.87	163.84
410.07	152.13
410.26	187.24
410.45	72.56
410.64	131.07
410.83	147.45
411.02	114.69
411.21	194.26
411.40	142.77
411.59	154.48
411.78	88.94
411.98	135.75
412.17	107.66
412.36	184.90
412.55	142.77
412.74	145.11
412.93	182.56
413.12	135.75
413.31	191.92
413.50	93.62
413.69	140.43
413.88	196.60
414.07	105.32
414.26	196.60
414.45	159.16
414.64	177.88
414.83	124.05
415.02	138.09
415.22	205.97
415.41	187.24
415.60	119.37
415.79	107.66
415.98	81.92
416.17	142.77
416.36	117.03
416.55	152.13
416.74	147.45
416.93	210.65
417.12	152.13
417.31	44.47
417.50	86.60
417.69	259.80
417.88	149.79
418.07	154.48
418.26	173.20
418.45	140.43
418.64	112.35
418.83	117.03
419.02	95.96
419.21	184.90
419.39	159.16
419.58	196.60
419.77	140.43
419.96	184.90
420.15	163.84
420.34	65.54
420.53	110.01
420.72	105.32
420.91	180.22
421.10	189.58
421.29	210.65
421.48	72.56
421.67	156.82
421.86	142.77
422.05	161.50
422.24	138.09
422.43	126.39
422.61	84.26
422.80	112.35
422.99	119.37
423.18	110.01
423.37	152.13
423.56	177.88
423.75	208.31
423.94	182.56
424.13	182.56
424.32	142.77
424.50	81.92
424.69	135.75
424.88	198.95
425.07	100.64
425.26	105.32
425.45	121.71
425.64	187.24
425.83	86.60
426.01	156.82
426.20	163.84
426.39	124.05
426.58	145.11
426.77	119.37
426.96	159.16
427.15	154.48
427.33	154.48
427.52	166.18
427.71	107.66
427.90	205.97
428.09	105.32
428.28	201.29
428.46	152.13
428.65	126.39
428.84	138.09
429.03	187.24
429.22	215.33
429.40	86.60
429.59	161.50
429.78	215.33
429.97	84.26
430.16	124.05
430.34	140.43
430.53	135.75
430.72	117.03
430.91	168.52
431.10	170.86
431.28	142.77
431.47	166.18
431.66	145.11
431.85	119.37
432.03	163.84
432.22	245.76
432.41	124.05
432.60	220.01
432.79	159.16
432.97	215.33
433.16	138.09
433.35	107.66
433.54	107.66
433.72	159.16
433.91	231.71
434.10	191.92
434.28	210.65
434.47	201.29
434.66	196.60
434.85	154.48
435.03	322.99
435.22	767.70
435.41	1282.61
435.59	1476.88
435.78	1029.84
435.97	545.34
436.16	407.25
436.34	210.65
436.53	166.18
436.72	187.24
436.90	180.22
437.09	210.65
437.28	161.50
437.46	161.50
437.65	170.86
437.84	175.54
438.02	168.52
438.21	133.41
438.40	138.09
438.58	88.94
438.77	135.75
438.96	138.09
439.14	156.82
439.33	182.56
439.52	166.18
439.70	117.03
439.89	212.99
440.08	238.73
440.26	166.18
440.45	243.42
440.63	152.13
440.82	140.43
441.01	152.13
441.19	121.71
441.38	177.88
441.57	159.16
441.75	224.69
441.94	152.13
442.12	175.54
442.31	65.54
442.50	102.98
442.68	117.03
442.87	152.13
443.05	182.56
443.24	119.37
443.43	124.05
443.61	173.20
443.80	131.07
443.98	124.05
444.17	175.54
444.35	212.99
444.54	208.31
444.73	210.65
444.91	196.60
445.10	173.20
445.28	175.54
445.47	170.86
445.65	135.75
445.84	177.88
446.02	217.67
446.21	131.07
446.39	203.63
446.58	138.09
446.77	114.69
446.95	119.37
447.14	173.20
447.32	168.52
447.51	121.71
447.69	119.37
447.88	187.24
448.06	177.88
448.25	269.16
448.43	135.75
448.62	170.86
448.80	177.88
448.99	159.16
449.17	140.43
449.36	201.29
449.54	210.65
449.73	191.92
449.91	100.64
450.10	166.18
450.28	231.71
450.46	224.69
450.65	159.16
450.83	234.05
451.02	117.03
451.20	177.88
451.39	166.18
451.57	189.58
451.76	182.56
451.94	210.65
452.13	220.01
452.31	201.29
452.49	107.66
452.68	98.30
452.86	248.10
453.05	180.22
453.23	119.37
453.42	184.90
453.60	201.29
453.78	245.76
453.97	187.24
454.15	152.13
454.34	163.84
454.52	161.50
454.70	194.26
454.89	280.86
455.07	156.82
455.26	205.97
455.44	196.60
455.62	241.08
455.81	161.50
455.99	180.22
456.17	147.45
456.36	131.07
456.54	147.45
456.73	259.80
456.91	147.45
457.09	201.29
457.28	198.95
457.46	248.10
457.64	308.95
457.83	175.54
458.01	161.50
458.19	229.37
458.38	166.18
458.56	196.60
458.74	163.84
458.93	142.77
459.11	156.82
459.29	168.52
459.48	241.08
459.66	224.69
459.84	142.77
460.03	252.78
460.21	231.71
460.39	191.92
460.57	262.14
460.76	236.39
460.94	210.65
461.12	306.61
461.31	203.63
461.49	175.54
461.67	177.88
461.85	238.73
462.04	184.90
462.22	390.87
462.40	177.88
462.59	210.65
462.77	180.22
462.95	217.67
463.13	159.16
463.32	191.92
463.50	182.56
463.68	196.60
463.86	238.73
464.05	170.86
464.23	234.05
464.41	210.65
464.59	145.11
464.78	198.95
464.96	91.28
465.14	173.20
465.32	184.90
465.50	177.88
465.69	196.60
465.87	107.66
466.05	243.42
466.23	156.82
466.41	180.22
466.60	128.73
466.78	145.11
466.96	117.03
467.14	166.18
467.32	184.90
467.51	227.03
467.69	236.39
467.87	224.69
468.05	196.60
468.23	210.65
468.41	215.33
468.60	187.24
468.78	173.20
468.96	173.20
469.14	208.31
469.32	156.82
469.50	159.16
469.69	121.71
469.87	243.42
470.05	189.58
470.23	149.79
470.41	117.03
470.59	196.60
470.77	222.35
470.95	187.24
471.14	133.41
471.32	217.67
471.50	182.56
471.68	222.35
471.86	166.18
472.04	180.22
472.22	110.01
472.40	152.13
472.58	236.39
472.77	114.69
472.95	138.09
473.13	194.26
473.31	198.95
473.49	163.84
473.67	166.18
473.85	149.79
474.03	149.79
474.21	217.67
474.39	245.76
474.57	212.99
474.75	187.24
474.93	198.95
475.12	184.90
475.30	238.73
475.48	161.50
475.66	182.56
475.84	243.42
476.02	177.88
476.20	201.29
476.38	210.65
476.56	215.33
476.74	224.69
476.92	208.31
477.10	184.90
477.28	236.39
477.46	231.71
477.64	187.24
477.82	238.73
478.00	161.50
478.18	177.88
478.36	170.86
478.54	198.95
478.72	189.58
478.90	224.69
479.08	212.99
479.26	161.50
479.44	220.01
479.62	180.22
479.80	182.56
479.98	187.24
480.16	234.05
480.34	168.52
480.52	196.60
480.70	196.60
480.88	201.29
481.06	177.88
481.24	255.12
481.41	229.37
481.59	194.26
481.77	170.86
481.95	208.31
482.13	313.63
482.31	241.08
482.49	203.63
482.67	276.18
482.85	285.55
483.03	180.22
483.21	205.97
483.39	229.37
483.57	250.44
483.74	299.59
483.92	250.44
484.10	262.14
484.28	297.25
484.46	315.97
484.64	259.80
484.82	257.46
485.00	262.14
485.18	344.06
485.35	278.52
485.53	341.72
485.71	358.10
485.89	313.63
486.07	255.12
486.25	428.32
486.43	395.55
486.61	400.23
486.78	220.01
486.96	273.84
487.14	351.08
487.32	379.17
487.50	390.87
487.68	383.85
487.85	341.72
488.03	325.33
488.21	344.06
488.39	327.68
488.57	348.74
488.75	327.68
488.92	510.24
489.10	327.68
489.28	294.91
489.46	318.31
489.64	315.97
489.81	367.46
489.99	248.10
490.17	339.38
490.35	344.06
490.53	313.63
490.70	337.04
490.88	355.76
491.06	292.57
491.24	360.44
491.41	402.57
491.59	402.57
491.77	360.44
491.95	304.27
492.13	383.85
492.30	355.76
492.48	238.73
492.66	271.50
492.84	280.86
493.01	337.04
493.19	229.37
493.37	386.19
493.54	346.40
493.72	304.27
493.90	259.80
494.08	367.46
494.25	313.63
494.43	315.97
494.61	301.93
494.79	280.86
494.96	238.73
495.14	330.02
495.32	257.46
495.49	330.02
495.67	297.25
495.85	315.97
496.02	250.44
496.20	351.08
496.38	266.82
496.55	255.12
496.73	383.85
496.91	259.80
497.09	339.38
497.26	269.16
497.44	306.61
497.62	290.23
497.79	266.82
497.97	330.02
498.14	306.61
498.32	304.27
498.50	290.23
498.67	145.11
498.85	334.70
499.03	234.05
499.20	252.78
499.38	266.82
499.56	229.37
499.73	278.52
499.91	278.52
500.08	280.86
500.26	262.14
500.44	210.65
500.61	264.48
500.79	222.35
500.97	318.31
501.14	320.65
501.32	301.93
501.49	245.76
501.67	210.65
501.84	276.18
502.02	222.35
502.20	266.82
502.37	217.67
502.55	257.46
502.72	269.16
502.90	304.27
503.07	229.37
503.25	262.14
503.43	297.25
503.60	231.71
503.78	278.52
503.95	264.48
504.13	135.75
504.30	257.46
504.48	210.65
504.65	229.37
504.83	203.63
505.01	243.42
505.18	290.23
505.36	262.14
505.53	266.82
505.71	243.42
505.88	273.84
506.06	315.97
506.23	201.29
506.41	224.69
506.58	327.68
506.76	318.31
506.93	238.73
507.11	308.95
507.28	189.58
507.46	276.18
507.63	215.33
507.81	297.25
507.98	250.44
508.16	269.16
508.33	320.65
508.50	292.57
508.68	229.37
508.85	306.61
509.03	234.05
509.20	255.12
509.38	191.92
509.55	287.89
509.73	238.73
509.90	266.82
510.08	220.01
510.25	287.89
510.42	287.89
510.60	245.76
510.77	264.48
510.95	266.82
511.12	201.29
511.30	245.76
511.47	334.70
511.64	322.99
511.82	236.39
511.99	330.02
512.17	220.01
512.34	243.42
512.51	156.82
512.69	255.12
512.86	306.61
513.04	229.37
513.21	198.95
513.38	166.18
513.56	243.42
513.73	292.57
513.90	187.24
514.08	266.82
514.25	269.16
514.43	250.44
514.60	222.35
514.77	191.92
514.95	327.68
515.12	236.39
515.29	252.78
515.47	287.89
515.64	273.84
515.81	301.93
515.99	306.61
516.16	276.18
516.33	262.14
516.51	266.82
516.68	168.52
516.85	278.52
517.03	250.44
517.20	220.01
517.37	161.50
517.54	217.67
517.72	306.61
517.89	236.39
518.06	215.33
518.24	311.29
518.41	264.48
518.58	311.29
518.75	220.01
518.93	191.92
519.10	252.78
519.27	271.50
519.45	196.60
519.62	341.72
519.79	304.27
519.96	264.48
520.14	280.86
520.31	234.05
520.48	287.89
520.65	243.42
520.83	301.93
521.00	266.82
521.17	229.37
521.34	248.10
521.52	294.91
521.69	234.05
521.86	259.80
522.03	262.14
522.20	318.31
522.38	271.50
522.55	276.18
522.72	184.90
522.89	301.93
523.07	290.23
523.24	243.42
523.41	227.03
523.58	273.84
523.75	313.63
523.92	229.37
524.10	283.20
524.27	330.02
524.44	210.65
524.61	220.01
524.78	243.42
524.96	257.46
525.13	252.78
525.30	257.46
525.47	290.23
525.64	220.01
525.81	315.97
525.98	330.02
526.16	184.90
526.33	250.44
526.50	234.05
526.67	203.63
526.84	175.54
527.01	205.97
527.18	306.61
527.36	301.93
527.53	301.93
527.70	283.20
527.87	313.63
528.04	271.50
528.21	203.63
528.38	301.93
528.55	287.89
528.72	292.57
528.89	273.84
529.07	259.80
529.24	292.57
529.41	330.02
529.58	344.06
529.75	257.46
529.92	266.82
530.09	231.71
530.26	266.82
530.43	322.99
530.60	208.31
530.77	273.84
530.94	322.99
531.11	301.93
531.28	269.16
531.46	269.16
531.63	269.16
531.80	257.46
531.97	203.63
532.14	299.59
532.31	257.46
532.48	297.25
532.65	280.86
532.82	346.40
532.99	322.99
533.16	348.74
533.33	315.97
533.50	360.44
533.67	287.89
533.84	252.78
534.01	334.70
534.18	320.65
534.35	353.42
534.52	278.52
534.69	360.44
534.86	301.93
535.03	381.51
535.20	351.08
535.37	327.68
535.54	259.80
535.71	337.04
535.88	285.55
536.05	262.14
536.22	351.08
536.38	276.18
536.55	383.85
536.72	320.65
536.89	411.93
537.06	348.74
537.23	416.62
537.40	383.85
537.57	390.87
537.74	425.98
537.91	458.74
538.08	402.57
538.25	433.00
538.42	433.00
538.59	416.62
538.75	475.13
538.92	440.02
539.09	514.92
539.26	580.45
539.43	575.77
539.60	667.05
539.77	664.71
539.94	664.71
540.11	772.38
540.28	828.55
540.44	821.53
540.61	880.04
540.78	999.41
540.95	1151.54
541.12	1380.92
541.29	1416.02
541.46	1558.80
541.62	1455.81
541.79	1486.24
541.96	1401.98
542.13	1425.39
542.30	1371.55
542.47	1324.74
542.63	1284.95
542.80	1259.21
542.97	1203.04
543.14	1123.46
543.31	1306.02
543.48	1249.85
543.64	1210.06
543.81	1212.40
543.98	1240.48
544.15	1174.95
544.32	1291.98
544.48	1231.12
544.65	1170.27
544.82	1198.35
544.99	1128.14
545.16	1212.40
545.32	1291.98
545.49	2019.88
545.66	2923.33
545.83	3662.94
546.00	3262.71
546.16	2352.24
546.33	1727.32
546.50	1242.82
546.67	1123.46
546.83	1057.92
547.00	933.87
547.17	870.68
547.34	875.36
547.50	905.79
547.67	800.46
547.84	725.57
548.00	844.93
548.17	767.70
548.34	734.93
548.51	753.65
548.67	763.01
548.84	772.38
549.01	692.80
549.18	786.42
549.34	676.41
549.51	706.84
549.68	662.37
549.84	650.67
550.01	571.09
550.18	683.44
550.34	648.33
550.51	580.45
550.68	547.69
550.84	559.39
551.01	500.87
551.18	519.60
551.34	456.40
551.51	500.87
551.68	430.66
551.84	517.26
552.01	489.17
552.18	458.74
552.34	421.30
552.51	461.09
552.68	442.36
552.84	465.77
553.01	477.47
553.18	301.93
553.34	409.59
553.51	374.49
553.67	411.93
553.84	477.47
554.01	400.23
554.17	351.08
554.34	351.08
554.51	351.08
554.67	381.51
554.84	388.53
555.00	346.40
555.17	304.27
555.33	360.44
555.50	290.23
555.67	285.55
555.83	325.33
556.00	262.14
556.16	547.69
556.33	248.10
556.50	299.59
556.66	301.93
556.83	241.08
556.99	322.99
557.16	255.12
557.32	276.18
557.49	217.67
557.65	220.01
557.82	212.99
557.98	395.55
558.15	248.10
558.32	266.82
558.48	262.14
558.65	262.14
558.81	318.31
558.98	234.05
559.14	308.95
559.31	259.80
559.47	271.50
559.64	311.29
559.80	327.68
559.97	259.80
560.13	311.29
560.30	280.86
560.46	294.91
560.63	292.57
560.79	353.42
560.96	217.67
561.12	248.10
561.29	304.27
561.45	297.25
561.61	266.82
561.78	362.78
561.94	271.50
562.11	292.57
562.27	271.50
562.44	252.78
562.60	234.05
562.77	241.08
562.93	346.40
563.10	231.71
563.26	262.14
563.42	271.50
563.59	294.91
563.75	264.48
563.92	220.01
564.08	297.25
564.24	337.04
564.41	320.65
564.57	196.60
564.74	220.01
564.90	308.95
565.07	287.89
565.23	411.93
565.39	283.20
565.56	320.65
565.72	191.92
565.88	196.60
566.05	327.68
566.21	257.46
566.38	180.22
566.54	285.55
566.70	308.95
566.87	241.08
567.03	198.95
567.19	306.61
567.36	285.55
567.52	332.36
567.68	142.77
567.85	220.01
568.01	217.67
568.17	290.23
568.34	252.78
568.50	224.69
568.66	196.60
568.83	299.59
568.99	212.99
569.15	248.10
569.32	306.61
569.48	327.68
569.64	208.31
569.81	203.63
569.97	276.18
570.13	238.73
570.30	245.76
570.46	252.78
570.62	227.03
570.78	210.65
570.95	262.14
571.11	299.59
571.27	348.74
571.43	238.73
571.60	264.48
571.76	180.22
571.92	243.42
572.09	217.67
572.25	285.55
572.41	297.25
572.57	198.95
572.74	187.24
572.90	243.42
573.06	299.59
573.22	315.97
573.38	285.55
573.55	210.65
573.71	320.65
573.87	236.39
574.03	257.46
574.20	278.52
574.36	245.76
574.52	194.26
574.68	259.80
574.84	229.37
575.01	276.18
575.17	241.08
575.33	215.33
575.49	231.71
575.65	301.93
575.82	351.08
575.98	271.50
576.14	224.69
576.30	407.25
576.46	636.63
576.62	758.33
576.79	821.53
576.95	767.70
577.11	482.15
577.27	355.76
577.43	414.27
577.59	374.49
577.75	315.97
577.92	337.04
578.08	262.14
578.24	283.20
578.40	407.25
578.56	622.58
578.72	816.85
578.88	760.67
579.04	727.91
579.21	535.98
579.37	463.43
579.53	360.44
579.69	367.46
579.85	519.60
580.01	486.83
580.17	496.19
580.33	472.79
580.49	341.72
580.65	411.93
580.82	374.49
580.98	365.12
581.14	337.04
581.30	510.24
581.46	449.38
581.62	409.59
581.78	379.17
581.94	430.66
582.10	458.74
582.26	458.74
582.42	482.15
582.58	440.02
582.74	587.47
582.90	376.83
583.06	498.53
583.22	491.51
583.38	507.90
583.54	421.30
583.70	489.17
583.86	444.70
584.02	500.87
584.18	524.28
584.34	425.98
584.50	383.85
584.66	486.83
584.82	411.93
584.98	482.15
585.14	360.44
585.30	507.90
585.46	369.80
585.62	386.19
585.78	318.31
585.94	486.83
586.10	411.93
586.26	533.64
586.42	528.96
586.58	507.90
586.74	568.75
586.90	711.52
587.06	695.14
587.22	737.27
587.38	596.84
587.54	575.77
587.70	517.26
587.86	451.72
588.02	472.79
588.18	430.66
588.34	402.57
588.49	292.57
588.65	374.49
588.81	325.33
588.97	360.44
589.13	397.89
589.29	297.25
589.45	402.57
589.61	334.70
589.77	337.04
589.93	423.64
590.08	325.33
590.24	365.12
590.40	379.17
590.56	276.18
590.72	402.57
590.88	330.02
591.04	374.49
591.20	362.78
591.35	454.06
591.51	386.19
591.67	418.96
591.83	379.17
591.99	379.17
592.15	477.47
592.31	433.00
592.46	493.85
592.62	540.66
592.78	496.19
592.94	566.41
593.10	540.66
593.26	550.03
593.41	491.51
593.57	533.64
593.73	430.66
593.89	489.17
594.05	327.68
594.20	341.72
594.36	367.46
594.52	325.33
594.68	355.76
594.84	388.53
594.99	407.25
595.15	372.15
595.31	353.42
595.47	390.87
595.62	273.84
595.78	330.02
595.94	283.20
596.10	369.80
596.25	348.74
596.41	299.59
596.57	297.25
596.73	292.57
596.88	264.48
597.04	313.63
597.20	365.12
597.36	346.40
597.51	276.18
597.67	280.86
597.83	311.29
597.99	318.31
598.14	337.04
598.30	421.30
598.46	383.85
598.61	397.89
598.77	348.74
598.93	395.55
599.09	409.59
599.24	479.81
599.40	472.79
599.56	369.80
599.71	535.98
599.87	369.80
600.03	325.33
600.18	372.15
600.34	311.29
600.50	358.10
600.65	297.25
600.81	306.61
600.97	236.39
601.12	301.93
601.28	365.12
601.44	397.89
601.59	262.14
601.75	334.70
601.91	248.10
602.06	264.48
602.22	348.74
602.37	311.29
602.53	292.57
602.69	383.85
602.84	229.37
603.00	327.68
603.16	355.76
603.31	308.95
603.47	299.59
603.62	299.59
603.78	264.48
603.94	234.05
604.09	301.93
604.25	231.71
604.40	252.78
604.56	365.12
604.71	294.91
604.87	379.17
605.03	341.72
605.18	301.93
605.34	304.27
605.49	325.33
605.65	299.59
605.80	313.63
605.96	273.84
606.12	252.78
606.27	402.57
606.43	388.53
606.58	337.04
606.74	330.02
606.89	409.59
607.05	411.93
607.20	301.93
607.36	367.46
607.51	414.27
607.67	339.38
607.82	395.55
607.98	470.45
608.13	465.77
608.29	386.19
608.44	470.45
608.60	425.98
608.75	521.94
608.91	671.73
609.06	559.39
609.22	613.22
609.37	734.93
609.53	634.29
609.68	774.72
609.84	868.34
609.99	971.32
610.15	1025.15
610.30	1247.51
610.46	1631.35
610.61	2083.08
610.76	2537.14
610.92	2965.46
611.07	3358.67
