SpectraSuite Data File
++++++++++++++++++++++++++++++++++++
Date: Fri Oct 04 11:41:58 GMT-05:00 2013
User: price-jones
Dark Spectrum Present: No
Reference Spectrum Present: No
Number of Sampled Component Spectra: 1
Spectrometers: USB2+H05261
Integration Time (usec): 100000 (USB2+H05261)
Spectra Averaged: 1 (USB2+H05261)
Boxcar Smoothing: 0 (USB2+H05261)
Correct for Electrical Dark: No (USB2+H05261)
Strobe/Lamp Enabled: No (USB2+H05261)
Correct for Detector Non-linearity: No (USB2+H05261)
Correct for Stray Light: No (USB2+H05261)
Number of Pixels in Processed Spectrum: 2048
>>>>>Begin Processed Spectral Data<<<<<
365.73	60.85
365.92	60.85
366.12	60.85
366.32	0.00
366.52	0.00
366.72	11.70
366.91	0.00
367.11	0.00
367.31	0.00
367.51	0.00
367.70	0.00
367.90	0.00
368.10	0.00
368.30	0.00
368.49	0.00
368.69	0.00
368.89	0.00
369.09	0.00
369.28	0.00
369.48	0.00
369.68	0.00
369.87	25.75
370.07	21.06
370.27	0.00
370.47	0.00
370.66	4.68
370.86	79.58
371.06	93.62
371.25	142.77
371.45	100.64
371.65	124.05
371.84	98.30
372.04	0.00
372.24	149.79
372.44	102.98
372.63	88.94
372.83	156.82
373.03	84.26
373.22	30.43
373.42	149.79
373.62	168.52
373.81	126.39
374.01	163.84
374.21	212.99
374.40	128.73
374.60	128.73
374.79	180.22
374.99	117.03
375.19	112.35
375.38	184.90
375.58	119.37
375.78	114.69
375.97	140.43
376.17	205.97
376.37	145.11
376.56	105.32
376.76	124.05
376.95	163.84
377.15	91.28
377.35	152.13
377.54	159.16
377.74	79.58
377.93	166.18
378.13	74.90
378.33	210.65
378.52	159.16
378.72	159.16
378.91	152.13
379.11	121.71
379.31	98.30
379.50	145.11
379.70	149.79
379.89	124.05
380.09	133.41
380.28	140.43
380.48	184.90
380.68	126.39
380.87	128.73
381.07	124.05
381.26	95.96
381.46	152.13
381.65	154.48
381.85	114.69
382.04	72.56
382.24	154.48
382.43	128.73
382.63	53.83
382.83	112.35
383.02	147.45
383.22	117.03
383.41	170.86
383.61	84.26
383.80	107.66
384.00	140.43
384.19	138.09
384.39	44.47
384.58	163.84
384.78	140.43
384.97	70.22
385.17	152.13
385.36	72.56
385.56	102.98
385.75	126.39
385.95	126.39
386.14	191.92
386.34	128.73
386.53	102.98
386.72	138.09
386.92	140.43
387.11	102.98
387.31	102.98
387.50	60.85
387.70	95.96
387.89	121.71
388.09	51.49
388.28	152.13
388.48	161.50
388.67	168.52
388.86	154.48
389.06	70.22
389.25	110.01
389.45	70.22
389.64	67.88
389.84	133.41
390.03	135.75
390.22	119.37
390.42	138.09
390.61	102.98
390.81	152.13
391.00	126.39
391.19	107.66
391.39	124.05
391.58	189.58
391.78	79.58
391.97	72.56
392.16	107.66
392.36	135.75
392.55	166.18
392.75	49.15
392.94	126.39
393.13	102.98
393.33	35.11
393.52	102.98
393.71	161.50
393.91	117.03
394.10	156.82
394.29	84.26
394.49	147.45
394.68	128.73
394.88	154.48
395.07	107.66
395.26	84.26
395.46	147.45
395.65	152.13
395.84	131.07
396.04	147.45
396.23	93.62
396.42	119.37
396.62	124.05
396.81	173.20
397.00	184.90
397.19	124.05
397.39	77.24
397.58	135.75
397.77	205.97
397.97	182.56
398.16	175.54
398.35	229.37
398.55	117.03
398.74	147.45
398.93	156.82
399.12	126.39
399.32	124.05
399.51	56.17
399.70	180.22
399.90	135.75
400.09	191.92
400.28	128.73
400.47	152.13
400.67	93.62
400.86	180.22
401.05	163.84
401.24	191.92
401.44	212.99
401.63	159.16
401.82	182.56
402.01	191.92
402.21	189.58
402.40	205.97
402.59	224.69
402.78	194.26
402.97	217.67
403.17	205.97
403.36	273.84
403.55	290.23
403.74	713.86
403.93	2033.93
404.13	5238.12
404.32	7681.64
404.51	6722.02
404.70	4028.06
404.89	1603.27
405.09	540.66
405.28	273.84
405.47	196.60
405.66	187.24
405.85	194.26
406.05	215.33
406.24	147.45
406.43	238.73
406.62	264.48
406.81	325.33
407.00	308.95
407.20	697.48
407.39	1004.09
407.58	994.73
407.77	781.74
407.96	456.40
408.15	278.52
408.34	177.88
408.54	238.73
408.73	149.79
408.92	152.13
409.11	236.39
409.30	168.52
409.49	142.77
409.68	138.09
409.87	259.80
410.07	163.84
410.26	234.05
410.45	238.73
410.64	208.31
410.83	248.10
411.02	212.99
411.21	189.58
411.40	222.35
411.59	224.69
411.78	168.52
411.98	180.22
412.17	196.60
412.36	203.63
412.55	224.69
412.74	224.69
412.93	273.84
413.12	180.22
413.31	245.76
413.50	154.48
413.69	252.78
413.88	301.93
414.07	255.12
414.26	259.80
414.45	189.58
414.64	241.08
414.83	259.80
415.02	227.03
415.22	231.71
415.41	259.80
415.60	257.46
415.79	224.69
415.98	248.10
416.17	262.14
416.36	264.48
416.55	212.99
416.74	257.46
416.93	304.27
417.12	262.14
417.31	238.73
417.50	273.84
417.69	229.37
417.88	220.01
418.07	236.39
418.26	287.89
418.45	273.84
418.64	217.67
418.83	231.71
419.02	308.95
419.21	266.82
419.39	276.18
419.58	313.63
419.77	269.16
419.96	224.69
420.15	341.72
420.34	205.97
420.53	332.36
420.72	318.31
420.91	234.05
421.10	245.76
421.29	355.76
421.48	332.36
421.67	292.57
421.86	308.95
422.05	245.76
422.24	367.46
422.43	330.02
422.61	301.93
422.80	262.14
422.99	292.57
423.18	355.76
423.37	379.17
423.56	292.57
423.75	358.10
423.94	353.42
424.13	276.18
424.32	224.69
424.50	351.08
424.69	304.27
424.88	365.12
425.07	348.74
425.26	322.99
425.45	311.29
425.64	315.97
425.83	388.53
426.01	299.59
426.20	330.02
426.39	355.76
426.58	337.04
426.77	315.97
426.96	266.82
427.15	367.46
427.33	227.03
427.52	351.08
427.71	388.53
427.90	400.23
428.09	369.80
428.28	386.19
428.46	351.08
428.65	351.08
428.84	383.85
429.03	411.93
429.22	252.78
429.40	362.78
429.59	301.93
429.78	407.25
429.97	358.10
430.16	322.99
430.34	238.73
430.53	390.87
430.72	372.15
430.91	397.89
431.10	428.32
431.28	348.74
431.47	414.27
431.66	374.49
431.85	395.55
432.03	461.09
432.22	475.13
432.41	425.98
432.60	493.85
432.79	409.59
432.97	514.92
433.16	540.66
433.35	512.58
433.54	596.84
433.72	699.82
433.91	657.69
434.10	678.76
434.28	887.06
434.47	971.32
434.66	1043.88
434.85	1284.95
435.03	3501.44
435.22	12840.18
435.41	30110.99
435.59	34801.43
435.78	23065.98
435.97	11611.40
436.16	4374.46
436.34	1497.94
436.53	931.53
436.72	739.61
436.90	557.05
437.09	587.47
437.28	535.98
437.46	547.69
437.65	540.66
437.84	510.24
438.02	498.53
438.21	566.41
438.40	482.15
438.58	423.64
438.77	503.22
438.96	451.72
439.14	367.46
439.33	514.92
439.52	486.83
439.70	411.93
439.89	463.43
440.08	470.45
440.26	524.28
440.45	465.77
440.63	479.81
440.82	468.11
441.01	486.83
441.19	421.30
441.38	437.68
441.57	430.66
441.75	472.79
441.94	430.66
442.12	468.11
442.31	538.32
442.50	573.43
442.68	418.96
442.87	430.66
443.05	491.51
443.24	430.66
443.43	510.24
443.61	512.58
443.80	489.17
443.98	447.04
444.17	533.64
444.35	442.36
444.54	489.17
444.73	500.87
444.91	479.81
445.10	425.98
445.28	423.64
445.47	552.37
445.65	521.94
445.84	416.62
446.02	482.15
446.21	468.11
446.39	449.38
446.58	486.83
446.77	475.13
446.95	463.43
447.14	433.00
447.32	503.22
447.51	507.90
447.69	528.96
447.88	444.70
448.06	449.38
448.25	435.34
448.43	477.47
448.62	379.17
448.80	444.70
448.99	442.36
449.17	449.38
449.36	498.53
449.54	512.58
449.73	465.77
449.91	503.22
450.10	442.36
450.28	465.77
450.46	557.05
450.65	477.47
450.83	484.49
451.02	482.15
451.20	465.77
451.39	484.49
451.57	526.62
451.76	449.38
451.94	411.93
452.13	421.30
452.31	472.79
452.49	500.87
452.68	451.72
452.86	454.06
453.05	514.92
453.23	463.43
453.42	444.70
453.60	465.77
453.78	458.74
453.97	425.98
454.15	440.02
454.34	390.87
454.52	423.64
454.70	451.72
454.89	472.79
455.07	486.83
455.26	470.45
455.44	463.43
455.62	512.58
455.81	454.06
455.99	479.81
456.17	428.32
456.36	514.92
456.54	433.00
456.73	451.72
456.91	463.43
457.09	458.74
457.28	418.96
457.46	461.09
457.64	482.15
457.83	442.36
458.01	468.11
458.19	383.85
458.38	444.70
458.56	489.17
458.74	444.70
458.93	411.93
459.11	418.96
459.29	489.17
459.48	461.09
459.66	545.34
459.84	437.68
460.03	512.58
460.21	435.34
460.39	306.61
460.57	395.55
460.76	472.79
460.94	472.79
461.12	486.83
461.31	526.62
461.49	421.30
461.67	444.70
461.85	482.15
462.04	482.15
462.22	828.55
462.40	437.68
462.59	477.47
462.77	475.13
462.95	430.66
463.13	449.38
463.32	470.45
463.50	468.11
463.68	468.11
463.86	449.38
464.05	430.66
464.23	444.70
464.41	430.66
464.59	428.32
464.78	510.24
464.96	507.90
465.14	463.43
465.32	423.64
465.50	538.32
465.69	461.09
465.87	390.87
466.05	409.59
466.23	395.55
466.41	411.93
466.60	454.06
466.78	447.04
466.96	496.19
467.14	414.27
467.32	428.32
467.51	528.96
467.69	454.06
467.87	451.72
468.05	447.04
468.23	440.02
468.41	425.98
468.60	437.68
468.78	447.04
468.96	491.51
469.14	411.93
469.32	395.55
469.50	390.87
469.69	395.55
469.87	447.04
470.05	421.30
470.23	447.04
470.41	449.38
470.59	346.40
470.77	458.74
470.95	440.02
471.14	479.81
471.32	407.25
471.50	463.43
471.68	496.19
471.86	397.89
472.04	334.70
472.22	418.96
472.40	409.59
472.58	470.45
472.77	435.34
472.95	433.00
473.13	442.36
473.31	372.15
473.49	482.15
473.67	372.15
473.85	449.38
474.03	470.45
474.21	465.77
474.39	566.41
474.57	477.47
474.75	454.06
474.93	451.72
475.12	374.49
475.30	379.17
475.48	449.38
475.66	447.04
475.84	430.66
476.02	463.43
476.20	440.02
476.38	404.91
476.56	458.74
476.74	468.11
476.92	435.34
477.10	428.32
477.28	437.68
477.46	463.43
477.64	559.39
477.82	533.64
478.00	528.96
478.18	528.96
478.36	449.38
478.54	526.62
478.72	367.46
478.90	561.73
479.08	482.15
479.26	580.45
479.44	524.28
479.62	531.30
479.80	622.58
479.98	617.90
480.16	622.58
480.34	662.37
480.52	763.01
480.70	716.20
480.88	706.84
481.06	692.80
481.24	798.12
481.41	926.85
481.59	861.32
481.77	889.40
481.95	908.13
482.13	945.58
482.31	1060.26
482.49	1102.39
482.67	1165.59
482.85	1385.60
483.03	1373.89
483.21	1446.45
483.39	1537.73
483.57	1666.46
483.74	1729.66
483.92	1797.53
484.10	1954.35
484.28	2080.74
484.46	2321.81
484.64	2293.72
484.82	2296.07
485.00	2473.95
485.18	2651.83
485.35	2719.70
485.53	2876.52
485.71	2953.76
485.89	3204.19
486.07	3103.55
486.25	3225.26
486.43	3225.26
486.61	3267.39
486.78	3375.05
486.96	3304.84
487.14	3290.79
487.32	3225.26
487.50	3052.06
487.68	3260.37
487.85	3094.19
488.03	3143.34
488.21	3082.49
488.39	2808.64
488.57	3023.97
488.75	2913.97
488.92	3098.87
489.10	2731.41
489.28	2789.92
489.46	2696.30
489.64	2569.91
489.81	2679.91
489.99	2569.91
490.17	2478.63
490.35	2541.82
490.53	2490.33
490.70	2502.03
490.88	2438.84
491.06	2590.97
491.24	2766.51
491.41	2747.79
491.59	2647.15
491.77	2462.24
491.95	2417.77
492.13	2326.49
492.30	2340.54
492.48	2169.68
492.66	2232.87
492.84	2097.12
493.01	2197.76
493.19	2209.47
493.37	2047.97
493.54	2054.99
493.72	2005.84
493.90	1900.52
494.08	1942.64
494.25	2038.61
494.43	1912.22
494.61	1930.94
494.79	1842.00
494.96	1858.39
495.14	1870.09
495.32	1774.13
495.49	1739.02
495.67	1689.87
495.85	1764.76
496.02	1647.74
496.20	1603.27
496.38	1687.53
496.55	1519.01
496.73	1549.43
496.91	1598.59
497.09	1514.33
497.26	1530.71
497.44	1514.33
497.62	1439.43
497.79	1451.13
497.97	1401.98
498.14	1315.38
498.32	1401.98
498.50	1282.61
498.67	1273.25
498.85	1296.66
499.03	1280.27
499.20	1121.12
499.38	1165.59
499.56	1165.59
499.73	1123.46
499.91	1135.16
500.08	1050.90
500.26	1088.35
500.44	1088.35
500.61	903.45
500.79	959.62
500.97	882.38
501.14	945.58
501.32	912.81
501.49	931.53
501.67	788.76
501.84	835.57
502.02	828.55
502.20	777.06
502.37	746.63
502.55	755.99
502.72	835.57
502.90	692.80
503.07	760.67
503.25	613.22
503.43	727.91
503.60	671.73
503.78	676.41
503.95	624.92
504.13	554.71
504.30	585.13
504.48	631.94
504.65	631.94
504.83	589.82
505.01	575.77
505.18	573.43
505.36	521.94
505.53	521.94
505.71	582.79
505.88	610.88
506.06	587.47
506.23	566.41
506.41	447.04
506.58	505.56
506.76	528.96
506.93	517.26
507.11	440.02
507.28	489.17
507.46	557.05
507.63	496.19
507.81	437.68
507.98	440.02
508.16	458.74
508.33	456.40
508.50	552.37
508.68	538.32
508.85	552.37
509.03	526.62
509.20	498.53
509.38	510.24
509.55	573.43
509.73	559.39
509.90	535.98
510.08	519.60
510.25	463.43
510.42	472.79
510.60	463.43
510.77	465.77
510.95	465.77
511.12	454.06
511.30	421.30
511.47	435.34
511.64	510.24
511.82	486.83
511.99	461.09
512.17	400.23
512.34	409.59
512.51	486.83
512.69	433.00
512.86	365.12
513.04	470.45
513.21	402.57
513.38	407.25
513.56	454.06
513.73	416.62
513.90	386.19
514.08	339.38
514.25	454.06
514.43	507.90
514.60	393.21
514.77	402.57
514.95	430.66
515.12	360.44
515.29	411.93
515.47	397.89
515.64	418.96
515.81	341.72
515.99	411.93
516.16	451.72
516.33	454.06
516.51	409.59
516.68	313.63
516.85	400.23
517.03	379.17
517.20	414.27
517.37	402.57
517.54	365.12
517.72	416.62
517.89	327.68
518.06	332.36
518.24	411.93
518.41	376.83
518.58	386.19
518.75	346.40
518.93	376.83
519.10	414.27
519.27	372.15
519.45	414.27
519.62	489.17
519.79	402.57
519.96	418.96
520.14	409.59
520.31	374.49
520.48	337.04
520.65	435.34
520.83	353.42
521.00	341.72
521.17	334.70
521.34	360.44
521.52	360.44
521.69	358.10
521.86	369.80
522.03	388.53
522.20	451.72
522.38	421.30
522.55	381.51
522.72	355.76
522.89	397.89
523.07	365.12
523.24	409.59
523.41	390.87
523.58	411.93
523.75	386.19
523.92	351.08
524.10	440.02
524.27	367.46
524.44	456.40
524.61	400.23
524.78	320.65
524.96	463.43
525.13	376.83
525.30	383.85
525.47	409.59
525.64	388.53
525.81	372.15
525.98	433.00
526.16	454.06
526.33	425.98
526.50	444.70
526.67	428.32
526.84	437.68
527.01	390.87
527.18	531.30
527.36	496.19
527.53	447.04
527.70	503.22
527.87	433.00
528.04	468.11
528.21	379.17
528.38	484.49
528.55	435.34
528.72	535.98
528.89	465.77
529.07	423.64
529.24	404.91
529.41	557.05
529.58	573.43
529.75	528.96
529.92	526.62
530.09	594.50
530.26	507.90
530.43	629.60
530.60	578.11
530.77	585.13
530.94	610.88
531.11	681.10
531.28	627.26
531.46	594.50
531.63	699.82
531.80	610.88
531.97	727.91
532.14	809.83
532.31	912.81
532.48	1071.97
532.65	1249.85
532.82	1378.58
532.99	1671.14
533.16	1966.05
533.33	2036.27
533.50	1989.46
533.67	1657.10
533.84	1373.89
534.01	1303.68
534.18	1149.20
534.35	1181.97
534.52	1193.67
534.69	1198.35
534.86	1214.74
535.03	1226.44
535.20	1362.19
535.37	1444.11
535.54	1444.11
535.71	1596.25
535.88	1706.25
536.05	1724.97
536.22	1902.86
536.38	1916.90
536.55	2230.53
536.72	2473.95
536.89	2733.75
537.06	3005.25
537.23	3379.73
537.40	3705.07
537.57	3978.91
537.74	4037.42
537.91	4294.88
538.08	4449.36
538.25	4634.26
538.42	4550.00
538.59	4561.70
538.75	4844.91
538.92	5013.43
539.09	5556.43
539.26	6099.44
539.43	6960.75
539.60	7894.63
539.77	9011.06
539.94	9863.02
540.11	10984.13
540.28	11934.39
540.44	12896.35
540.61	14324.08
540.78	16657.59
540.95	19910.94
541.12	23576.22
541.29	27166.60
541.46	28421.13
541.62	28304.10
541.79	27143.19
541.96	24975.86
542.13	22965.34
542.30	21656.98
542.47	20196.48
542.63	19538.79
542.80	18637.69
542.97	18532.36
543.14	17987.02
543.31	18218.73
543.48	18574.49
543.64	18743.01
543.81	18871.74
543.98	18822.59
544.15	18960.68
544.32	19136.22
544.48	19239.20
544.65	18780.46
544.82	18759.39
544.99	18721.95
545.16	19426.45
545.32	20046.69
545.49	31730.64
545.66	55508.14
545.83	62717.00
546.00	58831.71
546.16	45092.76
546.33	33694.35
546.50	25102.25
546.67	19564.54
546.83	17137.40
547.00	16587.38
547.17	15800.96
547.34	15124.54
547.50	14005.77
547.67	13706.18
547.84	12828.48
548.00	12877.63
548.17	12449.31
548.34	12028.01
548.51	11353.94
548.67	10747.74
548.84	10441.13
549.01	9942.60
549.18	9415.98
549.34	9125.75
549.51	8847.22
549.68	8416.57
549.84	8009.31
550.01	7721.43
550.18	7445.24
550.34	7054.37
550.51	6789.89
550.68	6214.12
550.84	6019.86
551.01	5577.50
551.18	5413.66
551.34	5048.54
551.51	4945.55
551.68	4692.77
551.84	4627.24
552.01	4449.36
552.18	4341.69
552.34	4058.49
552.51	3808.05
552.68	3789.33
552.84	3611.45
553.01	3557.61
553.18	3499.10
553.34	3220.58
553.51	3038.02
553.67	3173.77
553.84	2885.88
554.01	2827.37
554.17	2553.52
554.34	2401.39
554.51	2239.89
554.67	2125.21
554.84	2022.22
555.00	1921.58
555.17	1851.36
555.33	1860.73
555.50	1710.93
555.67	1673.48
555.83	1727.32
556.00	1481.56
556.16	1526.03
556.33	1320.06
556.50	1359.85
556.66	1430.07
556.83	1317.72
556.99	1277.93
557.16	1200.69
557.32	1226.44
557.49	1135.16
557.65	1055.58
557.82	1090.69
557.98	1039.20
558.15	992.39
558.32	959.62
558.48	976.00
558.65	990.05
558.81	994.73
558.98	994.73
559.14	912.81
559.31	929.19
559.47	929.19
559.64	877.70
559.80	791.10
559.97	781.74
560.13	908.13
560.30	814.51
560.46	800.46
560.63	837.91
560.79	788.76
560.96	882.38
561.12	823.87
561.29	877.70
561.45	837.91
561.61	692.80
561.78	861.32
561.94	880.04
562.11	812.17
562.27	727.91
562.44	741.95
562.60	816.85
562.77	798.12
562.93	765.36
563.10	767.70
563.26	739.61
563.42	823.87
563.59	781.74
563.75	664.71
563.92	711.52
564.08	709.18
564.24	781.74
564.41	739.61
564.57	723.23
564.74	634.29
564.90	603.86
565.07	737.27
565.23	727.91
565.39	643.65
565.56	636.63
565.72	624.92
565.88	594.50
566.05	538.32
566.21	587.47
566.38	627.26
566.54	669.39
566.70	615.56
566.87	650.67
567.03	725.57
567.19	676.41
567.36	692.80
567.52	603.86
567.68	681.10
567.85	622.58
568.01	641.31
568.17	716.20
568.34	683.44
568.50	748.97
568.66	671.73
568.83	685.78
568.99	653.01
569.15	681.10
569.32	608.54
569.48	571.09
569.64	550.03
569.81	535.98
569.97	493.85
570.13	491.51
570.30	533.64
570.46	540.66
570.62	498.53
570.78	498.53
570.95	458.74
571.11	468.11
571.27	461.09
571.43	482.15
571.60	482.15
571.76	454.06
571.92	456.40
572.09	545.34
572.25	472.79
572.41	435.34
572.57	447.04
572.74	486.83
572.90	442.36
573.06	594.50
573.22	472.79
573.38	535.98
573.55	594.50
573.71	526.62
573.87	566.41
574.03	557.05
574.20	526.62
574.36	613.22
574.52	603.86
574.68	606.20
574.84	624.92
575.01	620.24
575.17	676.41
575.33	709.18
575.49	748.97
575.65	774.72
575.82	938.55
575.98	945.58
576.14	1008.77
576.30	2047.97
576.46	6286.68
576.62	12163.76
576.79	14160.24
576.95	10228.14
577.11	6651.80
577.27	4676.39
577.43	3054.40
577.59	2087.76
577.75	1570.50
577.92	1373.89
578.08	1387.94
578.24	1495.60
578.40	2193.08
578.56	6043.26
578.72	10970.09
578.88	13235.73
579.04	9444.06
579.21	6300.72
579.37	4793.42
579.53	3665.28
579.69	3393.78
579.85	4264.46
580.01	5032.15
580.17	4809.80
580.33	4325.31
580.49	3660.60
580.65	3166.74
580.82	2923.33
580.98	2715.02
581.14	2862.48
581.30	3016.95
581.46	3110.57
581.62	3466.33
581.78	3515.48
581.94	3906.35
582.10	4128.70
582.26	4449.36
582.42	4559.36
582.58	4793.42
582.74	4678.73
582.90	4943.21
583.06	5043.85
583.22	4882.36
583.38	4901.08
583.54	4882.36
583.70	4669.37
583.86	4746.61
584.02	4631.92
584.18	4475.10
584.34	4416.59
584.50	4456.38
584.66	4411.91
584.82	4390.84
584.98	4322.97
585.14	3997.64
585.30	4067.85
585.46	3969.55
585.62	4007.00
585.78	3927.42
585.94	3957.85
586.10	4018.70
586.26	4376.80
586.42	4884.70
586.58	5893.47
586.74	7222.89
586.90	8603.81
587.06	9493.21
587.22	9502.58
587.38	8454.02
587.54	7360.98
587.70	6312.42
587.86	5060.24
588.02	4470.42
588.18	3882.95
588.34	3581.02
588.49	3251.00
588.65	3061.42
588.81	2813.32
588.97	2715.02
589.13	2855.45
589.29	2675.23
589.45	2764.17
589.61	2703.32
589.77	2743.11
589.93	2677.57
590.08	2813.32
590.24	2822.69
590.40	2864.82
590.56	3148.02
590.72	3183.13
590.88	3183.13
591.04	3208.87
591.20	3421.86
591.35	3651.24
591.51	3625.49
591.67	3723.79
591.83	4072.53
591.99	4498.51
592.15	4781.71
592.31	5163.22
592.46	5472.17
592.62	6396.68
592.78	6513.71
592.94	6857.77
593.10	6731.38
593.26	6310.08
593.41	5933.26
593.57	5418.34
593.73	4713.84
593.89	4276.16
594.05	3721.45
594.20	3318.88
594.36	3073.12
594.52	2988.86
594.68	2785.24
594.84	2579.27
594.99	2457.56
595.15	2368.62
595.31	2443.52
595.47	2427.14
595.62	2354.58
595.78	2445.86
595.94	2396.71
596.10	2363.94
596.25	2436.50
596.41	2361.60
596.57	2392.03
596.73	2448.20
596.88	2298.41
597.04	2476.29
597.20	2417.77
597.36	2562.89
597.51	2424.80
597.67	2605.02
597.83	2733.75
597.99	2920.99
598.14	2967.80
598.30	3117.59
598.46	3314.20
598.61	3700.39
598.77	3894.65
598.93	3882.95
599.09	4030.40
599.24	4133.39
599.40	3946.14
599.56	3801.03
599.71	3733.15
599.87	3538.89
600.03	3368.03
600.18	3183.13
600.34	2909.29
600.50	2750.13
600.65	2581.61
600.81	2413.09
600.97	2256.28
601.12	2031.58
601.28	1996.48
601.44	1982.43
601.59	1884.13
601.75	1846.68
601.91	1935.62
602.06	1858.39
602.22	1760.08
602.37	1593.90
602.53	1654.76
602.69	1734.34
602.84	1584.54
603.00	1713.27
603.16	1610.29
603.31	1757.74
603.47	1586.88
603.62	1605.61
603.78	1701.57
603.94	1757.74
604.09	1849.02
604.25	1877.11
604.40	1757.74
604.56	1888.81
604.71	1825.62
604.87	1839.66
605.03	1980.09
605.18	2026.90
