SpectraSuite Data File
++++++++++++++++++++++++++++++++++++
Date: Fri Oct 04 11:41:55 GMT-05:00 2013
User: price-jones
Dark Spectrum Present: No
Reference Spectrum Present: No
Number of Sampled Component Spectra: 1
Spectrometers: USB2+H05261
Integration Time (usec): 100000 (USB2+H05261)
Spectra Averaged: 1 (USB2+H05261)
Boxcar Smoothing: 0 (USB2+H05261)
Correct for Electrical Dark: No (USB2+H05261)
Strobe/Lamp Enabled: No (USB2+H05261)
Correct for Detector Non-linearity: No (USB2+H05261)
Correct for Stray Light: No (USB2+H05261)
Number of Pixels in Processed Spectrum: 2048
>>>>>Begin Processed Spectral Data<<<<<
365.73	63.19
365.92	63.19
366.12	63.19
366.32	0.00
366.52	0.00
366.72	0.00
366.91	0.00
367.11	0.00
367.31	0.00
367.51	0.00
367.70	0.00
367.90	0.00
368.10	0.00
368.30	0.00
368.49	0.00
368.69	0.00
368.89	0.00
369.09	0.00
369.28	0.00
369.48	0.00
369.68	0.00
369.87	0.00
370.07	0.00
370.27	44.47
370.47	0.00
370.66	14.04
370.86	37.45
371.06	77.24
371.25	126.39
371.45	67.88
371.65	67.88
371.84	39.79
372.04	70.22
372.24	133.41
372.44	30.43
372.63	135.75
372.83	56.17
373.03	79.58
373.22	117.03
373.42	102.98
373.62	133.41
373.81	184.90
374.01	212.99
374.21	121.71
374.40	128.73
374.60	95.96
374.79	208.31
374.99	114.69
375.19	135.75
375.38	189.58
375.58	117.03
375.78	250.44
375.97	215.33
376.17	201.29
376.37	149.79
376.56	147.45
376.76	149.79
376.95	114.69
377.15	135.75
377.35	189.58
377.54	145.11
377.74	135.75
377.93	107.66
378.13	138.09
378.33	58.51
378.52	112.35
378.72	145.11
378.91	168.52
379.11	161.50
379.31	124.05
379.50	121.71
379.70	135.75
379.89	166.18
380.09	124.05
380.28	161.50
380.48	74.90
380.68	133.41
380.87	65.54
381.07	196.60
381.26	107.66
381.46	126.39
381.65	133.41
381.85	93.62
382.04	98.30
382.24	86.60
382.43	105.32
382.63	65.54
382.83	107.66
383.02	196.60
383.22	93.62
383.41	37.45
383.61	156.82
383.80	138.09
384.00	163.84
384.19	124.05
384.39	98.30
384.58	114.69
384.78	156.82
384.97	114.69
385.17	138.09
385.36	124.05
385.56	142.77
385.75	56.17
385.95	131.07
386.14	135.75
386.34	72.56
386.53	133.41
386.72	95.96
386.92	173.20
387.11	131.07
387.31	182.56
387.50	147.45
387.70	72.56
387.89	152.13
388.09	135.75
388.28	105.32
388.48	72.56
388.67	98.30
388.86	105.32
389.06	142.77
389.25	166.18
389.45	163.84
389.64	88.94
389.84	173.20
390.03	135.75
390.22	149.79
390.42	107.66
390.61	156.82
390.81	93.62
391.00	133.41
391.19	149.79
391.39	100.64
391.58	135.75
391.78	142.77
391.97	107.66
392.16	128.73
392.36	168.52
392.55	191.92
392.75	112.35
392.94	147.45
393.13	168.52
393.33	70.22
393.52	91.28
393.71	159.16
393.91	131.07
394.10	86.60
394.29	44.47
394.49	79.58
394.68	191.92
394.88	194.26
395.07	159.16
395.26	166.18
395.46	117.03
395.65	159.16
395.84	212.99
396.04	189.58
396.23	191.92
396.42	128.73
396.62	117.03
396.81	107.66
397.00	180.22
397.19	154.48
397.39	105.32
397.58	238.73
397.77	140.43
397.97	145.11
398.16	119.37
398.35	152.13
398.55	154.48
398.74	163.84
398.93	156.82
399.12	220.01
399.32	135.75
399.51	196.60
399.70	227.03
399.90	166.18
400.09	203.63
400.28	177.88
400.47	128.73
400.67	198.95
400.86	138.09
401.05	152.13
401.24	117.03
401.44	168.52
401.63	198.95
401.82	264.48
402.01	154.48
402.21	205.97
402.40	175.54
402.59	273.84
402.78	215.33
402.97	229.37
403.17	297.25
403.36	344.06
403.55	372.15
403.74	741.95
403.93	2249.25
404.13	5621.97
404.32	9261.50
404.51	9809.19
404.70	6223.48
404.89	2232.87
405.09	720.88
405.28	297.25
405.47	294.91
405.66	276.18
405.85	252.78
406.05	180.22
406.24	245.76
406.43	208.31
406.62	229.37
406.81	341.72
407.00	402.57
407.20	695.14
407.39	1111.75
407.58	1439.43
407.77	1139.84
407.96	645.99
408.15	292.57
408.34	238.73
408.54	212.99
408.73	203.63
408.92	271.50
409.11	220.01
409.30	220.01
409.49	182.56
409.68	189.58
409.87	236.39
410.07	280.86
410.26	257.46
410.45	255.12
410.64	238.73
410.83	212.99
411.02	262.14
411.21	220.01
411.40	212.99
411.59	184.90
411.78	198.95
411.98	145.11
412.17	217.67
412.36	217.67
412.55	266.82
412.74	273.84
412.93	238.73
413.12	210.65
413.31	327.68
413.50	259.80
413.69	238.73
413.88	280.86
414.07	276.18
414.26	273.84
414.45	234.05
414.64	252.78
414.83	290.23
415.02	271.50
415.22	245.76
415.41	325.33
415.60	283.20
415.79	278.52
415.98	304.27
416.17	346.40
416.36	266.82
416.55	248.10
416.74	322.99
416.93	332.36
417.12	271.50
417.31	283.20
417.50	250.44
417.69	376.83
417.88	351.08
418.07	276.18
418.26	301.93
418.45	212.99
418.64	393.21
418.83	365.12
419.02	257.46
419.21	299.59
419.39	294.91
419.58	294.91
419.77	280.86
419.96	308.95
420.15	362.78
420.34	332.36
420.53	372.15
420.72	330.02
420.91	355.76
421.10	330.02
421.29	367.46
421.48	308.95
421.67	322.99
421.86	365.12
422.05	339.38
422.24	299.59
422.43	442.36
422.61	325.33
422.80	273.84
422.99	327.68
423.18	266.82
423.37	386.19
423.56	351.08
423.75	346.40
423.94	374.49
424.13	404.91
424.32	348.74
424.50	402.57
424.69	327.68
424.88	440.02
425.07	327.68
425.26	437.68
425.45	402.57
425.64	353.42
425.83	393.21
426.01	470.45
426.20	395.55
426.39	372.15
426.58	390.87
426.77	339.38
426.96	409.59
427.15	393.21
427.33	407.25
427.52	433.00
427.71	421.30
427.90	381.51
428.09	400.23
428.28	358.10
428.46	463.43
428.65	442.36
428.84	465.77
429.03	355.76
429.22	486.83
429.40	376.83
429.59	489.17
429.78	472.79
429.97	496.19
430.16	440.02
430.34	433.00
430.53	486.83
430.72	435.34
430.91	526.62
431.10	463.43
431.28	514.92
431.47	477.47
431.66	491.51
431.85	533.64
432.03	510.24
432.22	552.37
432.41	505.56
432.60	575.77
432.79	575.77
432.97	514.92
433.16	587.47
433.35	634.29
433.54	784.08
433.72	931.53
433.91	793.44
434.10	884.72
434.28	1067.28
434.47	1308.36
434.66	1430.07
434.85	1526.03
435.03	4002.32
435.22	14143.86
435.41	36072.34
435.59	48947.62
435.78	37453.25
435.97	16709.08
436.16	6099.44
436.34	1963.71
436.53	1263.89
436.72	959.62
436.90	741.95
437.09	814.51
437.28	641.31
437.46	702.16
437.65	695.14
437.84	676.41
438.02	634.29
438.21	634.29
438.40	578.11
438.58	606.20
438.77	531.30
438.96	528.96
439.14	610.88
439.33	589.82
439.52	528.96
439.70	578.11
439.89	655.35
440.08	557.05
440.26	521.94
440.45	674.07
440.63	610.88
440.82	631.94
441.01	550.03
441.19	566.41
441.38	587.47
441.57	617.90
441.75	641.31
441.94	615.56
442.12	571.09
442.31	531.30
442.50	629.60
442.68	498.53
442.87	564.07
443.05	561.73
443.24	550.03
443.43	690.46
443.61	624.92
443.80	594.50
443.98	617.90
444.17	594.50
444.35	596.84
444.54	608.54
444.73	510.24
444.91	653.01
445.10	608.54
445.28	571.09
445.47	571.09
445.65	617.90
445.84	552.37
446.02	615.56
446.21	638.97
446.39	465.77
446.58	547.69
446.77	568.75
446.95	603.86
447.14	585.13
447.32	634.29
447.51	596.84
447.69	512.58
447.88	482.15
448.06	568.75
448.25	634.29
448.43	528.96
448.62	468.11
448.80	624.92
448.99	585.13
449.17	533.64
449.36	585.13
449.54	538.32
449.73	512.58
449.91	648.33
450.10	538.32
450.28	627.26
450.46	543.00
450.65	573.43
450.83	580.45
451.02	624.92
451.20	545.34
451.39	599.18
451.57	585.13
451.76	559.39
451.94	545.34
452.13	620.24
452.31	624.92
452.49	601.52
452.68	512.58
452.86	547.69
453.05	655.35
453.23	636.63
453.42	512.58
453.60	540.66
453.78	526.62
453.97	468.11
454.15	437.68
454.34	573.43
454.52	528.96
454.70	552.37
454.89	528.96
455.07	566.41
455.26	573.43
455.44	517.26
455.62	645.99
455.81	554.71
455.99	498.53
456.17	533.64
456.36	528.96
456.54	655.35
456.73	493.85
456.91	482.15
457.09	528.96
457.28	566.41
457.46	521.94
457.64	540.66
457.83	592.16
458.01	557.05
458.19	524.28
458.38	531.30
458.56	564.07
458.74	500.87
458.93	610.88
459.11	545.34
459.29	512.58
459.48	507.90
459.66	587.47
459.84	624.92
460.03	627.26
460.21	475.13
460.39	524.28
460.57	554.71
460.76	573.43
460.94	475.13
461.12	519.60
461.31	564.07
461.49	547.69
461.67	615.56
461.85	587.47
462.04	528.96
462.22	1013.45
462.40	475.13
462.59	575.77
462.77	559.39
462.95	524.28
463.13	505.56
463.32	547.69
463.50	510.24
463.68	521.94
463.86	524.28
464.05	578.11
464.23	594.50
464.41	519.60
464.59	564.07
464.78	540.66
464.96	561.73
465.14	585.13
465.32	535.98
465.50	603.86
465.69	454.06
465.87	535.98
466.05	568.75
466.23	425.98
466.41	526.62
466.60	510.24
466.78	643.65
466.96	571.09
467.14	594.50
467.32	641.31
467.51	482.15
467.69	564.07
467.87	608.54
468.05	566.41
468.23	580.45
468.41	404.91
468.60	482.15
468.78	512.58
468.96	524.28
469.14	610.88
469.32	463.43
469.50	402.57
469.69	465.77
469.87	575.77
470.05	463.43
470.23	486.83
470.41	416.62
470.59	512.58
470.77	568.75
470.95	503.22
471.14	568.75
471.32	449.38
471.50	561.73
471.68	568.75
471.86	571.09
472.04	477.47
472.22	496.19
472.40	564.07
472.58	594.50
472.77	444.70
472.95	491.51
473.13	547.69
473.31	550.03
473.49	514.92
473.67	491.51
473.85	543.00
474.03	514.92
474.21	552.37
474.39	564.07
474.57	592.16
474.75	491.51
474.93	528.96
475.12	447.04
475.30	526.62
475.48	538.32
475.66	475.13
475.84	503.22
476.02	526.62
476.20	449.38
476.38	566.41
476.56	564.07
476.74	571.09
476.92	496.19
477.10	510.24
477.28	533.64
477.46	521.94
477.64	531.30
477.82	573.43
478.00	580.45
478.18	533.64
478.36	608.54
478.54	575.77
478.72	566.41
478.90	592.16
479.08	751.31
479.26	643.65
479.44	697.48
479.62	716.20
479.80	685.78
479.98	767.70
480.16	814.51
480.34	809.83
480.52	770.04
480.70	887.06
480.88	858.98
481.06	877.70
481.24	943.24
481.41	1029.84
481.59	1090.69
481.77	1226.44
481.95	1198.35
482.13	1315.38
482.31	1448.79
482.49	1486.24
482.67	1535.39
482.85	1696.89
483.03	1792.85
483.21	1886.47
483.39	1989.46
483.57	2118.18
483.74	2263.30
483.92	2296.07
484.10	2518.42
484.28	2630.76
484.46	2981.84
484.64	3000.57
484.82	3030.99
485.00	3206.53
485.18	3461.65
485.35	3613.79
485.53	3824.44
485.71	4053.81
485.89	4229.35
486.07	4138.07
486.25	4264.46
486.43	4346.37
486.61	4266.80
486.78	4285.52
486.96	4280.84
487.14	4191.90
487.32	4327.65
487.50	4374.46
487.68	4131.05
487.85	4301.90
488.03	4184.88
488.21	4156.79
488.39	4081.89
488.57	3847.84
488.75	3808.05
488.92	3999.98
489.10	3602.08
489.28	3510.80
489.46	3541.23
489.64	3288.45
489.81	3419.52
489.99	3506.12
490.17	3236.96
490.35	3321.22
490.53	3274.41
490.70	3225.26
490.88	3155.04
491.06	3386.76
491.24	3646.55
491.41	3662.94
491.59	3515.48
491.77	3290.79
491.95	3194.83
492.13	3040.36
492.30	2967.80
492.48	2923.33
492.66	2860.13
492.84	2766.51
493.01	2675.23
493.19	2796.94
493.37	2759.49
493.54	2740.77
493.72	2590.97
493.90	2595.65
494.08	2551.18
494.25	2527.78
494.43	2562.89
494.61	2424.80
494.79	2298.41
494.96	2459.90
495.14	2361.60
495.32	2246.91
495.49	2251.60
495.67	2249.25
495.85	2228.19
496.02	2162.66
496.20	2132.23
496.38	2104.14
496.55	2005.84
496.73	2090.10
496.91	1973.07
497.09	1900.52
497.26	1888.81
497.44	1785.83
497.62	1839.66
497.79	1853.70
497.97	1820.94
498.14	1823.28
498.32	1732.00
498.50	1757.74
498.67	1638.38
498.85	1607.95
499.03	1493.26
499.20	1528.37
499.38	1500.28
499.56	1488.58
499.73	1451.13
499.91	1423.05
500.08	1474.54
500.26	1472.20
500.44	1327.08
500.61	1242.82
500.79	1245.16
500.97	1167.93
501.14	1212.40
501.32	1128.14
501.49	1076.65
501.67	1013.45
501.84	1053.24
502.02	1032.18
502.20	1048.56
502.37	964.30
502.55	1001.75
502.72	947.92
502.90	933.87
503.07	868.34
503.25	795.78
503.43	912.81
503.60	816.85
503.78	777.06
503.95	748.97
504.13	821.53
504.30	788.76
504.48	800.46
504.65	777.06
504.83	807.48
505.01	683.44
505.18	634.29
505.36	720.88
505.53	653.01
505.71	559.39
505.88	671.73
506.06	613.22
506.23	653.01
506.41	580.45
506.58	603.86
506.76	592.16
506.93	599.18
507.11	589.82
507.28	601.52
507.46	526.62
507.63	634.29
507.81	543.00
507.98	585.13
508.16	617.90
508.33	561.73
508.50	596.84
508.68	622.58
508.85	519.60
509.03	554.71
509.20	643.65
509.38	650.67
509.55	566.41
509.73	636.63
509.90	617.90
510.08	507.90
510.25	566.41
510.42	557.05
510.60	582.79
510.77	557.05
510.95	592.16
511.12	465.77
511.30	564.07
511.47	491.51
511.64	561.73
511.82	456.40
511.99	510.24
512.17	521.94
512.34	486.83
512.51	517.26
512.69	535.98
512.86	468.11
513.04	500.87
513.21	531.30
513.38	482.15
513.56	526.62
513.73	519.60
513.90	550.03
514.08	421.30
514.25	496.19
514.43	418.96
514.60	468.11
514.77	468.11
514.95	521.94
515.12	402.57
515.29	400.23
515.47	491.51
515.64	514.92
515.81	407.25
515.99	444.70
516.16	428.32
516.33	456.40
516.51	479.81
516.68	390.87
516.85	442.36
517.03	397.89
517.20	442.36
517.37	456.40
517.54	379.17
517.72	411.93
517.89	416.62
518.06	416.62
518.24	510.24
518.41	465.77
518.58	388.53
518.75	409.59
518.93	510.24
519.10	388.53
519.27	423.64
519.45	472.79
519.62	421.30
519.79	423.64
519.96	533.64
520.14	383.85
520.31	451.72
520.48	433.00
520.65	435.34
520.83	433.00
521.00	463.43
521.17	425.98
521.34	454.06
521.52	477.47
521.69	414.27
521.86	374.49
522.03	407.25
522.20	397.89
522.38	308.95
522.55	339.38
522.72	390.87
522.89	402.57
523.07	496.19
523.24	451.72
523.41	411.93
523.58	383.85
523.75	381.51
523.92	400.23
524.10	358.10
524.27	519.60
524.44	400.23
524.61	381.51
524.78	379.17
524.96	388.53
525.13	475.13
525.30	465.77
525.47	482.15
525.64	454.06
525.81	498.53
525.98	435.34
526.16	486.83
526.33	470.45
526.50	510.24
526.67	468.11
526.84	564.07
527.01	517.26
527.18	589.82
527.36	566.41
527.53	540.66
527.70	650.67
527.87	582.79
528.04	601.52
528.21	578.11
528.38	493.85
528.55	526.62
528.72	594.50
528.89	624.92
529.07	543.00
529.24	578.11
529.41	552.37
529.58	550.03
529.75	554.71
529.92	580.45
530.09	564.07
530.26	603.86
530.43	603.86
530.60	624.92
530.77	683.44
530.94	709.18
531.11	695.14
531.28	781.74
531.46	671.73
531.63	695.14
531.80	802.80
531.97	940.90
532.14	898.77
532.31	1022.81
532.48	1420.71
532.65	1575.18
532.82	1823.28
532.99	1963.71
533.16	2396.71
533.33	2597.99
533.50	2572.25
533.67	2153.29
533.84	1748.38
534.01	1530.71
534.18	1504.96
534.35	1465.18
534.52	1479.22
534.69	1488.58
534.86	1554.12
535.03	1497.94
535.20	1680.50
535.37	1792.85
535.54	1816.26
535.71	1982.43
535.88	2099.46
536.05	2193.08
536.22	2354.58
536.38	2640.12
536.55	2717.36
536.72	3028.65
536.89	3531.87
537.06	3810.39
537.23	4390.84
537.40	4702.14
537.57	5174.92
537.74	5521.32
537.91	5610.26
538.08	5717.93
538.25	5846.66
538.42	6026.88
538.59	6099.44
538.75	6328.81
538.92	6504.35
539.09	7129.27
539.26	7962.50
539.43	9008.72
539.60	10370.91
539.77	11349.26
539.94	12631.87
540.11	14221.10
540.28	15892.24
540.44	17067.19
540.61	18925.57
540.78	21542.29
540.95	26106.34
541.12	31622.98
541.29	36065.31
541.46	38291.16
541.62	37551.56
541.79	36428.10
541.96	33640.52
542.13	31035.50
542.30	29006.26
542.47	27536.40
542.63	26075.91
542.80	25043.73
542.97	24273.70
543.14	24503.07
543.31	23910.91
543.48	24430.51
543.64	25209.91
543.81	24776.91
543.98	25050.75
544.15	25348.00
544.32	25380.77
544.48	25228.63
544.65	24980.54
544.82	24732.44
544.99	24620.10
545.16	25324.60
545.32	26106.34
545.49	38920.77
545.66	58834.05
545.83	65535.00
546.00	65535.00
546.16	60369.44
546.33	43632.27
546.50	32931.34
546.67	25357.36
546.83	22944.27
547.00	21900.39
547.17	20975.88
547.34	20348.62
547.50	19583.26
547.67	18768.76
547.84	17633.60
548.00	17041.44
548.17	16666.95
548.34	15826.70
548.51	15335.19
548.67	14843.68
548.84	13893.42
549.01	13083.59
549.18	12519.53
549.34	12131.00
549.51	11648.85
549.68	11126.91
549.84	10885.83
550.01	10176.65
550.18	9760.03
550.34	9128.09
550.51	8718.50
550.68	8423.59
550.84	8044.42
551.01	7901.65
551.18	7112.89
551.34	6801.60
551.51	6619.04
551.68	6267.95
551.84	6139.23
552.01	5692.18
552.18	5565.79
552.34	5270.89
552.51	5069.60
552.68	4889.38
552.84	4601.49
553.01	4655.33
553.18	4311.27
553.34	4297.22
553.51	4177.86
553.67	4168.49
553.84	3880.61
554.01	3599.74
554.17	3279.09
554.34	3206.53
554.51	2951.42
554.67	2956.10
554.84	2640.12
555.00	2420.11
555.17	2429.48
555.33	2272.66
555.50	2160.31
555.67	2045.63
555.83	1858.39
556.00	1867.75
556.16	2012.86
556.33	1734.34
556.50	1781.15
556.66	1558.80
556.83	1664.12
556.99	1607.95
557.16	1528.37
557.32	1462.83
557.49	1423.05
557.65	1291.98
557.82	1411.34
557.98	1289.64
558.15	1231.12
558.32	1291.98
558.48	1179.63
558.65	1158.57
558.81	1149.20
558.98	1071.97
559.14	1179.63
559.31	1114.10
559.47	1039.20
559.64	1022.81
559.80	1020.47
559.97	1067.28
560.13	1062.60
560.30	1034.52
560.46	1041.54
560.63	1001.75
560.79	964.30
560.96	1013.45
561.12	943.24
561.29	1078.99
561.45	1088.35
561.61	961.96
561.78	1062.60
561.94	985.37
562.11	1025.15
562.27	894.08
562.44	912.81
562.60	1015.79
562.77	1008.77
562.93	1034.52
563.10	961.96
563.26	990.05
563.42	877.70
563.59	898.77
563.75	973.66
563.92	898.77
564.08	823.87
564.24	821.53
564.41	819.19
564.57	807.48
564.74	755.99
564.90	936.21
565.07	835.57
565.23	849.61
565.39	816.85
565.56	835.57
565.72	695.14
565.88	716.20
566.05	664.71
566.21	709.18
566.38	716.20
566.54	765.36
566.70	833.23
566.87	809.83
567.03	861.32
567.19	734.93
567.36	732.59
567.52	662.37
567.68	716.20
567.85	774.72
568.01	739.61
568.17	699.82
568.34	828.55
568.50	828.55
568.66	748.97
568.83	894.08
568.99	774.72
569.15	767.70
569.32	760.67
569.48	685.78
569.64	582.79
569.81	596.84
569.97	662.37
570.13	645.99
570.30	676.41
570.46	610.88
570.62	564.07
570.78	512.58
570.95	592.16
571.11	667.05
571.27	587.47
571.43	606.20
571.60	634.29
571.76	564.07
571.92	587.47
572.09	596.84
572.25	543.00
572.41	594.50
572.57	596.84
572.74	641.31
572.90	634.29
573.06	610.88
573.22	554.71
573.38	660.03
573.55	585.13
573.71	657.69
573.87	683.44
574.03	617.90
574.20	755.99
574.36	706.84
574.52	692.80
574.68	777.06
574.84	734.93
575.01	716.20
575.17	877.70
575.33	880.04
575.49	980.68
575.65	1015.79
575.82	945.58
575.98	1128.14
576.14	1247.51
576.30	2457.56
576.46	7330.56
576.62	15068.37
576.79	20812.04
576.95	15012.20
577.11	8938.51
577.27	5944.96
577.43	4049.13
577.59	2523.10
577.75	2040.95
577.92	1762.42
578.08	1732.00
578.24	1792.85
578.40	2651.83
578.56	6801.60
578.72	13755.33
578.88	18930.25
579.04	13757.67
579.21	8243.37
579.37	5926.24
579.53	4489.15
579.69	4189.56
579.85	5240.46
580.01	6450.52
580.17	6619.04
580.33	5509.62
580.49	4704.48
580.65	4042.11
580.82	3700.39
580.98	3588.04
581.14	3700.39
581.30	3843.16
581.46	4079.55
581.62	4440.00
581.78	4875.34
581.94	5224.08
582.10	5387.91
582.26	5589.20
582.42	5982.41
582.58	6349.87
582.74	6270.30
582.90	6209.44
583.06	6392.00
583.22	6277.32
583.38	6466.90
583.54	6331.15
583.70	6267.95
583.86	6083.05
584.02	6209.44
584.18	5879.43
584.34	6015.18
584.50	5795.17
584.66	5671.12
584.82	5774.10
584.98	5694.52
585.14	5643.03
585.30	5366.85
585.46	5231.10
585.62	5224.08
585.78	5067.26
585.94	5238.12
586.10	5256.84
586.26	5549.41
586.42	6113.48
586.58	7243.96
586.74	9158.52
586.90	10981.79
587.06	12606.13
587.22	12657.62
587.38	11562.25
587.54	9966.00
587.70	8124.00
587.86	6885.86
588.02	5750.70
588.18	5093.01
588.34	4533.62
588.49	4187.22
588.65	3985.93
588.81	3866.56
588.97	3808.05
589.13	3637.19
589.29	3442.93
589.45	3566.98
589.61	3431.23
589.77	3398.46
589.93	3358.67
590.08	3515.48
590.24	3662.94
590.40	3763.58
590.56	3936.78
590.72	4023.38
590.88	4175.52
591.04	4353.40
591.20	4393.19
591.35	4542.98
591.51	4770.01
591.67	4983.00
591.83	5224.08
591.99	5720.27
592.15	6221.14
592.31	6806.28
592.46	7581.00
592.62	7915.69
592.78	8713.81
592.94	9158.52
593.10	9053.19
593.26	8613.17
593.41	7992.93
593.57	7037.99
593.73	6239.87
593.89	5638.35
594.05	4851.93
594.20	4493.83
594.36	4058.49
594.52	3634.85
594.68	3503.78
594.84	3330.58
594.99	3424.20
595.15	3148.02
595.31	3201.85
595.47	3155.04
595.62	3070.78
595.78	3112.91
595.94	3075.46
596.10	3232.28
596.25	3101.21
596.41	3110.57
596.57	3131.64
596.73	3105.89
596.88	3103.55
597.04	3052.06
597.20	3141.00
597.36	3222.92
597.51	3248.66
597.67	3335.26
597.83	3508.46
597.99	3707.41
598.14	3875.93
598.30	4093.60
598.46	4374.46
598.61	4603.83
598.77	4798.10
598.93	5135.14
599.09	5261.52
599.24	5348.12
599.40	5453.45
599.56	5261.52
599.71	5036.83
599.87	4683.41
600.03	4475.10
600.18	4227.01
600.34	3826.78
600.50	3588.04
600.65	3297.81
600.81	3255.69
600.97	2988.86
601.12	2895.24
601.28	2740.77
601.44	2569.91
601.59	2597.99
601.75	2368.62
601.91	2242.23
602.06	2256.28
602.22	2176.70
602.37	2160.31
602.53	2097.12
602.69	2005.84
602.84	2038.61
603.00	2005.84
603.16	2001.16
603.31	2172.02
603.47	2097.12
603.62	2183.72
603.78	2223.51
603.94	2249.25
604.09	2225.85
604.25	2352.24
604.40	2366.28
604.56	2326.49
