SpectraSuite Data File
++++++++++++++++++++++++++++++++++++
Date: Fri Oct 04 11:42:17 GMT-05:00 2013
User: price-jones
Dark Spectrum Present: No
Reference Spectrum Present: No
Number of Sampled Component Spectra: 1
Spectrometers: USB2+H05261
Integration Time (usec): 100000 (USB2+H05261)
Spectra Averaged: 1 (USB2+H05261)
Boxcar Smoothing: 0 (USB2+H05261)
Correct for Electrical Dark: No (USB2+H05261)
Strobe/Lamp Enabled: No (USB2+H05261)
Correct for Detector Non-linearity: No (USB2+H05261)
Correct for Stray Light: No (USB2+H05261)
Number of Pixels in Processed Spectrum: 2048
>>>>>Begin Processed Spectral Data<<<<<
365.73	107.66
365.92	107.66
366.12	107.66
366.32	0.00
366.52	0.00
366.72	0.00
366.91	0.00
367.11	4.68
367.31	0.00
367.51	0.00
367.70	0.00
367.90	0.00
368.10	0.00
368.30	0.00
368.49	0.00
368.69	0.00
368.89	14.04
369.09	0.00
369.28	0.00
369.48	16.38
369.68	0.00
369.87	4.68
370.07	7.02
370.27	0.00
370.47	102.98
370.66	271.50
370.86	222.35
371.06	325.33
371.25	313.63
371.45	313.63
371.65	287.89
371.84	337.04
372.04	318.31
372.24	390.87
372.44	297.25
372.63	325.33
372.83	433.00
373.03	271.50
373.22	306.61
373.42	348.74
373.62	339.38
373.81	383.85
374.01	341.72
374.21	257.46
374.40	297.25
374.60	397.89
374.79	435.34
374.99	360.44
375.19	430.66
375.38	341.72
375.58	402.57
375.78	379.17
375.97	411.93
376.17	437.68
376.37	339.38
376.56	451.72
376.76	414.27
376.95	531.30
377.15	477.47
377.35	437.68
377.54	449.38
377.74	557.05
377.93	500.87
378.13	524.28
378.33	489.17
378.52	423.64
378.72	402.57
378.91	491.51
379.11	418.96
379.31	372.15
379.50	376.83
379.70	470.45
379.89	489.17
380.09	484.49
380.28	472.79
380.48	470.45
380.68	423.64
380.87	402.57
381.07	402.57
381.26	524.28
381.46	372.15
381.65	397.89
381.85	440.02
382.04	337.04
382.24	332.36
382.43	320.65
382.63	341.72
382.83	334.70
383.02	355.76
383.22	315.97
383.41	285.55
383.61	287.89
383.80	325.33
384.00	372.15
384.19	498.53
384.39	409.59
384.58	475.13
384.78	400.23
384.97	451.72
385.17	409.59
385.36	458.74
385.56	475.13
385.75	411.93
385.95	454.06
386.14	503.22
386.34	447.04
386.53	470.45
386.72	341.72
386.92	461.09
387.11	470.45
387.31	463.43
387.50	463.43
387.70	393.21
387.89	482.15
388.09	475.13
388.28	484.49
388.48	451.72
388.67	500.87
388.86	458.74
389.06	500.87
389.25	585.13
389.45	601.52
389.64	578.11
389.84	613.22
390.03	601.52
390.22	610.88
390.42	557.05
390.61	643.65
390.81	613.22
391.00	671.73
391.19	706.84
391.39	674.07
391.58	603.86
391.78	550.03
391.97	554.71
392.16	512.58
392.36	517.26
392.55	393.21
392.75	348.74
392.94	327.68
393.13	402.57
393.33	395.55
393.52	395.55
393.71	524.28
393.91	540.66
394.10	575.77
394.29	589.82
394.49	601.52
394.68	678.76
394.88	770.04
395.07	753.65
395.26	629.60
395.46	723.23
395.65	674.07
395.84	585.13
396.04	653.01
396.23	437.68
396.42	339.38
396.62	395.55
396.81	393.21
397.00	442.36
397.19	603.86
397.39	610.88
397.58	858.98
397.77	814.51
397.97	858.98
398.16	770.04
398.35	774.72
398.55	884.72
398.74	931.53
398.93	880.04
399.12	877.70
399.32	945.58
399.51	912.81
399.70	917.49
399.90	875.36
400.09	866.00
400.28	884.72
400.47	854.30
400.67	882.38
400.86	936.21
401.05	1027.50
401.24	1074.31
401.44	997.07
401.63	1004.09
401.82	1018.13
402.01	978.34
402.21	1041.54
402.40	961.96
402.59	940.90
402.78	915.15
402.97	1020.47
403.17	983.02
403.36	1025.15
403.55	1032.18
403.74	1071.97
403.93	971.32
404.13	1083.67
404.32	980.68
404.51	1053.24
404.70	1039.20
404.89	1100.05
405.09	1060.26
405.28	1004.09
405.47	943.24
405.66	990.05
405.85	894.08
406.05	901.11
406.24	1057.92
406.43	1015.79
406.62	980.68
406.81	1060.26
407.00	1057.92
407.20	882.38
407.39	1008.77
407.58	1071.97
407.77	1048.56
407.96	1142.18
408.15	1198.35
408.34	1078.99
408.54	1109.41
408.73	1160.91
408.92	1207.72
409.11	1111.75
409.30	987.71
409.49	983.02
409.68	924.51
409.87	833.23
410.07	945.58
410.26	947.92
410.45	1074.31
410.64	1067.28
410.83	1165.59
411.02	1172.61
411.21	1266.23
411.40	1153.88
411.59	1249.85
411.78	1139.84
411.98	1172.61
412.17	1196.01
412.36	1191.33
412.55	1128.14
412.74	1116.44
412.93	1149.20
413.12	1139.84
413.31	1188.99
413.50	1242.82
413.69	1228.78
413.88	1273.25
414.07	1128.14
414.26	1245.16
414.45	1151.54
414.64	1172.61
414.83	1142.18
415.02	1284.95
415.22	1097.71
415.41	1254.53
415.60	1263.89
415.79	1301.34
415.98	1394.96
416.17	1327.08
416.36	1301.34
416.55	1217.08
416.74	1179.63
416.93	1280.27
417.12	1188.99
417.31	1207.72
417.50	1177.29
417.69	1313.04
417.88	1313.04
418.07	1188.99
418.26	1277.93
418.45	1233.46
418.64	1343.47
418.83	1324.74
419.02	1308.36
419.21	1277.93
419.39	1303.68
419.58	1245.16
419.77	1231.12
419.96	1268.57
420.15	1376.24
420.34	1350.49
420.53	1416.02
420.72	1397.30
420.91	1404.32
421.10	1352.83
421.29	1474.54
421.48	1299.00
421.67	1416.02
421.86	1392.62
422.05	1228.78
422.24	1130.48
422.43	1231.12
422.61	1217.08
422.80	1291.98
422.99	1327.08
423.18	1336.45
423.37	1261.55
423.56	1352.83
423.75	1299.00
423.94	1301.34
424.13	1249.85
424.32	1289.64
424.50	1163.25
424.69	1249.85
424.88	1280.27
425.07	1245.16
425.26	1263.89
425.45	1242.82
425.64	1228.78
425.83	1111.75
426.01	1247.51
426.20	1315.38
426.39	1210.06
426.58	1181.97
426.77	1132.82
426.96	1196.01
427.15	1153.88
427.33	1261.55
427.52	1263.89
427.71	1256.87
427.90	1313.04
428.09	1256.87
428.28	1142.18
428.46	1165.59
428.65	1086.01
428.84	1242.82
429.03	1224.10
429.22	1146.86
429.40	1004.09
429.59	978.34
429.78	891.74
429.97	873.02
430.16	875.36
430.34	1001.75
430.53	980.68
430.72	976.00
430.91	1055.58
431.10	1224.10
431.28	1320.06
431.47	1401.98
431.66	1380.92
431.85	1303.68
432.03	1221.76
432.22	1336.45
432.41	1263.89
432.60	1371.55
432.79	1324.74
432.97	1439.43
433.16	1336.45
433.35	1294.32
433.54	1184.31
433.72	1205.38
433.91	1256.87
434.10	1404.32
434.28	1387.94
434.47	1511.99
434.66	1472.20
434.85	1397.30
435.03	1507.30
435.22	1748.38
435.41	2143.93
435.59	2232.87
435.78	1989.46
435.97	1818.60
436.16	1699.23
436.34	1554.12
436.53	1474.54
436.72	1509.65
436.90	1439.43
437.09	1451.13
437.28	1462.83
437.46	1467.52
437.65	1425.39
437.84	1352.83
438.02	1198.35
438.21	1306.02
438.40	1313.04
438.58	1420.71
438.77	1460.49
438.96	1413.68
439.14	1430.07
439.33	1460.49
439.52	1575.18
439.70	1509.65
439.89	1479.22
440.08	1486.24
440.26	1495.60
440.45	1448.79
440.63	1540.07
440.82	1664.12
441.01	1610.29
441.19	1495.60
441.38	1629.01
441.57	1666.46
441.75	1849.02
441.94	1732.00
442.12	1717.95
442.31	1741.36
442.50	1647.74
442.68	1640.72
442.87	1678.16
443.05	1584.54
443.24	1692.21
443.43	1774.13
443.61	1720.29
443.80	1799.87
443.98	1579.86
444.17	1708.59
444.35	1788.17
444.54	1813.92
444.73	1701.57
444.91	1734.34
445.10	1633.69
445.28	1589.22
445.47	1629.01
445.65	1521.35
445.84	1511.99
446.02	1652.42
446.21	1734.34
446.39	1652.42
446.58	1753.06
446.77	1732.00
446.95	1682.85
447.14	1739.02
447.32	1898.17
447.51	1853.70
447.69	1792.85
447.88	1748.38
448.06	1647.74
448.25	1734.34
448.43	1788.17
448.62	1636.03
448.80	1717.95
448.99	1755.40
449.17	1764.76
449.36	1680.50
449.54	1823.28
449.73	1781.15
449.91	1980.09
450.10	1844.34
450.28	1973.07
450.46	1898.17
450.65	1933.28
450.83	1863.07
451.02	1811.57
451.20	1923.92
451.39	1886.47
451.57	1863.07
451.76	1799.87
451.94	1933.28
452.13	1874.77
452.31	1792.85
452.49	1710.93
452.68	1565.82
452.86	1722.63
453.05	1785.83
453.23	1757.74
453.42	1739.02
453.60	1860.73
453.78	1706.25
453.97	1830.30
454.15	1734.34
454.34	1778.81
454.52	1746.04
454.70	1706.25
454.89	1818.60
455.07	1727.32
455.26	1818.60
455.44	1767.10
455.62	1858.39
455.81	1839.66
455.99	1830.30
456.17	1930.94
456.36	1902.86
456.54	2024.56
456.73	1891.15
456.91	1926.26
457.09	1874.77
457.28	2104.14
457.46	1923.92
457.64	1994.14
457.83	1914.56
458.01	1860.73
458.19	1888.81
458.38	1832.64
458.56	1930.94
458.74	1842.00
458.93	1973.07
459.11	1853.70
459.29	1952.01
459.48	1865.41
459.66	1797.53
459.84	1874.77
460.03	1895.83
460.21	1970.73
460.39	1827.96
460.57	1879.45
460.76	1919.24
460.94	1923.92
461.12	2040.95
461.31	1947.33
461.49	1947.33
461.67	1942.64
461.85	2085.42
462.04	2015.20
462.22	2104.14
462.40	1942.64
462.59	1977.75
462.77	2076.06
462.95	2054.99
463.13	1956.69
463.32	1980.09
463.50	1961.37
463.68	1921.58
463.86	1968.39
464.05	1851.36
464.23	2017.54
464.41	1860.73
464.59	1839.66
464.78	1785.83
464.96	1980.09
465.14	1837.32
465.32	1966.05
465.50	2080.74
465.69	2015.20
465.87	1926.26
466.05	2019.88
466.23	1746.04
466.41	1816.26
466.60	1928.60
466.78	1790.51
466.96	1919.24
467.14	1898.17
467.32	1994.14
467.51	1893.49
467.69	1851.36
467.87	1961.37
468.05	1921.58
468.23	1891.15
468.41	1942.64
468.60	1977.75
468.78	1996.48
468.96	1834.98
469.14	1952.01
469.32	1998.82
469.50	1811.57
469.69	1914.56
469.87	1860.73
470.05	1888.81
470.23	1935.62
470.41	1858.39
470.59	1870.09
470.77	1846.68
470.95	1884.13
471.14	1881.79
471.32	2001.16
471.50	2108.82
471.68	1996.48
471.86	2015.20
472.04	2059.67
472.22	2111.16
472.40	2017.54
472.58	2022.22
472.77	1884.13
472.95	2001.16
473.13	2050.31
473.31	1980.09
473.49	2043.29
473.67	2108.82
473.85	2092.44
474.03	2078.40
474.21	2141.59
474.39	2162.66
474.57	2174.36
474.75	2122.87
474.93	2141.59
475.12	2038.61
475.30	2160.31
475.48	2129.89
475.66	2169.68
475.84	2073.71
476.02	2073.71
476.20	2031.58
476.38	2094.78
476.56	2249.25
476.74	2165.00
476.92	2071.37
477.10	2038.61
477.28	2228.19
477.46	2298.41
477.64	2335.85
477.82	2279.68
478.00	2263.30
478.18	2270.32
478.36	2244.57
478.54	2246.91
478.72	2286.70
478.90	2291.38
479.08	2406.07
479.26	2345.22
479.44	2415.43
479.62	2366.28
479.80	2431.82
479.98	2448.20
480.16	2443.52
480.34	2464.58
480.52	2434.16
480.70	2483.31
480.88	2410.75
481.06	2457.56
481.24	2429.48
481.41	2565.23
481.59	2654.17
481.77	2555.86
481.95	2544.16
482.13	2562.89
482.31	2483.31
482.49	2588.63
482.67	2504.37
482.85	2525.44
483.03	2705.66
483.21	2562.89
483.39	2691.62
483.57	2754.81
483.74	2656.51
483.92	2677.57
484.10	2558.21
484.28	2715.02
484.46	2672.89
484.64	2733.75
484.82	2595.65
485.00	2787.58
485.18	2583.95
485.35	2579.27
485.53	2457.56
485.71	2111.16
485.89	2165.00
486.07	2326.49
486.25	2525.44
486.43	2647.15
486.61	2661.19
486.78	2686.94
486.96	2679.91
487.14	2656.51
487.32	2663.53
487.50	2792.26
487.68	3019.29
487.85	2988.86
488.03	2902.26
488.21	2993.55
488.39	3016.95
488.57	2825.03
488.75	2808.64
488.92	3152.70
489.10	3145.68
489.28	3255.69
489.46	3105.89
489.64	3105.89
489.81	3300.16
489.99	3197.17
490.17	3063.76
490.35	3246.32
490.53	3138.66
490.70	3105.89
490.88	3164.40
491.06	3260.37
491.24	3225.26
491.41	3059.08
491.59	2939.71
491.77	2853.11
491.95	3056.74
492.13	3115.25
492.30	3096.53
492.48	3424.20
492.66	3365.69
492.84	3276.75
493.01	3246.32
493.19	3143.34
493.37	3370.37
493.54	3253.34
493.72	3187.81
493.90	3499.10
494.08	3468.67
494.25	3482.72
494.43	3611.45
494.61	3503.78
494.79	3471.01
494.96	3513.14
495.14	3492.08
495.32	3428.88
495.49	3187.81
495.67	3597.40
495.85	3478.04
496.02	3613.79
496.20	3538.89
496.38	3623.15
496.55	3527.19
496.73	3613.79
496.91	3592.72
497.09	3531.87
497.26	3672.30
497.44	3648.90
497.62	3559.95
497.79	3510.80
497.97	3412.50
498.14	3485.06
498.32	3571.66
498.50	3478.04
498.67	3754.22
498.85	3585.70
499.03	3531.87
499.20	3747.20
499.38	3541.23
499.56	3655.92
499.73	3627.83
499.91	3552.93
500.08	3529.53
500.26	3234.62
500.44	3346.97
500.61	3559.95
500.79	3400.80
500.97	3529.53
501.14	3426.54
501.32	3524.85
501.49	3421.86
501.67	3396.12
501.84	3400.80
502.02	3454.63
502.20	3330.58
502.37	3499.10
502.55	3506.12
502.72	3524.85
502.90	3571.66
503.07	3529.53
503.25	3454.63
503.43	3382.07
503.60	3286.11
503.78	3206.53
503.95	3197.17
504.13	3475.70
504.30	3632.51
504.48	3566.98
504.65	3595.06
504.83	3442.93
505.01	3728.47
505.18	3651.24
505.36	3595.06
505.53	3737.84
505.71	3707.41
505.88	3655.92
506.06	3674.64
506.23	3662.94
506.41	3585.70
506.58	3684.00
506.76	3583.36
506.93	3513.14
507.11	3569.32
507.28	3440.59
507.46	3463.99
507.63	3461.65
507.81	3513.14
507.98	3513.14
508.16	3548.25
508.33	3674.64
508.50	3847.84
508.68	3702.73
508.85	3978.91
509.03	3838.48
509.20	3978.91
509.38	3648.90
509.55	3653.58
509.73	3737.84
509.90	3702.73
510.08	3707.41
510.25	3779.97
510.42	3634.85
510.60	3735.50
510.77	3684.00
510.95	3829.12
511.12	3889.97
511.30	3889.97
511.47	3934.44
511.64	3974.23
511.82	3976.57
511.99	3824.44
512.17	3634.85
512.34	3754.22
512.51	3775.28
512.69	3768.26
512.86	3854.86
513.04	3859.54
513.21	3712.09
513.38	3665.28
513.56	3751.88
513.73	3604.42
513.90	3754.22
514.08	3686.34
514.25	3735.50
514.43	3714.43
514.60	3810.39
514.77	3632.51
514.95	3765.92
515.12	3808.05
515.29	3761.24
515.47	3775.28
515.64	3845.50
515.81	3852.52
515.99	3796.35
516.16	3653.58
516.33	3361.01
516.51	3119.93
516.68	3131.64
516.85	3035.67
517.03	3155.04
517.20	3276.75
517.37	3613.79
517.54	3730.81
517.72	3761.24
517.89	3349.31
518.06	3082.49
518.24	3234.62
518.41	3449.95
518.58	3548.25
518.75	3625.49
518.93	3620.81
519.10	3506.12
519.27	3515.48
519.45	3756.56
519.62	3838.48
519.79	3854.86
519.96	3847.84
520.14	3770.60
520.31	3740.18
520.48	3744.86
520.65	3812.73
520.83	3866.56
521.00	3978.91
521.17	3712.09
521.34	3754.22
521.52	3812.73
521.69	3826.78
521.86	3805.71
522.03	3929.76
522.20	3735.50
522.38	3609.11
522.55	3545.91
522.72	3740.18
522.89	3707.41
523.07	3871.25
523.24	3901.67
523.41	3875.93
523.58	3960.19
523.75	3873.59
523.92	3971.89
524.10	4102.96
524.27	4074.87
524.44	4039.76
524.61	3967.21
524.78	3983.59
524.96	3868.91
525.13	3927.42
525.30	4011.68
525.47	3990.61
525.64	3922.74
525.81	3857.20
525.98	3775.28
526.16	3555.27
526.33	3431.23
526.50	3447.61
526.67	3351.65
526.84	3403.14
527.01	3590.38
527.18	3543.57
527.36	3735.50
527.53	3815.07
527.70	3803.37
527.87	3747.20
528.04	3918.06
528.21	3796.35
528.38	3957.85
528.55	3943.80
528.72	4173.18
528.89	4156.79
529.07	4102.96
529.24	4007.00
529.41	3798.69
529.58	3861.88
529.75	3847.84
529.92	3847.84
530.09	3831.46
530.26	4117.00
530.43	3803.37
530.60	3983.59
530.77	4077.21
530.94	3964.87
531.11	3995.29
531.28	4065.51
531.46	3967.21
531.63	3875.93
531.80	3803.37
531.97	3950.82
532.14	3927.42
532.31	3691.02
532.48	3550.59
532.65	3620.81
532.82	3707.41
532.99	3861.88
533.16	3866.56
533.33	3887.63
533.50	3943.80
533.67	3681.66
533.84	3777.62
534.01	3784.65
534.18	3843.16
534.35	3908.69
534.52	3733.15
534.69	3948.48
534.86	3817.41
535.03	4039.76
535.20	4051.47
535.37	4018.70
535.54	4105.30
535.71	4147.43
535.88	4056.15
536.05	4140.41
536.22	4032.74
536.38	3920.40
536.55	3829.12
536.72	3700.39
536.89	3691.02
537.06	3829.12
537.23	4053.81
537.40	4161.47
537.57	4021.04
537.74	3934.44
537.91	3880.61
538.08	3976.57
538.25	3948.48
538.42	3988.27
538.59	4049.13
538.75	3920.40
538.92	3892.31
539.09	3850.18
539.26	3868.91
539.43	3934.44
539.60	3779.97
539.77	4007.00
539.94	4063.17
540.11	3786.99
540.28	3866.56
540.44	3962.53
540.61	3892.31
540.78	3915.72
540.95	4241.05
541.12	4374.46
541.29	4367.44
541.46	4528.94
541.62	4601.49
541.79	4524.26
541.96	4327.65
542.13	4180.20
542.30	4376.80
542.47	4442.34
542.63	4117.00
542.80	4257.43
542.97	4308.93
543.14	4243.39
543.31	4217.65
543.48	4428.29
543.64	4601.49
543.81	4479.79
543.98	4379.14
544.15	4234.03
544.32	4334.67
544.48	4306.59
544.65	4395.53
544.82	4409.57
544.99	4278.50
545.16	4344.03
545.32	4245.73
545.49	4744.27
545.66	5685.16
545.83	5804.53
546.00	5657.07
546.16	4812.14
546.33	4493.83
546.50	4184.88
546.67	4264.46
546.83	4379.14
547.00	4332.33
547.17	4046.79
547.34	4072.53
547.50	4009.34
547.67	4086.58
547.84	3978.91
548.00	3997.64
548.17	3981.25
548.34	3857.20
548.51	4021.04
548.67	4109.98
548.84	4112.32
549.01	3918.06
549.18	4004.66
549.34	4072.53
549.51	3929.76
549.68	3978.91
549.84	4011.68
550.01	3812.73
550.18	4074.87
550.34	4011.68
550.51	3857.20
550.68	3948.48
550.84	3892.31
551.01	3845.50
551.18	3775.28
551.34	3953.16
551.51	3878.27
551.68	3796.35
551.84	3983.59
552.01	3920.40
552.18	3770.60
552.34	3770.60
552.51	3597.40
552.68	3522.51
552.84	3496.76
553.01	3824.44
553.18	3758.90
553.34	3660.60
553.51	3754.22
553.67	3812.73
553.84	3880.61
554.01	3878.27
554.17	3796.35
554.34	3672.30
554.51	3658.26
554.67	3742.52
554.84	3698.05
555.00	3709.75
555.17	3569.32
555.33	3733.15
555.50	3733.15
555.67	3613.79
555.83	3779.97
556.00	3648.90
556.16	3801.03
556.33	3536.55
556.50	3478.04
556.66	3564.64
556.83	3543.57
556.99	3435.91
557.16	3562.30
557.32	3524.85
557.49	3566.98
557.65	3574.00
557.82	3569.32
557.98	3506.12
558.15	3524.85
558.32	3410.16
558.48	3386.76
558.65	3323.56
558.81	3482.72
558.98	3506.12
559.14	3517.83
559.31	3499.10
559.47	3627.83
559.64	3405.48
559.80	3447.61
559.97	3339.94
560.13	3440.59
560.30	3468.67
560.46	3597.40
560.63	3564.64
560.79	3637.19
560.96	3555.27
561.12	3478.04
561.29	3417.18
561.45	3307.18
561.61	3307.18
561.78	3520.17
561.94	3389.10
562.11	3330.58
562.27	3365.69
562.44	3377.39
562.60	3482.72
562.77	3562.30
562.93	3424.20
563.10	3506.12
563.26	3375.05
563.42	3442.93
563.59	3353.99
563.75	3440.59
563.92	3421.86
564.08	3351.65
564.24	3421.86
564.41	3520.17
564.57	3314.20
564.74	3421.86
564.90	3571.66
565.07	3353.99
565.23	3375.05
565.39	3295.47
565.56	3246.32
565.72	3267.39
565.88	3185.47
566.05	3368.03
566.21	3328.24
566.38	3274.41
566.54	3269.73
566.70	3461.65
566.87	3398.46
567.03	3471.01
567.19	3466.33
567.36	3311.86
567.52	3358.67
567.68	3302.50
567.85	3309.52
568.01	3197.17
568.17	3115.25
568.34	3180.79
568.50	3152.70
568.66	3000.57
568.83	3199.51
568.99	3183.13
569.15	3143.34
569.32	3108.23
569.48	3091.85
569.64	3215.90
569.81	3241.64
569.97	3211.22
570.13	3016.95
570.30	3108.23
570.46	3084.83
570.62	2993.55
570.78	3075.46
570.95	2998.23
571.11	3150.36
571.27	3091.85
571.43	3019.29
571.60	3089.51
571.76	3098.87
571.92	3108.23
572.09	3328.24
572.25	3206.53
572.41	3194.83
572.57	3251.00
572.74	3159.72
572.90	3016.95
573.06	3185.47
573.22	3066.10
573.38	3049.72
573.55	3105.89
573.71	3054.40
573.87	3141.00
574.03	3005.25
574.20	3016.95
574.36	3028.65
574.52	2991.20
574.68	3148.02
574.84	2998.23
575.01	3016.95
575.17	3096.53
575.33	3033.33
575.49	3112.91
575.65	3016.95
575.82	3002.91
575.98	3108.23
576.14	3087.17
576.30	3059.08
576.46	3358.67
576.62	3449.95
576.79	3386.76
576.95	3248.66
577.11	3243.98
577.27	3112.91
577.43	3236.96
577.59	3035.67
577.75	2967.80
577.92	2991.20
578.08	2949.08
578.24	2984.18
578.40	3028.65
578.56	3077.80
578.72	3131.64
578.88	3407.82
579.04	3337.60
579.21	3178.45
579.37	3190.15
579.53	3131.64
579.69	3173.77
579.85	3124.62
580.01	3178.45
580.17	3045.04
580.33	3042.70
580.49	3199.51
580.65	3105.89
580.82	3211.22
580.98	3012.27
581.14	3166.74
581.30	3150.36
581.46	3171.43
581.62	3281.43
581.78	3141.00
581.94	3262.71
582.10	3201.85
582.26	3183.13
582.42	3232.28
582.58	3131.64
582.74	3208.87
582.90	3162.06
583.06	3159.72
583.22	3190.15
583.38	3047.38
583.54	3068.44
583.70	3276.75
583.86	3094.19
584.02	3169.09
584.18	3227.60
584.34	3164.40
584.50	3126.96
584.66	3023.97
584.82	3082.49
584.98	3054.40
585.14	3002.91
585.30	3009.93
585.46	2972.48
585.62	3023.97
585.78	3026.31
585.94	3059.08
586.10	3059.08
586.26	2981.84
586.42	3094.19
586.58	3122.27
586.74	3068.44
586.90	3300.16
587.06	3138.66
587.22	3148.02
587.38	3035.67
587.54	2913.97
587.70	2913.97
587.86	2792.26
588.02	2703.32
588.18	2651.83
588.34	2490.33
588.49	2293.72
588.65	2237.55
588.81	2207.13
588.97	2225.85
589.13	2209.47
589.29	2260.96
589.45	2317.13
589.61	2169.68
589.77	2356.92
589.93	2324.15
590.08	2403.73
590.24	2518.42
590.40	2448.20
590.56	2572.25
590.72	2562.89
590.88	2429.48
591.04	2558.21
591.20	2457.56
591.35	2457.56
591.51	2516.08
591.67	2492.67
591.83	2502.03
591.99	2471.61
592.15	2518.42
592.31	2605.02
592.46	2698.64
592.62	2696.30
592.78	2696.30
592.94	2722.04
593.10	2691.62
593.26	2775.88
593.41	2839.07
593.57	2597.99
593.73	2581.61
593.89	2527.78
594.05	2413.09
594.20	2265.64
594.36	2275.00
594.52	2305.43
594.68	2282.02
594.84	2506.71
594.99	2478.63
595.15	2583.95
595.31	2579.27
595.47	2520.76
595.62	2555.86
595.78	2534.80
595.94	2750.13
596.10	2743.11
596.25	2495.01
596.41	2490.33
596.57	2382.67
596.73	2497.35
596.88	2546.50
597.04	2640.12
597.20	2602.68
597.36	2626.08
597.51	2572.25
597.67	2593.31
597.83	2654.17
597.99	2717.36
598.14	2663.53
598.30	2640.12
