SpectraSuite Data File
++++++++++++++++++++++++++++++++++++
Date: Fri Oct 04 11:42:27 GMT-05:00 2013
User: price-jones
Dark Spectrum Present: No
Reference Spectrum Present: No
Number of Sampled Component Spectra: 1
Spectrometers: USB2+H05261
Integration Time (usec): 100000 (USB2+H05261)
Spectra Averaged: 1 (USB2+H05261)
Boxcar Smoothing: 0 (USB2+H05261)
Correct for Electrical Dark: No (USB2+H05261)
Strobe/Lamp Enabled: No (USB2+H05261)
Correct for Detector Non-linearity: No (USB2+H05261)
Correct for Stray Light: No (USB2+H05261)
Number of Pixels in Processed Spectrum: 2048
>>>>>Begin Processed Spectral Data<<<<<
365.73	32.77
365.92	32.77
366.12	32.77
366.32	0.00
366.52	0.00
366.72	0.00
366.91	0.00
367.11	0.00
367.31	0.00
367.51	0.00
367.70	0.00
367.90	0.00
368.10	0.00
368.30	0.00
368.49	0.00
368.69	0.00
368.89	0.00
369.09	0.00
369.28	11.70
369.48	53.83
369.68	0.00
369.87	18.72
370.07	0.00
370.27	2.34
370.47	30.43
370.66	0.00
370.86	49.15
371.06	159.16
371.25	121.71
371.45	46.81
371.65	105.32
371.84	70.22
372.04	72.56
372.24	187.24
372.44	67.88
372.63	25.75
372.83	156.82
373.03	74.90
373.22	128.73
373.42	86.60
373.62	79.58
373.81	140.43
374.01	131.07
374.21	105.32
374.40	91.28
374.60	86.60
374.79	173.20
374.99	72.56
375.19	84.26
375.38	86.60
375.58	114.69
375.78	147.45
375.97	238.73
376.17	145.11
376.37	121.71
376.56	23.41
376.76	91.28
376.95	95.96
377.15	163.84
377.35	32.77
377.54	177.88
377.74	88.94
377.93	88.94
378.13	117.03
378.33	121.71
378.52	138.09
378.72	138.09
378.91	187.24
379.11	147.45
379.31	51.49
379.50	74.90
379.70	152.13
379.89	105.32
380.09	184.90
380.28	58.51
380.48	95.96
380.68	67.88
380.87	11.70
381.07	133.41
381.26	124.05
381.46	140.43
381.65	74.90
381.85	53.83
382.04	67.88
382.24	149.79
382.43	58.51
382.63	107.66
382.83	77.24
383.02	93.62
383.22	128.73
383.41	147.45
383.61	128.73
383.80	105.32
384.00	60.85
384.19	60.85
384.39	58.51
384.58	91.28
384.78	173.20
384.97	180.22
385.17	88.94
385.36	142.77
385.56	142.77
385.75	28.09
385.95	112.35
386.14	159.16
386.34	79.58
386.53	147.45
386.72	166.18
386.92	79.58
387.11	79.58
387.31	70.22
387.50	128.73
387.70	53.83
387.89	117.03
388.09	124.05
388.28	91.28
388.48	95.96
388.67	126.39
388.86	53.83
389.06	119.37
389.25	77.24
389.45	126.39
389.64	74.90
389.84	145.11
390.03	100.64
390.22	91.28
390.42	166.18
390.61	140.43
390.81	42.13
391.00	124.05
391.19	128.73
391.39	147.45
391.58	126.39
391.78	114.69
391.97	117.03
392.16	133.41
392.36	100.64
392.55	74.90
392.75	88.94
392.94	88.94
393.13	84.26
393.33	51.49
393.52	84.26
393.71	121.71
393.91	149.79
394.10	156.82
394.29	100.64
394.49	77.24
394.68	32.77
394.88	161.50
395.07	145.11
395.26	93.62
395.46	110.01
395.65	93.62
395.84	142.77
396.04	189.58
396.23	138.09
396.42	102.98
396.62	121.71
396.81	14.04
397.00	105.32
397.19	170.86
397.39	102.98
397.58	131.07
397.77	102.98
397.97	119.37
398.16	196.60
398.35	180.22
398.55	88.94
398.74	100.64
398.93	126.39
399.12	149.79
399.32	100.64
399.51	117.03
399.70	25.75
399.90	126.39
400.09	105.32
400.28	145.11
400.47	93.62
400.67	128.73
400.86	145.11
401.05	154.48
401.24	95.96
401.44	138.09
401.63	168.52
401.82	203.63
402.01	81.92
402.21	107.66
402.40	112.35
402.59	224.69
402.78	114.69
402.97	39.79
403.17	154.48
403.36	72.56
403.55	102.98
403.74	84.26
403.93	135.75
404.13	227.03
404.32	229.37
404.51	210.65
404.70	208.31
404.89	147.45
405.09	166.18
405.28	133.41
405.47	114.69
405.66	102.98
405.85	124.05
406.05	131.07
406.24	119.37
406.43	79.58
406.62	124.05
406.81	117.03
407.00	154.48
407.20	117.03
407.39	156.82
407.58	128.73
407.77	128.73
407.96	159.16
408.15	177.88
408.34	170.86
408.54	77.24
408.73	152.13
408.92	117.03
409.11	189.58
409.30	170.86
409.49	119.37
409.68	79.58
409.87	77.24
410.07	77.24
410.26	72.56
410.45	102.98
410.64	119.37
410.83	182.56
411.02	149.79
411.21	121.71
411.40	110.01
411.59	135.75
411.78	147.45
411.98	126.39
412.17	84.26
412.36	77.24
412.55	166.18
412.74	145.11
412.93	168.52
413.12	196.60
413.31	184.90
413.50	161.50
413.69	102.98
413.88	177.88
414.07	131.07
414.26	88.94
414.45	131.07
414.64	98.30
414.83	119.37
415.02	95.96
415.22	112.35
415.41	203.63
415.60	121.71
415.79	102.98
415.98	163.84
416.17	161.50
416.36	67.88
416.55	93.62
416.74	212.99
416.93	208.31
417.12	203.63
417.31	102.98
417.50	65.54
417.69	177.88
417.88	131.07
418.07	114.69
418.26	140.43
418.45	135.75
418.64	224.69
418.83	163.84
419.02	159.16
419.21	210.65
419.39	147.45
419.58	147.45
419.77	140.43
419.96	217.67
420.15	152.13
420.34	131.07
420.53	107.66
420.72	138.09
420.91	88.94
421.10	119.37
421.29	205.97
421.48	161.50
421.67	231.71
421.86	131.07
422.05	177.88
422.24	154.48
422.43	175.54
422.61	63.19
422.80	91.28
422.99	84.26
423.18	86.60
423.37	191.92
423.56	180.22
423.75	133.41
423.94	133.41
424.13	163.84
424.32	98.30
424.50	173.20
424.69	163.84
424.88	159.16
425.07	140.43
425.26	212.99
425.45	135.75
425.64	163.84
425.83	126.39
426.01	131.07
426.20	142.77
426.39	133.41
426.58	114.69
426.77	91.28
426.96	159.16
427.15	170.86
427.33	131.07
427.52	163.84
427.71	154.48
427.90	166.18
428.09	65.54
428.28	128.73
428.46	166.18
428.65	154.48
428.84	175.54
429.03	133.41
429.22	138.09
429.40	133.41
429.59	140.43
429.78	194.26
429.97	138.09
430.16	98.30
430.34	168.52
430.53	95.96
430.72	175.54
430.91	156.82
431.10	173.20
431.28	191.92
431.47	159.16
431.66	154.48
431.85	159.16
432.03	138.09
432.22	215.33
432.41	112.35
432.60	187.24
432.79	159.16
432.97	145.11
433.16	117.03
433.35	173.20
433.54	198.95
433.72	227.03
433.91	175.54
434.10	135.75
434.28	93.62
434.47	201.29
434.66	189.58
434.85	201.29
435.03	250.44
435.22	599.18
435.41	1071.97
435.59	1160.91
435.78	795.78
435.97	486.83
436.16	271.50
436.34	140.43
436.53	177.88
436.72	262.14
436.90	161.50
437.09	110.01
437.28	72.56
437.46	114.69
437.65	210.65
437.84	201.29
438.02	110.01
438.21	227.03
438.40	107.66
438.58	147.45
438.77	149.79
438.96	163.84
439.14	149.79
439.33	173.20
439.52	140.43
439.70	166.18
439.89	102.98
440.08	156.82
440.26	149.79
440.45	168.52
440.63	145.11
440.82	163.84
441.01	119.37
441.19	163.84
441.38	208.31
441.57	248.10
441.75	231.71
441.94	138.09
442.12	163.84
442.31	147.45
442.50	119.37
442.68	177.88
442.87	145.11
443.05	133.41
443.24	84.26
443.43	215.33
443.61	161.50
443.80	147.45
443.98	159.16
444.17	58.51
444.35	184.90
444.54	133.41
444.73	140.43
444.91	210.65
445.10	98.30
445.28	147.45
445.47	93.62
445.65	182.56
445.84	140.43
446.02	161.50
446.21	152.13
446.39	102.98
446.58	107.66
446.77	102.98
446.95	95.96
447.14	163.84
447.32	147.45
447.51	124.05
447.69	147.45
447.88	177.88
448.06	203.63
448.25	114.69
448.43	217.67
448.62	100.64
448.80	187.24
448.99	205.97
449.17	147.45
449.36	126.39
449.54	222.35
449.73	138.09
449.91	168.52
450.10	182.56
450.28	224.69
450.46	236.39
450.65	196.60
450.83	187.24
451.02	154.48
451.20	210.65
451.39	168.52
451.57	266.82
451.76	131.07
451.94	215.33
452.13	194.26
452.31	264.48
452.49	180.22
452.68	170.86
452.86	170.86
453.05	252.78
453.23	142.77
453.42	107.66
453.60	149.79
453.78	175.54
453.97	198.95
454.15	201.29
454.34	163.84
454.52	198.95
454.70	224.69
454.89	191.92
455.07	102.98
455.26	154.48
455.44	283.20
455.62	159.16
455.81	184.90
455.99	135.75
456.17	124.05
456.36	138.09
456.54	161.50
456.73	126.39
456.91	180.22
457.09	248.10
457.28	217.67
457.46	205.97
457.64	236.39
457.83	166.18
458.01	177.88
458.19	184.90
458.38	95.96
458.56	147.45
458.74	152.13
458.93	159.16
459.11	238.73
459.29	212.99
459.48	191.92
459.66	163.84
459.84	145.11
460.03	292.57
460.21	182.56
460.39	156.82
460.57	191.92
460.76	227.03
460.94	168.52
461.12	259.80
461.31	187.24
461.49	119.37
461.67	135.75
461.85	215.33
462.04	241.08
462.22	341.72
462.40	161.50
462.59	224.69
462.77	112.35
462.95	170.86
463.13	152.13
463.32	161.50
463.50	196.60
463.68	124.05
463.86	131.07
464.05	166.18
464.23	156.82
464.41	184.90
464.59	184.90
464.78	180.22
464.96	93.62
465.14	210.65
465.32	191.92
465.50	147.45
465.69	166.18
465.87	191.92
466.05	74.90
466.23	105.32
466.41	196.60
466.60	215.33
466.78	177.88
466.96	166.18
467.14	205.97
467.32	217.67
467.51	189.58
467.69	194.26
467.87	140.43
468.05	170.86
468.23	264.48
468.41	175.54
468.60	159.16
468.78	210.65
468.96	208.31
469.14	145.11
469.32	168.52
469.50	170.86
469.69	177.88
469.87	205.97
470.05	224.69
470.23	133.41
470.41	117.03
470.59	58.51
470.77	201.29
470.95	177.88
471.14	161.50
471.32	126.39
471.50	147.45
471.68	243.42
471.86	198.95
472.04	191.92
472.22	147.45
472.40	224.69
472.58	124.05
472.77	140.43
472.95	189.58
473.13	203.63
473.31	140.43
473.49	208.31
473.67	128.73
473.85	196.60
474.03	140.43
474.21	168.52
474.39	163.84
474.57	220.01
474.75	177.88
474.93	182.56
475.12	194.26
475.30	98.30
475.48	182.56
475.66	168.52
475.84	236.39
476.02	173.20
476.20	227.03
476.38	163.84
476.56	257.46
476.74	142.77
476.92	163.84
477.10	65.54
477.28	166.18
477.46	224.69
477.64	203.63
477.82	180.22
478.00	159.16
478.18	210.65
478.36	168.52
478.54	257.46
478.72	152.13
478.90	220.01
479.08	259.80
479.26	177.88
479.44	177.88
479.62	149.79
479.80	159.16
479.98	161.50
480.16	217.67
480.34	210.65
480.52	264.48
480.70	229.37
480.88	208.31
481.06	156.82
481.24	175.54
481.41	243.42
481.59	278.52
481.77	227.03
481.95	187.24
482.13	346.40
482.31	241.08
482.49	175.54
482.67	264.48
482.85	334.70
483.03	124.05
483.21	220.01
483.39	156.82
483.57	248.10
483.74	257.46
483.92	290.23
484.10	250.44
484.28	276.18
484.46	407.25
484.64	222.35
484.82	337.04
485.00	278.52
485.18	290.23
485.35	299.59
485.53	297.25
485.71	444.70
485.89	299.59
486.07	271.50
486.25	327.68
486.43	299.59
486.61	308.95
486.78	355.76
486.96	290.23
487.14	332.36
487.32	337.04
487.50	280.86
487.68	266.82
487.85	332.36
488.03	290.23
488.21	386.19
488.39	327.68
488.57	327.68
488.75	337.04
488.92	568.75
489.10	276.18
489.28	294.91
489.46	283.20
489.64	259.80
489.81	388.53
489.99	292.57
490.17	250.44
490.35	425.98
490.53	311.29
490.70	266.82
490.88	358.10
491.06	308.95
491.24	290.23
491.41	322.99
491.59	311.29
491.77	402.57
491.95	308.95
492.13	306.61
492.30	304.27
492.48	229.37
492.66	290.23
492.84	266.82
493.01	315.97
493.19	360.44
493.37	297.25
493.54	243.42
493.72	259.80
493.90	301.93
494.08	208.31
494.25	245.76
494.43	304.27
494.61	273.84
494.79	210.65
494.96	257.46
495.14	276.18
495.32	224.69
495.49	276.18
495.67	327.68
495.85	315.97
496.02	241.08
496.20	306.61
496.38	299.59
496.55	203.63
496.73	276.18
496.91	259.80
497.09	337.04
497.26	234.05
497.44	290.23
497.62	262.14
497.79	255.12
497.97	245.76
498.14	264.48
498.32	255.12
498.50	280.86
498.67	255.12
498.85	311.29
499.03	203.63
499.20	306.61
499.38	280.86
499.56	273.84
499.73	334.70
499.91	290.23
500.08	337.04
500.26	166.18
500.44	271.50
500.61	332.36
500.79	217.67
500.97	187.24
501.14	320.65
501.32	257.46
501.49	250.44
501.67	238.73
501.84	266.82
502.02	227.03
502.20	234.05
502.37	299.59
502.55	236.39
502.72	210.65
502.90	224.69
503.07	322.99
503.25	234.05
503.43	203.63
503.60	276.18
503.78	236.39
503.95	128.73
504.13	180.22
504.30	245.76
504.48	248.10
504.65	280.86
504.83	201.29
505.01	229.37
505.18	262.14
505.36	266.82
505.53	248.10
505.71	287.89
505.88	257.46
506.06	212.99
506.23	196.60
506.41	287.89
506.58	283.20
506.76	208.31
506.93	250.44
507.11	299.59
507.28	262.14
507.46	231.71
507.63	231.71
507.81	210.65
507.98	191.92
508.16	243.42
508.33	231.71
508.50	241.08
508.68	222.35
508.85	236.39
509.03	184.90
509.20	182.56
509.38	287.89
509.55	250.44
509.73	248.10
509.90	308.95
510.08	210.65
510.25	257.46
510.42	189.58
510.60	271.50
510.77	297.25
510.95	294.91
511.12	222.35
511.30	212.99
511.47	278.52
511.64	376.83
511.82	191.92
511.99	243.42
512.17	248.10
512.34	234.05
512.51	315.97
512.69	222.35
512.86	271.50
513.04	255.12
513.21	262.14
513.38	255.12
513.56	212.99
513.73	187.24
513.90	201.29
514.08	236.39
514.25	243.42
514.43	238.73
514.60	257.46
514.77	257.46
514.95	280.86
515.12	145.11
515.29	325.33
515.47	311.29
515.64	259.80
515.81	170.86
515.99	301.93
516.16	259.80
516.33	238.73
516.51	128.73
516.68	170.86
516.85	212.99
517.03	234.05
517.20	224.69
517.37	276.18
517.54	203.63
517.72	252.78
517.89	166.18
518.06	212.99
518.24	276.18
518.41	241.08
518.58	229.37
518.75	133.41
518.93	184.90
519.10	170.86
519.27	191.92
519.45	276.18
519.62	262.14
519.79	187.24
519.96	191.92
520.14	252.78
520.31	294.91
520.48	283.20
520.65	248.10
520.83	252.78
521.00	252.78
521.17	339.38
521.34	304.27
521.52	308.95
521.69	198.95
521.86	217.67
522.03	257.46
522.20	318.31
522.38	278.52
522.55	208.31
522.72	203.63
522.89	262.14
523.07	348.74
523.24	234.05
523.41	245.76
523.58	285.55
523.75	187.24
523.92	220.01
524.10	215.33
524.27	177.88
524.44	255.12
524.61	269.16
524.78	215.33
524.96	290.23
525.13	304.27
525.30	287.89
525.47	297.25
525.64	231.71
525.81	304.27
525.98	231.71
526.16	250.44
526.33	163.84
526.50	196.60
526.67	313.63
526.84	163.84
527.01	194.26
527.18	287.89
527.36	299.59
527.53	205.97
527.70	285.55
527.87	245.76
528.04	255.12
528.21	234.05
528.38	252.78
528.55	231.71
528.72	276.18
528.89	264.48
529.07	273.84
529.24	248.10
529.41	205.97
529.58	217.67
529.75	191.92
529.92	189.58
530.09	322.99
530.26	320.65
530.43	231.71
530.60	308.95
530.77	243.42
530.94	201.29
531.11	266.82
531.28	292.57
531.46	259.80
531.63	297.25
531.80	271.50
531.97	271.50
532.14	236.39
532.31	224.69
532.48	231.71
532.65	322.99
532.82	266.82
532.99	212.99
533.16	259.80
533.33	304.27
533.50	248.10
533.67	299.59
533.84	306.61
534.01	358.10
534.18	234.05
534.35	330.02
534.52	341.72
534.69	339.38
534.86	278.52
535.03	276.18
535.20	285.55
535.37	372.15
535.54	280.86
535.71	280.86
535.88	358.10
536.05	308.95
536.22	252.78
536.38	341.72
536.55	266.82
536.72	351.08
536.89	248.10
537.06	318.31
537.23	330.02
537.40	325.33
537.57	355.76
537.74	404.91
537.91	416.62
538.08	395.55
538.25	362.78
538.42	393.21
538.59	444.70
538.75	433.00
538.92	444.70
539.09	456.40
539.26	435.34
539.43	519.60
539.60	582.79
539.77	615.56
539.94	566.41
540.11	533.64
540.28	671.73
540.44	660.03
540.61	734.93
540.78	795.78
540.95	894.08
541.12	1032.18
541.29	1156.22
541.46	1270.91
541.62	1224.10
541.79	1252.19
541.96	1210.06
542.13	1233.46
542.30	1287.29
542.47	1139.84
542.63	1111.75
542.80	1095.37
542.97	1160.91
543.14	1128.14
543.31	1188.99
543.48	1060.26
543.64	1142.18
543.81	1142.18
543.98	1142.18
544.15	1163.25
544.32	1057.92
544.48	1146.86
544.65	1022.81
544.82	1083.67
544.99	1064.94
545.16	1067.28
545.32	1071.97
545.49	1563.48
545.66	2471.61
545.83	3021.63
546.00	2583.95
546.16	1877.11
546.33	1406.66
546.50	1053.24
546.67	954.94
546.83	823.87
547.00	854.30
547.17	725.57
547.34	737.27
547.50	746.63
547.67	753.65
547.84	606.20
548.00	732.59
548.17	667.05
548.34	739.61
548.51	641.31
548.67	697.48
548.84	589.82
549.01	674.07
549.18	594.50
549.34	629.60
549.51	629.60
549.68	564.07
549.84	517.26
550.01	503.22
550.18	550.03
550.34	571.09
550.51	507.90
550.68	575.77
550.84	440.02
551.01	461.09
551.18	484.49
551.34	437.68
551.51	435.34
551.68	486.83
551.84	493.85
552.01	430.66
552.18	496.19
552.34	440.02
552.51	409.59
552.68	440.02
552.84	411.93
553.01	360.44
553.18	404.91
553.34	341.72
553.51	344.06
553.67	400.23
553.84	369.80
554.01	318.31
554.17	330.02
554.34	313.63
554.51	313.63
554.67	395.55
554.84	390.87
555.00	318.31
555.17	243.42
555.33	266.82
555.50	346.40
555.67	278.52
555.83	290.23
556.00	304.27
556.16	416.62
556.33	266.82
556.50	250.44
556.66	280.86
556.83	259.80
556.99	257.46
557.16	273.84
557.32	304.27
557.49	315.97
557.65	248.10
557.82	290.23
557.98	290.23
558.15	278.52
558.32	264.48
558.48	318.31
558.65	234.05
558.81	245.76
558.98	245.76
559.14	243.42
559.31	271.50
559.47	285.55
559.64	252.78
559.80	287.89
559.97	250.44
560.13	250.44
560.30	243.42
560.46	301.93
560.63	264.48
560.79	238.73
560.96	294.91
561.12	266.82
561.29	273.84
561.45	325.33
561.61	271.50
561.78	255.12
561.94	231.71
562.11	287.89
562.27	280.86
562.44	290.23
562.60	238.73
562.77	222.35
562.93	334.70
563.10	337.04
563.26	227.03
563.42	259.80
563.59	208.31
563.75	243.42
563.92	278.52
564.08	229.37
564.24	250.44
564.41	201.29
564.57	205.97
564.74	278.52
564.90	285.55
565.07	339.38
565.23	250.44
565.39	243.42
565.56	283.20
565.72	236.39
565.88	280.86
566.05	273.84
566.21	304.27
566.38	290.23
566.54	238.73
566.70	266.82
566.87	344.06
567.03	262.14
567.19	276.18
567.36	276.18
567.52	264.48
567.68	234.05
567.85	189.58
568.01	187.24
568.17	212.99
568.34	255.12
568.50	285.55
568.66	210.65
568.83	318.31
568.99	224.69
569.15	304.27
569.32	231.71
569.48	252.78
569.64	252.78
569.81	238.73
569.97	135.75
570.13	222.35
570.30	238.73
570.46	220.01
570.62	262.14
570.78	255.12
570.95	177.88
571.11	285.55
571.27	285.55
571.43	266.82
571.60	248.10
571.76	292.57
571.92	269.16
572.09	262.14
572.25	262.14
572.41	198.95
572.57	243.42
572.74	280.86
572.90	208.31
573.06	238.73
573.22	259.80
573.38	259.80
573.55	245.76
573.71	269.16
573.87	205.97
574.03	243.42
574.20	227.03
574.36	271.50
574.52	306.61
574.68	203.63
574.84	231.71
575.01	236.39
575.17	308.95
575.33	217.67
575.49	266.82
575.65	205.97
575.82	259.80
575.98	269.16
576.14	306.61
576.30	269.16
576.46	486.83
576.62	653.01
576.79	702.16
576.95	613.22
577.11	498.53
577.27	404.91
577.43	337.04
577.59	311.29
577.75	287.89
577.92	273.84
578.08	236.39
578.24	255.12
578.40	313.63
578.56	510.24
578.72	681.10
578.88	774.72
579.04	575.77
579.21	360.44
579.37	444.70
579.53	330.02
579.69	397.89
579.85	379.17
580.01	376.83
580.17	425.98
580.33	262.14
580.49	442.36
580.65	346.40
580.82	290.23
580.98	381.51
581.14	355.76
581.30	372.15
581.46	344.06
581.62	423.64
581.78	397.89
581.94	465.77
582.10	346.40
582.26	374.49
582.42	447.04
582.58	418.96
582.74	442.36
582.90	437.68
583.06	489.17
583.22	411.93
583.38	386.19
583.54	414.27
583.70	505.56
583.86	435.34
584.02	383.85
584.18	390.87
584.34	465.77
584.50	493.85
584.66	409.59
584.82	365.12
584.98	397.89
585.14	386.19
585.30	320.65
585.46	430.66
585.62	381.51
585.78	294.91
585.94	379.17
586.10	390.87
586.26	458.74
586.42	397.89
586.58	442.36
586.74	503.22
586.90	535.98
587.06	622.58
587.22	645.99
587.38	575.77
587.54	465.77
587.70	498.53
587.86	482.15
588.02	444.70
588.18	397.89
588.34	362.78
588.49	351.08
588.65	348.74
588.81	315.97
588.97	304.27
589.13	278.52
589.29	355.76
589.45	327.68
589.61	325.33
589.77	339.38
589.93	264.48
590.08	454.06
590.24	337.04
590.40	358.10
590.56	341.72
590.72	271.50
590.88	374.49
591.04	327.68
591.20	327.68
591.35	360.44
591.51	299.59
591.67	306.61
591.83	407.25
591.99	381.51
592.15	330.02
592.31	418.96
592.46	512.58
592.62	472.79
592.78	456.40
592.94	435.34
593.10	351.08
593.26	433.00
593.41	386.19
593.57	423.64
593.73	388.53
593.89	355.76
594.05	304.27
594.20	304.27
594.36	212.99
594.52	332.36
594.68	257.46
594.84	327.68
594.99	341.72
595.15	236.39
595.31	287.89
595.47	292.57
595.62	372.15
595.78	301.93
595.94	365.12
596.10	332.36
596.25	283.20
596.41	304.27
596.57	294.91
596.73	332.36
596.88	220.01
597.04	353.42
597.20	285.55
597.36	301.93
597.51	252.78
597.67	259.80
597.83	229.37
597.99	355.76
598.14	273.84
598.30	362.78
598.46	381.51
598.61	271.50
598.77	327.68
598.93	341.72
599.09	365.12
599.24	353.42
599.40	414.27
599.56	381.51
599.71	360.44
599.87	407.25
600.03	322.99
600.18	273.84
600.34	301.93
600.50	304.27
600.65	351.08
600.81	365.12
600.97	322.99
601.12	236.39
601.28	283.20
601.44	304.27
601.59	320.65
601.75	266.82
601.91	318.31
602.06	308.95
602.22	297.25
602.37	276.18
602.53	236.39
602.69	273.84
602.84	220.01
603.00	257.46
603.16	241.08
603.31	238.73
603.47	299.59
603.62	215.33
603.78	273.84
603.94	315.97
604.09	294.91
604.25	266.82
604.40	301.93
604.56	248.10
604.71	234.05
604.87	205.97
605.03	212.99
605.18	332.36
605.34	308.95
605.49	311.29
605.65	294.91
605.80	229.37
605.96	299.59
606.12	330.02
606.27	322.99
606.43	215.33
606.58	262.14
606.74	292.57
606.89	358.10
607.05	341.72
607.20	344.06
607.36	355.76
607.51	367.46
607.67	346.40
607.82	318.31
607.98	414.27
608.13	376.83
608.29	351.08
608.44	355.76
608.60	433.00
608.75	517.26
608.91	521.94
609.06	372.15
609.22	505.56
609.37	493.85
609.53	543.00
609.68	631.94
609.84	716.20
609.99	812.17
610.15	877.70
610.30	1238.14
610.46	1313.04
610.61	1584.54
610.76	1921.58
610.92	2326.49
611.07	2726.72
611.23	2771.19
611.38	2544.16
