SpectraSuite Data File
++++++++++++++++++++++++++++++++++++
Date: Fri Oct 04 11:42:00 GMT-05:00 2013
User: price-jones
Dark Spectrum Present: No
Reference Spectrum Present: No
Number of Sampled Component Spectra: 1
Spectrometers: USB2+H05261
Integration Time (usec): 100000 (USB2+H05261)
Spectra Averaged: 1 (USB2+H05261)
Boxcar Smoothing: 0 (USB2+H05261)
Correct for Electrical Dark: No (USB2+H05261)
Strobe/Lamp Enabled: No (USB2+H05261)
Correct for Detector Non-linearity: No (USB2+H05261)
Correct for Stray Light: No (USB2+H05261)
Number of Pixels in Processed Spectrum: 2048
>>>>>Begin Processed Spectral Data<<<<<
365.73	37.45
365.92	37.45
366.12	37.45
366.32	0.00
366.52	0.00
366.72	0.00
366.91	0.00
367.11	0.00
367.31	0.00
367.51	0.00
367.70	0.00
367.90	0.00
368.10	0.00
368.30	0.00
368.49	0.00
368.69	0.00
368.89	0.00
369.09	0.00
369.28	0.00
369.48	0.00
369.68	0.00
369.87	0.00
370.07	0.00
370.27	32.77
370.47	25.75
370.66	42.13
370.86	23.41
371.06	32.77
371.25	166.18
371.45	84.26
371.65	32.77
371.84	86.60
372.04	91.28
372.24	133.41
372.44	9.36
372.63	70.22
372.83	105.32
373.03	126.39
373.22	23.41
373.42	65.54
373.62	117.03
373.81	168.52
374.01	184.90
374.21	166.18
374.40	142.77
374.60	91.28
374.79	152.13
374.99	166.18
375.19	102.98
375.38	131.07
375.58	177.88
375.78	110.01
375.97	198.95
376.17	93.62
376.37	65.54
376.56	88.94
376.76	102.98
376.95	77.24
377.15	154.48
377.35	102.98
377.54	156.82
377.74	194.26
377.93	154.48
378.13	86.60
378.33	88.94
378.52	135.75
378.72	102.98
378.91	182.56
379.11	121.71
379.31	135.75
379.50	135.75
379.70	147.45
379.89	194.26
380.09	105.32
380.28	88.94
380.48	107.66
380.68	91.28
380.87	170.86
381.07	124.05
381.26	135.75
381.46	159.16
381.65	161.50
381.85	112.35
382.04	74.90
382.24	30.43
382.43	110.01
382.63	86.60
382.83	72.56
383.02	142.77
383.22	177.88
383.41	93.62
383.61	161.50
383.80	128.73
384.00	105.32
384.19	114.69
384.39	140.43
384.58	180.22
384.78	126.39
384.97	91.28
385.17	93.62
385.36	84.26
385.56	67.88
385.75	135.75
385.95	114.69
386.14	93.62
386.34	110.01
386.53	138.09
386.72	133.41
386.92	131.07
387.11	173.20
387.31	135.75
387.50	145.11
387.70	63.19
387.89	273.84
388.09	163.84
388.28	121.71
388.48	133.41
388.67	86.60
388.86	81.92
389.06	133.41
389.25	117.03
389.45	100.64
389.64	84.26
389.84	128.73
390.03	152.13
390.22	93.62
390.42	79.58
390.61	119.37
390.81	95.96
391.00	88.94
391.19	149.79
391.39	156.82
391.58	110.01
391.78	84.26
391.97	135.75
392.16	149.79
392.36	131.07
392.55	149.79
392.75	217.67
392.94	98.30
393.13	128.73
393.33	114.69
393.52	93.62
393.71	147.45
393.91	140.43
394.10	84.26
394.29	70.22
394.49	95.96
394.68	145.11
394.88	119.37
395.07	184.90
395.26	105.32
395.46	126.39
395.65	163.84
395.84	210.65
396.04	203.63
396.23	119.37
396.42	93.62
396.62	138.09
396.81	182.56
397.00	93.62
397.19	114.69
397.39	119.37
397.58	81.92
397.77	105.32
397.97	196.60
398.16	173.20
398.35	121.71
398.55	198.95
398.74	117.03
398.93	138.09
399.12	140.43
399.32	177.88
399.51	180.22
399.70	163.84
399.90	152.13
400.09	191.92
400.28	98.30
400.47	159.16
400.67	119.37
400.86	147.45
401.05	110.01
401.24	194.26
401.44	159.16
401.63	168.52
401.82	163.84
402.01	126.39
402.21	201.29
402.40	217.67
402.59	212.99
402.78	212.99
402.97	203.63
403.17	149.79
403.36	227.03
403.55	390.87
403.74	622.58
403.93	2090.10
404.13	4557.02
404.32	6120.50
404.51	5380.89
404.70	3103.55
404.89	1214.74
405.09	468.11
405.28	229.37
405.47	220.01
405.66	210.65
405.85	180.22
406.05	173.20
406.24	131.07
406.43	154.48
406.62	229.37
406.81	262.14
407.00	383.85
407.20	585.13
407.39	821.53
407.58	840.25
407.77	667.05
407.96	344.06
408.15	264.48
408.34	177.88
408.54	119.37
408.73	147.45
408.92	145.11
409.11	182.56
409.30	217.67
409.49	65.54
409.68	95.96
409.87	163.84
410.07	205.97
410.26	196.60
410.45	126.39
410.64	198.95
410.83	189.58
411.02	166.18
411.21	201.29
411.40	236.39
411.59	238.73
411.78	168.52
411.98	210.65
412.17	287.89
412.36	180.22
412.55	243.42
412.74	250.44
412.93	191.92
413.12	224.69
413.31	255.12
413.50	210.65
413.69	198.95
413.88	257.46
414.07	264.48
414.26	161.50
414.45	184.90
414.64	180.22
414.83	290.23
415.02	215.33
415.22	238.73
415.41	234.05
415.60	243.42
415.79	208.31
415.98	271.50
416.17	156.82
416.36	248.10
416.55	238.73
416.74	166.18
416.93	236.39
417.12	259.80
417.31	276.18
417.50	241.08
417.69	304.27
417.88	243.42
418.07	297.25
418.26	241.08
418.45	231.71
418.64	287.89
418.83	266.82
419.02	297.25
419.21	217.67
419.39	318.31
419.58	212.99
419.77	266.82
419.96	271.50
420.15	266.82
420.34	252.78
420.53	259.80
420.72	215.33
420.91	271.50
421.10	180.22
421.29	259.80
421.48	252.78
421.67	273.84
421.86	238.73
422.05	191.92
422.24	294.91
422.43	252.78
422.61	271.50
422.80	234.05
422.99	252.78
423.18	294.91
423.37	327.68
423.56	313.63
423.75	250.44
423.94	234.05
424.13	234.05
424.32	196.60
424.50	229.37
424.69	306.61
424.88	353.42
425.07	250.44
425.26	255.12
425.45	313.63
425.64	292.57
425.83	292.57
426.01	330.02
426.20	315.97
426.39	322.99
426.58	241.08
426.77	208.31
426.96	299.59
427.15	390.87
427.33	332.36
427.52	365.12
427.71	311.29
427.90	231.71
428.09	255.12
428.28	339.38
428.46	341.72
428.65	257.46
428.84	351.08
429.03	341.72
429.22	320.65
429.40	276.18
429.59	344.06
429.78	318.31
429.97	322.99
430.16	311.29
430.34	341.72
430.53	397.89
430.72	372.15
430.91	400.23
431.10	339.38
431.28	397.89
431.47	367.46
431.66	344.06
431.85	330.02
432.03	348.74
432.22	465.77
432.41	379.17
432.60	411.93
432.79	409.59
432.97	376.83
433.16	437.68
433.35	470.45
433.54	514.92
433.72	524.28
433.91	613.22
434.10	610.88
434.28	774.72
434.47	889.40
434.66	997.07
434.85	1158.57
435.03	3124.62
435.22	11653.53
435.41	26724.24
435.59	27974.08
435.78	17804.46
435.97	8784.03
436.16	3489.74
436.34	1135.16
436.53	765.36
436.72	599.18
436.90	617.90
437.09	524.28
437.28	463.43
437.46	507.90
437.65	493.85
437.84	372.15
438.02	470.45
438.21	404.91
438.40	458.74
438.58	454.06
438.77	418.96
438.96	346.40
439.14	493.85
439.33	461.09
439.52	400.23
439.70	383.85
439.89	498.53
440.08	479.81
440.26	423.64
440.45	430.66
440.63	470.45
440.82	461.09
441.01	367.46
441.19	379.17
441.38	402.57
441.57	440.02
441.75	461.09
441.94	505.56
442.12	440.02
442.31	486.83
442.50	390.87
442.68	479.81
442.87	414.27
443.05	423.64
443.24	475.13
443.43	496.19
443.61	479.81
443.80	423.64
443.98	358.10
444.17	468.11
444.35	451.72
444.54	524.28
444.73	433.00
444.91	435.34
445.10	421.30
445.28	461.09
445.47	416.62
445.65	421.30
445.84	484.49
446.02	367.46
446.21	367.46
446.39	388.53
446.58	402.57
446.77	437.68
446.95	388.53
447.14	388.53
447.32	475.13
447.51	479.81
447.69	416.62
447.88	372.15
448.06	465.77
448.25	379.17
448.43	397.89
448.62	376.83
448.80	442.36
448.99	376.83
449.17	386.19
449.36	463.43
449.54	465.77
449.73	381.51
449.91	407.25
450.10	423.64
450.28	468.11
450.46	505.56
450.65	362.78
450.83	416.62
451.02	402.57
451.20	372.15
451.39	451.72
451.57	388.53
451.76	468.11
451.94	379.17
452.13	456.40
452.31	372.15
452.49	367.46
452.68	414.27
452.86	369.80
453.05	388.53
453.23	470.45
453.42	395.55
453.60	386.19
453.78	423.64
453.97	339.38
454.15	395.55
454.34	381.51
454.52	407.25
454.70	444.70
454.89	437.68
455.07	428.32
455.26	409.59
455.44	451.72
455.62	442.36
455.81	348.74
455.99	353.42
456.17	388.53
456.36	454.06
456.54	402.57
456.73	402.57
456.91	369.80
457.09	435.34
457.28	540.66
457.46	409.59
457.64	545.34
457.83	454.06
458.01	416.62
458.19	386.19
458.38	404.91
458.56	454.06
458.74	393.21
458.93	423.64
459.11	454.06
459.29	332.36
459.48	454.06
459.66	465.77
459.84	430.66
460.03	465.77
460.21	397.89
460.39	341.72
460.57	409.59
460.76	433.00
460.94	393.21
461.12	383.85
461.31	444.70
461.49	430.66
461.67	435.34
461.85	360.44
462.04	386.19
462.22	828.55
462.40	407.25
462.59	332.36
462.77	358.10
462.95	409.59
463.13	421.30
463.32	388.53
463.50	414.27
463.68	416.62
463.86	454.06
464.05	418.96
464.23	454.06
464.41	395.55
464.59	372.15
464.78	491.51
464.96	400.23
465.14	411.93
465.32	365.12
465.50	397.89
465.69	414.27
465.87	351.08
466.05	404.91
466.23	362.78
466.41	458.74
466.60	444.70
466.78	428.32
466.96	414.27
467.14	456.40
467.32	482.15
467.51	465.77
467.69	472.79
467.87	482.15
468.05	416.62
468.23	447.04
468.41	379.17
468.60	395.55
468.78	461.09
468.96	395.55
469.14	425.98
469.32	451.72
469.50	383.85
469.69	397.89
469.87	362.78
470.05	283.20
470.23	395.55
470.41	351.08
470.59	327.68
470.77	442.36
470.95	397.89
471.14	447.04
471.32	379.17
471.50	421.30
471.68	278.52
471.86	442.36
472.04	355.76
472.22	388.53
472.40	358.10
472.58	421.30
472.77	348.74
472.95	379.17
473.13	458.74
473.31	421.30
473.49	360.44
473.67	315.97
473.85	400.23
474.03	397.89
474.21	423.64
474.39	409.59
474.57	390.87
474.75	365.12
474.93	482.15
475.12	379.17
475.30	360.44
475.48	353.42
475.66	395.55
475.84	402.57
476.02	320.65
476.20	379.17
476.38	355.76
476.56	470.45
476.74	421.30
476.92	397.89
477.10	479.81
477.28	407.25
477.46	383.85
477.64	440.02
477.82	470.45
478.00	407.25
478.18	454.06
478.36	489.17
478.54	447.04
478.72	444.70
478.90	503.22
479.08	430.66
479.26	496.19
479.44	528.96
479.62	519.60
479.80	512.58
479.98	482.15
480.16	510.24
480.34	580.45
480.52	545.34
480.70	596.84
480.88	641.31
481.06	662.37
481.24	678.76
481.41	688.12
481.59	741.95
481.77	788.76
481.95	835.57
482.13	910.47
482.31	961.96
482.49	1086.01
482.67	1076.65
482.85	1130.48
483.03	1238.14
483.21	1217.08
483.39	1378.58
483.57	1401.98
483.74	1551.78
483.92	1483.90
484.10	1643.06
484.28	1750.72
484.46	1888.81
484.64	1888.81
484.82	1905.20
485.00	2108.82
485.18	2179.04
485.35	2345.22
485.53	2452.88
485.71	2649.49
485.89	2679.91
486.07	2600.34
486.25	2787.58
486.43	2726.72
486.61	2782.90
486.78	2682.25
486.96	2768.85
487.14	2729.06
487.32	2703.32
487.50	2574.59
487.68	2665.87
487.85	2682.25
488.03	2651.83
488.21	2565.23
488.39	2534.80
488.57	2450.54
488.75	2434.16
488.92	2698.64
489.10	2417.77
489.28	2284.36
489.46	2195.42
489.64	2190.74
489.81	2190.74
489.99	2188.40
490.17	2200.10
490.35	2190.74
490.53	2136.91
490.70	2036.27
490.88	2078.40
491.06	2237.55
491.24	2279.68
491.41	2319.47
491.59	2169.68
491.77	2090.10
491.95	1996.48
492.13	1987.11
492.30	1827.96
492.48	1888.81
492.66	1727.32
492.84	1844.34
493.01	1729.66
493.19	1809.23
493.37	1722.63
493.54	1708.59
493.72	1783.49
493.90	1666.46
494.08	1603.27
494.25	1638.38
494.43	1612.63
494.61	1596.25
494.79	1664.12
494.96	1437.09
495.14	1530.71
495.32	1521.35
495.49	1554.12
495.67	1516.67
495.85	1392.62
496.02	1425.39
496.20	1308.36
496.38	1437.09
496.55	1359.85
496.73	1308.36
496.91	1352.83
497.09	1352.83
497.26	1306.02
497.44	1240.48
497.62	1249.85
497.79	1270.91
497.97	1210.06
498.14	1167.93
498.32	1086.01
498.50	1158.57
498.67	1048.56
498.85	1018.13
499.03	1100.05
499.20	999.41
499.38	1011.11
499.56	999.41
499.73	947.92
499.91	961.96
500.08	924.51
500.26	903.45
500.44	901.11
500.61	802.80
500.79	983.02
500.97	833.23
501.14	844.93
501.32	734.93
501.49	842.59
501.67	692.80
501.84	732.59
502.02	638.97
502.20	791.10
502.37	678.76
502.55	720.88
502.72	615.56
502.90	699.82
503.07	585.13
503.25	615.56
503.43	596.84
503.60	554.71
503.78	514.92
503.95	573.43
504.13	573.43
504.30	613.22
504.48	554.71
504.65	535.98
504.83	505.56
505.01	512.58
505.18	575.77
505.36	521.94
505.53	482.15
505.71	456.40
505.88	496.19
506.06	458.74
506.23	519.60
506.41	505.56
506.58	491.51
506.76	442.36
506.93	414.27
507.11	414.27
507.28	505.56
507.46	435.34
507.63	435.34
507.81	379.17
507.98	409.59
508.16	372.15
508.33	365.12
508.50	444.70
508.68	379.17
508.85	594.50
509.03	465.77
509.20	456.40
509.38	461.09
509.55	477.47
509.73	388.53
509.90	500.87
510.08	418.96
510.25	496.19
510.42	458.74
510.60	423.64
510.77	416.62
510.95	498.53
511.12	322.99
511.30	458.74
511.47	451.72
511.64	463.43
511.82	411.93
511.99	414.27
512.17	313.63
512.34	444.70
512.51	372.15
512.69	437.68
512.86	507.90
513.04	379.17
513.21	514.92
513.38	362.78
513.56	360.44
513.73	472.79
513.90	348.74
514.08	376.83
514.25	393.21
514.43	437.68
514.60	404.91
514.77	444.70
514.95	372.15
515.12	360.44
515.29	367.46
515.47	369.80
515.64	369.80
515.81	425.98
515.99	456.40
516.16	402.57
516.33	414.27
516.51	414.27
516.68	372.15
516.85	383.85
517.03	372.15
517.20	400.23
517.37	379.17
517.54	407.25
517.72	351.08
517.89	283.20
518.06	334.70
518.24	315.97
518.41	365.12
518.58	472.79
518.75	395.55
518.93	402.57
519.10	301.93
519.27	402.57
519.45	337.04
519.62	360.44
519.79	367.46
519.96	374.49
520.14	351.08
520.31	435.34
520.48	411.93
520.65	465.77
520.83	407.25
521.00	390.87
521.17	379.17
521.34	327.68
521.52	367.46
521.69	308.95
521.86	404.91
522.03	330.02
522.20	372.15
522.38	308.95
522.55	409.59
522.72	308.95
522.89	313.63
523.07	402.57
523.24	411.93
523.41	390.87
523.58	320.65
523.75	341.72
523.92	348.74
524.10	376.83
524.27	404.91
524.44	278.52
524.61	451.72
524.78	351.08
524.96	365.12
525.13	379.17
525.30	383.85
525.47	395.55
525.64	379.17
525.81	400.23
525.98	407.25
526.16	461.09
526.33	379.17
526.50	341.72
526.67	393.21
526.84	381.51
527.01	430.66
527.18	402.57
527.36	489.17
527.53	484.49
527.70	421.30
527.87	491.51
528.04	472.79
528.21	475.13
528.38	409.59
528.55	505.56
528.72	519.60
528.89	470.45
529.07	404.91
529.24	547.69
529.41	461.09
529.58	470.45
529.75	451.72
529.92	503.22
530.09	486.83
530.26	538.32
530.43	500.87
530.60	540.66
530.77	547.69
530.94	519.60
531.11	538.32
531.28	566.41
531.46	524.28
531.63	535.98
531.80	606.20
531.97	681.10
532.14	741.95
532.31	901.11
532.48	957.28
532.65	1020.47
532.82	1303.68
532.99	1486.24
533.16	1727.32
533.33	1781.15
533.50	1469.86
533.67	1273.25
533.84	1212.40
534.01	1074.31
534.18	1015.79
534.35	961.96
534.52	1055.58
534.69	1001.75
534.86	1067.28
535.03	1055.58
535.20	1137.50
535.37	1196.01
535.54	1291.98
535.71	1308.36
535.88	1472.20
536.05	1661.78
536.22	1668.80
536.38	1729.66
536.55	1989.46
536.72	2153.29
536.89	2328.83
537.06	2546.50
537.23	2918.65
537.40	3063.76
537.57	3272.07
537.74	3571.66
537.91	3688.68
538.08	3555.27
538.25	3742.52
538.42	3845.50
538.59	4018.70
538.75	4114.66
538.92	4219.99
539.09	4716.18
539.26	5205.35
539.43	5811.55
539.60	6572.22
539.77	7365.67
539.94	8259.75
540.11	8936.17
540.28	9748.33
540.44	10846.04
540.61	12060.78
540.78	13837.25
540.95	16421.20
541.12	20065.41
541.29	22661.07
541.46	23386.63
541.62	22855.33
541.79	22178.92
541.96	20489.05
542.13	18759.39
542.30	17926.16
542.47	16528.86
542.63	15683.93
542.80	15061.35
542.97	15307.10
543.14	15096.46
543.31	15007.52
543.48	15456.90
543.64	15316.47
543.81	15119.86
543.98	15866.49
544.15	15307.10
544.32	15859.47
544.48	15955.43
544.65	15566.90
544.82	15552.86
544.99	15391.36
545.16	15843.09
545.32	16568.65
545.49	28320.48
545.66	51578.39
545.83	58141.25
546.00	52086.28
546.16	36474.91
546.33	26864.67
546.50	20226.91
546.67	15995.22
546.83	14183.65
547.00	13561.06
547.17	12688.04
547.34	12236.32
547.50	11726.08
547.67	11288.40
547.84	10710.29
548.00	10703.27
548.17	10052.60
548.34	9891.10
548.51	9561.09
548.67	8959.57
548.84	8566.36
549.01	8351.03
549.18	7705.04
549.34	7709.72
549.51	7281.41
549.68	6918.62
549.84	6785.21
550.01	6382.64
550.18	6104.12
550.34	5841.98
550.51	5556.43
550.68	5245.14
550.84	4943.21
551.01	4795.76
551.18	4554.68
551.34	4322.97
551.51	4215.30
551.68	4049.13
551.84	3861.88
552.01	3712.09
552.18	3634.85
552.34	3410.16
552.51	3157.38
552.68	3122.27
552.84	2951.42
553.01	2911.63
553.18	2920.99
553.34	2710.34
553.51	2588.63
553.67	2567.57
553.84	2581.61
554.01	2354.58
554.17	2239.89
554.34	2052.65
554.51	1872.43
554.67	1921.58
554.84	1741.36
555.00	1636.03
555.17	1540.07
555.33	1561.14
555.50	1437.09
555.67	1439.43
555.83	1289.64
556.00	1334.11
556.16	1458.15
556.33	1111.75
556.50	1114.10
556.66	1020.47
556.83	997.07
556.99	1156.22
557.16	1015.79
557.32	978.34
557.49	1004.09
557.65	954.94
557.82	903.45
557.98	889.40
558.15	854.30
558.32	922.17
558.48	887.06
558.65	779.40
558.81	795.78
558.98	770.04
559.14	823.87
559.31	755.99
559.47	814.51
559.64	739.61
559.80	706.84
559.97	725.57
560.13	674.07
560.30	713.86
560.46	760.67
560.63	732.59
560.79	751.31
560.96	744.29
561.12	741.95
561.29	732.59
561.45	741.95
561.61	716.20
561.78	770.04
561.94	690.46
562.11	713.86
562.27	674.07
562.44	629.60
562.60	727.91
562.77	683.44
562.93	732.59
563.10	674.07
563.26	557.05
563.42	667.05
563.59	641.31
563.75	622.58
563.92	702.16
564.08	678.76
564.24	645.99
564.41	617.90
564.57	538.32
564.74	559.39
564.90	601.52
565.07	629.60
565.23	653.01
565.39	566.41
565.56	648.33
565.72	606.20
565.88	543.00
566.05	610.88
566.21	585.13
566.38	575.77
566.54	608.54
566.70	580.45
566.87	528.96
567.03	550.03
567.19	566.41
567.36	552.37
567.52	650.67
567.68	617.90
567.85	615.56
568.01	554.71
568.17	575.77
568.34	645.99
568.50	610.88
568.66	582.79
568.83	681.10
568.99	594.50
569.15	634.29
569.32	451.72
569.48	564.07
569.64	468.11
569.81	442.36
569.97	388.53
570.13	547.69
570.30	531.30
570.46	428.32
570.62	454.06
570.78	444.70
570.95	470.45
571.11	472.79
571.27	507.90
571.43	376.83
571.60	400.23
571.76	482.15
571.92	451.72
572.09	393.21
572.25	451.72
572.41	477.47
572.57	411.93
572.74	447.04
572.90	433.00
573.06	449.38
573.22	472.79
573.38	500.87
573.55	561.73
573.71	505.56
573.87	451.72
574.03	496.19
574.20	519.60
574.36	566.41
574.52	528.96
574.68	475.13
574.84	550.03
575.01	559.39
575.17	667.05
575.33	725.57
575.49	678.76
575.65	741.95
575.82	826.21
575.98	861.32
576.14	983.02
576.30	1907.54
576.46	6125.18
576.62	10457.51
576.79	11178.40
576.95	8037.40
577.11	5181.95
577.27	3733.15
577.43	2576.93
577.59	1703.91
577.75	1380.92
577.92	1144.52
578.08	1186.65
578.24	1245.16
578.40	2031.58
578.56	5682.82
578.72	9589.17
578.88	10015.15
579.04	7286.09
579.21	5114.07
579.37	3936.78
579.53	3038.02
579.69	3115.25
579.85	3618.47
580.01	4074.87
580.17	3964.87
580.33	3342.28
580.49	2883.54
580.65	2658.85
580.82	2445.86
580.98	2366.28
581.14	2335.85
581.30	2469.27
581.46	2766.51
581.62	2897.58
581.78	3052.06
581.94	3346.97
582.10	3538.89
582.26	3833.80
582.42	3866.56
582.58	3880.61
582.74	4060.83
582.90	4234.03
583.06	4093.60
583.22	3992.95
583.38	3990.61
583.54	4236.37
583.70	4063.17
583.86	3995.29
584.02	3833.80
584.18	3826.78
584.34	3693.37
584.50	3702.73
584.66	3630.17
584.82	3597.40
584.98	3562.30
585.14	3421.86
585.30	3513.14
585.46	3361.01
585.62	3398.46
585.78	3258.03
585.94	3391.44
586.10	3597.40
586.26	3562.30
586.42	4133.39
586.58	4844.91
586.74	6092.41
586.90	7229.91
587.06	7999.95
587.22	7566.95
587.38	6789.89
587.54	6113.48
587.70	5123.43
587.86	4360.42
588.02	3548.25
588.18	3192.49
588.34	3049.72
588.49	2729.06
588.65	2546.50
588.81	2338.20
588.97	2413.09
589.13	2279.68
589.29	2246.91
589.45	2239.89
589.61	2087.76
589.77	2265.64
589.93	2370.96
590.08	2270.32
590.24	2387.35
590.40	2455.22
590.56	2546.50
590.72	2621.40
590.88	2642.46
591.04	2663.53
591.20	2810.98
591.35	3012.27
591.51	3021.63
591.67	3197.17
591.83	3356.33
591.99	3637.19
592.15	4051.47
592.31	4374.46
592.46	4788.74
592.62	5121.09
592.78	5380.89
592.94	5504.94
593.10	5547.07
593.26	5418.34
593.41	4938.53
593.57	4393.19
593.73	3772.94
593.89	3475.70
594.05	3117.59
594.20	2740.77
594.36	2572.25
594.52	2443.52
594.68	2272.66
594.84	2197.76
594.99	2195.42
595.15	2083.08
595.31	2019.88
595.47	2071.37
595.62	2001.16
595.78	2071.37
595.94	1998.82
596.10	1998.82
596.25	2045.63
596.41	2106.48
596.57	1970.73
596.73	2071.37
596.88	2010.52
597.04	1998.82
597.20	2010.52
597.36	2113.50
597.51	2146.27
597.67	2223.51
597.83	2251.60
597.99	2565.23
598.14	2623.74
598.30	2761.83
598.46	2731.41
598.61	3030.99
598.77	3164.40
598.93	3332.92
599.09	3162.06
599.24	3368.03
599.40	3265.05
599.56	3403.14
599.71	3115.25
599.87	3066.10
600.03	2787.58
600.18	2532.46
600.34	2523.10
600.50	2307.77
600.65	2174.36
600.81	1935.62
600.97	1902.86
601.12	1834.98
601.28	1762.42
601.44	1675.82
601.59	1610.29
601.75	1607.95
601.91	1521.35
602.06	1455.81
602.22	1462.83
602.37	1441.77
602.53	1331.76
602.69	1306.02
602.84	1296.66
603.00	1371.55
603.16	1282.61
603.31	1467.52
603.47	1490.92
603.62	1441.77
603.78	1486.24
603.94	1451.13
604.09	1481.56
604.25	1570.50
604.40	1495.60
604.56	1537.73
604.71	1596.25
604.87	1689.87
605.03	1549.43
605.18	1795.19
605.34	1755.40
605.49	1746.04
605.65	1825.62
