SpectraSuite Data File
++++++++++++++++++++++++++++++++++++
Date: Fri Oct 04 11:41:46 GMT-05:00 2013
User: price-jones
Dark Spectrum Present: No
Reference Spectrum Present: No
Number of Sampled Component Spectra: 1
Spectrometers: USB2+H05261
Integration Time (usec): 100000 (USB2+H05261)
Spectra Averaged: 1 (USB2+H05261)
Boxcar Smoothing: 0 (USB2+H05261)
Correct for Electrical Dark: No (USB2+H05261)
Strobe/Lamp Enabled: No (USB2+H05261)
Correct for Detector Non-linearity: No (USB2+H05261)
Correct for Stray Light: No (USB2+H05261)
Number of Pixels in Processed Spectrum: 2048
>>>>>Begin Processed Spectral Data<<<<<
365.73	51.49
365.92	51.49
366.12	51.49
366.32	0.00
366.52	0.00
366.72	0.00
366.91	0.00
367.11	0.00
367.31	0.00
367.51	0.00
367.70	0.00
367.90	0.00
368.10	0.00
368.30	0.00
368.49	0.00
368.69	0.00
368.89	0.00
369.09	0.00
369.28	0.00
369.48	0.00
369.68	0.00
369.87	0.00
370.07	0.00
370.27	0.00
370.47	0.00
370.66	37.45
370.86	60.85
371.06	79.58
371.25	67.88
371.45	11.70
371.65	53.83
371.84	91.28
372.04	46.81
372.24	140.43
372.44	72.56
372.63	95.96
372.83	159.16
373.03	175.54
373.22	135.75
373.42	117.03
373.62	67.88
373.81	177.88
374.01	124.05
374.21	184.90
374.40	79.58
374.60	154.48
374.79	93.62
374.99	56.17
375.19	187.24
375.38	173.20
375.58	194.26
375.78	168.52
375.97	184.90
376.17	217.67
376.37	142.77
376.56	128.73
376.76	102.98
376.95	196.60
377.15	154.48
377.35	154.48
377.54	107.66
377.74	138.09
377.93	39.79
378.13	86.60
378.33	154.48
378.52	156.82
378.72	196.60
378.91	149.79
379.11	147.45
379.31	110.01
379.50	156.82
379.70	175.54
379.89	173.20
380.09	156.82
380.28	145.11
380.48	182.56
380.68	121.71
380.87	112.35
381.07	112.35
381.26	161.50
381.46	159.16
381.65	88.94
381.85	70.22
382.04	67.88
382.24	145.11
382.43	131.07
382.63	159.16
382.83	138.09
383.02	67.88
383.22	133.41
383.41	107.66
383.61	145.11
383.80	35.11
384.00	121.71
384.19	142.77
384.39	117.03
384.58	149.79
384.78	114.69
384.97	147.45
385.17	131.07
385.36	114.69
385.56	163.84
385.75	86.60
385.95	147.45
386.14	70.22
386.34	91.28
386.53	128.73
386.72	175.54
386.92	156.82
387.11	187.24
387.31	114.69
387.50	35.11
387.70	212.99
387.89	152.13
388.09	67.88
388.28	145.11
388.48	126.39
388.67	154.48
388.86	42.13
389.06	142.77
389.25	65.54
389.45	119.37
389.64	126.39
389.84	163.84
390.03	98.30
390.22	217.67
390.42	245.76
390.61	124.05
390.81	77.24
391.00	124.05
391.19	124.05
391.39	156.82
391.58	168.52
391.78	105.32
391.97	107.66
392.16	110.01
392.36	166.18
392.55	163.84
392.75	86.60
392.94	173.20
393.13	91.28
393.33	105.32
393.52	133.41
393.71	184.90
393.91	180.22
394.10	163.84
394.29	95.96
394.49	84.26
394.68	170.86
394.88	110.01
395.07	156.82
395.26	131.07
395.46	124.05
395.65	124.05
395.84	152.13
396.04	231.71
396.23	70.22
396.42	95.96
396.62	110.01
396.81	126.39
397.00	184.90
397.19	163.84
397.39	145.11
397.58	241.08
397.77	177.88
397.97	119.37
398.16	126.39
398.35	163.84
398.55	205.97
398.74	198.95
398.93	208.31
399.12	234.05
399.32	194.26
399.51	145.11
399.70	177.88
399.90	166.18
400.09	147.45
400.28	215.33
400.47	98.30
400.67	201.29
400.86	102.98
401.05	208.31
401.24	210.65
401.44	194.26
401.63	248.10
401.82	210.65
402.01	182.56
402.21	198.95
402.40	191.92
402.59	145.11
402.78	147.45
402.97	224.69
403.17	238.73
403.36	294.91
403.55	355.76
403.74	692.80
403.93	2113.50
404.13	5689.84
404.32	8542.96
404.51	8372.10
404.70	4968.96
404.89	1863.07
405.09	603.86
405.28	294.91
405.47	266.82
405.66	243.42
405.85	252.78
406.05	245.76
406.24	184.90
406.43	168.52
406.62	203.63
406.81	264.48
407.00	245.76
407.20	716.20
407.39	1130.48
407.58	1160.91
407.77	1034.52
407.96	512.58
408.15	301.93
408.34	234.05
408.54	191.92
408.73	215.33
408.92	215.33
409.11	170.86
409.30	198.95
409.49	236.39
409.68	222.35
409.87	154.48
410.07	262.14
410.26	238.73
410.45	222.35
410.64	227.03
410.83	255.12
411.02	217.67
411.21	210.65
411.40	322.99
411.59	198.95
411.78	217.67
411.98	224.69
412.17	191.92
412.36	217.67
412.55	257.46
412.74	180.22
412.93	290.23
413.12	198.95
413.31	262.14
413.50	229.37
413.69	220.01
413.88	332.36
414.07	294.91
414.26	252.78
414.45	250.44
414.64	346.40
414.83	189.58
415.02	229.37
415.22	231.71
415.41	238.73
415.60	201.29
415.79	154.48
415.98	243.42
416.17	311.29
416.36	308.95
416.55	198.95
416.74	208.31
416.93	311.29
417.12	318.31
417.31	294.91
417.50	327.68
417.69	306.61
417.88	243.42
418.07	215.33
418.26	276.18
418.45	269.16
418.64	327.68
418.83	266.82
419.02	271.50
419.21	283.20
419.39	269.16
419.58	238.73
419.77	297.25
419.96	313.63
420.15	358.10
420.34	234.05
420.53	259.80
420.72	292.57
420.91	341.72
421.10	280.86
421.29	341.72
421.48	322.99
421.67	273.84
421.86	276.18
422.05	308.95
422.24	334.70
422.43	318.31
422.61	383.85
422.80	278.52
422.99	297.25
423.18	297.25
423.37	372.15
423.56	411.93
423.75	313.63
423.94	292.57
424.13	330.02
424.32	301.93
424.50	308.95
424.69	332.36
424.88	330.02
425.07	334.70
425.26	369.80
425.45	383.85
425.64	355.76
425.83	292.57
426.01	411.93
426.20	334.70
426.39	379.17
426.58	313.63
426.77	477.47
426.96	306.61
427.15	346.40
427.33	404.91
427.52	322.99
427.71	489.17
427.90	414.27
428.09	388.53
428.28	423.64
428.46	449.38
428.65	381.51
428.84	322.99
429.03	374.49
429.22	341.72
429.40	395.55
429.59	353.42
429.78	463.43
429.97	400.23
430.16	416.62
430.34	358.10
430.53	477.47
430.72	409.59
430.91	393.21
431.10	365.12
431.28	404.91
431.47	372.15
431.66	493.85
431.85	437.68
432.03	475.13
432.22	486.83
432.41	533.64
432.60	638.97
432.79	404.91
432.97	547.69
433.16	636.63
433.35	645.99
433.54	662.37
433.72	748.97
433.91	697.48
434.10	875.36
434.28	945.58
434.47	1118.78
434.66	1226.44
434.85	1467.52
435.03	3812.73
435.22	13666.39
435.41	34614.18
435.59	42653.92
435.78	28570.92
435.97	14003.43
436.16	5305.99
436.34	1804.55
436.53	1090.69
436.72	837.91
436.90	692.80
437.09	645.99
437.28	596.84
437.46	540.66
437.65	653.01
437.84	566.41
438.02	540.66
438.21	599.18
438.40	524.28
438.58	496.19
438.77	547.69
438.96	629.60
439.14	503.22
439.33	543.00
439.52	479.81
439.70	524.28
439.89	559.39
440.08	636.63
440.26	580.45
440.45	517.26
440.63	514.92
440.82	575.77
441.01	512.58
441.19	512.58
441.38	484.49
441.57	444.70
441.75	514.92
441.94	587.47
442.12	592.16
442.31	552.37
442.50	552.37
442.68	496.19
442.87	498.53
443.05	568.75
443.24	517.26
443.43	580.45
443.61	547.69
443.80	557.05
443.98	535.98
444.17	468.11
444.35	578.11
444.54	552.37
444.73	547.69
444.91	648.33
445.10	533.64
445.28	458.74
445.47	526.62
445.65	540.66
445.84	519.60
446.02	470.45
446.21	561.73
446.39	496.19
446.58	461.09
446.77	514.92
446.95	451.72
447.14	550.03
447.32	559.39
447.51	521.94
447.69	545.34
447.88	486.83
448.06	566.41
448.25	491.51
448.43	484.49
448.62	491.51
448.80	535.98
448.99	533.64
449.17	482.15
449.36	489.17
449.54	557.05
449.73	470.45
449.91	578.11
450.10	557.05
450.28	601.52
450.46	533.64
450.65	543.00
450.83	580.45
451.02	510.24
451.20	514.92
451.39	566.41
451.57	458.74
451.76	491.51
451.94	498.53
452.13	493.85
452.31	547.69
452.49	447.04
452.68	472.79
452.86	500.87
453.05	531.30
453.23	559.39
453.42	496.19
453.60	582.79
453.78	468.11
453.97	498.53
454.15	507.90
454.34	456.40
454.52	479.81
454.70	585.13
454.89	552.37
455.07	493.85
455.26	557.05
455.44	545.34
455.62	528.96
455.81	559.39
455.99	533.64
456.17	578.11
456.36	521.94
456.54	578.11
456.73	514.92
456.91	559.39
457.09	461.09
457.28	568.75
457.46	489.17
457.64	575.77
457.83	482.15
458.01	528.96
458.19	437.68
458.38	442.36
458.56	507.90
458.74	393.21
458.93	440.02
459.11	498.53
459.29	458.74
459.48	500.87
459.66	547.69
459.84	559.39
460.03	589.82
460.21	479.81
460.39	456.40
460.57	507.90
460.76	540.66
460.94	531.30
461.12	550.03
461.31	550.03
461.49	407.25
461.67	479.81
461.85	386.19
462.04	449.38
462.22	952.60
462.40	477.47
462.59	538.32
462.77	470.45
462.95	512.58
463.13	430.66
463.32	533.64
463.50	493.85
463.68	535.98
463.86	496.19
464.05	489.17
464.23	449.38
464.41	535.98
464.59	528.96
464.78	486.83
464.96	444.70
465.14	493.85
465.32	498.53
465.50	461.09
465.69	547.69
465.87	463.43
466.05	425.98
466.23	470.45
466.41	545.34
466.60	596.84
466.78	482.15
466.96	554.71
467.14	589.82
467.32	594.50
467.51	573.43
467.69	514.92
467.87	496.19
468.05	461.09
468.23	444.70
468.41	463.43
468.60	449.38
468.78	493.85
468.96	484.49
469.14	454.06
469.32	355.76
469.50	449.38
469.69	461.09
469.87	442.36
470.05	503.22
470.23	484.49
470.41	552.37
470.59	430.66
470.77	447.04
470.95	425.98
471.14	531.30
471.32	519.60
471.50	547.69
471.68	557.05
471.86	456.40
472.04	456.40
472.22	440.02
472.40	447.04
472.58	554.71
472.77	543.00
472.95	454.06
473.13	655.35
473.31	465.77
473.49	503.22
473.67	475.13
473.85	493.85
474.03	543.00
474.21	486.83
474.39	472.79
474.57	465.77
474.75	608.54
474.93	470.45
475.12	475.13
475.30	538.32
475.48	491.51
475.66	533.64
475.84	491.51
476.02	489.17
476.20	472.79
476.38	514.92
476.56	491.51
476.74	638.97
476.92	479.81
477.10	428.32
477.28	491.51
477.46	547.69
477.64	507.90
477.82	547.69
478.00	456.40
478.18	601.52
478.36	559.39
478.54	524.28
478.72	554.71
478.90	458.74
479.08	566.41
479.26	617.90
479.44	596.84
479.62	596.84
479.80	709.18
479.98	634.29
480.16	645.99
480.34	704.50
480.52	814.51
480.70	746.63
480.88	781.74
481.06	767.70
481.24	784.08
481.41	931.53
481.59	1013.45
481.77	1025.15
481.95	966.64
482.13	1186.65
482.31	1125.80
482.49	1296.66
482.67	1387.94
482.85	1416.02
483.03	1490.92
483.21	1717.95
483.39	1797.53
483.57	1900.52
483.74	2012.86
483.92	2076.06
484.10	2195.42
484.28	2415.43
484.46	2616.72
484.64	2574.59
484.82	2722.04
485.00	2764.17
485.18	2988.86
485.35	3279.09
485.53	3349.31
485.71	3520.17
485.89	3590.38
486.07	3672.30
486.25	3789.33
486.43	3756.56
486.61	3744.86
486.78	3651.24
486.96	3789.33
487.14	3808.05
487.32	4049.13
487.50	3798.69
487.68	3936.78
487.85	3637.19
488.03	3688.68
488.21	3651.24
488.39	3463.99
488.57	3520.17
488.75	3272.07
488.92	3576.34
489.10	3192.49
489.28	3176.11
489.46	3009.93
489.64	3000.57
489.81	2897.58
489.99	2874.18
490.17	2808.64
490.35	2942.05
490.53	2864.82
490.70	2820.35
490.88	2857.79
491.06	2942.05
491.24	3190.15
491.41	3382.07
491.59	3185.47
491.77	2792.26
491.95	2719.70
492.13	2693.96
492.30	2663.53
492.48	2600.34
492.66	2502.03
492.84	2708.00
493.01	2483.31
493.19	2396.71
493.37	2349.90
493.54	2289.04
493.72	2282.02
493.90	2354.58
494.08	2392.03
494.25	2179.04
494.43	2345.22
494.61	2242.23
494.79	2073.71
494.96	2153.29
495.14	2132.23
495.32	2033.93
495.49	1966.05
495.67	1961.37
495.85	1797.53
496.02	1947.33
496.20	1930.94
496.38	1947.33
496.55	1832.64
496.73	1860.73
496.91	1739.02
497.09	1769.44
497.26	1771.79
497.44	1554.12
497.62	1694.55
497.79	1650.08
497.97	1526.03
498.14	1514.33
498.32	1568.16
498.50	1575.18
498.67	1502.62
498.85	1366.87
499.03	1336.45
499.20	1362.19
499.38	1275.59
499.56	1355.17
499.73	1345.81
499.91	1259.21
500.08	1273.25
500.26	1118.78
500.44	1097.71
500.61	1095.37
500.79	1102.39
500.97	1078.99
501.14	1062.60
501.32	1022.81
501.49	1006.43
501.67	866.00
501.84	898.77
502.02	896.43
502.20	870.68
502.37	880.04
502.55	828.55
502.72	791.10
502.90	819.19
503.07	842.59
503.25	767.70
503.43	709.18
503.60	737.27
503.78	688.12
503.95	660.03
504.13	617.90
504.30	723.23
504.48	713.86
504.65	748.97
504.83	683.44
505.01	638.97
505.18	669.39
505.36	681.10
505.53	526.62
505.71	566.41
505.88	704.50
506.06	538.32
506.23	582.79
506.41	543.00
506.58	484.49
506.76	592.16
506.93	533.64
507.11	557.05
507.28	472.79
507.46	510.24
507.63	519.60
507.81	528.96
507.98	538.32
508.16	561.73
508.33	554.71
508.50	554.71
508.68	585.13
508.85	634.29
509.03	559.39
509.20	564.07
509.38	587.47
509.55	543.00
509.73	444.70
509.90	540.66
510.08	535.98
510.25	540.66
510.42	505.56
510.60	519.60
510.77	533.64
510.95	554.71
511.12	535.98
511.30	538.32
511.47	552.37
511.64	526.62
511.82	557.05
511.99	507.90
512.17	559.39
512.34	447.04
512.51	510.24
512.69	498.53
512.86	465.77
513.04	435.34
513.21	447.04
513.38	428.32
513.56	503.22
513.73	463.43
513.90	449.38
514.08	407.25
514.25	402.57
514.43	400.23
514.60	379.17
514.77	444.70
514.95	334.70
515.12	404.91
515.29	430.66
515.47	468.11
515.64	442.36
515.81	486.83
515.99	423.64
516.16	449.38
516.33	416.62
516.51	397.89
516.68	421.30
516.85	437.68
517.03	395.55
517.20	418.96
517.37	372.15
517.54	411.93
517.72	386.19
517.89	376.83
518.06	353.42
518.24	395.55
518.41	390.87
518.58	402.57
518.75	470.45
518.93	397.89
519.10	407.25
519.27	411.93
519.45	493.85
519.62	374.49
519.79	458.74
519.96	369.80
520.14	428.32
520.31	409.59
520.48	465.77
520.65	428.32
520.83	308.95
521.00	376.83
521.17	425.98
521.34	365.12
521.52	390.87
521.69	397.89
521.86	416.62
522.03	334.70
522.20	491.51
522.38	381.51
522.55	367.46
522.72	482.15
522.89	475.13
523.07	519.60
523.24	388.53
523.41	407.25
523.58	353.42
523.75	376.83
523.92	376.83
524.10	393.21
524.27	423.64
524.44	304.27
524.61	444.70
524.78	344.06
524.96	491.51
525.13	458.74
525.30	528.96
525.47	461.09
525.64	479.81
525.81	437.68
525.98	510.24
526.16	486.83
526.33	411.93
526.50	447.04
526.67	421.30
526.84	486.83
527.01	435.34
527.18	503.22
527.36	535.98
527.53	603.86
527.70	601.52
527.87	543.00
528.04	575.77
528.21	493.85
528.38	552.37
528.55	526.62
528.72	543.00
528.89	655.35
529.07	521.94
529.24	566.41
529.41	559.39
529.58	540.66
529.75	566.41
529.92	500.87
530.09	667.05
530.26	601.52
530.43	641.31
530.60	587.47
530.77	582.79
530.94	615.56
531.11	622.58
531.28	685.78
531.46	725.57
531.63	739.61
531.80	835.57
531.97	826.21
532.14	889.40
532.31	964.30
532.48	1174.95
532.65	1327.08
532.82	1589.22
532.99	1966.05
533.16	2179.04
533.33	2396.71
533.50	2211.81
533.67	1944.99
533.84	1607.95
534.01	1486.24
534.18	1245.16
534.35	1188.99
534.52	1308.36
534.69	1390.28
534.86	1448.79
535.03	1406.66
535.20	1437.09
535.37	1629.01
535.54	1680.50
535.71	1820.94
535.88	1741.36
536.05	1959.03
536.22	2211.81
536.38	2363.94
536.55	2499.69
536.72	2789.92
536.89	3080.14
537.06	3503.78
537.23	3887.63
537.40	4255.09
537.57	4564.04
537.74	4711.50
537.91	4875.34
538.08	5221.74
538.25	5294.29
538.42	5313.02
538.59	5451.11
538.75	5514.30
538.92	5846.66
539.09	6333.49
539.26	6967.77
539.43	8105.28
539.60	9212.35
539.77	10078.35
539.94	11475.65
540.11	12641.23
540.28	13802.14
540.44	15183.06
540.61	16697.38
540.78	19180.69
540.95	22712.56
541.12	27379.59
541.29	31307.01
541.46	33125.60
541.62	32856.44
541.79	31999.80
541.96	29544.58
542.13	27213.41
542.30	25551.63
542.47	23768.14
542.63	22820.22
542.80	22052.53
542.97	21598.46
543.14	21392.50
543.31	21530.59
543.48	21326.96
543.64	22068.91
543.81	21687.40
543.98	22026.78
544.15	22260.84
544.32	22284.24
544.48	22253.81
544.65	21893.37
544.82	21537.61
544.99	21741.24
545.16	22611.92
545.32	23271.95
545.49	34862.28
545.66	58031.24
545.83	65535.00
546.00	63664.91
546.16	52072.24
546.33	38565.01
546.50	28772.21
546.67	22895.12
546.83	20273.72
547.00	19122.18
547.17	18017.44
547.34	17455.72
547.50	16802.71
547.67	16231.62
547.84	15398.38
548.00	14572.18
548.17	14361.53
548.34	13923.85
548.51	13341.05
548.67	12734.85
548.84	12442.29
549.01	11513.10
549.18	11019.24
549.34	10626.03
549.51	10150.90
549.68	9863.02
549.84	9268.52
550.01	8814.46
550.18	8489.12
550.34	8161.45
550.51	7595.04
550.68	7358.64
550.84	6920.96
551.01	6810.96
551.18	6171.99
551.34	5841.98
551.51	5591.54
551.68	5310.68
551.84	5268.55
552.01	5088.32
552.18	4873.00
552.34	4802.78
552.51	4681.07
552.68	4337.01
552.84	4194.24
553.01	4002.32
553.18	3960.19
553.34	3801.03
553.51	3655.92
553.67	3515.48
553.84	3496.76
554.01	3187.81
554.17	2897.58
554.34	2710.34
554.51	2619.06
554.67	2562.89
554.84	2244.57
555.00	2293.72
555.17	2202.44
555.33	2099.46
555.50	1895.83
555.67	1851.36
555.83	1720.29
556.00	1650.08
556.16	1715.61
556.33	1671.14
556.50	1511.99
556.66	1409.00
556.83	1523.69
556.99	1416.02
557.16	1387.94
557.32	1385.60
557.49	1327.08
557.65	1219.42
557.82	1224.10
557.98	1130.48
558.15	1177.29
558.32	1184.31
558.48	1163.25
558.65	1104.73
558.81	1032.18
558.98	1158.57
559.14	980.68
559.31	1067.28
559.47	931.53
559.64	952.60
559.80	1008.77
559.97	976.00
560.13	922.17
560.30	945.58
560.46	884.72
560.63	952.60
560.79	929.19
560.96	903.45
561.12	842.59
561.29	917.49
561.45	875.36
561.61	908.13
561.78	973.66
561.94	847.27
562.11	866.00
562.27	919.83
562.44	924.51
562.60	823.87
562.77	833.23
562.93	863.66
563.10	798.12
563.26	809.83
563.42	940.90
563.59	774.72
563.75	758.33
563.92	917.49
564.08	720.88
564.24	812.17
564.41	816.85
564.57	734.93
564.74	709.18
564.90	692.80
565.07	720.88
565.23	772.38
565.39	737.27
565.56	739.61
565.72	669.39
565.88	636.63
566.05	653.01
566.21	727.91
566.38	767.70
566.54	676.41
566.70	744.29
566.87	770.04
567.03	678.76
567.19	844.93
567.36	706.84
567.52	657.69
567.68	690.46
567.85	718.54
568.01	786.42
568.17	713.86
568.34	751.31
568.50	725.57
568.66	753.65
568.83	758.33
568.99	711.52
569.15	781.74
569.32	706.84
569.48	660.03
569.64	615.56
569.81	601.52
569.97	641.31
570.13	615.56
570.30	547.69
570.46	550.03
570.62	507.90
570.78	573.43
570.95	531.30
571.11	531.30
571.27	587.47
571.43	531.30
571.60	613.22
571.76	500.87
571.92	447.04
572.09	477.47
572.25	475.13
572.41	451.72
572.57	535.98
572.74	573.43
572.90	580.45
573.06	521.94
573.22	547.69
573.38	533.64
573.55	606.20
573.71	585.13
573.87	638.97
574.03	638.97
574.20	629.60
574.36	645.99
574.52	660.03
574.68	711.52
574.84	631.94
575.01	741.95
575.17	706.84
575.33	826.21
575.49	758.33
575.65	868.34
575.82	973.66
575.98	1100.05
576.14	1111.75
576.30	2211.81
576.46	6785.21
576.62	14132.15
576.79	16723.13
576.95	11868.86
577.11	7473.33
577.27	5268.55
577.43	3419.52
577.59	2176.70
577.75	1736.68
577.92	1614.97
578.08	1493.26
578.24	1614.97
578.40	2417.77
578.56	6328.81
578.72	12699.75
578.88	15222.84
579.04	11293.08
579.21	7206.51
579.37	5472.17
579.53	4231.69
579.69	3985.93
579.85	4802.78
580.01	5701.54
580.17	5645.37
580.33	4809.80
580.49	4009.34
580.65	3639.53
580.82	3290.79
580.98	3251.00
581.14	3349.31
581.30	3510.80
581.46	3632.51
581.62	3950.82
581.78	4308.93
581.94	4690.43
582.10	4643.62
582.26	5083.64
582.42	5221.74
582.58	5460.47
582.74	5479.19
582.90	5526.00
583.06	5603.24
583.22	5509.62
583.38	5610.26
583.54	5603.24
583.70	5561.11
583.86	5338.76
584.02	5448.77
584.18	5359.83
584.34	5118.75
584.50	5097.69
584.66	4997.04
584.82	4903.42
584.98	4987.68
585.14	4910.44
585.30	4837.89
585.46	4631.92
585.62	4547.66
585.78	4631.92
585.94	4662.35
586.10	4723.20
586.26	4947.89
586.42	5586.86
586.58	6569.88
586.74	8215.28
586.90	9926.21
587.06	10745.40
587.22	10775.83
587.38	9731.95
587.54	8318.26
587.70	7082.46
587.86	5959.00
588.02	5083.64
588.18	4568.73
588.34	4138.07
588.49	3744.86
588.65	3473.36
588.81	3447.61
588.97	3276.75
589.13	3110.57
589.29	3101.21
589.45	3042.70
589.61	3162.06
589.77	3023.97
589.93	3112.91
590.08	3185.47
590.24	3288.45
590.40	3330.58
590.56	3606.77
590.72	3634.85
590.88	3531.87
591.04	3864.22
591.20	3889.97
591.35	4042.11
591.51	4170.83
591.67	4304.25
591.83	4730.22
591.99	5048.54
592.15	5441.75
592.31	6010.50
592.46	6401.37
592.62	7140.97
592.78	7665.25
592.94	7765.90
593.10	7845.48
593.26	7456.95
593.41	6925.65
593.57	6218.80
593.73	5390.25
593.89	4894.06
594.05	4362.76
594.20	3847.84
594.36	3583.36
594.52	3307.18
594.68	3070.78
594.84	3075.46
594.99	3019.29
595.15	2787.58
595.31	2731.41
595.47	2878.86
595.62	2752.47
595.78	2780.56
595.94	2799.28
596.10	2808.64
596.25	2834.39
596.41	2834.39
596.57	2825.03
596.73	2832.05
596.88	2679.91
597.04	2691.62
597.20	2787.58
597.36	2904.60
597.51	3047.38
597.67	2942.05
597.83	3098.87
597.99	3342.28
598.14	3520.17
598.30	3796.35
598.46	3976.57
598.61	4294.88
598.77	4355.74
598.93	4383.82
599.09	4528.94
599.24	4830.87
599.40	4521.92
599.56	4650.64
599.71	4447.02
599.87	4070.19
600.03	3791.67
600.18	3599.74
600.34	3400.80
600.50	3087.17
600.65	3136.32
600.81	2808.64
600.97	2595.65
601.12	2668.21
601.28	2429.48
601.44	2265.64
601.59	2272.66
601.75	2080.74
601.91	1973.07
602.06	1973.07
602.22	1930.94
602.37	1823.28
602.53	1827.96
602.69	1823.28
602.84	1797.53
603.00	1701.57
603.16	1959.03
603.31	1987.11
603.47	1891.15
603.62	2052.65
603.78	2026.90
603.94	1989.46
604.09	2047.97
604.25	2040.95
604.40	2150.95
604.56	2209.47
604.71	2085.42
604.87	2120.53
605.03	2239.89
