SpectraSuite Data File
++++++++++++++++++++++++++++++++++++
Date: Fri Oct 04 11:42:03 GMT-05:00 2013
User: price-jones
Dark Spectrum Present: No
Reference Spectrum Present: No
Number of Sampled Component Spectra: 1
Spectrometers: USB2+H05261
Integration Time (usec): 100000 (USB2+H05261)
Spectra Averaged: 1 (USB2+H05261)
Boxcar Smoothing: 0 (USB2+H05261)
Correct for Electrical Dark: No (USB2+H05261)
Strobe/Lamp Enabled: No (USB2+H05261)
Correct for Detector Non-linearity: No (USB2+H05261)
Correct for Stray Light: No (USB2+H05261)
Number of Pixels in Processed Spectrum: 2048
>>>>>Begin Processed Spectral Data<<<<<
365.73	0.00
365.92	0.00
366.12	0.00
366.32	0.00
366.52	0.00
366.72	14.04
366.91	0.00
367.11	0.00
367.31	0.00
367.51	0.00
367.70	0.00
367.90	0.00
368.10	0.00
368.30	0.00
368.49	0.00
368.69	0.00
368.89	7.02
369.09	0.00
369.28	0.00
369.48	0.00
369.68	0.00
369.87	0.00
370.07	0.00
370.27	39.79
370.47	25.75
370.66	23.41
370.86	58.51
371.06	74.90
371.25	95.96
371.45	65.54
371.65	70.22
371.84	35.11
372.04	131.07
372.24	124.05
372.44	112.35
372.63	91.28
372.83	166.18
373.03	81.92
373.22	107.66
373.42	79.58
373.62	51.49
373.81	135.75
374.01	124.05
374.21	131.07
374.40	166.18
374.60	163.84
374.79	124.05
374.99	126.39
375.19	189.58
375.38	142.77
375.58	93.62
375.78	100.64
375.97	119.37
376.17	227.03
376.37	159.16
376.56	128.73
376.76	93.62
376.95	70.22
377.15	145.11
377.35	138.09
377.54	231.71
377.74	84.26
377.93	65.54
378.13	121.71
378.33	203.63
378.52	156.82
378.72	159.16
378.91	189.58
379.11	86.60
379.31	126.39
379.50	72.56
379.70	189.58
379.89	166.18
380.09	110.01
380.28	77.24
380.48	135.75
380.68	142.77
380.87	81.92
381.07	102.98
381.26	147.45
381.46	152.13
381.65	102.98
381.85	135.75
382.04	98.30
382.24	175.54
382.43	128.73
382.63	149.79
382.83	180.22
383.02	67.88
383.22	180.22
383.41	79.58
383.61	65.54
383.80	112.35
384.00	95.96
384.19	168.52
384.39	91.28
384.58	84.26
384.78	166.18
384.97	74.90
385.17	133.41
385.36	112.35
385.56	114.69
385.75	126.39
385.95	147.45
386.14	138.09
386.34	35.11
386.53	86.60
386.72	93.62
386.92	128.73
387.11	124.05
387.31	86.60
387.50	56.17
387.70	98.30
387.89	51.49
388.09	63.19
388.28	86.60
388.48	149.79
388.67	220.01
388.86	91.28
389.06	133.41
389.25	79.58
389.45	163.84
389.64	133.41
389.84	135.75
390.03	117.03
390.22	121.71
390.42	117.03
390.61	175.54
390.81	177.88
391.00	11.70
391.19	210.65
391.39	145.11
391.58	175.54
391.78	154.48
391.97	86.60
392.16	117.03
392.36	142.77
392.55	128.73
392.75	93.62
392.94	140.43
393.13	128.73
393.33	98.30
393.52	112.35
393.71	163.84
393.91	72.56
394.10	88.94
394.29	131.07
394.49	184.90
394.68	95.96
394.88	182.56
395.07	145.11
395.26	180.22
395.46	114.69
395.65	205.97
395.84	112.35
396.04	187.24
396.23	203.63
396.42	227.03
396.62	117.03
396.81	163.84
397.00	196.60
397.19	145.11
397.39	46.81
397.58	205.97
397.77	18.72
397.97	145.11
398.16	105.32
398.35	117.03
398.55	196.60
398.74	163.84
398.93	220.01
399.12	79.58
399.32	140.43
399.51	215.33
399.70	128.73
399.90	201.29
400.09	180.22
400.28	222.35
400.47	149.79
400.67	177.88
400.86	126.39
401.05	175.54
401.24	166.18
401.44	262.14
401.63	201.29
401.82	175.54
402.01	182.56
402.21	248.10
402.40	205.97
402.59	245.76
402.78	224.69
402.97	276.18
403.17	250.44
403.36	262.14
403.55	393.21
403.74	734.93
403.93	2207.13
404.13	5666.44
404.32	9366.82
404.51	9944.94
404.70	6471.58
404.89	2359.26
405.09	706.84
405.28	330.02
405.47	301.93
405.66	297.25
405.85	252.78
406.05	189.58
406.24	269.16
406.43	198.95
406.62	210.65
406.81	351.08
407.00	351.08
407.20	758.33
407.39	1238.14
407.58	1558.80
407.77	1029.84
407.96	641.31
408.15	290.23
408.34	236.39
408.54	145.11
408.73	250.44
408.92	210.65
409.11	257.46
409.30	175.54
409.49	140.43
409.68	112.35
409.87	191.92
410.07	205.97
410.26	238.73
410.45	135.75
410.64	234.05
410.83	290.23
411.02	149.79
411.21	238.73
411.40	248.10
411.59	229.37
411.78	222.35
411.98	182.56
412.17	191.92
412.36	271.50
412.55	332.36
412.74	262.14
412.93	285.55
413.12	180.22
413.31	259.80
413.50	210.65
413.69	271.50
413.88	264.48
414.07	299.59
414.26	315.97
414.45	212.99
414.64	201.29
414.83	313.63
415.02	292.57
415.22	250.44
415.41	337.04
415.60	280.86
415.79	290.23
415.98	320.65
416.17	287.89
416.36	262.14
416.55	315.97
416.74	259.80
416.93	290.23
417.12	229.37
417.31	259.80
417.50	306.61
417.69	318.31
417.88	273.84
418.07	315.97
418.26	252.78
418.45	311.29
418.64	318.31
418.83	320.65
419.02	255.12
419.21	337.04
419.39	362.78
419.58	250.44
419.77	362.78
419.96	320.65
420.15	400.23
420.34	330.02
420.53	299.59
420.72	372.15
420.91	360.44
421.10	332.36
421.29	351.08
421.48	339.38
421.67	308.95
421.86	297.25
422.05	395.55
422.24	353.42
422.43	374.49
422.61	250.44
422.80	308.95
422.99	383.85
423.18	421.30
423.37	367.46
423.56	325.33
423.75	414.27
423.94	348.74
424.13	278.52
424.32	393.21
424.50	353.42
424.69	372.15
424.88	418.96
425.07	374.49
425.26	322.99
425.45	386.19
425.64	393.21
425.83	402.57
426.01	449.38
426.20	430.66
426.39	444.70
426.58	376.83
426.77	421.30
426.96	348.74
427.15	407.25
427.33	376.83
427.52	418.96
427.71	409.59
427.90	437.68
428.09	430.66
428.28	315.97
428.46	416.62
428.65	411.93
428.84	397.89
429.03	491.51
429.22	407.25
429.40	430.66
429.59	465.77
429.78	414.27
429.97	423.64
430.16	383.85
430.34	372.15
430.53	491.51
430.72	521.94
430.91	437.68
431.10	451.72
431.28	425.98
431.47	559.39
431.66	489.17
431.85	559.39
432.03	559.39
432.22	514.92
432.41	505.56
432.60	564.07
432.79	594.50
432.97	587.47
433.16	660.03
433.35	720.88
433.54	835.57
433.72	891.74
433.91	777.06
434.10	882.38
434.28	1083.67
434.47	1196.01
434.66	1479.22
434.85	1624.33
435.03	3866.56
435.22	13631.28
435.41	36151.91
435.59	49900.22
435.78	37179.41
435.97	16482.05
436.16	6069.01
436.34	2019.88
436.53	1121.12
436.72	912.81
436.90	739.61
437.09	744.29
437.28	674.07
437.46	744.29
437.65	610.88
437.84	606.20
438.02	660.03
438.21	547.69
438.40	608.54
438.58	561.73
438.77	566.41
438.96	585.13
439.14	606.20
439.33	641.31
439.52	585.13
439.70	575.77
439.89	596.84
440.08	573.43
440.26	559.39
440.45	550.03
440.63	627.26
440.82	589.82
441.01	596.84
441.19	533.64
441.38	554.71
441.57	543.00
441.75	512.58
441.94	648.33
442.12	596.84
442.31	550.03
442.50	634.29
442.68	582.79
442.87	702.16
443.05	603.86
443.24	526.62
443.43	582.79
443.61	606.20
443.80	566.41
443.98	547.69
444.17	566.41
444.35	631.94
444.54	535.98
444.73	517.26
444.91	552.37
445.10	545.34
445.28	559.39
445.47	554.71
445.65	599.18
445.84	580.45
446.02	564.07
446.21	540.66
446.39	489.17
446.58	528.96
446.77	566.41
446.95	566.41
447.14	601.52
447.32	615.56
447.51	582.79
447.69	540.66
447.88	531.30
448.06	634.29
448.25	603.86
448.43	601.52
448.62	531.30
448.80	601.52
448.99	545.34
449.17	521.94
449.36	437.68
449.54	550.03
449.73	568.75
449.91	615.56
450.10	596.84
450.28	634.29
450.46	603.86
450.65	596.84
450.83	620.24
451.02	540.66
451.20	561.73
451.39	550.03
451.57	657.69
451.76	599.18
451.94	582.79
452.13	587.47
452.31	578.11
452.49	573.43
452.68	521.94
452.86	538.32
453.05	648.33
453.23	582.79
453.42	606.20
453.60	519.60
453.78	627.26
453.97	564.07
454.15	566.41
454.34	519.60
454.52	587.47
454.70	662.37
454.89	552.37
455.07	585.13
455.26	533.64
455.44	603.86
455.62	624.92
455.81	507.90
455.99	554.71
456.17	566.41
456.36	521.94
456.54	552.37
456.73	533.64
456.91	568.75
457.09	575.77
457.28	552.37
457.46	489.17
457.64	599.18
457.83	613.22
458.01	573.43
458.19	601.52
458.38	484.49
458.56	582.79
458.74	535.98
458.93	594.50
459.11	526.62
459.29	500.87
459.48	564.07
459.66	617.90
459.84	545.34
460.03	615.56
460.21	610.88
460.39	533.64
460.57	606.20
460.76	566.41
460.94	510.24
461.12	585.13
461.31	554.71
461.49	493.85
461.67	477.47
461.85	578.11
462.04	564.07
462.22	1064.94
462.40	547.69
462.59	587.47
462.77	552.37
462.95	566.41
463.13	512.58
463.32	512.58
463.50	564.07
463.68	559.39
463.86	596.84
464.05	627.26
464.23	505.56
464.41	533.64
464.59	603.86
464.78	690.46
464.96	547.69
465.14	517.26
465.32	500.87
465.50	496.19
465.69	538.32
465.87	505.56
466.05	531.30
466.23	437.68
466.41	540.66
466.60	580.45
466.78	566.41
466.96	540.66
467.14	573.43
467.32	622.58
467.51	561.73
467.69	575.77
467.87	512.58
468.05	500.87
468.23	578.11
468.41	383.85
468.60	491.51
468.78	533.64
468.96	507.90
469.14	533.64
469.32	447.04
469.50	425.98
469.69	535.98
469.87	507.90
470.05	538.32
470.23	540.66
470.41	461.09
470.59	535.98
470.77	482.15
470.95	554.71
471.14	594.50
471.32	484.49
471.50	617.90
471.68	517.26
471.86	505.56
472.04	538.32
472.22	554.71
472.40	404.91
472.58	479.81
472.77	606.20
472.95	535.98
473.13	568.75
473.31	624.92
473.49	533.64
473.67	528.96
473.85	547.69
474.03	514.92
474.21	533.64
474.39	601.52
474.57	561.73
474.75	582.79
474.93	484.49
475.12	521.94
475.30	535.98
475.48	559.39
475.66	540.66
475.84	594.50
476.02	489.17
476.20	543.00
476.38	465.77
476.56	617.90
476.74	496.19
476.92	587.47
477.10	505.56
477.28	592.16
477.46	566.41
477.64	617.90
477.82	507.90
478.00	564.07
478.18	636.63
478.36	498.53
478.54	557.05
478.72	615.56
478.90	641.31
479.08	662.37
479.26	662.37
479.44	730.25
479.62	697.48
479.80	704.50
479.98	725.57
480.16	772.38
480.34	730.25
480.52	856.64
480.70	889.40
480.88	901.11
481.06	901.11
481.24	952.60
481.41	1013.45
481.59	1156.22
481.77	1123.46
481.95	1196.01
482.13	1313.04
482.31	1306.02
482.49	1404.32
482.67	1451.13
482.85	1640.72
483.03	1802.21
483.21	1996.48
483.39	2024.56
483.57	2134.57
483.74	2303.09
483.92	2410.75
484.10	2511.39
484.28	2654.17
484.46	2920.99
484.64	2993.55
484.82	3040.36
485.00	3159.72
485.18	3417.18
485.35	3555.27
485.53	3751.88
485.71	3957.85
485.89	4255.09
486.07	4262.12
486.25	4248.07
486.43	4461.06
486.61	4287.86
486.78	4348.72
486.96	4372.12
487.14	4278.50
487.32	4351.06
487.50	4334.67
487.68	4264.46
487.85	4081.89
488.03	4222.33
488.21	4070.19
488.39	3915.72
488.57	4025.72
488.75	3840.82
488.92	3978.91
489.10	3779.97
489.28	3529.53
489.46	3412.50
489.64	3405.48
489.81	3279.09
489.99	3155.04
490.17	3300.16
490.35	3318.88
490.53	3208.87
490.70	3346.97
490.88	3407.82
491.06	3318.88
491.24	3576.34
491.41	3819.75
491.59	3625.49
491.77	3382.07
491.95	3185.47
492.13	3070.78
492.30	2946.73
492.48	2977.16
492.66	2860.13
492.84	2857.79
493.01	2799.28
493.19	2740.77
493.37	2944.39
493.54	2717.36
493.72	2773.53
493.90	2668.21
494.08	2492.67
494.25	2502.03
494.43	2420.11
494.61	2462.24
494.79	2345.22
494.96	2335.85
495.14	2389.69
495.32	2282.02
495.49	2349.90
495.67	2132.23
495.85	2167.34
496.02	2153.29
496.20	2036.27
496.38	2108.82
496.55	2076.06
496.73	1996.48
496.91	1961.37
497.09	1973.07
497.26	1949.67
497.44	1963.71
497.62	1790.51
497.79	1792.85
497.97	1750.72
498.14	1804.55
498.32	1715.61
498.50	1741.36
498.67	1551.78
498.85	1572.84
499.03	1575.18
499.20	1542.41
499.38	1446.45
499.56	1458.15
499.73	1476.88
499.91	1479.22
500.08	1469.86
500.26	1277.93
500.44	1219.42
500.61	1167.93
500.79	1277.93
500.97	1088.35
501.14	1186.65
501.32	1083.67
501.49	1069.62
501.67	1114.10
501.84	959.62
502.02	980.68
502.20	1109.41
502.37	992.39
502.55	947.92
502.72	884.72
502.90	933.87
503.07	884.72
503.25	968.98
503.43	863.66
503.60	791.10
503.78	802.80
503.95	746.63
504.13	777.06
504.30	795.78
504.48	814.51
504.65	720.88
504.83	739.61
505.01	669.39
505.18	641.31
505.36	706.84
505.53	638.97
505.71	592.16
505.88	601.52
506.06	627.26
506.23	561.73
506.41	587.47
506.58	791.10
506.76	620.24
506.93	566.41
507.11	603.86
507.28	554.71
507.46	561.73
507.63	596.84
507.81	566.41
507.98	528.96
508.16	538.32
508.33	575.77
508.50	627.26
508.68	601.52
508.85	641.31
509.03	568.75
509.20	695.14
509.38	571.09
509.55	592.16
509.73	543.00
509.90	566.41
510.08	519.60
510.25	636.63
510.42	559.39
510.60	484.49
510.77	507.90
510.95	578.11
511.12	435.34
511.30	524.28
511.47	463.43
511.64	533.64
511.82	447.04
511.99	458.74
512.17	510.24
512.34	411.93
512.51	538.32
512.69	557.05
512.86	498.53
513.04	470.45
513.21	496.19
513.38	512.58
513.56	444.70
513.73	477.47
513.90	489.17
514.08	449.38
514.25	414.27
514.43	535.98
514.60	421.30
514.77	444.70
514.95	425.98
515.12	428.32
515.29	411.93
515.47	531.30
515.64	428.32
515.81	468.11
515.99	543.00
516.16	451.72
516.33	507.90
516.51	491.51
516.68	430.66
516.85	482.15
517.03	482.15
517.20	437.68
517.37	479.81
517.54	402.57
517.72	470.45
517.89	360.44
518.06	369.80
518.24	437.68
518.41	390.87
518.58	477.47
518.75	341.72
518.93	470.45
519.10	531.30
519.27	416.62
519.45	365.12
519.62	428.32
519.79	421.30
519.96	372.15
520.14	496.19
520.31	355.76
520.48	362.78
520.65	416.62
520.83	393.21
521.00	418.96
521.17	442.36
521.34	365.12
521.52	444.70
521.69	421.30
521.86	379.17
522.03	421.30
522.20	322.99
522.38	365.12
522.55	379.17
522.72	351.08
522.89	393.21
523.07	404.91
523.24	416.62
523.41	418.96
523.58	414.27
523.75	447.04
523.92	393.21
524.10	475.13
524.27	479.81
524.44	423.64
524.61	475.13
524.78	437.68
524.96	472.79
525.13	435.34
525.30	524.28
525.47	493.85
525.64	472.79
525.81	521.94
525.98	482.15
526.16	463.43
526.33	423.64
526.50	477.47
526.67	477.47
526.84	456.40
527.01	454.06
527.18	533.64
527.36	503.22
527.53	578.11
527.70	608.54
527.87	451.72
528.04	620.24
528.21	468.11
528.38	521.94
528.55	498.53
528.72	554.71
528.89	564.07
529.07	610.88
529.24	594.50
529.41	615.56
529.58	582.79
529.75	568.75
529.92	650.67
530.09	613.22
530.26	617.90
530.43	587.47
530.60	596.84
530.77	716.20
530.94	636.63
531.11	835.57
531.28	725.57
531.46	737.27
531.63	741.95
531.80	809.83
531.97	788.76
532.14	1013.45
532.31	1135.16
532.48	1397.30
532.65	1631.35
532.82	1710.93
532.99	2193.08
533.16	2464.58
533.33	2684.59
533.50	2448.20
533.67	2087.76
533.84	1816.26
534.01	1523.69
534.18	1476.88
534.35	1350.49
534.52	1413.68
534.69	1537.73
534.86	1446.45
535.03	1586.88
535.20	1703.91
535.37	1832.64
535.54	1881.79
535.71	1916.90
535.88	2181.38
536.05	2193.08
536.22	2389.69
536.38	2466.92
536.55	2731.41
536.72	3075.46
536.89	3513.14
537.06	3845.50
537.23	4222.33
537.40	4800.44
537.57	5249.82
537.74	5511.96
537.91	5628.99
538.08	5921.56
538.25	5968.37
538.42	5994.11
538.59	6225.82
538.75	6303.06
538.92	6555.84
539.09	7332.90
539.26	7983.57
539.43	9069.58
539.60	10160.27
539.77	11779.92
539.94	13238.07
540.11	14497.28
540.28	15999.90
540.44	17172.51
540.61	19199.41
540.78	21699.11
540.95	25731.85
541.12	31044.87
541.29	35695.51
541.46	38153.07
541.62	37989.24
541.79	36662.15
541.96	34057.14
542.13	31777.45
542.30	29549.26
542.47	27426.40
542.63	26019.74
542.80	24793.29
542.97	24161.35
543.14	24814.36
543.31	24369.66
543.48	24102.84
543.64	24561.58
543.81	25252.04
543.98	25488.43
544.15	25652.27
544.32	25830.15
544.48	25771.64
544.65	25130.33
544.82	24648.18
544.99	24926.71
545.16	25511.84
545.32	26998.08
545.49	38876.30
545.66	59716.43
545.83	65535.00
546.00	65535.00
546.16	61286.93
546.33	44186.97
546.50	33450.94
546.67	26221.02
546.83	23159.60
547.00	22111.04
547.17	20959.50
547.34	20439.90
547.50	19552.84
547.67	18696.20
547.84	17743.60
548.00	17212.30
548.17	16776.96
548.34	15943.73
548.51	15206.46
548.67	14787.50
548.84	14188.33
549.01	13322.33
549.18	12458.67
549.34	12126.32
549.51	11894.60
549.68	10876.47
549.84	10897.53
550.01	10303.04
550.18	9603.22
550.34	9392.57
550.51	8964.25
550.68	8549.98
550.84	7859.52
551.01	7662.91
551.18	7201.83
551.34	6600.31
551.51	6773.51
551.68	6410.73
551.84	6169.65
552.01	5823.25
552.18	5750.70
552.34	5366.85
552.51	5158.54
552.68	4952.57
552.84	4657.67
553.01	4802.78
553.18	4292.54
553.34	4234.03
553.51	4173.18
553.67	4102.96
553.84	3922.74
554.01	3597.40
554.17	3368.03
554.34	3206.53
554.51	2981.84
554.67	2792.26
554.84	2495.01
555.00	2502.03
555.17	2452.88
555.33	2279.68
555.50	2223.51
555.67	2066.69
555.83	2001.16
556.00	1968.39
556.16	2012.86
556.33	1802.21
556.50	1720.29
556.66	1654.76
556.83	1654.76
556.99	1633.69
557.16	1600.93
557.32	1507.30
557.49	1493.26
557.65	1420.71
557.82	1299.00
557.98	1352.83
558.15	1364.53
558.32	1268.57
558.48	1207.72
558.65	1200.69
558.81	1205.38
558.98	1174.95
559.14	1090.69
559.31	1109.41
559.47	1088.35
559.64	1071.97
559.80	1078.99
559.97	1006.43
560.13	1036.86
560.30	985.37
560.46	1121.12
560.63	976.00
560.79	910.47
560.96	1013.45
561.12	947.92
561.29	1053.24
561.45	964.30
561.61	966.64
561.78	1093.03
561.94	1036.86
562.11	992.39
562.27	936.21
562.44	957.28
562.60	978.34
562.77	964.30
562.93	1029.84
563.10	898.77
563.26	910.47
563.42	940.90
563.59	875.36
563.75	870.68
563.92	856.64
564.08	791.10
564.24	842.59
564.41	847.27
564.57	809.83
564.74	788.76
564.90	744.29
565.07	840.25
565.23	770.04
565.39	739.61
565.56	777.06
565.72	732.59
565.88	795.78
566.05	788.76
566.21	746.63
566.38	791.10
566.54	844.93
566.70	856.64
566.87	877.70
567.03	814.51
567.19	856.64
567.36	854.30
567.52	793.44
567.68	807.48
567.85	807.48
568.01	802.80
568.17	716.20
568.34	786.42
568.50	901.11
568.66	751.31
568.83	800.46
568.99	667.05
569.15	760.67
569.32	784.08
569.48	697.48
569.64	648.33
569.81	683.44
569.97	592.16
570.13	674.07
570.30	641.31
570.46	592.16
570.62	524.28
570.78	554.71
570.95	449.38
571.11	615.56
571.27	599.18
571.43	559.39
571.60	528.96
571.76	538.32
571.92	566.41
572.09	557.05
572.25	554.71
572.41	587.47
572.57	587.47
572.74	592.16
572.90	603.86
573.06	578.11
573.22	641.31
573.38	669.39
573.55	629.60
573.71	748.97
573.87	653.01
574.03	671.73
574.20	695.14
574.36	634.29
574.52	706.84
574.68	744.29
574.84	730.25
575.01	744.29
575.17	922.17
575.33	847.27
575.49	1008.77
575.65	1013.45
575.82	959.62
575.98	1205.38
576.14	1214.74
576.30	2321.81
576.46	7440.56
576.62	15337.53
576.79	21362.07
576.95	14649.41
577.11	8741.90
577.27	6012.84
577.43	3854.86
577.59	2485.65
577.75	1996.48
577.92	1870.09
578.08	1795.19
578.24	1732.00
578.40	2588.63
578.56	6684.57
578.72	13715.54
578.88	19517.73
579.04	14171.94
579.21	8596.79
579.37	6061.99
579.53	4667.03
579.69	4290.20
579.85	5458.13
580.01	6635.42
580.17	6464.56
580.33	5769.42
580.49	4681.07
580.65	4161.47
580.82	3740.18
580.98	3641.87
581.14	3655.92
581.30	3941.46
581.46	4135.73
581.62	4393.19
581.78	4760.65
581.94	5298.97
582.10	5579.84
582.26	5746.02
582.42	5991.77
582.58	6160.29
582.74	6338.17
582.90	6181.35
583.06	6399.02
583.22	6382.64
583.38	6420.09
583.54	6443.49
583.70	6387.32
583.86	6349.87
584.02	6134.54
584.18	6050.28
584.34	5916.87
584.50	5879.43
584.66	5804.53
584.82	5771.76
584.98	5731.97
585.14	5617.29
585.30	5458.13
585.46	5486.22
585.62	5207.69
585.78	5338.76
585.94	5170.24
586.10	5214.71
586.26	5701.54
586.42	6370.94
586.58	7508.44
586.74	9268.52
586.90	11253.30
587.06	12741.88
587.22	12898.69
587.38	11445.22
587.54	9933.23
587.70	8241.03
587.86	7005.22
588.02	5935.60
588.18	5231.10
588.34	4727.88
588.49	4360.42
588.65	4058.49
588.81	3784.65
588.97	3847.84
589.13	3529.53
589.29	3651.24
589.45	3445.27
589.61	3435.91
589.77	3611.45
589.93	3595.06
590.08	3520.17
590.24	3653.58
590.40	3786.99
590.56	3964.87
590.72	3974.23
590.88	4100.62
591.04	4248.07
591.20	4411.91
591.35	4734.90
591.51	4877.68
591.67	5064.92
591.83	5336.42
591.99	5811.55
592.15	6169.65
592.31	6745.42
592.46	7564.61
592.62	8189.53
592.78	8753.60
592.94	8997.02
593.10	9076.60
593.26	8465.72
593.41	8016.33
593.57	7220.55
593.73	6296.04
593.89	5643.03
594.05	4858.95
594.20	4559.36
594.36	4025.72
594.52	3625.49
594.68	3538.89
594.84	3391.44
594.99	3435.91
595.15	3300.16
595.31	3398.46
595.47	3173.77
595.62	3052.06
595.78	3136.32
595.94	3180.79
596.10	3164.40
596.25	3122.27
596.41	3187.81
596.57	3190.15
596.73	3035.67
596.88	3077.80
597.04	3068.44
597.20	3145.68
597.36	3119.93
597.51	3262.71
597.67	3414.84
597.83	3541.23
597.99	3709.75
598.14	3948.48
598.30	4168.49
598.46	4477.44
598.61	4739.58
598.77	4854.27
598.93	5219.39
599.09	5270.89
599.24	5233.44
599.40	5359.83
599.56	5219.39
599.71	4784.06
599.87	4865.97
600.03	4435.32
600.18	4194.24
600.34	3918.06
600.50	3648.90
600.65	3478.04
600.81	3349.31
600.97	2923.33
601.12	2806.30
601.28	2696.30
601.44	2614.38
601.59	2527.78
601.75	2464.58
601.91	2298.41
602.06	2228.19
602.22	2272.66
602.37	2172.02
602.53	2045.63
602.69	2085.42
602.84	2054.99
603.00	2062.01
603.16	1980.09
603.31	2071.37
603.47	2176.70
603.62	2167.34
603.78	2263.30
603.94	2291.38
604.09	2246.91
604.25	2401.39
604.40	2317.13
604.56	2455.22
604.71	2459.90
604.87	2478.63
