SpectraSuite Data File
++++++++++++++++++++++++++++++++++++
Date: Fri Oct 04 11:42:23 GMT-05:00 2013
User: price-jones
Dark Spectrum Present: No
Reference Spectrum Present: No
Number of Sampled Component Spectra: 1
Spectrometers: USB2+H05261
Integration Time (usec): 100000 (USB2+H05261)
Spectra Averaged: 1 (USB2+H05261)
Boxcar Smoothing: 0 (USB2+H05261)
Correct for Electrical Dark: No (USB2+H05261)
Strobe/Lamp Enabled: No (USB2+H05261)
Correct for Detector Non-linearity: No (USB2+H05261)
Correct for Stray Light: No (USB2+H05261)
Number of Pixels in Processed Spectrum: 2048
>>>>>Begin Processed Spectral Data<<<<<
365.73	0.00
365.92	0.00
366.12	0.00
366.32	0.00
366.52	0.00
366.72	18.72
366.91	0.00
367.11	0.00
367.31	0.00
367.51	0.00
367.70	0.00
367.90	0.00
368.10	0.00
368.30	0.00
368.49	0.00
368.69	7.02
368.89	0.00
369.09	0.00
369.28	0.00
369.48	0.00
369.68	0.00
369.87	0.00
370.07	0.00
370.27	16.38
370.47	77.24
370.66	152.13
370.86	264.48
371.06	245.76
371.25	208.31
371.45	229.37
371.65	257.46
371.84	184.90
372.04	182.56
372.24	224.69
372.44	250.44
372.63	299.59
372.83	287.89
373.03	231.71
373.22	212.99
373.42	220.01
373.62	210.65
373.81	308.95
374.01	297.25
374.21	220.01
374.40	217.67
374.60	278.52
374.79	330.02
374.99	308.95
375.19	306.61
375.38	304.27
375.58	220.01
375.78	241.08
375.97	271.50
376.17	390.87
376.37	322.99
376.56	379.17
376.76	341.72
376.95	271.50
377.15	327.68
377.35	341.72
377.54	400.23
377.74	372.15
377.93	339.38
378.13	390.87
378.33	376.83
378.52	276.18
378.72	318.31
378.91	269.16
379.11	348.74
379.31	313.63
379.50	299.59
379.70	451.72
379.89	337.04
380.09	308.95
380.28	360.44
380.48	365.12
380.68	332.36
380.87	346.40
381.07	294.91
381.26	379.17
381.46	327.68
381.65	234.05
381.85	278.52
382.04	301.93
382.24	330.02
382.43	210.65
382.63	252.78
382.83	322.99
383.02	292.57
383.22	255.12
383.41	276.18
383.61	325.33
383.80	301.93
384.00	269.16
384.19	306.61
384.39	320.65
384.58	339.38
384.78	313.63
384.97	337.04
385.17	339.38
385.36	304.27
385.56	208.31
385.75	238.73
385.95	278.52
386.14	362.78
386.34	379.17
386.53	315.97
386.72	313.63
386.92	320.65
387.11	264.48
387.31	372.15
387.50	418.96
387.70	325.33
387.89	318.31
388.09	344.06
388.28	379.17
388.48	341.72
388.67	416.62
388.86	395.55
389.06	381.51
389.25	402.57
389.45	475.13
389.64	383.85
389.84	454.06
390.03	367.46
390.22	440.02
390.42	332.36
390.61	390.87
390.81	369.80
391.00	507.90
391.19	503.22
391.39	414.27
391.58	425.98
391.78	423.64
391.97	390.87
392.16	341.72
392.36	315.97
392.55	290.23
392.75	318.31
392.94	227.03
393.13	304.27
393.33	313.63
393.52	306.61
393.71	444.70
393.91	355.76
394.10	325.33
394.29	463.43
394.49	402.57
394.68	468.11
394.88	521.94
395.07	496.19
395.26	465.77
395.46	486.83
395.65	472.79
395.84	414.27
396.04	433.00
396.23	299.59
396.42	344.06
396.62	280.86
396.81	374.49
397.00	418.96
397.19	374.49
397.39	521.94
397.58	503.22
397.77	554.71
397.97	580.45
398.16	491.51
398.35	559.39
398.55	543.00
398.74	620.24
398.93	645.99
399.12	601.52
399.32	589.82
399.51	617.90
399.70	669.39
399.90	610.88
400.09	660.03
400.28	645.99
400.47	554.71
400.67	634.29
400.86	655.35
401.05	711.52
401.24	704.50
401.44	699.82
401.63	622.58
401.82	739.61
402.01	685.78
402.21	744.29
402.40	636.63
402.59	615.56
402.78	678.76
402.97	629.60
403.17	711.52
403.36	683.44
403.55	727.91
403.74	800.46
403.93	765.36
404.13	718.54
404.32	678.76
404.51	681.10
404.70	777.06
404.89	744.29
405.09	755.99
405.28	657.69
405.47	660.03
405.66	692.80
405.85	662.37
406.05	627.26
406.24	629.60
406.43	711.52
406.62	702.16
406.81	781.74
407.00	653.01
407.20	610.88
407.39	751.31
407.58	772.38
407.77	753.65
407.96	723.23
408.15	713.86
408.34	770.04
408.54	807.48
408.73	851.96
408.92	791.10
409.11	819.19
409.30	734.93
409.49	770.04
409.68	692.80
409.87	669.39
410.07	627.26
410.26	737.27
410.45	800.46
410.64	727.91
410.83	720.88
411.02	809.83
411.21	833.23
411.40	800.46
411.59	844.93
411.78	802.80
411.98	826.21
412.17	833.23
412.36	727.91
412.55	791.10
412.74	819.19
412.93	828.55
413.12	767.70
413.31	805.14
413.50	866.00
413.69	908.13
413.88	863.66
414.07	858.98
414.26	807.48
414.45	903.45
414.64	856.64
414.83	877.70
415.02	748.97
415.22	830.89
415.41	861.32
415.60	828.55
415.79	870.68
415.98	978.34
416.17	924.51
416.36	896.43
416.55	875.36
416.74	891.74
416.93	823.87
417.12	858.98
417.31	882.38
417.50	884.72
417.69	866.00
417.88	793.44
418.07	830.89
418.26	929.19
418.45	924.51
418.64	903.45
418.83	889.40
419.02	849.61
419.21	929.19
419.39	924.51
419.58	793.44
419.77	887.06
419.96	812.17
420.15	952.60
420.34	926.85
420.53	880.04
420.72	1095.37
420.91	1032.18
421.10	945.58
421.29	968.98
421.48	887.06
421.67	926.85
421.86	943.24
422.05	896.43
422.24	826.21
422.43	823.87
422.61	880.04
422.80	976.00
422.99	1013.45
423.18	807.48
423.37	894.08
423.56	896.43
423.75	917.49
423.94	905.79
424.13	891.74
424.32	828.55
424.50	854.30
424.69	976.00
424.88	903.45
425.07	870.68
425.26	779.40
425.45	891.74
425.64	751.31
425.83	840.25
426.01	866.00
426.20	954.94
426.39	947.92
426.58	866.00
426.77	828.55
426.96	809.83
427.15	901.11
427.33	866.00
427.52	933.87
427.71	884.72
427.90	861.32
428.09	800.46
428.28	793.44
428.46	870.68
428.65	887.06
428.84	793.44
429.03	882.38
429.22	772.38
429.40	819.19
429.59	667.05
429.78	674.07
429.97	662.37
430.16	660.03
430.34	660.03
430.53	746.63
430.72	631.94
430.91	662.37
431.10	758.33
431.28	940.90
431.47	1086.01
431.66	987.71
431.85	931.53
432.03	880.04
432.22	889.40
432.41	908.13
432.60	992.39
432.79	1043.88
432.97	1015.79
433.16	1039.20
433.35	978.34
433.54	891.74
433.72	943.24
433.91	863.66
434.10	823.87
434.28	1086.01
434.47	1018.13
434.66	1090.69
434.85	950.26
435.03	1067.28
435.22	1217.08
435.41	1383.26
435.59	1418.36
435.78	1313.04
435.97	1107.07
436.16	1076.65
436.34	1006.43
436.53	1078.99
436.72	1163.25
436.90	987.71
437.09	1006.43
437.28	1025.15
437.46	961.96
437.65	973.66
437.84	997.07
438.02	851.96
438.21	933.87
438.40	945.58
438.58	976.00
438.77	950.26
438.96	947.92
439.14	1015.79
439.33	1001.75
439.52	1093.03
439.70	1032.18
439.89	1029.84
440.08	987.71
440.26	1102.39
440.45	1109.41
440.63	1034.52
440.82	1151.54
441.01	1217.08
441.19	1268.57
441.38	1193.67
441.57	1242.82
441.75	1287.29
441.94	1179.63
442.12	1193.67
442.31	1057.92
442.50	1188.99
442.68	1224.10
442.87	1224.10
443.05	1184.31
443.24	1142.18
443.43	1170.27
443.61	1240.48
443.80	1142.18
443.98	1188.99
444.17	1097.71
444.35	1238.14
444.54	1153.88
444.73	1242.82
444.91	1167.93
445.10	1076.65
445.28	1135.16
445.47	1034.52
445.65	1081.33
445.84	1172.61
446.02	1219.42
446.21	1132.82
446.39	1064.94
446.58	1219.42
446.77	1186.65
446.95	1224.10
447.14	1191.33
447.32	1336.45
447.51	1242.82
447.69	1104.73
447.88	1238.14
448.06	1327.08
448.25	1153.88
448.43	1146.86
448.62	1308.36
448.80	1266.23
448.99	1228.78
449.17	1191.33
449.36	1240.48
449.54	1289.64
449.73	1177.29
449.91	1284.95
450.10	1261.55
450.28	1399.64
450.46	1397.30
450.65	1355.17
450.83	1341.13
451.02	1411.34
451.20	1245.16
451.39	1259.21
451.57	1174.95
451.76	1284.95
451.94	1219.42
452.13	1301.34
452.31	1235.80
452.49	1303.68
452.68	1146.86
452.86	1167.93
453.05	1254.53
453.23	1181.97
453.42	1217.08
453.60	1294.32
453.78	1242.82
453.97	1306.02
454.15	1259.21
454.34	1303.68
454.52	1228.78
454.70	1231.12
454.89	1228.78
455.07	1261.55
455.26	1306.02
455.44	1254.53
455.62	1247.51
455.81	1355.17
455.99	1322.40
456.17	1306.02
456.36	1252.19
456.54	1359.85
456.73	1327.08
456.91	1315.38
457.09	1352.83
457.28	1369.21
457.46	1369.21
457.64	1277.93
457.83	1364.53
458.01	1324.74
458.19	1364.53
458.38	1247.51
458.56	1451.13
458.74	1345.81
458.93	1380.92
459.11	1380.92
459.29	1322.40
459.48	1364.53
459.66	1423.05
459.84	1348.15
460.03	1352.83
460.21	1357.51
460.39	1350.49
460.57	1282.61
460.76	1331.76
460.94	1348.15
461.12	1434.75
461.31	1416.02
461.49	1397.30
461.67	1406.66
461.85	1376.24
462.04	1462.83
462.22	1551.78
462.40	1465.18
462.59	1366.87
462.77	1320.06
462.95	1331.76
463.13	1378.58
463.32	1380.92
463.50	1387.94
463.68	1331.76
463.86	1352.83
464.05	1352.83
464.23	1259.21
464.41	1390.28
464.59	1240.48
464.78	1343.47
464.96	1329.42
465.14	1338.79
465.32	1366.87
465.50	1406.66
465.69	1331.76
465.87	1313.04
466.05	1373.89
466.23	1254.53
466.41	1341.13
466.60	1299.00
466.78	1275.59
466.96	1291.98
467.14	1301.34
467.32	1380.92
467.51	1345.81
467.69	1273.25
467.87	1376.24
468.05	1390.28
468.23	1390.28
468.41	1186.65
468.60	1324.74
468.78	1301.34
468.96	1294.32
469.14	1310.70
469.32	1341.13
469.50	1294.32
469.69	1432.41
469.87	1343.47
470.05	1355.17
470.23	1275.59
470.41	1394.96
470.59	1387.94
470.77	1366.87
470.95	1308.36
471.14	1397.30
471.32	1350.49
471.50	1469.86
471.68	1488.58
471.86	1448.79
472.04	1472.20
472.22	1448.79
472.40	1451.13
472.58	1451.13
472.77	1385.60
472.95	1411.34
473.13	1507.30
473.31	1425.39
473.49	1416.02
473.67	1366.87
473.85	1425.39
474.03	1493.26
474.21	1432.41
474.39	1483.90
474.57	1479.22
474.75	1479.22
474.93	1481.56
475.12	1416.02
475.30	1451.13
475.48	1458.15
475.66	1486.24
475.84	1519.01
476.02	1371.55
476.20	1425.39
476.38	1467.52
476.56	1521.35
476.74	1528.37
476.92	1416.02
477.10	1563.48
477.28	1549.43
477.46	1575.18
477.64	1612.63
477.82	1572.84
478.00	1657.10
478.18	1509.65
478.36	1533.05
478.54	1493.26
478.72	1537.73
478.90	1483.90
479.08	1636.03
479.26	1652.42
479.44	1631.35
479.62	1671.14
479.80	1640.72
479.98	1753.06
480.16	1673.48
480.34	1689.87
480.52	1706.25
480.70	1666.46
480.88	1657.10
481.06	1643.06
481.24	1748.38
481.41	1743.70
481.59	1846.68
481.77	1844.34
481.95	1776.47
482.13	1818.60
482.31	1757.74
482.49	1757.74
482.67	1797.53
482.85	1743.70
483.03	1764.76
483.21	1830.30
483.39	1769.44
483.57	1809.23
483.74	1839.66
483.92	1884.13
484.10	1874.77
484.28	1907.54
484.46	2066.69
484.64	1856.04
484.82	1851.36
485.00	1842.00
485.18	1795.19
485.35	1762.42
485.53	1614.97
485.71	1633.69
485.89	1530.71
486.07	1535.39
486.25	1741.36
486.43	1790.51
486.61	1811.57
486.78	1830.30
486.96	1785.83
487.14	1881.79
487.32	1811.57
487.50	2026.90
487.68	1980.09
487.85	2001.16
488.03	1987.11
488.21	2031.58
488.39	2066.69
488.57	2040.95
488.75	1959.03
488.92	2143.93
489.10	2047.97
489.28	2195.42
489.46	2246.91
489.64	2228.19
489.81	2239.89
489.99	2122.87
490.17	2207.13
490.35	2251.60
490.53	2216.49
490.70	2186.06
490.88	2099.46
491.06	2410.75
491.24	2284.36
491.41	2181.38
491.59	2066.69
491.77	1849.02
491.95	2073.71
492.13	2122.87
492.30	2246.91
492.48	2230.53
492.66	2347.56
492.84	2345.22
493.01	2300.75
493.19	2296.07
493.37	2275.00
493.54	2246.91
493.72	2279.68
493.90	2235.21
494.08	2394.37
494.25	2366.28
494.43	2387.35
494.61	2392.03
494.79	2497.35
494.96	2436.50
495.14	2401.39
495.32	2443.52
495.49	2267.98
495.67	2415.43
495.85	2464.58
496.02	2490.33
496.20	2478.63
496.38	2530.12
496.55	2516.08
496.73	2637.78
496.91	2385.01
497.09	2562.89
497.26	2523.10
497.44	2420.11
497.62	2480.97
497.79	2436.50
497.97	2305.43
498.14	2321.81
498.32	2377.98
498.50	2516.08
498.67	2464.58
498.85	2466.92
499.03	2476.29
499.20	2485.65
499.38	2537.14
499.56	2511.39
499.73	2621.40
499.91	2492.67
500.08	2394.37
500.26	2417.77
500.44	2406.07
500.61	2424.80
500.79	2506.71
500.97	2469.27
501.14	2487.99
501.32	2312.45
501.49	2455.22
501.67	2345.22
501.84	2417.77
502.02	2394.37
502.20	2504.37
502.37	2436.50
502.55	2452.88
502.72	2523.10
502.90	2490.33
503.07	2459.90
503.25	2401.39
503.43	2441.18
503.60	2279.68
503.78	2134.57
503.95	2214.15
504.13	2368.62
504.30	2525.44
504.48	2497.35
504.65	2387.35
504.83	2560.55
505.01	2579.27
505.18	2572.25
505.36	2621.40
505.53	2523.10
505.71	2736.09
505.88	2612.04
506.06	2537.14
506.23	2602.68
506.41	2621.40
506.58	2422.45
506.76	2626.08
506.93	2586.29
507.11	2551.18
507.28	2466.92
507.46	2593.31
507.63	2429.48
507.81	2427.14
507.98	2487.99
508.16	2462.24
508.33	2651.83
508.50	2558.21
508.68	2640.12
508.85	2806.30
509.03	2644.81
509.20	2626.08
509.38	2691.62
509.55	2581.61
509.73	2642.46
509.90	2682.25
510.08	2672.89
510.25	2726.72
510.42	2579.27
510.60	2605.02
510.77	2708.00
510.95	2663.53
511.12	2768.85
511.30	2672.89
511.47	2810.98
511.64	2693.96
511.82	2794.60
511.99	2651.83
512.17	2637.78
512.34	2614.38
512.51	2677.57
512.69	2544.16
512.86	2616.72
513.04	2656.51
513.21	2794.60
513.38	2569.91
513.56	2710.34
513.73	2476.29
513.90	2551.18
514.08	2544.16
514.25	2523.10
514.43	2544.16
514.60	2525.44
514.77	2684.59
514.95	2757.15
515.12	2621.40
515.29	2700.98
515.47	2815.66
515.64	2803.96
515.81	2670.55
515.99	2715.02
516.16	2576.93
516.33	2349.90
516.51	2162.66
516.68	2209.47
516.85	2186.06
517.03	2174.36
517.20	2410.75
517.37	2459.90
517.54	2520.76
517.72	2612.04
517.89	2438.84
518.06	2260.96
518.24	2319.47
518.41	2420.11
518.58	2410.75
518.75	2462.24
518.93	2651.83
519.10	2457.56
519.27	2562.89
519.45	2513.74
519.62	2689.28
519.79	2736.09
519.96	2796.94
520.14	2689.28
520.31	2796.94
520.48	2523.10
520.65	2630.76
520.83	2787.58
521.00	2902.26
521.17	2799.28
521.34	2803.96
521.52	2712.68
521.69	2839.07
521.86	2848.43
522.03	2881.20
522.20	2785.24
522.38	2497.35
522.55	2551.18
522.72	2663.53
522.89	2677.57
523.07	2832.05
523.24	2665.87
523.41	2785.24
523.58	2743.11
523.75	2738.43
523.92	2853.11
524.10	2918.65
524.27	2871.84
524.44	2761.83
524.61	2822.69
524.78	2677.57
524.96	2712.68
525.13	2799.28
525.30	2860.13
525.47	2860.13
525.64	2808.64
525.81	2775.88
525.98	2813.32
526.16	2495.01
526.33	2387.35
526.50	2455.22
526.67	2420.11
526.84	2532.46
527.01	2614.38
527.18	2684.59
527.36	2792.26
527.53	2857.79
527.70	2913.97
527.87	2775.88
528.04	2696.30
528.21	2792.26
528.38	2883.54
528.55	2993.55
528.72	2916.31
528.89	3089.51
529.07	2899.92
529.24	2813.32
529.41	2801.62
529.58	2736.09
529.75	2829.71
529.92	2857.79
530.09	2885.88
530.26	2972.48
530.43	2909.29
530.60	2974.82
530.77	2977.16
530.94	2916.31
531.11	3131.64
531.28	2904.60
531.46	2904.60
531.63	2991.20
531.80	2897.58
531.97	2855.45
532.14	2794.60
532.31	2717.36
532.48	2630.76
532.65	2691.62
532.82	2661.19
532.99	2775.88
533.16	2729.06
533.33	2867.16
533.50	3000.57
533.67	2843.75
533.84	2736.09
534.01	2733.75
534.18	2808.64
534.35	2799.28
534.52	2834.39
534.69	2801.62
534.86	2892.90
535.03	2939.71
535.20	2892.90
535.37	2942.05
535.54	3180.79
535.71	3059.08
535.88	2904.60
536.05	2956.10
536.22	2787.58
536.38	2920.99
536.55	2705.66
536.72	2843.75
536.89	2717.36
537.06	2951.42
537.23	2878.86
537.40	2883.54
537.57	2869.50
537.74	3000.57
537.91	2944.39
538.08	2965.46
538.25	2876.52
538.42	2860.13
538.59	2902.26
538.75	2918.65
538.92	2803.96
539.09	2902.26
539.26	2801.62
539.43	2810.98
539.60	2757.15
539.77	2768.85
539.94	2841.41
540.11	2705.66
540.28	2803.96
540.44	2712.68
540.61	2843.75
540.78	2984.18
540.95	2920.99
541.12	3124.62
541.29	3122.27
541.46	3084.83
541.62	3108.23
541.79	3030.99
541.96	3014.61
542.13	3056.74
542.30	3082.49
542.47	3073.12
542.63	3063.76
542.80	3108.23
542.97	3164.40
543.14	3045.04
543.31	2942.05
543.48	3094.19
543.64	3199.51
543.81	3236.96
543.98	3117.59
544.15	3166.74
544.32	3075.46
544.48	3030.99
544.65	3047.38
544.82	3119.93
544.99	3138.66
545.16	3070.78
545.32	3129.30
545.49	3405.48
545.66	3838.48
545.83	3798.69
546.00	3691.02
546.16	3272.07
546.33	3141.00
546.50	3119.93
546.67	3112.91
546.83	2965.46
547.00	2972.48
547.17	2902.26
547.34	2843.75
547.50	2965.46
547.67	2736.09
547.84	3087.17
548.00	2860.13
548.17	2972.48
548.34	2904.60
548.51	3094.19
548.67	2988.86
548.84	2946.73
549.01	3016.95
549.18	2925.67
549.34	2885.88
549.51	2822.69
549.68	2988.86
549.84	2860.13
550.01	2860.13
550.18	3021.63
550.34	2888.22
550.51	2874.18
550.68	2904.60
550.84	2846.09
551.01	2778.22
551.18	2874.18
551.34	2731.41
551.51	2942.05
551.68	2726.72
551.84	2942.05
552.01	2897.58
552.18	2869.50
552.34	2792.26
552.51	2757.15
552.68	2850.77
552.84	2820.35
553.01	2818.00
553.18	2825.03
553.34	2818.00
553.51	2801.62
553.67	2946.73
553.84	2888.22
554.01	2766.51
554.17	2759.49
554.34	2705.66
554.51	2775.88
554.67	2759.49
554.84	2778.22
555.00	2750.13
555.17	2729.06
555.33	2750.13
555.50	2623.74
555.67	2775.88
555.83	2726.72
556.00	2654.17
556.16	2834.39
556.33	2684.59
556.50	2619.06
556.66	2551.18
556.83	2642.46
556.99	2614.38
557.16	2593.31
557.32	2696.30
557.49	2595.65
557.65	2635.44
557.82	2691.62
557.98	2750.13
558.15	2644.81
558.32	2523.10
558.48	2534.80
558.65	2473.95
558.81	2455.22
558.98	2499.69
559.14	2658.85
559.31	2612.04
559.47	2724.38
559.64	2691.62
559.80	2579.27
559.97	2654.17
560.13	2640.12
560.30	2663.53
560.46	2677.57
560.63	2626.08
560.79	2698.64
560.96	2778.22
561.12	2647.15
561.29	2600.34
561.45	2567.57
561.61	2572.25
561.78	2635.44
561.94	2417.77
562.11	2537.14
562.27	2548.84
562.44	2640.12
562.60	2588.63
562.77	2572.25
562.93	2710.34
563.10	2719.70
563.26	2590.97
563.42	2546.50
563.59	2513.74
563.75	2476.29
563.92	2574.59
564.08	2600.34
564.24	2647.15
564.41	2682.25
564.57	2607.36
564.74	2464.58
564.90	2736.09
565.07	2523.10
565.23	2492.67
565.39	2476.29
565.56	2471.61
565.72	2275.00
565.88	2455.22
566.05	2436.50
566.21	2394.37
566.38	2490.33
566.54	2478.63
566.70	2523.10
566.87	2560.55
567.03	2630.76
567.19	2450.54
567.36	2443.52
567.52	2476.29
567.68	2581.61
567.85	2443.52
568.01	2422.45
568.17	2324.15
568.34	2253.94
568.50	2359.26
568.66	2314.79
568.83	2385.01
568.99	2359.26
569.15	2326.49
569.32	2370.96
569.48	2293.72
569.64	2279.68
569.81	2317.13
569.97	2249.25
570.13	2370.96
570.30	2406.07
570.46	2214.15
570.62	2303.09
570.78	2218.83
570.95	2251.60
571.11	2246.91
571.27	2373.30
571.43	2324.15
571.60	2375.64
571.76	2286.70
571.92	2331.17
572.09	2473.95
572.25	2356.92
572.41	2356.92
572.57	2399.05
572.74	2457.56
572.90	2509.05
573.06	2361.60
573.22	2375.64
573.38	2310.11
573.55	2401.39
573.71	2286.70
573.87	2354.58
574.03	2279.68
574.20	2249.25
574.36	2284.36
574.52	2277.34
574.68	2256.28
574.84	2328.83
575.01	2333.51
575.17	2181.38
575.33	2282.02
575.49	2305.43
575.65	2256.28
575.82	2331.17
575.98	2228.19
576.14	2256.28
576.30	2221.17
576.46	2352.24
576.62	2518.42
576.79	2431.82
576.95	2354.58
577.11	2328.83
577.27	2249.25
577.43	2370.96
577.59	2263.30
577.75	2340.54
577.92	2111.16
578.08	2108.82
578.24	2204.78
578.40	2289.04
578.56	2289.04
578.72	2504.37
578.88	2424.80
579.04	2441.18
579.21	2305.43
579.37	2338.20
579.53	2471.61
579.69	2324.15
579.85	2349.90
580.01	2471.61
580.17	2296.07
580.33	2267.98
580.49	2296.07
580.65	2434.16
580.82	2286.70
580.98	2469.27
581.14	2319.47
581.30	2335.85
581.46	2235.21
581.62	2307.77
581.78	2331.17
581.94	2424.80
582.10	2340.54
582.26	2399.05
582.42	2328.83
582.58	2452.88
582.74	2359.26
582.90	2471.61
583.06	2413.09
583.22	2270.32
583.38	2275.00
583.54	2307.77
583.70	2406.07
583.86	2434.16
584.02	2279.68
584.18	2385.01
584.34	2392.03
584.50	2356.92
584.66	2284.36
584.82	2284.36
584.98	2312.45
585.14	2232.87
585.30	2064.35
585.46	2139.25
585.62	2101.80
585.78	2195.42
585.94	2183.72
586.10	2183.72
586.26	2282.02
586.42	2314.79
586.58	2253.94
586.74	2216.49
586.90	2380.32
587.06	2188.40
587.22	2228.19
587.38	2165.00
587.54	2040.95
587.70	2225.85
587.86	2216.49
588.02	2059.67
588.18	1991.80
588.34	1921.58
588.49	1769.44
588.65	1764.76
588.81	1645.40
588.97	1612.63
589.13	1638.38
589.29	1659.44
589.45	1638.38
589.61	1769.44
589.77	1706.25
589.93	1764.76
590.08	1809.23
590.24	1886.47
590.40	1933.28
590.56	1919.24
590.72	1898.17
590.88	1881.79
591.04	1851.36
591.20	1806.89
591.35	1905.20
591.51	1912.22
591.67	1844.34
591.83	1811.57
591.99	1806.89
592.15	1760.08
592.31	1898.17
592.46	2026.90
592.62	1998.82
592.78	2008.18
592.94	1973.07
593.10	2078.40
593.26	1940.30
593.41	2029.24
593.57	1966.05
593.73	1916.90
593.89	1825.62
594.05	1820.94
594.20	1708.59
594.36	1797.53
594.52	1708.59
594.68	1659.44
594.84	1907.54
594.99	1982.43
595.15	1940.30
595.31	1909.88
595.47	1867.75
595.62	1865.41
595.78	2008.18
595.94	1905.20
596.10	1968.39
596.25	1982.43
596.41	1949.67
596.57	1888.81
596.73	1860.73
596.88	1916.90
597.04	2026.90
597.20	1860.73
597.36	1881.79
597.51	1853.70
597.67	1902.86
597.83	1799.87
597.99	1994.14
598.14	2003.50
598.30	1970.73
598.46	1959.03
598.61	2047.97
598.77	1858.39
598.93	1930.94
599.09	2047.97
599.24	2076.06
599.40	2045.63
599.56	2052.65
599.71	2026.90
599.87	2015.20
600.03	1944.99
