SpectraSuite Data File
++++++++++++++++++++++++++++++++++++
Date: Fri Oct 04 11:41:48 GMT-05:00 2013
User: price-jones
Dark Spectrum Present: No
Reference Spectrum Present: No
Number of Sampled Component Spectra: 1
Spectrometers: USB2+H05261
Integration Time (usec): 100000 (USB2+H05261)
Spectra Averaged: 1 (USB2+H05261)
Boxcar Smoothing: 0 (USB2+H05261)
Correct for Electrical Dark: No (USB2+H05261)
Strobe/Lamp Enabled: No (USB2+H05261)
Correct for Detector Non-linearity: No (USB2+H05261)
Correct for Stray Light: No (USB2+H05261)
Number of Pixels in Processed Spectrum: 2048
>>>>>Begin Processed Spectral Data<<<<<
365.73	53.83
365.92	53.83
366.12	53.83
366.32	0.00
366.52	0.00
366.72	0.00
366.91	0.00
367.11	0.00
367.31	0.00
367.51	7.02
367.70	0.00
367.90	0.00
368.10	0.00
368.30	0.00
368.49	0.00
368.69	7.02
368.89	0.00
369.09	0.00
369.28	0.00
369.48	0.00
369.68	11.70
369.87	0.00
370.07	0.00
370.27	0.00
370.47	0.00
370.66	0.00
370.86	107.66
371.06	70.22
371.25	88.94
371.45	65.54
371.65	74.90
371.84	135.75
372.04	0.00
372.24	121.71
372.44	131.07
372.63	98.30
372.83	152.13
373.03	60.85
373.22	121.71
373.42	147.45
373.62	117.03
373.81	196.60
374.01	131.07
374.21	138.09
374.40	126.39
374.60	126.39
374.79	110.01
374.99	70.22
375.19	70.22
375.38	110.01
375.58	107.66
375.78	142.77
375.97	147.45
376.17	196.60
376.37	173.20
376.56	117.03
376.76	46.81
376.95	196.60
377.15	121.71
377.35	77.24
377.54	112.35
377.74	117.03
377.93	128.73
378.13	131.07
378.33	166.18
378.52	138.09
378.72	191.92
378.91	208.31
379.11	63.19
379.31	152.13
379.50	170.86
379.70	194.26
379.89	110.01
380.09	117.03
380.28	102.98
380.48	177.88
380.68	117.03
380.87	131.07
381.07	133.41
381.26	152.13
381.46	147.45
381.65	91.28
381.85	105.32
382.04	170.86
382.24	156.82
382.43	88.94
382.63	42.13
382.83	88.94
383.02	166.18
383.22	86.60
383.41	126.39
383.61	133.41
383.80	154.48
384.00	88.94
384.19	86.60
384.39	93.62
384.58	126.39
384.78	133.41
384.97	159.16
385.17	107.66
385.36	100.64
385.56	86.60
385.75	98.30
385.95	135.75
386.14	210.65
386.34	124.05
386.53	173.20
386.72	140.43
386.92	149.79
387.11	114.69
387.31	67.88
387.50	180.22
387.70	110.01
387.89	95.96
388.09	28.09
388.28	121.71
388.48	145.11
388.67	170.86
388.86	77.24
389.06	88.94
389.25	110.01
389.45	187.24
389.64	161.50
389.84	147.45
390.03	161.50
390.22	105.32
390.42	107.66
390.61	128.73
390.81	105.32
391.00	119.37
391.19	220.01
391.39	170.86
391.58	142.77
391.78	84.26
391.97	133.41
392.16	95.96
392.36	149.79
392.55	119.37
392.75	72.56
392.94	138.09
393.13	175.54
393.33	114.69
393.52	110.01
393.71	70.22
393.91	121.71
394.10	117.03
394.29	102.98
394.49	91.28
394.68	121.71
394.88	159.16
395.07	126.39
395.26	170.86
395.46	133.41
395.65	175.54
395.84	156.82
396.04	257.46
396.23	114.69
396.42	159.16
396.62	156.82
396.81	156.82
397.00	112.35
397.19	30.43
397.39	156.82
397.58	152.13
397.77	154.48
397.97	86.60
398.16	201.29
398.35	175.54
398.55	142.77
398.74	168.52
398.93	208.31
399.12	70.22
399.32	161.50
399.51	91.28
399.70	163.84
399.90	220.01
400.09	163.84
400.28	135.75
400.47	88.94
400.67	210.65
400.86	198.95
401.05	110.01
401.24	201.29
401.44	198.95
401.63	203.63
401.82	147.45
402.01	182.56
402.21	191.92
402.40	126.39
402.59	201.29
402.78	138.09
402.97	196.60
403.17	250.44
403.36	294.91
403.55	297.25
403.74	730.25
403.93	2118.18
404.13	5483.88
404.32	8149.75
404.51	7602.06
404.70	4798.10
404.89	1867.75
405.09	496.19
405.28	311.29
405.47	262.14
405.66	243.42
405.85	212.99
406.05	163.84
406.24	152.13
406.43	271.50
406.62	257.46
406.81	248.10
407.00	327.68
407.20	683.44
407.39	1146.86
407.58	1188.99
407.77	866.00
407.96	493.85
408.15	224.69
408.34	128.73
408.54	250.44
408.73	234.05
408.92	229.37
409.11	227.03
409.30	105.32
409.49	283.20
409.68	187.24
409.87	208.31
410.07	159.16
410.26	208.31
410.45	210.65
410.64	189.58
410.83	147.45
411.02	208.31
411.21	276.18
411.40	177.88
411.59	236.39
411.78	201.29
411.98	166.18
412.17	238.73
412.36	248.10
412.55	257.46
412.74	234.05
412.93	250.44
413.12	313.63
413.31	276.18
413.50	238.73
413.69	266.82
413.88	285.55
414.07	182.56
414.26	177.88
414.45	257.46
414.64	273.84
414.83	168.52
415.02	290.23
415.22	259.80
415.41	215.33
415.60	201.29
415.79	257.46
415.98	191.92
416.17	234.05
416.36	224.69
416.55	234.05
416.74	236.39
416.93	344.06
417.12	285.55
417.31	292.57
417.50	248.10
417.69	322.99
417.88	285.55
418.07	278.52
418.26	297.25
418.45	294.91
418.64	299.59
418.83	290.23
419.02	203.63
419.21	341.72
419.39	332.36
419.58	325.33
419.77	264.48
419.96	276.18
420.15	322.99
420.34	212.99
420.53	245.76
420.72	348.74
420.91	243.42
421.10	292.57
421.29	306.61
421.48	271.50
421.67	278.52
421.86	187.24
422.05	264.48
422.24	292.57
422.43	278.52
422.61	330.02
422.80	327.68
422.99	383.85
423.18	334.70
423.37	297.25
423.56	243.42
423.75	362.78
423.94	264.48
424.13	299.59
424.32	292.57
424.50	334.70
424.69	297.25
424.88	381.51
425.07	353.42
425.26	379.17
425.45	418.96
425.64	367.46
425.83	351.08
426.01	339.38
426.20	330.02
426.39	365.12
426.58	376.83
426.77	341.72
426.96	376.83
427.15	416.62
427.33	367.46
427.52	341.72
427.71	346.40
427.90	421.30
428.09	395.55
428.28	383.85
428.46	358.10
428.65	444.70
428.84	397.89
429.03	360.44
429.22	339.38
429.40	346.40
429.59	397.89
429.78	423.64
429.97	388.53
430.16	423.64
430.34	402.57
430.53	425.98
430.72	365.12
430.91	449.38
431.10	376.83
431.28	369.80
431.47	433.00
431.66	440.02
431.85	407.25
432.03	458.74
432.22	463.43
432.41	451.72
432.60	472.79
432.79	519.60
432.97	524.28
433.16	571.09
433.35	674.07
433.54	697.48
433.72	688.12
433.91	631.94
434.10	746.63
434.28	968.98
434.47	1160.91
434.66	1128.14
434.85	1455.81
435.03	3597.40
435.22	13275.52
435.41	33230.93
435.59	39864.00
435.78	25977.61
435.97	13036.78
436.16	4933.85
436.34	1657.10
436.53	940.90
436.72	816.85
436.90	660.03
437.09	636.63
437.28	521.94
437.46	578.11
437.65	585.13
437.84	566.41
438.02	538.32
438.21	587.47
438.40	484.49
438.58	554.71
438.77	538.32
438.96	610.88
439.14	404.91
439.33	575.77
439.52	486.83
439.70	461.09
439.89	498.53
440.08	503.22
440.26	507.90
440.45	498.53
440.63	514.92
440.82	489.17
441.01	507.90
441.19	468.11
441.38	517.26
441.57	503.22
441.75	538.32
441.94	608.54
442.12	528.96
442.31	496.19
442.50	477.47
442.68	496.19
442.87	512.58
443.05	475.13
443.24	500.87
443.43	505.56
443.61	545.34
443.80	552.37
443.98	472.79
444.17	475.13
444.35	545.34
444.54	564.07
444.73	566.41
444.91	585.13
445.10	477.47
445.28	505.56
445.47	500.87
445.65	503.22
445.84	500.87
446.02	489.17
446.21	540.66
446.39	528.96
446.58	580.45
446.77	514.92
446.95	510.24
447.14	535.98
447.32	461.09
447.51	512.58
447.69	519.60
447.88	493.85
448.06	571.09
448.25	500.87
448.43	500.87
448.62	386.19
448.80	477.47
448.99	533.64
449.17	507.90
449.36	463.43
449.54	531.30
449.73	461.09
449.91	587.47
450.10	528.96
450.28	540.66
450.46	587.47
450.65	610.88
450.83	552.37
451.02	531.30
451.20	421.30
451.39	484.49
451.57	528.96
451.76	521.94
451.94	524.28
452.13	528.96
452.31	484.49
452.49	463.43
452.68	468.11
452.86	519.60
453.05	568.75
453.23	491.51
453.42	484.49
453.60	575.77
453.78	489.17
453.97	465.77
454.15	519.60
454.34	486.83
454.52	517.26
454.70	472.79
454.89	517.26
455.07	496.19
455.26	486.83
455.44	503.22
455.62	519.60
455.81	505.56
455.99	482.15
456.17	514.92
456.36	543.00
456.54	545.34
456.73	414.27
456.91	514.92
457.09	545.34
457.28	610.88
457.46	566.41
457.64	437.68
457.83	528.96
458.01	512.58
458.19	435.34
458.38	524.28
458.56	437.68
458.74	416.62
458.93	627.26
459.11	500.87
459.29	528.96
459.48	472.79
459.66	538.32
459.84	547.69
460.03	573.43
460.21	547.69
460.39	458.74
460.57	470.45
460.76	461.09
460.94	507.90
461.12	543.00
461.31	533.64
461.49	496.19
461.67	470.45
461.85	451.72
462.04	423.64
462.22	887.06
462.40	470.45
462.59	496.19
462.77	528.96
462.95	519.60
463.13	465.77
463.32	528.96
463.50	477.47
463.68	503.22
463.86	507.90
464.05	423.64
464.23	535.98
464.41	512.58
464.59	514.92
464.78	519.60
464.96	486.83
465.14	526.62
465.32	437.68
465.50	458.74
465.69	470.45
465.87	472.79
466.05	407.25
466.23	486.83
466.41	547.69
466.60	465.77
466.78	578.11
466.96	528.96
467.14	531.30
467.32	519.60
467.51	535.98
467.69	545.34
467.87	468.11
468.05	498.53
468.23	547.69
468.41	372.15
468.60	425.98
468.78	407.25
468.96	526.62
469.14	440.02
469.32	407.25
469.50	468.11
469.69	425.98
469.87	454.06
470.05	425.98
470.23	447.04
470.41	482.15
470.59	477.47
470.77	463.43
470.95	498.53
471.14	482.15
471.32	418.96
471.50	486.83
471.68	400.23
471.86	416.62
472.04	465.77
472.22	440.02
472.40	404.91
472.58	433.00
472.77	435.34
472.95	470.45
473.13	482.15
473.31	493.85
473.49	447.04
473.67	428.32
473.85	451.72
474.03	505.56
474.21	447.04
474.39	510.24
474.57	561.73
474.75	507.90
474.93	463.43
475.12	433.00
475.30	472.79
475.48	489.17
475.66	489.17
475.84	475.13
476.02	458.74
476.20	447.04
476.38	475.13
476.56	489.17
476.74	477.47
476.92	454.06
477.10	489.17
477.28	472.79
477.46	400.23
477.64	550.03
477.82	512.58
478.00	475.13
478.18	578.11
478.36	540.66
478.54	566.41
478.72	540.66
478.90	557.05
479.08	608.54
479.26	620.24
479.44	617.90
479.62	566.41
479.80	552.37
479.98	657.69
480.16	620.24
480.34	755.99
480.52	697.48
480.70	830.89
480.88	688.12
481.06	758.33
481.24	763.01
481.41	891.74
481.59	985.37
481.77	976.00
481.95	1069.62
482.13	1170.27
482.31	1163.25
482.49	1259.21
482.67	1291.98
482.85	1474.54
483.03	1568.16
483.21	1636.03
483.39	1696.89
483.57	1792.85
483.74	1902.86
483.92	1944.99
484.10	1977.75
484.28	2172.02
484.46	2377.98
484.64	2532.46
484.82	2415.43
485.00	2637.78
485.18	2979.50
485.35	3087.17
485.53	3115.25
485.71	3384.41
485.89	3503.78
486.07	3552.93
486.25	3508.46
486.43	3564.64
486.61	3534.21
486.78	3545.91
486.96	3686.34
487.14	3478.04
487.32	3595.06
487.50	3503.78
487.68	3623.15
487.85	3585.70
488.03	3412.50
488.21	3358.67
488.39	3407.82
488.57	3232.28
488.75	3152.70
488.92	3368.03
489.10	3133.98
489.28	3075.46
489.46	2799.28
489.64	2764.17
489.81	2822.69
489.99	2799.28
490.17	2565.23
490.35	2689.28
490.53	2630.76
490.70	2637.78
490.88	2825.03
491.06	2771.19
491.24	3014.61
491.41	3075.46
491.59	2965.46
491.77	2670.55
491.95	2640.12
492.13	2558.21
492.30	2487.99
492.48	2443.52
492.66	2429.48
492.84	2499.69
493.01	2249.25
493.19	2310.11
493.37	2293.72
493.54	2190.74
493.72	2122.87
493.90	2139.25
494.08	2120.53
494.25	2169.68
494.43	1984.77
494.61	2083.08
494.79	2064.35
494.96	2134.57
495.14	2015.20
495.32	2001.16
495.49	1914.56
495.67	1865.41
495.85	1919.24
496.02	1858.39
496.20	1806.89
496.38	1732.00
496.55	1778.81
496.73	1825.62
496.91	1739.02
497.09	1753.06
497.26	1689.87
497.44	1533.05
497.62	1565.82
497.79	1483.90
497.97	1668.80
498.14	1448.79
498.32	1486.24
498.50	1427.73
498.67	1380.92
498.85	1343.47
499.03	1364.53
499.20	1338.79
499.38	1317.72
499.56	1252.19
499.73	1240.48
499.91	1210.06
500.08	1193.67
500.26	1196.01
500.44	1057.92
500.61	964.30
500.79	1027.50
500.97	997.07
501.14	971.32
501.32	978.34
501.49	964.30
501.67	903.45
501.84	880.04
502.02	842.59
502.20	777.06
502.37	858.98
502.55	741.95
502.72	774.72
502.90	793.44
503.07	779.40
503.25	774.72
503.43	739.61
503.60	711.52
503.78	765.36
503.95	681.10
504.13	620.24
504.30	713.86
504.48	650.67
504.65	627.26
504.83	683.44
505.01	692.80
505.18	580.45
505.36	524.28
505.53	554.71
505.71	601.52
505.88	526.62
506.06	503.22
506.23	514.92
506.41	526.62
506.58	559.39
506.76	528.96
506.93	461.09
507.11	596.84
507.28	517.26
507.46	512.58
507.63	472.79
507.81	477.47
507.98	477.47
508.16	477.47
508.33	552.37
508.50	589.82
508.68	564.07
508.85	610.88
509.03	498.53
509.20	589.82
509.38	594.50
509.55	540.66
509.73	580.45
509.90	514.92
510.08	383.85
510.25	463.43
510.42	470.45
510.60	519.60
510.77	430.66
510.95	507.90
511.12	475.13
511.30	402.57
511.47	425.98
511.64	510.24
511.82	461.09
511.99	557.05
512.17	500.87
512.34	421.30
512.51	435.34
512.69	430.66
512.86	463.43
513.04	503.22
513.21	442.36
513.38	468.11
513.56	447.04
513.73	430.66
513.90	433.00
514.08	447.04
514.25	430.66
514.43	372.15
514.60	444.70
514.77	369.80
514.95	512.58
515.12	290.23
515.29	433.00
515.47	372.15
515.64	498.53
515.81	400.23
515.99	447.04
516.16	388.53
516.33	433.00
516.51	433.00
516.68	454.06
516.85	348.74
517.03	365.12
517.20	369.80
517.37	362.78
517.54	355.76
517.72	358.10
517.89	299.59
518.06	379.17
518.24	388.53
518.41	425.98
518.58	379.17
518.75	430.66
518.93	430.66
519.10	369.80
519.27	346.40
519.45	421.30
519.62	320.65
519.79	365.12
519.96	360.44
520.14	339.38
520.31	355.76
520.48	397.89
520.65	386.19
520.83	418.96
521.00	423.64
521.17	416.62
521.34	402.57
521.52	376.83
521.69	414.27
521.86	421.30
522.03	358.10
522.20	395.55
522.38	367.46
522.55	383.85
522.72	351.08
522.89	421.30
523.07	402.57
523.24	425.98
523.41	390.87
523.58	388.53
523.75	334.70
523.92	425.98
524.10	421.30
524.27	503.22
524.44	414.27
524.61	442.36
524.78	313.63
524.96	440.02
525.13	416.62
525.30	433.00
525.47	458.74
525.64	477.47
525.81	472.79
525.98	435.34
526.16	437.68
526.33	428.32
526.50	425.98
526.67	433.00
526.84	491.51
527.01	409.59
527.18	470.45
527.36	521.94
527.53	606.20
527.70	543.00
527.87	540.66
528.04	482.15
528.21	477.47
528.38	482.15
528.55	456.40
528.72	603.86
528.89	603.86
529.07	524.28
529.24	477.47
529.41	514.92
529.58	582.79
529.75	482.15
529.92	514.92
530.09	603.86
530.26	500.87
530.43	554.71
530.60	645.99
530.77	613.22
530.94	657.69
531.11	638.97
531.28	620.24
531.46	664.71
531.63	660.03
531.80	758.33
531.97	844.93
532.14	903.45
532.31	1083.67
532.48	1177.29
532.65	1441.77
532.82	1514.33
532.99	1813.92
533.16	2167.34
533.33	2232.87
533.50	2031.58
533.67	1844.34
533.84	1577.52
534.01	1355.17
534.18	1214.74
534.35	1188.99
534.52	1142.18
534.69	1348.15
534.86	1357.51
535.03	1406.66
535.20	1394.96
535.37	1500.28
535.54	1561.14
535.71	1659.44
535.88	1689.87
536.05	1823.28
536.22	2022.22
536.38	2125.21
536.55	2363.94
536.72	2801.62
536.89	2813.32
537.06	3220.58
537.23	3737.84
537.40	3974.23
537.57	4264.46
537.74	4517.23
537.91	4887.04
538.08	4779.37
538.25	4891.72
538.42	4933.85
538.59	5020.45
538.75	5294.29
538.92	5528.35
539.09	6050.28
539.26	6574.56
539.43	7442.90
539.60	8449.33
539.77	9596.20
539.94	10958.39
540.11	12016.31
540.28	13102.32
540.44	14085.34
540.61	15997.56
540.78	18139.15
540.95	21766.98
541.12	26199.96
541.29	29668.63
541.46	31541.06
541.62	31143.17
541.79	30017.37
541.96	27599.60
542.13	25642.91
542.30	23929.64
542.47	22403.61
542.63	21666.34
542.80	20554.58
542.97	20278.40
543.14	20318.19
543.31	20152.01
543.48	20357.98
543.64	20730.12
543.81	20732.47
543.98	21439.31
544.15	21076.52
544.32	21359.73
544.48	21050.78
544.65	20931.41
544.82	20624.80
544.99	20467.98
545.16	21118.65
545.32	22066.57
545.49	33600.73
545.66	57399.30
545.83	65080.94
546.00	61715.25
546.16	49876.82
546.33	36531.08
546.50	27529.38
546.67	21549.31
546.83	19075.37
547.00	18005.74
547.17	17095.27
547.34	16322.90
547.50	15625.42
547.67	15061.35
547.84	14810.91
548.00	13855.97
548.17	13755.33
548.34	12971.25
548.51	12674.00
548.67	11791.62
548.84	11337.56
549.01	10705.61
549.18	10279.63
549.34	10005.79
549.51	9710.88
549.68	8971.27
549.84	9041.49
550.01	8519.55
550.18	8142.72
550.34	7529.50
550.51	7253.32
550.68	6923.30
550.84	6572.22
551.01	6319.45
551.18	6010.50
551.34	5771.76
551.51	5390.25
551.68	5123.43
551.84	5121.09
552.01	4816.82
552.18	4524.26
552.34	4423.61
552.51	4198.92
552.68	4159.13
552.84	3943.80
553.01	3817.41
553.18	3749.54
553.34	3548.25
553.51	3442.93
553.67	3368.03
553.84	3253.34
554.01	2998.23
554.17	2825.03
554.34	2602.68
554.51	2389.69
554.67	2335.85
554.84	2307.77
555.00	2169.68
555.17	2071.37
555.33	1888.81
555.50	1813.92
555.67	1881.79
555.83	1734.34
556.00	1645.40
556.16	1696.89
556.33	1549.43
556.50	1432.41
556.66	1373.89
556.83	1336.45
556.99	1373.89
557.16	1387.94
557.32	1219.42
557.49	1210.06
557.65	1158.57
557.82	1203.04
557.98	1128.14
558.15	1048.56
558.32	1039.20
558.48	1036.86
558.65	1043.88
558.81	1041.54
558.98	870.68
559.14	1025.15
559.31	990.05
559.47	905.79
559.64	887.06
559.80	917.49
559.97	898.77
560.13	966.64
560.30	847.27
560.46	816.85
560.63	777.06
560.79	863.66
560.96	894.08
561.12	851.96
561.29	842.59
561.45	781.74
561.61	931.53
561.78	987.71
561.94	891.74
562.11	870.68
562.27	734.93
562.44	875.36
562.60	854.30
562.77	770.04
562.93	917.49
563.10	830.89
563.26	795.78
563.42	840.25
563.59	802.80
563.75	748.97
563.92	732.59
564.08	784.08
564.24	758.33
564.41	774.72
564.57	697.48
564.74	592.16
564.90	699.82
565.07	681.10
565.23	681.10
565.39	676.41
565.56	643.65
565.72	655.35
565.88	650.67
566.05	655.35
566.21	624.92
566.38	674.07
566.54	704.50
566.70	631.94
566.87	718.54
567.03	727.91
567.19	697.48
567.36	660.03
567.52	683.44
567.68	678.76
567.85	706.84
568.01	664.71
568.17	688.12
568.34	748.97
568.50	753.65
568.66	777.06
568.83	676.41
568.99	589.82
569.15	685.78
569.32	671.73
569.48	636.63
569.64	657.69
569.81	634.29
569.97	580.45
570.13	538.32
570.30	554.71
570.46	601.52
570.62	561.73
570.78	447.04
570.95	484.49
571.11	456.40
571.27	489.17
571.43	526.62
571.60	622.58
571.76	484.49
571.92	521.94
572.09	601.52
572.25	503.22
572.41	543.00
572.57	596.84
572.74	596.84
572.90	510.24
573.06	528.96
573.22	606.20
573.38	615.56
573.55	599.18
573.71	629.60
573.87	585.13
574.03	545.34
574.20	664.71
574.36	594.50
574.52	660.03
574.68	615.56
574.84	657.69
575.01	746.63
575.17	718.54
575.33	725.57
575.49	798.12
575.65	905.79
575.82	884.72
575.98	978.34
576.14	1130.48
576.30	2111.16
576.46	6703.29
576.62	13832.57
576.79	15077.73
576.95	10846.04
577.11	6988.84
577.27	4985.34
577.43	3157.38
577.59	2246.91
577.75	1661.78
577.92	1511.99
578.08	1437.09
578.24	1521.35
578.40	2406.07
578.56	6448.18
578.72	12100.57
578.88	14171.94
579.04	10436.45
579.21	6911.60
579.37	5130.45
579.53	4079.55
579.69	3751.88
579.85	4617.88
580.01	5479.19
580.17	5371.53
580.33	4557.02
580.49	3932.10
580.65	3480.38
580.82	3023.97
580.98	3166.74
581.14	3063.76
581.30	3330.58
581.46	3529.53
581.62	3838.48
581.78	4002.32
581.94	4329.99
582.10	4596.81
582.26	4793.42
582.42	4933.85
582.58	5172.58
582.74	5261.52
582.90	5268.55
583.06	5406.64
583.22	5263.86
583.38	5404.30
583.54	5345.78
583.70	5313.02
583.86	5165.56
584.02	5121.09
584.18	5020.45
584.34	4821.50
584.50	4814.48
584.66	4826.18
584.82	4669.37
584.98	4793.42
585.14	4491.49
585.30	4454.04
585.46	4454.04
585.62	4294.88
585.78	4358.08
585.94	4404.89
586.10	4468.08
586.26	4734.90
586.42	5350.46
586.58	6209.44
586.74	7803.35
586.90	9149.15
587.06	10237.50
587.22	10003.45
587.38	9118.73
587.54	7676.96
587.70	6754.79
587.86	5589.20
588.02	4812.14
588.18	4348.72
588.34	3744.86
588.49	3609.11
588.65	3274.41
588.81	3267.39
588.97	3002.91
589.13	2984.18
589.29	2850.77
589.45	2967.80
589.61	2869.50
589.77	2771.19
589.93	2953.76
590.08	2949.08
590.24	3005.25
590.40	3122.27
590.56	3332.92
590.72	3478.04
590.88	3574.00
591.04	3676.98
591.20	3637.19
591.35	3871.25
591.51	4077.21
591.67	4318.29
591.83	4423.61
591.99	4760.65
592.15	5369.19
592.31	5729.63
592.46	6221.14
592.62	6787.55
592.78	7288.43
592.94	7311.83
593.10	7370.35
593.26	7019.27
593.41	6588.61
593.57	5909.85
593.73	5242.80
593.89	4444.68
594.05	4081.89
594.20	3604.42
594.36	3393.78
594.52	3138.66
594.68	3005.25
594.84	2916.31
594.99	2920.99
595.15	2752.47
595.31	2626.08
595.47	2775.88
595.62	2480.97
595.78	2558.21
595.94	2612.04
596.10	2668.21
596.25	2686.94
596.41	2768.85
596.57	2525.44
596.73	2605.02
596.88	2466.92
597.04	2663.53
597.20	2586.29
597.36	2778.22
597.51	2743.11
597.67	2918.65
597.83	2876.52
597.99	3131.64
598.14	3330.58
598.30	3569.32
598.46	3777.62
598.61	3782.31
598.77	4121.68
598.93	4346.37
599.09	4442.34
599.24	4627.24
599.40	4491.49
599.56	4203.60
599.71	4208.28
599.87	3946.14
600.03	3688.68
600.18	3482.72
600.34	3171.43
600.50	2916.31
600.65	2717.36
600.81	2555.86
600.97	2478.63
601.12	2363.94
601.28	2286.70
601.44	2132.23
601.59	2052.65
601.75	2024.56
601.91	1853.70
602.06	1762.42
602.22	1769.44
602.37	1746.04
602.53	1734.34
602.69	1661.78
602.84	1769.44
603.00	1750.72
603.16	1795.19
603.31	1760.08
603.47	1781.15
603.62	1806.89
603.78	1909.88
603.94	1982.43
604.09	1900.52
604.25	2043.29
604.40	2003.50
604.56	1996.48
604.71	1998.82
604.87	2062.01
605.03	2169.68
