SpectraSuite Data File
++++++++++++++++++++++++++++++++++++
Date: Fri Oct 04 11:41:46 GMT-05:00 2013
User: price-jones
Dark Spectrum Present: No
Reference Spectrum Present: No
Number of Sampled Component Spectra: 1
Spectrometers: USB2+H05261
Integration Time (usec): 100000 (USB2+H05261)
Spectra Averaged: 1 (USB2+H05261)
Boxcar Smoothing: 0 (USB2+H05261)
Correct for Electrical Dark: No (USB2+H05261)
Strobe/Lamp Enabled: No (USB2+H05261)
Correct for Detector Non-linearity: No (USB2+H05261)
Correct for Stray Light: No (USB2+H05261)
Number of Pixels in Processed Spectrum: 2048
>>>>>Begin Processed Spectral Data<<<<<
365.73	28.09
365.92	28.09
366.12	28.09
366.32	0.00
366.52	0.00
366.72	0.00
366.91	0.00
367.11	0.00
367.31	0.00
367.51	0.00
367.70	0.00
367.90	0.00
368.10	0.00
368.30	0.00
368.49	0.00
368.69	21.06
368.89	0.00
369.09	0.00
369.28	0.00
369.48	0.00
369.68	0.00
369.87	0.00
370.07	0.00
370.27	0.00
370.47	44.47
370.66	4.68
370.86	21.06
371.06	56.17
371.25	91.28
371.45	74.90
371.65	32.77
371.84	32.77
372.04	79.58
372.24	147.45
372.44	46.81
372.63	112.35
372.83	135.75
373.03	110.01
373.22	117.03
373.42	84.26
373.62	98.30
373.81	147.45
374.01	119.37
374.21	182.56
374.40	112.35
374.60	98.30
374.79	170.86
374.99	114.69
375.19	145.11
375.38	173.20
375.58	112.35
375.78	166.18
375.97	175.54
376.17	156.82
376.37	117.03
376.56	138.09
376.76	110.01
376.95	173.20
377.15	53.83
377.35	107.66
377.54	121.71
377.74	131.07
377.93	79.58
378.13	152.13
378.33	147.45
378.52	58.51
378.72	145.11
378.91	173.20
379.11	53.83
379.31	161.50
379.50	49.15
379.70	25.75
379.89	126.39
380.09	131.07
380.28	119.37
380.48	124.05
380.68	58.51
380.87	93.62
381.07	128.73
381.26	224.69
381.46	121.71
381.65	135.75
381.85	119.37
382.04	152.13
382.24	63.19
382.43	60.85
382.63	114.69
382.83	131.07
383.02	128.73
383.22	128.73
383.41	159.16
383.61	163.84
383.80	58.51
384.00	86.60
384.19	74.90
384.39	142.77
384.58	91.28
384.78	119.37
384.97	98.30
385.17	88.94
385.36	128.73
385.56	161.50
385.75	91.28
385.95	124.05
386.14	203.63
386.34	70.22
386.53	145.11
386.72	79.58
386.92	56.17
387.11	51.49
387.31	182.56
387.50	32.77
387.70	86.60
387.89	138.09
388.09	102.98
388.28	79.58
388.48	133.41
388.67	117.03
388.86	67.88
389.06	86.60
389.25	107.66
389.45	100.64
389.64	112.35
389.84	119.37
390.03	140.43
390.22	70.22
390.42	88.94
390.61	77.24
390.81	149.79
391.00	107.66
391.19	117.03
391.39	100.64
391.58	140.43
391.78	119.37
391.97	138.09
392.16	39.79
392.36	154.48
392.55	131.07
392.75	156.82
392.94	65.54
393.13	131.07
393.33	156.82
393.52	161.50
393.71	105.32
393.91	140.43
394.10	133.41
394.29	112.35
394.49	117.03
394.68	100.64
394.88	100.64
395.07	74.90
395.26	124.05
395.46	154.48
395.65	156.82
395.84	114.69
396.04	147.45
396.23	140.43
396.42	147.45
396.62	140.43
396.81	124.05
397.00	114.69
397.19	121.71
397.39	191.92
397.58	117.03
397.77	147.45
397.97	131.07
398.16	72.56
398.35	107.66
398.55	163.84
398.74	114.69
398.93	173.20
399.12	147.45
399.32	133.41
399.51	79.58
399.70	77.24
399.90	100.64
400.09	128.73
400.28	107.66
400.47	154.48
400.67	88.94
400.86	142.77
401.05	140.43
401.24	198.95
401.44	126.39
401.63	154.48
401.82	133.41
402.01	93.62
402.21	138.09
402.40	102.98
402.59	128.73
402.78	124.05
402.97	117.03
403.17	131.07
403.36	170.86
403.55	170.86
403.74	266.82
403.93	676.41
404.13	1266.23
404.32	1299.00
404.51	1018.13
404.70	622.58
404.89	297.25
405.09	250.44
405.28	142.77
405.47	156.82
405.66	147.45
405.85	147.45
406.05	138.09
406.24	121.71
406.43	81.92
406.62	182.56
406.81	205.97
407.00	189.58
407.20	205.97
407.39	308.95
407.58	315.97
407.77	152.13
407.96	182.56
408.15	203.63
408.34	161.50
408.54	84.26
408.73	170.86
408.92	152.13
409.11	154.48
409.30	184.90
409.49	159.16
409.68	177.88
409.87	114.69
410.07	196.60
410.26	60.85
410.45	182.56
410.64	170.86
410.83	147.45
411.02	147.45
411.21	175.54
411.40	159.16
411.59	117.03
411.78	135.75
411.98	177.88
412.17	170.86
412.36	140.43
412.55	105.32
412.74	166.18
412.93	189.58
413.12	98.30
413.31	198.95
413.50	142.77
413.69	222.35
413.88	168.52
414.07	205.97
414.26	98.30
414.45	147.45
414.64	114.69
414.83	147.45
415.02	65.54
415.22	145.11
415.41	124.05
415.60	98.30
415.79	107.66
415.98	166.18
416.17	133.41
416.36	93.62
416.55	142.77
416.74	131.07
416.93	173.20
417.12	110.01
417.31	170.86
417.50	93.62
417.69	245.76
417.88	161.50
418.07	168.52
418.26	98.30
418.45	187.24
418.64	156.82
418.83	168.52
419.02	135.75
419.21	175.54
419.39	138.09
419.58	98.30
419.77	133.41
419.96	203.63
420.15	194.26
420.34	117.03
420.53	250.44
420.72	154.48
420.91	184.90
421.10	135.75
421.29	140.43
421.48	159.16
421.67	163.84
421.86	191.92
422.05	131.07
422.24	170.86
422.43	126.39
422.61	140.43
422.80	175.54
422.99	189.58
423.18	224.69
423.37	220.01
423.56	156.82
423.75	215.33
423.94	154.48
424.13	161.50
424.32	173.20
424.50	152.13
424.69	102.98
424.88	229.37
425.07	145.11
425.26	203.63
425.45	131.07
425.64	117.03
425.83	128.73
426.01	224.69
426.20	173.20
426.39	227.03
426.58	126.39
426.77	154.48
426.96	182.56
427.15	133.41
427.33	102.98
427.52	65.54
427.71	212.99
427.90	173.20
428.09	147.45
428.28	140.43
428.46	210.65
428.65	196.60
428.84	184.90
429.03	163.84
429.22	154.48
429.40	196.60
429.59	84.26
429.78	210.65
429.97	135.75
430.16	222.35
430.34	163.84
430.53	187.24
430.72	259.80
430.91	229.37
431.10	126.39
431.28	229.37
431.47	138.09
431.66	269.16
431.85	156.82
432.03	147.45
432.22	283.20
432.41	224.69
432.60	191.92
432.79	140.43
432.97	205.97
433.16	229.37
433.35	217.67
433.54	257.46
433.72	257.46
433.91	191.92
434.10	180.22
434.28	311.29
434.47	320.65
434.66	390.87
434.85	454.06
435.03	1254.53
435.22	3637.19
435.41	5516.64
435.59	4908.10
435.78	3307.18
435.97	1692.21
436.16	709.18
436.34	367.46
436.53	276.18
436.72	198.95
436.90	276.18
437.09	212.99
437.28	133.41
437.46	215.33
437.65	245.76
437.84	311.29
438.02	229.37
438.21	217.67
438.40	210.65
438.58	187.24
438.77	243.42
438.96	182.56
439.14	170.86
439.33	187.24
439.52	255.12
439.70	250.44
439.89	236.39
440.08	257.46
440.26	227.03
440.45	266.82
440.63	243.42
440.82	276.18
441.01	175.54
441.19	182.56
441.38	177.88
441.57	215.33
441.75	229.37
441.94	248.10
442.12	215.33
442.31	180.22
442.50	262.14
442.68	177.88
442.87	222.35
443.05	180.22
443.24	255.12
443.43	180.22
443.61	257.46
443.80	145.11
443.98	238.73
444.17	227.03
444.35	304.27
444.54	198.95
444.73	210.65
444.91	337.04
445.10	220.01
445.28	205.97
445.47	229.37
445.65	205.97
445.84	175.54
446.02	255.12
446.21	255.12
446.39	198.95
446.58	220.01
446.77	156.82
446.95	173.20
447.14	220.01
447.32	231.71
447.51	250.44
447.69	222.35
447.88	234.05
448.06	290.23
448.25	224.69
448.43	201.29
448.62	166.18
448.80	245.76
448.99	210.65
449.17	227.03
449.36	189.58
449.54	271.50
449.73	271.50
449.91	198.95
450.10	163.84
450.28	297.25
450.46	241.08
450.65	203.63
450.83	210.65
451.02	182.56
451.20	250.44
451.39	208.31
451.57	177.88
451.76	154.48
451.94	156.82
452.13	266.82
452.31	236.39
452.49	203.63
452.68	196.60
452.86	276.18
453.05	264.48
453.23	276.18
453.42	182.56
453.60	203.63
453.78	257.46
453.97	191.92
454.15	147.45
454.34	227.03
454.52	194.26
454.70	175.54
454.89	257.46
455.07	168.52
455.26	187.24
455.44	217.67
455.62	140.43
455.81	217.67
455.99	175.54
456.17	203.63
456.36	203.63
456.54	201.29
456.73	142.77
456.91	285.55
457.09	241.08
457.28	220.01
457.46	227.03
457.64	262.14
457.83	198.95
458.01	163.84
458.19	243.42
458.38	205.97
458.56	224.69
458.74	173.20
458.93	210.65
459.11	257.46
459.29	257.46
459.48	241.08
459.66	191.92
459.84	245.76
460.03	262.14
460.21	222.35
460.39	252.78
460.57	234.05
460.76	210.65
460.94	191.92
461.12	299.59
461.31	283.20
461.49	243.42
461.67	252.78
461.85	264.48
462.04	194.26
462.22	358.10
462.40	222.35
462.59	325.33
462.77	198.95
462.95	238.73
463.13	201.29
463.32	231.71
463.50	173.20
463.68	182.56
463.86	196.60
464.05	201.29
464.23	236.39
464.41	301.93
464.59	208.31
464.78	156.82
464.96	220.01
465.14	198.95
465.32	306.61
465.50	212.99
465.69	187.24
465.87	170.86
466.05	257.46
466.23	203.63
466.41	264.48
466.60	212.99
466.78	208.31
466.96	245.76
467.14	208.31
467.32	257.46
467.51	173.20
467.69	236.39
467.87	257.46
468.05	166.18
468.23	177.88
468.41	220.01
468.60	184.90
468.78	292.57
468.96	297.25
469.14	248.10
469.32	227.03
469.50	98.30
469.69	191.92
469.87	203.63
470.05	152.13
470.23	189.58
470.41	189.58
470.59	187.24
470.77	196.60
470.95	196.60
471.14	168.52
471.32	187.24
471.50	252.78
471.68	215.33
471.86	229.37
472.04	238.73
472.22	189.58
472.40	147.45
472.58	257.46
472.77	212.99
472.95	236.39
473.13	241.08
473.31	222.35
473.49	175.54
473.67	208.31
473.85	210.65
474.03	208.31
474.21	224.69
474.39	266.82
474.57	271.50
474.75	236.39
474.93	215.33
475.12	154.48
475.30	187.24
475.48	205.97
475.66	173.20
475.84	177.88
476.02	126.39
476.20	180.22
476.38	184.90
476.56	238.73
476.74	212.99
476.92	138.09
477.10	203.63
477.28	227.03
477.46	231.71
477.64	257.46
477.82	234.05
478.00	201.29
478.18	285.55
478.36	159.16
478.54	215.33
478.72	227.03
478.90	318.31
479.08	182.56
479.26	220.01
479.44	217.67
479.62	201.29
479.80	189.58
479.98	217.67
480.16	205.97
480.34	278.52
480.52	231.71
480.70	271.50
480.88	215.33
481.06	227.03
481.24	184.90
481.41	236.39
481.59	344.06
481.77	264.48
481.95	280.86
482.13	318.31
482.31	318.31
482.49	292.57
482.67	304.27
482.85	418.96
483.03	447.04
483.21	402.57
483.39	351.08
483.57	425.98
483.74	514.92
483.92	416.62
484.10	376.83
484.28	568.75
484.46	535.98
484.64	491.51
484.82	573.43
485.00	596.84
485.18	629.60
485.35	592.16
485.53	622.58
485.71	704.50
485.89	645.99
486.07	589.82
486.25	753.65
486.43	681.10
486.61	734.93
486.78	765.36
486.96	711.52
487.14	748.97
487.32	713.86
487.50	631.94
487.68	788.76
487.85	638.97
488.03	683.44
488.21	746.63
488.39	678.76
488.57	688.12
488.75	634.29
488.92	933.87
489.10	587.47
489.28	645.99
489.46	636.63
489.64	601.52
489.81	533.64
489.99	552.37
490.17	552.37
490.35	645.99
490.53	592.16
490.70	531.30
490.88	561.73
491.06	575.77
491.24	706.84
491.41	676.41
491.59	589.82
491.77	514.92
491.95	531.30
492.13	524.28
492.30	550.03
492.48	489.17
492.66	557.05
492.84	486.83
493.01	573.43
493.19	493.85
493.37	582.79
493.54	521.94
493.72	421.30
493.90	486.83
494.08	491.51
494.25	596.84
494.43	566.41
494.61	524.28
494.79	423.64
494.96	475.13
495.14	449.38
495.32	447.04
495.49	496.19
495.67	451.72
495.85	435.34
496.02	454.06
496.20	524.28
496.38	610.88
496.55	402.57
496.73	472.79
496.91	376.83
497.09	526.62
497.26	421.30
497.44	402.57
497.62	400.23
497.79	416.62
497.97	376.83
498.14	381.51
498.32	402.57
498.50	393.21
498.67	407.25
498.85	376.83
499.03	294.91
499.20	404.91
499.38	358.10
499.56	393.21
499.73	479.81
499.91	353.42
500.08	381.51
500.26	355.76
500.44	283.20
500.61	442.36
500.79	334.70
500.97	390.87
501.14	355.76
501.32	327.68
501.49	337.04
501.67	290.23
501.84	313.63
502.02	290.23
502.20	313.63
502.37	334.70
502.55	308.95
502.72	294.91
502.90	285.55
503.07	252.78
503.25	339.38
503.43	271.50
503.60	271.50
503.78	243.42
503.95	358.10
504.13	297.25
504.30	280.86
504.48	297.25
504.65	351.08
504.83	287.89
505.01	290.23
505.18	229.37
505.36	301.93
505.53	262.14
505.71	337.04
505.88	264.48
506.06	262.14
506.23	264.48
506.41	231.71
506.58	276.18
506.76	248.10
506.93	231.71
507.11	306.61
507.28	159.16
507.46	203.63
507.63	269.16
507.81	280.86
507.98	308.95
508.16	245.76
508.33	220.01
508.50	271.50
508.68	273.84
508.85	376.83
509.03	222.35
509.20	292.57
509.38	257.46
509.55	271.50
509.73	290.23
509.90	318.31
510.08	301.93
510.25	278.52
510.42	304.27
510.60	299.59
510.77	379.17
510.95	175.54
511.12	262.14
511.30	294.91
511.47	294.91
511.64	313.63
511.82	271.50
511.99	290.23
512.17	325.33
512.34	220.01
512.51	229.37
512.69	297.25
512.86	297.25
513.04	266.82
513.21	248.10
513.38	205.97
513.56	248.10
513.73	173.20
513.90	187.24
514.08	229.37
514.25	273.84
514.43	266.82
514.60	252.78
514.77	252.78
514.95	285.55
515.12	257.46
515.29	374.49
515.47	292.57
515.64	276.18
515.81	264.48
515.99	273.84
516.16	264.48
516.33	184.90
516.51	259.80
516.68	250.44
516.85	236.39
517.03	234.05
517.20	184.90
517.37	292.57
517.54	273.84
517.72	234.05
517.89	250.44
518.06	243.42
518.24	229.37
518.41	297.25
518.58	245.76
518.75	166.18
518.93	245.76
519.10	315.97
519.27	294.91
519.45	243.42
519.62	266.82
519.79	292.57
519.96	250.44
520.14	243.42
520.31	278.52
520.48	285.55
520.65	308.95
520.83	264.48
521.00	299.59
521.17	262.14
521.34	278.52
521.52	294.91
521.69	273.84
521.86	294.91
522.03	297.25
522.20	306.61
522.38	238.73
522.55	297.25
522.72	154.48
522.89	301.93
523.07	278.52
523.24	271.50
523.41	259.80
523.58	205.97
523.75	238.73
523.92	236.39
524.10	243.42
524.27	278.52
524.44	276.18
524.61	351.08
524.78	294.91
524.96	287.89
525.13	308.95
525.30	339.38
525.47	276.18
525.64	315.97
525.81	313.63
525.98	292.57
526.16	245.76
526.33	222.35
526.50	245.76
526.67	205.97
526.84	259.80
527.01	255.12
527.18	269.16
527.36	252.78
527.53	255.12
527.70	315.97
527.87	327.68
528.04	339.38
528.21	229.37
528.38	285.55
528.55	255.12
528.72	280.86
528.89	304.27
529.07	287.89
529.24	341.72
529.41	311.29
529.58	262.14
529.75	294.91
529.92	273.84
530.09	250.44
530.26	280.86
530.43	252.78
530.60	250.44
530.77	304.27
530.94	292.57
531.11	290.23
531.28	262.14
531.46	280.86
531.63	308.95
531.80	271.50
531.97	381.51
532.14	358.10
532.31	444.70
532.48	287.89
532.65	430.66
532.82	409.59
532.99	526.62
533.16	484.49
533.33	538.32
533.50	475.13
533.67	397.89
533.84	449.38
534.01	418.96
534.18	376.83
534.35	337.04
534.52	449.38
534.69	477.47
534.86	397.89
535.03	404.91
535.20	414.27
535.37	493.85
535.54	393.21
535.71	465.77
535.88	528.96
536.05	533.64
536.22	512.58
536.38	510.24
536.55	610.88
536.72	653.01
536.89	676.41
537.06	718.54
537.23	702.16
537.40	805.14
537.57	858.98
537.74	919.83
537.91	919.83
538.08	856.64
538.25	828.55
538.42	856.64
538.59	1027.50
538.75	919.83
538.92	1071.97
539.09	1086.01
539.26	1256.87
539.43	1294.32
539.60	1376.24
539.77	1577.52
539.94	1860.73
540.11	1884.13
540.28	2069.03
540.44	2277.34
540.61	2424.80
540.78	2888.22
540.95	3365.69
541.12	4058.49
541.29	4325.31
541.46	4442.34
541.62	4351.06
541.79	4149.77
541.96	3918.06
542.13	3698.05
542.30	3510.80
542.47	3485.06
542.63	3260.37
542.80	3157.38
542.97	3091.85
543.14	3000.57
543.31	3211.22
543.48	3215.90
543.64	3353.99
543.81	3246.32
543.98	3229.94
544.15	3201.85
544.32	3183.13
544.48	3234.62
544.65	3206.53
544.82	3136.32
544.99	3007.59
545.16	3054.40
545.32	3391.44
545.49	6930.33
545.66	10310.06
545.83	10995.84
546.00	9139.79
546.16	6406.05
546.33	4795.76
546.50	3747.20
546.67	3115.25
546.83	2871.84
547.00	2724.38
547.17	2504.37
547.34	2415.43
547.50	2347.56
547.67	2251.60
547.84	2214.15
548.00	2181.38
548.17	2029.24
548.34	1937.96
548.51	1973.07
548.67	1816.26
548.84	1830.30
549.01	1757.74
549.18	1577.52
549.34	1589.22
549.51	1537.73
549.68	1533.05
549.84	1430.07
550.01	1331.76
550.18	1437.09
550.34	1338.79
550.51	1275.59
550.68	1203.04
550.84	1174.95
551.01	1095.37
551.18	1130.48
551.34	994.73
551.51	1011.11
551.68	1032.18
551.84	924.51
552.01	842.59
552.18	814.51
552.34	887.06
552.51	730.25
552.68	795.78
552.84	730.25
553.01	711.52
553.18	678.76
553.34	739.61
553.51	709.18
553.67	695.14
553.84	711.52
554.01	676.41
554.17	575.77
554.34	547.69
554.51	606.20
554.67	550.03
554.84	514.92
555.00	475.13
555.17	482.15
555.33	505.56
555.50	484.49
555.67	475.13
555.83	454.06
556.00	465.77
556.16	564.07
556.33	449.38
556.50	383.85
556.66	397.89
556.83	311.29
556.99	409.59
557.16	416.62
557.32	365.12
557.49	360.44
557.65	304.27
557.82	372.15
557.98	344.06
558.15	383.85
558.32	320.65
558.48	355.76
558.65	334.70
558.81	334.70
558.98	332.36
559.14	444.70
559.31	418.96
559.47	386.19
559.64	369.80
559.80	351.08
559.97	248.10
560.13	313.63
560.30	332.36
560.46	355.76
560.63	374.49
560.79	315.97
560.96	332.36
561.12	264.48
561.29	334.70
561.45	313.63
561.61	271.50
561.78	416.62
561.94	299.59
562.11	276.18
562.27	320.65
562.44	248.10
562.60	276.18
562.77	238.73
562.93	355.76
563.10	304.27
563.26	334.70
563.42	320.65
563.59	306.61
563.75	264.48
563.92	304.27
564.08	308.95
564.24	355.76
564.41	376.83
564.57	210.65
564.74	287.89
564.90	358.10
565.07	266.82
565.23	304.27
565.39	339.38
565.56	334.70
565.72	290.23
565.88	292.57
566.05	269.16
566.21	308.95
566.38	255.12
566.54	287.89
566.70	278.52
566.87	337.04
567.03	257.46
567.19	264.48
567.36	250.44
567.52	372.15
567.68	339.38
567.85	367.46
568.01	264.48
568.17	238.73
568.34	283.20
568.50	311.29
568.66	334.70
568.83	334.70
568.99	259.80
569.15	325.33
569.32	337.04
569.48	330.02
569.64	287.89
569.81	252.78
569.97	266.82
570.13	257.46
570.30	215.33
570.46	276.18
570.62	304.27
570.78	229.37
570.95	294.91
571.11	283.20
571.27	337.04
571.43	280.86
571.60	332.36
571.76	229.37
571.92	290.23
572.09	292.57
572.25	175.54
572.41	285.55
572.57	191.92
572.74	297.25
572.90	287.89
573.06	257.46
573.22	313.63
573.38	348.74
573.55	280.86
573.71	241.08
573.87	243.42
574.03	285.55
574.20	262.14
574.36	292.57
574.52	255.12
574.68	227.03
574.84	252.78
575.01	299.59
575.17	304.27
575.33	191.92
575.49	374.49
575.65	280.86
575.82	311.29
575.98	348.74
576.14	341.72
576.30	732.59
576.46	1638.38
576.62	2136.91
576.79	2125.21
576.95	1600.93
577.11	1046.22
577.27	767.70
577.43	648.33
577.59	496.19
577.75	425.98
577.92	393.21
578.08	365.12
578.24	444.70
578.40	753.65
578.56	1453.47
578.72	1846.68
578.88	1907.54
579.04	1469.86
579.21	1046.22
579.37	753.65
579.53	697.48
579.69	805.14
579.85	814.51
580.01	950.26
580.17	1011.11
580.33	835.57
580.49	744.29
580.65	697.48
580.82	610.88
580.98	676.41
581.14	559.39
581.30	718.54
581.46	704.50
581.62	751.31
581.78	732.59
581.94	793.44
582.10	755.99
582.26	819.19
582.42	856.64
582.58	877.70
582.74	915.15
582.90	870.68
583.06	987.71
583.22	990.05
583.38	858.98
583.54	908.13
583.70	961.96
583.86	952.60
584.02	964.30
584.18	945.58
584.34	891.74
584.50	938.55
584.66	732.59
584.82	889.40
584.98	830.89
585.14	835.57
585.30	828.55
585.46	699.82
585.62	809.83
585.78	767.70
585.94	777.06
586.10	826.21
586.26	760.67
586.42	950.26
586.58	1212.40
586.74	1275.59
586.90	1600.93
587.06	1654.76
587.22	1504.96
587.38	1359.85
587.54	1287.29
587.70	1043.88
587.86	940.90
588.02	854.30
588.18	802.80
588.34	755.99
588.49	741.95
588.65	709.18
588.81	704.50
588.97	629.60
589.13	564.07
589.29	592.16
589.45	596.84
589.61	526.62
589.77	657.69
589.93	608.54
590.08	587.47
590.24	528.96
590.40	641.31
590.56	746.63
590.72	631.94
590.88	688.12
591.04	697.48
591.20	711.52
591.35	781.74
591.51	681.10
591.67	774.72
591.83	788.76
591.99	858.98
592.15	950.26
592.31	999.41
592.46	1011.11
592.62	1104.73
592.78	1123.46
592.94	1163.25
593.10	1144.52
593.26	1088.35
593.41	964.30
593.57	952.60
593.73	793.44
593.89	711.52
594.05	645.99
594.20	681.10
594.36	660.03
594.52	566.41
594.68	582.79
594.84	578.11
594.99	547.69
595.15	580.45
595.31	538.32
595.47	587.47
595.62	514.92
595.78	521.94
595.94	550.03
596.10	552.37
596.25	526.62
596.41	484.49
596.57	512.58
596.73	526.62
596.88	493.85
597.04	521.94
597.20	461.09
597.36	580.45
597.51	596.84
597.67	575.77
597.83	521.94
597.99	589.82
598.14	603.86
598.30	695.14
598.46	730.25
598.61	711.52
598.77	774.72
598.93	709.18
599.09	713.86
599.24	784.08
599.40	877.70
599.56	753.65
599.71	702.16
599.87	631.94
600.03	622.58
600.18	627.26
600.34	587.47
600.50	535.98
600.65	627.26
600.81	648.33
600.97	517.26
601.12	521.94
601.28	561.73
601.44	465.77
601.59	433.00
601.75	468.11
601.91	451.72
602.06	367.46
602.22	517.26
602.37	430.66
602.53	397.89
602.69	454.06
602.84	414.27
603.00	475.13
603.16	456.40
603.31	395.55
603.47	416.62
603.62	393.21
603.78	428.32
603.94	503.22
604.09	451.72
604.25	407.25
604.40	491.51
604.56	533.64
604.71	418.96
604.87	507.90
605.03	470.45
605.18	433.00
605.34	486.83
605.49	496.19
605.65	486.83
605.80	505.56
605.96	559.39
606.12	543.00
606.27	561.73
606.43	493.85
606.58	547.69
606.74	620.24
606.89	683.44
607.05	657.69
607.20	699.82
607.36	697.48
607.51	746.63
607.67	720.88
607.82	903.45
607.98	809.83
608.13	929.19
608.29	915.15
608.44	1011.11
608.60	1025.15
608.75	1135.16
608.91	1135.16
609.06	1343.47
609.22	1516.67
609.37	1570.50
609.53	1654.76
609.68	1902.86
609.84	2296.07
609.99	2506.71
