SpectraSuite Data File
++++++++++++++++++++++++++++++++++++
Date: Fri Oct 04 11:41:56 GMT-05:00 2013
User: price-jones
Dark Spectrum Present: No
Reference Spectrum Present: No
Number of Sampled Component Spectra: 1
Spectrometers: USB2+H05261
Integration Time (usec): 100000 (USB2+H05261)
Spectra Averaged: 1 (USB2+H05261)
Boxcar Smoothing: 0 (USB2+H05261)
Correct for Electrical Dark: No (USB2+H05261)
Strobe/Lamp Enabled: No (USB2+H05261)
Correct for Detector Non-linearity: No (USB2+H05261)
Correct for Stray Light: No (USB2+H05261)
Number of Pixels in Processed Spectrum: 2048
>>>>>Begin Processed Spectral Data<<<<<
365.73	63.19
365.92	63.19
366.12	63.19
366.32	0.00
366.52	0.00
366.72	0.00
366.91	0.00
367.11	0.00
367.31	0.00
367.51	0.00
367.70	0.00
367.90	0.00
368.10	0.00
368.30	0.00
368.49	0.00
368.69	0.00
368.89	2.34
369.09	0.00
369.28	0.00
369.48	0.00
369.68	0.00
369.87	4.68
370.07	0.00
370.27	0.00
370.47	30.43
370.66	0.00
370.86	121.71
371.06	102.98
371.25	147.45
371.45	44.47
371.65	100.64
371.84	35.11
372.04	53.83
372.24	145.11
372.44	119.37
372.63	60.85
372.83	149.79
373.03	124.05
373.22	124.05
373.42	112.35
373.62	100.64
373.81	126.39
374.01	201.29
374.21	121.71
374.40	93.62
374.60	100.64
374.79	159.16
374.99	142.77
375.19	156.82
375.38	161.50
375.58	128.73
375.78	154.48
375.97	74.90
376.17	189.58
376.37	156.82
376.56	142.77
376.76	86.60
376.95	63.19
377.15	133.41
377.35	117.03
377.54	117.03
377.74	107.66
377.93	79.58
378.13	163.84
378.33	145.11
378.52	112.35
378.72	156.82
378.91	208.31
379.11	170.86
379.31	177.88
379.50	93.62
379.70	159.16
379.89	194.26
380.09	124.05
380.28	110.01
380.48	196.60
380.68	105.32
380.87	124.05
381.07	168.52
381.26	119.37
381.46	194.26
381.65	105.32
381.85	161.50
382.04	100.64
382.24	154.48
382.43	173.20
382.63	124.05
382.83	114.69
383.02	177.88
383.22	138.09
383.41	81.92
383.61	135.75
383.80	88.94
384.00	245.76
384.19	142.77
384.39	114.69
384.58	114.69
384.78	224.69
384.97	142.77
385.17	114.69
385.36	86.60
385.56	149.79
385.75	170.86
385.95	88.94
386.14	121.71
386.34	126.39
386.53	152.13
386.72	147.45
386.92	175.54
387.11	131.07
387.31	147.45
387.50	126.39
387.70	88.94
387.89	156.82
388.09	44.47
388.28	46.81
388.48	112.35
388.67	131.07
388.86	84.26
389.06	51.49
389.25	149.79
389.45	208.31
389.64	198.95
389.84	156.82
390.03	152.13
390.22	145.11
390.42	93.62
390.61	60.85
390.81	70.22
391.00	128.73
391.19	182.56
391.39	147.45
391.58	128.73
391.78	112.35
391.97	126.39
392.16	142.77
392.36	98.30
392.55	131.07
392.75	124.05
392.94	112.35
393.13	180.22
393.33	119.37
393.52	145.11
393.71	100.64
393.91	173.20
394.10	112.35
394.29	131.07
394.49	173.20
394.68	159.16
394.88	110.01
395.07	161.50
395.26	224.69
395.46	102.98
395.65	184.90
395.84	189.58
396.04	145.11
396.23	140.43
396.42	159.16
396.62	152.13
396.81	114.69
397.00	140.43
397.19	166.18
397.39	124.05
397.58	175.54
397.77	100.64
397.97	102.98
398.16	147.45
398.35	135.75
398.55	147.45
398.74	163.84
398.93	145.11
399.12	112.35
399.32	175.54
399.51	280.86
399.70	177.88
399.90	212.99
400.09	173.20
400.28	161.50
400.47	196.60
400.67	205.97
400.86	173.20
401.05	222.35
401.24	273.84
401.44	208.31
401.63	189.58
401.82	283.20
402.01	252.78
402.21	231.71
402.40	203.63
402.59	224.69
402.78	229.37
402.97	163.84
403.17	255.12
403.36	292.57
403.55	372.15
403.74	816.85
403.93	2333.51
404.13	5788.14
404.32	9853.66
404.51	10885.83
404.70	7241.62
404.89	2452.88
405.09	692.80
405.28	437.68
405.47	280.86
405.66	248.10
405.85	222.35
406.05	236.39
406.24	283.20
406.43	269.16
406.62	198.95
406.81	273.84
407.00	388.53
407.20	720.88
407.39	1228.78
407.58	1542.41
407.77	1252.19
407.96	580.45
408.15	301.93
408.34	166.18
408.54	182.56
408.73	212.99
408.92	135.75
409.11	152.13
409.30	212.99
409.49	203.63
409.68	278.52
409.87	212.99
410.07	222.35
410.26	308.95
410.45	217.67
410.64	252.78
410.83	255.12
411.02	149.79
411.21	271.50
411.40	222.35
411.59	262.14
411.78	273.84
411.98	269.16
412.17	299.59
412.36	252.78
412.55	269.16
412.74	189.58
412.93	273.84
413.12	210.65
413.31	262.14
413.50	294.91
413.69	189.58
413.88	173.20
414.07	266.82
414.26	280.86
414.45	248.10
414.64	313.63
414.83	224.69
415.02	313.63
415.22	313.63
415.41	276.18
415.60	306.61
415.79	264.48
415.98	337.04
416.17	266.82
416.36	313.63
416.55	320.65
416.74	365.12
416.93	264.48
417.12	313.63
417.31	322.99
417.50	388.53
417.69	351.08
417.88	299.59
418.07	243.42
418.26	259.80
418.45	297.25
418.64	372.15
418.83	351.08
419.02	308.95
419.21	299.59
419.39	257.46
419.58	285.55
419.77	353.42
419.96	383.85
420.15	421.30
420.34	348.74
420.53	339.38
420.72	402.57
420.91	351.08
421.10	358.10
421.29	308.95
421.48	283.20
421.67	362.78
421.86	315.97
422.05	404.91
422.24	301.93
422.43	421.30
422.61	397.89
422.80	341.72
422.99	402.57
423.18	332.36
423.37	423.64
423.56	397.89
423.75	358.10
423.94	360.44
424.13	362.78
424.32	386.19
424.50	379.17
424.69	358.10
424.88	414.27
425.07	374.49
425.26	395.55
425.45	421.30
425.64	416.62
425.83	390.87
426.01	386.19
426.20	351.08
426.39	409.59
426.58	379.17
426.77	449.38
426.96	461.09
427.15	447.04
427.33	381.51
427.52	479.81
427.71	449.38
427.90	381.51
428.09	411.93
428.28	444.70
428.46	393.21
428.65	449.38
428.84	458.74
429.03	503.22
429.22	566.41
429.40	458.74
429.59	421.30
429.78	440.02
429.97	468.11
430.16	540.66
430.34	559.39
430.53	524.28
430.72	386.19
430.91	489.17
431.10	489.17
431.28	512.58
431.47	550.03
431.66	519.60
431.85	493.85
432.03	589.82
432.22	573.43
432.41	543.00
432.60	559.39
432.79	550.03
432.97	615.56
433.16	727.91
433.35	725.57
433.54	784.08
433.72	917.49
433.91	856.64
434.10	887.06
434.28	994.73
434.47	1331.76
434.66	1432.41
434.85	1827.96
435.03	3971.89
435.22	13956.61
435.41	36203.41
435.59	51121.98
435.78	42768.61
435.97	18239.79
436.16	6864.79
436.34	2143.93
436.53	1217.08
436.72	1001.75
436.90	807.48
437.09	823.87
437.28	767.70
437.46	683.44
437.65	671.73
437.84	660.03
438.02	653.01
438.21	685.78
438.40	613.22
438.58	711.52
438.77	582.79
438.96	615.56
439.14	519.60
439.33	641.31
439.52	624.92
439.70	589.82
439.89	608.54
440.08	631.94
440.26	617.90
440.45	599.18
440.63	636.63
440.82	573.43
441.01	566.41
441.19	615.56
441.38	608.54
441.57	594.50
441.75	599.18
441.94	662.37
442.12	667.05
442.31	641.31
442.50	695.14
442.68	470.45
442.87	587.47
443.05	674.07
443.24	641.31
443.43	631.94
443.61	648.33
443.80	610.88
443.98	582.79
444.17	606.20
444.35	706.84
444.54	685.78
444.73	645.99
444.91	662.37
445.10	603.86
445.28	603.86
445.47	547.69
445.65	578.11
445.84	606.20
446.02	587.47
446.21	634.29
446.39	521.94
446.58	606.20
446.77	636.63
446.95	561.73
447.14	627.26
447.32	566.41
447.51	561.73
447.69	561.73
447.88	547.69
448.06	599.18
448.25	709.18
448.43	524.28
448.62	526.62
448.80	589.82
448.99	500.87
449.17	571.09
449.36	608.54
449.54	620.24
449.73	589.82
449.91	699.82
450.10	634.29
450.28	648.33
450.46	723.23
450.65	599.18
450.83	540.66
451.02	596.84
451.20	627.26
451.39	613.22
451.57	620.24
451.76	587.47
451.94	627.26
452.13	564.07
452.31	575.77
452.49	601.52
452.68	470.45
452.86	727.91
453.05	699.82
453.23	676.41
453.42	538.32
453.60	557.05
453.78	599.18
453.97	566.41
454.15	585.13
454.34	596.84
454.52	634.29
454.70	613.22
454.89	650.67
455.07	571.09
455.26	631.94
455.44	662.37
455.62	528.96
455.81	547.69
455.99	554.71
456.17	514.92
456.36	582.79
456.54	589.82
456.73	627.26
456.91	613.22
457.09	608.54
457.28	655.35
457.46	601.52
457.64	587.47
457.83	585.13
458.01	554.71
458.19	617.90
458.38	566.41
458.56	601.52
458.74	491.51
458.93	568.75
459.11	545.34
459.29	589.82
459.48	606.20
459.66	575.77
459.84	631.94
460.03	582.79
460.21	594.50
460.39	557.05
460.57	683.44
460.76	545.34
460.94	559.39
461.12	596.84
461.31	594.50
461.49	578.11
461.67	557.05
461.85	617.90
462.04	599.18
462.22	912.81
462.40	582.79
462.59	594.50
462.77	533.64
462.95	599.18
463.13	608.54
463.32	585.13
463.50	601.52
463.68	645.99
463.86	578.11
464.05	571.09
464.23	580.45
464.41	643.65
464.59	582.79
464.78	620.24
464.96	533.64
465.14	528.96
465.32	566.41
465.50	566.41
465.69	533.64
465.87	561.73
466.05	514.92
466.23	580.45
466.41	582.79
466.60	594.50
466.78	641.31
466.96	617.90
467.14	622.58
467.32	603.86
467.51	634.29
467.69	575.77
467.87	608.54
468.05	634.29
468.23	636.63
468.41	603.86
468.60	491.51
468.78	531.30
468.96	514.92
469.14	531.30
469.32	557.05
469.50	519.60
469.69	519.60
469.87	458.74
470.05	519.60
470.23	531.30
470.41	566.41
470.59	505.56
470.77	552.37
470.95	557.05
471.14	559.39
471.32	524.28
471.50	531.30
471.68	505.56
471.86	545.34
472.04	585.13
472.22	535.98
472.40	491.51
472.58	603.86
472.77	505.56
472.95	458.74
473.13	561.73
473.31	599.18
473.49	587.47
473.67	589.82
473.85	514.92
474.03	564.07
474.21	531.30
474.39	697.48
474.57	631.94
474.75	493.85
474.93	533.64
475.12	578.11
475.30	624.92
475.48	547.69
475.66	540.66
475.84	622.58
476.02	545.34
476.20	636.63
476.38	519.60
476.56	636.63
476.74	561.73
476.92	510.24
477.10	543.00
477.28	601.52
477.46	589.82
477.64	610.88
477.82	599.18
478.00	648.33
478.18	648.33
478.36	643.65
478.54	585.13
478.72	582.79
478.90	697.48
479.08	704.50
479.26	798.12
479.44	662.37
479.62	636.63
479.80	840.25
479.98	755.99
480.16	788.76
480.34	917.49
480.52	882.38
480.70	891.74
480.88	882.38
481.06	1008.77
481.24	933.87
481.41	1146.86
481.59	1205.38
481.77	1191.33
481.95	1200.69
482.13	1394.96
482.31	1308.36
482.49	1495.60
482.67	1643.06
482.85	1856.04
483.03	1783.49
483.21	1975.41
483.39	2162.66
483.57	2244.57
483.74	2471.61
483.92	2633.10
484.10	2579.27
484.28	2796.94
484.46	3007.59
484.64	3222.92
484.82	3204.19
485.00	3482.72
485.18	3733.15
485.35	3908.69
485.53	4070.19
485.71	4332.33
485.89	4468.08
486.07	4585.11
486.25	4751.29
486.43	4685.75
486.61	4599.15
486.78	4854.27
486.96	4645.96
487.14	4760.65
487.32	4631.92
487.50	4638.94
487.68	4442.34
487.85	4404.89
488.03	4596.81
488.21	4526.60
488.39	4386.16
488.57	4344.03
488.75	4156.79
488.92	4353.40
489.10	3955.51
489.28	3779.97
489.46	3831.46
489.64	3838.48
489.81	3681.66
489.99	3597.40
490.17	3574.00
490.35	3545.91
490.53	3517.83
490.70	3522.51
490.88	3482.72
491.06	3555.27
491.24	3854.86
491.41	4060.83
491.59	3789.33
491.77	3564.64
491.95	3297.81
492.13	3258.03
492.30	3215.90
492.48	3232.28
492.66	3082.49
492.84	3019.29
493.01	3096.53
493.19	2963.12
493.37	3000.57
493.54	2787.58
493.72	2827.37
493.90	2738.43
494.08	2700.98
494.25	2839.07
494.43	2712.68
494.61	2600.34
494.79	2633.10
494.96	2555.86
495.14	2523.10
495.32	2387.35
495.49	2408.41
495.67	2523.10
495.85	2310.11
496.02	2298.41
496.20	2258.62
496.38	2223.51
496.55	2221.17
496.73	2232.87
496.91	2069.03
497.09	2127.55
497.26	2106.48
497.44	1998.82
497.62	2026.90
497.79	1891.15
497.97	1916.90
498.14	1921.58
498.32	1844.34
498.50	1790.51
498.67	1762.42
498.85	1619.65
499.03	1626.67
499.20	1673.48
499.38	1657.10
499.56	1558.80
499.73	1591.56
499.91	1638.38
500.08	1603.27
500.26	1444.11
500.44	1369.21
500.61	1254.53
500.79	1235.80
500.97	1240.48
501.14	1270.91
501.32	1177.29
501.49	1130.48
501.67	1114.10
501.84	1020.47
502.02	1053.24
502.20	1064.94
502.37	1093.03
502.55	952.60
502.72	952.60
502.90	940.90
503.07	971.32
503.25	978.34
503.43	861.32
503.60	856.64
503.78	805.14
503.95	765.36
504.13	847.27
504.30	788.76
504.48	774.72
504.65	814.51
504.83	812.17
505.01	777.06
505.18	741.95
505.36	774.72
505.53	716.20
505.71	692.80
505.88	681.10
506.06	615.56
506.23	636.63
506.41	594.50
506.58	552.37
506.76	615.56
506.93	589.82
507.11	669.39
507.28	603.86
507.46	613.22
507.63	573.43
507.81	606.20
507.98	564.07
508.16	601.52
508.33	561.73
508.50	531.30
508.68	608.54
508.85	667.05
509.03	559.39
509.20	578.11
509.38	641.31
509.55	645.99
509.73	610.88
509.90	674.07
510.08	493.85
510.25	578.11
510.42	603.86
510.60	601.52
510.77	554.71
510.95	552.37
511.12	491.51
511.30	599.18
511.47	540.66
511.64	624.92
511.82	564.07
511.99	463.43
512.17	500.87
512.34	524.28
512.51	587.47
512.69	543.00
512.86	561.73
513.04	528.96
513.21	573.43
513.38	468.11
513.56	517.26
513.73	489.17
513.90	519.60
514.08	477.47
514.25	468.11
514.43	484.49
514.60	463.43
514.77	418.96
514.95	482.15
515.12	428.32
515.29	440.02
515.47	442.36
515.64	491.51
515.81	510.24
515.99	636.63
516.16	519.60
516.33	489.17
516.51	540.66
516.68	468.11
516.85	458.74
517.03	442.36
517.20	414.27
517.37	428.32
517.54	505.56
517.72	423.64
517.89	383.85
518.06	362.78
518.24	440.02
518.41	437.68
518.58	430.66
518.75	372.15
518.93	418.96
519.10	437.68
519.27	449.38
519.45	458.74
519.62	367.46
519.79	496.19
519.96	430.66
520.14	381.51
520.31	451.72
520.48	411.93
520.65	456.40
520.83	451.72
521.00	374.49
521.17	376.83
521.34	374.49
521.52	416.62
521.69	451.72
521.86	414.27
522.03	456.40
522.20	433.00
522.38	472.79
522.55	386.19
522.72	430.66
522.89	407.25
523.07	510.24
523.24	409.59
523.41	433.00
523.58	425.98
523.75	411.93
523.92	362.78
524.10	470.45
524.27	503.22
524.44	505.56
524.61	430.66
524.78	461.09
524.96	512.58
525.13	393.21
525.30	461.09
525.47	526.62
525.64	468.11
525.81	526.62
525.98	449.38
526.16	482.15
526.33	458.74
526.50	519.60
526.67	491.51
526.84	512.58
527.01	510.24
527.18	538.32
527.36	596.84
527.53	540.66
527.70	643.65
527.87	531.30
528.04	514.92
528.21	535.98
528.38	554.71
528.55	538.32
528.72	638.97
528.89	587.47
529.07	571.09
529.24	599.18
529.41	636.63
529.58	559.39
529.75	535.98
529.92	622.58
530.09	641.31
530.26	678.76
530.43	629.60
530.60	629.60
530.77	741.95
530.94	725.57
531.11	739.61
531.28	606.20
531.46	751.31
531.63	802.80
531.80	875.36
531.97	915.15
532.14	1015.79
532.31	1167.93
532.48	1453.47
532.65	1696.89
532.82	1973.07
532.99	2232.87
533.16	2647.15
533.33	2892.90
533.50	2672.89
533.67	2267.98
533.84	1930.94
534.01	1647.74
534.18	1572.84
534.35	1542.41
534.52	1502.62
534.69	1654.76
534.86	1687.53
535.03	1678.16
535.20	1797.53
535.37	1921.58
535.54	1949.67
535.71	1994.14
535.88	2293.72
536.05	2368.62
536.22	2605.02
536.38	2796.94
536.55	2928.01
536.72	3328.24
536.89	3653.58
537.06	4149.77
537.23	4550.00
537.40	5193.65
537.57	5551.75
537.74	5731.97
537.91	5900.49
538.08	6176.67
538.25	6420.09
538.42	6541.80
538.59	6499.67
538.75	6565.20
538.92	7117.57
539.09	7726.11
539.26	8374.44
539.43	9628.96
539.60	10850.72
539.77	12428.24
539.94	14005.77
540.11	15604.35
540.28	17111.66
540.44	18656.41
540.61	20592.03
540.78	23077.68
540.95	27583.21
541.12	33876.91
541.29	39236.74
541.46	41951.76
541.62	41268.33
541.79	39473.13
541.96	36758.11
542.13	33961.17
542.30	31473.18
542.47	29565.65
542.63	28435.17
542.80	27534.06
542.97	26597.85
543.14	26890.41
543.31	26300.60
543.48	26668.06
543.64	27143.19
543.81	27164.26
543.98	27236.81
544.15	27667.47
544.32	27990.47
544.48	28013.87
544.65	27552.79
544.82	27414.69
544.99	26864.67
545.16	27623.00
545.32	29060.09
545.49	40465.52
545.66	60521.57
545.83	65535.00
546.00	65535.00
546.16	63213.19
546.33	47239.03
546.50	36456.18
546.67	28217.50
546.83	25029.69
547.00	24261.99
547.17	22773.41
547.34	21902.73
547.50	21238.02
547.67	20411.81
547.84	19529.43
548.00	18845.99
548.17	18242.14
548.34	17198.26
548.51	16510.14
548.67	15929.69
548.84	15117.52
549.01	14279.61
549.18	13425.31
549.34	13034.44
549.51	12601.44
549.68	11946.09
549.84	11583.31
550.01	11059.03
550.18	10518.37
550.34	10099.41
550.51	9497.89
550.68	9074.26
550.84	8924.46
551.01	8245.71
551.18	7789.30
551.34	7363.33
551.51	7005.22
551.68	6801.60
551.84	6558.18
552.01	6370.94
552.18	5912.19
552.34	5813.89
552.51	5434.72
552.68	5291.95
552.84	5032.15
553.01	5025.13
553.18	4734.90
553.34	4601.49
553.51	4292.54
553.67	4379.14
553.84	4154.45
554.01	3896.99
554.17	3632.51
554.34	3389.10
554.51	3211.22
554.67	3059.08
554.84	2928.01
555.00	2836.73
555.17	2572.25
555.33	2469.27
555.50	2342.88
555.67	2211.81
555.83	2176.70
556.00	2057.33
556.16	2062.01
556.33	1837.32
556.50	1820.94
556.66	1713.27
556.83	1769.44
556.99	1692.21
557.16	1647.74
557.32	1497.94
557.49	1493.26
557.65	1404.32
557.82	1380.92
557.98	1448.79
558.15	1404.32
558.32	1366.87
558.48	1341.13
558.65	1275.59
558.81	1310.70
558.98	1200.69
559.14	1142.18
559.31	1153.88
559.47	1196.01
559.64	1135.16
559.80	1109.41
559.97	1235.80
560.13	1062.60
560.30	1067.28
560.46	992.39
560.63	1125.80
560.79	1102.39
560.96	1083.67
561.12	1097.71
561.29	999.41
561.45	1107.07
561.61	983.02
561.78	1130.48
561.94	1100.05
562.11	1015.79
562.27	1086.01
562.44	1004.09
562.60	1088.35
562.77	1032.18
562.93	1020.47
563.10	933.87
563.26	908.13
563.42	917.49
563.59	875.36
563.75	882.38
563.92	999.41
564.08	929.19
564.24	936.21
564.41	854.30
564.57	821.53
564.74	896.43
564.90	976.00
565.07	880.04
565.23	924.51
565.39	898.77
565.56	830.89
565.72	739.61
565.88	774.72
566.05	779.40
566.21	821.53
566.38	779.40
566.54	805.14
566.70	844.93
566.87	739.61
567.03	763.01
567.19	807.48
567.36	898.77
567.52	798.12
567.68	875.36
567.85	936.21
568.01	812.17
568.17	774.72
568.34	823.87
568.50	755.99
568.66	840.25
568.83	870.68
568.99	880.04
569.15	847.27
569.32	781.74
569.48	716.20
569.64	734.93
569.81	690.46
569.97	671.73
570.13	648.33
570.30	596.84
570.46	615.56
570.62	606.20
570.78	603.86
570.95	641.31
571.11	573.43
571.27	624.92
571.43	629.60
571.60	580.45
571.76	578.11
571.92	613.22
572.09	589.82
572.25	566.41
572.41	580.45
572.57	589.82
572.74	699.82
572.90	575.77
573.06	596.84
573.22	596.84
573.38	711.52
573.55	608.54
573.71	674.07
573.87	711.52
574.03	643.65
574.20	667.05
574.36	669.39
574.52	737.27
574.68	741.95
574.84	807.48
575.01	802.80
575.17	819.19
575.33	905.79
575.49	1055.58
575.65	1078.99
575.82	1078.99
575.98	1217.08
576.14	1308.36
576.30	2452.88
576.46	7501.42
576.62	15545.84
576.79	23880.49
576.95	16320.56
577.11	9273.20
577.27	6321.79
577.43	4271.48
577.59	2705.66
577.75	2099.46
577.92	1886.47
578.08	1860.73
578.24	1977.75
578.40	2808.64
578.56	6953.73
578.72	14352.16
578.88	22836.61
579.04	15803.30
579.21	9282.56
579.37	6581.59
579.53	4863.63
579.69	4437.66
579.85	5671.12
580.01	6949.05
580.17	7215.87
580.33	6050.28
580.49	5050.88
580.65	4440.00
580.82	3971.89
580.98	3845.50
581.14	3908.69
581.30	4067.85
581.46	4510.21
581.62	4891.72
581.78	5067.26
581.94	5731.97
582.10	5867.72
582.26	6179.01
582.42	6651.80
582.58	6766.49
582.74	6808.62
582.90	6761.81
583.06	7002.88
583.22	6843.73
583.38	6813.30
583.54	6878.83
583.70	6911.60
583.86	6766.49
584.02	6579.25
584.18	6544.14
584.34	6377.96
584.50	6289.02
584.66	6214.12
584.82	6176.67
584.98	6195.40
585.14	6157.95
585.30	6005.81
585.46	5788.14
585.62	5600.90
585.78	5722.61
585.94	5554.09
586.10	5909.85
586.26	6090.07
586.42	6785.21
586.58	7990.59
586.74	9884.08
586.90	12128.66
587.06	13949.59
587.22	14178.97
587.38	12620.17
587.54	10775.83
587.70	8992.34
587.86	7442.90
588.02	6537.12
588.18	5584.52
588.34	5135.14
588.49	4535.96
588.65	4299.56
588.81	4009.34
588.97	4060.83
589.13	3744.86
589.29	3695.71
589.45	3742.52
589.61	3775.28
589.77	3756.56
589.93	3864.22
590.08	3894.65
590.24	4079.55
590.40	4196.58
590.56	4461.06
590.72	4374.46
590.88	4566.39
591.04	4652.98
591.20	4830.87
591.35	5135.14
591.51	5221.74
591.67	5502.60
591.83	5750.70
591.99	6352.21
592.15	6619.04
592.31	7431.20
592.46	8259.75
592.62	8748.92
592.78	9434.70
592.94	9771.74
593.10	9612.58
593.26	9329.38
593.41	8659.98
593.57	7791.64
593.73	6871.81
593.89	6097.10
594.05	5305.99
594.20	4674.05
594.36	4430.63
594.52	3985.93
594.68	3822.09
594.84	3616.13
594.99	3604.42
595.15	3562.30
595.31	3389.10
595.47	3463.99
595.62	3368.03
595.78	3363.35
595.94	3372.71
596.10	3438.25
596.25	3405.48
596.41	3410.16
596.57	3440.59
596.73	3255.69
596.88	3361.01
597.04	3316.54
597.20	3442.93
597.36	3555.27
597.51	3585.70
597.67	3693.37
597.83	4028.06
597.99	4142.75
598.14	4304.25
598.30	4557.02
598.46	4933.85
598.61	5275.57
598.77	5284.93
598.93	5481.53
599.09	5636.01
599.24	5771.76
599.40	5813.89
599.56	5696.86
599.71	5434.72
599.87	5287.27
600.03	4828.53
600.18	4475.10
600.34	4168.49
600.50	3866.56
600.65	3662.94
600.81	3372.71
600.97	3220.58
601.12	3124.62
601.28	2939.71
601.44	2757.15
601.59	2590.97
601.75	2612.04
601.91	2539.48
602.06	2499.69
602.22	2239.89
602.37	2289.04
602.53	2127.55
602.69	2340.54
602.84	2169.68
603.00	2190.74
603.16	2303.09
603.31	2286.70
603.47	2200.10
603.62	2331.17
603.78	2469.27
603.94	2319.47
604.09	2389.69
604.25	2466.92
604.40	2619.06
