SpectraSuite Data File
++++++++++++++++++++++++++++++++++++
Date: Fri Oct 04 11:41:44 GMT-05:00 2013
User: price-jones
Dark Spectrum Present: No
Reference Spectrum Present: No
Number of Sampled Component Spectra: 1
Spectrometers: USB2+H05261
Integration Time (usec): 100000 (USB2+H05261)
Spectra Averaged: 1 (USB2+H05261)
Boxcar Smoothing: 0 (USB2+H05261)
Correct for Electrical Dark: No (USB2+H05261)
Strobe/Lamp Enabled: No (USB2+H05261)
Correct for Detector Non-linearity: No (USB2+H05261)
Correct for Stray Light: No (USB2+H05261)
Number of Pixels in Processed Spectrum: 2048
>>>>>Begin Processed Spectral Data<<<<<
365.73	53.83
365.92	53.83
366.12	53.83
366.32	0.00
366.52	0.00
366.72	0.00
366.91	0.00
367.11	0.00
367.31	0.00
367.51	0.00
367.70	0.00
367.90	0.00
368.10	0.00
368.30	0.00
368.49	0.00
368.69	0.00
368.89	0.00
369.09	0.00
369.28	23.41
369.48	0.00
369.68	0.00
369.87	14.04
370.07	0.00
370.27	28.09
370.47	0.00
370.66	84.26
370.86	112.35
371.06	95.96
371.25	124.05
371.45	100.64
371.65	100.64
371.84	46.81
372.04	88.94
372.24	77.24
372.44	60.85
372.63	131.07
372.83	131.07
373.03	77.24
373.22	98.30
373.42	102.98
373.62	133.41
373.81	159.16
374.01	187.24
374.21	84.26
374.40	156.82
374.60	107.66
374.79	177.88
374.99	131.07
375.19	124.05
375.38	175.54
375.58	138.09
375.78	140.43
375.97	170.86
376.17	145.11
376.37	140.43
376.56	156.82
376.76	191.92
376.95	135.75
377.15	147.45
377.35	149.79
377.54	135.75
377.74	142.77
377.93	170.86
378.13	112.35
378.33	138.09
378.52	180.22
378.72	156.82
378.91	140.43
379.11	117.03
379.31	124.05
379.50	110.01
379.70	170.86
379.89	198.95
380.09	184.90
380.28	145.11
380.48	102.98
380.68	56.17
380.87	81.92
381.07	152.13
381.26	119.37
381.46	95.96
381.65	95.96
381.85	100.64
382.04	56.17
382.24	107.66
382.43	135.75
382.63	107.66
382.83	168.52
383.02	168.52
383.22	121.71
383.41	117.03
383.61	79.58
383.80	18.72
384.00	126.39
384.19	100.64
384.39	182.56
384.58	149.79
384.78	88.94
384.97	119.37
385.17	95.96
385.36	98.30
385.56	156.82
385.75	91.28
385.95	117.03
386.14	215.33
386.34	180.22
386.53	128.73
386.72	91.28
386.92	121.71
387.11	79.58
387.31	37.45
387.50	67.88
387.70	121.71
387.89	112.35
388.09	65.54
388.28	51.49
388.48	14.04
388.67	145.11
388.86	182.56
389.06	149.79
389.25	105.32
389.45	112.35
389.64	138.09
389.84	168.52
390.03	173.20
390.22	142.77
390.42	135.75
390.61	140.43
390.81	105.32
391.00	187.24
391.19	175.54
391.39	161.50
391.58	107.66
391.78	145.11
391.97	133.41
392.16	154.48
392.36	168.52
392.55	110.01
392.75	142.77
392.94	117.03
393.13	156.82
393.33	98.30
393.52	100.64
393.71	203.63
393.91	168.52
394.10	98.30
394.29	119.37
394.49	117.03
394.68	133.41
394.88	133.41
395.07	93.62
395.26	140.43
395.46	149.79
395.65	163.84
395.84	124.05
396.04	210.65
396.23	149.79
396.42	114.69
396.62	276.18
396.81	140.43
397.00	173.20
397.19	149.79
397.39	154.48
397.58	72.56
397.77	98.30
397.97	149.79
398.16	212.99
398.35	173.20
398.55	138.09
398.74	145.11
398.93	145.11
399.12	117.03
399.32	91.28
399.51	175.54
399.70	142.77
399.90	65.54
400.09	124.05
400.28	149.79
400.47	145.11
400.67	133.41
400.86	159.16
401.05	145.11
401.24	159.16
401.44	140.43
401.63	187.24
401.82	248.10
402.01	175.54
402.21	156.82
402.40	236.39
402.59	149.79
402.78	180.22
402.97	175.54
403.17	255.12
403.36	203.63
403.55	330.02
403.74	620.24
403.93	1952.01
404.13	4880.02
404.32	7124.59
404.51	6015.18
404.70	3667.62
404.89	1266.23
405.09	519.60
405.28	252.78
405.47	227.03
405.66	212.99
405.85	276.18
406.05	208.31
406.24	187.24
406.43	161.50
406.62	203.63
406.81	196.60
407.00	334.70
407.20	653.01
407.39	915.15
407.58	1050.90
407.77	650.67
407.96	390.87
408.15	287.89
408.34	201.29
408.54	208.31
408.73	187.24
408.92	180.22
409.11	175.54
409.30	189.58
409.49	166.18
409.68	149.79
409.87	124.05
410.07	154.48
410.26	196.60
410.45	184.90
410.64	131.07
410.83	257.46
411.02	187.24
411.21	191.92
411.40	212.99
411.59	170.86
411.78	227.03
411.98	231.71
412.17	156.82
412.36	201.29
412.55	112.35
412.74	210.65
412.93	304.27
413.12	215.33
413.31	301.93
413.50	248.10
413.69	266.82
413.88	250.44
414.07	194.26
414.26	264.48
414.45	180.22
414.64	203.63
414.83	287.89
415.02	250.44
415.22	215.33
415.41	339.38
415.60	250.44
415.79	259.80
415.98	273.84
416.17	250.44
416.36	220.01
416.55	217.67
416.74	243.42
416.93	337.04
417.12	236.39
417.31	173.20
417.50	248.10
417.69	280.86
417.88	241.08
418.07	255.12
418.26	252.78
418.45	191.92
418.64	255.12
418.83	231.71
419.02	304.27
419.21	337.04
419.39	290.23
419.58	280.86
419.77	308.95
419.96	238.73
420.15	313.63
420.34	292.57
420.53	315.97
420.72	191.92
420.91	330.02
421.10	313.63
421.29	344.06
421.48	304.27
421.67	311.29
421.86	315.97
422.05	334.70
422.24	234.05
422.43	205.97
422.61	248.10
422.80	278.52
422.99	259.80
423.18	257.46
423.37	299.59
423.56	358.10
423.75	330.02
423.94	248.10
424.13	266.82
424.32	332.36
424.50	304.27
424.69	301.93
424.88	351.08
425.07	292.57
425.26	252.78
425.45	257.46
425.64	266.82
425.83	264.48
426.01	397.89
426.20	341.72
426.39	313.63
426.58	311.29
426.77	337.04
426.96	337.04
427.15	337.04
427.33	369.80
427.52	365.12
427.71	318.31
427.90	381.51
428.09	320.65
428.28	318.31
428.46	313.63
428.65	367.46
428.84	355.76
429.03	339.38
429.22	346.40
429.40	243.42
429.59	313.63
429.78	362.78
429.97	465.77
430.16	332.36
430.34	339.38
430.53	337.04
430.72	374.49
430.91	346.40
431.10	372.15
431.28	355.76
431.47	409.59
431.66	332.36
431.85	306.61
432.03	423.64
432.22	416.62
432.41	428.32
432.60	491.51
432.79	433.00
432.97	458.74
433.16	482.15
433.35	498.53
433.54	620.24
433.72	613.22
433.91	622.58
434.10	662.37
434.28	833.23
434.47	954.94
434.66	985.37
434.85	1359.85
435.03	3246.32
435.22	12451.65
435.41	28769.86
435.59	32173.00
435.78	20849.49
435.97	10403.68
436.16	3929.76
436.34	1462.83
436.53	870.68
436.72	718.54
436.90	594.50
437.09	589.82
437.28	547.69
437.46	482.15
437.65	535.98
437.84	547.69
438.02	456.40
438.21	477.47
438.40	489.17
438.58	479.81
438.77	559.39
438.96	468.11
439.14	407.25
439.33	514.92
439.52	397.89
439.70	388.53
439.89	381.51
440.08	456.40
440.26	491.51
440.45	416.62
440.63	435.34
440.82	390.87
441.01	365.12
441.19	444.70
441.38	407.25
441.57	454.06
441.75	451.72
441.94	491.51
442.12	437.68
442.31	395.55
442.50	500.87
442.68	393.21
442.87	386.19
443.05	437.68
443.24	505.56
443.43	449.38
443.61	444.70
443.80	470.45
443.98	402.57
444.17	479.81
444.35	437.68
444.54	428.32
444.73	369.80
444.91	489.17
445.10	477.47
445.28	414.27
445.47	503.22
445.65	519.60
445.84	442.36
446.02	421.30
446.21	407.25
446.39	411.93
446.58	458.74
446.77	346.40
446.95	433.00
447.14	433.00
447.32	435.34
447.51	416.62
447.69	463.43
447.88	468.11
448.06	447.04
448.25	477.47
448.43	416.62
448.62	379.17
448.80	444.70
448.99	491.51
449.17	463.43
449.36	451.72
449.54	472.79
449.73	418.96
449.91	465.77
450.10	475.13
450.28	482.15
450.46	540.66
450.65	507.90
450.83	440.02
451.02	447.04
451.20	482.15
451.39	414.27
451.57	418.96
451.76	395.55
451.94	472.79
452.13	479.81
452.31	418.96
452.49	369.80
452.68	379.17
452.86	423.64
453.05	477.47
453.23	472.79
453.42	404.91
453.60	477.47
453.78	451.72
453.97	437.68
454.15	348.74
454.34	397.89
454.52	423.64
454.70	486.83
454.89	421.30
455.07	433.00
455.26	390.87
455.44	437.68
455.62	447.04
455.81	437.68
455.99	388.53
456.17	430.66
456.36	440.02
456.54	421.30
456.73	472.79
456.91	451.72
457.09	463.43
457.28	425.98
457.46	456.40
457.64	461.09
457.83	479.81
458.01	381.51
458.19	447.04
458.38	400.23
458.56	437.68
458.74	416.62
458.93	470.45
459.11	400.23
459.29	437.68
459.48	472.79
459.66	425.98
459.84	582.79
460.03	512.58
460.21	400.23
460.39	470.45
460.57	503.22
460.76	503.22
460.94	547.69
461.12	514.92
461.31	491.51
461.49	386.19
461.67	376.83
461.85	430.66
462.04	451.72
462.22	528.96
462.40	402.57
462.59	369.80
462.77	360.44
462.95	470.45
463.13	489.17
463.32	437.68
463.50	458.74
463.68	521.94
463.86	423.64
464.05	463.43
464.23	414.27
464.41	414.27
464.59	404.91
464.78	442.36
464.96	397.89
465.14	468.11
465.32	358.10
465.50	397.89
465.69	379.17
465.87	472.79
466.05	451.72
466.23	423.64
466.41	386.19
466.60	454.06
466.78	407.25
466.96	482.15
467.14	475.13
467.32	510.24
467.51	486.83
467.69	477.47
467.87	430.66
468.05	458.74
468.23	489.17
468.41	442.36
468.60	433.00
468.78	369.80
468.96	360.44
469.14	414.27
469.32	393.21
469.50	404.91
469.69	447.04
469.87	379.17
470.05	409.59
470.23	409.59
470.41	369.80
470.59	404.91
470.77	425.98
470.95	390.87
471.14	423.64
471.32	348.74
471.50	533.64
471.68	397.89
471.86	444.70
472.04	456.40
472.22	442.36
472.40	421.30
472.58	482.15
472.77	327.68
472.95	346.40
473.13	390.87
473.31	397.89
473.49	430.66
473.67	360.44
473.85	369.80
474.03	407.25
474.21	409.59
474.39	505.56
474.57	484.49
474.75	437.68
474.93	346.40
475.12	393.21
475.30	365.12
475.48	322.99
475.66	383.85
475.84	418.96
476.02	414.27
476.20	454.06
476.38	381.51
476.56	475.13
476.74	510.24
476.92	411.93
477.10	463.43
477.28	407.25
477.46	379.17
477.64	409.59
477.82	491.51
478.00	411.93
478.18	433.00
478.36	463.43
478.54	463.43
478.72	456.40
478.90	472.79
479.08	486.83
479.26	615.56
479.44	608.54
479.62	500.87
479.80	545.34
479.98	557.05
480.16	587.47
480.34	676.41
480.52	561.73
480.70	688.12
480.88	636.63
481.06	648.33
481.24	767.70
481.41	755.99
481.59	854.30
481.77	788.76
481.95	910.47
482.13	936.21
482.31	954.94
482.49	1057.92
482.67	1153.88
482.85	1219.42
483.03	1235.80
483.21	1306.02
483.39	1446.45
483.57	1483.90
483.74	1570.50
483.92	1680.50
484.10	1678.16
484.28	1895.83
484.46	2031.58
484.64	2160.31
484.82	2183.72
485.00	2258.62
485.18	2401.39
485.35	2682.25
485.53	2738.43
485.71	2860.13
485.89	2888.22
486.07	2998.23
486.25	3052.06
486.43	3117.59
486.61	3173.77
486.78	2970.14
486.96	3155.04
487.14	3035.67
487.32	3063.76
487.50	3005.25
487.68	2993.55
487.85	3110.57
488.03	2778.22
488.21	2923.33
488.39	2738.43
488.57	2700.98
488.75	2677.57
488.92	2829.71
489.10	2492.67
489.28	2605.02
489.46	2516.08
489.64	2504.37
489.81	2349.90
489.99	2340.54
490.17	2272.66
490.35	2361.60
490.53	2258.62
490.70	2349.90
490.88	2193.08
491.06	2399.05
491.24	2567.57
491.41	2626.08
491.59	2434.16
491.77	2218.83
491.95	2183.72
492.13	2228.19
492.30	2139.25
492.48	2033.93
492.66	1982.43
492.84	2015.20
493.01	1942.64
493.19	1944.99
493.37	2059.67
493.54	1973.07
493.72	1937.96
493.90	1827.96
494.08	1879.45
494.25	1935.62
494.43	1792.85
494.61	1739.02
494.79	1685.19
494.96	1668.80
495.14	1750.72
495.32	1666.46
495.49	1717.95
495.67	1652.42
495.85	1619.65
496.02	1577.52
496.20	1572.84
496.38	1511.99
496.55	1416.02
496.73	1448.79
496.91	1409.00
497.09	1448.79
497.26	1488.58
497.44	1359.85
497.62	1334.11
497.79	1348.15
497.97	1345.81
498.14	1306.02
498.32	1238.14
498.50	1207.72
498.67	1160.91
498.85	1160.91
499.03	1111.75
499.20	1025.15
499.38	1151.54
499.56	1121.12
499.73	1142.18
499.91	1055.58
500.08	968.98
500.26	999.41
500.44	936.21
500.61	908.13
500.79	968.98
500.97	828.55
501.14	905.79
501.32	821.53
501.49	849.61
501.67	805.14
501.84	746.63
502.02	798.12
502.20	814.51
502.37	655.35
502.55	685.78
502.72	657.69
502.90	702.16
503.07	631.94
503.25	610.88
503.43	655.35
503.60	676.41
503.78	634.29
503.95	571.09
504.13	655.35
504.30	606.20
504.48	561.73
504.65	631.94
504.83	585.13
505.01	568.75
505.18	587.47
505.36	521.94
505.53	585.13
505.71	519.60
505.88	566.41
506.06	428.32
506.23	543.00
506.41	458.74
506.58	491.51
506.76	493.85
506.93	449.38
507.11	510.24
507.28	435.34
507.46	442.36
507.63	470.45
507.81	505.56
507.98	505.56
508.16	491.51
508.33	503.22
508.50	528.96
508.68	514.92
508.85	475.13
509.03	543.00
509.20	601.52
509.38	510.24
509.55	465.77
509.73	505.56
509.90	479.81
510.08	430.66
510.25	507.90
510.42	503.22
510.60	454.06
510.77	430.66
510.95	500.87
511.12	402.57
511.30	451.72
511.47	425.98
511.64	449.38
511.82	374.49
511.99	482.15
512.17	411.93
512.34	372.15
512.51	449.38
512.69	496.19
512.86	500.87
513.04	428.32
513.21	430.66
513.38	437.68
513.56	463.43
513.73	332.36
513.90	341.72
514.08	479.81
514.25	327.68
514.43	348.74
514.60	402.57
514.77	430.66
514.95	404.91
515.12	330.02
515.29	397.89
515.47	332.36
515.64	390.87
515.81	430.66
515.99	374.49
516.16	353.42
516.33	383.85
516.51	344.06
516.68	344.06
516.85	423.64
517.03	376.83
517.20	262.14
517.37	334.70
517.54	402.57
517.72	325.33
517.89	334.70
518.06	315.97
518.24	337.04
518.41	404.91
518.58	395.55
518.75	346.40
518.93	362.78
519.10	381.51
519.27	313.63
519.45	365.12
519.62	346.40
519.79	395.55
519.96	367.46
520.14	372.15
520.31	334.70
520.48	285.55
520.65	428.32
520.83	348.74
521.00	306.61
521.17	353.42
521.34	386.19
521.52	337.04
521.69	388.53
521.86	372.15
522.03	283.20
522.20	311.29
522.38	311.29
522.55	365.12
522.72	315.97
522.89	322.99
523.07	306.61
523.24	348.74
523.41	376.83
523.58	407.25
523.75	428.32
523.92	381.51
524.10	344.06
524.27	402.57
524.44	402.57
524.61	388.53
524.78	313.63
524.96	397.89
525.13	390.87
525.30	351.08
525.47	468.11
525.64	353.42
525.81	418.96
525.98	330.02
526.16	390.87
526.33	346.40
526.50	442.36
526.67	372.15
526.84	306.61
527.01	383.85
527.18	479.81
527.36	386.19
527.53	451.72
527.70	533.64
527.87	425.98
528.04	442.36
528.21	449.38
528.38	444.70
528.55	449.38
528.72	482.15
528.89	540.66
529.07	491.51
529.24	433.00
529.41	496.19
529.58	475.13
529.75	486.83
529.92	484.49
530.09	440.02
530.26	468.11
530.43	482.15
530.60	526.62
530.77	524.28
530.94	470.45
531.11	510.24
531.28	566.41
531.46	603.86
531.63	622.58
531.80	554.71
531.97	676.41
532.14	833.23
532.31	861.32
532.48	978.34
532.65	1149.20
532.82	1397.30
532.99	1577.52
533.16	1694.55
533.33	1769.44
533.50	1753.06
533.67	1472.20
533.84	1362.19
534.01	1088.35
534.18	1043.88
534.35	985.37
534.52	1083.67
534.69	1240.48
534.86	1114.10
535.03	1160.91
535.20	1273.25
535.37	1313.04
535.54	1268.57
535.71	1437.09
535.88	1584.54
536.05	1589.22
536.22	1762.42
536.38	1891.15
536.55	1926.26
536.72	2342.88
536.89	2490.33
537.06	2778.22
537.23	3105.89
537.40	3279.09
537.57	3660.60
537.74	3894.65
537.91	4117.00
538.08	4016.36
538.25	4100.62
538.42	4114.66
538.59	4222.33
538.75	4397.87
538.92	4568.73
539.09	5083.64
539.26	5652.39
539.43	6340.51
539.60	7164.38
539.77	7838.45
539.94	9111.71
540.11	9841.95
540.28	11080.10
540.44	11885.24
540.61	13509.57
540.78	15147.95
540.95	18057.23
541.12	21715.49
541.29	24926.71
541.46	26040.80
541.62	25895.69
541.79	24624.78
541.96	22810.86
542.13	21081.21
542.30	19995.20
542.47	18672.79
542.63	17680.41
542.80	17233.36
542.97	16966.54
543.14	16744.19
543.31	16655.25
543.48	17053.14
543.64	17090.59
543.81	17053.14
543.98	17216.98
544.15	17336.35
544.32	17544.66
544.48	17490.82
544.65	17099.95
544.82	17057.82
544.99	16795.68
545.16	17476.78
545.32	18546.40
545.49	29305.85
545.66	52758.02
545.83	60341.35
546.00	55496.44
546.16	40215.08
546.33	30508.88
546.50	22670.43
546.67	17963.61
546.83	15754.15
547.00	15047.30
547.17	14363.87
547.34	13434.68
547.50	13364.46
547.67	12678.68
547.84	11957.80
548.00	11634.80
548.17	11185.42
548.34	10607.31
548.51	10361.55
548.67	10054.94
548.84	9467.47
549.01	9050.85
549.18	8777.01
549.34	8439.97
549.51	7782.28
549.68	7681.64
549.84	7375.03
550.01	7133.95
550.18	6768.83
550.34	6450.52
550.51	6071.35
550.68	5783.46
550.84	5488.56
551.01	5205.35
551.18	4910.44
551.34	4755.97
551.51	4428.29
551.68	4447.02
551.84	4161.47
552.01	3861.88
552.18	3889.97
552.34	3637.19
552.51	3618.47
552.68	3372.71
552.84	3344.63
553.01	3211.22
553.18	2984.18
553.34	2930.35
553.51	3007.59
553.67	2864.82
553.84	2703.32
554.01	2555.86
554.17	2335.85
554.34	2265.64
554.51	2127.55
554.67	1975.41
554.84	1926.26
555.00	1813.92
555.17	1783.49
555.33	1703.91
555.50	1528.37
555.67	1516.67
555.83	1380.92
556.00	1406.66
556.16	1584.54
556.33	1331.76
556.50	1238.14
556.66	1186.65
556.83	1172.61
556.99	1116.44
557.16	1067.28
557.32	978.34
557.49	1111.75
557.65	1001.75
557.82	1006.43
557.98	1011.11
558.15	943.24
558.32	954.94
558.48	889.40
558.65	901.11
558.81	887.06
558.98	887.06
559.14	894.08
559.31	798.12
559.47	734.93
559.64	699.82
559.80	814.51
559.97	887.06
560.13	807.48
560.30	763.01
560.46	763.01
560.63	695.14
560.79	858.98
560.96	866.00
561.12	734.93
561.29	765.36
561.45	723.23
561.61	788.76
561.78	863.66
561.94	746.63
562.11	774.72
562.27	688.12
562.44	695.14
562.60	599.18
562.77	711.52
562.93	800.46
563.10	725.57
563.26	706.84
563.42	641.31
563.59	737.27
563.75	685.78
563.92	620.24
564.08	643.65
564.24	683.44
564.41	699.82
564.57	641.31
564.74	641.31
564.90	620.24
565.07	645.99
565.23	587.47
565.39	606.20
565.56	613.22
565.72	653.01
565.88	660.03
566.05	526.62
566.21	557.05
566.38	538.32
566.54	627.26
566.70	578.11
566.87	613.22
567.03	526.62
567.19	631.94
567.36	631.94
567.52	657.69
567.68	519.60
567.85	622.58
568.01	575.77
568.17	653.01
568.34	559.39
568.50	737.27
568.66	568.75
568.83	660.03
568.99	554.71
569.15	627.26
569.32	641.31
569.48	503.22
569.64	491.51
569.81	550.03
569.97	496.19
570.13	444.70
570.30	521.94
570.46	482.15
570.62	444.70
570.78	449.38
570.95	407.25
571.11	531.30
571.27	540.66
571.43	458.74
571.60	493.85
571.76	449.38
571.92	493.85
572.09	528.96
572.25	416.62
572.41	484.49
572.57	521.94
572.74	528.96
572.90	505.56
573.06	526.62
573.22	414.27
573.38	503.22
573.55	514.92
573.71	472.79
573.87	535.98
574.03	528.96
574.20	573.43
574.36	528.96
574.52	624.92
574.68	610.88
574.84	528.96
575.01	669.39
575.17	615.56
575.33	627.26
575.49	699.82
575.65	753.65
575.82	812.17
575.98	908.13
576.14	931.53
576.30	1944.99
576.46	6019.86
576.62	11384.37
576.79	12383.77
576.95	8713.81
577.11	5834.96
577.27	4196.58
577.43	2726.72
577.59	1961.37
577.75	1380.92
577.92	1310.70
578.08	1270.91
578.24	1294.32
578.40	2008.18
578.56	5706.23
578.72	9984.73
578.88	10665.82
579.04	8156.77
579.21	5664.10
579.37	4376.80
579.53	3438.25
579.69	3227.60
579.85	3999.98
580.01	4575.75
580.17	4318.29
580.33	3948.48
580.49	3349.31
580.65	2881.20
580.82	2689.28
580.98	2511.39
581.14	2630.76
581.30	2747.79
581.46	2775.88
581.62	3234.62
581.78	3342.28
581.94	3623.15
582.10	3801.03
582.26	4056.15
582.42	4180.20
582.58	4241.05
582.74	4367.44
582.90	4428.29
583.06	4248.07
583.22	4290.20
583.38	4428.29
583.54	4512.55
583.70	4376.80
583.86	4229.35
584.02	4184.88
584.18	4138.07
584.34	4021.04
584.50	3985.93
584.66	3934.44
584.82	3929.76
584.98	3866.56
585.14	3784.65
585.30	3838.48
585.46	3632.51
585.62	3599.74
585.78	3702.73
585.94	3637.19
586.10	3726.13
586.26	4023.38
586.42	4264.46
586.58	5242.80
586.74	6562.86
586.90	7737.81
587.06	8571.04
587.22	8432.95
587.38	7503.76
587.54	6609.67
587.70	5645.37
587.86	4894.06
588.02	4095.94
588.18	3510.80
588.34	3070.78
588.49	2972.48
588.65	2764.17
588.81	2724.38
588.97	2485.65
589.13	2422.45
589.29	2417.77
589.45	2476.29
589.61	2487.99
589.77	2492.67
589.93	2401.39
590.08	2574.59
590.24	2581.61
590.40	2677.57
590.56	2757.15
590.72	2820.35
590.88	2806.30
591.04	3012.27
591.20	3030.99
591.35	3419.52
591.51	3396.12
591.67	3471.01
591.83	3740.18
591.99	4156.79
592.15	4444.68
592.31	4793.42
592.46	5224.08
592.62	5563.45
592.78	6031.56
592.94	6296.04
593.10	6008.16
593.26	5940.28
593.41	5413.66
593.57	4786.40
593.73	4177.86
593.89	3763.58
594.05	3405.48
594.20	2995.89
594.36	2808.64
594.52	2492.67
594.68	2420.11
594.84	2354.58
594.99	2445.86
595.15	2284.36
595.31	2352.24
595.47	2193.08
595.62	2200.10
595.78	2097.12
595.94	2298.41
596.10	2277.34
596.25	2108.82
596.41	2237.55
596.57	2289.04
596.73	2242.23
596.88	2012.86
597.04	2214.15
597.20	2183.72
597.36	2326.49
597.51	2354.58
597.67	2342.88
597.83	2436.50
597.99	2663.53
598.14	2733.75
598.30	3040.36
598.46	3122.27
598.61	3389.10
598.77	3440.59
598.93	3604.42
599.09	3691.02
599.24	3665.28
599.40	3744.86
599.56	3728.47
599.71	3417.18
599.87	3330.58
600.03	3002.91
600.18	2818.00
600.34	2710.34
600.50	2462.24
600.65	2244.57
600.81	2237.55
600.97	2165.00
601.12	2083.08
601.28	1909.88
601.44	1785.83
601.59	1774.13
601.75	1809.23
601.91	1542.41
602.06	1678.16
602.22	1666.46
602.37	1474.54
602.53	1509.65
602.69	1481.56
602.84	1465.18
603.00	1448.79
603.16	1465.18
603.31	1530.71
603.47	1544.75
603.62	1629.01
603.78	1570.50
603.94	1692.21
604.09	1685.19
604.25	1771.79
604.40	1706.25
604.56	1678.16
604.71	1760.08
604.87	1806.89
605.03	1776.47
605.18	1839.66
605.34	1870.09
