SpectraSuite Data File
++++++++++++++++++++++++++++++++++++
Date: Fri Oct 04 11:41:50 GMT-05:00 2013
User: price-jones
Dark Spectrum Present: No
Reference Spectrum Present: No
Number of Sampled Component Spectra: 1
Spectrometers: USB2+H05261
Integration Time (usec): 100000 (USB2+H05261)
Spectra Averaged: 1 (USB2+H05261)
Boxcar Smoothing: 0 (USB2+H05261)
Correct for Electrical Dark: No (USB2+H05261)
Strobe/Lamp Enabled: No (USB2+H05261)
Correct for Detector Non-linearity: No (USB2+H05261)
Correct for Stray Light: No (USB2+H05261)
Number of Pixels in Processed Spectrum: 2048
>>>>>Begin Processed Spectral Data<<<<<
365.73	39.79
365.92	39.79
366.12	39.79
366.32	0.00
366.52	0.00
366.72	0.00
366.91	0.00
367.11	4.68
367.31	35.11
367.51	0.00
367.70	0.00
367.90	0.00
368.10	0.00
368.30	0.00
368.49	0.00
368.69	23.41
368.89	0.00
369.09	0.00
369.28	0.00
369.48	0.00
369.68	2.34
369.87	51.49
370.07	4.68
370.27	65.54
370.47	70.22
370.66	77.24
370.86	114.69
371.06	65.54
371.25	72.56
371.45	32.77
371.65	84.26
371.84	65.54
372.04	74.90
372.24	98.30
372.44	149.79
372.63	37.45
372.83	107.66
373.03	145.11
373.22	51.49
373.42	93.62
373.62	60.85
373.81	110.01
374.01	107.66
374.21	159.16
374.40	107.66
374.60	220.01
374.79	184.90
374.99	126.39
375.19	63.19
375.38	107.66
375.58	114.69
375.78	133.41
375.97	175.54
376.17	149.79
376.37	46.81
376.56	166.18
376.76	154.48
376.95	173.20
377.15	149.79
377.35	124.05
377.54	161.50
377.74	147.45
377.93	124.05
378.13	203.63
378.33	91.28
378.52	86.60
378.72	182.56
378.91	140.43
379.11	128.73
379.31	100.64
379.50	102.98
379.70	135.75
379.89	184.90
380.09	121.71
380.28	135.75
380.48	133.41
380.68	107.66
380.87	39.79
381.07	161.50
381.26	159.16
381.46	168.52
381.65	102.98
381.85	168.52
382.04	140.43
382.24	102.98
382.43	191.92
382.63	93.62
382.83	53.83
383.02	88.94
383.22	175.54
383.41	138.09
383.61	74.90
383.80	74.90
384.00	77.24
384.19	102.98
384.39	121.71
384.58	70.22
384.78	86.60
384.97	152.13
385.17	105.32
385.36	180.22
385.56	126.39
385.75	56.17
385.95	114.69
386.14	175.54
386.34	198.95
386.53	105.32
386.72	81.92
386.92	140.43
387.11	86.60
387.31	189.58
387.50	220.01
387.70	79.58
387.89	105.32
388.09	105.32
388.28	161.50
388.48	98.30
388.67	86.60
388.86	105.32
389.06	124.05
389.25	126.39
389.45	110.01
389.64	81.92
389.84	149.79
390.03	205.97
390.22	184.90
390.42	149.79
390.61	95.96
390.81	95.96
391.00	140.43
391.19	147.45
391.39	88.94
391.58	135.75
391.78	128.73
391.97	86.60
392.16	98.30
392.36	145.11
392.55	191.92
392.75	95.96
392.94	135.75
393.13	189.58
393.33	117.03
393.52	145.11
393.71	168.52
393.91	105.32
394.10	51.49
394.29	138.09
394.49	175.54
394.68	152.13
394.88	105.32
395.07	166.18
395.26	222.35
395.46	117.03
395.65	23.41
395.84	133.41
396.04	133.41
396.23	170.86
396.42	168.52
396.62	187.24
396.81	156.82
397.00	142.77
397.19	107.66
397.39	112.35
397.58	220.01
397.77	210.65
397.97	102.98
398.16	147.45
398.35	166.18
398.55	170.86
398.74	95.96
398.93	222.35
399.12	79.58
399.32	168.52
399.51	184.90
399.70	140.43
399.90	156.82
400.09	182.56
400.28	152.13
400.47	205.97
400.67	175.54
400.86	184.90
401.05	182.56
401.24	142.77
401.44	194.26
401.63	217.67
401.82	201.29
402.01	175.54
402.21	163.84
402.40	184.90
402.59	170.86
402.78	166.18
402.97	168.52
403.17	182.56
403.36	278.52
403.55	285.55
403.74	667.05
403.93	2179.04
404.13	5118.75
404.32	7470.99
404.51	6469.24
404.70	4142.75
404.89	1497.94
405.09	479.81
405.28	327.68
405.47	191.92
405.66	205.97
405.85	292.57
406.05	191.92
406.24	271.50
406.43	196.60
406.62	252.78
406.81	269.16
407.00	376.83
407.20	650.67
407.39	1053.24
407.58	1022.81
407.77	793.44
407.96	484.49
408.15	234.05
408.34	170.86
408.54	222.35
408.73	217.67
408.92	189.58
409.11	194.26
409.30	224.69
409.49	220.01
409.68	159.16
409.87	241.08
410.07	117.03
410.26	182.56
410.45	147.45
410.64	201.29
410.83	184.90
411.02	208.31
411.21	257.46
411.40	175.54
411.59	180.22
411.78	196.60
411.98	203.63
412.17	173.20
412.36	227.03
412.55	196.60
412.74	140.43
412.93	313.63
413.12	194.26
413.31	227.03
413.50	273.84
413.69	227.03
413.88	259.80
414.07	231.71
414.26	203.63
414.45	212.99
414.64	234.05
414.83	229.37
415.02	250.44
415.22	191.92
415.41	308.95
415.60	248.10
415.79	241.08
415.98	320.65
416.17	234.05
416.36	229.37
416.55	231.71
416.74	313.63
416.93	234.05
417.12	234.05
417.31	224.69
417.50	280.86
417.69	278.52
417.88	266.82
418.07	243.42
418.26	243.42
418.45	217.67
418.64	348.74
418.83	271.50
419.02	304.27
419.21	210.65
419.39	273.84
419.58	313.63
419.77	220.01
419.96	266.82
420.15	332.36
420.34	271.50
420.53	306.61
420.72	280.86
420.91	290.23
421.10	278.52
421.29	241.08
421.48	348.74
421.67	292.57
421.86	301.93
422.05	252.78
422.24	341.72
422.43	285.55
422.61	243.42
422.80	243.42
422.99	306.61
423.18	365.12
423.37	320.65
423.56	255.12
423.75	304.27
423.94	311.29
424.13	304.27
424.32	271.50
424.50	299.59
424.69	313.63
424.88	283.20
425.07	337.04
425.26	264.48
425.45	358.10
425.64	383.85
425.83	344.06
426.01	330.02
426.20	376.83
426.39	353.42
426.58	245.76
426.77	266.82
426.96	276.18
427.15	334.70
427.33	297.25
427.52	304.27
427.71	325.33
427.90	334.70
428.09	411.93
428.28	318.31
428.46	381.51
428.65	348.74
428.84	383.85
429.03	447.04
429.22	304.27
429.40	320.65
429.59	322.99
429.78	381.51
429.97	433.00
430.16	416.62
430.34	374.49
430.53	425.98
430.72	416.62
430.91	358.10
431.10	428.32
431.28	334.70
431.47	428.32
431.66	444.70
431.85	346.40
432.03	365.12
432.22	461.09
432.41	454.06
432.60	500.87
432.79	465.77
432.97	482.15
433.16	444.70
433.35	526.62
433.54	613.22
433.72	669.39
433.91	716.20
434.10	727.91
434.28	830.89
434.47	938.55
434.66	1109.41
434.85	1423.05
435.03	3492.08
435.22	13235.73
435.41	31845.33
435.59	35484.86
435.78	23175.98
435.97	11536.50
436.16	4482.13
436.34	1530.71
436.53	868.34
436.72	734.93
436.90	699.82
437.09	585.13
437.28	620.24
437.46	533.64
437.65	559.39
437.84	477.47
438.02	538.32
438.21	524.28
438.40	458.74
438.58	510.24
438.77	468.11
438.96	461.09
439.14	491.51
439.33	435.34
439.52	526.62
439.70	433.00
439.89	493.85
440.08	496.19
440.26	489.17
440.45	472.79
440.63	472.79
440.82	552.37
441.01	561.73
441.19	510.24
441.38	510.24
441.57	456.40
441.75	433.00
441.94	447.04
442.12	402.57
442.31	407.25
442.50	545.34
442.68	472.79
442.87	414.27
443.05	531.30
443.24	491.51
443.43	524.28
443.61	528.96
443.80	461.09
443.98	545.34
444.17	451.72
444.35	505.56
444.54	533.64
444.73	531.30
444.91	500.87
445.10	416.62
445.28	479.81
445.47	449.38
445.65	383.85
445.84	418.96
446.02	444.70
446.21	470.45
446.39	470.45
446.58	566.41
446.77	470.45
446.95	430.66
447.14	489.17
447.32	482.15
447.51	484.49
447.69	400.23
447.88	428.32
448.06	479.81
448.25	461.09
448.43	402.57
448.62	451.72
448.80	557.05
448.99	531.30
449.17	510.24
449.36	418.96
449.54	421.30
449.73	423.64
449.91	440.02
450.10	461.09
450.28	468.11
450.46	479.81
450.65	526.62
450.83	503.22
451.02	468.11
451.20	486.83
451.39	510.24
451.57	470.45
451.76	411.93
451.94	491.51
452.13	484.49
452.31	538.32
452.49	535.98
452.68	416.62
452.86	512.58
453.05	538.32
453.23	514.92
453.42	404.91
453.60	472.79
453.78	423.64
453.97	451.72
454.15	519.60
454.34	456.40
454.52	477.47
454.70	498.53
454.89	491.51
455.07	479.81
455.26	528.96
455.44	435.34
455.62	430.66
455.81	493.85
455.99	477.47
456.17	477.47
456.36	507.90
456.54	486.83
456.73	493.85
456.91	458.74
457.09	482.15
457.28	449.38
457.46	526.62
457.64	484.49
457.83	465.77
458.01	433.00
458.19	393.21
458.38	449.38
458.56	498.53
458.74	421.30
458.93	449.38
459.11	463.43
459.29	421.30
459.48	503.22
459.66	479.81
459.84	451.72
460.03	510.24
460.21	470.45
460.39	503.22
460.57	521.94
460.76	477.47
460.94	477.47
461.12	451.72
461.31	461.09
461.49	484.49
461.67	423.64
461.85	390.87
462.04	493.85
462.22	877.70
462.40	461.09
462.59	411.93
462.77	435.34
462.95	451.72
463.13	442.36
463.32	465.77
463.50	411.93
463.68	428.32
463.86	503.22
464.05	463.43
464.23	521.94
464.41	489.17
464.59	491.51
464.78	425.98
464.96	468.11
465.14	386.19
465.32	381.51
465.50	477.47
465.69	414.27
465.87	381.51
466.05	447.04
466.23	493.85
466.41	458.74
466.60	489.17
466.78	505.56
466.96	566.41
467.14	465.77
467.32	505.56
467.51	400.23
467.69	442.36
467.87	470.45
468.05	414.27
468.23	388.53
468.41	379.17
468.60	353.42
468.78	444.70
468.96	491.51
469.14	430.66
469.32	397.89
469.50	397.89
469.69	449.38
469.87	397.89
470.05	437.68
470.23	318.31
470.41	430.66
470.59	337.04
470.77	449.38
470.95	454.06
471.14	472.79
471.32	407.25
471.50	444.70
471.68	418.96
471.86	440.02
472.04	430.66
472.22	468.11
472.40	395.55
472.58	430.66
472.77	376.83
472.95	418.96
473.13	526.62
473.31	482.15
473.49	468.11
473.67	440.02
473.85	440.02
474.03	482.15
474.21	496.19
474.39	517.26
474.57	491.51
474.75	447.04
474.93	463.43
475.12	362.78
475.30	433.00
475.48	470.45
475.66	454.06
475.84	276.18
476.02	421.30
476.20	414.27
476.38	411.93
476.56	535.98
476.74	498.53
476.92	402.57
477.10	503.22
477.28	500.87
477.46	430.66
477.64	535.98
477.82	416.62
478.00	465.77
478.18	489.17
478.36	538.32
478.54	493.85
478.72	526.62
478.90	510.24
479.08	491.51
479.26	561.73
479.44	603.86
479.62	550.03
479.80	575.77
479.98	660.03
480.16	585.13
480.34	692.80
480.52	690.46
480.70	760.67
480.88	692.80
481.06	753.65
481.24	760.67
481.41	819.19
481.59	844.93
481.77	889.40
481.95	1067.28
482.13	938.55
482.31	1027.50
482.49	1193.67
482.67	1238.14
482.85	1324.74
483.03	1404.32
483.21	1460.49
483.39	1565.82
483.57	1554.12
483.74	1736.68
483.92	1898.17
484.10	2001.16
484.28	2085.42
484.46	2214.15
484.64	2326.49
484.82	2345.22
485.00	2448.20
485.18	2473.95
485.35	2918.65
485.53	2892.90
485.71	2916.31
485.89	3248.66
486.07	3213.56
486.25	3286.11
486.43	3255.69
486.61	3417.18
486.78	3243.98
486.96	3353.99
487.14	3358.67
487.32	3194.83
487.50	3332.92
487.68	3169.09
487.85	3234.62
488.03	3159.72
488.21	3087.17
488.39	3054.40
488.57	2995.89
488.75	2897.58
488.92	3068.44
489.10	2822.69
489.28	2803.96
489.46	2640.12
489.64	2588.63
489.81	2621.40
489.99	2525.44
490.17	2429.48
490.35	2476.29
490.53	2340.54
490.70	2478.63
490.88	2495.01
491.06	2637.78
491.24	2813.32
491.41	2984.18
491.59	2726.72
491.77	2520.76
491.95	2487.99
492.13	2375.64
492.30	2291.38
492.48	2277.34
492.66	2134.57
492.84	2122.87
493.01	2223.51
493.19	2118.18
493.37	2195.42
493.54	2083.08
493.72	2015.20
493.90	2005.84
494.08	1975.41
494.25	2012.86
494.43	1982.43
494.61	1842.00
494.79	1926.26
494.96	1795.19
495.14	1769.44
495.32	1797.53
495.49	1797.53
495.67	1675.82
495.85	1755.40
496.02	1746.04
496.20	1572.84
496.38	1556.46
496.55	1561.14
496.73	1502.62
496.91	1502.62
497.09	1526.03
497.26	1519.01
497.44	1385.60
497.62	1430.07
497.79	1378.58
497.97	1390.28
498.14	1434.75
498.32	1406.66
498.50	1355.17
498.67	1369.21
498.85	1240.48
499.03	1282.61
499.20	1224.10
499.38	1186.65
499.56	1203.04
499.73	1233.46
499.91	1132.82
500.08	1135.16
500.26	1048.56
500.44	1004.09
500.61	1008.77
500.79	943.24
500.97	873.02
501.14	912.81
501.32	903.45
501.49	954.94
501.67	968.98
501.84	837.91
502.02	730.25
502.20	828.55
502.37	805.14
502.55	777.06
502.72	744.29
502.90	723.23
503.07	702.16
503.25	695.14
503.43	669.39
503.60	690.46
503.78	634.29
503.95	667.05
504.13	573.43
504.30	624.92
504.48	589.82
504.65	613.22
504.83	610.88
505.01	580.45
505.18	582.79
505.36	587.47
505.53	580.45
505.71	484.49
505.88	589.82
506.06	526.62
506.23	486.83
506.41	557.05
506.58	498.53
506.76	491.51
506.93	582.79
507.11	587.47
507.28	500.87
507.46	437.68
507.63	442.36
507.81	491.51
507.98	451.72
508.16	383.85
508.33	500.87
508.50	514.92
508.68	601.52
508.85	519.60
509.03	498.53
509.20	447.04
509.38	582.79
509.55	493.85
509.73	463.43
509.90	470.45
510.08	411.93
510.25	512.58
510.42	414.27
510.60	491.51
510.77	447.04
510.95	451.72
511.12	390.87
511.30	407.25
511.47	440.02
511.64	418.96
511.82	463.43
511.99	425.98
512.17	507.90
512.34	482.15
512.51	397.89
512.69	491.51
512.86	503.22
513.04	451.72
513.21	397.89
513.38	355.76
513.56	383.85
513.73	381.51
513.90	386.19
514.08	397.89
514.25	418.96
514.43	372.15
514.60	430.66
514.77	358.10
514.95	409.59
515.12	444.70
515.29	468.11
515.47	407.25
515.64	386.19
515.81	341.72
515.99	430.66
516.16	397.89
516.33	430.66
516.51	409.59
516.68	416.62
516.85	404.91
517.03	339.38
517.20	334.70
517.37	437.68
517.54	402.57
517.72	402.57
517.89	337.04
518.06	365.12
518.24	346.40
518.41	348.74
518.58	437.68
518.75	358.10
518.93	367.46
519.10	299.59
519.27	395.55
519.45	416.62
519.62	440.02
519.79	362.78
519.96	311.29
520.14	379.17
520.31	482.15
520.48	353.42
520.65	400.23
520.83	346.40
521.00	369.80
521.17	383.85
521.34	290.23
521.52	395.55
521.69	395.55
521.86	449.38
522.03	442.36
522.20	421.30
522.38	276.18
522.55	346.40
522.72	414.27
522.89	388.53
523.07	435.34
523.24	433.00
523.41	393.21
523.58	355.76
523.75	341.72
523.92	440.02
524.10	407.25
524.27	306.61
524.44	330.02
524.61	468.11
524.78	491.51
524.96	322.99
525.13	463.43
525.30	451.72
525.47	451.72
525.64	334.70
525.81	440.02
525.98	376.83
526.16	404.91
526.33	442.36
526.50	379.17
526.67	344.06
526.84	397.89
527.01	393.21
527.18	475.13
527.36	526.62
527.53	540.66
527.70	521.94
527.87	484.49
528.04	491.51
528.21	416.62
528.38	454.06
528.55	514.92
528.72	447.04
528.89	524.28
529.07	465.77
529.24	407.25
529.41	505.56
529.58	503.22
529.75	479.81
529.92	496.19
530.09	589.82
530.26	608.54
530.43	561.73
530.60	545.34
530.77	475.13
530.94	594.50
531.11	620.24
531.28	566.41
531.46	624.92
531.63	688.12
531.80	653.01
531.97	681.10
532.14	830.89
532.31	1046.22
532.48	1090.69
532.65	1280.27
532.82	1352.83
532.99	1586.88
533.16	1987.11
533.33	2017.54
533.50	1895.83
533.67	1650.08
533.84	1315.38
534.01	1376.24
534.18	1228.78
534.35	1270.91
534.52	1158.57
534.69	1207.72
534.86	1226.44
535.03	1235.80
535.20	1284.95
535.37	1434.75
535.54	1462.83
535.71	1434.75
535.88	1668.80
536.05	1748.38
536.22	1881.79
536.38	2059.67
536.55	2165.00
536.72	2485.65
536.89	2775.88
537.06	3063.76
537.23	3318.88
537.40	3707.41
537.57	3929.76
537.74	4255.09
537.91	4320.63
538.08	4437.66
538.25	4545.32
538.42	4580.43
538.59	4655.33
538.75	4737.24
538.92	5135.14
539.09	5556.43
539.26	6202.42
539.43	6937.35
539.60	7838.45
539.77	8744.24
539.94	9635.99
540.11	10724.33
540.28	11969.50
540.44	13015.72
540.61	14553.45
540.78	16379.07
540.95	20006.90
541.12	23723.67
541.29	27140.85
541.46	28123.88
541.62	27985.79
541.79	26845.94
541.96	25261.40
542.13	23129.17
542.30	21451.01
542.47	19978.81
542.63	19187.71
542.80	18604.92
542.97	18277.24
543.14	18153.20
543.31	17907.44
543.48	18291.29
543.64	18635.35
543.81	18586.19
543.98	18918.55
544.15	18714.92
544.32	19124.52
544.48	19091.75
544.65	18773.44
544.82	18827.27
544.99	19185.37
545.16	19199.41
545.32	20189.46
545.49	32582.60
545.66	56102.64
545.83	62529.75
546.00	59173.42
546.16	45808.96
546.33	34232.68
546.50	25053.09
546.67	19728.38
546.83	17399.54
547.00	16339.28
547.17	15466.26
547.34	14909.21
547.50	14183.65
547.67	13837.25
547.84	13153.81
548.00	12865.92
548.17	12203.55
548.34	11815.02
548.51	11360.96
548.67	11014.56
548.84	10422.41
549.01	9724.93
549.18	9338.74
549.34	9069.58
549.51	8613.17
549.68	8297.20
549.84	8058.46
550.01	7611.42
550.18	7321.20
550.34	7094.16
550.51	6829.68
550.68	6579.25
550.84	5963.68
551.01	5680.48
551.18	5537.71
551.34	5104.71
551.51	4933.85
551.68	4681.07
551.84	4470.42
552.01	4252.75
552.18	4121.68
552.34	4021.04
552.51	3913.38
552.68	3625.49
552.84	3648.90
553.01	3496.76
553.18	3370.37
553.34	3309.52
553.51	3103.55
553.67	3108.23
553.84	2998.23
554.01	2878.86
554.17	2504.37
554.34	2438.84
554.51	2242.23
554.67	2169.68
554.84	2090.10
555.00	1888.81
555.17	1802.21
555.33	1610.29
555.50	1654.76
555.67	1565.82
555.83	1521.35
556.00	1474.54
556.16	1650.08
556.33	1444.11
556.50	1441.77
556.66	1322.40
556.83	1303.68
556.99	1217.08
557.16	1179.63
557.32	1170.27
557.49	1090.69
557.65	1067.28
557.82	1095.37
557.98	1053.24
558.15	919.83
558.32	1004.09
558.48	1039.20
558.65	957.28
558.81	931.53
558.98	933.87
559.14	940.90
559.31	936.21
559.47	788.76
559.64	826.21
559.80	908.13
559.97	805.14
560.13	915.15
560.30	760.67
560.46	802.80
560.63	758.33
560.79	800.46
560.96	791.10
561.12	842.59
561.29	744.29
561.45	795.78
561.61	837.91
561.78	870.68
561.94	727.91
562.11	887.06
562.27	842.59
562.44	760.67
562.60	774.72
562.77	791.10
562.93	772.38
563.10	791.10
563.26	685.78
563.42	786.42
563.59	706.84
563.75	676.41
563.92	758.33
564.08	610.88
564.24	678.76
564.41	753.65
564.57	638.97
564.74	678.76
564.90	765.36
565.07	699.82
565.23	622.58
565.39	603.86
565.56	587.47
565.72	507.90
565.88	660.03
566.05	557.05
566.21	667.05
566.38	596.84
566.54	671.73
566.70	638.97
566.87	617.90
567.03	653.01
567.19	622.58
567.36	620.24
567.52	599.18
567.68	655.35
567.85	599.18
568.01	575.77
568.17	648.33
568.34	592.16
568.50	664.71
568.66	631.94
568.83	732.59
568.99	608.54
569.15	645.99
569.32	557.05
569.48	622.58
569.64	575.77
569.81	526.62
569.97	524.28
570.13	491.51
570.30	463.43
570.46	418.96
570.62	425.98
570.78	519.60
570.95	437.68
571.11	498.53
571.27	479.81
571.43	524.28
571.60	479.81
571.76	465.77
571.92	514.92
572.09	482.15
572.25	580.45
572.41	484.49
572.57	430.66
572.74	526.62
572.90	561.73
573.06	475.13
573.22	503.22
573.38	526.62
573.55	510.24
573.71	524.28
573.87	526.62
574.03	561.73
574.20	559.39
574.36	564.07
574.52	634.29
574.68	599.18
574.84	631.94
575.01	648.33
575.17	629.60
575.33	688.12
575.49	816.85
575.65	807.48
575.82	847.27
575.98	1020.47
576.14	999.41
576.30	1909.88
576.46	6026.88
576.62	11981.20
576.79	14169.60
576.95	9998.77
577.11	6253.91
577.27	4484.47
577.43	2993.55
577.59	1977.75
577.75	1472.20
577.92	1437.09
578.08	1345.81
578.24	1462.83
578.40	2260.96
578.56	6174.33
578.72	11119.89
578.88	12863.58
579.04	9509.60
579.21	6300.72
579.37	4664.69
579.53	3480.38
579.69	3386.76
579.85	4030.40
580.01	4870.65
580.17	4856.61
580.33	4159.13
580.49	3487.40
580.65	3206.53
580.82	2885.88
580.98	2775.88
581.14	2867.16
581.30	3038.02
581.46	3068.44
581.62	3407.82
581.78	3754.22
581.94	3988.27
582.10	4046.79
582.26	4318.29
582.42	4524.26
582.58	4692.77
582.74	4758.31
582.90	4575.75
583.06	4709.16
583.22	4901.08
583.38	4641.28
583.54	4582.77
583.70	4755.97
583.86	4538.30
584.02	4517.23
584.18	4688.09
584.34	4440.00
584.50	4264.46
584.66	4320.63
584.82	4229.35
584.98	4231.69
585.14	4058.49
585.30	4131.05
585.46	3948.48
585.62	3925.08
585.78	3976.57
585.94	4065.51
586.10	4067.85
586.26	4383.82
586.42	4821.50
586.58	5870.06
586.74	7164.38
586.90	8505.51
587.06	9561.09
587.22	9228.73
587.38	8269.11
587.54	7316.51
587.70	6026.88
587.86	5135.14
588.02	4444.68
588.18	3920.40
588.34	3506.12
588.49	3204.19
588.65	3112.91
588.81	2909.29
588.97	2731.41
589.13	2743.11
589.29	2754.81
589.45	2637.78
589.61	2569.91
589.77	2663.53
589.93	2740.77
590.08	2708.00
590.24	2794.60
590.40	2883.54
590.56	2958.44
590.72	2930.35
590.88	3082.49
591.04	3124.62
591.20	3318.88
591.35	3449.95
591.51	3632.51
591.67	3705.07
591.83	4016.36
591.99	4360.42
592.15	4702.14
592.31	5153.86
592.46	5350.46
592.62	6235.19
592.78	6551.16
592.94	6775.85
593.10	6808.62
593.26	6228.17
593.41	5933.26
593.57	5268.55
593.73	4650.64
593.89	4140.41
594.05	3698.05
594.20	3304.84
594.36	3103.55
594.52	2689.28
594.68	2597.99
594.84	2569.91
594.99	2504.37
595.15	2403.73
595.31	2396.71
595.47	2516.08
595.62	2410.75
595.78	2239.89
595.94	2413.09
596.10	2431.82
596.25	2307.77
596.41	2473.95
596.57	2387.35
596.73	2413.09
596.88	2263.30
597.04	2305.43
597.20	2401.39
597.36	2420.11
597.51	2569.91
597.67	2619.06
597.83	2677.57
597.99	2909.29
598.14	3129.30
598.30	3136.32
598.46	3283.77
598.61	3548.25
598.77	3789.33
598.93	3861.88
599.09	3962.53
599.24	3971.89
599.40	3857.20
599.56	3922.74
599.71	3707.41
599.87	3531.87
600.03	3318.88
600.18	3185.47
600.34	2869.50
600.50	2745.45
600.65	2602.68
600.81	2352.24
600.97	2186.06
601.12	2122.87
601.28	2069.03
601.44	1975.41
601.59	1912.22
601.75	1909.88
601.91	1830.30
602.06	1687.53
602.22	1748.38
602.37	1537.73
602.53	1589.22
602.69	1558.80
602.84	1626.67
603.00	1607.95
603.16	1603.27
603.31	1596.25
603.47	1638.38
603.62	1636.03
603.78	1757.74
603.94	1724.97
604.09	1774.13
604.25	1762.42
604.40	1778.81
604.56	1816.26
604.71	1856.04
604.87	1980.09
605.03	1881.79
605.18	2024.56
