SpectraSuite Data File
++++++++++++++++++++++++++++++++++++
Date: Fri Oct 04 11:42:26 GMT-05:00 2013
User: price-jones
Dark Spectrum Present: No
Reference Spectrum Present: No
Number of Sampled Component Spectra: 1
Spectrometers: USB2+H05261
Integration Time (usec): 100000 (USB2+H05261)
Spectra Averaged: 1 (USB2+H05261)
Boxcar Smoothing: 0 (USB2+H05261)
Correct for Electrical Dark: No (USB2+H05261)
Strobe/Lamp Enabled: No (USB2+H05261)
Correct for Detector Non-linearity: No (USB2+H05261)
Correct for Stray Light: No (USB2+H05261)
Number of Pixels in Processed Spectrum: 2048
>>>>>Begin Processed Spectral Data<<<<<
365.73	0.00
365.92	0.00
366.12	0.00
366.32	0.00
366.52	0.00
366.72	23.41
366.91	0.00
367.11	0.00
367.31	0.00
367.51	0.00
367.70	0.00
367.90	0.00
368.10	0.00
368.30	0.00
368.49	0.00
368.69	0.00
368.89	0.00
369.09	0.00
369.28	0.00
369.48	0.00
369.68	0.00
369.87	0.00
370.07	0.00
370.27	107.66
370.47	72.56
370.66	98.30
370.86	11.70
371.06	77.24
371.25	79.58
371.45	58.51
371.65	112.35
371.84	65.54
372.04	91.28
372.24	142.77
372.44	117.03
372.63	107.66
372.83	119.37
373.03	88.94
373.22	168.52
373.42	56.17
373.62	81.92
373.81	100.64
374.01	191.92
374.21	112.35
374.40	175.54
374.60	154.48
374.79	180.22
374.99	107.66
375.19	170.86
375.38	198.95
375.58	156.82
375.78	142.77
375.97	117.03
376.17	114.69
376.37	140.43
376.56	98.30
376.76	135.75
376.95	102.98
377.15	168.52
377.35	98.30
377.54	147.45
377.74	154.48
377.93	170.86
378.13	102.98
378.33	149.79
378.52	117.03
378.72	114.69
378.91	70.22
379.11	163.84
379.31	70.22
379.50	79.58
379.70	163.84
379.89	77.24
380.09	79.58
380.28	84.26
380.48	107.66
380.68	23.41
380.87	105.32
381.07	88.94
381.26	149.79
381.46	135.75
381.65	112.35
381.85	79.58
382.04	72.56
382.24	147.45
382.43	98.30
382.63	117.03
382.83	65.54
383.02	81.92
383.22	107.66
383.41	98.30
383.61	51.49
383.80	86.60
384.00	100.64
384.19	110.01
384.39	93.62
384.58	117.03
384.78	110.01
384.97	102.98
385.17	102.98
385.36	110.01
385.56	131.07
385.75	110.01
385.95	131.07
386.14	159.16
386.34	215.33
386.53	126.39
386.72	98.30
386.92	210.65
387.11	105.32
387.31	74.90
387.50	88.94
387.70	117.03
387.89	44.47
388.09	102.98
388.28	81.92
388.48	138.09
388.67	70.22
388.86	119.37
389.06	32.77
389.25	72.56
389.45	102.98
389.64	53.83
389.84	112.35
390.03	117.03
390.22	88.94
390.42	154.48
390.61	65.54
390.81	140.43
391.00	124.05
391.19	180.22
391.39	154.48
391.58	70.22
391.78	135.75
391.97	131.07
392.16	77.24
392.36	100.64
392.55	98.30
392.75	93.62
392.94	79.58
393.13	72.56
393.33	28.09
393.52	112.35
393.71	215.33
393.91	72.56
394.10	67.88
394.29	88.94
394.49	117.03
394.68	81.92
394.88	124.05
395.07	180.22
395.26	84.26
395.46	128.73
395.65	107.66
395.84	112.35
396.04	133.41
396.23	42.13
396.42	102.98
396.62	70.22
396.81	72.56
397.00	126.39
397.19	100.64
397.39	60.85
397.58	142.77
397.77	84.26
397.97	107.66
398.16	121.71
398.35	173.20
398.55	128.73
398.74	95.96
398.93	173.20
399.12	191.92
399.32	105.32
399.51	100.64
399.70	142.77
399.90	198.95
400.09	79.58
400.28	147.45
400.47	114.69
400.67	154.48
400.86	70.22
401.05	131.07
401.24	210.65
401.44	138.09
401.63	210.65
401.82	159.16
402.01	77.24
402.21	168.52
402.40	133.41
402.59	107.66
402.78	60.85
402.97	107.66
403.17	110.01
403.36	149.79
403.55	124.05
403.74	173.20
403.93	238.73
404.13	353.42
404.32	320.65
404.51	376.83
404.70	287.89
404.89	180.22
405.09	121.71
405.28	56.17
405.47	70.22
405.66	93.62
405.85	114.69
406.05	105.32
406.24	138.09
406.43	74.90
406.62	145.11
406.81	191.92
407.00	86.60
407.20	175.54
407.39	107.66
407.58	180.22
407.77	135.75
407.96	131.07
408.15	135.75
408.34	72.56
408.54	142.77
408.73	95.96
408.92	124.05
409.11	159.16
409.30	166.18
409.49	63.19
409.68	37.45
409.87	182.56
410.07	159.16
410.26	234.05
410.45	154.48
410.64	152.13
410.83	161.50
411.02	107.66
411.21	102.98
411.40	187.24
411.59	182.56
411.78	159.16
411.98	205.97
412.17	124.05
412.36	107.66
412.55	49.15
412.74	81.92
412.93	191.92
413.12	166.18
413.31	128.73
413.50	145.11
413.69	170.86
413.88	133.41
414.07	152.13
414.26	189.58
414.45	133.41
414.64	163.84
414.83	135.75
415.02	196.60
415.22	175.54
415.41	147.45
415.60	107.66
415.79	154.48
415.98	229.37
416.17	121.71
416.36	74.90
416.55	161.50
416.74	166.18
416.93	201.29
417.12	117.03
417.31	154.48
417.50	119.37
417.69	102.98
417.88	117.03
418.07	140.43
418.26	114.69
418.45	126.39
418.64	196.60
418.83	142.77
419.02	161.50
419.21	138.09
419.39	121.71
419.58	133.41
419.77	133.41
419.96	163.84
420.15	208.31
420.34	142.77
420.53	189.58
420.72	196.60
420.91	145.11
421.10	110.01
421.29	187.24
421.48	110.01
421.67	138.09
421.86	117.03
422.05	77.24
422.24	135.75
422.43	119.37
422.61	168.52
422.80	140.43
422.99	100.64
423.18	201.29
423.37	156.82
423.56	203.63
423.75	142.77
423.94	154.48
424.13	142.77
424.32	117.03
424.50	117.03
424.69	105.32
424.88	70.22
425.07	189.58
425.26	191.92
425.45	156.82
425.64	131.07
425.83	138.09
426.01	91.28
426.20	191.92
426.39	138.09
426.58	149.79
426.77	215.33
426.96	154.48
427.15	170.86
427.33	98.30
427.52	142.77
427.71	238.73
427.90	187.24
428.09	140.43
428.28	105.32
428.46	79.58
428.65	215.33
428.84	215.33
429.03	180.22
429.22	159.16
429.40	187.24
429.59	135.75
429.78	201.29
429.97	117.03
430.16	184.90
430.34	191.92
430.53	138.09
430.72	154.48
430.91	175.54
431.10	135.75
431.28	189.58
431.47	117.03
431.66	135.75
431.85	152.13
432.03	180.22
432.22	234.05
432.41	163.84
432.60	170.86
432.79	210.65
432.97	177.88
433.16	119.37
433.35	124.05
433.54	135.75
433.72	201.29
433.91	194.26
434.10	138.09
434.28	159.16
434.47	156.82
434.66	224.69
434.85	210.65
435.03	355.76
435.22	856.64
435.41	1387.94
435.59	1430.07
435.78	961.96
435.97	521.94
436.16	273.84
436.34	180.22
436.53	170.86
436.72	201.29
436.90	217.67
437.09	180.22
437.28	140.43
437.46	166.18
437.65	189.58
437.84	212.99
438.02	215.33
438.21	161.50
438.40	142.77
438.58	168.52
438.77	135.75
438.96	191.92
439.14	156.82
439.33	138.09
439.52	159.16
439.70	128.73
439.89	175.54
440.08	224.69
440.26	98.30
440.45	278.52
440.63	154.48
440.82	112.35
441.01	114.69
441.19	189.58
441.38	210.65
441.57	205.97
441.75	210.65
441.94	187.24
442.12	187.24
442.31	156.82
442.50	196.60
442.68	88.94
442.87	133.41
443.05	173.20
443.24	135.75
443.43	163.84
443.61	215.33
443.80	168.52
443.98	210.65
444.17	161.50
444.35	203.63
444.54	173.20
444.73	154.48
444.91	217.67
445.10	135.75
445.28	161.50
445.47	208.31
445.65	133.41
445.84	128.73
446.02	203.63
446.21	201.29
446.39	184.90
446.58	194.26
446.77	166.18
446.95	177.88
447.14	156.82
447.32	229.37
447.51	231.71
447.69	198.95
447.88	191.92
448.06	168.52
448.25	95.96
448.43	217.67
448.62	173.20
448.80	177.88
448.99	163.84
449.17	147.45
449.36	161.50
449.54	173.20
449.73	149.79
449.91	196.60
450.10	168.52
450.28	222.35
450.46	163.84
450.65	175.54
450.83	201.29
451.02	135.75
451.20	147.45
451.39	259.80
451.57	168.52
451.76	152.13
451.94	140.43
452.13	140.43
452.31	276.18
452.49	154.48
452.68	177.88
452.86	175.54
453.05	140.43
453.23	208.31
453.42	154.48
453.60	100.64
453.78	212.99
453.97	142.77
454.15	135.75
454.34	154.48
454.52	121.71
454.70	173.20
454.89	191.92
455.07	133.41
455.26	187.24
455.44	170.86
455.62	196.60
455.81	189.58
455.99	205.97
456.17	170.86
456.36	224.69
456.54	252.78
456.73	124.05
456.91	145.11
457.09	224.69
457.28	173.20
457.46	126.39
457.64	220.01
457.83	131.07
458.01	194.26
458.19	110.01
458.38	173.20
458.56	152.13
458.74	121.71
458.93	229.37
459.11	124.05
459.29	145.11
459.48	166.18
459.66	168.52
459.84	231.71
460.03	257.46
460.21	142.77
460.39	170.86
460.57	259.80
460.76	173.20
460.94	180.22
461.12	210.65
461.31	245.76
461.49	170.86
461.67	170.86
461.85	210.65
462.04	110.01
462.22	297.25
462.40	189.58
462.59	163.84
462.77	159.16
462.95	266.82
463.13	163.84
463.32	250.44
463.50	110.01
463.68	191.92
463.86	142.77
464.05	187.24
464.23	161.50
464.41	170.86
464.59	135.75
464.78	170.86
464.96	180.22
465.14	215.33
465.32	220.01
465.50	220.01
465.69	175.54
465.87	86.60
466.05	180.22
466.23	88.94
466.41	177.88
466.60	168.52
466.78	159.16
466.96	184.90
467.14	238.73
467.32	175.54
467.51	156.82
467.69	177.88
467.87	222.35
468.05	131.07
468.23	234.05
468.41	196.60
468.60	119.37
468.78	128.73
468.96	187.24
469.14	238.73
469.32	163.84
469.50	145.11
469.69	241.08
469.87	152.13
470.05	175.54
470.23	124.05
470.41	182.56
470.59	163.84
470.77	201.29
470.95	147.45
471.14	194.26
471.32	184.90
471.50	238.73
471.68	243.42
471.86	117.03
472.04	196.60
472.22	234.05
472.40	194.26
472.58	126.39
472.77	107.66
472.95	163.84
473.13	229.37
473.31	215.33
473.49	117.03
473.67	187.24
473.85	208.31
474.03	170.86
474.21	220.01
474.39	212.99
474.57	194.26
474.75	154.48
474.93	170.86
475.12	163.84
475.30	231.71
475.48	175.54
475.66	168.52
475.84	215.33
476.02	154.48
476.20	248.10
476.38	196.60
476.56	210.65
476.74	201.29
476.92	154.48
477.10	287.89
477.28	189.58
477.46	187.24
477.64	173.20
477.82	161.50
478.00	198.95
478.18	170.86
478.36	112.35
478.54	149.79
478.72	156.82
478.90	287.89
479.08	170.86
479.26	156.82
479.44	210.65
479.62	238.73
479.80	163.84
479.98	201.29
480.16	191.92
480.34	234.05
480.52	184.90
480.70	243.42
480.88	156.82
481.06	126.39
481.24	201.29
481.41	257.46
481.59	297.25
481.77	184.90
481.95	201.29
482.13	311.29
482.31	217.67
482.49	217.67
482.67	283.20
482.85	259.80
483.03	252.78
483.21	245.76
483.39	175.54
483.57	287.89
483.74	327.68
483.92	273.84
484.10	264.48
484.28	311.29
484.46	411.93
484.64	315.97
484.82	257.46
485.00	320.65
485.18	262.14
485.35	327.68
485.53	285.55
485.71	358.10
485.89	332.36
486.07	276.18
486.25	416.62
486.43	365.12
486.61	341.72
486.78	397.89
486.96	320.65
487.14	348.74
487.32	318.31
487.50	306.61
487.68	372.15
487.85	351.08
488.03	318.31
488.21	334.70
488.39	355.76
488.57	311.29
488.75	264.48
488.92	671.73
489.10	299.59
489.28	348.74
489.46	334.70
489.64	297.25
489.81	330.02
489.99	367.46
490.17	320.65
490.35	315.97
490.53	308.95
490.70	383.85
490.88	280.86
491.06	322.99
491.24	327.68
491.41	332.36
491.59	308.95
491.77	369.80
491.95	264.48
492.13	332.36
492.30	245.76
492.48	290.23
492.66	285.55
492.84	243.42
493.01	320.65
493.19	344.06
493.37	355.76
493.54	322.99
493.72	330.02
493.90	278.52
494.08	397.89
494.25	369.80
494.43	330.02
494.61	304.27
494.79	304.27
494.96	341.72
495.14	290.23
495.32	271.50
495.49	196.60
495.67	306.61
495.85	264.48
496.02	262.14
496.20	315.97
496.38	280.86
496.55	297.25
496.73	334.70
496.91	318.31
497.09	299.59
497.26	308.95
497.44	248.10
497.62	313.63
497.79	245.76
497.97	189.58
498.14	273.84
498.32	227.03
498.50	290.23
498.67	332.36
498.85	287.89
499.03	318.31
499.20	262.14
499.38	266.82
499.56	290.23
499.73	304.27
499.91	222.35
500.08	278.52
500.26	241.08
500.44	182.56
500.61	224.69
500.79	212.99
500.97	252.78
501.14	222.35
501.32	177.88
501.49	273.84
501.67	255.12
501.84	325.33
502.02	184.90
502.20	273.84
502.37	196.60
502.55	110.01
502.72	180.22
502.90	255.12
503.07	257.46
503.25	245.76
503.43	187.24
503.60	236.39
503.78	266.82
503.95	248.10
504.13	269.16
504.30	243.42
504.48	271.50
504.65	264.48
504.83	212.99
505.01	210.65
505.18	271.50
505.36	229.37
505.53	217.67
505.71	208.31
505.88	304.27
506.06	245.76
506.23	212.99
506.41	210.65
506.58	273.84
506.76	306.61
506.93	283.20
507.11	236.39
507.28	264.48
507.46	280.86
507.63	248.10
507.81	224.69
507.98	301.93
508.16	245.76
508.33	217.67
508.50	269.16
508.68	201.29
508.85	304.27
509.03	255.12
509.20	191.92
509.38	322.99
509.55	271.50
509.73	252.78
509.90	304.27
510.08	297.25
510.25	243.42
510.42	273.84
510.60	229.37
510.77	294.91
510.95	245.76
511.12	215.33
511.30	271.50
511.47	299.59
511.64	306.61
511.82	198.95
511.99	243.42
512.17	236.39
512.34	191.92
512.51	313.63
512.69	245.76
512.86	236.39
513.04	248.10
513.21	280.86
513.38	273.84
513.56	257.46
513.73	210.65
513.90	241.08
514.08	208.31
514.25	304.27
514.43	290.23
514.60	271.50
514.77	196.60
514.95	259.80
515.12	241.08
515.29	262.14
515.47	276.18
515.64	341.72
515.81	255.12
515.99	351.08
516.16	250.44
516.33	259.80
516.51	231.71
516.68	161.50
516.85	248.10
517.03	257.46
517.20	287.89
517.37	271.50
517.54	189.58
517.72	159.16
517.89	189.58
518.06	250.44
518.24	341.72
518.41	325.33
518.58	196.60
518.75	304.27
518.93	308.95
519.10	334.70
519.27	248.10
519.45	327.68
519.62	236.39
519.79	241.08
519.96	276.18
520.14	271.50
520.31	243.42
520.48	220.01
520.65	248.10
520.83	280.86
521.00	238.73
521.17	212.99
521.34	238.73
521.52	269.16
521.69	271.50
521.86	245.76
522.03	250.44
522.20	248.10
522.38	238.73
522.55	278.52
522.72	177.88
522.89	248.10
523.07	320.65
523.24	236.39
523.41	250.44
523.58	222.35
523.75	287.89
523.92	301.93
524.10	238.73
524.27	224.69
524.44	224.69
524.61	306.61
524.78	208.31
524.96	271.50
525.13	205.97
525.30	290.23
525.47	337.04
525.64	241.08
525.81	173.20
525.98	252.78
526.16	318.31
526.33	245.76
526.50	238.73
526.67	154.48
526.84	285.55
527.01	236.39
527.18	262.14
527.36	262.14
527.53	306.61
527.70	278.52
527.87	264.48
528.04	325.33
528.21	285.55
528.38	266.82
528.55	266.82
528.72	273.84
528.89	346.40
529.07	285.55
529.24	285.55
529.41	327.68
529.58	224.69
529.75	220.01
529.92	273.84
530.09	245.76
530.26	292.57
530.43	257.46
530.60	283.20
530.77	255.12
530.94	259.80
531.11	201.29
531.28	292.57
531.46	306.61
531.63	262.14
531.80	250.44
531.97	278.52
532.14	337.04
532.31	341.72
532.48	271.50
532.65	287.89
532.82	308.95
532.99	294.91
533.16	367.46
533.33	411.93
533.50	278.52
533.67	184.90
533.84	390.87
534.01	264.48
534.18	390.87
534.35	327.68
534.52	332.36
534.69	374.49
534.86	222.35
535.03	269.16
535.20	264.48
535.37	287.89
535.54	299.59
535.71	381.51
535.88	325.33
536.05	330.02
536.22	339.38
536.38	259.80
536.55	353.42
536.72	355.76
536.89	311.29
537.06	374.49
537.23	322.99
537.40	376.83
537.57	428.32
537.74	400.23
537.91	428.32
538.08	393.21
538.25	505.56
538.42	388.53
538.59	482.15
538.75	589.82
538.92	440.02
539.09	500.87
539.26	463.43
539.43	608.54
539.60	582.79
539.77	615.56
539.94	645.99
540.11	697.48
540.28	786.42
540.44	753.65
540.61	779.40
540.78	844.93
540.95	978.34
541.12	1179.63
541.29	1401.98
541.46	1376.24
541.62	1352.83
541.79	1500.28
541.96	1486.24
542.13	1397.30
542.30	1483.90
542.47	1504.96
542.63	1306.02
542.80	1320.06
542.97	1437.09
543.14	1441.77
543.31	1406.66
543.48	1362.19
543.64	1387.94
543.81	1401.98
543.98	1394.96
544.15	1362.19
544.32	1362.19
544.48	1263.89
544.65	1331.76
544.82	1165.59
544.99	1240.48
545.16	1221.76
545.32	1317.72
545.49	2036.27
545.66	3007.59
545.83	3564.64
546.00	3112.91
546.16	2153.29
546.33	1673.48
546.50	1160.91
546.67	1041.54
546.83	870.68
547.00	901.11
547.17	760.67
547.34	734.93
547.50	795.78
547.67	730.25
547.84	781.74
548.00	826.21
548.17	786.42
548.34	702.16
548.51	688.12
548.67	744.29
548.84	753.65
549.01	664.71
549.18	589.82
549.34	655.35
549.51	678.76
549.68	667.05
549.84	624.92
550.01	603.86
550.18	788.76
550.34	620.24
550.51	580.45
550.68	610.88
550.84	510.24
551.01	526.62
551.18	526.62
551.34	575.77
551.51	486.83
551.68	470.45
551.84	496.19
552.01	486.83
552.18	491.51
552.34	477.47
552.51	411.93
552.68	430.66
552.84	372.15
553.01	444.70
553.18	369.80
553.34	367.46
553.51	325.33
553.67	381.51
553.84	360.44
554.01	400.23
554.17	360.44
554.34	325.33
554.51	358.10
554.67	248.10
554.84	306.61
555.00	332.36
555.17	311.29
555.33	271.50
555.50	308.95
555.67	250.44
555.83	262.14
556.00	313.63
556.16	425.98
556.33	285.55
556.50	278.52
556.66	271.50
556.83	250.44
556.99	299.59
557.16	250.44
557.32	294.91
557.49	294.91
557.65	294.91
557.82	337.04
557.98	313.63
558.15	255.12
558.32	234.05
558.48	283.20
558.65	315.97
558.81	264.48
558.98	315.97
559.14	334.70
559.31	285.55
559.47	236.39
559.64	203.63
559.80	231.71
559.97	227.03
560.13	189.58
560.30	313.63
560.46	224.69
560.63	266.82
560.79	266.82
560.96	271.50
561.12	212.99
561.29	250.44
561.45	341.72
561.61	264.48
561.78	332.36
561.94	168.52
562.11	215.33
562.27	191.92
562.44	180.22
562.60	299.59
562.77	264.48
562.93	294.91
563.10	224.69
563.26	227.03
563.42	243.42
563.59	250.44
563.75	222.35
563.92	276.18
564.08	248.10
564.24	318.31
564.41	353.42
564.57	227.03
564.74	262.14
564.90	285.55
565.07	299.59
565.23	276.18
565.39	234.05
565.56	339.38
565.72	283.20
565.88	229.37
566.05	271.50
566.21	238.73
566.38	212.99
566.54	292.57
566.70	241.08
566.87	287.89
567.03	255.12
567.19	339.38
567.36	252.78
567.52	259.80
567.68	229.37
567.85	180.22
568.01	266.82
568.17	257.46
568.34	229.37
568.50	262.14
568.66	212.99
568.83	325.33
568.99	271.50
569.15	318.31
569.32	220.01
569.48	245.76
569.64	198.95
569.81	147.45
569.97	287.89
570.13	280.86
570.30	119.37
570.46	168.52
570.62	196.60
570.78	259.80
570.95	264.48
571.11	299.59
571.27	362.78
571.43	196.60
571.60	243.42
571.76	299.59
571.92	266.82
572.09	210.65
572.25	306.61
572.41	250.44
572.57	236.39
572.74	266.82
572.90	198.95
573.06	276.18
573.22	294.91
573.38	290.23
573.55	278.52
573.71	229.37
573.87	273.84
574.03	205.97
574.20	194.26
574.36	297.25
574.52	224.69
574.68	191.92
574.84	201.29
575.01	266.82
575.17	257.46
575.33	322.99
575.49	208.31
575.65	280.86
575.82	252.78
575.98	374.49
576.14	283.20
576.30	407.25
576.46	585.13
576.62	798.12
576.79	765.36
576.95	636.63
577.11	512.58
577.27	447.04
577.43	315.97
577.59	346.40
577.75	266.82
577.92	292.57
578.08	245.76
578.24	301.93
578.40	346.40
578.56	538.32
578.72	723.23
578.88	755.99
579.04	702.16
579.21	512.58
579.37	465.77
579.53	404.91
579.69	425.98
579.85	400.23
580.01	414.27
580.17	477.47
580.33	409.59
580.49	505.56
580.65	365.12
580.82	440.02
580.98	369.80
581.14	360.44
581.30	390.87
581.46	393.21
581.62	458.74
581.78	355.76
581.94	475.13
582.10	416.62
582.26	376.83
582.42	463.43
582.58	416.62
582.74	465.77
582.90	423.64
583.06	514.92
583.22	531.30
583.38	519.60
583.54	491.51
583.70	594.50
583.86	503.22
584.02	568.75
584.18	482.15
584.34	435.34
584.50	421.30
584.66	447.04
584.82	477.47
584.98	470.45
585.14	374.49
585.30	379.17
585.46	414.27
585.62	353.42
585.78	461.09
585.94	435.34
586.10	365.12
586.26	440.02
586.42	479.81
586.58	491.51
586.74	617.90
586.90	603.86
587.06	601.52
587.22	631.94
587.38	622.58
587.54	550.03
587.70	535.98
587.86	465.77
588.02	404.91
588.18	390.87
588.34	400.23
588.49	414.27
588.65	369.80
588.81	365.12
588.97	360.44
589.13	372.15
589.29	283.20
589.45	423.64
589.61	264.48
589.77	358.10
589.93	318.31
590.08	285.55
590.24	334.70
590.40	360.44
590.56	367.46
590.72	313.63
590.88	271.50
591.04	381.51
591.20	397.89
591.35	362.78
591.51	341.72
591.67	337.04
591.83	337.04
591.99	367.46
592.15	449.38
592.31	418.96
592.46	463.43
592.62	547.69
592.78	524.28
592.94	447.04
593.10	465.77
593.26	517.26
593.41	355.76
593.57	465.77
593.73	330.02
593.89	388.53
594.05	341.72
594.20	306.61
594.36	362.78
594.52	339.38
594.68	318.31
594.84	376.83
594.99	280.86
595.15	374.49
595.31	276.18
595.47	318.31
595.62	318.31
595.78	388.53
595.94	308.95
596.10	346.40
596.25	294.91
596.41	311.29
596.57	269.16
596.73	212.99
596.88	315.97
597.04	301.93
597.20	224.69
597.36	320.65
597.51	301.93
597.67	285.55
597.83	299.59
597.99	273.84
598.14	376.83
598.30	395.55
598.46	351.08
598.61	369.80
598.77	388.53
598.93	294.91
599.09	402.57
599.24	430.66
599.40	358.10
599.56	374.49
599.71	348.74
599.87	360.44
600.03	383.85
600.18	266.82
600.34	372.15
600.50	229.37
600.65	278.52
600.81	299.59
600.97	264.48
601.12	322.99
601.28	236.39
601.44	271.50
601.59	280.86
601.75	220.01
601.91	330.02
602.06	271.50
602.22	322.99
602.37	196.60
602.53	252.78
602.69	236.39
602.84	248.10
603.00	273.84
603.16	313.63
603.31	292.57
603.47	250.44
603.62	259.80
603.78	241.08
603.94	222.35
604.09	304.27
604.25	220.01
604.40	224.69
604.56	222.35
604.71	250.44
604.87	306.61
605.03	348.74
605.18	287.89
605.34	283.20
605.49	241.08
605.65	264.48
605.80	231.71
605.96	311.29
606.12	257.46
606.27	315.97
606.43	299.59
606.58	297.25
606.74	294.91
606.89	229.37
607.05	308.95
607.20	358.10
607.36	341.72
607.51	360.44
607.67	407.25
607.82	397.89
607.98	458.74
608.13	449.38
608.29	435.34
608.44	433.00
608.60	475.13
608.75	477.47
608.91	493.85
609.06	543.00
609.22	601.52
609.37	613.22
609.53	631.94
609.68	713.86
609.84	716.20
609.99	933.87
610.15	1011.11
610.30	1174.95
610.46	1593.90
610.61	1781.15
610.76	2298.41
610.92	2752.47
611.07	3021.63
