SpectraSuite Data File
++++++++++++++++++++++++++++++++++++
Date: Fri Oct 04 11:41:55 GMT-05:00 2013
User: price-jones
Dark Spectrum Present: No
Reference Spectrum Present: No
Number of Sampled Component Spectra: 1
Spectrometers: USB2+H05261
Integration Time (usec): 100000 (USB2+H05261)
Spectra Averaged: 1 (USB2+H05261)
Boxcar Smoothing: 0 (USB2+H05261)
Correct for Electrical Dark: No (USB2+H05261)
Strobe/Lamp Enabled: No (USB2+H05261)
Correct for Detector Non-linearity: No (USB2+H05261)
Correct for Stray Light: No (USB2+H05261)
Number of Pixels in Processed Spectrum: 2048
>>>>>Begin Processed Spectral Data<<<<<
365.73	49.15
365.92	49.15
366.12	49.15
366.32	0.00
366.52	0.00
366.72	0.00
366.91	0.00
367.11	0.00
367.31	0.00
367.51	0.00
367.70	0.00
367.90	7.02
368.10	0.00
368.30	0.00
368.49	0.00
368.69	9.36
368.89	14.04
369.09	0.00
369.28	16.38
369.48	0.00
369.68	46.81
369.87	35.11
370.07	0.00
370.27	74.90
370.47	84.26
370.66	21.06
370.86	0.00
371.06	51.49
371.25	138.09
371.45	65.54
371.65	81.92
371.84	35.11
372.04	72.56
372.24	65.54
372.44	74.90
372.63	168.52
372.83	184.90
373.03	201.29
373.22	63.19
373.42	77.24
373.62	131.07
373.81	142.77
374.01	93.62
374.21	156.82
374.40	126.39
374.60	194.26
374.79	208.31
374.99	161.50
375.19	133.41
375.38	135.75
375.58	95.96
375.78	145.11
375.97	149.79
376.17	269.16
376.37	121.71
376.56	110.01
376.76	95.96
376.95	53.83
377.15	166.18
377.35	135.75
377.54	119.37
377.74	142.77
377.93	100.64
378.13	102.98
378.33	135.75
378.52	142.77
378.72	159.16
378.91	203.63
379.11	102.98
379.31	149.79
379.50	140.43
379.70	107.66
379.89	147.45
380.09	102.98
380.28	88.94
380.48	63.19
380.68	81.92
380.87	67.88
381.07	149.79
381.26	210.65
381.46	170.86
381.65	102.98
381.85	147.45
382.04	168.52
382.24	117.03
382.43	79.58
382.63	135.75
382.83	203.63
383.02	131.07
383.22	138.09
383.41	105.32
383.61	58.51
383.80	100.64
384.00	95.96
384.19	126.39
384.39	102.98
384.58	131.07
384.78	205.97
384.97	126.39
385.17	117.03
385.36	114.69
385.56	98.30
385.75	67.88
385.95	159.16
386.14	182.56
386.34	67.88
386.53	30.43
386.72	117.03
386.92	131.07
387.11	84.26
387.31	140.43
387.50	105.32
387.70	102.98
387.89	107.66
388.09	100.64
388.28	114.69
388.48	88.94
388.67	182.56
388.86	110.01
389.06	72.56
389.25	100.64
389.45	119.37
389.64	210.65
389.84	163.84
390.03	117.03
390.22	166.18
390.42	131.07
390.61	149.79
390.81	124.05
391.00	191.92
391.19	112.35
391.39	135.75
391.58	112.35
391.78	114.69
391.97	128.73
392.16	74.90
392.36	145.11
392.55	163.84
392.75	35.11
392.94	140.43
393.13	142.77
393.33	110.01
393.52	107.66
393.71	177.88
393.91	131.07
394.10	121.71
394.29	74.90
394.49	131.07
394.68	154.48
394.88	201.29
395.07	170.86
395.26	131.07
395.46	128.73
395.65	229.37
395.84	152.13
396.04	259.80
396.23	154.48
396.42	175.54
396.62	140.43
396.81	168.52
397.00	112.35
397.19	159.16
397.39	149.79
397.58	133.41
397.77	149.79
397.97	131.07
398.16	177.88
398.35	138.09
398.55	79.58
398.74	135.75
398.93	184.90
399.12	142.77
399.32	124.05
399.51	147.45
399.70	161.50
399.90	208.31
400.09	205.97
400.28	168.52
400.47	205.97
400.67	147.45
400.86	184.90
401.05	156.82
401.24	154.48
401.44	124.05
401.63	175.54
401.82	180.22
402.01	161.50
402.21	257.46
402.40	266.82
402.59	208.31
402.78	187.24
402.97	201.29
403.17	250.44
403.36	210.65
403.55	346.40
403.74	713.86
403.93	2190.74
404.13	5785.80
404.32	9556.41
404.51	10054.94
404.70	6541.80
404.89	2221.17
405.09	709.18
405.28	283.20
405.47	250.44
405.66	229.37
405.85	177.88
406.05	278.52
406.24	196.60
406.43	198.95
406.62	287.89
406.81	280.86
407.00	337.04
407.20	697.48
407.39	1174.95
407.58	1549.43
407.77	1153.88
407.96	622.58
408.15	341.72
408.34	255.12
408.54	170.86
408.73	250.44
408.92	229.37
409.11	264.48
409.30	203.63
409.49	180.22
409.68	224.69
409.87	273.84
410.07	189.58
410.26	271.50
410.45	236.39
410.64	266.82
410.83	287.89
411.02	189.58
411.21	191.92
411.40	344.06
411.59	210.65
411.78	215.33
411.98	276.18
412.17	173.20
412.36	248.10
412.55	217.67
412.74	264.48
412.93	334.70
413.12	182.56
413.31	327.68
413.50	217.67
413.69	220.01
413.88	306.61
414.07	205.97
414.26	262.14
414.45	243.42
414.64	330.02
414.83	294.91
415.02	334.70
415.22	255.12
415.41	243.42
415.60	217.67
415.79	266.82
415.98	266.82
416.17	264.48
416.36	341.72
416.55	241.08
416.74	308.95
416.93	224.69
417.12	255.12
417.31	320.65
417.50	250.44
417.69	372.15
417.88	311.29
418.07	348.74
418.26	283.20
418.45	341.72
418.64	355.76
418.83	358.10
419.02	404.91
419.21	348.74
419.39	341.72
419.58	250.44
419.77	278.52
419.96	334.70
420.15	367.46
420.34	313.63
420.53	280.86
420.72	433.00
420.91	369.80
421.10	344.06
421.29	374.49
421.48	297.25
421.67	243.42
421.86	292.57
422.05	330.02
422.24	381.51
422.43	259.80
422.61	351.08
422.80	365.12
422.99	393.21
423.18	351.08
423.37	287.89
423.56	409.59
423.75	388.53
423.94	358.10
424.13	341.72
424.32	421.30
424.50	395.55
424.69	418.96
424.88	388.53
425.07	315.97
425.26	379.17
425.45	358.10
425.64	409.59
425.83	327.68
426.01	407.25
426.20	493.85
426.39	381.51
426.58	367.46
426.77	437.68
426.96	376.83
427.15	358.10
427.33	447.04
427.52	491.51
427.71	404.91
427.90	500.87
428.09	411.93
428.28	531.30
428.46	510.24
428.65	461.09
428.84	531.30
429.03	486.83
429.22	465.77
429.40	451.72
429.59	416.62
429.78	433.00
429.97	449.38
430.16	451.72
430.34	425.98
430.53	451.72
430.72	430.66
430.91	472.79
431.10	458.74
431.28	421.30
431.47	524.28
431.66	503.22
431.85	533.64
432.03	510.24
432.22	603.86
432.41	580.45
432.60	538.32
432.79	589.82
432.97	554.71
433.16	622.58
433.35	711.52
433.54	732.59
433.72	905.79
433.91	976.00
434.10	833.23
434.28	1067.28
434.47	1287.29
434.66	1481.56
434.85	1687.53
435.03	3885.29
435.22	13968.32
435.41	36411.71
435.59	49806.60
435.78	39068.22
435.97	17205.28
436.16	6293.70
436.34	2157.97
436.53	1235.80
436.72	889.40
436.90	753.65
437.09	720.88
437.28	737.27
437.46	739.61
437.65	636.63
437.84	716.20
438.02	713.86
438.21	636.63
438.40	664.71
438.58	657.69
438.77	559.39
438.96	615.56
439.14	566.41
439.33	650.67
439.52	671.73
439.70	498.53
439.89	655.35
440.08	610.88
440.26	589.82
440.45	613.22
440.63	631.94
440.82	594.50
441.01	533.64
441.19	589.82
441.38	624.92
441.57	554.71
441.75	596.84
441.94	573.43
442.12	643.65
442.31	566.41
442.50	575.77
442.68	653.01
442.87	674.07
443.05	648.33
443.24	606.20
443.43	580.45
443.61	627.26
443.80	561.73
443.98	629.60
444.17	566.41
444.35	517.26
444.54	603.86
444.73	578.11
444.91	568.75
445.10	550.03
445.28	554.71
445.47	627.26
445.65	482.15
445.84	561.73
446.02	596.84
446.21	608.54
446.39	622.58
446.58	582.79
446.77	573.43
446.95	627.26
447.14	594.50
447.32	585.13
447.51	599.18
447.69	596.84
447.88	643.65
448.06	648.33
448.25	573.43
448.43	589.82
448.62	507.90
448.80	641.31
448.99	582.79
449.17	638.97
449.36	571.09
449.54	526.62
449.73	552.37
449.91	629.60
450.10	624.92
450.28	575.77
450.46	631.94
450.65	592.16
450.83	587.47
451.02	580.45
451.20	557.05
451.39	592.16
451.57	585.13
451.76	540.66
451.94	547.69
452.13	627.26
452.31	578.11
452.49	603.86
452.68	535.98
452.86	603.86
453.05	636.63
453.23	627.26
453.42	582.79
453.60	641.31
453.78	547.69
453.97	538.32
454.15	496.19
454.34	580.45
454.52	573.43
454.70	631.94
454.89	575.77
455.07	493.85
455.26	582.79
455.44	568.75
455.62	559.39
455.81	585.13
455.99	566.41
456.17	582.79
456.36	596.84
456.54	629.60
456.73	543.00
456.91	564.07
457.09	519.60
457.28	617.90
457.46	552.37
457.64	566.41
457.83	514.92
458.01	514.92
458.19	575.77
458.38	510.24
458.56	463.43
458.74	498.53
458.93	557.05
459.11	517.26
459.29	521.94
459.48	557.05
459.66	521.94
459.84	545.34
460.03	725.57
460.21	575.77
460.39	641.31
460.57	538.32
460.76	444.70
460.94	571.09
461.12	580.45
461.31	540.66
461.49	559.39
461.67	580.45
461.85	627.26
462.04	533.64
462.22	957.28
462.40	615.56
462.59	601.52
462.77	472.79
462.95	552.37
463.13	505.56
463.32	685.78
463.50	599.18
463.68	578.11
463.86	472.79
464.05	503.22
464.23	603.86
464.41	571.09
464.59	606.20
464.78	599.18
464.96	552.37
465.14	564.07
465.32	468.11
465.50	505.56
465.69	503.22
465.87	442.36
466.05	496.19
466.23	468.11
466.41	559.39
466.60	655.35
466.78	627.26
466.96	685.78
467.14	582.79
467.32	592.16
467.51	571.09
467.69	557.05
467.87	624.92
468.05	561.73
468.23	613.22
468.41	578.11
468.60	482.15
468.78	496.19
468.96	503.22
469.14	514.92
469.32	592.16
469.50	533.64
469.69	528.96
469.87	433.00
470.05	489.17
470.23	561.73
470.41	479.81
470.59	468.11
470.77	535.98
470.95	550.03
471.14	535.98
471.32	493.85
471.50	550.03
471.68	535.98
471.86	484.49
472.04	526.62
472.22	550.03
472.40	535.98
472.58	617.90
472.77	573.43
472.95	498.53
473.13	594.50
473.31	587.47
473.49	465.77
473.67	526.62
473.85	519.60
474.03	617.90
474.21	552.37
474.39	538.32
474.57	526.62
474.75	505.56
474.93	463.43
475.12	486.83
475.30	528.96
475.48	479.81
475.66	486.83
475.84	477.47
476.02	559.39
476.20	617.90
476.38	561.73
476.56	587.47
476.74	507.90
476.92	552.37
477.10	521.94
477.28	664.71
477.46	566.41
477.64	505.56
477.82	582.79
478.00	547.69
478.18	599.18
478.36	610.88
478.54	648.33
478.72	608.54
478.90	671.73
479.08	645.99
479.26	725.57
479.44	774.72
479.62	690.46
479.80	723.23
479.98	744.29
480.16	816.85
480.34	821.53
480.52	798.12
480.70	903.45
480.88	898.77
481.06	1025.15
481.24	908.13
481.41	1074.31
481.59	1109.41
481.77	1240.48
481.95	1205.38
482.13	1228.78
482.31	1369.21
482.49	1519.01
482.67	1612.63
482.85	1659.44
483.03	1806.89
483.21	1959.03
483.39	2073.71
483.57	2188.40
483.74	2349.90
483.92	2464.58
484.10	2546.50
484.28	2731.41
484.46	2920.99
484.64	3005.25
484.82	3038.02
485.00	3349.31
485.18	3456.97
485.35	3749.54
485.53	3810.39
485.71	4065.51
485.89	4184.88
486.07	4355.74
486.25	4383.82
486.43	4381.48
486.61	4365.10
486.78	4383.82
486.96	4547.66
487.14	4437.66
487.32	4496.17
487.50	4409.57
487.68	4311.27
487.85	4334.67
488.03	4332.33
488.21	4266.80
488.39	4135.73
488.57	4095.94
488.75	3960.19
488.92	4065.51
489.10	3770.60
489.28	3585.70
489.46	3538.89
489.64	3543.57
489.81	3377.39
489.99	3396.12
490.17	3183.13
490.35	3368.03
490.53	3281.43
490.70	3335.26
490.88	3368.03
491.06	3393.78
491.24	3658.26
491.41	3786.99
491.59	3503.78
491.77	3262.71
491.95	3171.43
492.13	3026.31
492.30	3002.91
492.48	2909.29
492.66	2946.73
492.84	2846.09
493.01	2841.41
493.19	2815.66
493.37	2939.71
493.54	2799.28
493.72	2693.96
493.90	2708.00
494.08	2684.59
494.25	2686.94
494.43	2520.76
494.61	2616.72
494.79	2546.50
494.96	2436.50
495.14	2408.41
495.32	2342.88
495.49	2300.75
495.67	2382.67
495.85	2272.66
496.02	2230.53
496.20	2209.47
496.38	2150.95
496.55	2122.87
496.73	2099.46
496.91	2047.97
497.09	1980.09
497.26	2005.84
497.44	1923.92
497.62	1788.17
497.79	1947.33
497.97	1809.23
498.14	1853.70
498.32	1804.55
498.50	1682.85
498.67	1671.14
498.85	1577.52
499.03	1556.46
499.20	1462.83
499.38	1521.35
499.56	1521.35
499.73	1486.24
499.91	1528.37
500.08	1483.90
500.26	1404.32
500.44	1235.80
500.61	1291.98
500.79	1146.86
500.97	1200.69
501.14	1212.40
501.32	1093.03
501.49	1163.25
501.67	1095.37
501.84	1025.15
502.02	961.96
502.20	1041.54
502.37	983.02
502.55	868.34
502.72	887.06
502.90	966.64
503.07	910.47
503.25	858.98
503.43	851.96
503.60	863.66
503.78	842.59
503.95	800.46
504.13	826.21
504.30	741.95
504.48	767.70
504.65	739.61
504.83	800.46
505.01	751.31
505.18	720.88
505.36	692.80
505.53	732.59
505.71	716.20
505.88	587.47
506.06	622.58
506.23	657.69
506.41	587.47
506.58	638.97
506.76	634.29
506.93	594.50
507.11	620.24
507.28	524.28
507.46	552.37
507.63	573.43
507.81	550.03
507.98	566.41
508.16	648.33
508.33	557.05
508.50	638.97
508.68	620.24
508.85	662.37
509.03	631.94
509.20	676.41
509.38	631.94
509.55	571.09
509.73	585.13
509.90	571.09
510.08	521.94
510.25	545.34
510.42	517.26
510.60	557.05
510.77	564.07
510.95	543.00
511.12	538.32
511.30	521.94
511.47	650.67
511.64	547.69
511.82	538.32
511.99	512.58
512.17	456.40
512.34	477.47
512.51	479.81
512.69	554.71
512.86	592.16
513.04	507.90
513.21	543.00
513.38	472.79
513.56	454.06
513.73	463.43
513.90	421.30
514.08	451.72
514.25	582.79
514.43	559.39
514.60	421.30
514.77	510.24
514.95	512.58
515.12	421.30
515.29	435.34
515.47	463.43
515.64	503.22
515.81	428.32
515.99	493.85
516.16	421.30
516.33	477.47
516.51	468.11
516.68	423.64
516.85	470.45
517.03	365.12
517.20	475.13
517.37	479.81
517.54	444.70
517.72	395.55
517.89	428.32
518.06	353.42
518.24	510.24
518.41	451.72
518.58	428.32
518.75	393.21
518.93	355.76
519.10	404.91
519.27	386.19
519.45	442.36
519.62	425.98
519.79	472.79
519.96	327.68
520.14	409.59
520.31	397.89
520.48	395.55
520.65	386.19
520.83	327.68
521.00	463.43
521.17	383.85
521.34	421.30
521.52	404.91
521.69	402.57
521.86	402.57
522.03	423.64
522.20	482.15
522.38	475.13
522.55	402.57
522.72	421.30
522.89	428.32
523.07	402.57
523.24	423.64
523.41	365.12
523.58	400.23
523.75	472.79
523.92	393.21
524.10	456.40
524.27	425.98
524.44	433.00
524.61	425.98
524.78	421.30
524.96	428.32
525.13	437.68
525.30	477.47
525.47	489.17
525.64	423.64
525.81	425.98
525.98	447.04
526.16	517.26
526.33	447.04
526.50	383.85
526.67	470.45
526.84	547.69
527.01	519.60
527.18	599.18
527.36	594.50
527.53	592.16
527.70	582.79
527.87	594.50
528.04	629.60
528.21	557.05
528.38	547.69
528.55	568.75
528.72	613.22
528.89	543.00
529.07	585.13
529.24	585.13
529.41	645.99
529.58	573.43
529.75	552.37
529.92	613.22
530.09	650.67
530.26	571.09
530.43	671.73
530.60	650.67
530.77	716.20
530.94	697.48
531.11	631.94
531.28	566.41
531.46	791.10
531.63	739.61
531.80	807.48
531.97	894.08
532.14	968.98
532.31	1170.27
532.48	1434.75
532.65	1710.93
532.82	1839.66
532.99	2111.16
533.16	2452.88
533.33	2729.06
533.50	2509.05
533.67	2195.42
533.84	1898.17
534.01	1657.10
534.18	1465.18
534.35	1420.71
534.52	1409.00
534.69	1568.16
534.86	1554.12
535.03	1652.42
535.20	1657.10
535.37	1701.57
535.54	1914.56
535.71	1963.71
535.88	2204.78
536.05	2246.91
536.22	2328.83
536.38	2712.68
536.55	2860.13
536.72	3246.32
536.89	3461.65
537.06	3988.27
537.23	4365.10
537.40	4933.85
537.57	5308.34
537.74	5514.30
537.91	5834.96
538.08	5940.28
538.25	5926.24
538.42	5980.07
538.59	6216.46
538.75	6305.40
538.92	6740.74
539.09	7452.27
539.26	8063.15
539.43	9121.07
539.60	10441.13
539.77	11672.25
539.94	13291.90
540.11	14698.56
540.28	16203.53
540.44	17518.91
540.61	19330.48
540.78	22176.58
540.95	26539.33
541.12	32526.42
541.29	37134.94
541.46	39557.39
541.62	39056.52
541.79	37647.52
541.96	34483.11
542.13	32084.06
542.30	29853.53
542.47	28217.50
542.63	26703.17
542.80	25724.83
542.97	25294.17
543.14	25069.48
543.31	24840.11
543.48	24978.20
543.64	25408.86
543.81	25465.03
543.98	25867.60
544.15	26008.03
544.32	26373.16
544.48	26054.84
544.65	26017.40
544.82	25268.42
544.99	25223.95
545.16	26066.55
545.32	27145.53
545.49	39688.46
545.66	58972.14
545.83	65535.00
546.00	65535.00
546.16	61593.54
546.33	44062.93
546.50	33886.28
546.67	26553.38
546.83	23489.62
547.00	22871.72
547.17	21961.25
547.34	20737.15
547.50	19814.98
547.67	19349.21
547.84	18305.33
548.00	17415.93
548.17	16978.25
548.34	16353.32
548.51	15906.28
548.67	15105.82
548.84	14157.90
549.01	13596.17
549.18	12837.84
549.34	12430.59
549.51	11868.86
549.68	11698.00
549.84	11044.99
550.01	10516.03
550.18	9907.49
550.34	9497.89
550.51	9291.93
550.68	8683.39
550.84	8285.50
551.01	7850.16
551.18	7272.04
551.34	7061.40
551.51	6497.33
551.68	6499.67
551.84	6171.99
552.01	5853.68
552.18	5767.08
552.34	5413.66
552.51	5074.28
552.68	4933.85
552.84	4772.35
553.01	4851.93
553.18	4615.54
553.34	4313.61
553.51	4241.05
553.67	4154.45
553.84	3854.86
554.01	3616.13
554.17	3391.44
554.34	3227.60
554.51	3105.89
554.67	2867.16
554.84	2642.46
555.00	2490.33
555.17	2436.50
555.33	2394.37
555.50	2223.51
555.67	2054.99
555.83	2078.40
556.00	1987.11
556.16	2115.84
556.33	1912.22
556.50	1661.78
556.66	1753.06
556.83	1640.72
556.99	1614.97
557.16	1584.54
557.32	1504.96
557.49	1448.79
557.65	1369.21
557.82	1310.70
557.98	1437.09
558.15	1369.21
558.32	1252.19
558.48	1299.00
558.65	1228.78
558.81	1217.08
558.98	1217.08
559.14	1203.04
559.31	1090.69
559.47	1109.41
559.64	1078.99
559.80	1097.71
559.97	1114.10
560.13	1064.94
560.30	1123.46
560.46	968.98
560.63	990.05
560.79	1018.13
560.96	1001.75
561.12	1060.26
561.29	1008.77
561.45	926.85
561.61	954.94
561.78	1006.43
561.94	1088.35
562.11	952.60
562.27	987.71
562.44	1062.60
562.60	933.87
562.77	931.53
562.93	947.92
563.10	964.30
563.26	952.60
563.42	961.96
563.59	856.64
563.75	910.47
563.92	952.60
564.08	898.77
564.24	917.49
564.41	903.45
564.57	849.61
564.74	777.06
564.90	856.64
565.07	802.80
565.23	763.01
565.39	688.12
565.56	741.95
565.72	800.46
565.88	788.76
566.05	746.63
566.21	826.21
566.38	741.95
566.54	723.23
566.70	741.95
566.87	828.55
567.03	763.01
567.19	798.12
567.36	863.66
567.52	741.95
567.68	784.08
567.85	760.67
568.01	739.61
568.17	779.40
568.34	823.87
568.50	880.04
568.66	837.91
568.83	840.25
568.99	755.99
569.15	858.98
569.32	777.06
569.48	716.20
569.64	657.69
569.81	624.92
569.97	645.99
570.13	681.10
570.30	566.41
570.46	582.79
570.62	531.30
570.78	472.79
570.95	564.07
571.11	624.92
571.27	528.96
571.43	594.50
571.60	561.73
571.76	568.75
571.92	566.41
572.09	606.20
572.25	582.79
572.41	596.84
572.57	521.94
572.74	650.67
572.90	580.45
573.06	655.35
573.22	533.64
573.38	723.23
573.55	636.63
573.71	601.52
573.87	699.82
574.03	669.39
574.20	711.52
574.36	741.95
574.52	763.01
574.68	755.99
574.84	760.67
575.01	788.76
575.17	856.64
575.33	854.30
575.49	964.30
575.65	1142.18
575.82	1025.15
575.98	1268.57
576.14	1240.48
576.30	2251.60
576.46	7229.91
576.62	14815.59
576.79	21387.82
576.95	15449.88
577.11	8894.04
577.27	6064.33
577.43	4049.13
577.59	2572.25
577.75	2001.16
577.92	1886.47
578.08	1771.79
578.24	1888.81
578.40	2637.78
578.56	6693.93
578.72	14209.39
578.88	19819.66
579.04	14508.98
579.21	8676.37
579.37	6118.16
579.53	4779.37
579.69	4367.44
579.85	5191.31
580.01	6675.21
580.17	6920.96
580.33	5661.76
580.49	4779.37
580.65	4133.39
580.82	3852.52
580.98	3758.90
581.14	3735.50
581.30	4053.81
581.46	4250.41
581.62	4435.32
581.78	4912.78
581.94	5282.59
582.10	5528.35
582.26	5846.66
582.42	6150.93
582.58	6420.09
582.74	6392.00
582.90	6480.94
583.06	6555.84
583.22	6499.67
583.38	6548.82
583.54	6626.06
583.70	6588.61
583.86	6389.66
584.02	6251.57
584.18	6143.91
584.34	6118.16
584.50	6200.08
584.66	6003.47
584.82	5898.15
584.98	5804.53
585.14	5650.05
585.30	5600.90
585.46	5371.53
585.62	5514.30
585.78	5441.75
585.94	5296.63
586.10	5490.90
586.26	5666.44
586.42	6394.34
586.58	7700.36
586.74	9205.33
586.90	11564.59
587.06	13041.46
587.22	12947.84
587.38	12098.23
587.54	10167.29
587.70	8418.91
587.86	6981.82
588.02	5968.37
588.18	5329.40
588.34	4730.22
588.49	4468.08
588.65	3995.29
588.81	3833.80
588.97	3763.58
589.13	3714.43
589.29	3569.32
589.45	3566.98
589.61	3468.67
589.77	3679.32
589.93	3590.38
590.08	3700.39
590.24	3812.73
590.40	3943.80
590.56	4016.36
590.72	4095.94
590.88	4234.03
591.04	4327.65
591.20	4528.94
591.35	4856.61
591.51	4898.74
591.67	5165.56
591.83	5439.40
591.99	5806.87
592.15	6347.53
592.31	7042.67
592.46	7674.62
592.62	8306.56
592.78	8896.38
592.94	9240.44
593.10	9261.50
593.26	8879.99
593.41	8086.55
593.57	7262.68
593.73	6527.75
593.89	5694.52
594.05	4997.04
594.20	4519.57
594.36	4161.47
594.52	3768.26
594.68	3672.30
594.84	3557.61
594.99	3361.01
595.15	3253.34
595.31	3302.50
595.47	3332.92
595.62	3253.34
595.78	3243.98
595.94	3260.37
596.10	3192.49
596.25	3185.47
596.41	3180.79
596.57	3236.96
596.73	3073.12
596.88	3035.67
597.04	3229.94
597.20	3227.60
597.36	3173.77
597.51	3391.44
597.67	3435.91
597.83	3550.59
597.99	3899.33
598.14	4023.38
598.30	4294.88
598.46	4589.79
598.61	4786.40
598.77	4945.55
598.93	5177.26
599.09	5366.85
599.24	5542.39
599.40	5423.02
599.56	5427.70
599.71	5153.86
599.87	4896.40
600.03	4615.54
600.18	4369.78
600.34	3999.98
600.50	3749.54
600.65	3496.76
600.81	3309.52
600.97	3063.76
601.12	2935.03
601.28	2761.83
601.44	2684.59
601.59	2527.78
601.75	2420.11
601.91	2244.57
602.06	2298.41
602.22	2289.04
602.37	2090.10
602.53	2064.35
602.69	2167.34
602.84	2092.44
603.00	2181.38
603.16	2054.99
603.31	2326.49
603.47	2125.21
603.62	2132.23
603.78	2298.41
603.94	2279.68
604.09	2312.45
604.25	2410.75
604.40	2473.95
604.56	2469.27
