SpectraSuite Data File
++++++++++++++++++++++++++++++++++++
Date: Fri Oct 04 11:41:38 GMT-05:00 2013
User: price-jones
Dark Spectrum Present: No
Reference Spectrum Present: No
Number of Sampled Component Spectra: 1
Spectrometers: USB2+H05261
Integration Time (usec): 100000 (USB2+H05261)
Spectra Averaged: 1 (USB2+H05261)
Boxcar Smoothing: 0 (USB2+H05261)
Correct for Electrical Dark: No (USB2+H05261)
Strobe/Lamp Enabled: No (USB2+H05261)
Correct for Detector Non-linearity: No (USB2+H05261)
Correct for Stray Light: No (USB2+H05261)
Number of Pixels in Processed Spectrum: 2048
>>>>>Begin Processed Spectral Data<<<<<
365.73	44.47
365.92	44.47
366.12	44.47
366.32	0.00
366.52	0.00
366.72	0.00
366.91	0.00
367.11	0.00
367.31	0.00
367.51	0.00
367.70	9.36
367.90	0.00
368.10	0.00
368.30	0.00
368.49	0.00
368.69	0.00
368.89	0.00
369.09	0.00
369.28	0.00
369.48	0.00
369.68	0.00
369.87	0.00
370.07	0.00
370.27	0.00
370.47	81.92
370.66	236.39
370.86	231.71
371.06	217.67
371.25	177.88
371.45	234.05
371.65	278.52
371.84	243.42
372.04	308.95
372.24	210.65
372.44	285.55
372.63	269.16
372.83	337.04
373.03	262.14
373.22	217.67
373.42	271.50
373.62	337.04
373.81	339.38
374.01	304.27
374.21	304.27
374.40	283.20
374.60	411.93
374.79	264.48
374.99	283.20
375.19	372.15
375.38	369.80
375.58	320.65
375.78	404.91
375.97	315.97
376.17	360.44
376.37	315.97
376.56	313.63
376.76	409.59
376.95	304.27
377.15	353.42
377.35	411.93
377.54	411.93
377.74	428.32
377.93	315.97
378.13	421.30
378.33	367.46
378.52	381.51
378.72	348.74
378.91	332.36
379.11	297.25
379.31	266.82
379.50	297.25
379.70	348.74
379.89	444.70
380.09	358.10
380.28	320.65
380.48	440.02
380.68	379.17
380.87	320.65
381.07	369.80
381.26	372.15
381.46	248.10
381.65	372.15
381.85	360.44
382.04	241.08
382.24	290.23
382.43	322.99
382.63	280.86
382.83	318.31
383.02	273.84
383.22	327.68
383.41	308.95
383.61	250.44
383.80	208.31
384.00	337.04
384.19	353.42
384.39	486.83
384.58	444.70
384.78	379.17
384.97	355.76
385.17	388.53
385.36	322.99
385.56	383.85
385.75	327.68
385.95	407.25
386.14	411.93
386.34	339.38
386.53	414.27
386.72	358.10
386.92	404.91
387.11	418.96
387.31	463.43
387.50	304.27
387.70	372.15
387.89	397.89
388.09	365.12
388.28	320.65
388.48	379.17
388.67	365.12
388.86	440.02
389.06	526.62
389.25	519.60
389.45	468.11
389.64	496.19
389.84	484.49
390.03	517.26
390.22	444.70
390.42	416.62
390.61	498.53
390.81	503.22
391.00	559.39
391.19	596.84
391.39	505.56
391.58	496.19
391.78	517.26
391.97	442.36
392.16	409.59
392.36	360.44
392.55	376.83
392.75	222.35
392.94	259.80
393.13	294.91
393.33	290.23
393.52	339.38
393.71	369.80
393.91	402.57
394.10	433.00
394.29	449.38
394.49	524.28
394.68	524.28
394.88	524.28
395.07	575.77
395.26	568.75
395.46	575.77
395.65	477.47
395.84	512.58
396.04	442.36
396.23	362.78
396.42	245.76
396.62	362.78
396.81	315.97
397.00	369.80
397.19	507.90
397.39	503.22
397.58	620.24
397.77	582.79
397.97	645.99
398.16	610.88
398.35	641.31
398.55	624.92
398.74	617.90
398.93	727.91
399.12	711.52
399.32	753.65
399.51	695.14
399.70	765.36
399.90	755.99
400.09	692.80
400.28	723.23
400.47	674.07
400.67	791.10
400.86	774.72
401.05	645.99
401.24	786.42
401.44	802.80
401.63	833.23
401.82	795.78
402.01	744.29
402.21	760.67
402.40	784.08
402.59	772.38
402.78	674.07
402.97	741.95
403.17	709.18
403.36	816.85
403.55	805.14
403.74	884.72
403.93	917.49
404.13	858.98
404.32	812.17
404.51	823.87
404.70	877.70
404.89	767.70
405.09	737.27
405.28	751.31
405.47	798.12
405.66	758.33
405.85	809.83
406.05	695.14
406.24	837.91
406.43	753.65
406.62	760.67
406.81	809.83
407.00	833.23
407.20	720.88
407.39	748.97
407.58	835.57
407.77	866.00
407.96	849.61
408.15	821.53
408.34	854.30
408.54	898.77
408.73	891.74
408.92	854.30
409.11	847.27
409.30	851.96
409.49	734.93
409.68	727.91
409.87	695.14
410.07	718.54
410.26	807.48
410.45	781.74
410.64	863.66
410.83	835.57
411.02	842.59
411.21	926.85
411.40	889.40
411.59	912.81
411.78	912.81
411.98	933.87
412.17	903.45
412.36	903.45
412.55	910.47
412.74	835.57
412.93	978.34
413.12	889.40
413.31	1001.75
413.50	997.07
413.69	997.07
413.88	976.00
414.07	898.77
414.26	954.94
414.45	997.07
414.64	978.34
414.83	1025.15
415.02	954.94
415.22	940.90
415.41	1053.24
415.60	1018.13
415.79	1064.94
415.98	1050.90
416.17	933.87
416.36	1071.97
416.55	1062.60
416.74	976.00
416.93	875.36
417.12	917.49
417.31	1062.60
417.50	931.53
417.69	1011.11
417.88	1036.86
418.07	999.41
418.26	1034.52
418.45	961.96
418.64	1071.97
418.83	1057.92
419.02	1121.12
419.21	1034.52
419.39	1006.43
419.58	987.71
419.77	912.81
419.96	971.32
420.15	1015.79
420.34	1011.11
420.53	1057.92
420.72	1102.39
420.91	1228.78
421.10	1132.82
421.29	1064.94
421.48	1104.73
421.67	1111.75
421.86	1086.01
422.05	973.66
422.24	903.45
422.43	858.98
422.61	978.34
422.80	1022.81
422.99	1167.93
423.18	1083.67
423.37	1032.18
423.56	980.68
423.75	997.07
423.94	1018.13
424.13	1011.11
424.32	990.05
424.50	985.37
424.69	1032.18
424.88	1078.99
425.07	1027.50
425.26	1043.88
425.45	1050.90
425.64	994.73
425.83	973.66
426.01	1006.43
426.20	976.00
426.39	1083.67
426.58	1013.45
426.77	875.36
426.96	947.92
427.15	851.96
427.33	884.72
427.52	945.58
427.71	945.58
427.90	992.39
428.09	1001.75
428.28	1022.81
428.46	929.19
428.65	964.30
428.84	987.71
429.03	971.32
429.22	840.25
429.40	774.72
429.59	767.70
429.78	807.48
429.97	800.46
430.16	784.08
430.34	779.40
430.53	812.17
430.72	723.23
430.91	744.29
431.10	978.34
431.28	980.68
431.47	1128.14
431.66	1055.58
431.85	1032.18
432.03	901.11
432.22	1004.09
432.41	1008.77
432.60	1088.35
432.79	1078.99
432.97	1132.82
433.16	1104.73
433.35	1004.09
433.54	980.68
433.72	912.81
433.91	936.21
434.10	1027.50
434.28	1090.69
434.47	1102.39
434.66	1165.59
434.85	1170.27
435.03	1294.32
435.22	1547.09
435.41	2054.99
435.59	2160.31
435.78	1806.89
435.97	1376.24
436.16	1303.68
436.34	1210.06
436.53	1217.08
436.72	1177.29
436.90	1137.50
437.09	1210.06
437.28	1109.41
437.46	1153.88
437.65	1198.35
437.84	1125.80
438.02	999.41
438.21	999.41
438.40	1083.67
438.58	1172.61
438.77	1139.84
438.96	1193.67
439.14	1184.31
439.33	1217.08
439.52	1160.91
439.70	1249.85
439.89	1153.88
440.08	1139.84
440.26	1160.91
440.45	1186.65
440.63	1231.12
440.82	1380.92
441.01	1289.64
441.19	1284.95
441.38	1270.91
441.57	1282.61
441.75	1313.04
441.94	1409.00
442.12	1345.81
442.31	1256.87
442.50	1301.34
442.68	1352.83
442.87	1268.57
443.05	1299.00
443.24	1296.66
443.43	1446.45
443.61	1399.64
443.80	1404.32
443.98	1280.27
444.17	1256.87
444.35	1423.05
444.54	1434.75
444.73	1474.54
444.91	1392.62
445.10	1338.79
445.28	1233.46
445.47	1224.10
445.65	1172.61
445.84	1299.00
446.02	1310.70
446.21	1263.89
446.39	1343.47
446.58	1355.17
446.77	1369.21
446.95	1406.66
447.14	1423.05
447.32	1437.09
447.51	1448.79
447.69	1313.04
447.88	1397.30
448.06	1280.27
448.25	1441.77
448.43	1280.27
448.62	1343.47
448.80	1315.38
448.99	1413.68
449.17	1336.45
449.36	1380.92
449.54	1434.75
449.73	1352.83
449.91	1437.09
450.10	1425.39
450.28	1481.56
450.46	1472.20
450.65	1490.92
450.83	1385.60
451.02	1401.98
451.20	1406.66
451.39	1383.26
451.57	1425.39
451.76	1460.49
451.94	1350.49
452.13	1423.05
452.31	1359.85
452.49	1310.70
452.68	1249.85
452.86	1270.91
453.05	1336.45
453.23	1394.96
453.42	1392.62
453.60	1355.17
453.78	1385.60
453.97	1439.43
454.15	1394.96
454.34	1315.38
454.52	1451.13
454.70	1460.49
454.89	1444.11
455.07	1376.24
455.26	1324.74
455.44	1481.56
455.62	1469.86
455.81	1387.94
455.99	1439.43
456.17	1448.79
456.36	1521.35
456.54	1486.24
456.73	1451.13
456.91	1474.54
457.09	1607.95
457.28	1593.90
457.46	1565.82
457.64	1556.46
457.83	1394.96
458.01	1345.81
458.19	1416.02
458.38	1394.96
458.56	1526.03
458.74	1490.92
458.93	1474.54
459.11	1444.11
459.29	1406.66
459.48	1556.46
459.66	1535.39
459.84	1537.73
460.03	1549.43
460.21	1542.41
460.39	1469.86
460.57	1467.52
460.76	1570.50
460.94	1441.77
461.12	1561.14
461.31	1542.41
461.49	1511.99
461.67	1551.78
461.85	1540.07
462.04	1523.69
462.22	1710.93
462.40	1624.33
462.59	1607.95
462.77	1430.07
462.95	1631.35
463.13	1437.09
463.32	1530.71
463.50	1460.49
463.68	1526.03
463.86	1507.30
464.05	1521.35
464.23	1474.54
464.41	1542.41
464.59	1465.18
464.78	1509.65
464.96	1497.94
465.14	1495.60
465.32	1563.48
465.50	1603.27
465.69	1621.99
465.87	1441.77
466.05	1495.60
466.23	1380.92
466.41	1530.71
466.60	1446.45
466.78	1495.60
466.96	1497.94
467.14	1533.05
467.32	1465.18
467.51	1535.39
467.69	1455.81
467.87	1502.62
468.05	1516.67
468.23	1554.12
468.41	1497.94
468.60	1551.78
468.78	1533.05
468.96	1598.59
469.14	1544.75
469.32	1523.69
469.50	1502.62
469.69	1458.15
469.87	1495.60
470.05	1411.34
470.23	1387.94
470.41	1460.49
470.59	1425.39
470.77	1476.88
470.95	1643.06
471.14	1600.93
471.32	1399.64
471.50	1626.67
471.68	1575.18
471.86	1593.90
472.04	1629.01
472.22	1582.20
472.40	1544.75
472.58	1535.39
472.77	1490.92
472.95	1526.03
473.13	1659.44
473.31	1547.09
473.49	1526.03
473.67	1547.09
473.85	1633.69
474.03	1591.56
474.21	1640.72
474.39	1661.78
474.57	1659.44
474.75	1631.35
474.93	1598.59
475.12	1575.18
475.30	1603.27
475.48	1570.50
475.66	1619.65
475.84	1685.19
476.02	1640.72
476.20	1584.54
476.38	1551.78
476.56	1823.28
476.74	1603.27
476.92	1610.29
477.10	1650.08
477.28	1713.27
477.46	1713.27
477.64	1776.47
477.82	1624.33
478.00	1842.00
478.18	1802.21
478.36	1713.27
478.54	1750.72
478.72	1790.51
478.90	1806.89
479.08	1881.79
479.26	1900.52
479.44	1858.39
479.62	1919.24
479.80	1802.21
479.98	1877.11
480.16	1853.70
480.34	1872.43
480.52	1839.66
480.70	1755.40
480.88	1912.22
481.06	1987.11
481.24	1919.24
481.41	2026.90
481.59	2019.88
481.77	1919.24
481.95	2029.24
482.13	1942.64
482.31	1961.37
482.49	1926.26
482.67	1970.73
482.85	2066.69
483.03	2045.63
483.21	2122.87
483.39	2022.22
483.57	1989.46
483.74	2031.58
483.92	1893.49
484.10	2012.86
484.28	2036.27
484.46	2146.27
484.64	2155.63
484.82	2153.29
485.00	2120.53
485.18	2146.27
485.35	2066.69
485.53	1928.60
485.71	1827.96
485.89	1621.99
486.07	1806.89
486.25	1989.46
486.43	2129.89
486.61	2101.80
486.78	2064.35
486.96	2073.71
487.14	2120.53
487.32	2242.23
487.50	2242.23
487.68	2359.26
487.85	2347.56
488.03	2303.09
488.21	2445.86
488.39	2162.66
488.57	2207.13
488.75	2134.57
488.92	2445.86
489.10	2394.37
489.28	2682.25
489.46	2450.54
489.64	2532.46
489.81	2509.05
489.99	2527.78
490.17	2338.20
490.35	2630.76
490.53	2572.25
490.70	2406.07
490.88	2354.58
491.06	2455.22
491.24	2565.23
491.41	2476.29
491.59	2298.41
491.77	2298.41
491.95	2361.60
492.13	2417.77
492.30	2541.82
492.48	2546.50
492.66	2705.66
492.84	2565.23
493.01	2640.12
493.19	2502.03
493.37	2487.99
493.54	2558.21
493.72	2527.78
493.90	2579.27
494.08	2712.68
494.25	2665.87
494.43	2691.62
494.61	2801.62
494.79	2867.16
494.96	2750.13
495.14	2682.25
495.32	2607.36
495.49	2520.76
495.67	2579.27
495.85	2722.04
496.02	2878.86
496.20	2747.79
496.38	2764.17
496.55	2766.51
496.73	2801.62
496.91	2874.18
497.09	2822.69
497.26	2928.01
497.44	2923.33
497.62	2679.91
497.79	2785.24
497.97	2640.12
498.14	2558.21
498.32	2773.53
498.50	2799.28
498.67	2794.60
498.85	2806.30
499.03	2789.92
499.20	2897.58
499.38	2825.03
499.56	2892.90
499.73	2841.41
499.91	2698.64
500.08	2654.17
500.26	2689.28
500.44	2677.57
500.61	2658.85
500.79	2827.37
500.97	2682.25
501.14	2640.12
501.32	2597.99
501.49	2621.40
501.67	2731.41
501.84	2750.13
502.02	2743.11
502.20	2789.92
502.37	2860.13
502.55	2754.81
502.72	2871.84
502.90	2836.73
503.07	2712.68
503.25	2663.53
503.43	2651.83
503.60	2612.04
503.78	2544.16
503.95	2495.01
504.13	2729.06
504.30	2862.48
504.48	2719.70
504.65	2778.22
504.83	2815.66
505.01	2855.45
505.18	2780.56
505.36	2956.10
505.53	2871.84
505.71	2988.86
505.88	2942.05
506.06	2773.53
506.23	2841.41
506.41	2818.00
506.58	2892.90
506.76	2810.98
506.93	2899.92
507.11	2726.72
507.28	2810.98
507.46	2717.36
507.63	2729.06
507.81	2759.49
507.98	2754.81
508.16	2768.85
508.33	2747.79
508.50	2881.20
508.68	3021.63
508.85	2925.67
509.03	2745.45
509.20	3070.78
509.38	2970.14
509.55	3012.27
509.73	2951.42
509.90	3012.27
510.08	2796.94
510.25	2958.44
510.42	2860.13
510.60	2771.19
510.77	2960.78
510.95	3005.25
511.12	2995.89
511.30	3141.00
511.47	3185.47
511.64	3155.04
511.82	3110.57
511.99	2820.35
512.17	2862.48
512.34	2815.66
512.51	2841.41
512.69	2895.24
512.86	2960.78
513.04	2850.77
513.21	3023.97
513.38	3012.27
513.56	2705.66
513.73	2878.86
513.90	2724.38
514.08	2792.26
514.25	2862.48
514.43	2768.85
514.60	2928.01
514.77	3068.44
514.95	2881.20
515.12	2923.33
515.29	2888.22
515.47	3014.61
515.64	3155.04
515.81	2944.39
515.99	3007.59
516.16	2780.56
516.33	2544.16
516.51	2537.14
516.68	2473.95
516.85	2401.39
517.03	2380.32
517.20	2574.59
517.37	2787.58
517.54	3023.97
517.72	2871.84
517.89	2705.66
518.06	2520.76
518.24	2539.48
518.41	2658.85
518.58	2722.04
518.75	2843.75
518.93	2867.16
519.10	2780.56
519.27	2885.88
519.45	2885.88
519.62	3080.14
519.79	3000.57
519.96	2920.99
520.14	2946.73
520.31	2839.07
520.48	2801.62
520.65	2925.67
520.83	2958.44
521.00	3108.23
521.17	2988.86
521.34	2993.55
521.52	2963.12
521.69	2960.78
521.86	3089.51
522.03	3028.65
522.20	3007.59
522.38	2785.24
522.55	2871.84
522.72	2918.65
522.89	2904.60
523.07	2988.86
523.24	2913.97
523.41	3014.61
523.58	3164.40
523.75	3007.59
523.92	3019.29
524.10	3082.49
524.27	3098.87
524.44	2988.86
524.61	3096.53
524.78	2981.84
524.96	2946.73
525.13	2963.12
525.30	3042.70
525.47	3094.19
525.64	3091.85
525.81	3049.72
525.98	2834.39
526.16	2836.73
526.33	2747.79
526.50	2605.02
526.67	2602.68
526.84	2677.57
527.01	2693.96
527.18	2815.66
527.36	2988.86
527.53	2939.71
527.70	3033.33
527.87	2920.99
528.04	2897.58
528.21	2897.58
528.38	3009.93
528.55	3124.62
528.72	3300.16
528.89	3148.02
529.07	3108.23
529.24	3021.63
529.41	3038.02
529.58	2995.89
529.75	2815.66
529.92	3059.08
530.09	3073.12
530.26	3208.87
530.43	3138.66
530.60	3243.98
530.77	3103.55
530.94	3206.53
531.11	3155.04
531.28	3108.23
531.46	3012.27
531.63	2991.20
531.80	2974.82
531.97	3059.08
532.14	2951.42
532.31	3012.27
532.48	2841.41
532.65	2871.84
532.82	2890.56
532.99	2993.55
533.16	2885.88
533.33	3063.76
533.50	3148.02
533.67	3080.14
533.84	3066.10
534.01	3068.44
534.18	3019.29
534.35	3054.40
534.52	2892.90
534.69	3063.76
534.86	3068.44
535.03	3070.78
535.20	3009.93
535.37	3211.22
535.54	3201.85
535.71	3171.43
535.88	3213.56
536.05	3136.32
536.22	3173.77
536.38	3028.65
536.55	3087.17
536.72	2958.44
536.89	3012.27
537.06	3014.61
537.23	3089.51
537.40	3178.45
537.57	3143.34
537.74	3194.83
537.91	3122.27
538.08	3162.06
538.25	3218.24
538.42	3129.30
538.59	3246.32
538.75	3049.72
538.92	3098.87
539.09	3045.04
539.26	3110.57
539.43	3112.91
539.60	3162.06
539.77	3164.40
539.94	3129.30
540.11	3148.02
540.28	3190.15
540.44	3239.30
540.61	3197.17
540.78	3267.39
540.95	3468.67
541.12	3786.99
541.29	3758.90
541.46	3789.33
541.62	3873.59
541.79	3868.91
541.96	3742.52
542.13	3791.67
542.30	3709.75
542.47	3707.41
542.63	3566.98
542.80	3515.48
542.97	3410.16
543.14	3583.36
543.31	3527.19
543.48	3623.15
543.64	3648.90
543.81	3714.43
543.98	3672.30
544.15	3672.30
544.32	3698.05
544.48	3674.64
544.65	3606.77
544.82	3639.53
544.99	3716.77
545.16	3723.79
545.32	3541.23
545.49	4095.94
545.66	5043.85
545.83	5598.56
546.00	5081.30
546.16	4308.93
546.33	3864.22
546.50	3684.00
546.67	3609.11
546.83	3424.20
547.00	3412.50
547.17	3349.31
547.34	3213.56
547.50	3192.49
547.67	3199.51
547.84	3166.74
548.00	3300.16
548.17	3407.82
548.34	3325.90
548.51	3426.54
548.67	3248.66
548.84	3215.90
549.01	3258.03
549.18	3251.00
549.34	3251.00
549.51	3297.81
549.68	3281.43
549.84	3192.49
550.01	3159.72
550.18	3187.81
550.34	3136.32
550.51	3096.53
550.68	3077.80
550.84	2944.39
551.01	3005.25
551.18	3089.51
551.34	3007.59
551.51	3098.87
551.68	3173.77
551.84	3187.81
552.01	3094.19
552.18	3101.21
552.34	2902.26
552.51	2963.12
552.68	2895.24
552.84	2904.60
553.01	2892.90
553.18	2939.71
553.34	2841.41
553.51	2967.80
553.67	2932.69
553.84	3115.25
554.01	3084.83
554.17	2925.67
554.34	2909.29
554.51	2904.60
554.67	3030.99
554.84	3035.67
555.00	2960.78
555.17	2967.80
555.33	2818.00
555.50	2932.69
555.67	2928.01
555.83	2867.16
556.00	2731.41
556.16	3023.97
556.33	2883.54
556.50	2815.66
556.66	2775.88
556.83	2775.88
556.99	2700.98
557.16	2806.30
557.32	2780.56
557.49	2928.01
557.65	2740.77
557.82	2703.32
557.98	2841.41
558.15	2754.81
558.32	2700.98
558.48	2597.99
558.65	2672.89
558.81	2745.45
558.98	2670.55
559.14	2743.11
559.31	2600.34
559.47	2696.30
559.64	2703.32
559.80	2609.70
559.97	2635.44
560.13	2698.64
560.30	2752.47
560.46	2970.14
560.63	2843.75
560.79	2857.79
560.96	2841.41
561.12	2700.98
561.29	2761.83
561.45	2597.99
561.61	2689.28
561.78	2825.03
561.94	2698.64
562.11	2609.70
562.27	2857.79
562.44	2588.63
562.60	2820.35
562.77	2808.64
562.93	2857.79
563.10	2696.30
563.26	2708.00
563.42	2586.29
563.59	2658.85
563.75	2623.74
563.92	2766.51
564.08	2670.55
564.24	2740.77
564.41	2633.10
564.57	2719.70
564.74	2665.87
564.90	2649.49
565.07	2726.72
565.23	2569.91
565.39	2574.59
565.56	2588.63
565.72	2476.29
565.88	2509.05
566.05	2546.50
566.21	2619.06
566.38	2654.17
566.54	2691.62
566.70	2642.46
566.87	2558.21
567.03	2551.18
567.19	2682.25
567.36	2719.70
567.52	2513.74
567.68	2574.59
567.85	2457.56
568.01	2525.44
568.17	2363.94
568.34	2546.50
568.50	2466.92
568.66	2385.01
568.83	2495.01
568.99	2399.05
569.15	2436.50
569.32	2478.63
569.48	2478.63
569.64	2434.16
569.81	2476.29
569.97	2448.20
570.13	2527.78
570.30	2466.92
570.46	2602.68
570.62	2518.42
570.78	2420.11
570.95	2382.67
571.11	2438.84
571.27	2399.05
571.43	2312.45
571.60	2427.14
571.76	2464.58
571.92	2466.92
572.09	2370.96
572.25	2485.65
572.41	2464.58
572.57	2532.46
572.74	2497.35
572.90	2427.14
573.06	2579.27
573.22	2485.65
573.38	2492.67
573.55	2502.03
573.71	2581.61
573.87	2471.61
574.03	2403.73
574.20	2307.77
574.36	2466.92
574.52	2377.98
574.68	2368.62
574.84	2399.05
575.01	2473.95
575.17	2436.50
575.33	2392.03
575.49	2359.26
575.65	2485.65
575.82	2424.80
575.98	2354.58
576.14	2415.43
576.30	2431.82
576.46	2679.91
576.62	2768.85
576.79	2883.54
576.95	2733.75
577.11	2539.48
577.27	2394.37
577.43	2497.35
577.59	2464.58
577.75	2403.73
577.92	2326.49
578.08	2443.52
578.24	2394.37
578.40	2429.48
578.56	2605.02
578.72	2710.34
578.88	2773.53
579.04	2574.59
579.21	2567.57
579.37	2541.82
579.53	2548.84
579.69	2614.38
579.85	2469.27
580.01	2495.01
580.17	2450.54
580.33	2579.27
580.49	2462.24
580.65	2560.55
580.82	2480.97
580.98	2546.50
581.14	2370.96
581.30	2562.89
581.46	2480.97
581.62	2609.70
581.78	2464.58
581.94	2546.50
582.10	2448.20
582.26	2527.78
582.42	2466.92
582.58	2576.93
582.74	2717.36
582.90	2574.59
583.06	2569.91
583.22	2590.97
583.38	2693.96
583.54	2497.35
583.70	2572.25
583.86	2637.78
584.02	2640.12
584.18	2614.38
584.34	2523.10
584.50	2532.46
584.66	2525.44
584.82	2462.24
584.98	2455.22
585.14	2455.22
585.30	2471.61
585.46	2387.35
585.62	2328.83
585.78	2354.58
585.94	2518.42
586.10	2478.63
586.26	2399.05
586.42	2509.05
586.58	2459.90
586.74	2438.84
586.90	2464.58
587.06	2544.16
587.22	2502.03
587.38	2490.33
587.54	2436.50
587.70	2265.64
587.86	2282.02
588.02	2263.30
588.18	2094.78
588.34	2085.42
588.49	1959.03
588.65	1795.19
588.81	1858.39
588.97	1886.47
589.13	1764.76
589.29	1706.25
589.45	1886.47
589.61	1762.42
589.77	1879.45
589.93	2005.84
590.08	2139.25
590.24	1998.82
590.40	2015.20
590.56	2083.08
590.72	2062.01
590.88	2099.46
591.04	1987.11
591.20	2001.16
591.35	1975.41
591.51	1966.05
591.67	2047.97
591.83	2078.40
591.99	1975.41
592.15	2073.71
592.31	2169.68
592.46	2167.34
592.62	2328.83
592.78	2225.85
592.94	2232.87
593.10	2363.94
593.26	2228.19
593.41	2272.66
593.57	2385.01
593.73	2235.21
593.89	2008.18
594.05	1937.96
594.20	1909.88
594.36	1905.20
594.52	1867.75
594.68	1865.41
594.84	1973.07
594.99	2045.63
595.15	2160.31
595.31	2036.27
595.47	2157.97
595.62	2111.16
595.78	1998.82
595.94	1956.69
596.10	2141.59
596.25	2160.31
596.41	2062.01
596.57	2057.33
596.73	1980.09
596.88	2057.33
597.04	2153.29
597.20	2066.69
597.36	2033.93
597.51	1961.37
597.67	2010.52
597.83	2078.40
597.99	2083.08
598.14	2066.69
598.30	2136.91
598.46	2143.93
598.61	2183.72
598.77	2101.80
598.93	2040.95
599.09	2225.85
599.24	2223.51
599.40	2204.78
