SpectraSuite Data File
++++++++++++++++++++++++++++++++++++
Date: Fri Oct 04 11:42:20 GMT-05:00 2013
User: price-jones
Dark Spectrum Present: No
Reference Spectrum Present: No
Number of Sampled Component Spectra: 1
Spectrometers: USB2+H05261
Integration Time (usec): 100000 (USB2+H05261)
Spectra Averaged: 1 (USB2+H05261)
Boxcar Smoothing: 0 (USB2+H05261)
Correct for Electrical Dark: No (USB2+H05261)
Strobe/Lamp Enabled: No (USB2+H05261)
Correct for Detector Non-linearity: No (USB2+H05261)
Correct for Stray Light: No (USB2+H05261)
Number of Pixels in Processed Spectrum: 2048
>>>>>Begin Processed Spectral Data<<<<<
365.73	152.13
365.92	152.13
366.12	152.13
366.32	4.68
366.52	0.00
366.72	0.00
366.91	0.00
367.11	0.00
367.31	0.00
367.51	0.00
367.70	0.00
367.90	0.00
368.10	0.00
368.30	0.00
368.49	0.00
368.69	0.00
368.89	0.00
369.09	0.00
369.28	0.00
369.48	0.00
369.68	0.00
369.87	0.00
370.07	0.00
370.27	53.83
370.47	0.00
370.66	0.00
370.86	18.72
371.06	88.94
371.25	133.41
371.45	67.88
371.65	147.45
371.84	70.22
372.04	74.90
372.24	142.77
372.44	102.98
372.63	107.66
372.83	126.39
373.03	100.64
373.22	91.28
373.42	154.48
373.62	135.75
373.81	175.54
374.01	133.41
374.21	201.29
374.40	140.43
374.60	74.90
374.79	180.22
374.99	98.30
375.19	58.51
375.38	147.45
375.58	149.79
375.78	212.99
375.97	159.16
376.17	194.26
376.37	98.30
376.56	121.71
376.76	161.50
376.95	49.15
377.15	212.99
377.35	105.32
377.54	140.43
377.74	112.35
377.93	95.96
378.13	182.56
378.33	131.07
378.52	124.05
378.72	121.71
378.91	140.43
379.11	121.71
379.31	187.24
379.50	177.88
379.70	105.32
379.89	149.79
380.09	110.01
380.28	95.96
380.48	74.90
380.68	25.75
380.87	93.62
381.07	49.15
381.26	126.39
381.46	112.35
381.65	145.11
381.85	88.94
382.04	117.03
382.24	124.05
382.43	196.60
382.63	152.13
382.83	105.32
383.02	128.73
383.22	98.30
383.41	88.94
383.61	191.92
383.80	53.83
384.00	124.05
384.19	98.30
384.39	72.56
384.58	135.75
384.78	16.38
384.97	131.07
385.17	133.41
385.36	88.94
385.56	133.41
385.75	121.71
385.95	110.01
386.14	135.75
386.34	128.73
386.53	110.01
386.72	110.01
386.92	145.11
387.11	166.18
387.31	133.41
387.50	70.22
387.70	67.88
387.89	138.09
388.09	114.69
388.28	35.11
388.48	152.13
388.67	140.43
388.86	65.54
389.06	112.35
389.25	117.03
389.45	121.71
389.64	105.32
389.84	166.18
390.03	67.88
390.22	184.90
390.42	110.01
390.61	163.84
390.81	88.94
391.00	98.30
391.19	149.79
391.39	98.30
391.58	84.26
391.78	163.84
391.97	114.69
392.16	79.58
392.36	149.79
392.55	91.28
392.75	91.28
392.94	79.58
393.13	119.37
393.33	114.69
393.52	168.52
393.71	142.77
393.91	119.37
394.10	159.16
394.29	49.15
394.49	124.05
394.68	121.71
394.88	161.50
395.07	133.41
395.26	154.48
395.46	114.69
395.65	105.32
395.84	126.39
396.04	201.29
396.23	98.30
396.42	189.58
396.62	196.60
396.81	161.50
397.00	128.73
397.19	102.98
397.39	166.18
397.58	128.73
397.77	107.66
397.97	124.05
398.16	112.35
398.35	177.88
398.55	44.47
398.74	147.45
398.93	215.33
399.12	145.11
399.32	152.13
399.51	145.11
399.70	79.58
399.90	140.43
400.09	140.43
400.28	154.48
400.47	121.71
400.67	180.22
400.86	170.86
401.05	126.39
401.24	121.71
401.44	102.98
401.63	212.99
401.82	217.67
402.01	173.20
402.21	124.05
402.40	210.65
402.59	182.56
402.78	133.41
402.97	189.58
403.17	196.60
403.36	236.39
403.55	339.38
403.74	582.79
403.93	1792.85
404.13	4084.23
404.32	5259.18
404.51	4376.80
404.70	2621.40
404.89	905.79
405.09	414.27
405.28	224.69
405.47	208.31
405.66	231.71
405.85	227.03
406.05	191.92
406.24	161.50
406.43	196.60
406.62	201.29
406.81	266.82
407.00	346.40
407.20	557.05
407.39	737.27
407.58	753.65
407.77	540.66
407.96	365.12
408.15	245.76
408.34	208.31
408.54	149.79
408.73	208.31
408.92	182.56
409.11	224.69
409.30	205.97
409.49	210.65
409.68	175.54
409.87	131.07
410.07	140.43
410.26	145.11
410.45	201.29
410.64	177.88
410.83	205.97
411.02	163.84
411.21	163.84
411.40	196.60
411.59	191.92
411.78	77.24
411.98	142.77
412.17	203.63
412.36	177.88
412.55	105.32
412.74	196.60
412.93	259.80
413.12	191.92
413.31	175.54
413.50	182.56
413.69	241.08
413.88	271.50
414.07	194.26
414.26	301.93
414.45	224.69
414.64	243.42
414.83	234.05
415.02	220.01
415.22	241.08
415.41	208.31
415.60	220.01
415.79	236.39
415.98	227.03
416.17	266.82
416.36	271.50
416.55	262.14
416.74	248.10
416.93	210.65
417.12	173.20
417.31	191.92
417.50	208.31
417.69	287.89
417.88	264.48
418.07	182.56
418.26	166.18
418.45	175.54
418.64	212.99
418.83	241.08
419.02	248.10
419.21	175.54
419.39	159.16
419.58	262.14
419.77	248.10
419.96	170.86
420.15	210.65
420.34	273.84
420.53	248.10
420.72	229.37
420.91	194.26
421.10	229.37
421.29	280.86
421.48	320.65
421.67	259.80
421.86	238.73
422.05	140.43
422.24	215.33
422.43	205.97
422.61	299.59
422.80	210.65
422.99	203.63
423.18	327.68
423.37	278.52
423.56	280.86
423.75	250.44
423.94	177.88
424.13	266.82
424.32	290.23
424.50	243.42
424.69	269.16
424.88	269.16
425.07	353.42
425.26	276.18
425.45	330.02
425.64	252.78
425.83	285.55
426.01	287.89
426.20	248.10
426.39	266.82
426.58	278.52
426.77	273.84
426.96	208.31
427.15	344.06
427.33	315.97
427.52	318.31
427.71	262.14
427.90	236.39
428.09	381.51
428.28	163.84
428.46	276.18
428.65	271.50
428.84	304.27
429.03	374.49
429.22	299.59
429.40	241.08
429.59	212.99
429.78	273.84
429.97	276.18
430.16	257.46
430.34	313.63
430.53	215.33
430.72	294.91
430.91	383.85
431.10	271.50
431.28	255.12
431.47	381.51
431.66	292.57
431.85	358.10
432.03	346.40
432.22	388.53
432.41	299.59
432.60	425.98
432.79	332.36
432.97	400.23
433.16	512.58
433.35	390.87
433.54	540.66
433.72	543.00
433.91	496.19
434.10	512.58
434.28	744.29
434.47	730.25
434.66	809.83
434.85	1114.10
435.03	3126.96
435.22	10808.59
435.41	23260.24
435.59	22750.01
435.78	14698.56
435.97	7211.19
436.16	2747.79
436.34	1121.12
436.53	706.84
436.72	547.69
436.90	472.79
437.09	498.53
437.28	341.72
437.46	470.45
437.65	320.65
437.84	367.46
438.02	416.62
438.21	493.85
438.40	367.46
438.58	409.59
438.77	299.59
438.96	425.98
439.14	337.04
439.33	348.74
439.52	388.53
439.70	388.53
439.89	344.06
440.08	264.48
440.26	386.19
440.45	379.17
440.63	393.21
440.82	311.29
441.01	411.93
441.19	379.17
441.38	407.25
441.57	344.06
441.75	351.08
441.94	468.11
442.12	351.08
442.31	372.15
442.50	353.42
442.68	383.85
442.87	416.62
443.05	355.76
443.24	414.27
443.43	423.64
443.61	400.23
443.80	346.40
443.98	355.76
444.17	404.91
444.35	526.62
444.54	383.85
444.73	311.29
444.91	433.00
445.10	409.59
445.28	308.95
445.47	367.46
445.65	362.78
445.84	404.91
446.02	409.59
446.21	297.25
446.39	456.40
446.58	411.93
446.77	402.57
446.95	404.91
447.14	472.79
447.32	393.21
447.51	376.83
447.69	365.12
447.88	447.04
448.06	440.02
448.25	369.80
448.43	416.62
448.62	299.59
448.80	325.33
448.99	348.74
449.17	358.10
449.36	337.04
449.54	388.53
449.73	440.02
449.91	454.06
450.10	383.85
450.28	437.68
450.46	433.00
450.65	430.66
450.83	369.80
451.02	332.36
451.20	344.06
451.39	416.62
451.57	400.23
451.76	346.40
451.94	404.91
452.13	397.89
452.31	346.40
452.49	346.40
452.68	367.46
452.86	367.46
453.05	421.30
453.23	360.44
453.42	353.42
453.60	400.23
453.78	381.51
453.97	407.25
454.15	301.93
454.34	379.17
454.52	351.08
454.70	376.83
454.89	367.46
455.07	365.12
455.26	409.59
455.44	407.25
455.62	390.87
455.81	372.15
455.99	447.04
456.17	388.53
456.36	294.91
456.54	353.42
456.73	376.83
456.91	402.57
457.09	381.51
457.28	379.17
457.46	461.09
457.64	369.80
457.83	280.86
458.01	353.42
458.19	355.76
458.38	304.27
458.56	409.59
458.74	353.42
458.93	334.70
459.11	351.08
459.29	315.97
459.48	383.85
459.66	397.89
459.84	414.27
460.03	461.09
460.21	287.89
460.39	360.44
460.57	390.87
460.76	348.74
460.94	402.57
461.12	411.93
461.31	346.40
461.49	369.80
461.67	355.76
461.85	411.93
462.04	393.21
462.22	461.09
462.40	362.78
462.59	348.74
462.77	341.72
462.95	353.42
463.13	344.06
463.32	423.64
463.50	367.46
463.68	297.25
463.86	376.83
464.05	425.98
464.23	407.25
464.41	306.61
464.59	318.31
464.78	421.30
464.96	313.63
465.14	330.02
465.32	334.70
465.50	353.42
465.69	355.76
465.87	313.63
466.05	383.85
466.23	404.91
466.41	379.17
466.60	400.23
466.78	433.00
466.96	491.51
467.14	383.85
467.32	425.98
467.51	409.59
467.69	390.87
467.87	348.74
468.05	404.91
468.23	442.36
468.41	421.30
468.60	374.49
468.78	393.21
468.96	393.21
469.14	369.80
469.32	290.23
469.50	355.76
469.69	351.08
469.87	318.31
470.05	362.78
470.23	278.52
470.41	280.86
470.59	360.44
470.77	330.02
470.95	367.46
471.14	327.68
471.32	318.31
471.50	369.80
471.68	404.91
471.86	304.27
472.04	339.38
472.22	327.68
472.40	304.27
472.58	362.78
472.77	318.31
472.95	362.78
473.13	433.00
473.31	414.27
473.49	292.57
473.67	360.44
473.85	393.21
474.03	376.83
474.21	334.70
474.39	351.08
474.57	388.53
474.75	334.70
474.93	337.04
475.12	344.06
475.30	428.32
475.48	332.36
475.66	409.59
475.84	351.08
476.02	365.12
476.20	341.72
476.38	381.51
476.56	484.49
476.74	360.44
476.92	397.89
477.10	372.15
477.28	351.08
477.46	353.42
477.64	351.08
477.82	383.85
478.00	400.23
478.18	397.89
478.36	440.02
478.54	449.38
478.72	437.68
478.90	402.57
479.08	498.53
479.26	470.45
479.44	477.47
479.62	540.66
479.80	482.15
479.98	521.94
480.16	613.22
480.34	573.43
480.52	528.96
480.70	564.07
480.88	573.43
481.06	683.44
481.24	524.28
481.41	636.63
481.59	676.41
481.77	692.80
481.95	713.86
482.13	744.29
482.31	765.36
482.49	952.60
482.67	954.94
482.85	961.96
483.03	1041.54
483.21	1027.50
483.39	1245.16
483.57	1181.97
483.74	1343.47
483.92	1334.11
484.10	1399.64
484.28	1542.41
484.46	1554.12
484.64	1703.91
484.82	1645.40
485.00	1851.36
485.18	1858.39
485.35	1982.43
485.53	2132.23
485.71	2232.87
485.89	2230.53
486.07	2272.66
486.25	2380.32
486.43	2476.29
486.61	2298.41
486.78	2303.09
486.96	2345.22
487.14	2380.32
487.32	2399.05
487.50	2359.26
487.68	2260.96
487.85	2197.76
488.03	2345.22
488.21	2186.06
488.39	2300.75
488.57	2104.14
488.75	2064.35
488.92	2286.70
489.10	2057.33
489.28	2024.56
489.46	2054.99
489.64	1914.56
489.81	1898.17
489.99	1809.23
490.17	1853.70
490.35	1825.62
490.53	1818.60
490.70	1797.53
490.88	1839.66
491.06	1806.89
491.24	2019.88
491.41	2001.16
491.59	1933.28
491.77	1746.04
491.95	1741.36
492.13	1708.59
492.30	1671.14
492.48	1629.01
492.66	1659.44
492.84	1516.67
493.01	1633.69
493.19	1507.30
493.37	1652.42
493.54	1500.28
493.72	1514.33
493.90	1451.13
494.08	1511.99
494.25	1451.13
494.43	1409.00
494.61	1530.71
494.79	1345.81
494.96	1355.17
495.14	1359.85
495.32	1341.13
495.49	1254.53
495.67	1263.89
495.85	1245.16
496.02	1268.57
496.20	1181.97
496.38	1212.40
496.55	1102.39
496.73	1221.76
496.91	1123.46
497.09	1146.86
497.26	1114.10
497.44	1116.44
497.62	992.39
497.79	1036.86
497.97	978.34
498.14	1041.54
498.32	1118.78
498.50	987.71
498.67	954.94
498.85	854.30
499.03	910.47
499.20	924.51
499.38	922.17
499.56	772.38
499.73	826.21
499.91	863.66
500.08	844.93
500.26	858.98
500.44	748.97
500.61	781.74
500.79	674.07
500.97	695.14
501.14	706.84
501.32	763.01
501.49	767.70
501.67	645.99
501.84	643.65
502.02	716.20
502.20	699.82
502.37	615.56
502.55	592.16
502.72	610.88
502.90	608.54
503.07	578.11
503.25	594.50
503.43	564.07
503.60	507.90
503.78	512.58
503.95	498.53
504.13	491.51
504.30	482.15
504.48	472.79
504.65	528.96
504.83	524.28
505.01	496.19
505.18	428.32
505.36	477.47
505.53	493.85
505.71	393.21
505.88	482.15
506.06	397.89
506.23	437.68
506.41	414.27
506.58	423.64
506.76	367.46
506.93	393.21
507.11	388.53
507.28	435.34
507.46	416.62
507.63	489.17
507.81	421.30
507.98	388.53
508.16	372.15
508.33	362.78
508.50	423.64
508.68	435.34
508.85	470.45
509.03	442.36
509.20	454.06
509.38	447.04
509.55	454.06
509.73	461.09
509.90	414.27
510.08	344.06
510.25	440.02
510.42	400.23
510.60	456.40
510.77	367.46
510.95	369.80
511.12	430.66
511.30	367.46
511.47	388.53
511.64	435.34
511.82	409.59
511.99	388.53
512.17	390.87
512.34	381.51
512.51	435.34
512.69	362.78
512.86	454.06
513.04	339.38
513.21	444.70
513.38	344.06
513.56	362.78
513.73	304.27
513.90	294.91
514.08	365.12
514.25	400.23
514.43	301.93
514.60	435.34
514.77	311.29
514.95	369.80
515.12	367.46
515.29	365.12
515.47	351.08
515.64	308.95
515.81	393.21
515.99	353.42
516.16	355.76
516.33	367.46
516.51	337.04
516.68	358.10
516.85	299.59
517.03	318.31
517.20	297.25
517.37	266.82
517.54	276.18
517.72	278.52
517.89	252.78
518.06	325.33
518.24	325.33
518.41	327.68
518.58	311.29
518.75	379.17
518.93	334.70
519.10	339.38
519.27	330.02
519.45	332.36
519.62	297.25
519.79	348.74
519.96	353.42
520.14	372.15
520.31	369.80
520.48	334.70
520.65	276.18
520.83	341.72
521.00	325.33
521.17	327.68
521.34	360.44
521.52	255.12
521.69	337.04
521.86	315.97
522.03	421.30
522.20	390.87
522.38	379.17
522.55	339.38
522.72	304.27
522.89	290.23
523.07	418.96
523.24	287.89
523.41	365.12
523.58	311.29
523.75	395.55
523.92	297.25
524.10	369.80
524.27	341.72
524.44	332.36
524.61	374.49
524.78	341.72
524.96	372.15
525.13	306.61
525.30	365.12
525.47	409.59
525.64	444.70
525.81	383.85
525.98	416.62
526.16	358.10
526.33	269.16
526.50	365.12
526.67	304.27
526.84	308.95
527.01	411.93
527.18	379.17
527.36	407.25
527.53	423.64
527.70	367.46
527.87	402.57
528.04	498.53
528.21	444.70
528.38	470.45
528.55	475.13
528.72	521.94
528.89	472.79
529.07	372.15
529.24	423.64
529.41	400.23
529.58	388.53
529.75	491.51
529.92	503.22
530.09	489.17
530.26	435.34
530.43	421.30
530.60	512.58
530.77	517.26
530.94	486.83
531.11	447.04
531.28	496.19
531.46	514.92
531.63	491.51
531.80	500.87
531.97	566.41
532.14	664.71
532.31	823.87
532.48	896.43
532.65	952.60
532.82	1064.94
532.99	1252.19
533.16	1352.83
533.33	1448.79
533.50	1357.51
533.67	1125.80
533.84	1025.15
534.01	1018.13
534.18	854.30
534.35	837.91
534.52	849.61
534.69	943.24
534.86	917.49
535.03	964.30
535.20	950.26
535.37	1177.29
535.54	1170.27
535.71	1184.31
535.88	1226.44
536.05	1214.74
536.22	1390.28
536.38	1572.84
536.55	1624.33
536.72	1732.00
536.89	1954.35
537.06	2221.17
537.23	2457.56
537.40	2665.87
537.57	2768.85
537.74	2967.80
537.91	3075.46
538.08	3096.53
538.25	3152.70
538.42	3105.89
538.59	3171.43
538.75	3356.33
538.92	3536.55
539.09	3925.08
539.26	4299.56
539.43	4865.97
539.60	5453.45
539.77	6050.28
539.94	6935.01
540.11	7499.08
540.28	8016.33
540.44	8943.19
540.61	9956.64
540.78	11454.58
540.95	13886.40
541.12	16269.06
541.29	18492.57
541.46	18897.49
541.62	18904.51
541.79	18183.62
541.96	16781.64
542.13	15721.38
542.30	14665.80
542.47	13886.40
542.63	13151.47
542.80	12622.51
542.97	12566.34
543.14	12292.49
543.31	12355.69
543.48	12360.37
543.64	12767.62
543.81	12627.19
543.98	12985.29
544.15	13001.68
544.32	12854.22
544.48	13130.41
544.65	12564.00
544.82	12601.44
544.99	12762.94
545.16	12896.35
545.32	13783.41
545.49	24283.06
545.66	45244.90
545.83	51150.07
546.00	44201.02
546.16	29902.68
546.33	22466.80
546.50	16760.58
546.67	13202.96
546.83	11398.41
547.00	10977.11
547.17	10560.50
547.34	10052.60
547.50	9710.88
547.67	9341.08
547.84	8959.57
548.00	8659.98
548.17	8437.63
548.34	8046.76
548.51	7889.95
548.67	7286.09
548.84	6920.96
549.01	6630.74
549.18	6331.15
549.34	6155.61
549.51	5874.74
549.68	5724.95
549.84	5591.54
550.01	5181.95
550.18	5032.15
550.34	4847.25
550.51	4498.51
550.68	4465.74
550.84	4170.83
551.01	3988.27
551.18	3646.55
551.34	3595.06
551.51	3391.44
551.68	3318.88
551.84	3141.00
552.01	3108.23
552.18	2846.09
552.34	2874.18
552.51	2647.15
552.68	2520.76
552.84	2326.49
553.01	2356.92
553.18	2324.15
553.34	2331.17
553.51	2146.27
553.67	2207.13
553.84	2108.82
554.01	1996.48
554.17	1877.11
554.34	1652.42
554.51	1682.85
554.67	1631.35
554.84	1481.56
555.00	1446.45
555.17	1296.66
555.33	1427.73
555.50	1252.19
555.67	1228.78
555.83	1060.26
556.00	1083.67
556.16	1233.46
556.33	1018.13
556.50	929.19
556.66	999.41
556.83	823.87
556.99	945.58
557.16	912.81
557.32	844.93
557.49	868.34
557.65	770.04
557.82	777.06
557.98	786.42
558.15	788.76
558.32	702.16
558.48	746.63
558.65	683.44
558.81	734.93
558.98	674.07
559.14	760.67
559.31	695.14
559.47	704.50
559.64	596.84
559.80	662.37
559.97	622.58
560.13	627.26
560.30	685.78
560.46	613.22
560.63	655.35
560.79	711.52
560.96	636.63
561.12	610.88
561.29	636.63
561.45	655.35
561.61	650.67
561.78	685.78
561.94	674.07
562.11	575.77
562.27	575.77
562.44	634.29
562.60	648.33
562.77	615.56
562.93	667.05
563.10	617.90
563.26	521.94
563.42	615.56
563.59	601.52
563.75	559.39
563.92	641.31
564.08	608.54
564.24	500.87
564.41	622.58
564.57	484.49
564.74	524.28
564.90	512.58
565.07	456.40
565.23	503.22
565.39	498.53
565.56	568.75
565.72	484.49
565.88	472.79
566.05	486.83
566.21	430.66
566.38	517.26
566.54	489.17
566.70	463.43
566.87	552.37
567.03	533.64
567.19	550.03
567.36	491.51
567.52	435.34
567.68	500.87
567.85	575.77
568.01	489.17
568.17	458.74
568.34	552.37
568.50	552.37
568.66	411.93
568.83	596.84
568.99	550.03
569.15	528.96
569.32	489.17
569.48	486.83
569.64	407.25
569.81	482.15
569.97	360.44
570.13	484.49
570.30	411.93
570.46	416.62
570.62	344.06
570.78	390.87
570.95	379.17
571.11	475.13
571.27	472.79
571.43	397.89
571.60	414.27
571.76	386.19
571.92	395.55
572.09	365.12
572.25	416.62
572.41	433.00
572.57	414.27
572.74	461.09
572.90	428.32
573.06	437.68
573.22	468.11
573.38	402.57
573.55	400.23
573.71	388.53
573.87	463.43
574.03	463.43
574.20	444.70
574.36	470.45
574.52	531.30
574.68	507.90
574.84	550.03
575.01	543.00
575.17	498.53
575.33	489.17
575.49	662.37
575.65	664.71
575.82	655.35
575.98	753.65
576.14	690.46
576.30	1570.50
576.46	5076.62
576.62	8542.96
576.79	9109.36
576.95	6340.51
577.11	4161.47
577.27	2897.58
577.43	2076.06
577.59	1376.24
577.75	1104.73
577.92	1071.97
578.08	1050.90
578.24	1071.97
578.40	1806.89
578.56	4847.25
578.72	7801.01
578.88	8304.22
579.04	6106.46
579.21	4184.88
579.37	3157.38
579.53	2434.16
579.69	2518.42
579.85	3000.57
580.01	3323.56
580.17	3201.85
580.33	2722.04
580.49	2415.43
580.65	2101.80
580.82	1928.60
580.98	1856.04
581.14	1984.77
581.30	2113.50
581.46	2230.53
581.62	2249.25
581.78	2551.18
581.94	2782.90
582.10	2740.77
582.26	2988.86
582.42	3176.11
582.58	3300.16
582.74	3279.09
582.90	3316.54
583.06	3241.64
583.22	3316.54
583.38	3288.45
583.54	3269.73
583.70	3351.65
583.86	3150.36
584.02	3084.83
584.18	3138.66
584.34	3155.04
584.50	3023.97
584.66	2967.80
584.82	2993.55
584.98	3030.99
585.14	2754.81
585.30	2820.35
585.46	2829.71
585.62	2771.19
585.78	2808.64
585.94	2787.58
586.10	2820.35
586.26	2979.50
586.42	3407.82
586.58	4056.15
586.74	4919.81
586.90	5928.58
587.06	6394.34
587.22	5970.71
587.38	5451.11
587.54	4751.29
587.70	4117.00
587.86	3421.86
588.02	2930.35
588.18	2583.95
588.34	2438.84
588.49	2244.57
588.65	2125.21
588.81	2122.87
588.97	1928.60
589.13	1743.70
589.29	1717.95
589.45	1823.28
589.61	1820.94
589.77	1802.21
589.93	1849.02
590.08	1947.33
590.24	1968.39
590.40	2050.31
590.56	2031.58
590.72	2127.55
590.88	2101.80
591.04	2382.67
591.20	2324.15
591.35	2466.92
591.51	2438.84
591.67	2511.39
591.83	2689.28
591.99	2932.69
592.15	3251.00
592.31	3599.74
592.46	3899.33
592.62	4262.12
592.78	4358.08
592.94	4404.89
593.10	4451.70
593.26	4287.86
593.41	4007.00
593.57	3552.93
593.73	2928.01
593.89	2672.89
594.05	2441.18
594.20	2342.88
594.36	2111.16
594.52	1942.64
594.68	1961.37
594.84	1703.91
594.99	1692.21
595.15	1713.27
595.31	1753.06
595.47	1729.66
595.62	1643.06
595.78	1666.46
595.94	1624.33
596.10	1673.48
596.25	1706.25
596.41	1734.34
596.57	1619.65
596.73	1717.95
596.88	1654.76
597.04	1673.48
597.20	1699.23
597.36	1790.51
597.51	1699.23
597.67	1799.87
597.83	1900.52
597.99	2054.99
598.14	2120.53
598.30	2134.57
598.46	2431.82
598.61	2499.69
598.77	2452.88
598.93	2651.83
599.09	2766.51
599.24	2778.22
599.40	2731.41
599.56	2677.57
599.71	2504.37
599.87	2406.07
600.03	2230.53
600.18	2195.42
600.34	2033.93
600.50	1867.75
600.65	1893.49
600.81	1659.44
600.97	1600.93
601.12	1540.07
601.28	1598.59
601.44	1420.71
601.59	1289.64
601.75	1217.08
601.91	1322.40
602.06	1203.04
602.22	1233.46
602.37	1210.06
602.53	1177.29
602.69	1193.67
602.84	999.41
603.00	1086.01
603.16	1034.52
603.31	1177.29
603.47	1247.51
603.62	1174.95
603.78	1294.32
603.94	1200.69
604.09	1261.55
604.25	1289.64
604.40	1338.79
604.56	1280.27
604.71	1378.58
604.87	1427.73
605.03	1315.38
605.18	1355.17
605.34	1500.28
605.49	1401.98
605.65	1469.86
605.80	1521.35
605.96	1589.22
