SpectraSuite Data File
++++++++++++++++++++++++++++++++++++
Date: Fri Oct 04 11:42:14 GMT-05:00 2013
User: price-jones
Dark Spectrum Present: No
Reference Spectrum Present: No
Number of Sampled Component Spectra: 1
Spectrometers: USB2+H05261
Integration Time (usec): 100000 (USB2+H05261)
Spectra Averaged: 1 (USB2+H05261)
Boxcar Smoothing: 0 (USB2+H05261)
Correct for Electrical Dark: No (USB2+H05261)
Strobe/Lamp Enabled: No (USB2+H05261)
Correct for Detector Non-linearity: No (USB2+H05261)
Correct for Stray Light: No (USB2+H05261)
Number of Pixels in Processed Spectrum: 2048
>>>>>Begin Processed Spectral Data<<<<<
365.73	49.15
365.92	49.15
366.12	49.15
366.32	0.00
366.52	4.68
366.72	30.43
366.91	0.00
367.11	0.00
367.31	0.00
367.51	0.00
367.70	0.00
367.90	0.00
368.10	0.00
368.30	7.02
368.49	0.00
368.69	0.00
368.89	0.00
369.09	0.00
369.28	0.00
369.48	0.00
369.68	0.00
369.87	35.11
370.07	9.36
370.27	25.75
370.47	7.02
370.66	0.00
370.86	0.00
371.06	46.81
371.25	39.79
371.45	65.54
371.65	60.85
371.84	65.54
372.04	84.26
372.24	0.00
372.44	86.60
372.63	147.45
372.83	107.66
373.03	84.26
373.22	95.96
373.42	114.69
373.62	124.05
373.81	117.03
374.01	133.41
374.21	114.69
374.40	124.05
374.60	166.18
374.79	70.22
374.99	117.03
375.19	159.16
375.38	107.66
375.58	42.13
375.78	147.45
375.97	121.71
376.17	184.90
376.37	133.41
376.56	126.39
376.76	23.41
376.95	126.39
377.15	102.98
377.35	142.77
377.54	152.13
377.74	46.81
377.93	84.26
378.13	138.09
378.33	154.48
378.52	81.92
378.72	135.75
378.91	114.69
379.11	159.16
379.31	110.01
379.50	51.49
379.70	49.15
379.89	128.73
380.09	74.90
380.28	79.58
380.48	51.49
380.68	72.56
380.87	70.22
381.07	100.64
381.26	86.60
381.46	140.43
381.65	86.60
381.85	70.22
382.04	119.37
382.24	112.35
382.43	100.64
382.63	102.98
382.83	79.58
383.02	173.20
383.22	74.90
383.41	105.32
383.61	114.69
383.80	138.09
384.00	93.62
384.19	175.54
384.39	72.56
384.58	51.49
384.78	194.26
384.97	100.64
385.17	105.32
385.36	135.75
385.56	114.69
385.75	140.43
385.95	147.45
386.14	95.96
386.34	95.96
386.53	42.13
386.72	70.22
386.92	67.88
387.11	56.17
387.31	161.50
387.50	128.73
387.70	39.79
387.89	107.66
388.09	135.75
388.28	95.96
388.48	91.28
388.67	91.28
388.86	140.43
389.06	105.32
389.25	74.90
389.45	65.54
389.64	142.77
389.84	100.64
390.03	86.60
390.22	105.32
390.42	0.00
390.61	86.60
390.81	124.05
391.00	119.37
391.19	182.56
391.39	84.26
391.58	46.81
391.78	135.75
391.97	163.84
392.16	133.41
392.36	180.22
392.55	100.64
392.75	105.32
392.94	98.30
393.13	67.88
393.33	119.37
393.52	180.22
393.71	100.64
393.91	152.13
394.10	49.15
394.29	72.56
394.49	14.04
394.68	159.16
394.88	133.41
395.07	142.77
395.26	88.94
395.46	119.37
395.65	110.01
395.84	189.58
396.04	210.65
396.23	107.66
396.42	100.64
396.62	189.58
396.81	105.32
397.00	100.64
397.19	60.85
397.39	147.45
397.58	142.77
397.77	112.35
397.97	86.60
398.16	121.71
398.35	140.43
398.55	140.43
398.74	98.30
398.93	156.82
399.12	42.13
399.32	117.03
399.51	100.64
399.70	138.09
399.90	124.05
400.09	175.54
400.28	180.22
400.47	121.71
400.67	173.20
400.86	93.62
401.05	133.41
401.24	189.58
401.44	205.97
401.63	175.54
401.82	156.82
402.01	110.01
402.21	105.32
402.40	105.32
402.59	135.75
402.78	135.75
402.97	147.45
403.17	35.11
403.36	145.11
403.55	184.90
403.74	191.92
403.93	198.95
404.13	318.31
404.32	313.63
404.51	212.99
404.70	220.01
404.89	102.98
405.09	128.73
405.28	70.22
405.47	100.64
405.66	149.79
405.85	117.03
406.05	135.75
406.24	138.09
406.43	135.75
406.62	166.18
406.81	205.97
407.00	152.13
407.20	147.45
407.39	135.75
407.58	177.88
407.77	184.90
407.96	131.07
408.15	114.69
408.34	119.37
408.54	175.54
408.73	11.70
408.92	124.05
409.11	170.86
409.30	128.73
409.49	58.51
409.68	102.98
409.87	88.94
410.07	72.56
410.26	74.90
410.45	170.86
410.64	182.56
410.83	145.11
411.02	149.79
411.21	138.09
411.40	124.05
411.59	189.58
411.78	187.24
411.98	142.77
412.17	119.37
412.36	86.60
412.55	182.56
412.74	187.24
412.93	182.56
413.12	74.90
413.31	117.03
413.50	126.39
413.69	138.09
413.88	147.45
414.07	180.22
414.26	138.09
414.45	152.13
414.64	149.79
414.83	133.41
415.02	156.82
415.22	159.16
415.41	170.86
415.60	100.64
415.79	110.01
415.98	227.03
416.17	60.85
416.36	77.24
416.55	184.90
416.74	184.90
416.93	184.90
417.12	135.75
417.31	84.26
417.50	112.35
417.69	173.20
417.88	140.43
418.07	91.28
418.26	149.79
418.45	117.03
418.64	180.22
418.83	135.75
419.02	124.05
419.21	112.35
419.39	140.43
419.58	126.39
419.77	128.73
419.96	161.50
420.15	114.69
420.34	194.26
420.53	166.18
420.72	140.43
420.91	23.41
421.10	147.45
421.29	128.73
421.48	131.07
421.67	159.16
421.86	184.90
422.05	131.07
422.24	88.94
422.43	114.69
422.61	142.77
422.80	184.90
422.99	131.07
423.18	131.07
423.37	189.58
423.56	177.88
423.75	147.45
423.94	168.52
424.13	128.73
424.32	135.75
424.50	95.96
424.69	187.24
424.88	187.24
425.07	138.09
425.26	170.86
425.45	149.79
425.64	119.37
425.83	117.03
426.01	210.65
426.20	203.63
426.39	124.05
426.58	79.58
426.77	131.07
426.96	196.60
427.15	119.37
427.33	159.16
427.52	201.29
427.71	161.50
427.90	102.98
428.09	180.22
428.28	112.35
428.46	152.13
428.65	91.28
428.84	128.73
429.03	119.37
429.22	149.79
429.40	145.11
429.59	114.69
429.78	208.31
429.97	224.69
430.16	126.39
430.34	88.94
430.53	107.66
430.72	140.43
430.91	152.13
431.10	107.66
431.28	86.60
431.47	168.52
431.66	163.84
431.85	152.13
432.03	105.32
432.22	241.08
432.41	168.52
432.60	194.26
432.79	131.07
432.97	170.86
433.16	81.92
433.35	126.39
433.54	112.35
433.72	184.90
433.91	180.22
434.10	166.18
434.28	126.39
434.47	149.79
434.66	217.67
434.85	266.82
435.03	386.19
435.22	835.57
435.41	1434.75
435.59	1533.05
435.78	1048.56
435.97	617.90
436.16	229.37
436.34	201.29
436.53	220.01
436.72	166.18
436.90	203.63
437.09	238.73
437.28	222.35
437.46	152.13
437.65	187.24
437.84	215.33
438.02	187.24
438.21	159.16
438.40	145.11
438.58	114.69
438.77	91.28
438.96	133.41
439.14	133.41
439.33	166.18
439.52	119.37
439.70	234.05
439.89	182.56
440.08	191.92
440.26	203.63
440.45	224.69
440.63	215.33
440.82	229.37
441.01	217.67
441.19	201.29
441.38	161.50
441.57	210.65
441.75	259.80
441.94	161.50
442.12	220.01
442.31	147.45
442.50	135.75
442.68	224.69
442.87	180.22
443.05	189.58
443.24	161.50
443.43	168.52
443.61	189.58
443.80	175.54
443.98	166.18
444.17	126.39
444.35	196.60
444.54	191.92
444.73	149.79
444.91	290.23
445.10	107.66
445.28	177.88
445.47	121.71
445.65	131.07
445.84	149.79
446.02	182.56
446.21	166.18
446.39	147.45
446.58	196.60
446.77	191.92
446.95	102.98
447.14	102.98
447.32	252.78
447.51	198.95
447.69	147.45
447.88	187.24
448.06	212.99
448.25	168.52
448.43	154.48
448.62	203.63
448.80	175.54
448.99	161.50
449.17	205.97
449.36	194.26
449.54	208.31
449.73	159.16
449.91	194.26
450.10	187.24
450.28	259.80
450.46	266.82
450.65	194.26
450.83	147.45
451.02	173.20
451.20	154.48
451.39	161.50
451.57	180.22
451.76	201.29
451.94	135.75
452.13	229.37
452.31	180.22
452.49	170.86
452.68	215.33
452.86	138.09
453.05	163.84
453.23	182.56
453.42	224.69
453.60	224.69
453.78	166.18
453.97	126.39
454.15	163.84
454.34	191.92
454.52	189.58
454.70	184.90
454.89	205.97
455.07	196.60
455.26	175.54
455.44	229.37
455.62	194.26
455.81	224.69
455.99	269.16
456.17	198.95
456.36	227.03
456.54	149.79
456.73	117.03
456.91	173.20
457.09	147.45
457.28	229.37
457.46	259.80
457.64	149.79
457.83	159.16
458.01	95.96
458.19	205.97
458.38	180.22
458.56	203.63
458.74	131.07
458.93	220.01
459.11	177.88
459.29	117.03
459.48	187.24
459.66	184.90
459.84	149.79
460.03	201.29
460.21	203.63
460.39	170.86
460.57	224.69
460.76	299.59
460.94	196.60
461.12	227.03
461.31	203.63
461.49	180.22
461.67	191.92
461.85	166.18
462.04	175.54
462.22	418.96
462.40	203.63
462.59	196.60
462.77	152.13
462.95	189.58
463.13	88.94
463.32	128.73
463.50	208.31
463.68	161.50
463.86	222.35
464.05	205.97
464.23	266.82
464.41	224.69
464.59	147.45
464.78	201.29
464.96	133.41
465.14	212.99
465.32	278.52
465.50	180.22
465.69	269.16
465.87	114.69
466.05	210.65
466.23	131.07
466.41	135.75
466.60	229.37
466.78	196.60
466.96	168.52
467.14	224.69
467.32	212.99
467.51	191.92
467.69	184.90
467.87	236.39
468.05	191.92
468.23	234.05
468.41	212.99
468.60	140.43
468.78	215.33
468.96	154.48
469.14	126.39
469.32	154.48
469.50	170.86
469.69	177.88
469.87	231.71
470.05	196.60
470.23	255.12
470.41	161.50
470.59	177.88
470.77	163.84
470.95	177.88
471.14	266.82
471.32	184.90
471.50	224.69
471.68	117.03
471.86	259.80
472.04	159.16
472.22	105.32
472.40	161.50
472.58	154.48
472.77	177.88
472.95	166.18
473.13	222.35
473.31	227.03
473.49	147.45
473.67	220.01
473.85	224.69
474.03	154.48
474.21	264.48
474.39	259.80
474.57	294.91
474.75	280.86
474.93	175.54
475.12	166.18
475.30	177.88
475.48	140.43
475.66	210.65
475.84	220.01
476.02	177.88
476.20	201.29
476.38	222.35
476.56	215.33
476.74	273.84
476.92	131.07
477.10	133.41
477.28	234.05
477.46	175.54
477.64	154.48
477.82	173.20
478.00	112.35
478.18	191.92
478.36	250.44
478.54	135.75
478.72	229.37
478.90	187.24
479.08	222.35
479.26	210.65
479.44	152.13
479.62	166.18
479.80	128.73
479.98	208.31
480.16	187.24
480.34	236.39
480.52	154.48
480.70	170.86
480.88	198.95
481.06	147.45
481.24	241.08
481.41	215.33
481.59	212.99
481.77	196.60
481.95	187.24
482.13	250.44
482.31	208.31
482.49	290.23
482.67	304.27
482.85	264.48
483.03	248.10
483.21	250.44
483.39	248.10
483.57	248.10
483.74	205.97
483.92	306.61
484.10	220.01
484.28	278.52
484.46	315.97
484.64	264.48
484.82	280.86
485.00	337.04
485.18	252.78
485.35	379.17
485.53	358.10
485.71	369.80
485.89	325.33
486.07	318.31
486.25	421.30
486.43	411.93
486.61	372.15
486.78	294.91
486.96	313.63
487.14	341.72
487.32	285.55
487.50	358.10
487.68	369.80
487.85	330.02
488.03	358.10
488.21	353.42
488.39	341.72
488.57	379.17
488.75	299.59
488.92	617.90
489.10	334.70
489.28	353.42
489.46	315.97
489.64	353.42
489.81	327.68
489.99	376.83
490.17	313.63
490.35	348.74
490.53	341.72
490.70	266.82
490.88	369.80
491.06	290.23
491.24	390.87
491.41	325.33
491.59	318.31
491.77	294.91
491.95	276.18
492.13	311.29
492.30	376.83
492.48	337.04
492.66	292.57
492.84	358.10
493.01	299.59
493.19	163.84
493.37	304.27
493.54	337.04
493.72	315.97
493.90	229.37
494.08	337.04
494.25	290.23
494.43	187.24
494.61	280.86
494.79	278.52
494.96	341.72
495.14	236.39
495.32	372.15
495.49	337.04
495.67	327.68
495.85	271.50
496.02	381.51
496.20	362.78
496.38	308.95
496.55	278.52
496.73	262.14
496.91	301.93
497.09	241.08
497.26	217.67
497.44	287.89
497.62	299.59
497.79	283.20
497.97	315.97
498.14	320.65
498.32	386.19
498.50	271.50
498.67	311.29
498.85	283.20
499.03	245.76
499.20	194.26
499.38	337.04
499.56	259.80
499.73	376.83
499.91	257.46
500.08	320.65
500.26	177.88
500.44	250.44
500.61	189.58
500.79	231.71
500.97	320.65
501.14	330.02
501.32	304.27
501.49	266.82
501.67	245.76
501.84	250.44
502.02	236.39
502.20	271.50
502.37	243.42
502.55	276.18
502.72	271.50
502.90	320.65
503.07	285.55
503.25	241.08
503.43	290.23
503.60	180.22
503.78	234.05
503.95	208.31
504.13	182.56
504.30	224.69
504.48	266.82
504.65	339.38
504.83	269.16
505.01	149.79
505.18	245.76
505.36	241.08
505.53	273.84
505.71	266.82
505.88	280.86
506.06	266.82
506.23	220.01
506.41	252.78
506.58	252.78
506.76	285.55
506.93	191.92
507.11	236.39
507.28	184.90
507.46	266.82
507.63	264.48
507.81	182.56
507.98	222.35
508.16	311.29
508.33	327.68
508.50	334.70
508.68	285.55
508.85	280.86
509.03	161.50
509.20	257.46
509.38	152.13
509.55	222.35
509.73	245.76
509.90	339.38
510.08	299.59
510.25	257.46
510.42	208.31
510.60	243.42
510.77	285.55
510.95	238.73
511.12	238.73
511.30	241.08
511.47	290.23
511.64	299.59
511.82	212.99
511.99	322.99
512.17	234.05
512.34	194.26
512.51	231.71
512.69	257.46
512.86	365.12
513.04	227.03
513.21	245.76
513.38	264.48
513.56	234.05
513.73	208.31
513.90	243.42
514.08	238.73
514.25	262.14
514.43	276.18
514.60	257.46
514.77	257.46
514.95	252.78
515.12	205.97
515.29	250.44
515.47	177.88
515.64	203.63
515.81	203.63
515.99	304.27
516.16	250.44
516.33	238.73
516.51	257.46
516.68	140.43
516.85	168.52
517.03	234.05
517.20	334.70
517.37	194.26
517.54	273.84
517.72	257.46
517.89	194.26
518.06	161.50
518.24	299.59
518.41	215.33
518.58	243.42
518.75	280.86
518.93	238.73
519.10	243.42
519.27	271.50
519.45	252.78
519.62	245.76
519.79	259.80
519.96	287.89
520.14	241.08
520.31	231.71
520.48	259.80
520.65	227.03
520.83	278.52
521.00	318.31
521.17	166.18
521.34	227.03
521.52	278.52
521.69	280.86
521.86	259.80
522.03	238.73
522.20	238.73
522.38	245.76
522.55	262.14
522.72	168.52
522.89	297.25
523.07	287.89
523.24	273.84
523.41	243.42
523.58	203.63
523.75	273.84
523.92	315.97
524.10	299.59
524.27	280.86
524.44	175.54
524.61	234.05
524.78	208.31
524.96	255.12
525.13	236.39
525.30	362.78
525.47	318.31
525.64	334.70
525.81	337.04
525.98	234.05
526.16	301.93
526.33	292.57
526.50	194.26
526.67	273.84
526.84	283.20
527.01	287.89
527.18	262.14
527.36	257.46
527.53	255.12
527.70	306.61
527.87	280.86
528.04	327.68
528.21	273.84
528.38	241.08
528.55	304.27
528.72	283.20
528.89	346.40
529.07	259.80
529.24	248.10
529.41	287.89
529.58	294.91
529.75	184.90
529.92	306.61
530.09	311.29
530.26	315.97
530.43	308.95
530.60	245.76
530.77	262.14
530.94	255.12
531.11	299.59
531.28	290.23
531.46	205.97
531.63	362.78
531.80	278.52
531.97	348.74
532.14	372.15
532.31	330.02
532.48	276.18
532.65	243.42
532.82	210.65
532.99	287.89
533.16	297.25
533.33	409.59
533.50	341.72
533.67	245.76
533.84	252.78
534.01	365.12
534.18	283.20
534.35	262.14
534.52	320.65
534.69	245.76
534.86	278.52
535.03	276.18
535.20	297.25
535.37	311.29
535.54	313.63
535.71	379.17
535.88	315.97
536.05	290.23
536.22	330.02
536.38	344.06
536.55	337.04
536.72	308.95
536.89	311.29
537.06	381.51
537.23	327.68
537.40	400.23
537.57	507.90
537.74	456.40
537.91	517.26
538.08	444.70
538.25	440.02
538.42	404.91
538.59	440.02
538.75	454.06
538.92	519.60
539.09	491.51
539.26	386.19
539.43	552.37
539.60	636.63
539.77	657.69
539.94	702.16
540.11	830.89
540.28	805.14
540.44	922.17
540.61	924.51
540.78	938.55
540.95	1130.48
541.12	1301.34
541.29	1441.77
541.46	1582.20
541.62	1668.80
541.79	1451.13
541.96	1535.39
542.13	1345.81
542.30	1345.81
542.47	1359.85
542.63	1315.38
542.80	1352.83
542.97	1287.29
543.14	1287.29
543.31	1352.83
543.48	1191.33
543.64	1268.57
543.81	1240.48
543.98	1242.82
544.15	1172.61
544.32	1210.06
544.48	1315.38
544.65	1240.48
544.82	1142.18
544.99	1193.67
545.16	1240.48
545.32	1184.31
545.49	2045.63
545.66	2920.99
545.83	3772.94
546.00	3325.90
546.16	2326.49
546.33	1736.68
546.50	1479.22
546.67	1128.14
546.83	1114.10
547.00	1004.09
547.17	912.81
547.34	938.55
547.50	889.40
547.67	936.21
547.84	917.49
548.00	891.74
548.17	875.36
548.34	844.93
548.51	861.32
548.67	788.76
548.84	772.38
549.01	763.01
549.18	788.76
549.34	699.82
549.51	613.22
549.68	688.12
549.84	594.50
550.01	582.79
550.18	664.71
550.34	545.34
550.51	585.13
550.68	566.41
550.84	573.43
551.01	531.30
551.18	568.75
551.34	477.47
551.51	496.19
551.68	503.22
551.84	482.15
552.01	456.40
552.18	475.13
552.34	407.25
552.51	449.38
552.68	491.51
552.84	397.89
553.01	451.72
553.18	400.23
553.34	444.70
553.51	376.83
553.67	374.49
553.84	407.25
554.01	409.59
554.17	386.19
554.34	360.44
554.51	353.42
554.67	395.55
554.84	430.66
555.00	388.53
555.17	327.68
555.33	383.85
555.50	372.15
555.67	339.38
555.83	362.78
556.00	290.23
556.16	545.34
556.33	285.55
556.50	259.80
556.66	238.73
556.83	334.70
556.99	344.06
557.16	362.78
557.32	243.42
557.49	318.31
557.65	334.70
557.82	217.67
557.98	238.73
558.15	358.10
558.32	341.72
558.48	245.76
558.65	271.50
558.81	299.59
558.98	262.14
559.14	285.55
559.31	271.50
559.47	297.25
559.64	191.92
559.80	290.23
559.97	252.78
560.13	255.12
560.30	198.95
560.46	222.35
560.63	255.12
560.79	276.18
560.96	301.93
561.12	362.78
561.29	294.91
561.45	234.05
561.61	241.08
561.78	374.49
561.94	264.48
562.11	271.50
562.27	287.89
562.44	257.46
562.60	252.78
562.77	278.52
562.93	393.21
563.10	229.37
563.26	271.50
563.42	318.31
563.59	330.02
563.75	348.74
563.92	290.23
564.08	229.37
564.24	332.36
564.41	234.05
564.57	252.78
564.74	255.12
564.90	283.20
565.07	299.59
565.23	236.39
565.39	248.10
565.56	353.42
565.72	231.71
565.88	266.82
566.05	170.86
566.21	229.37
566.38	236.39
566.54	236.39
566.70	245.76
566.87	191.92
567.03	259.80
567.19	227.03
567.36	283.20
567.52	217.67
567.68	220.01
567.85	322.99
568.01	271.50
568.17	290.23
568.34	243.42
568.50	339.38
568.66	313.63
568.83	341.72
568.99	201.29
569.15	266.82
569.32	227.03
569.48	299.59
569.64	250.44
569.81	262.14
569.97	205.97
570.13	273.84
570.30	255.12
570.46	222.35
570.62	215.33
570.78	180.22
570.95	271.50
571.11	262.14
571.27	248.10
571.43	255.12
571.60	327.68
571.76	236.39
571.92	259.80
572.09	271.50
572.25	290.23
572.41	353.42
572.57	266.82
572.74	290.23
572.90	292.57
573.06	315.97
573.22	248.10
573.38	245.76
573.55	264.48
573.71	320.65
573.87	313.63
574.03	285.55
574.20	248.10
574.36	287.89
574.52	301.93
574.68	301.93
574.84	250.44
575.01	276.18
575.17	257.46
575.33	252.78
575.49	334.70
575.65	252.78
575.82	315.97
575.98	271.50
576.14	334.70
576.30	372.15
576.46	496.19
576.62	716.20
576.79	959.62
576.95	833.23
577.11	535.98
577.27	407.25
577.43	351.08
577.59	332.36
577.75	269.16
577.92	271.50
578.08	330.02
578.24	241.08
578.40	330.02
578.56	582.79
578.72	770.04
578.88	772.38
579.04	720.88
579.21	535.98
579.37	447.04
579.53	414.27
579.69	463.43
579.85	496.19
580.01	479.81
580.17	458.74
580.33	484.49
580.49	428.32
580.65	374.49
580.82	290.23
580.98	407.25
581.14	418.96
581.30	477.47
581.46	388.53
581.62	416.62
581.78	442.36
581.94	433.00
582.10	496.19
582.26	442.36
582.42	435.34
582.58	484.49
582.74	582.79
582.90	535.98
583.06	524.28
583.22	454.06
583.38	451.72
583.54	435.34
583.70	533.64
583.86	505.56
584.02	510.24
584.18	454.06
584.34	444.70
584.50	423.64
584.66	449.38
584.82	437.68
584.98	463.43
585.14	489.17
585.30	433.00
585.46	463.43
585.62	428.32
585.78	468.11
585.94	433.00
586.10	465.77
586.26	374.49
586.42	482.15
586.58	451.72
586.74	660.03
586.90	777.06
587.06	725.57
587.22	688.12
587.38	571.09
587.54	594.50
587.70	585.13
587.86	493.85
588.02	447.04
588.18	379.17
588.34	423.64
588.49	395.55
588.65	322.99
588.81	402.57
588.97	355.76
589.13	339.38
589.29	290.23
589.45	402.57
589.61	351.08
589.77	301.93
589.93	390.87
590.08	292.57
590.24	332.36
590.40	358.10
590.56	451.72
590.72	388.53
590.88	381.51
591.04	407.25
591.20	351.08
591.35	440.02
591.51	346.40
591.67	414.27
591.83	411.93
591.99	372.15
592.15	435.34
592.31	475.13
592.46	489.17
592.62	535.98
592.78	552.37
592.94	489.17
593.10	538.32
593.26	437.68
593.41	512.58
593.57	475.13
593.73	437.68
593.89	393.21
594.05	386.19
594.20	344.06
594.36	404.91
594.52	369.80
594.68	306.61
594.84	365.12
594.99	332.36
595.15	280.86
595.31	362.78
595.47	306.61
595.62	304.27
595.78	297.25
595.94	280.86
596.10	313.63
596.25	320.65
596.41	308.95
596.57	325.33
596.73	269.16
596.88	320.65
597.04	411.93
597.20	276.18
597.36	369.80
597.51	320.65
597.67	297.25
597.83	266.82
597.99	390.87
598.14	355.76
598.30	383.85
598.46	365.12
598.61	407.25
598.77	397.89
598.93	358.10
599.09	468.11
599.24	404.91
599.40	440.02
599.56	440.02
599.71	372.15
599.87	344.06
600.03	393.21
600.18	376.83
600.34	339.38
600.50	304.27
600.65	339.38
600.81	327.68
600.97	414.27
601.12	308.95
601.28	395.55
601.44	311.29
601.59	337.04
601.75	297.25
601.91	308.95
602.06	341.72
602.22	362.78
602.37	243.42
602.53	257.46
602.69	315.97
602.84	299.59
603.00	285.55
603.16	292.57
603.31	266.82
603.47	280.86
603.62	269.16
603.78	360.44
603.94	273.84
604.09	285.55
604.25	313.63
604.40	285.55
604.56	250.44
604.71	311.29
604.87	250.44
605.03	304.27
605.18	248.10
605.34	337.04
605.49	299.59
605.65	304.27
605.80	308.95
605.96	334.70
606.12	344.06
606.27	416.62
606.43	315.97
606.58	313.63
606.74	346.40
606.89	379.17
607.05	395.55
607.20	409.59
607.36	433.00
607.51	472.79
607.67	355.76
607.82	400.23
607.98	505.56
608.13	470.45
608.29	435.34
608.44	503.22
608.60	505.56
608.75	531.30
608.91	603.86
609.06	634.29
609.22	674.07
609.37	676.41
609.53	660.03
609.68	802.80
609.84	840.25
609.99	919.83
610.15	1053.24
610.30	1352.83
610.46	1664.12
610.61	2019.88
610.76	2532.46
610.92	3073.12
611.07	3440.59
