SpectraSuite Data File
++++++++++++++++++++++++++++++++++++
Date: Fri Oct 04 11:42:29 GMT-05:00 2013
User: price-jones
Dark Spectrum Present: No
Reference Spectrum Present: No
Number of Sampled Component Spectra: 1
Spectrometers: USB2+H05261
Integration Time (usec): 100000 (USB2+H05261)
Spectra Averaged: 1 (USB2+H05261)
Boxcar Smoothing: 0 (USB2+H05261)
Correct for Electrical Dark: No (USB2+H05261)
Strobe/Lamp Enabled: No (USB2+H05261)
Correct for Detector Non-linearity: No (USB2+H05261)
Correct for Stray Light: No (USB2+H05261)
Number of Pixels in Processed Spectrum: 2048
>>>>>Begin Processed Spectral Data<<<<<
365.73	100.64
365.92	100.64
366.12	100.64
366.32	0.00
366.52	0.00
366.72	16.38
366.91	0.00
367.11	0.00
367.31	0.00
367.51	0.00
367.70	0.00
367.90	0.00
368.10	0.00
368.30	0.00
368.49	0.00
368.69	0.00
368.89	0.00
369.09	0.00
369.28	0.00
369.48	0.00
369.68	0.00
369.87	0.00
370.07	0.00
370.27	35.11
370.47	42.13
370.66	0.00
370.86	39.79
371.06	46.81
371.25	95.96
371.45	74.90
371.65	98.30
371.84	18.72
372.04	49.15
372.24	102.98
372.44	100.64
372.63	124.05
372.83	166.18
373.03	91.28
373.22	110.01
373.42	53.83
373.62	105.32
373.81	117.03
374.01	147.45
374.21	135.75
374.40	166.18
374.60	198.95
374.79	72.56
374.99	140.43
375.19	154.48
375.38	105.32
375.58	152.13
375.78	105.32
375.97	105.32
376.17	156.82
376.37	135.75
376.56	126.39
376.76	72.56
376.95	124.05
377.15	142.77
377.35	128.73
377.54	107.66
377.74	98.30
377.93	117.03
378.13	121.71
378.33	88.94
378.52	105.32
378.72	140.43
378.91	166.18
379.11	98.30
379.31	28.09
379.50	110.01
379.70	152.13
379.89	163.84
380.09	112.35
380.28	79.58
380.48	65.54
380.68	105.32
380.87	88.94
381.07	100.64
381.26	147.45
381.46	173.20
381.65	95.96
381.85	79.58
382.04	124.05
382.24	119.37
382.43	74.90
382.63	88.94
382.83	42.13
383.02	126.39
383.22	126.39
383.41	86.60
383.61	119.37
383.80	91.28
384.00	100.64
384.19	72.56
384.39	180.22
384.58	93.62
384.78	37.45
384.97	145.11
385.17	35.11
385.36	128.73
385.56	180.22
385.75	93.62
385.95	86.60
386.14	100.64
386.34	58.51
386.53	114.69
386.72	110.01
386.92	86.60
387.11	112.35
387.31	63.19
387.50	81.92
387.70	56.17
387.89	159.16
388.09	86.60
388.28	60.85
388.48	133.41
388.67	173.20
388.86	95.96
389.06	161.50
389.25	140.43
389.45	135.75
389.64	93.62
389.84	152.13
390.03	107.66
390.22	4.68
390.42	67.88
390.61	79.58
390.81	93.62
391.00	128.73
391.19	152.13
391.39	142.77
391.58	70.22
391.78	100.64
391.97	187.24
392.16	35.11
392.36	138.09
392.55	131.07
392.75	105.32
392.94	84.26
393.13	119.37
393.33	128.73
393.52	53.83
393.71	156.82
393.91	117.03
394.10	81.92
394.29	166.18
394.49	79.58
394.68	126.39
394.88	149.79
395.07	166.18
395.26	88.94
395.46	35.11
395.65	170.86
395.84	182.56
396.04	140.43
396.23	149.79
396.42	154.48
396.62	177.88
396.81	102.98
397.00	198.95
397.19	114.69
397.39	44.47
397.58	105.32
397.77	86.60
397.97	70.22
398.16	88.94
398.35	39.79
398.55	102.98
398.74	49.15
398.93	135.75
399.12	107.66
399.32	135.75
399.51	100.64
399.70	163.84
399.90	250.44
400.09	79.58
400.28	145.11
400.47	110.01
400.67	145.11
400.86	81.92
401.05	152.13
401.24	175.54
401.44	95.96
401.63	142.77
401.82	173.20
402.01	147.45
402.21	42.13
402.40	149.79
402.59	110.01
402.78	100.64
402.97	124.05
403.17	98.30
403.36	133.41
403.55	79.58
403.74	198.95
403.93	341.72
404.13	617.90
404.32	568.75
404.51	425.98
404.70	292.57
404.89	175.54
405.09	156.82
405.28	175.54
405.47	51.49
405.66	77.24
405.85	140.43
406.05	128.73
406.24	100.64
406.43	196.60
406.62	220.01
406.81	170.86
407.00	208.31
407.20	175.54
407.39	156.82
407.58	196.60
407.77	117.03
407.96	149.79
408.15	135.75
408.34	147.45
408.54	154.48
408.73	224.69
408.92	105.32
409.11	138.09
409.30	114.69
409.49	140.43
409.68	117.03
409.87	56.17
410.07	121.71
410.26	119.37
410.45	124.05
410.64	145.11
410.83	65.54
411.02	159.16
411.21	149.79
411.40	212.99
411.59	72.56
411.78	173.20
411.98	175.54
412.17	128.73
412.36	98.30
412.55	131.07
412.74	227.03
412.93	184.90
413.12	88.94
413.31	121.71
413.50	131.07
413.69	119.37
413.88	189.58
414.07	72.56
414.26	140.43
414.45	175.54
414.64	121.71
414.83	191.92
415.02	142.77
415.22	161.50
415.41	194.26
415.60	170.86
415.79	161.50
415.98	152.13
416.17	152.13
416.36	149.79
416.55	133.41
416.74	154.48
416.93	161.50
417.12	168.52
417.31	126.39
417.50	166.18
417.69	140.43
417.88	107.66
418.07	81.92
418.26	180.22
418.45	173.20
418.64	182.56
418.83	145.11
419.02	102.98
419.21	138.09
419.39	124.05
419.58	72.56
419.77	177.88
419.96	112.35
420.15	248.10
420.34	161.50
420.53	140.43
420.72	229.37
420.91	159.16
421.10	119.37
421.29	187.24
421.48	191.92
421.67	182.56
421.86	140.43
422.05	191.92
422.24	189.58
422.43	135.75
422.61	56.17
422.80	107.66
422.99	156.82
423.18	168.52
423.37	100.64
423.56	180.22
423.75	145.11
423.94	217.67
424.13	107.66
424.32	138.09
424.50	173.20
424.69	152.13
424.88	208.31
425.07	81.92
425.26	168.52
425.45	128.73
425.64	93.62
425.83	65.54
426.01	133.41
426.20	215.33
426.39	189.58
426.58	149.79
426.77	140.43
426.96	191.92
427.15	98.30
427.33	203.63
427.52	191.92
427.71	182.56
427.90	131.07
428.09	110.01
428.28	124.05
428.46	102.98
428.65	201.29
428.84	170.86
429.03	154.48
429.22	114.69
429.40	100.64
429.59	152.13
429.78	229.37
429.97	189.58
430.16	131.07
430.34	175.54
430.53	152.13
430.72	86.60
430.91	189.58
431.10	117.03
431.28	65.54
431.47	121.71
431.66	184.90
431.85	135.75
432.03	215.33
432.22	114.69
432.41	168.52
432.60	173.20
432.79	177.88
432.97	145.11
433.16	196.60
433.35	220.01
433.54	198.95
433.72	133.41
433.91	180.22
434.10	236.39
434.28	238.73
434.47	220.01
434.66	182.56
434.85	318.31
435.03	643.65
435.22	1614.97
435.41	2377.98
435.59	2176.70
435.78	1542.41
435.97	863.66
436.16	409.59
436.34	259.80
436.53	217.67
436.72	224.69
436.90	142.77
437.09	182.56
437.28	180.22
437.46	163.84
437.65	224.69
437.84	229.37
438.02	163.84
438.21	133.41
438.40	110.01
438.58	133.41
438.77	187.24
438.96	161.50
439.14	159.16
439.33	184.90
439.52	196.60
439.70	189.58
439.89	194.26
440.08	191.92
440.26	114.69
440.45	168.52
440.63	161.50
440.82	210.65
441.01	276.18
441.19	182.56
441.38	168.52
441.57	196.60
441.75	194.26
441.94	182.56
442.12	229.37
442.31	168.52
442.50	154.48
442.68	114.69
442.87	173.20
443.05	203.63
443.24	138.09
443.43	224.69
443.61	262.14
443.80	255.12
443.98	149.79
444.17	180.22
444.35	166.18
444.54	189.58
444.73	58.51
444.91	156.82
445.10	208.31
445.28	255.12
445.47	236.39
445.65	135.75
445.84	208.31
446.02	159.16
446.21	184.90
446.39	173.20
446.58	175.54
446.77	189.58
446.95	147.45
447.14	208.31
447.32	208.31
447.51	145.11
447.69	142.77
447.88	205.97
448.06	119.37
448.25	168.52
448.43	182.56
448.62	161.50
448.80	224.69
448.99	243.42
449.17	161.50
449.36	175.54
449.54	166.18
449.73	135.75
449.91	248.10
450.10	177.88
450.28	208.31
450.46	222.35
450.65	182.56
450.83	140.43
451.02	170.86
451.20	234.05
451.39	114.69
451.57	173.20
451.76	154.48
451.94	124.05
452.13	201.29
452.31	114.69
452.49	227.03
452.68	142.77
452.86	156.82
453.05	215.33
453.23	189.58
453.42	156.82
453.60	229.37
453.78	243.42
453.97	149.79
454.15	149.79
454.34	107.66
454.52	138.09
454.70	229.37
454.89	95.96
455.07	205.97
455.26	163.84
455.44	208.31
455.62	212.99
455.81	220.01
455.99	191.92
456.17	229.37
456.36	159.16
456.54	201.29
456.73	231.71
456.91	135.75
457.09	145.11
457.28	198.95
457.46	168.52
457.64	187.24
457.83	184.90
458.01	227.03
458.19	215.33
458.38	166.18
458.56	222.35
458.74	215.33
458.93	205.97
459.11	243.42
459.29	210.65
459.48	184.90
459.66	198.95
459.84	121.71
460.03	201.29
460.21	117.03
460.39	166.18
460.57	203.63
460.76	159.16
460.94	161.50
461.12	163.84
461.31	196.60
461.49	117.03
461.67	124.05
461.85	194.26
462.04	159.16
462.22	304.27
462.40	220.01
462.59	159.16
462.77	182.56
462.95	184.90
463.13	231.71
463.32	170.86
463.50	154.48
463.68	133.41
463.86	182.56
464.05	124.05
464.23	184.90
464.41	308.95
464.59	198.95
464.78	152.13
464.96	138.09
465.14	159.16
465.32	173.20
465.50	191.92
465.69	227.03
465.87	173.20
466.05	201.29
466.23	131.07
466.41	234.05
466.60	142.77
466.78	191.92
466.96	234.05
467.14	238.73
467.32	236.39
467.51	177.88
467.69	173.20
467.87	252.78
468.05	238.73
468.23	280.86
468.41	262.14
468.60	166.18
468.78	119.37
468.96	212.99
469.14	180.22
469.32	194.26
469.50	163.84
469.69	210.65
469.87	203.63
470.05	205.97
470.23	187.24
470.41	191.92
470.59	203.63
470.77	147.45
470.95	67.88
471.14	168.52
471.32	168.52
471.50	187.24
471.68	177.88
471.86	273.84
472.04	243.42
472.22	182.56
472.40	135.75
472.58	184.90
472.77	203.63
472.95	147.45
473.13	198.95
473.31	203.63
473.49	107.66
473.67	81.92
473.85	140.43
474.03	156.82
474.21	131.07
474.39	152.13
474.57	201.29
474.75	208.31
474.93	161.50
475.12	159.16
475.30	180.22
475.48	203.63
475.66	128.73
475.84	210.65
476.02	149.79
476.20	182.56
476.38	215.33
476.56	299.59
476.74	189.58
476.92	187.24
477.10	212.99
477.28	201.29
477.46	156.82
477.64	184.90
477.82	177.88
478.00	201.29
478.18	142.77
478.36	205.97
478.54	152.13
478.72	175.54
478.90	212.99
479.08	154.48
479.26	208.31
479.44	182.56
479.62	152.13
479.80	114.69
479.98	210.65
480.16	126.39
480.34	259.80
480.52	161.50
480.70	255.12
480.88	196.60
481.06	161.50
481.24	215.33
481.41	215.33
481.59	292.57
481.77	259.80
481.95	241.08
482.13	292.57
482.31	163.84
482.49	245.76
482.67	205.97
482.85	290.23
483.03	257.46
483.21	285.55
483.39	306.61
483.57	217.67
483.74	271.50
483.92	276.18
484.10	320.65
484.28	306.61
484.46	322.99
484.64	339.38
484.82	397.89
485.00	402.57
485.18	407.25
485.35	339.38
485.53	482.15
485.71	407.25
485.89	320.65
486.07	411.93
486.25	496.19
486.43	409.59
486.61	437.68
486.78	433.00
486.96	369.80
487.14	400.23
487.32	411.93
487.50	402.57
487.68	386.19
487.85	404.91
488.03	416.62
488.21	404.91
488.39	416.62
488.57	379.17
488.75	390.87
488.92	624.92
489.10	332.36
489.28	444.70
489.46	339.38
489.64	327.68
489.81	367.46
489.99	355.76
490.17	447.04
490.35	458.74
490.53	362.78
490.70	278.52
490.88	433.00
491.06	355.76
491.24	486.83
491.41	407.25
491.59	348.74
491.77	330.02
491.95	304.27
492.13	330.02
492.30	339.38
492.48	308.95
492.66	334.70
492.84	322.99
493.01	393.21
493.19	313.63
493.37	325.33
493.54	388.53
493.72	290.23
493.90	308.95
494.08	351.08
494.25	304.27
494.43	318.31
494.61	360.44
494.79	369.80
494.96	290.23
495.14	437.68
495.32	271.50
495.49	315.97
495.67	346.40
495.85	369.80
496.02	337.04
496.20	339.38
496.38	400.23
496.55	290.23
496.73	315.97
496.91	330.02
497.09	285.55
497.26	283.20
497.44	306.61
497.62	203.63
497.79	348.74
497.97	351.08
498.14	311.29
498.32	259.80
498.50	311.29
498.67	271.50
498.85	252.78
499.03	182.56
499.20	318.31
499.38	262.14
499.56	273.84
499.73	311.29
499.91	278.52
500.08	290.23
500.26	290.23
500.44	285.55
500.61	327.68
500.79	205.97
500.97	318.31
501.14	330.02
501.32	266.82
501.49	245.76
501.67	215.33
501.84	290.23
502.02	262.14
502.20	297.25
502.37	234.05
502.55	236.39
502.72	215.33
502.90	217.67
503.07	243.42
503.25	266.82
503.43	259.80
503.60	287.89
503.78	234.05
503.95	201.29
504.13	341.72
504.30	266.82
504.48	297.25
504.65	365.12
504.83	280.86
505.01	166.18
505.18	252.78
505.36	257.46
505.53	222.35
505.71	175.54
505.88	198.95
506.06	241.08
506.23	212.99
506.41	257.46
506.58	248.10
506.76	308.95
506.93	292.57
507.11	238.73
507.28	238.73
507.46	285.55
507.63	227.03
507.81	264.48
507.98	266.82
508.16	182.56
508.33	266.82
508.50	245.76
508.68	306.61
508.85	231.71
509.03	248.10
509.20	339.38
509.38	194.26
509.55	208.31
509.73	252.78
509.90	280.86
510.08	255.12
510.25	224.69
510.42	212.99
510.60	222.35
510.77	252.78
510.95	229.37
511.12	250.44
511.30	292.57
511.47	276.18
511.64	285.55
511.82	227.03
511.99	264.48
512.17	243.42
512.34	217.67
512.51	231.71
512.69	236.39
512.86	259.80
513.04	210.65
513.21	266.82
513.38	264.48
513.56	264.48
513.73	255.12
513.90	184.90
514.08	217.67
514.25	248.10
514.43	255.12
514.60	177.88
514.77	266.82
514.95	299.59
515.12	250.44
515.29	273.84
515.47	205.97
515.64	198.95
515.81	257.46
515.99	327.68
516.16	266.82
516.33	243.42
516.51	234.05
516.68	163.84
516.85	229.37
517.03	170.86
517.20	271.50
517.37	238.73
517.54	327.68
517.72	294.91
517.89	262.14
518.06	210.65
518.24	315.97
518.41	292.57
518.58	196.60
518.75	315.97
518.93	304.27
519.10	248.10
519.27	238.73
519.45	255.12
519.62	264.48
519.79	273.84
519.96	252.78
520.14	217.67
520.31	287.89
520.48	266.82
520.65	278.52
520.83	287.89
521.00	252.78
521.17	269.16
521.34	262.14
521.52	266.82
521.69	315.97
521.86	276.18
522.03	311.29
522.20	304.27
522.38	236.39
522.55	224.69
522.72	220.01
522.89	208.31
523.07	334.70
523.24	217.67
523.41	229.37
523.58	299.59
523.75	205.97
523.92	231.71
524.10	159.16
524.27	278.52
524.44	313.63
524.61	245.76
524.78	257.46
524.96	191.92
525.13	229.37
525.30	285.55
525.47	308.95
525.64	266.82
525.81	278.52
525.98	238.73
526.16	191.92
526.33	121.71
526.50	332.36
526.67	266.82
526.84	180.22
527.01	266.82
527.18	276.18
527.36	238.73
527.53	273.84
527.70	290.23
527.87	217.67
528.04	283.20
528.21	271.50
528.38	283.20
528.55	332.36
528.72	262.14
528.89	297.25
529.07	191.92
529.24	337.04
529.41	297.25
529.58	290.23
529.75	231.71
529.92	245.76
530.09	229.37
530.26	315.97
530.43	332.36
530.60	208.31
530.77	255.12
530.94	283.20
531.11	262.14
531.28	285.55
531.46	252.78
531.63	297.25
531.80	386.19
531.97	205.97
532.14	224.69
532.31	276.18
532.48	266.82
532.65	287.89
532.82	322.99
532.99	334.70
533.16	318.31
533.33	325.33
533.50	369.80
533.67	283.20
533.84	287.89
534.01	280.86
534.18	297.25
534.35	304.27
534.52	341.72
534.69	402.57
534.86	248.10
535.03	355.76
535.20	318.31
535.37	393.21
535.54	351.08
535.71	339.38
535.88	346.40
536.05	353.42
536.22	400.23
536.38	304.27
536.55	360.44
536.72	400.23
536.89	411.93
537.06	404.91
537.23	423.64
537.40	458.74
537.57	449.38
537.74	503.22
537.91	444.70
538.08	449.38
538.25	547.69
538.42	524.28
538.59	540.66
538.75	503.22
538.92	500.87
539.09	617.90
539.26	681.10
539.43	723.23
539.60	676.41
539.77	763.01
539.94	802.80
540.11	947.92
540.28	1039.20
540.44	1060.26
540.61	1104.73
540.78	1315.38
540.95	1420.71
541.12	1689.87
541.29	1813.92
541.46	1860.73
541.62	1923.92
541.79	1856.04
541.96	1813.92
542.13	1659.44
542.30	1577.52
542.47	1600.93
542.63	1549.43
542.80	1495.60
542.97	1544.75
543.14	1516.67
543.31	1547.09
543.48	1434.75
543.64	1469.86
543.81	1472.20
543.98	1528.37
544.15	1385.60
544.32	1514.33
544.48	1596.25
544.65	1519.01
544.82	1364.53
544.99	1390.28
545.16	1411.34
545.32	1570.50
545.49	3009.93
545.66	4166.15
545.83	4636.60
546.00	3929.76
546.16	2820.35
546.33	2136.91
546.50	1647.74
546.67	1383.26
546.83	1334.11
547.00	1163.25
547.17	1107.07
547.34	1071.97
547.50	1048.56
547.67	1057.92
547.84	966.64
548.00	999.41
548.17	1029.84
548.34	938.55
548.51	959.62
548.67	894.08
548.84	938.55
549.01	800.46
549.18	800.46
549.34	802.80
549.51	861.32
549.68	699.82
549.84	723.23
550.01	669.39
550.18	777.06
550.34	713.86
550.51	615.56
550.68	697.48
550.84	631.94
551.01	599.18
551.18	543.00
551.34	655.35
551.51	552.37
551.68	528.96
551.84	458.74
552.01	486.83
552.18	547.69
552.34	479.81
552.51	482.15
552.68	458.74
552.84	425.98
553.01	421.30
553.18	507.90
553.34	423.64
553.51	353.42
553.67	414.27
553.84	435.34
554.01	379.17
554.17	423.64
554.34	367.46
554.51	348.74
554.67	383.85
554.84	369.80
555.00	421.30
555.17	372.15
555.33	407.25
555.50	327.68
555.67	416.62
555.83	325.33
556.00	351.08
556.16	521.94
556.33	315.97
556.50	383.85
556.66	299.59
556.83	320.65
556.99	264.48
557.16	351.08
557.32	304.27
557.49	271.50
557.65	304.27
557.82	299.59
557.98	262.14
558.15	273.84
558.32	238.73
558.48	278.52
558.65	259.80
558.81	285.55
558.98	264.48
559.14	327.68
559.31	248.10
559.47	264.48
559.64	311.29
559.80	337.04
559.97	287.89
560.13	271.50
560.30	269.16
560.46	205.97
560.63	325.33
560.79	266.82
560.96	325.33
561.12	285.55
561.29	271.50
561.45	365.12
561.61	273.84
561.78	360.44
561.94	287.89
562.11	250.44
562.27	280.86
562.44	255.12
562.60	234.05
562.77	278.52
562.93	337.04
563.10	215.33
563.26	283.20
563.42	229.37
563.59	297.25
563.75	234.05
563.92	229.37
564.08	294.91
564.24	304.27
564.41	177.88
564.57	287.89
564.74	250.44
564.90	243.42
565.07	294.91
565.23	271.50
565.39	278.52
565.56	337.04
565.72	248.10
565.88	264.48
566.05	306.61
566.21	269.16
566.38	327.68
566.54	257.46
566.70	273.84
566.87	292.57
567.03	283.20
567.19	234.05
567.36	257.46
567.52	208.31
567.68	241.08
567.85	271.50
568.01	299.59
568.17	229.37
568.34	287.89
568.50	294.91
568.66	212.99
568.83	330.02
568.99	259.80
569.15	374.49
569.32	222.35
569.48	241.08
569.64	248.10
569.81	252.78
569.97	212.99
570.13	262.14
570.30	276.18
570.46	212.99
570.62	184.90
570.78	224.69
570.95	313.63
571.11	311.29
571.27	278.52
571.43	175.54
571.60	255.12
571.76	184.90
571.92	184.90
572.09	241.08
572.25	198.95
572.41	257.46
572.57	297.25
572.74	259.80
572.90	224.69
573.06	248.10
573.22	224.69
573.38	243.42
573.55	210.65
573.71	273.84
573.87	198.95
574.03	159.16
574.20	306.61
574.36	245.76
574.52	217.67
574.68	287.89
574.84	276.18
575.01	266.82
575.17	243.42
575.33	201.29
575.49	269.16
575.65	318.31
575.82	212.99
575.98	259.80
576.14	278.52
576.30	456.40
576.46	772.38
576.62	959.62
576.79	929.19
576.95	767.70
577.11	533.64
577.27	409.59
577.43	451.72
577.59	421.30
577.75	332.36
577.92	266.82
578.08	191.92
578.24	217.67
578.40	355.76
578.56	678.76
578.72	966.64
578.88	950.26
579.04	716.20
579.21	540.66
579.37	461.09
579.53	404.91
579.69	461.09
579.85	472.79
580.01	557.05
580.17	503.22
580.33	456.40
580.49	411.93
580.65	500.87
580.82	379.17
580.98	322.99
581.14	355.76
581.30	418.96
581.46	423.64
581.62	470.45
581.78	372.15
581.94	421.30
582.10	449.38
582.26	461.09
582.42	486.83
582.58	477.47
582.74	557.05
582.90	489.17
583.06	575.77
583.22	561.73
583.38	540.66
583.54	571.09
583.70	592.16
583.86	543.00
584.02	543.00
584.18	514.92
584.34	465.77
584.50	540.66
584.66	564.07
584.82	475.13
584.98	465.77
585.14	414.27
585.30	489.17
585.46	451.72
585.62	411.93
585.78	444.70
585.94	472.79
586.10	505.56
586.26	458.74
586.42	465.77
586.58	615.56
586.74	676.41
586.90	737.27
587.06	774.72
587.22	741.95
587.38	763.01
587.54	664.71
587.70	552.37
587.86	561.73
588.02	484.49
588.18	437.68
588.34	461.09
588.49	348.74
588.65	362.78
588.81	280.86
588.97	386.19
589.13	322.99
589.29	463.43
589.45	290.23
589.61	280.86
589.77	442.36
589.93	334.70
590.08	320.65
590.24	362.78
590.40	383.85
590.56	407.25
590.72	358.10
590.88	423.64
591.04	339.38
591.20	388.53
591.35	475.13
591.51	404.91
591.67	451.72
591.83	440.02
591.99	435.34
592.15	447.04
592.31	528.96
592.46	498.53
592.62	585.13
592.78	573.43
592.94	587.47
593.10	550.03
593.26	638.97
593.41	660.03
593.57	442.36
593.73	454.06
593.89	416.62
594.05	421.30
594.20	374.49
594.36	351.08
594.52	313.63
594.68	369.80
594.84	435.34
594.99	475.13
595.15	287.89
595.31	351.08
595.47	346.40
595.62	283.20
595.78	360.44
595.94	393.21
596.10	337.04
596.25	358.10
596.41	297.25
596.57	388.53
596.73	383.85
596.88	381.51
597.04	355.76
597.20	369.80
597.36	369.80
597.51	374.49
597.67	360.44
597.83	421.30
597.99	388.53
598.14	430.66
598.30	414.27
598.46	425.98
598.61	451.72
598.77	374.49
598.93	449.38
599.09	451.72
599.24	465.77
599.40	454.06
599.56	528.96
599.71	496.19
599.87	411.93
600.03	351.08
600.18	423.64
600.34	351.08
600.50	351.08
600.65	339.38
600.81	322.99
600.97	346.40
601.12	252.78
601.28	374.49
601.44	332.36
601.59	334.70
601.75	269.16
601.91	269.16
602.06	365.12
602.22	353.42
602.37	337.04
602.53	273.84
602.69	383.85
602.84	252.78
603.00	278.52
603.16	257.46
603.31	243.42
603.47	315.97
603.62	285.55
603.78	301.93
603.94	367.46
604.09	315.97
604.25	257.46
604.40	290.23
604.56	259.80
604.71	299.59
604.87	344.06
605.03	393.21
605.18	348.74
605.34	330.02
605.49	351.08
605.65	280.86
605.80	308.95
605.96	360.44
606.12	330.02
606.27	369.80
606.43	332.36
606.58	379.17
606.74	414.27
606.89	320.65
607.05	442.36
607.20	400.23
607.36	390.87
607.51	409.59
607.67	423.64
607.82	468.11
607.98	505.56
608.13	514.92
608.29	521.94
608.44	528.96
608.60	547.69
608.75	615.56
608.91	674.07
609.06	667.05
609.22	744.29
609.37	727.91
609.53	741.95
609.68	917.49
609.84	1034.52
609.99	1181.97
610.15	1336.45
610.30	1650.08
610.46	1884.13
610.61	2356.92
610.76	2972.48
610.92	3461.65
