SpectraSuite Data File
++++++++++++++++++++++++++++++++++++
Date: Fri Oct 04 11:42:03 GMT-05:00 2013
User: price-jones
Dark Spectrum Present: No
Reference Spectrum Present: No
Number of Sampled Component Spectra: 1
Spectrometers: USB2+H05261
Integration Time (usec): 100000 (USB2+H05261)
Spectra Averaged: 1 (USB2+H05261)
Boxcar Smoothing: 0 (USB2+H05261)
Correct for Electrical Dark: No (USB2+H05261)
Strobe/Lamp Enabled: No (USB2+H05261)
Correct for Detector Non-linearity: No (USB2+H05261)
Correct for Stray Light: No (USB2+H05261)
Number of Pixels in Processed Spectrum: 2048
>>>>>Begin Processed Spectral Data<<<<<
365.73	0.00
365.92	0.00
366.12	0.00
366.32	60.85
366.52	0.00
366.72	0.00
366.91	0.00
367.11	0.00
367.31	0.00
367.51	0.00
367.70	0.00
367.90	0.00
368.10	0.00
368.30	2.34
368.49	0.00
368.69	0.00
368.89	0.00
369.09	0.00
369.28	0.00
369.48	0.00
369.68	0.00
369.87	0.00
370.07	35.11
370.27	46.81
370.47	9.36
370.66	0.00
370.86	112.35
371.06	74.90
371.25	105.32
371.45	35.11
371.65	35.11
371.84	65.54
372.04	49.15
372.24	142.77
372.44	35.11
372.63	149.79
372.83	170.86
373.03	114.69
373.22	156.82
373.42	124.05
373.62	131.07
373.81	145.11
374.01	58.51
374.21	142.77
374.40	177.88
374.60	140.43
374.79	126.39
374.99	140.43
375.19	60.85
375.38	149.79
375.58	131.07
375.78	119.37
375.97	147.45
376.17	201.29
376.37	112.35
376.56	77.24
376.76	49.15
376.95	133.41
377.15	184.90
377.35	86.60
377.54	142.77
377.74	135.75
377.93	149.79
378.13	163.84
378.33	175.54
378.52	196.60
378.72	149.79
378.91	88.94
379.11	110.01
379.31	140.43
379.50	168.52
379.70	184.90
379.89	205.97
380.09	142.77
380.28	98.30
380.48	133.41
380.68	133.41
380.87	95.96
381.07	166.18
381.26	163.84
381.46	121.71
381.65	154.48
381.85	44.47
382.04	81.92
382.24	191.92
382.43	102.98
382.63	140.43
382.83	138.09
383.02	161.50
383.22	187.24
383.41	180.22
383.61	175.54
383.80	126.39
384.00	135.75
384.19	133.41
384.39	7.02
384.58	126.39
384.78	63.19
384.97	112.35
385.17	156.82
385.36	189.58
385.56	154.48
385.75	88.94
385.95	105.32
386.14	121.71
386.34	149.79
386.53	133.41
386.72	107.66
386.92	170.86
387.11	98.30
387.31	91.28
387.50	140.43
387.70	32.77
387.89	142.77
388.09	119.37
388.28	91.28
388.48	119.37
388.67	161.50
388.86	112.35
389.06	133.41
389.25	93.62
389.45	168.52
389.64	133.41
389.84	142.77
390.03	100.64
390.22	166.18
390.42	124.05
390.61	98.30
390.81	86.60
391.00	102.98
391.19	105.32
391.39	65.54
391.58	100.64
391.78	135.75
391.97	70.22
392.16	56.17
392.36	187.24
392.55	117.03
392.75	105.32
392.94	72.56
393.13	152.13
393.33	65.54
393.52	58.51
393.71	159.16
393.91	100.64
394.10	133.41
394.29	102.98
394.49	100.64
394.68	88.94
394.88	170.86
395.07	215.33
395.26	140.43
395.46	131.07
395.65	133.41
395.84	107.66
396.04	140.43
396.23	121.71
396.42	107.66
396.62	102.98
396.81	70.22
397.00	142.77
397.19	119.37
397.39	124.05
397.58	142.77
397.77	175.54
397.97	184.90
398.16	173.20
398.35	220.01
398.55	126.39
398.74	212.99
398.93	182.56
399.12	198.95
399.32	135.75
399.51	189.58
399.70	166.18
399.90	168.52
400.09	189.58
400.28	173.20
400.47	110.01
400.67	135.75
400.86	147.45
401.05	180.22
401.24	198.95
401.44	114.69
401.63	187.24
401.82	227.03
402.01	259.80
402.21	77.24
402.40	238.73
402.59	222.35
402.78	187.24
402.97	229.37
403.17	245.76
403.36	248.10
403.55	418.96
403.74	678.76
403.93	2401.39
404.13	5804.53
404.32	9628.96
404.51	10080.69
404.70	6670.53
404.89	2406.07
405.09	650.67
405.28	416.62
405.47	276.18
405.66	255.12
405.85	332.36
406.05	156.82
406.24	152.13
406.43	271.50
406.62	311.29
406.81	285.55
407.00	365.12
407.20	709.18
407.39	1214.74
407.58	1474.54
407.77	1111.75
407.96	629.60
408.15	334.70
408.34	252.78
408.54	189.58
408.73	236.39
408.92	173.20
409.11	191.92
409.30	259.80
409.49	159.16
409.68	166.18
409.87	187.24
410.07	262.14
410.26	236.39
410.45	259.80
410.64	201.29
410.83	313.63
411.02	290.23
411.21	184.90
411.40	280.86
411.59	222.35
411.78	175.54
411.98	243.42
412.17	175.54
412.36	276.18
412.55	220.01
412.74	271.50
412.93	290.23
413.12	248.10
413.31	234.05
413.50	280.86
413.69	262.14
413.88	269.16
414.07	271.50
414.26	234.05
414.45	241.08
414.64	220.01
414.83	236.39
415.02	367.46
415.22	273.84
415.41	283.20
415.60	334.70
415.79	212.99
415.98	325.33
416.17	266.82
416.36	285.55
416.55	320.65
416.74	301.93
416.93	327.68
417.12	255.12
417.31	330.02
417.50	294.91
417.69	325.33
417.88	306.61
418.07	248.10
418.26	337.04
418.45	322.99
418.64	315.97
418.83	297.25
419.02	241.08
419.21	294.91
419.39	255.12
419.58	248.10
419.77	339.38
419.96	301.93
420.15	294.91
420.34	372.15
420.53	365.12
420.72	390.87
420.91	346.40
421.10	313.63
421.29	388.53
421.48	355.76
421.67	425.98
421.86	341.72
422.05	341.72
422.24	327.68
422.43	346.40
422.61	320.65
422.80	353.42
422.99	365.12
423.18	306.61
423.37	416.62
423.56	355.76
423.75	416.62
423.94	360.44
424.13	257.46
424.32	348.74
424.50	372.15
424.69	369.80
424.88	348.74
425.07	367.46
425.26	365.12
425.45	313.63
425.64	465.77
425.83	402.57
426.01	402.57
426.20	362.78
426.39	306.61
426.58	372.15
426.77	435.34
426.96	440.02
427.15	395.55
427.33	421.30
427.52	411.93
427.71	395.55
427.90	402.57
428.09	423.64
428.28	433.00
428.46	397.89
428.65	435.34
428.84	411.93
429.03	477.47
429.22	463.43
429.40	383.85
429.59	430.66
429.78	505.56
429.97	374.49
430.16	472.79
430.34	477.47
430.53	491.51
430.72	505.56
430.91	521.94
431.10	498.53
431.28	433.00
431.47	477.47
431.66	456.40
431.85	528.96
432.03	641.31
432.22	643.65
432.41	510.24
432.60	514.92
432.79	531.30
432.97	631.94
433.16	610.88
433.35	550.03
433.54	781.74
433.72	898.77
433.91	816.85
434.10	807.48
434.28	1055.58
434.47	1289.64
434.66	1430.07
434.85	1643.06
435.03	3894.65
435.22	13785.76
435.41	36151.91
435.59	49766.81
435.78	37801.99
435.97	16781.64
436.16	5947.30
436.34	2050.31
436.53	1160.91
436.72	870.68
436.90	821.53
437.09	774.72
437.28	620.24
437.46	706.84
437.65	582.79
437.84	624.92
438.02	657.69
438.21	622.58
438.40	573.43
438.58	599.18
438.77	669.39
438.96	552.37
439.14	540.66
439.33	608.54
439.52	505.56
439.70	592.16
439.89	568.75
440.08	571.09
440.26	582.79
440.45	711.52
440.63	554.71
440.82	528.96
441.01	496.19
441.19	599.18
441.38	610.88
441.57	545.34
441.75	606.20
441.94	622.58
442.12	592.16
442.31	538.32
442.50	594.50
442.68	505.56
442.87	458.74
443.05	538.32
443.24	561.73
443.43	641.31
443.61	608.54
443.80	610.88
443.98	641.31
444.17	603.86
444.35	641.31
444.54	533.64
444.73	641.31
444.91	573.43
445.10	526.62
445.28	543.00
445.47	610.88
445.65	610.88
445.84	592.16
446.02	564.07
446.21	507.90
446.39	559.39
446.58	594.50
446.77	676.41
446.95	578.11
447.14	552.37
447.32	571.09
447.51	653.01
447.69	507.90
447.88	566.41
448.06	564.07
448.25	552.37
448.43	531.30
448.62	627.26
448.80	587.47
448.99	517.26
449.17	500.87
449.36	528.96
449.54	566.41
449.73	519.60
449.91	578.11
450.10	587.47
450.28	662.37
450.46	594.50
450.65	554.71
450.83	489.17
451.02	613.22
451.20	585.13
451.39	531.30
451.57	585.13
451.76	540.66
451.94	510.24
452.13	589.82
452.31	580.45
452.49	578.11
452.68	578.11
452.86	620.24
453.05	571.09
453.23	615.56
453.42	550.03
453.60	575.77
453.78	540.66
453.97	463.43
454.15	601.52
454.34	561.73
454.52	521.94
454.70	671.73
454.89	601.52
455.07	554.71
455.26	561.73
455.44	587.47
455.62	519.60
455.81	580.45
455.99	575.77
456.17	561.73
456.36	447.04
456.54	603.86
456.73	528.96
456.91	505.56
457.09	622.58
457.28	676.41
457.46	535.98
457.64	587.47
457.83	554.71
458.01	482.15
458.19	575.77
458.38	545.34
458.56	456.40
458.74	512.58
458.93	512.58
459.11	613.22
459.29	566.41
459.48	580.45
459.66	531.30
459.84	559.39
460.03	638.97
460.21	561.73
460.39	526.62
460.57	578.11
460.76	528.96
460.94	521.94
461.12	617.90
461.31	557.05
461.49	550.03
461.67	622.58
461.85	538.32
462.04	482.15
462.22	978.34
462.40	592.16
462.59	573.43
462.77	428.32
462.95	547.69
463.13	540.66
463.32	603.86
463.50	559.39
463.68	545.34
463.86	561.73
464.05	517.26
464.23	636.63
464.41	547.69
464.59	603.86
464.78	580.45
464.96	535.98
465.14	545.34
465.32	613.22
465.50	587.47
465.69	528.96
465.87	535.98
466.05	472.79
466.23	571.09
466.41	582.79
466.60	645.99
466.78	613.22
466.96	653.01
467.14	589.82
467.32	613.22
467.51	519.60
467.69	578.11
467.87	564.07
468.05	491.51
468.23	472.79
468.41	465.77
468.60	465.77
468.78	454.06
468.96	503.22
469.14	526.62
469.32	477.47
469.50	458.74
469.69	507.90
469.87	482.15
470.05	528.96
470.23	524.28
470.41	496.19
470.59	538.32
470.77	535.98
470.95	512.58
471.14	512.58
471.32	491.51
471.50	543.00
471.68	573.43
471.86	498.53
472.04	463.43
472.22	465.77
472.40	458.74
472.58	528.96
472.77	575.77
472.95	468.11
473.13	653.01
473.31	585.13
473.49	566.41
473.67	479.81
473.85	594.50
474.03	533.64
474.21	493.85
474.39	596.84
474.57	594.50
474.75	444.70
474.93	503.22
475.12	493.85
475.30	440.02
475.48	538.32
475.66	510.24
475.84	470.45
476.02	500.87
476.20	575.77
476.38	517.26
476.56	573.43
476.74	557.05
476.92	503.22
477.10	573.43
477.28	557.05
477.46	535.98
477.64	601.52
477.82	557.05
478.00	631.94
478.18	636.63
478.36	601.52
478.54	697.48
478.72	603.86
478.90	667.05
479.08	660.03
479.26	720.88
479.44	636.63
479.62	725.57
479.80	720.88
479.98	767.70
480.16	734.93
480.34	842.59
480.52	730.25
480.70	858.98
480.88	945.58
481.06	915.15
481.24	997.07
481.41	1018.13
481.59	1151.54
481.77	1053.24
481.95	1245.16
482.13	1345.81
482.31	1343.47
482.49	1371.55
482.67	1502.62
482.85	1666.46
483.03	1785.83
483.21	1937.96
483.39	1966.05
483.57	2064.35
483.74	2296.07
483.92	2523.10
484.10	2520.76
484.28	2761.83
484.46	2911.63
484.64	3002.91
484.82	3171.43
485.00	3262.71
485.18	3485.06
485.35	3644.21
485.53	3836.14
485.71	3962.53
485.89	4255.09
486.07	4159.13
486.25	4376.80
486.43	4416.59
486.61	4322.97
486.78	4299.56
486.96	4423.61
487.14	4432.97
487.32	4465.74
487.50	4472.76
487.68	4313.61
487.85	4229.35
488.03	4259.78
488.21	4079.55
488.39	3939.12
488.57	4133.39
488.75	3826.78
488.92	3901.67
489.10	3583.36
489.28	3609.11
489.46	3433.57
489.64	3417.18
489.81	3496.76
489.99	3391.44
490.17	3330.58
490.35	3398.46
490.53	3288.45
490.70	3293.13
490.88	3255.69
491.06	3248.66
491.24	3604.42
491.41	3831.46
491.59	3588.04
491.77	3258.03
491.95	3169.09
492.13	3061.42
492.30	3005.25
492.48	2979.50
492.66	2862.48
492.84	2944.39
493.01	2792.26
493.19	2820.35
493.37	2857.79
493.54	2686.94
493.72	2590.97
493.90	2626.08
494.08	2499.69
494.25	2668.21
494.43	2434.16
494.61	2452.88
494.79	2406.07
494.96	2326.49
495.14	2338.20
495.32	2244.57
495.49	2260.96
495.67	2207.13
495.85	2230.53
496.02	2230.53
496.20	2146.27
496.38	2207.13
496.55	2085.42
496.73	2085.42
496.91	2031.58
497.09	2108.82
497.26	1961.37
497.44	1912.22
497.62	1792.85
497.79	1944.99
497.97	1797.53
498.14	1760.08
498.32	1696.89
498.50	1732.00
498.67	1755.40
498.85	1638.38
499.03	1558.80
499.20	1516.67
499.38	1469.86
499.56	1502.62
499.73	1476.88
499.91	1366.87
500.08	1418.36
500.26	1338.79
500.44	1259.21
500.61	1245.16
500.79	1317.72
500.97	1205.38
501.14	1181.97
501.32	1111.75
501.49	1064.94
501.67	1123.46
501.84	1029.84
502.02	992.39
502.20	1071.97
502.37	987.71
502.55	837.91
502.72	990.05
502.90	964.30
503.07	889.40
503.25	798.12
503.43	940.90
503.60	828.55
503.78	896.43
503.95	730.25
504.13	716.20
504.30	770.04
504.48	667.05
504.65	786.42
504.83	770.04
505.01	669.39
505.18	697.48
505.36	674.07
505.53	613.22
505.71	615.56
505.88	688.12
506.06	610.88
506.23	608.54
506.41	599.18
506.58	552.37
506.76	648.33
506.93	589.82
507.11	650.67
507.28	543.00
507.46	561.73
507.63	580.45
507.81	552.37
507.98	526.62
508.16	599.18
508.33	620.24
508.50	622.58
508.68	491.51
508.85	564.07
509.03	617.90
509.20	664.71
509.38	566.41
509.55	641.31
509.73	585.13
509.90	575.77
510.08	554.71
510.25	566.41
510.42	575.77
510.60	636.63
510.77	538.32
510.95	533.64
511.12	561.73
511.30	437.68
511.47	533.64
511.64	568.75
511.82	458.74
511.99	449.38
512.17	465.77
512.34	456.40
512.51	519.60
512.69	573.43
512.86	533.64
513.04	528.96
513.21	512.58
513.38	596.84
513.56	498.53
513.73	519.60
513.90	433.00
514.08	440.02
514.25	423.64
514.43	447.04
514.60	468.11
514.77	411.93
514.95	428.32
515.12	411.93
515.29	423.64
515.47	414.27
515.64	414.27
515.81	397.89
515.99	456.40
516.16	425.98
516.33	507.90
516.51	531.30
516.68	503.22
516.85	440.02
517.03	402.57
517.20	435.34
517.37	479.81
517.54	404.91
517.72	351.08
517.89	409.59
518.06	386.19
518.24	449.38
518.41	463.43
518.58	444.70
518.75	461.09
518.93	442.36
519.10	475.13
519.27	433.00
519.45	390.87
519.62	386.19
519.79	421.30
519.96	442.36
520.14	416.62
520.31	458.74
520.48	407.25
520.65	409.59
520.83	407.25
521.00	489.17
521.17	409.59
521.34	390.87
521.52	355.76
521.69	416.62
521.86	358.10
522.03	463.43
522.20	449.38
522.38	386.19
522.55	409.59
522.72	348.74
522.89	479.81
523.07	400.23
523.24	428.32
523.41	395.55
523.58	395.55
523.75	414.27
523.92	440.02
524.10	433.00
524.27	444.70
524.44	447.04
524.61	449.38
524.78	346.40
524.96	407.25
525.13	428.32
525.30	454.06
525.47	564.07
525.64	512.58
525.81	463.43
525.98	496.19
526.16	442.36
526.33	468.11
526.50	433.00
526.67	491.51
526.84	505.56
527.01	440.02
527.18	475.13
527.36	587.47
527.53	592.16
527.70	608.54
527.87	545.34
528.04	496.19
528.21	517.26
528.38	566.41
528.55	655.35
528.72	587.47
528.89	566.41
529.07	533.64
529.24	512.58
529.41	608.54
529.58	554.71
529.75	566.41
529.92	550.03
530.09	643.65
530.26	692.80
530.43	629.60
530.60	681.10
530.77	725.57
530.94	676.41
531.11	676.41
531.28	741.95
531.46	720.88
531.63	706.84
531.80	828.55
531.97	936.21
532.14	992.39
532.31	1093.03
532.48	1315.38
532.65	1565.82
532.82	1806.89
532.99	2092.44
533.16	2520.76
533.33	2691.62
533.50	2541.82
533.67	2111.16
533.84	1811.57
534.01	1650.08
534.18	1469.86
534.35	1409.00
534.52	1469.86
534.69	1469.86
534.86	1544.75
535.03	1650.08
535.20	1565.82
535.37	1811.57
535.54	1900.52
535.71	2003.50
535.88	2111.16
536.05	2183.72
536.22	2441.18
536.38	2574.59
536.55	2885.88
536.72	3157.38
536.89	3503.78
537.06	3843.16
537.23	4273.82
537.40	4837.89
537.57	5193.65
537.74	5486.22
537.91	5746.02
538.08	5933.26
538.25	6008.16
538.42	5921.56
538.59	6073.69
538.75	6239.87
538.92	6820.32
539.09	7281.41
539.26	7957.82
539.43	9001.70
539.60	10317.08
539.77	11899.28
539.94	13020.40
540.11	14787.50
540.28	15985.86
540.44	17516.57
540.61	19267.29
540.78	21813.79
540.95	26162.51
541.12	31819.58
541.29	36257.24
541.46	38763.95
541.62	38459.68
541.79	37123.24
541.96	34749.93
542.13	31857.03
542.30	29635.86
542.47	27644.07
542.63	26216.34
542.80	25195.87
542.97	24828.40
543.14	24819.04
543.31	24982.88
543.48	24507.75
543.64	25149.06
543.81	25823.13
543.98	25582.06
544.15	25731.85
544.32	26103.99
544.48	25846.54
544.65	25661.63
544.82	25593.76
544.99	25207.57
545.16	25778.66
545.32	26986.38
545.49	38691.40
545.66	59601.74
545.83	65535.00
546.00	65535.00
546.16	61638.01
546.33	44814.24
546.50	33764.57
546.67	26274.85
546.83	23765.80
547.00	22714.90
547.17	21048.44
547.34	20711.40
547.50	19889.87
547.67	18927.91
547.84	18085.32
548.00	17270.81
548.17	17083.57
548.34	16456.31
548.51	15449.88
548.67	14824.95
548.84	14342.80
549.01	13619.58
549.18	12533.57
549.34	12156.74
549.51	11679.27
549.68	11377.34
549.84	10918.60
550.01	10417.72
550.18	9811.53
550.34	9341.08
550.51	9167.88
550.68	8432.95
550.84	7915.69
551.01	7541.21
551.18	7293.11
551.34	6806.28
551.51	6558.18
551.68	6485.62
551.84	6296.04
552.01	6010.50
552.18	5640.69
552.34	5416.00
552.51	5423.02
552.68	4992.36
552.84	4774.69
553.01	4552.34
553.18	4554.68
553.34	4456.38
553.51	4262.12
553.67	4170.83
553.84	3920.40
554.01	3623.15
554.17	3393.78
554.34	3220.58
554.51	3073.12
554.67	2944.39
554.84	2574.59
555.00	2546.50
555.17	2497.35
555.33	2413.09
555.50	2155.63
555.67	2181.38
555.83	1867.75
556.00	1921.58
556.16	2083.08
556.33	1818.60
556.50	1837.32
556.66	1626.67
556.83	1629.01
556.99	1556.46
557.16	1514.33
557.32	1495.60
557.49	1544.75
557.65	1352.83
557.82	1275.59
557.98	1240.48
558.15	1247.51
558.32	1270.91
558.48	1256.87
558.65	1191.33
558.81	1128.14
558.98	1170.27
559.14	1062.60
559.31	1160.91
559.47	1086.01
559.64	1139.84
559.80	1076.65
559.97	947.92
560.13	997.07
560.30	1055.58
560.46	1039.20
560.63	1078.99
560.79	1022.81
560.96	1020.47
561.12	959.62
561.29	976.00
561.45	1015.79
561.61	997.07
561.78	980.68
561.94	978.34
562.11	966.64
562.27	994.73
562.44	990.05
562.60	999.41
562.77	966.64
562.93	966.64
563.10	854.30
563.26	908.13
563.42	987.71
563.59	945.58
563.75	905.79
563.92	887.06
564.08	915.15
564.24	863.66
564.41	805.14
564.57	863.66
564.74	779.40
564.90	943.24
565.07	765.36
565.23	884.72
565.39	795.78
565.56	875.36
565.72	854.30
565.88	720.88
566.05	777.06
566.21	727.91
566.38	828.55
566.54	723.23
566.70	723.23
566.87	816.85
567.03	758.33
567.19	816.85
567.36	833.23
567.52	770.04
567.68	791.10
567.85	748.97
568.01	809.83
568.17	781.74
568.34	725.57
568.50	763.01
568.66	786.42
568.83	919.83
568.99	791.10
569.15	788.76
569.32	751.31
569.48	753.65
569.64	763.01
569.81	648.33
569.97	615.56
570.13	678.76
570.30	629.60
570.46	631.94
570.62	566.41
570.78	538.32
570.95	482.15
571.11	571.09
571.27	559.39
571.43	582.79
571.60	559.39
571.76	613.22
571.92	526.62
572.09	587.47
572.25	526.62
572.41	615.56
572.57	568.75
572.74	573.43
572.90	491.51
573.06	578.11
573.22	683.44
573.38	725.57
573.55	575.77
573.71	638.97
573.87	622.58
574.03	641.31
574.20	671.73
574.36	711.52
574.52	744.29
574.68	692.80
574.84	800.46
575.01	779.40
575.17	887.06
575.33	915.15
575.49	940.90
575.65	1135.16
575.82	1102.39
575.98	1203.04
576.14	1357.51
576.30	2338.20
576.46	7445.24
576.62	15101.14
576.79	21427.60
576.95	14897.51
577.11	8814.46
577.27	5949.64
577.43	3875.93
577.59	2616.72
577.75	2047.97
577.92	1837.32
578.08	1739.02
578.24	1954.35
578.40	2679.91
578.56	6752.45
578.72	13973.00
578.88	20357.98
579.04	14216.41
579.21	8798.07
579.37	6239.87
579.53	4774.69
579.69	4393.19
579.85	5380.89
580.01	6588.61
580.17	6649.46
580.33	5741.33
580.49	4765.33
580.65	4196.58
580.82	3716.77
580.98	3768.26
581.14	3747.20
581.30	3997.64
581.46	4287.86
581.62	4608.51
581.78	4917.47
581.94	5245.14
582.10	5565.79
582.26	5757.72
582.42	6083.05
582.58	6253.91
582.74	6478.60
582.90	6478.60
583.06	6289.02
583.22	6487.96
583.38	6607.33
583.54	6422.43
583.70	6637.76
583.86	6286.68
584.02	6251.57
584.18	6223.48
584.34	6066.67
584.50	5951.98
584.66	5769.42
584.82	5799.85
584.98	5884.11
585.14	5577.50
585.30	5617.29
585.46	5205.35
585.62	5282.59
585.78	5221.74
585.94	5296.63
586.10	5385.57
586.26	5668.78
586.42	6548.82
586.58	7660.57
586.74	9343.42
586.90	11337.56
587.06	12713.79
587.22	13074.23
587.38	11667.57
587.54	9900.47
587.70	8430.61
587.86	7026.29
588.02	6071.35
588.18	5423.02
588.34	4847.25
588.49	4475.10
588.65	4081.89
588.81	3913.38
588.97	3768.26
589.13	3557.61
589.29	3527.19
589.45	3501.44
589.61	3499.10
589.77	3520.17
589.93	3581.02
590.08	3681.66
590.24	3892.31
590.40	3950.82
590.56	3950.82
590.72	3969.55
590.88	4145.09
591.04	4351.06
591.20	4552.34
591.35	4660.01
591.51	4802.78
591.67	5203.01
591.83	5462.81
591.99	5774.10
592.15	6469.24
592.31	6923.30
592.46	7515.46
592.62	8248.05
592.78	8751.26
592.94	9327.03
593.10	9273.20
593.26	8538.27
593.41	7812.71
593.57	7300.13
593.73	6321.79
593.89	5591.54
594.05	5268.55
594.20	4631.92
594.36	4121.68
594.52	3791.67
594.68	3644.21
594.84	3496.76
594.99	3440.59
595.15	3253.34
595.31	3229.94
595.47	3262.71
595.62	3183.13
595.78	3152.70
595.94	3211.22
596.10	3143.34
596.25	3215.90
596.41	3133.98
596.57	3087.17
596.73	3148.02
596.88	3063.76
597.04	3073.12
597.20	3073.12
597.36	3288.45
597.51	3363.35
597.67	3440.59
597.83	3552.93
597.99	3896.99
598.14	4074.87
598.30	4238.71
598.46	4407.23
598.61	4800.44
598.77	5020.45
598.93	5184.29
599.09	5224.08
599.24	5373.87
599.40	5458.13
599.56	5331.74
599.71	5027.47
599.87	4823.84
600.03	4720.86
600.18	4388.50
600.34	3899.33
600.50	3819.75
600.65	3353.99
600.81	3251.00
600.97	3063.76
601.12	2834.39
601.28	2818.00
601.44	2562.89
601.59	2539.48
601.75	2438.84
601.91	2253.94
602.06	2200.10
602.22	2246.91
602.37	2181.38
602.53	2026.90
602.69	2064.35
602.84	2111.16
603.00	2080.74
603.16	2120.53
603.31	2083.08
603.47	2190.74
603.62	2214.15
603.78	2211.81
603.94	2270.32
604.09	2406.07
604.25	2342.88
604.40	2396.71
604.56	2385.01
604.71	2605.02
