SpectraSuite Data File
++++++++++++++++++++++++++++++++++++
Date: Fri Oct 04 11:42:29 GMT-05:00 2013
User: price-jones
Dark Spectrum Present: No
Reference Spectrum Present: No
Number of Sampled Component Spectra: 1
Spectrometers: USB2+H05261
Integration Time (usec): 100000 (USB2+H05261)
Spectra Averaged: 1 (USB2+H05261)
Boxcar Smoothing: 0 (USB2+H05261)
Correct for Electrical Dark: No (USB2+H05261)
Strobe/Lamp Enabled: No (USB2+H05261)
Correct for Detector Non-linearity: No (USB2+H05261)
Correct for Stray Light: No (USB2+H05261)
Number of Pixels in Processed Spectrum: 2048
>>>>>Begin Processed Spectral Data<<<<<
365.73	44.47
365.92	44.47
366.12	44.47
366.32	0.00
366.52	0.00
366.72	0.00
366.91	0.00
367.11	0.00
367.31	0.00
367.51	0.00
367.70	0.00
367.90	0.00
368.10	0.00
368.30	0.00
368.49	0.00
368.69	0.00
368.89	0.00
369.09	0.00
369.28	0.00
369.48	0.00
369.68	0.00
369.87	0.00
370.07	0.00
370.27	112.35
370.47	133.41
370.66	9.36
370.86	51.49
371.06	81.92
371.25	138.09
371.45	16.38
371.65	86.60
371.84	70.22
372.04	81.92
372.24	65.54
372.44	37.45
372.63	121.71
372.83	166.18
373.03	161.50
373.22	114.69
373.42	147.45
373.62	117.03
373.81	88.94
374.01	140.43
374.21	163.84
374.40	114.69
374.60	72.56
374.79	72.56
374.99	156.82
375.19	121.71
375.38	156.82
375.58	107.66
375.78	135.75
375.97	163.84
376.17	84.26
376.37	88.94
376.56	63.19
376.76	65.54
376.95	117.03
377.15	138.09
377.35	124.05
377.54	112.35
377.74	168.52
377.93	117.03
378.13	124.05
378.33	145.11
378.52	119.37
378.72	168.52
378.91	131.07
379.11	124.05
379.31	149.79
379.50	56.17
379.70	95.96
379.89	161.50
380.09	67.88
380.28	112.35
380.48	53.83
380.68	147.45
380.87	56.17
381.07	63.19
381.26	121.71
381.46	147.45
381.65	114.69
381.85	84.26
382.04	0.00
382.24	93.62
382.43	119.37
382.63	88.94
382.83	126.39
383.02	194.26
383.22	182.56
383.41	93.62
383.61	154.48
383.80	105.32
384.00	107.66
384.19	46.81
384.39	105.32
384.58	131.07
384.78	72.56
384.97	166.18
385.17	11.70
385.36	159.16
385.56	142.77
385.75	42.13
385.95	91.28
386.14	81.92
386.34	72.56
386.53	117.03
386.72	53.83
386.92	117.03
387.11	114.69
387.31	138.09
387.50	77.24
387.70	112.35
387.89	114.69
388.09	149.79
388.28	128.73
388.48	81.92
388.67	100.64
388.86	70.22
389.06	121.71
389.25	126.39
389.45	114.69
389.64	138.09
389.84	154.48
390.03	124.05
390.22	77.24
390.42	126.39
390.61	102.98
390.81	72.56
391.00	135.75
391.19	149.79
391.39	147.45
391.58	177.88
391.78	91.28
391.97	126.39
392.16	107.66
392.36	95.96
392.55	58.51
392.75	154.48
392.94	77.24
393.13	154.48
393.33	107.66
393.52	110.01
393.71	107.66
393.91	53.83
394.10	56.17
394.29	117.03
394.49	107.66
394.68	149.79
394.88	189.58
395.07	138.09
395.26	217.67
395.46	126.39
395.65	142.77
395.84	142.77
396.04	180.22
396.23	133.41
396.42	84.26
396.62	142.77
396.81	126.39
397.00	110.01
397.19	131.07
397.39	117.03
397.58	114.69
397.77	114.69
397.97	100.64
398.16	114.69
398.35	112.35
398.55	145.11
398.74	95.96
398.93	187.24
399.12	114.69
399.32	208.31
399.51	142.77
399.70	114.69
399.90	142.77
400.09	98.30
400.28	161.50
400.47	74.90
400.67	133.41
400.86	175.54
401.05	177.88
401.24	110.01
401.44	93.62
401.63	133.41
401.82	222.35
402.01	128.73
402.21	110.01
402.40	168.52
402.59	182.56
402.78	259.80
402.97	152.13
403.17	107.66
403.36	170.86
403.55	231.71
403.74	449.38
403.93	1214.74
404.13	2363.94
404.32	2731.41
404.51	2010.52
404.70	1256.87
404.89	540.66
405.09	301.93
405.28	224.69
405.47	133.41
405.66	201.29
405.85	175.54
406.05	131.07
406.24	88.94
406.43	131.07
406.62	166.18
406.81	194.26
407.00	245.76
407.20	346.40
407.39	451.72
407.58	367.46
407.77	278.52
407.96	248.10
408.15	224.69
408.34	128.73
408.54	163.84
408.73	273.84
408.92	131.07
409.11	121.71
409.30	212.99
409.49	128.73
409.68	131.07
409.87	182.56
410.07	156.82
410.26	65.54
410.45	149.79
410.64	173.20
410.83	138.09
411.02	135.75
411.21	170.86
411.40	217.67
411.59	198.95
411.78	138.09
411.98	100.64
412.17	175.54
412.36	161.50
412.55	236.39
412.74	142.77
412.93	191.92
413.12	222.35
413.31	168.52
413.50	163.84
413.69	112.35
413.88	248.10
414.07	161.50
414.26	170.86
414.45	152.13
414.64	140.43
414.83	182.56
415.02	264.48
415.22	196.60
415.41	205.97
415.60	166.18
415.79	238.73
415.98	201.29
416.17	107.66
416.36	133.41
416.55	140.43
416.74	198.95
416.93	220.01
417.12	133.41
417.31	173.20
417.50	112.35
417.69	184.90
417.88	180.22
418.07	152.13
418.26	98.30
418.45	98.30
418.64	227.03
418.83	149.79
419.02	163.84
419.21	121.71
419.39	159.16
419.58	147.45
419.77	163.84
419.96	215.33
420.15	273.84
420.34	245.76
420.53	184.90
420.72	152.13
420.91	159.16
421.10	175.54
421.29	189.58
421.48	166.18
421.67	217.67
421.86	196.60
422.05	191.92
422.24	154.48
422.43	257.46
422.61	229.37
422.80	191.92
422.99	196.60
423.18	194.26
423.37	196.60
423.56	259.80
423.75	166.18
423.94	117.03
424.13	175.54
424.32	236.39
424.50	187.24
424.69	234.05
424.88	271.50
425.07	180.22
425.26	208.31
425.45	205.97
425.64	212.99
425.83	184.90
426.01	194.26
426.20	250.44
426.39	278.52
426.58	187.24
426.77	215.33
426.96	198.95
427.15	210.65
427.33	229.37
427.52	217.67
427.71	205.97
427.90	194.26
428.09	201.29
428.28	194.26
428.46	269.16
428.65	222.35
428.84	311.29
429.03	271.50
429.22	161.50
429.40	191.92
429.59	191.92
429.78	243.42
429.97	217.67
430.16	229.37
430.34	212.99
430.53	159.16
430.72	224.69
430.91	245.76
431.10	231.71
431.28	252.78
431.47	266.82
431.66	252.78
431.85	243.42
432.03	259.80
432.22	280.86
432.41	210.65
432.60	203.63
432.79	196.60
432.97	304.27
433.16	299.59
433.35	257.46
433.54	287.89
433.72	315.97
433.91	397.89
434.10	407.25
434.28	411.93
434.47	404.91
434.66	491.51
434.85	669.39
435.03	2015.20
435.22	6342.85
435.41	11052.01
435.59	10045.58
435.78	6565.20
435.97	3262.71
436.16	1380.92
436.34	554.71
436.53	430.66
436.72	395.55
436.90	311.29
437.09	344.06
437.28	278.52
437.46	222.35
437.65	266.82
437.84	311.29
438.02	365.12
438.21	287.89
438.40	311.29
438.58	292.57
438.77	320.65
438.96	276.18
439.14	241.08
439.33	243.42
439.52	276.18
439.70	259.80
439.89	304.27
440.08	318.31
440.26	294.91
440.45	360.44
440.63	283.20
440.82	245.76
441.01	320.65
441.19	311.29
441.38	229.37
441.57	236.39
441.75	290.23
441.94	276.18
442.12	304.27
442.31	278.52
442.50	271.50
442.68	285.55
442.87	304.27
443.05	257.46
443.24	252.78
443.43	248.10
443.61	339.38
443.80	337.04
443.98	222.35
444.17	215.33
444.35	224.69
444.54	318.31
444.73	222.35
444.91	355.76
445.10	248.10
445.28	294.91
445.47	231.71
445.65	264.48
445.84	203.63
446.02	248.10
446.21	198.95
446.39	269.16
446.58	280.86
446.77	283.20
446.95	285.55
447.14	271.50
447.32	287.89
447.51	259.80
447.69	215.33
447.88	229.37
448.06	285.55
448.25	276.18
448.43	273.84
448.62	283.20
448.80	285.55
448.99	278.52
449.17	227.03
449.36	318.31
449.54	271.50
449.73	189.58
449.91	376.83
450.10	241.08
450.28	334.70
450.46	292.57
450.65	308.95
450.83	224.69
451.02	266.82
451.20	234.05
451.39	278.52
451.57	259.80
451.76	203.63
451.94	337.04
452.13	315.97
452.31	409.59
452.49	390.87
452.68	236.39
452.86	250.44
453.05	294.91
453.23	243.42
453.42	271.50
453.60	229.37
453.78	297.25
453.97	224.69
454.15	280.86
454.34	208.31
454.52	337.04
454.70	259.80
454.89	278.52
455.07	259.80
455.26	262.14
455.44	306.61
455.62	220.01
455.81	203.63
455.99	308.95
456.17	194.26
456.36	266.82
456.54	243.42
456.73	243.42
456.91	248.10
457.09	212.99
457.28	313.63
457.46	245.76
457.64	262.14
457.83	222.35
458.01	283.20
458.19	278.52
458.38	269.16
458.56	245.76
458.74	243.42
458.93	271.50
459.11	252.78
459.29	241.08
459.48	264.48
459.66	283.20
459.84	250.44
460.03	290.23
460.21	360.44
460.39	248.10
460.57	283.20
460.76	276.18
460.94	227.03
461.12	250.44
461.31	243.42
461.49	266.82
461.67	212.99
461.85	163.84
462.04	283.20
462.22	381.51
462.40	311.29
462.59	306.61
462.77	276.18
462.95	231.71
463.13	227.03
463.32	297.25
463.50	187.24
463.68	220.01
463.86	278.52
464.05	252.78
464.23	285.55
464.41	276.18
464.59	231.71
464.78	266.82
464.96	229.37
465.14	299.59
465.32	266.82
465.50	332.36
465.69	224.69
465.87	231.71
466.05	243.42
466.23	229.37
466.41	243.42
466.60	231.71
466.78	262.14
466.96	271.50
467.14	187.24
467.32	318.31
467.51	315.97
467.69	220.01
467.87	306.61
468.05	224.69
468.23	257.46
468.41	262.14
468.60	266.82
468.78	294.91
468.96	229.37
469.14	208.31
469.32	271.50
469.50	262.14
469.69	212.99
469.87	241.08
470.05	243.42
470.23	297.25
470.41	238.73
470.59	248.10
470.77	234.05
470.95	203.63
471.14	325.33
471.32	224.69
471.50	311.29
471.68	266.82
471.86	292.57
472.04	266.82
472.22	266.82
472.40	189.58
472.58	163.84
472.77	227.03
472.95	198.95
473.13	346.40
473.31	313.63
473.49	105.32
473.67	238.73
473.85	332.36
474.03	318.31
474.21	266.82
474.39	217.67
474.57	259.80
474.75	273.84
474.93	283.20
475.12	210.65
475.30	217.67
475.48	210.65
475.66	330.02
475.84	344.06
476.02	222.35
476.20	257.46
476.38	264.48
476.56	332.36
476.74	264.48
476.92	287.89
477.10	271.50
477.28	318.31
477.46	301.93
477.64	243.42
477.82	217.67
478.00	339.38
478.18	285.55
478.36	306.61
478.54	285.55
478.72	276.18
478.90	348.74
479.08	285.55
479.26	346.40
479.44	339.38
479.62	271.50
479.80	257.46
479.98	327.68
480.16	348.74
480.34	341.72
480.52	297.25
480.70	325.33
480.88	344.06
481.06	301.93
481.24	311.29
481.41	379.17
481.59	479.81
481.77	507.90
481.95	411.93
482.13	601.52
482.31	491.51
482.49	547.69
482.67	475.13
482.85	538.32
483.03	526.62
483.21	641.31
483.39	594.50
483.57	648.33
483.74	711.52
483.92	706.84
484.10	713.86
484.28	826.21
484.46	894.08
484.64	875.36
484.82	947.92
485.00	954.94
485.18	992.39
485.35	976.00
485.53	1139.84
485.71	1149.20
485.89	1205.38
486.07	1165.59
486.25	1142.18
486.43	1242.82
486.61	1160.91
486.78	1191.33
486.96	1050.90
487.14	1210.06
487.32	1144.52
487.50	1181.97
487.68	1135.16
487.85	1097.71
488.03	1184.31
488.21	1104.73
488.39	1111.75
488.57	1118.78
488.75	1006.43
488.92	1310.70
489.10	1025.15
489.28	1022.81
489.46	938.55
489.64	983.02
489.81	954.94
489.99	1032.18
490.17	929.19
490.35	926.85
490.53	980.68
490.70	947.92
490.88	978.34
491.06	1032.18
491.24	1078.99
491.41	1046.22
491.59	1032.18
491.77	880.04
491.95	924.51
492.13	894.08
492.30	912.81
492.48	898.77
492.66	812.17
492.84	849.61
493.01	875.36
493.19	798.12
493.37	877.70
493.54	842.59
493.72	767.70
493.90	741.95
494.08	751.31
494.25	788.76
494.43	837.91
494.61	795.78
494.79	711.52
494.96	777.06
495.14	727.91
495.32	751.31
495.49	767.70
495.67	627.26
495.85	667.05
496.02	683.44
496.20	678.76
496.38	667.05
496.55	601.52
496.73	716.20
496.91	702.16
497.09	617.90
497.26	585.13
497.44	587.47
497.62	601.52
497.79	641.31
497.97	638.97
498.14	587.47
498.32	641.31
498.50	514.92
498.67	524.28
498.85	573.43
499.03	521.94
499.20	571.09
499.38	491.51
499.56	538.32
499.73	627.26
499.91	503.22
500.08	538.32
500.26	461.09
500.44	503.22
500.61	461.09
500.79	449.38
500.97	440.02
501.14	437.68
501.32	367.46
501.49	489.17
501.67	416.62
501.84	461.09
502.02	423.64
502.20	379.17
502.37	353.42
502.55	421.30
502.72	346.40
502.90	440.02
503.07	414.27
503.25	325.33
503.43	379.17
503.60	327.68
503.78	376.83
503.95	388.53
504.13	381.51
504.30	379.17
504.48	365.12
504.65	421.30
504.83	381.51
505.01	360.44
505.18	367.46
505.36	297.25
505.53	294.91
505.71	379.17
505.88	301.93
506.06	320.65
506.23	306.61
506.41	383.85
506.58	297.25
506.76	271.50
506.93	332.36
507.11	421.30
507.28	292.57
507.46	271.50
507.63	287.89
507.81	358.10
507.98	318.31
508.16	283.20
508.33	381.51
508.50	332.36
508.68	294.91
508.85	301.93
509.03	322.99
509.20	306.61
509.38	280.86
509.55	367.46
509.73	304.27
509.90	353.42
510.08	269.16
510.25	355.76
510.42	306.61
510.60	344.06
510.77	264.48
510.95	308.95
511.12	292.57
511.30	290.23
511.47	341.72
511.64	332.36
511.82	285.55
511.99	287.89
512.17	271.50
512.34	285.55
512.51	231.71
512.69	334.70
512.86	322.99
513.04	264.48
513.21	287.89
513.38	306.61
513.56	353.42
513.73	280.86
513.90	248.10
514.08	273.84
514.25	292.57
514.43	273.84
514.60	259.80
514.77	322.99
514.95	301.93
515.12	355.76
515.29	276.18
515.47	313.63
515.64	205.97
515.81	205.97
515.99	278.52
516.16	355.76
516.33	327.68
516.51	337.04
516.68	271.50
516.85	315.97
517.03	337.04
517.20	337.04
517.37	390.87
517.54	355.76
517.72	184.90
517.89	220.01
518.06	238.73
518.24	301.93
518.41	308.95
518.58	257.46
518.75	334.70
518.93	313.63
519.10	231.71
519.27	269.16
519.45	337.04
519.62	327.68
519.79	304.27
519.96	355.76
520.14	337.04
520.31	301.93
520.48	283.20
520.65	262.14
520.83	290.23
521.00	236.39
521.17	259.80
521.34	294.91
521.52	292.57
521.69	262.14
521.86	252.78
522.03	308.95
522.20	456.40
522.38	318.31
522.55	262.14
522.72	334.70
522.89	344.06
523.07	337.04
523.24	318.31
523.41	280.86
523.58	245.76
523.75	308.95
523.92	318.31
524.10	248.10
524.27	322.99
524.44	318.31
524.61	325.33
524.78	280.86
524.96	266.82
525.13	280.86
525.30	299.59
525.47	339.38
525.64	332.36
525.81	306.61
525.98	294.91
526.16	287.89
526.33	278.52
526.50	259.80
526.67	255.12
526.84	290.23
527.01	182.56
527.18	306.61
527.36	287.89
527.53	344.06
527.70	362.78
527.87	271.50
528.04	334.70
528.21	344.06
528.38	266.82
528.55	285.55
528.72	379.17
528.89	402.57
529.07	351.08
529.24	351.08
529.41	362.78
529.58	292.57
529.75	358.10
529.92	320.65
530.09	372.15
530.26	346.40
530.43	320.65
530.60	351.08
530.77	418.96
530.94	304.27
531.11	421.30
531.28	269.16
531.46	351.08
531.63	341.72
531.80	400.23
531.97	430.66
532.14	360.44
532.31	482.15
532.48	461.09
532.65	580.45
532.82	608.54
532.99	676.41
533.16	695.14
533.33	793.44
533.50	685.78
533.67	592.16
533.84	627.26
534.01	608.54
534.18	521.94
534.35	519.60
534.52	479.81
534.69	531.30
534.86	554.71
535.03	533.64
535.20	596.84
535.37	608.54
535.54	645.99
535.71	688.12
535.88	662.37
536.05	660.03
536.22	732.59
536.38	819.19
536.55	800.46
536.72	938.55
536.89	983.02
537.06	1043.88
537.23	1214.74
537.40	1317.72
537.57	1401.98
537.74	1406.66
537.91	1451.13
538.08	1453.47
538.25	1448.79
538.42	1528.37
538.59	1547.09
538.75	1542.41
538.92	1865.41
539.09	1834.98
539.26	2134.57
539.43	2282.02
539.60	2476.29
539.77	2911.63
539.94	3236.96
540.11	3471.01
540.28	3859.54
540.44	4035.08
540.61	4514.89
540.78	5256.84
540.95	6047.94
541.12	7316.51
541.29	7871.22
541.46	8023.36
541.62	7962.50
541.79	7726.11
541.96	7258.00
542.13	6635.42
542.30	6284.34
542.47	5980.07
542.63	5645.37
542.80	5533.03
542.97	5638.35
543.14	5504.94
543.31	5617.29
543.48	5535.37
543.64	5652.39
543.81	5825.59
543.98	5713.25
544.15	5650.05
544.32	5675.80
544.48	5671.12
544.65	5617.29
544.82	5652.39
544.99	5652.39
545.16	5741.33
545.32	6141.57
545.49	12049.08
545.66	19604.33
545.83	21759.96
546.00	17378.48
546.16	12020.99
546.33	9263.84
546.50	6759.47
546.67	5444.09
546.83	4999.38
547.00	4830.87
547.17	4514.89
547.34	4327.65
547.50	4229.35
547.67	4042.11
547.84	3911.04
548.00	3730.81
548.17	3557.61
548.34	3475.70
548.51	3487.40
548.67	3337.60
548.84	3162.06
549.01	2991.20
549.18	2946.73
549.34	2785.24
549.51	2738.43
549.68	2537.14
549.84	2502.03
550.01	2429.48
550.18	2363.94
550.34	2321.81
550.51	2132.23
550.68	2076.06
550.84	1912.22
551.01	1820.94
551.18	1795.19
551.34	1724.97
551.51	1657.10
551.68	1694.55
551.84	1584.54
552.01	1481.56
552.18	1378.58
552.34	1359.85
552.51	1327.08
552.68	1284.95
552.84	1231.12
553.01	1198.35
553.18	1207.72
553.34	1086.01
553.51	997.07
553.67	1088.35
553.84	1083.67
554.01	990.05
554.17	891.74
554.34	856.64
554.51	837.91
554.67	828.55
554.84	791.10
555.00	718.54
555.17	709.18
555.33	709.18
555.50	662.37
555.67	648.33
555.83	631.94
556.00	617.90
556.16	741.95
556.33	587.47
556.50	653.01
556.66	500.87
556.83	491.51
556.99	564.07
557.16	528.96
557.32	566.41
557.49	540.66
557.65	498.53
557.82	461.09
557.98	479.81
558.15	433.00
558.32	367.46
558.48	437.68
558.65	482.15
558.81	486.83
558.98	407.25
559.14	421.30
559.31	425.98
559.47	395.55
559.64	388.53
559.80	435.34
559.97	397.89
560.13	337.04
560.30	365.12
560.46	341.72
560.63	416.62
560.79	423.64
560.96	409.59
561.12	332.36
561.29	348.74
561.45	430.66
561.61	496.19
561.78	472.79
561.94	416.62
562.11	362.78
562.27	322.99
562.44	372.15
562.60	362.78
562.77	379.17
562.93	430.66
563.10	418.96
563.26	348.74
563.42	407.25
563.59	381.51
563.75	421.30
563.92	414.27
564.08	383.85
564.24	407.25
564.41	402.57
564.57	332.36
564.74	374.49
564.90	484.49
565.07	339.38
565.23	374.49
565.39	367.46
565.56	404.91
565.72	397.89
565.88	334.70
566.05	369.80
566.21	264.48
566.38	337.04
566.54	407.25
566.70	337.04
566.87	372.15
567.03	318.31
567.19	407.25
567.36	423.64
567.52	318.31
567.68	362.78
567.85	290.23
568.01	393.21
568.17	388.53
568.34	313.63
568.50	297.25
568.66	308.95
568.83	402.57
568.99	339.38
569.15	327.68
569.32	348.74
569.48	308.95
569.64	327.68
569.81	294.91
569.97	271.50
570.13	306.61
570.30	273.84
570.46	348.74
570.62	353.42
570.78	229.37
570.95	276.18
571.11	304.27
571.27	322.99
571.43	287.89
571.60	308.95
571.76	208.31
571.92	337.04
572.09	306.61
572.25	311.29
572.41	353.42
572.57	290.23
572.74	299.59
572.90	322.99
573.06	292.57
573.22	257.46
573.38	353.42
573.55	318.31
573.71	308.95
573.87	262.14
574.03	362.78
574.20	407.25
574.36	238.73
574.52	332.36
574.68	374.49
574.84	369.80
575.01	360.44
575.17	447.04
575.33	423.64
575.49	437.68
575.65	372.15
575.82	442.36
575.98	498.53
576.14	416.62
576.30	976.00
576.46	2642.46
576.62	3461.65
576.79	3522.51
576.95	2525.44
577.11	1755.40
577.27	1322.40
577.43	898.77
577.59	685.78
577.75	575.77
577.92	582.79
578.08	552.37
578.24	559.39
578.40	1029.84
578.56	2513.74
578.72	3283.77
578.88	3391.44
579.04	2548.84
579.21	1867.75
579.37	1437.09
579.53	1139.84
579.69	1294.32
579.85	1462.83
580.01	1582.20
580.17	1561.14
580.33	1238.14
580.49	1130.48
580.65	1050.90
580.82	1011.11
580.98	901.11
581.14	943.24
581.30	1062.60
581.46	1062.60
581.62	1114.10
581.78	1263.89
581.94	1263.89
582.10	1291.98
582.26	1439.43
582.42	1411.34
582.58	1554.12
582.74	1458.15
582.90	1544.75
583.06	1526.03
583.22	1563.48
583.38	1526.03
583.54	1455.81
583.70	1551.78
583.86	1509.65
584.02	1479.22
584.18	1509.65
584.34	1420.71
584.50	1397.30
584.66	1411.34
584.82	1301.34
584.98	1348.15
585.14	1399.64
585.30	1301.34
585.46	1198.35
585.62	1247.51
585.78	1320.06
585.94	1345.81
586.10	1303.68
586.26	1327.08
586.42	1629.01
586.58	1870.09
586.74	2162.66
586.90	2656.51
587.06	2710.34
587.22	2583.95
587.38	2211.81
587.54	1959.03
587.70	1902.86
587.86	1687.53
588.02	1320.06
588.18	1294.32
588.34	1156.22
588.49	1032.18
588.65	1055.58
588.81	851.96
588.97	858.98
589.13	943.24
589.29	821.53
589.45	943.24
589.61	1008.77
589.77	833.23
589.93	922.17
590.08	891.74
590.24	966.64
590.40	938.55
590.56	968.98
590.72	980.68
590.88	1020.47
591.04	1048.56
591.20	1177.29
591.35	1090.69
591.51	1203.04
591.67	1181.97
591.83	1296.66
591.99	1446.45
592.15	1509.65
592.31	1572.84
592.46	1598.59
592.62	1956.69
592.78	1935.62
592.94	1973.07
593.10	1935.62
593.26	1851.36
593.41	1739.02
593.57	1563.48
593.73	1317.72
593.89	1331.76
594.05	1062.60
594.20	1076.65
594.36	1064.94
594.52	882.38
594.68	866.00
594.84	809.83
594.99	891.74
595.15	894.08
595.31	901.11
595.47	833.23
595.62	896.43
595.78	809.83
595.94	854.30
596.10	891.74
596.25	720.88
596.41	854.30
596.57	751.31
596.73	758.33
596.88	819.19
597.04	753.65
597.20	748.97
597.36	723.23
597.51	858.98
597.67	903.45
597.83	891.74
597.99	954.94
598.14	943.24
598.30	1048.56
598.46	1118.78
598.61	1153.88
598.77	1219.42
598.93	1167.93
599.09	1160.91
599.24	1313.04
599.40	1287.29
599.56	1296.66
599.71	1188.99
599.87	1076.65
600.03	1123.46
600.18	973.66
600.34	938.55
600.50	880.04
600.65	863.66
600.81	819.19
600.97	741.95
601.12	748.97
601.28	734.93
601.44	685.78
601.59	657.69
601.75	599.18
601.91	627.26
602.06	603.86
602.22	601.52
602.37	685.78
602.53	561.73
602.69	617.90
602.84	519.60
603.00	582.79
603.16	592.16
603.31	610.88
603.47	589.82
603.62	648.33
603.78	681.10
603.94	681.10
604.09	688.12
604.25	688.12
604.40	706.84
604.56	648.33
604.71	685.78
604.87	688.12
605.03	641.31
605.18	636.63
605.34	697.48
605.49	753.65
605.65	702.16
605.80	667.05
605.96	774.72
606.12	770.04
606.27	795.78
606.43	837.91
606.58	891.74
606.74	835.57
606.89	924.51
607.05	968.98
607.20	1064.94
607.36	1109.41
607.51	1093.03
607.67	1128.14
607.82	1198.35
607.98	1338.79
608.13	1373.89
608.29	1453.47
