SpectraSuite Data File
++++++++++++++++++++++++++++++++++++
Date: Fri Oct 04 11:42:29 GMT-05:00 2013
User: price-jones
Dark Spectrum Present: No
Reference Spectrum Present: No
Number of Sampled Component Spectra: 1
Spectrometers: USB2+H05261
Integration Time (usec): 100000 (USB2+H05261)
Spectra Averaged: 1 (USB2+H05261)
Boxcar Smoothing: 0 (USB2+H05261)
Correct for Electrical Dark: No (USB2+H05261)
Strobe/Lamp Enabled: No (USB2+H05261)
Correct for Detector Non-linearity: No (USB2+H05261)
Correct for Stray Light: No (USB2+H05261)
Number of Pixels in Processed Spectrum: 2048
>>>>>Begin Processed Spectral Data<<<<<
365.73	32.77
365.92	32.77
366.12	32.77
366.32	0.00
366.52	0.00
366.72	0.00
366.91	0.00
367.11	0.00
367.31	0.00
367.51	0.00
367.70	0.00
367.90	0.00
368.10	0.00
368.30	0.00
368.49	0.00
368.69	0.00
368.89	0.00
369.09	0.00
369.28	0.00
369.48	0.00
369.68	0.00
369.87	0.00
370.07	0.00
370.27	7.02
370.47	77.24
370.66	35.11
370.86	42.13
371.06	138.09
371.25	114.69
371.45	112.35
371.65	42.13
371.84	98.30
372.04	67.88
372.24	105.32
372.44	21.06
372.63	128.73
372.83	147.45
373.03	49.15
373.22	149.79
373.42	140.43
373.62	70.22
373.81	119.37
374.01	121.71
374.21	95.96
374.40	149.79
374.60	95.96
374.79	147.45
374.99	65.54
375.19	102.98
375.38	161.50
375.58	133.41
375.78	138.09
375.97	159.16
376.17	133.41
376.37	131.07
376.56	112.35
376.76	149.79
376.95	32.77
377.15	142.77
377.35	154.48
377.54	159.16
377.74	135.75
377.93	147.45
378.13	100.64
378.33	121.71
378.52	210.65
378.72	180.22
378.91	161.50
379.11	112.35
379.31	117.03
379.50	37.45
379.70	77.24
379.89	70.22
380.09	124.05
380.28	93.62
380.48	53.83
380.68	91.28
380.87	67.88
381.07	67.88
381.26	121.71
381.46	138.09
381.65	74.90
381.85	65.54
382.04	63.19
382.24	35.11
382.43	140.43
382.63	81.92
382.83	131.07
383.02	88.94
383.22	140.43
383.41	46.81
383.61	105.32
383.80	72.56
384.00	110.01
384.19	154.48
384.39	128.73
384.58	105.32
384.78	117.03
384.97	42.13
385.17	72.56
385.36	60.85
385.56	81.92
385.75	135.75
385.95	93.62
386.14	142.77
386.34	72.56
386.53	152.13
386.72	124.05
386.92	198.95
387.11	77.24
387.31	173.20
387.50	98.30
387.70	60.85
387.89	35.11
388.09	95.96
388.28	74.90
388.48	105.32
388.67	79.58
388.86	67.88
389.06	91.28
389.25	145.11
389.45	74.90
389.64	102.98
389.84	177.88
390.03	184.90
390.22	95.96
390.42	98.30
390.61	133.41
390.81	95.96
391.00	142.77
391.19	81.92
391.39	163.84
391.58	152.13
391.78	119.37
391.97	88.94
392.16	93.62
392.36	86.60
392.55	102.98
392.75	135.75
392.94	102.98
393.13	121.71
393.33	93.62
393.52	88.94
393.71	128.73
393.91	72.56
394.10	117.03
394.29	74.90
394.49	63.19
394.68	91.28
394.88	159.16
395.07	98.30
395.26	49.15
395.46	170.86
395.65	138.09
395.84	168.52
396.04	175.54
396.23	46.81
396.42	28.09
396.62	154.48
396.81	79.58
397.00	112.35
397.19	128.73
397.39	121.71
397.58	100.64
397.77	98.30
397.97	117.03
398.16	32.77
398.35	114.69
398.55	107.66
398.74	84.26
398.93	95.96
399.12	95.96
399.32	189.58
399.51	95.96
399.70	124.05
399.90	105.32
400.09	112.35
400.28	210.65
400.47	138.09
400.67	114.69
400.86	138.09
401.05	131.07
401.24	88.94
401.44	98.30
401.63	156.82
401.82	121.71
402.01	131.07
402.21	88.94
402.40	124.05
402.59	102.98
402.78	140.43
402.97	114.69
403.17	100.64
403.36	112.35
403.55	86.60
403.74	86.60
403.93	210.65
404.13	227.03
404.32	262.14
404.51	210.65
404.70	266.82
404.89	166.18
405.09	142.77
405.28	84.26
405.47	117.03
405.66	93.62
405.85	131.07
406.05	154.48
406.24	131.07
406.43	100.64
406.62	91.28
406.81	124.05
407.00	187.24
407.20	184.90
407.39	156.82
407.58	184.90
407.77	205.97
407.96	166.18
408.15	168.52
408.34	140.43
408.54	140.43
408.73	65.54
408.92	121.71
409.11	145.11
409.30	191.92
409.49	149.79
409.68	126.39
409.87	117.03
410.07	117.03
410.26	180.22
410.45	131.07
410.64	105.32
410.83	88.94
411.02	170.86
411.21	88.94
411.40	126.39
411.59	161.50
411.78	107.66
411.98	140.43
412.17	163.84
412.36	154.48
412.55	114.69
412.74	177.88
412.93	187.24
413.12	126.39
413.31	142.77
413.50	79.58
413.69	93.62
413.88	149.79
414.07	84.26
414.26	105.32
414.45	86.60
414.64	161.50
414.83	156.82
415.02	98.30
415.22	182.56
415.41	135.75
415.60	128.73
415.79	124.05
415.98	163.84
416.17	161.50
416.36	105.32
416.55	100.64
416.74	138.09
416.93	222.35
417.12	124.05
417.31	145.11
417.50	102.98
417.69	191.92
417.88	147.45
418.07	147.45
418.26	93.62
418.45	124.05
418.64	227.03
418.83	210.65
419.02	98.30
419.21	131.07
419.39	107.66
419.58	166.18
419.77	135.75
419.96	145.11
420.15	152.13
420.34	131.07
420.53	145.11
420.72	166.18
420.91	166.18
421.10	175.54
421.29	198.95
421.48	163.84
421.67	168.52
421.86	154.48
422.05	131.07
422.24	135.75
422.43	205.97
422.61	208.31
422.80	154.48
422.99	149.79
423.18	77.24
423.37	117.03
423.56	135.75
423.75	117.03
423.94	44.47
424.13	114.69
424.32	72.56
424.50	128.73
424.69	166.18
424.88	194.26
425.07	119.37
425.26	93.62
425.45	173.20
425.64	102.98
425.83	107.66
426.01	191.92
426.20	177.88
426.39	163.84
426.58	58.51
426.77	117.03
426.96	166.18
427.15	154.48
427.33	107.66
427.52	145.11
427.71	126.39
427.90	170.86
428.09	149.79
428.28	93.62
428.46	215.33
428.65	114.69
428.84	142.77
429.03	135.75
429.22	138.09
429.40	81.92
429.59	128.73
429.78	198.95
429.97	102.98
430.16	191.92
430.34	112.35
430.53	88.94
430.72	102.98
430.91	168.52
431.10	110.01
431.28	184.90
431.47	102.98
431.66	180.22
431.85	126.39
432.03	163.84
432.22	121.71
432.41	154.48
432.60	145.11
432.79	208.31
432.97	166.18
433.16	170.86
433.35	100.64
433.54	154.48
433.72	187.24
433.91	180.22
434.10	152.13
434.28	168.52
434.47	170.86
434.66	140.43
434.85	145.11
435.03	276.18
435.22	676.41
435.41	1128.14
435.59	1228.78
435.78	842.59
435.97	535.98
436.16	276.18
436.34	238.73
436.53	138.09
436.72	119.37
436.90	142.77
437.09	145.11
437.28	138.09
437.46	145.11
437.65	152.13
437.84	117.03
438.02	152.13
438.21	140.43
438.40	110.01
438.58	86.60
438.77	208.31
438.96	238.73
439.14	102.98
439.33	81.92
439.52	159.16
439.70	198.95
439.89	243.42
440.08	140.43
440.26	187.24
440.45	138.09
440.63	105.32
440.82	168.52
441.01	149.79
441.19	119.37
441.38	210.65
441.57	201.29
441.75	201.29
441.94	177.88
442.12	168.52
442.31	229.37
442.50	117.03
442.68	170.86
442.87	121.71
443.05	98.30
443.24	170.86
443.43	201.29
443.61	198.95
443.80	243.42
443.98	117.03
444.17	140.43
444.35	222.35
444.54	105.32
444.73	170.86
444.91	149.79
445.10	140.43
445.28	128.73
445.47	173.20
445.65	168.52
445.84	205.97
446.02	180.22
446.21	119.37
446.39	163.84
446.58	168.52
446.77	161.50
446.95	222.35
447.14	264.48
447.32	189.58
447.51	145.11
447.69	177.88
447.88	177.88
448.06	222.35
448.25	156.82
448.43	117.03
448.62	201.29
448.80	177.88
448.99	234.05
449.17	168.52
449.36	166.18
449.54	259.80
449.73	128.73
449.91	168.52
450.10	196.60
450.28	194.26
450.46	229.37
450.65	257.46
450.83	201.29
451.02	175.54
451.20	152.13
451.39	238.73
451.57	154.48
451.76	168.52
451.94	170.86
452.13	191.92
452.31	238.73
452.49	269.16
452.68	117.03
452.86	117.03
453.05	182.56
453.23	154.48
453.42	133.41
453.60	149.79
453.78	147.45
453.97	173.20
454.15	107.66
454.34	138.09
454.52	166.18
454.70	229.37
454.89	138.09
455.07	91.28
455.26	117.03
455.44	145.11
455.62	140.43
455.81	252.78
455.99	203.63
456.17	180.22
456.36	156.82
456.54	161.50
456.73	145.11
456.91	173.20
457.09	112.35
457.28	149.79
457.46	152.13
457.64	72.56
457.83	180.22
458.01	152.13
458.19	131.07
458.38	163.84
458.56	227.03
458.74	212.99
458.93	175.54
459.11	140.43
459.29	175.54
459.48	154.48
459.66	255.12
459.84	234.05
460.03	177.88
460.21	191.92
460.39	187.24
460.57	280.86
460.76	173.20
460.94	250.44
461.12	196.60
461.31	210.65
461.49	210.65
461.67	147.45
461.85	191.92
462.04	147.45
462.22	339.38
462.40	212.99
462.59	177.88
462.77	128.73
462.95	166.18
463.13	121.71
463.32	119.37
463.50	234.05
463.68	117.03
463.86	220.01
464.05	88.94
464.23	273.84
464.41	168.52
464.59	180.22
464.78	154.48
464.96	152.13
465.14	149.79
465.32	196.60
465.50	215.33
465.69	196.60
465.87	147.45
466.05	220.01
466.23	145.11
466.41	138.09
466.60	93.62
466.78	231.71
466.96	135.75
467.14	145.11
467.32	220.01
467.51	196.60
467.69	140.43
467.87	217.67
468.05	147.45
468.23	110.01
468.41	208.31
468.60	210.65
468.78	168.52
468.96	173.20
469.14	170.86
469.32	175.54
469.50	180.22
469.69	124.05
469.87	133.41
470.05	201.29
470.23	173.20
470.41	154.48
470.59	175.54
470.77	187.24
470.95	152.13
471.14	189.58
471.32	128.73
471.50	168.52
471.68	138.09
471.86	196.60
472.04	145.11
472.22	159.16
472.40	79.58
472.58	187.24
472.77	107.66
472.95	161.50
473.13	152.13
473.31	128.73
473.49	159.16
473.67	196.60
473.85	175.54
474.03	154.48
474.21	196.60
474.39	266.82
474.57	210.65
474.75	126.39
474.93	168.52
475.12	154.48
475.30	142.77
475.48	138.09
475.66	203.63
475.84	208.31
476.02	224.69
476.20	229.37
476.38	175.54
476.56	285.55
476.74	203.63
476.92	203.63
477.10	241.08
477.28	203.63
477.46	212.99
477.64	163.84
477.82	135.75
478.00	210.65
478.18	273.84
478.36	114.69
478.54	210.65
478.72	229.37
478.90	203.63
479.08	189.58
479.26	222.35
479.44	145.11
479.62	161.50
479.80	189.58
479.98	210.65
480.16	152.13
480.34	234.05
480.52	198.95
480.70	180.22
480.88	170.86
481.06	224.69
481.24	259.80
481.41	276.18
481.59	189.58
481.77	264.48
481.95	184.90
482.13	205.97
482.31	205.97
482.49	243.42
482.67	191.92
482.85	259.80
483.03	294.91
483.21	269.16
483.39	224.69
483.57	273.84
483.74	236.39
483.92	222.35
484.10	180.22
484.28	271.50
484.46	280.86
484.64	271.50
484.82	318.31
485.00	220.01
485.18	224.69
485.35	234.05
485.53	243.42
485.71	311.29
485.89	229.37
486.07	262.14
486.25	306.61
486.43	255.12
486.61	290.23
486.78	374.49
486.96	245.76
487.14	292.57
487.32	376.83
487.50	280.86
487.68	379.17
487.85	287.89
488.03	320.65
488.21	304.27
488.39	348.74
488.57	402.57
488.75	337.04
488.92	582.79
489.10	264.48
489.28	369.80
489.46	346.40
489.64	341.72
489.81	217.67
489.99	299.59
490.17	287.89
490.35	365.12
490.53	252.78
490.70	273.84
490.88	271.50
491.06	313.63
491.24	372.15
491.41	259.80
491.59	315.97
491.77	285.55
491.95	252.78
492.13	259.80
492.30	227.03
492.48	287.89
492.66	299.59
492.84	266.82
493.01	365.12
493.19	250.44
493.37	369.80
493.54	220.01
493.72	269.16
493.90	313.63
494.08	304.27
494.25	306.61
494.43	325.33
494.61	273.84
494.79	196.60
494.96	266.82
495.14	273.84
495.32	276.18
495.49	238.73
495.67	243.42
495.85	212.99
496.02	276.18
496.20	327.68
496.38	287.89
496.55	217.67
496.73	292.57
496.91	311.29
497.09	299.59
497.26	308.95
497.44	252.78
497.62	308.95
497.79	304.27
497.97	301.93
498.14	234.05
498.32	283.20
498.50	278.52
498.67	257.46
498.85	273.84
499.03	250.44
499.20	212.99
499.38	271.50
499.56	313.63
499.73	271.50
499.91	271.50
500.08	245.76
500.26	243.42
500.44	182.56
500.61	248.10
500.79	287.89
500.97	236.39
501.14	283.20
501.32	292.57
501.49	278.52
501.67	264.48
501.84	215.33
502.02	187.24
502.20	276.18
502.37	231.71
502.55	212.99
502.72	196.60
502.90	332.36
503.07	231.71
503.25	262.14
503.43	273.84
503.60	299.59
503.78	222.35
503.95	142.77
504.13	262.14
504.30	262.14
504.48	280.86
504.65	285.55
504.83	222.35
505.01	243.42
505.18	234.05
505.36	175.54
505.53	212.99
505.71	231.71
505.88	229.37
506.06	241.08
506.23	269.16
506.41	222.35
506.58	269.16
506.76	283.20
506.93	262.14
507.11	243.42
507.28	248.10
507.46	217.67
507.63	215.33
507.81	203.63
507.98	255.12
508.16	308.95
508.33	227.03
508.50	229.37
508.68	250.44
508.85	175.54
509.03	196.60
509.20	241.08
509.38	252.78
509.55	215.33
509.73	264.48
509.90	231.71
510.08	217.67
510.25	241.08
510.42	269.16
510.60	259.80
510.77	262.14
510.95	304.27
511.12	224.69
511.30	177.88
511.47	290.23
511.64	294.91
511.82	234.05
511.99	266.82
512.17	248.10
512.34	271.50
512.51	196.60
512.69	222.35
512.86	215.33
513.04	255.12
513.21	304.27
513.38	215.33
513.56	205.97
513.73	290.23
513.90	231.71
514.08	248.10
514.25	271.50
514.43	280.86
514.60	294.91
514.77	234.05
514.95	313.63
515.12	273.84
515.29	208.31
515.47	287.89
515.64	170.86
515.81	198.95
515.99	276.18
516.16	299.59
516.33	217.67
516.51	231.71
516.68	198.95
516.85	191.92
517.03	257.46
517.20	269.16
517.37	264.48
517.54	311.29
517.72	234.05
517.89	194.26
518.06	208.31
518.24	241.08
518.41	283.20
518.58	241.08
518.75	257.46
518.93	264.48
519.10	266.82
519.27	222.35
519.45	227.03
519.62	311.29
519.79	231.71
519.96	201.29
520.14	250.44
520.31	292.57
520.48	248.10
520.65	280.86
520.83	241.08
521.00	248.10
521.17	238.73
521.34	259.80
521.52	238.73
521.69	257.46
521.86	220.01
522.03	278.52
522.20	241.08
522.38	269.16
522.55	257.46
522.72	210.65
522.89	227.03
523.07	341.72
523.24	262.14
523.41	252.78
523.58	292.57
523.75	229.37
523.92	210.65
524.10	198.95
524.27	255.12
524.44	241.08
524.61	320.65
524.78	292.57
524.96	285.55
525.13	308.95
525.30	234.05
525.47	297.25
525.64	175.54
525.81	322.99
525.98	285.55
526.16	285.55
526.33	212.99
526.50	227.03
526.67	220.01
526.84	224.69
527.01	205.97
527.18	259.80
527.36	252.78
527.53	184.90
527.70	292.57
527.87	231.71
528.04	313.63
528.21	271.50
528.38	217.67
528.55	292.57
528.72	241.08
528.89	322.99
529.07	276.18
529.24	285.55
529.41	231.71
529.58	287.89
529.75	212.99
529.92	301.93
530.09	266.82
530.26	238.73
530.43	255.12
530.60	294.91
530.77	222.35
530.94	301.93
531.11	243.42
531.28	238.73
531.46	231.71
531.63	196.60
531.80	271.50
531.97	266.82
532.14	280.86
532.31	252.78
532.48	308.95
532.65	243.42
532.82	252.78
532.99	264.48
533.16	299.59
533.33	365.12
533.50	334.70
533.67	231.71
533.84	313.63
534.01	280.86
534.18	234.05
534.35	271.50
534.52	262.14
534.69	294.91
534.86	269.16
535.03	292.57
535.20	255.12
535.37	337.04
535.54	294.91
535.71	351.08
535.88	411.93
536.05	341.72
536.22	297.25
536.38	351.08
536.55	315.97
536.72	411.93
536.89	318.31
537.06	327.68
537.23	428.32
537.40	463.43
537.57	306.61
537.74	437.68
537.91	437.68
538.08	444.70
538.25	463.43
538.42	374.49
538.59	409.59
538.75	456.40
538.92	393.21
539.09	451.72
539.26	442.36
539.43	507.90
539.60	554.71
539.77	589.82
539.94	613.22
540.11	676.41
540.28	720.88
540.44	758.33
540.61	755.99
540.78	798.12
540.95	931.53
541.12	1116.44
541.29	1167.93
541.46	1207.72
541.62	1329.42
541.79	1231.12
541.96	1341.13
542.13	1301.34
542.30	1174.95
542.47	1174.95
542.63	1153.88
542.80	1158.57
542.97	1156.22
543.14	1118.78
543.31	1158.57
543.48	1214.74
543.64	1146.86
543.81	1165.59
543.98	1081.33
544.15	1069.62
544.32	1184.31
544.48	1121.12
544.65	1121.12
544.82	1076.65
544.99	971.32
545.16	1118.78
545.32	1071.97
545.49	1638.38
545.66	2436.50
545.83	3133.98
546.00	2665.87
546.16	1921.58
546.33	1380.92
546.50	1118.78
546.67	915.15
546.83	833.23
547.00	760.67
547.17	716.20
547.34	720.88
547.50	835.57
547.67	786.42
547.84	610.88
548.00	744.29
548.17	709.18
548.34	697.48
548.51	744.29
548.67	699.82
548.84	594.50
549.01	664.71
549.18	648.33
549.34	648.33
549.51	685.78
549.68	580.45
549.84	573.43
550.01	414.27
550.18	631.94
550.34	571.09
550.51	564.07
550.68	482.15
550.84	388.53
551.01	465.77
551.18	491.51
551.34	447.04
551.51	383.85
551.68	484.49
551.84	447.04
552.01	390.87
552.18	472.79
552.34	430.66
552.51	367.46
552.68	393.21
552.84	407.25
553.01	430.66
553.18	397.89
553.34	369.80
553.51	404.91
553.67	351.08
553.84	393.21
554.01	442.36
554.17	414.27
554.34	301.93
554.51	348.74
554.67	397.89
554.84	273.84
555.00	292.57
555.17	337.04
555.33	346.40
555.50	344.06
555.67	346.40
555.83	227.03
556.00	269.16
556.16	407.25
556.33	341.72
556.50	278.52
556.66	203.63
556.83	262.14
556.99	236.39
557.16	344.06
557.32	301.93
557.49	285.55
557.65	241.08
557.82	250.44
557.98	208.31
558.15	220.01
558.32	238.73
558.48	217.67
558.65	266.82
558.81	262.14
558.98	224.69
559.14	283.20
559.31	280.86
559.47	327.68
559.64	266.82
559.80	257.46
559.97	294.91
560.13	252.78
560.30	196.60
560.46	264.48
560.63	187.24
560.79	241.08
560.96	322.99
561.12	238.73
561.29	311.29
561.45	264.48
561.61	262.14
561.78	388.53
561.94	208.31
562.11	271.50
562.27	271.50
562.44	262.14
562.60	257.46
562.77	266.82
562.93	332.36
563.10	229.37
563.26	285.55
563.42	308.95
563.59	266.82
563.75	290.23
563.92	238.73
564.08	238.73
564.24	255.12
564.41	311.29
564.57	257.46
564.74	205.97
564.90	248.10
565.07	231.71
565.23	205.97
565.39	255.12
565.56	208.31
565.72	276.18
565.88	257.46
566.05	198.95
566.21	271.50
566.38	285.55
566.54	210.65
566.70	205.97
566.87	234.05
567.03	241.08
567.19	262.14
567.36	313.63
567.52	231.71
567.68	299.59
567.85	308.95
568.01	217.67
568.17	250.44
568.34	194.26
568.50	262.14
568.66	271.50
568.83	327.68
568.99	227.03
569.15	229.37
569.32	292.57
569.48	220.01
569.64	269.16
569.81	313.63
569.97	229.37
570.13	271.50
570.30	142.77
570.46	241.08
570.62	255.12
570.78	245.76
570.95	266.82
571.11	266.82
571.27	250.44
571.43	229.37
571.60	212.99
571.76	210.65
571.92	215.33
572.09	273.84
572.25	234.05
572.41	234.05
572.57	236.39
572.74	334.70
572.90	210.65
573.06	278.52
573.22	287.89
573.38	236.39
573.55	196.60
573.71	358.10
573.87	227.03
574.03	196.60
574.20	245.76
574.36	259.80
574.52	234.05
574.68	264.48
574.84	220.01
575.01	220.01
575.17	292.57
575.33	287.89
575.49	297.25
575.65	285.55
575.82	292.57
575.98	337.04
576.14	201.29
576.30	360.44
576.46	493.85
576.62	713.86
576.79	720.88
576.95	683.44
577.11	376.83
577.27	313.63
577.43	372.15
577.59	311.29
577.75	250.44
577.92	301.93
578.08	229.37
578.24	231.71
578.40	330.02
578.56	477.47
578.72	627.26
578.88	770.04
579.04	587.47
579.21	475.13
579.37	351.08
579.53	327.68
579.69	407.25
579.85	400.23
580.01	463.43
580.17	418.96
580.33	437.68
580.49	386.19
580.65	339.38
580.82	332.36
580.98	447.04
581.14	311.29
581.30	365.12
581.46	322.99
581.62	365.12
581.78	376.83
581.94	425.98
582.10	280.86
582.26	433.00
582.42	395.55
582.58	447.04
582.74	447.04
582.90	433.00
583.06	475.13
583.22	421.30
583.38	435.34
583.54	484.49
583.70	475.13
583.86	444.70
584.02	449.38
584.18	400.23
584.34	418.96
584.50	390.87
584.66	372.15
584.82	425.98
584.98	379.17
585.14	411.93
585.30	407.25
585.46	433.00
585.62	411.93
585.78	400.23
585.94	372.15
586.10	372.15
586.26	440.02
586.42	395.55
586.58	550.03
586.74	596.84
586.90	528.96
587.06	662.37
587.22	568.75
587.38	615.56
587.54	503.22
587.70	526.62
587.86	423.64
588.02	369.80
588.18	411.93
588.34	421.30
588.49	367.46
588.65	306.61
588.81	283.20
588.97	325.33
589.13	294.91
589.29	290.23
589.45	386.19
589.61	294.91
589.77	327.68
589.93	383.85
590.08	341.72
590.24	325.33
590.40	374.49
590.56	367.46
590.72	337.04
590.88	262.14
591.04	285.55
591.20	311.29
591.35	358.10
591.51	287.89
591.67	318.31
591.83	339.38
591.99	411.93
592.15	388.53
592.31	409.59
592.46	500.87
592.62	479.81
592.78	414.27
592.94	521.94
593.10	524.28
593.26	428.32
593.41	437.68
593.57	440.02
593.73	414.27
593.89	407.25
594.05	322.99
594.20	224.69
594.36	358.10
594.52	313.63
594.68	290.23
594.84	306.61
594.99	369.80
595.15	355.76
595.31	367.46
595.47	313.63
595.62	285.55
595.78	294.91
595.94	297.25
596.10	285.55
596.25	245.76
596.41	313.63
596.57	276.18
596.73	353.42
596.88	315.97
597.04	248.10
597.20	262.14
597.36	332.36
597.51	259.80
597.67	255.12
597.83	318.31
597.99	287.89
598.14	355.76
598.30	369.80
598.46	337.04
598.61	383.85
598.77	332.36
598.93	308.95
599.09	346.40
599.24	283.20
599.40	372.15
599.56	290.23
599.71	318.31
599.87	290.23
600.03	341.72
600.18	383.85
600.34	322.99
600.50	299.59
600.65	299.59
600.81	306.61
600.97	294.91
601.12	348.74
601.28	292.57
601.44	320.65
601.59	266.82
601.75	269.16
601.91	313.63
602.06	313.63
602.22	315.97
602.37	306.61
602.53	229.37
602.69	273.84
602.84	217.67
603.00	353.42
603.16	318.31
603.31	210.65
603.47	315.97
603.62	255.12
603.78	327.68
603.94	205.97
604.09	210.65
604.25	278.52
604.40	318.31
604.56	318.31
604.71	280.86
604.87	315.97
605.03	259.80
605.18	245.76
605.34	304.27
605.49	184.90
605.65	262.14
605.80	271.50
605.96	353.42
606.12	299.59
606.27	299.59
606.43	280.86
606.58	360.44
606.74	348.74
606.89	252.78
607.05	276.18
607.20	306.61
607.36	404.91
607.51	313.63
607.67	332.36
607.82	360.44
607.98	493.85
608.13	402.57
608.29	369.80
608.44	402.57
608.60	386.19
608.75	468.11
608.91	468.11
609.06	512.58
609.22	545.34
609.37	484.49
609.53	514.92
609.68	550.03
609.84	667.05
609.99	791.10
610.15	966.64
610.30	1083.67
610.46	1284.95
610.61	1619.65
610.76	2062.01
610.92	2413.09
611.07	2588.63
611.23	2782.90
