SpectraSuite Data File
++++++++++++++++++++++++++++++++++++
Date: Fri Oct 04 11:42:18 GMT-05:00 2013
User: price-jones
Dark Spectrum Present: No
Reference Spectrum Present: No
Number of Sampled Component Spectra: 1
Spectrometers: USB2+H05261
Integration Time (usec): 100000 (USB2+H05261)
Spectra Averaged: 1 (USB2+H05261)
Boxcar Smoothing: 0 (USB2+H05261)
Correct for Electrical Dark: No (USB2+H05261)
Strobe/Lamp Enabled: No (USB2+H05261)
Correct for Detector Non-linearity: No (USB2+H05261)
Correct for Stray Light: No (USB2+H05261)
Number of Pixels in Processed Spectrum: 2048
>>>>>Begin Processed Spectral Data<<<<<
365.73	107.66
365.92	107.66
366.12	107.66
366.32	0.00
366.52	0.00
366.72	0.00
366.91	0.00
367.11	0.00
367.31	0.00
367.51	0.00
367.70	0.00
367.90	0.00
368.10	0.00
368.30	0.00
368.49	0.00
368.69	0.00
368.89	0.00
369.09	0.00
369.28	0.00
369.48	0.00
369.68	0.00
369.87	0.00
370.07	0.00
370.27	0.00
370.47	119.37
370.66	589.82
370.86	716.20
371.06	758.33
371.25	706.84
371.45	748.97
371.65	610.88
371.84	669.39
372.04	601.52
372.24	655.35
372.44	795.78
372.63	809.83
372.83	758.33
373.03	648.33
373.22	561.73
373.42	592.16
373.62	685.78
373.81	720.88
374.01	849.61
374.21	770.04
374.40	589.82
374.60	760.67
374.79	734.93
374.99	795.78
375.19	844.93
375.38	849.61
375.58	793.44
375.78	800.46
375.97	868.34
376.17	835.57
376.37	828.55
376.56	931.53
376.76	905.79
376.95	884.72
377.15	985.37
377.35	1043.88
377.54	1102.39
377.74	1081.33
377.93	980.68
378.13	1032.18
378.33	1018.13
378.52	912.81
378.72	889.40
378.91	924.51
379.11	805.14
379.31	891.74
379.50	851.96
379.70	929.19
379.89	1046.22
380.09	1074.31
380.28	1053.24
380.48	1102.39
380.68	1083.67
380.87	943.24
381.07	870.68
381.26	936.21
381.46	798.12
381.65	844.93
381.85	781.74
382.04	791.10
382.24	837.91
382.43	695.14
382.63	784.08
382.83	695.14
383.02	723.23
383.22	650.67
383.41	662.37
383.61	734.93
383.80	807.48
384.00	954.94
384.19	983.02
384.39	990.05
384.58	1032.18
384.78	959.62
384.97	994.73
385.17	992.39
385.36	903.45
385.56	990.05
385.75	931.53
385.95	999.41
386.14	1050.90
386.34	1025.15
386.53	1041.54
386.72	1034.52
386.92	936.21
387.11	1013.45
387.31	1078.99
387.50	1107.07
387.70	1015.79
387.89	1034.52
388.09	1018.13
388.28	999.41
388.48	1039.20
388.67	1130.48
388.86	1221.76
389.06	1224.10
389.25	1301.34
389.45	1364.53
389.64	1268.57
389.84	1336.45
390.03	1284.95
390.22	1313.04
390.42	1343.47
390.61	1308.36
390.81	1465.18
391.00	1418.36
391.19	1387.94
391.39	1432.41
391.58	1343.47
391.78	1317.72
391.97	1224.10
392.16	1114.10
392.36	1165.59
392.55	903.45
392.75	713.86
392.94	650.67
393.13	559.39
393.33	641.31
393.52	770.04
393.71	983.02
393.91	1097.71
394.10	1254.53
394.29	1308.36
394.49	1418.36
394.68	1603.27
394.88	1514.33
395.07	1586.88
395.26	1558.80
395.46	1479.22
395.65	1488.58
395.84	1336.45
396.04	1212.40
396.23	959.62
396.42	863.66
396.62	798.12
396.81	856.64
397.00	1055.58
397.19	1399.64
397.39	1488.58
397.58	1781.15
397.77	1816.26
397.97	1881.79
398.16	1865.41
398.35	1865.41
398.55	1930.94
398.74	2047.97
398.93	2202.44
399.12	2050.31
399.32	2003.50
399.51	2029.24
399.70	2118.18
399.90	2076.06
400.09	2125.21
400.28	2101.80
400.47	2228.19
400.67	2218.83
400.86	2251.60
401.05	2333.51
401.24	2195.42
401.44	2410.75
401.63	2466.92
401.82	2401.39
402.01	2307.77
402.21	2385.01
402.40	2373.30
402.59	2214.15
402.78	2148.61
402.97	2047.97
403.17	2209.47
403.36	2298.41
403.55	2511.39
403.74	2499.69
403.93	2459.90
404.13	2326.49
404.32	2272.66
404.51	2317.13
404.70	2359.26
404.89	2356.92
405.09	2394.37
405.28	2256.28
405.47	2354.58
405.66	2349.90
405.85	2403.73
406.05	2165.00
406.24	2228.19
406.43	2246.91
406.62	2429.48
406.81	2434.16
407.00	2345.22
407.20	2218.83
407.39	2333.51
407.58	2457.56
407.77	2377.98
407.96	2375.64
408.15	2560.55
408.34	2569.91
408.54	2595.65
408.73	2682.25
408.92	2586.29
409.11	2600.34
409.30	2553.52
409.49	2345.22
409.68	2176.70
409.87	2174.36
410.07	2239.89
410.26	2345.22
410.45	2499.69
410.64	2459.90
410.83	2647.15
411.02	2628.42
411.21	2892.90
411.40	2726.72
411.59	2715.02
411.78	2651.83
411.98	2785.24
412.17	2757.15
412.36	2775.88
412.55	2705.66
412.74	2647.15
412.93	2785.24
413.12	2490.33
413.31	2843.75
413.50	2911.63
413.69	2867.16
413.88	2920.99
414.07	2743.11
414.26	2743.11
414.45	2906.95
414.64	2979.50
414.83	2949.08
415.02	2895.24
415.22	2839.07
415.41	2885.88
415.60	2974.82
415.79	3070.78
415.98	3171.43
416.17	3222.92
416.36	3094.19
416.55	2958.44
416.74	2963.12
416.93	2878.86
417.12	2803.96
417.31	2883.54
417.50	2949.08
417.69	3087.17
417.88	2871.84
418.07	3075.46
418.26	2932.69
418.45	3002.91
418.64	3016.95
418.83	3124.62
419.02	3185.47
419.21	3141.00
419.39	3007.59
419.58	2832.05
419.77	2818.00
419.96	2935.03
420.15	3183.13
420.34	3133.98
420.53	3255.69
420.72	3386.76
420.91	3370.37
421.10	3346.97
421.29	3173.77
421.48	3108.23
421.67	3251.00
421.86	3204.19
422.05	3066.10
422.24	2803.96
422.43	2745.45
422.61	3054.40
422.80	3239.30
422.99	3194.83
423.18	3206.53
423.37	3089.51
423.56	3045.04
423.75	3096.53
423.94	3155.04
424.13	3012.27
424.32	3082.49
424.50	3012.27
424.69	3131.64
424.88	3091.85
425.07	2923.33
425.26	3073.12
425.45	2897.58
425.64	2932.69
425.83	2930.35
426.01	3131.64
426.20	3101.21
426.39	3040.36
426.58	2949.08
426.77	2710.34
426.96	2684.59
427.15	2757.15
427.33	2913.97
427.52	2960.78
427.71	3005.25
427.90	3009.93
428.09	2998.23
428.28	2857.79
428.46	2759.49
428.65	2773.53
428.84	2815.66
429.03	2902.26
429.22	2792.26
429.40	2546.50
429.59	2462.24
429.78	2143.93
429.97	2190.74
430.16	2136.91
430.34	2237.55
430.53	2167.34
430.72	2136.91
430.91	2473.95
431.10	2731.41
431.28	3075.46
431.47	3489.74
431.66	3562.30
431.85	3375.05
432.03	2925.67
432.22	2909.29
432.41	3040.36
432.60	3286.11
432.79	3389.10
432.97	3588.04
433.16	3318.88
433.35	3164.40
433.54	2860.13
433.72	2670.55
433.91	2722.04
434.10	2984.18
434.28	3295.47
434.47	3431.23
434.66	3351.65
434.85	3243.98
435.03	3351.65
435.22	3562.30
435.41	3948.48
435.59	3985.93
435.78	3794.01
435.97	3901.67
436.16	3796.35
436.34	3623.15
436.53	3501.44
436.72	3658.26
436.90	3267.39
437.09	3318.88
437.28	3300.16
437.46	3419.52
437.65	3372.71
437.84	3255.69
438.02	3021.63
438.21	2981.84
438.40	3014.61
438.58	3258.03
438.77	3389.10
438.96	3548.25
439.14	3679.32
439.33	3742.52
439.52	3815.07
439.70	3641.87
439.89	3501.44
440.08	3583.36
440.26	3494.42
440.45	3613.79
440.63	3899.33
440.82	3896.99
441.01	3840.82
441.19	3754.22
441.38	3889.97
441.57	4264.46
441.75	4088.92
441.94	4119.34
442.12	4070.19
442.31	4100.62
442.50	4131.05
442.68	4210.62
442.87	4163.81
443.05	3995.29
443.24	4086.58
443.43	4109.98
443.61	4203.60
443.80	4369.78
443.98	3995.29
444.17	3918.06
444.35	4243.39
444.54	4114.66
444.73	4266.80
444.91	4053.81
445.10	3946.14
445.28	3864.22
445.47	3716.77
445.65	3646.55
445.84	3847.84
446.02	3997.64
446.21	3969.55
446.39	4007.00
446.58	4112.32
446.77	4182.54
446.95	4030.40
447.14	4175.52
447.32	4227.01
447.51	4196.58
447.69	4042.11
447.88	4030.40
448.06	4112.32
448.25	4287.86
448.43	4337.01
448.62	4058.49
448.80	4236.37
448.99	4131.05
449.17	4189.56
449.36	4219.99
449.54	4334.67
449.73	4416.59
449.91	4512.55
450.10	4601.49
450.28	4589.79
450.46	4596.81
450.65	4606.17
450.83	4648.30
451.02	4496.17
451.20	4376.80
451.39	4571.07
451.57	4308.93
451.76	4437.66
451.94	4346.37
452.13	4311.27
452.31	4201.26
452.49	4002.32
452.68	4011.68
452.86	4049.13
453.05	4084.23
453.23	4222.33
453.42	4135.73
453.60	4381.48
453.78	4416.59
453.97	4498.51
454.15	4290.20
454.34	4290.20
454.52	4348.72
454.70	4156.79
454.89	4217.65
455.07	4191.90
455.26	4367.44
455.44	4369.78
455.62	4552.34
455.81	4606.17
455.99	4545.32
456.17	4493.83
456.36	4552.34
456.54	4468.08
456.73	4531.28
456.91	4695.11
457.09	4765.33
457.28	4877.68
457.46	4660.01
457.64	4683.41
457.83	4521.92
458.01	4346.37
458.19	4367.44
458.38	4510.21
458.56	4610.86
458.74	4592.13
458.93	4486.81
459.11	4411.91
459.29	4428.29
459.48	4662.35
459.66	4578.09
459.84	4594.47
460.03	4709.16
460.21	4652.98
460.39	4779.37
460.57	4662.35
460.76	4755.97
460.94	4732.56
461.12	4657.67
461.31	4784.06
461.49	4631.92
461.67	4688.09
461.85	4730.22
462.04	4690.43
462.22	4915.12
462.40	4781.71
462.59	4823.84
462.77	4812.14
462.95	4732.56
463.13	4692.77
463.32	4732.56
463.50	4695.11
463.68	4601.49
463.86	4709.16
464.05	4552.34
464.23	4585.11
464.41	4528.94
464.59	4376.80
464.78	4578.09
464.96	4608.51
465.14	4580.43
465.32	4692.77
465.50	4861.29
465.69	4828.53
465.87	4716.18
466.05	4713.84
466.23	4376.80
466.41	4344.03
466.60	4533.62
466.78	4360.42
466.96	4505.53
467.14	4552.34
467.32	4603.83
467.51	4596.81
467.69	4444.68
467.87	4566.39
468.05	4688.09
468.23	4622.56
468.41	4821.50
468.60	4564.04
468.78	4650.64
468.96	4599.15
469.14	4674.05
469.32	4685.75
469.50	4517.23
469.69	4559.36
469.87	4440.00
470.05	4365.10
470.23	4414.25
470.41	4566.39
470.59	4550.00
470.77	4514.89
470.95	4486.81
471.14	4489.15
471.32	4727.88
471.50	4851.93
471.68	4767.67
471.86	4828.53
472.04	4938.53
472.22	5029.81
472.40	4657.67
472.58	4758.31
472.77	4664.69
472.95	4784.06
473.13	4943.21
473.31	4678.73
473.49	4821.50
473.67	4770.01
473.85	4889.38
474.03	5100.03
474.21	5093.01
474.39	5132.79
474.57	5083.64
474.75	4980.66
474.93	5004.07
475.12	4924.49
475.30	5111.73
475.48	4945.55
475.66	4931.51
475.84	4905.76
476.02	4898.74
476.20	4980.66
476.38	4961.94
476.56	5104.71
476.74	5338.76
476.92	5146.84
477.10	5170.24
477.28	5544.73
477.46	5495.58
477.64	5458.13
477.82	5413.66
478.00	5659.42
478.18	5357.49
478.36	5383.23
478.54	5509.62
478.72	5586.86
478.90	5598.56
479.08	5708.57
479.26	5757.72
479.44	5820.91
479.62	5834.96
479.80	5750.70
479.98	5799.85
480.16	5930.92
480.34	5867.72
480.52	5930.92
480.70	5893.47
480.88	5846.66
481.06	6155.61
481.24	6115.82
481.41	6228.17
481.59	6298.38
481.77	6366.26
481.95	6005.81
482.13	6122.84
482.31	6195.40
482.49	6073.69
482.67	6218.80
482.85	6230.51
483.03	6284.34
483.21	6623.72
483.39	6485.62
483.57	6164.97
483.74	6305.40
483.92	6157.95
484.10	6181.35
484.28	6534.78
484.46	6668.19
484.64	6459.88
484.82	6401.37
485.00	6193.06
485.18	6242.21
485.35	6183.70
485.53	5661.76
485.71	5114.07
485.89	5069.60
486.07	5352.81
486.25	5914.53
486.43	6099.44
486.61	6061.99
486.78	6244.55
486.96	6225.82
487.14	6462.22
487.32	6471.58
487.50	6670.53
487.68	7005.22
487.85	7009.90
488.03	6993.52
488.21	7068.42
488.39	6803.94
488.57	6839.05
488.75	6700.95
488.92	7087.14
489.10	7218.21
489.28	7513.12
489.46	7714.41
489.64	7754.19
489.81	7915.69
489.99	7730.79
490.17	7653.55
490.35	7770.58
490.53	7735.47
490.70	7632.49
490.88	7538.87
491.06	7791.64
491.24	7824.41
491.41	7475.67
491.59	7115.23
491.77	7045.01
491.95	7190.13
492.13	7375.03
492.30	7899.31
492.48	7936.76
492.66	8187.19
492.84	8166.13
493.01	8016.33
493.19	8063.15
493.37	7941.44
493.54	7768.24
493.72	7997.61
493.90	8065.49
494.08	8360.39
494.25	8592.11
494.43	8479.76
494.61	8683.39
494.79	8535.93
494.96	8390.82
495.14	8402.52
495.32	8313.58
495.49	8109.96
495.67	8203.58
495.85	8634.24
496.02	8753.60
496.20	8669.34
496.38	8769.99
496.55	8475.08
496.73	8573.38
496.91	8758.28
497.09	8992.34
497.26	8957.23
497.44	8840.20
497.62	8926.80
497.79	8456.36
497.97	8142.72
498.14	8161.45
498.32	8208.26
498.50	8798.07
498.67	8781.69
498.85	8821.48
499.03	8695.09
499.20	8854.25
499.38	8938.51
499.56	8819.14
499.73	8732.54
499.91	8500.83
500.08	8659.98
500.26	8292.52
500.44	8346.35
500.61	8603.81
500.79	8552.32
500.97	8383.80
501.14	8372.10
501.32	8503.17
501.49	8304.22
501.67	8336.99
501.84	8510.19
502.02	8664.66
502.20	8772.33
502.37	8692.75
502.55	8439.97
502.72	8879.99
502.90	8966.59
503.07	8489.12
503.25	8411.89
503.43	8215.28
503.60	7962.50
503.78	7765.90
503.95	7969.52
504.13	8517.21
504.30	8638.92
504.48	8879.99
504.65	8690.41
504.83	8973.61
505.01	9034.47
505.18	9177.24
505.36	9235.75
505.53	8982.98
505.71	9207.67
505.88	9336.40
506.06	9217.03
506.23	9252.14
506.41	9060.21
506.58	8971.27
506.76	8945.53
506.93	8849.57
507.11	8732.54
507.28	8961.91
507.46	8868.29
507.63	8798.07
507.81	8554.66
507.98	8603.81
508.16	8587.43
508.33	9104.68
508.50	9198.31
508.68	9277.88
508.85	9275.54
509.03	9345.76
509.20	9350.44
509.38	9195.96
509.55	9092.98
509.73	8922.12
509.90	9088.30
510.08	9233.41
510.25	9259.16
510.42	9256.82
510.60	9263.84
510.77	9380.87
510.95	9757.69
511.12	9383.21
511.30	9755.35
511.47	9792.80
511.64	9659.39
511.82	9760.03
511.99	9476.83
512.17	9273.20
512.34	8997.02
512.51	8975.95
512.69	9188.94
512.86	9146.81
513.04	9366.82
513.21	9390.23
513.38	9228.73
513.56	9186.60
513.73	8926.80
513.90	8887.01
514.08	8929.14
514.25	9156.18
514.43	9132.77
514.60	9111.71
514.77	9177.24
514.95	9235.75
515.12	9181.92
515.29	9350.44
515.47	9584.49
515.64	9633.64
515.81	9430.02
515.99	9366.82
516.16	8915.10
516.33	8308.90
516.51	7775.26
516.68	7510.78
516.85	7459.29
517.03	7588.02
517.20	7995.27
517.37	9039.15
517.54	9305.97
517.72	9202.99
517.89	8320.60
518.06	7859.52
518.24	7887.61
518.41	8423.59
518.58	8732.54
518.75	8746.58
518.93	8922.12
519.10	8924.46
519.27	9207.67
519.45	9226.39
519.62	9308.31
519.79	9540.02
519.96	9589.17
520.14	9331.72
520.31	9008.72
520.48	9217.03
520.65	9062.55
520.83	9537.68
521.00	9467.47
521.17	9336.40
521.34	9221.71
521.52	9376.19
521.69	9530.66
521.86	9856.00
522.03	9776.42
522.20	9268.52
522.38	8868.29
522.55	8844.88
522.72	9039.15
522.89	9186.60
523.07	9046.17
523.24	9312.99
523.41	9542.36
523.58	9628.96
523.75	9722.59
523.92	9678.12
524.10	9727.27
524.27	9820.89
524.44	9757.69
524.61	9844.29
524.78	9488.53
524.96	9610.24
525.13	9666.41
525.30	9731.95
525.47	9820.89
525.64	9802.16
525.81	9568.11
525.98	9153.84
526.16	8741.90
526.33	8390.82
526.50	8381.46
526.67	8273.79
526.84	8409.54
527.01	8617.85
527.18	8667.00
527.36	8987.66
527.53	9502.58
527.70	9628.96
527.87	9317.67
528.04	9528.32
528.21	9458.10
528.38	9687.48
528.55	9743.65
528.72	9888.76
528.89	10251.55
529.07	10122.82
529.24	9776.42
529.41	9556.41
529.58	9132.77
529.75	9437.04
529.92	9582.15
530.09	9537.68
530.26	9675.77
530.43	9783.44
530.60	9874.72
530.77	9928.55
530.94	9977.70
531.11	9961.32
531.28	9797.48
531.46	9799.82
531.63	10097.07
531.80	9848.97
531.97	9525.98
532.14	9425.34
532.31	8964.25
532.48	8943.19
532.65	8814.46
532.82	9020.42
532.99	9369.16
533.16	9390.23
533.33	9834.93
533.50	9647.69
533.67	9633.64
533.84	9193.62
534.01	9493.21
534.18	9273.20
534.35	9654.71
534.52	9488.53
534.69	9589.17
534.86	9671.09
535.03	9685.14
535.20	9825.57
535.37	9989.41
535.54	10211.76
535.71	9865.36
535.88	10029.20
536.05	9848.97
536.22	9488.53
536.38	9270.86
536.55	9184.26
536.72	9100.00
536.89	9001.70
537.06	9298.95
537.23	9558.75
537.40	9792.80
537.57	9877.06
537.74	9844.29
537.91	9837.27
538.08	9589.17
538.25	9439.38
538.42	9558.75
538.59	9701.52
538.75	9275.54
538.92	9167.88
539.09	9287.25
539.26	9317.67
539.43	9083.62
539.60	9163.20
539.77	9219.37
539.94	9280.22
540.11	8968.93
540.28	8805.10
540.44	8767.65
540.61	8931.48
540.78	8931.48
540.95	9121.07
541.12	9315.33
541.29	9603.22
541.46	9596.20
541.62	9617.26
541.79	9633.64
541.96	9453.42
542.13	9392.57
542.30	9577.47
542.47	9631.30
542.63	9369.16
542.80	9394.91
542.97	9469.81
543.14	9357.46
543.31	9465.13
543.48	9680.46
543.64	9722.59
543.81	9884.08
543.98	9984.73
544.15	9820.89
544.32	9633.64
544.48	9666.41
544.65	9451.08
544.82	9753.01
544.99	9448.74
545.16	9621.94
545.32	9455.76
545.49	9830.25
545.66	10403.68
545.83	10438.79
546.00	10148.56
546.16	9804.50
546.33	9650.03
546.50	9603.22
546.67	9556.41
546.83	9488.53
547.00	9394.91
547.17	9327.03
547.34	8950.21
547.50	9071.92
547.67	9224.05
547.84	9088.30
548.00	9235.75
548.17	9252.14
548.34	9338.74
548.51	9460.45
548.67	9453.42
548.84	9577.47
549.01	9366.82
549.18	9383.21
549.34	9174.90
549.51	9408.95
549.68	9205.33
549.84	9289.59
550.01	9357.46
550.18	9280.22
550.34	9198.31
550.51	9247.46
550.68	9284.91
550.84	9088.30
551.01	9109.36
551.18	9104.68
551.34	9231.07
551.51	9235.75
551.68	9249.80
551.84	9544.70
552.01	9490.87
552.18	9338.74
552.34	8992.34
552.51	8863.61
552.68	8828.50
552.84	8959.57
553.01	9006.38
553.18	9228.73
553.34	9015.74
553.51	9291.93
553.67	9039.15
553.84	9153.84
554.01	9205.33
554.17	9172.56
554.34	9025.11
554.51	9097.66
554.67	9226.39
554.84	9343.42
555.00	9247.46
555.17	9109.36
555.33	9046.17
555.50	9242.78
555.67	9156.18
555.83	8945.53
556.00	8985.32
556.16	8924.46
556.33	8762.97
556.50	8737.22
556.66	8826.16
556.83	8746.58
556.99	8615.51
557.16	8786.37
557.32	8709.13
557.49	8716.16
557.65	8837.86
557.82	8856.59
557.98	8791.05
558.15	8671.68
558.32	8580.40
558.48	8266.77
558.65	8283.16
558.81	8336.99
558.98	8552.32
559.14	8456.36
559.31	8418.91
559.47	8587.43
559.64	8491.46
559.80	8507.85
559.97	8519.55
560.13	8454.02
560.30	8664.66
560.46	8919.78
560.63	8744.24
560.79	9043.83
560.96	9104.68
561.12	8573.38
561.29	8278.47
561.45	8273.79
561.61	8526.57
561.78	8587.43
561.94	8610.83
562.11	8636.58
562.27	8587.43
562.44	8435.29
562.60	8617.85
562.77	8713.81
562.93	8734.88
563.10	8498.49
563.26	8554.66
563.42	8458.70
563.59	8210.60
563.75	8479.76
563.92	8367.42
564.08	8547.64
564.24	8276.13
564.41	8514.87
564.57	8507.85
564.74	8416.57
564.90	8346.35
565.07	8292.52
565.23	8222.30
565.39	8236.35
565.56	8046.76
565.72	7988.25
565.88	7875.90
566.05	8077.19
566.21	8191.88
566.38	8131.02
566.54	8234.00
566.70	8397.84
566.87	8294.86
567.03	8292.52
567.19	8367.42
567.36	8390.82
567.52	8100.59
567.68	8035.06
567.85	8060.80
568.01	7819.73
568.17	7653.55
568.34	7709.72
568.50	7473.33
568.66	7375.03
568.83	7637.17
568.99	7744.83
569.15	7871.22
569.32	7899.31
569.48	7648.87
569.64	7648.87
569.81	7667.60
569.97	7606.74
570.13	7723.77
570.30	7651.21
570.46	7531.84
570.62	7473.33
570.78	7276.73
570.95	7368.01
571.11	7550.57
571.27	7613.76
571.43	7550.57
571.60	7698.02
571.76	7775.26
571.92	7592.70
572.09	7669.94
572.25	7747.17
572.41	7733.13
572.57	7805.69
572.74	7662.91
572.90	7616.10
573.06	7782.28
573.22	7840.79
573.38	7590.36
573.55	7808.03
573.71	7838.45
573.87	7581.00
574.03	7445.24
574.20	7456.95
574.36	7646.53
574.52	7517.80
574.68	7618.44
574.84	7485.03
575.01	7440.56
575.17	7314.17
575.33	7417.16
575.49	7510.78
575.65	7330.56
575.82	7431.20
575.98	7215.87
576.14	7496.74
576.30	7641.85
576.46	7564.61
576.62	7716.75
576.79	7644.19
576.95	7662.91
577.11	7541.21
577.27	7538.87
577.43	7541.21
577.59	7435.88
577.75	7316.51
577.92	7190.13
578.08	7157.36
578.24	7176.08
578.40	7283.75
578.56	7585.68
578.72	7419.50
578.88	7719.09
579.04	7571.63
579.21	7555.25
579.37	7473.33
579.53	7463.97
579.69	7482.69
579.85	7527.16
580.01	7550.57
580.17	7461.63
580.33	7356.30
580.49	7599.72
580.65	7683.98
580.82	7555.25
580.98	7613.76
581.14	7613.76
581.30	7578.65
581.46	7438.22
581.62	7562.27
581.78	7403.11
581.94	7571.63
582.10	7836.11
582.26	7691.00
582.42	7639.51
582.58	7712.07
582.74	7625.47
582.90	7541.21
583.06	7709.72
583.22	7555.25
583.38	7358.64
583.54	7524.82
583.70	7562.27
583.86	7564.61
584.02	7644.19
584.18	7590.36
584.34	7606.74
584.50	7609.08
584.66	7309.49
584.82	7501.42
584.98	7335.24
585.14	7297.79
585.30	7166.72
585.46	7033.31
585.62	7059.06
585.78	7173.74
585.94	7150.34
586.10	7250.98
586.26	7272.04
586.42	7417.16
586.58	7169.06
586.74	7115.23
586.90	7260.34
587.06	7227.57
587.22	7162.04
587.38	6993.52
587.54	6963.09
587.70	6813.30
587.86	6448.18
588.02	6265.61
588.18	6253.91
588.34	5980.07
588.49	5643.03
588.65	5352.81
588.81	5177.26
588.97	5254.50
589.13	5423.02
589.29	5226.42
589.45	5277.91
589.61	5217.05
589.77	5640.69
589.93	5666.44
590.08	5975.39
590.24	5994.11
590.40	5944.96
590.56	6150.93
590.72	6019.86
590.88	6076.03
591.04	5900.49
591.20	5994.11
591.35	6047.94
591.51	5961.34
591.67	5788.14
591.83	5792.83
591.99	5795.17
592.15	5837.30
592.31	6129.86
592.46	6179.01
592.62	6263.27
592.78	6370.94
592.94	6171.99
593.10	6321.79
593.26	6431.79
593.41	6494.99
593.57	6539.46
593.73	6064.33
593.89	5909.85
594.05	5643.03
594.20	5628.99
594.36	5530.69
594.52	5373.87
594.68	5582.18
594.84	5863.04
594.99	6253.91
595.15	6207.10
595.31	6087.73
595.47	5884.11
595.62	5949.64
595.78	6164.97
595.94	6469.24
596.10	6530.09
596.25	6200.08
596.41	6022.20
596.57	6169.65
596.73	6270.30
596.88	6249.23
597.04	6211.78
597.20	6125.18
