SpectraSuite Data File
++++++++++++++++++++++++++++++++++++
Date: Fri Oct 04 11:42:12 GMT-05:00 2013
User: price-jones
Dark Spectrum Present: No
Reference Spectrum Present: No
Number of Sampled Component Spectra: 1
Spectrometers: USB2+H05261
Integration Time (usec): 100000 (USB2+H05261)
Spectra Averaged: 1 (USB2+H05261)
Boxcar Smoothing: 0 (USB2+H05261)
Correct for Electrical Dark: No (USB2+H05261)
Strobe/Lamp Enabled: No (USB2+H05261)
Correct for Detector Non-linearity: No (USB2+H05261)
Correct for Stray Light: No (USB2+H05261)
Number of Pixels in Processed Spectrum: 2048
>>>>>Begin Processed Spectral Data<<<<<
365.73	0.00
365.92	0.00
366.12	0.00
366.32	18.72
366.52	0.00
366.72	0.00
366.91	0.00
367.11	0.00
367.31	0.00
367.51	0.00
367.70	0.00
367.90	0.00
368.10	0.00
368.30	0.00
368.49	0.00
368.69	0.00
368.89	0.00
369.09	0.00
369.28	0.00
369.48	0.00
369.68	0.00
369.87	0.00
370.07	0.00
370.27	18.72
370.47	23.41
370.66	0.00
370.86	72.56
371.06	124.05
371.25	114.69
371.45	42.13
371.65	84.26
371.84	37.45
372.04	53.83
372.24	86.60
372.44	56.17
372.63	14.04
372.83	84.26
373.03	180.22
373.22	140.43
373.42	28.09
373.62	105.32
373.81	60.85
374.01	93.62
374.21	173.20
374.40	128.73
374.60	149.79
374.79	88.94
374.99	147.45
375.19	86.60
375.38	128.73
375.58	173.20
375.78	168.52
375.97	184.90
376.17	210.65
376.37	135.75
376.56	135.75
376.76	126.39
376.95	135.75
377.15	105.32
377.35	124.05
377.54	51.49
377.74	28.09
377.93	100.64
378.13	100.64
378.33	114.69
378.52	91.28
378.72	74.90
378.91	140.43
379.11	72.56
379.31	117.03
379.50	168.52
379.70	142.77
379.89	184.90
380.09	56.17
380.28	56.17
380.48	91.28
380.68	60.85
380.87	63.19
381.07	91.28
381.26	170.86
381.46	152.13
381.65	93.62
381.85	58.51
382.04	154.48
382.24	100.64
382.43	79.58
382.63	131.07
382.83	119.37
383.02	175.54
383.22	135.75
383.41	100.64
383.61	112.35
383.80	88.94
384.00	133.41
384.19	72.56
384.39	93.62
384.58	95.96
384.78	110.01
384.97	135.75
385.17	86.60
385.36	70.22
385.56	135.75
385.75	51.49
385.95	95.96
386.14	215.33
386.34	112.35
386.53	110.01
386.72	154.48
386.92	131.07
387.11	124.05
387.31	112.35
387.50	28.09
387.70	117.03
387.89	159.16
388.09	131.07
388.28	67.88
388.48	135.75
388.67	133.41
388.86	63.19
389.06	100.64
389.25	126.39
389.45	161.50
389.64	166.18
389.84	117.03
390.03	166.18
390.22	128.73
390.42	100.64
390.61	145.11
390.81	2.34
391.00	23.41
391.19	121.71
391.39	177.88
391.58	149.79
391.78	126.39
391.97	145.11
392.16	84.26
392.36	170.86
392.55	81.92
392.75	84.26
392.94	88.94
393.13	128.73
393.33	81.92
393.52	39.79
393.71	117.03
393.91	145.11
394.10	46.81
394.29	65.54
394.49	86.60
394.68	98.30
394.88	81.92
395.07	72.56
395.26	110.01
395.46	126.39
395.65	152.13
395.84	131.07
396.04	170.86
396.23	74.90
396.42	107.66
396.62	142.77
396.81	124.05
397.00	91.28
397.19	107.66
397.39	107.66
397.58	126.39
397.77	107.66
397.97	84.26
398.16	77.24
398.35	131.07
398.55	98.30
398.74	187.24
398.93	100.64
399.12	98.30
399.32	110.01
399.51	84.26
399.70	58.51
399.90	107.66
400.09	154.48
400.28	138.09
400.47	117.03
400.67	163.84
400.86	140.43
401.05	168.52
401.24	135.75
401.44	56.17
401.63	168.52
401.82	196.60
402.01	119.37
402.21	187.24
402.40	35.11
402.59	191.92
402.78	117.03
402.97	145.11
403.17	49.15
403.36	105.32
403.55	91.28
403.74	170.86
403.93	117.03
404.13	205.97
404.32	180.22
404.51	203.63
404.70	175.54
404.89	161.50
405.09	245.76
405.28	152.13
405.47	114.69
405.66	100.64
405.85	140.43
406.05	163.84
406.24	126.39
406.43	145.11
406.62	124.05
406.81	117.03
407.00	98.30
407.20	95.96
407.39	217.67
407.58	37.45
407.77	189.58
407.96	102.98
408.15	159.16
408.34	95.96
408.54	145.11
408.73	198.95
408.92	86.60
409.11	222.35
409.30	149.79
409.49	142.77
409.68	147.45
409.87	133.41
410.07	124.05
410.26	124.05
410.45	110.01
410.64	107.66
410.83	131.07
411.02	138.09
411.21	95.96
411.40	184.90
411.59	149.79
411.78	194.26
411.98	205.97
412.17	102.98
412.36	88.94
412.55	98.30
412.74	126.39
412.93	98.30
413.12	156.82
413.31	215.33
413.50	156.82
413.69	107.66
413.88	95.96
414.07	124.05
414.26	84.26
414.45	72.56
414.64	163.84
414.83	138.09
415.02	177.88
415.22	173.20
415.41	173.20
415.60	117.03
415.79	131.07
415.98	175.54
416.17	180.22
416.36	124.05
416.55	117.03
416.74	220.01
416.93	184.90
417.12	126.39
417.31	149.79
417.50	170.86
417.69	236.39
417.88	180.22
418.07	135.75
418.26	81.92
418.45	107.66
418.64	163.84
418.83	121.71
419.02	184.90
419.21	161.50
419.39	140.43
419.58	126.39
419.77	234.05
419.96	133.41
420.15	215.33
420.34	140.43
420.53	161.50
420.72	149.79
420.91	154.48
421.10	196.60
421.29	198.95
421.48	154.48
421.67	114.69
421.86	163.84
422.05	187.24
422.24	128.73
422.43	196.60
422.61	189.58
422.80	184.90
422.99	102.98
423.18	70.22
423.37	231.71
423.56	177.88
423.75	154.48
423.94	154.48
424.13	170.86
424.32	210.65
424.50	126.39
424.69	95.96
424.88	201.29
425.07	107.66
425.26	95.96
425.45	145.11
425.64	173.20
425.83	161.50
426.01	163.84
426.20	159.16
426.39	168.52
426.58	138.09
426.77	152.13
426.96	135.75
427.15	102.98
427.33	163.84
427.52	177.88
427.71	152.13
427.90	159.16
428.09	105.32
428.28	65.54
428.46	95.96
428.65	149.79
428.84	142.77
429.03	107.66
429.22	65.54
429.40	51.49
429.59	117.03
429.78	170.86
429.97	168.52
430.16	138.09
430.34	163.84
430.53	163.84
430.72	191.92
430.91	191.92
431.10	124.05
431.28	170.86
431.47	182.56
431.66	208.31
431.85	177.88
432.03	84.26
432.22	215.33
432.41	77.24
432.60	245.76
432.79	156.82
432.97	168.52
433.16	184.90
433.35	93.62
433.54	170.86
433.72	203.63
433.91	156.82
434.10	163.84
434.28	215.33
434.47	184.90
434.66	187.24
434.85	208.31
435.03	222.35
435.22	334.70
435.41	458.74
435.59	397.89
435.78	306.61
435.97	238.73
436.16	241.08
436.34	177.88
436.53	128.73
436.72	170.86
436.90	173.20
437.09	208.31
437.28	168.52
437.46	135.75
437.65	212.99
437.84	210.65
438.02	248.10
438.21	95.96
438.40	140.43
438.58	72.56
438.77	168.52
438.96	187.24
439.14	133.41
439.33	194.26
439.52	98.30
439.70	173.20
439.89	173.20
440.08	180.22
440.26	189.58
440.45	212.99
440.63	177.88
440.82	142.77
441.01	194.26
441.19	114.69
441.38	222.35
441.57	191.92
441.75	175.54
441.94	264.48
442.12	215.33
442.31	147.45
442.50	138.09
442.68	105.32
442.87	271.50
443.05	98.30
443.24	203.63
443.43	250.44
443.61	189.58
443.80	177.88
443.98	110.01
444.17	140.43
444.35	231.71
444.54	184.90
444.73	184.90
444.91	180.22
445.10	163.84
445.28	170.86
445.47	175.54
445.65	142.77
445.84	72.56
446.02	175.54
446.21	133.41
446.39	161.50
446.58	182.56
446.77	131.07
446.95	163.84
447.14	140.43
447.32	196.60
447.51	238.73
447.69	203.63
447.88	154.48
448.06	229.37
448.25	173.20
448.43	133.41
448.62	74.90
448.80	163.84
448.99	159.16
449.17	140.43
449.36	145.11
449.54	124.05
449.73	145.11
449.91	236.39
450.10	187.24
450.28	262.14
450.46	243.42
450.65	159.16
450.83	149.79
451.02	128.73
451.20	135.75
451.39	191.92
451.57	154.48
451.76	117.03
451.94	138.09
452.13	229.37
452.31	222.35
452.49	159.16
452.68	133.41
452.86	217.67
453.05	182.56
453.23	243.42
453.42	203.63
453.60	154.48
453.78	210.65
453.97	149.79
454.15	128.73
454.34	196.60
454.52	131.07
454.70	236.39
454.89	156.82
455.07	180.22
455.26	173.20
455.44	107.66
455.62	220.01
455.81	177.88
455.99	304.27
456.17	198.95
456.36	173.20
456.54	163.84
456.73	187.24
456.91	210.65
457.09	182.56
457.28	238.73
457.46	271.50
457.64	187.24
457.83	215.33
458.01	217.67
458.19	180.22
458.38	250.44
458.56	177.88
458.74	145.11
458.93	154.48
459.11	210.65
459.29	173.20
459.48	255.12
459.66	231.71
459.84	231.71
460.03	266.82
460.21	201.29
460.39	154.48
460.57	269.16
460.76	184.90
460.94	149.79
461.12	173.20
461.31	187.24
461.49	119.37
461.67	131.07
461.85	194.26
462.04	194.26
462.22	685.78
462.40	238.73
462.59	154.48
462.77	229.37
462.95	173.20
463.13	170.86
463.32	229.37
463.50	173.20
463.68	187.24
463.86	243.42
464.05	180.22
464.23	222.35
464.41	198.95
464.59	110.01
464.78	215.33
464.96	205.97
465.14	198.95
465.32	168.52
465.50	259.80
465.69	210.65
465.87	159.16
466.05	147.45
466.23	154.48
466.41	175.54
466.60	149.79
466.78	215.33
466.96	182.56
467.14	142.77
467.32	184.90
467.51	161.50
467.69	280.86
467.87	205.97
468.05	220.01
468.23	292.57
468.41	205.97
468.60	166.18
468.78	243.42
468.96	145.11
469.14	201.29
469.32	189.58
469.50	191.92
469.69	175.54
469.87	168.52
470.05	189.58
470.23	245.76
470.41	159.16
470.59	156.82
470.77	220.01
470.95	217.67
471.14	191.92
471.32	175.54
471.50	248.10
471.68	194.26
471.86	166.18
472.04	161.50
472.22	112.35
472.40	149.79
472.58	180.22
472.77	189.58
472.95	201.29
473.13	156.82
473.31	264.48
473.49	180.22
473.67	156.82
473.85	205.97
474.03	224.69
474.21	173.20
474.39	217.67
474.57	198.95
474.75	184.90
474.93	229.37
475.12	163.84
475.30	189.58
475.48	121.71
475.66	203.63
475.84	210.65
476.02	241.08
476.20	184.90
476.38	220.01
476.56	241.08
476.74	215.33
476.92	175.54
477.10	163.84
477.28	189.58
477.46	163.84
477.64	212.99
477.82	212.99
478.00	217.67
478.18	245.76
478.36	248.10
478.54	220.01
478.72	224.69
478.90	145.11
479.08	257.46
479.26	208.31
479.44	196.60
479.62	191.92
479.80	205.97
479.98	262.14
480.16	201.29
480.34	203.63
480.52	271.50
480.70	252.78
480.88	217.67
481.06	257.46
481.24	138.09
481.41	203.63
481.59	198.95
481.77	224.69
481.95	220.01
482.13	194.26
482.31	224.69
482.49	252.78
482.67	266.82
482.85	266.82
483.03	168.52
483.21	180.22
483.39	269.16
483.57	224.69
483.74	285.55
483.92	217.67
484.10	191.92
484.28	238.73
484.46	306.61
484.64	306.61
484.82	294.91
485.00	189.58
485.18	245.76
485.35	255.12
485.53	191.92
485.71	334.70
485.89	196.60
486.07	236.39
486.25	304.27
486.43	304.27
486.61	278.52
486.78	231.71
486.96	222.35
487.14	264.48
487.32	311.29
487.50	273.84
487.68	339.38
487.85	191.92
488.03	241.08
488.21	280.86
488.39	297.25
488.57	222.35
488.75	252.78
488.92	463.43
489.10	266.82
489.28	292.57
489.46	278.52
489.64	227.03
489.81	208.31
489.99	252.78
490.17	418.96
490.35	330.02
490.53	266.82
490.70	196.60
490.88	297.25
491.06	231.71
491.24	245.76
491.41	299.59
491.59	255.12
491.77	290.23
491.95	229.37
492.13	255.12
492.30	227.03
492.48	266.82
492.66	266.82
492.84	311.29
493.01	283.20
493.19	182.56
493.37	266.82
493.54	271.50
493.72	262.14
493.90	301.93
494.08	301.93
494.25	294.91
494.43	362.78
494.61	248.10
494.79	271.50
494.96	325.33
495.14	334.70
495.32	255.12
495.49	257.46
495.67	320.65
495.85	313.63
496.02	273.84
496.20	330.02
496.38	304.27
496.55	311.29
496.73	334.70
496.91	297.25
497.09	330.02
497.26	234.05
497.44	273.84
497.62	280.86
497.79	252.78
497.97	308.95
498.14	304.27
498.32	222.35
498.50	276.18
498.67	248.10
498.85	297.25
499.03	224.69
499.20	285.55
499.38	280.86
499.56	294.91
499.73	266.82
499.91	332.36
500.08	255.12
500.26	266.82
500.44	224.69
500.61	248.10
500.79	278.52
500.97	276.18
501.14	348.74
501.32	297.25
501.49	283.20
501.67	189.58
501.84	271.50
502.02	234.05
502.20	318.31
502.37	311.29
502.55	294.91
502.72	285.55
502.90	313.63
503.07	280.86
503.25	234.05
503.43	280.86
503.60	201.29
503.78	198.95
503.95	210.65
504.13	269.16
504.30	339.38
504.48	285.55
504.65	337.04
504.83	259.80
505.01	201.29
505.18	266.82
505.36	280.86
505.53	220.01
505.71	241.08
505.88	308.95
506.06	259.80
506.23	290.23
506.41	196.60
506.58	285.55
506.76	264.48
506.93	266.82
507.11	339.38
507.28	322.99
507.46	205.97
507.63	259.80
507.81	339.38
507.98	273.84
508.16	285.55
508.33	266.82
508.50	301.93
508.68	276.18
508.85	339.38
509.03	290.23
509.20	315.97
509.38	292.57
509.55	337.04
509.73	376.83
509.90	360.44
510.08	304.27
510.25	287.89
510.42	259.80
510.60	400.23
510.77	285.55
510.95	332.36
511.12	315.97
511.30	315.97
511.47	334.70
511.64	337.04
511.82	259.80
511.99	252.78
512.17	262.14
512.34	224.69
512.51	273.84
512.69	266.82
512.86	311.29
513.04	332.36
513.21	276.18
513.38	220.01
513.56	292.57
513.73	280.86
513.90	220.01
514.08	234.05
514.25	287.89
514.43	365.12
514.60	234.05
514.77	248.10
514.95	276.18
515.12	252.78
515.29	330.02
515.47	231.71
515.64	304.27
515.81	224.69
515.99	306.61
516.16	315.97
516.33	306.61
516.51	241.08
516.68	196.60
516.85	236.39
517.03	241.08
517.20	304.27
517.37	311.29
517.54	330.02
517.72	325.33
517.89	318.31
518.06	203.63
518.24	376.83
518.41	210.65
518.58	301.93
518.75	255.12
518.93	208.31
519.10	285.55
519.27	252.78
519.45	245.76
519.62	334.70
519.79	238.73
519.96	330.02
520.14	318.31
520.31	322.99
520.48	294.91
520.65	238.73
520.83	231.71
521.00	273.84
521.17	304.27
521.34	297.25
521.52	257.46
521.69	339.38
521.86	224.69
522.03	266.82
522.20	315.97
522.38	313.63
522.55	308.95
522.72	227.03
522.89	262.14
523.07	341.72
523.24	297.25
523.41	292.57
523.58	280.86
523.75	301.93
523.92	269.16
524.10	353.42
524.27	301.93
524.44	320.65
524.61	308.95
524.78	320.65
524.96	367.46
525.13	334.70
525.30	297.25
525.47	224.69
525.64	266.82
525.81	297.25
525.98	252.78
526.16	276.18
526.33	308.95
526.50	234.05
526.67	238.73
526.84	283.20
527.01	250.44
527.18	280.86
527.36	271.50
527.53	222.35
527.70	229.37
527.87	250.44
528.04	390.87
528.21	278.52
528.38	304.27
528.55	259.80
528.72	294.91
528.89	376.83
529.07	290.23
529.24	287.89
529.41	327.68
529.58	344.06
529.75	280.86
529.92	337.04
530.09	313.63
530.26	330.02
530.43	346.40
530.60	418.96
530.77	297.25
530.94	308.95
531.11	367.46
531.28	299.59
531.46	320.65
531.63	248.10
531.80	304.27
531.97	334.70
532.14	283.20
532.31	365.12
532.48	341.72
532.65	182.56
532.82	248.10
532.99	292.57
533.16	308.95
533.33	266.82
533.50	283.20
533.67	318.31
533.84	334.70
534.01	334.70
534.18	351.08
534.35	346.40
534.52	308.95
534.69	346.40
534.86	320.65
535.03	320.65
535.20	234.05
535.37	315.97
535.54	390.87
535.71	325.33
535.88	353.42
536.05	229.37
536.22	301.93
536.38	346.40
536.55	341.72
536.72	322.99
536.89	217.67
537.06	299.59
537.23	308.95
537.40	245.76
537.57	227.03
537.74	346.40
537.91	390.87
538.08	301.93
538.25	318.31
538.42	393.21
538.59	334.70
538.75	304.27
538.92	355.76
539.09	407.25
539.26	430.66
539.43	407.25
539.60	358.10
539.77	383.85
539.94	376.83
540.11	430.66
540.28	468.11
540.44	484.49
540.61	451.72
540.78	440.02
540.95	435.34
541.12	557.05
541.29	535.98
541.46	727.91
541.62	596.84
541.79	596.84
541.96	585.13
542.13	606.20
542.30	517.26
542.47	554.71
542.63	533.64
542.80	538.32
542.97	510.24
543.14	599.18
543.31	517.26
543.48	564.07
543.64	592.16
543.81	620.24
543.98	526.62
544.15	512.58
544.32	578.11
544.48	592.16
544.65	554.71
544.82	496.19
544.99	512.58
545.16	505.56
545.32	498.53
545.49	858.98
545.66	985.37
545.83	1111.75
546.00	912.81
546.16	727.91
546.33	603.86
546.50	491.51
546.67	447.04
546.83	528.96
547.00	414.27
547.17	496.19
547.34	456.40
547.50	491.51
547.67	390.87
547.84	372.15
548.00	409.59
548.17	402.57
548.34	409.59
548.51	447.04
548.67	435.34
548.84	351.08
549.01	400.23
549.18	404.91
549.34	369.80
549.51	376.83
549.68	458.74
549.84	315.97
550.01	344.06
550.18	425.98
550.34	437.68
550.51	437.68
550.68	475.13
550.84	330.02
551.01	322.99
551.18	402.57
551.34	278.52
551.51	327.68
551.68	362.78
551.84	353.42
552.01	301.93
552.18	365.12
552.34	306.61
552.51	313.63
552.68	269.16
552.84	280.86
553.01	414.27
553.18	322.99
553.34	346.40
553.51	297.25
553.67	308.95
553.84	421.30
554.01	348.74
554.17	367.46
554.34	290.23
554.51	280.86
554.67	348.74
554.84	414.27
555.00	337.04
555.17	383.85
555.33	283.20
555.50	299.59
555.67	348.74
555.83	271.50
556.00	264.48
556.16	479.81
556.33	353.42
556.50	299.59
556.66	294.91
556.83	252.78
556.99	243.42
557.16	271.50
557.32	306.61
557.49	245.76
557.65	325.33
557.82	273.84
557.98	301.93
558.15	351.08
558.32	337.04
558.48	327.68
558.65	290.23
558.81	304.27
558.98	290.23
559.14	290.23
559.31	337.04
559.47	358.10
559.64	285.55
559.80	280.86
559.97	264.48
560.13	252.78
560.30	365.12
560.46	306.61
560.63	299.59
560.79	294.91
560.96	287.89
561.12	229.37
561.29	332.36
561.45	297.25
561.61	245.76
561.78	379.17
561.94	262.14
562.11	241.08
562.27	287.89
562.44	290.23
562.60	212.99
562.77	255.12
562.93	468.11
563.10	252.78
563.26	152.13
563.42	315.97
563.59	320.65
563.75	285.55
563.92	327.68
564.08	236.39
564.24	322.99
564.41	318.31
564.57	262.14
564.74	337.04
564.90	337.04
565.07	301.93
565.23	278.52
565.39	248.10
565.56	297.25
565.72	322.99
565.88	280.86
566.05	250.44
566.21	262.14
566.38	344.06
566.54	252.78
566.70	243.42
566.87	266.82
567.03	205.97
567.19	269.16
567.36	238.73
567.52	231.71
567.68	182.56
567.85	238.73
568.01	215.33
568.17	173.20
568.34	262.14
568.50	290.23
568.66	220.01
568.83	369.80
568.99	299.59
569.15	351.08
569.32	205.97
569.48	234.05
569.64	163.84
569.81	248.10
569.97	234.05
570.13	297.25
570.30	325.33
570.46	220.01
570.62	262.14
570.78	301.93
570.95	231.71
571.11	304.27
571.27	318.31
571.43	276.18
571.60	346.40
571.76	315.97
571.92	255.12
572.09	325.33
572.25	269.16
572.41	241.08
572.57	257.46
572.74	325.33
572.90	287.89
573.06	276.18
573.22	238.73
573.38	318.31
573.55	306.61
573.71	330.02
573.87	299.59
574.03	255.12
574.20	266.82
574.36	255.12
574.52	290.23
574.68	280.86
574.84	215.33
575.01	271.50
575.17	220.01
575.33	248.10
575.49	283.20
575.65	227.03
575.82	259.80
575.98	379.17
576.14	278.52
576.30	243.42
576.46	372.15
576.62	430.66
576.79	414.27
576.95	353.42
577.11	351.08
577.27	337.04
577.43	271.50
577.59	346.40
577.75	346.40
577.92	276.18
578.08	257.46
578.24	280.86
578.40	358.10
578.56	388.53
578.72	433.00
578.88	402.57
579.04	372.15
579.21	299.59
579.37	306.61
579.53	259.80
579.69	386.19
579.85	299.59
580.01	372.15
580.17	280.86
580.33	327.68
580.49	285.55
580.65	285.55
580.82	283.20
580.98	341.72
581.14	299.59
581.30	252.78
581.46	297.25
581.62	304.27
581.78	231.71
581.94	304.27
582.10	327.68
582.26	280.86
582.42	337.04
582.58	379.17
582.74	374.49
582.90	339.38
583.06	344.06
583.22	297.25
583.38	285.55
583.54	280.86
583.70	369.80
583.86	287.89
584.02	313.63
584.18	337.04
584.34	325.33
584.50	372.15
584.66	315.97
584.82	266.82
584.98	353.42
585.14	383.85
585.30	332.36
585.46	367.46
585.62	365.12
585.78	252.78
585.94	262.14
586.10	264.48
586.26	351.08
586.42	376.83
586.58	428.32
586.74	376.83
586.90	304.27
587.06	327.68
587.22	379.17
587.38	311.29
587.54	271.50
587.70	294.91
587.86	339.38
588.02	304.27
588.18	280.86
588.34	287.89
588.49	229.37
588.65	280.86
588.81	276.18
588.97	177.88
589.13	276.18
589.29	266.82
589.45	306.61
589.61	175.54
589.77	327.68
589.93	259.80
590.08	245.76
590.24	248.10
590.40	264.48
590.56	262.14
590.72	248.10
590.88	205.97
591.04	362.78
591.20	222.35
591.35	283.20
591.51	294.91
591.67	306.61
591.83	273.84
591.99	308.95
592.15	390.87
592.31	327.68
592.46	248.10
592.62	344.06
592.78	313.63
592.94	367.46
593.10	304.27
593.26	315.97
593.41	337.04
593.57	234.05
593.73	262.14
593.89	339.38
594.05	220.01
594.20	255.12
594.36	266.82
594.52	308.95
594.68	187.24
594.84	248.10
594.99	372.15
595.15	283.20
595.31	273.84
595.47	264.48
595.62	248.10
595.78	311.29
595.94	245.76
596.10	388.53
596.25	241.08
596.41	313.63
596.57	273.84
596.73	196.60
596.88	252.78
597.04	379.17
597.20	313.63
597.36	388.53
597.51	332.36
597.67	322.99
597.83	297.25
597.99	304.27
598.14	337.04
598.30	332.36
598.46	285.55
598.61	325.33
598.77	351.08
598.93	318.31
599.09	231.71
599.24	365.12
599.40	355.76
599.56	308.95
599.71	222.35
599.87	248.10
600.03	351.08
600.18	348.74
600.34	367.46
600.50	294.91
600.65	292.57
600.81	315.97
600.97	351.08
601.12	283.20
601.28	299.59
601.44	325.33
601.59	229.37
601.75	285.55
601.91	362.78
602.06	292.57
602.22	330.02
602.37	369.80
602.53	294.91
602.69	259.80
602.84	299.59
603.00	327.68
603.16	205.97
603.31	259.80
603.47	271.50
603.62	304.27
603.78	252.78
603.94	346.40
604.09	287.89
604.25	327.68
604.40	215.33
604.56	271.50
604.71	297.25
604.87	236.39
605.03	250.44
605.18	276.18
605.34	318.31
605.49	227.03
605.65	262.14
605.80	243.42
605.96	334.70
606.12	344.06
606.27	325.33
606.43	255.12
606.58	325.33
606.74	184.90
606.89	334.70
607.05	362.78
607.20	308.95
607.36	360.44
607.51	339.38
607.67	346.40
607.82	294.91
607.98	348.74
608.13	351.08
608.29	404.91
608.44	348.74
608.60	353.42
608.75	395.55
608.91	468.11
609.06	393.21
609.22	435.34
609.37	470.45
609.53	468.11
609.68	433.00
609.84	519.60
609.99	510.24
610.15	561.73
610.30	655.35
610.46	788.76
610.61	908.13
610.76	1100.05
610.92	1303.68
611.07	1207.72
611.23	1420.71
611.38	1252.19
611.54	968.98
611.69	997.07
