SpectraSuite Data File
++++++++++++++++++++++++++++++++++++
Date: Fri Oct 04 11:42:27 GMT-05:00 2013
User: price-jones
Dark Spectrum Present: No
Reference Spectrum Present: No
Number of Sampled Component Spectra: 1
Spectrometers: USB2+H05261
Integration Time (usec): 100000 (USB2+H05261)
Spectra Averaged: 1 (USB2+H05261)
Boxcar Smoothing: 0 (USB2+H05261)
Correct for Electrical Dark: No (USB2+H05261)
Strobe/Lamp Enabled: No (USB2+H05261)
Correct for Detector Non-linearity: No (USB2+H05261)
Correct for Stray Light: No (USB2+H05261)
Number of Pixels in Processed Spectrum: 2048
>>>>>Begin Processed Spectral Data<<<<<
365.73	67.88
365.92	67.88
366.12	67.88
366.32	0.00
366.52	16.38
366.72	0.00
366.91	0.00
367.11	0.00
367.31	0.00
367.51	0.00
367.70	0.00
367.90	0.00
368.10	0.00
368.30	0.00
368.49	0.00
368.69	0.00
368.89	0.00
369.09	0.00
369.28	0.00
369.48	0.00
369.68	0.00
369.87	0.00
370.07	0.00
370.27	0.00
370.47	16.38
370.66	37.45
370.86	44.47
371.06	100.64
371.25	0.00
371.45	79.58
371.65	51.49
371.84	112.35
372.04	0.00
372.24	149.79
372.44	42.13
372.63	93.62
372.83	81.92
373.03	124.05
373.22	49.15
373.42	154.48
373.62	182.56
373.81	121.71
374.01	81.92
374.21	163.84
374.40	95.96
374.60	152.13
374.79	121.71
374.99	51.49
375.19	102.98
375.38	128.73
375.58	126.39
375.78	170.86
375.97	147.45
376.17	161.50
376.37	81.92
376.56	72.56
376.76	65.54
376.95	173.20
377.15	173.20
377.35	67.88
377.54	180.22
377.74	102.98
377.93	65.54
378.13	65.54
378.33	166.18
378.52	18.72
378.72	93.62
378.91	119.37
379.11	51.49
379.31	126.39
379.50	121.71
379.70	138.09
379.89	131.07
380.09	88.94
380.28	74.90
380.48	74.90
380.68	100.64
380.87	86.60
381.07	44.47
381.26	74.90
381.46	42.13
381.65	121.71
381.85	88.94
382.04	119.37
382.24	53.83
382.43	105.32
382.63	70.22
382.83	72.56
383.02	145.11
383.22	88.94
383.41	70.22
383.61	86.60
383.80	72.56
384.00	133.41
384.19	95.96
384.39	119.37
384.58	51.49
384.78	117.03
384.97	42.13
385.17	79.58
385.36	86.60
385.56	156.82
385.75	35.11
385.95	77.24
386.14	102.98
386.34	63.19
386.53	131.07
386.72	117.03
386.92	114.69
387.11	86.60
387.31	93.62
387.50	124.05
387.70	81.92
387.89	65.54
388.09	110.01
388.28	32.77
388.48	124.05
388.67	166.18
388.86	42.13
389.06	131.07
389.25	145.11
389.45	58.51
389.64	58.51
389.84	149.79
390.03	93.62
390.22	119.37
390.42	98.30
390.61	105.32
390.81	81.92
391.00	107.66
391.19	79.58
391.39	51.49
391.58	67.88
391.78	131.07
391.97	126.39
392.16	121.71
392.36	138.09
392.55	131.07
392.75	140.43
392.94	105.32
393.13	110.01
393.33	63.19
393.52	140.43
393.71	166.18
393.91	168.52
394.10	112.35
394.29	133.41
394.49	51.49
394.68	163.84
394.88	98.30
395.07	93.62
395.26	173.20
395.46	65.54
395.65	147.45
395.84	49.15
396.04	227.03
396.23	98.30
396.42	65.54
396.62	100.64
396.81	98.30
397.00	30.43
397.19	98.30
397.39	110.01
397.58	117.03
397.77	84.26
397.97	95.96
398.16	53.83
398.35	117.03
398.55	100.64
398.74	105.32
398.93	112.35
399.12	124.05
399.32	65.54
399.51	121.71
399.70	112.35
399.90	91.28
400.09	105.32
400.28	180.22
400.47	58.51
400.67	67.88
400.86	128.73
401.05	131.07
401.24	117.03
401.44	63.19
401.63	126.39
401.82	177.88
402.01	112.35
402.21	70.22
402.40	107.66
402.59	105.32
402.78	142.77
402.97	112.35
403.17	112.35
403.36	133.41
403.55	117.03
403.74	114.69
403.93	142.77
404.13	210.65
404.32	257.46
404.51	234.05
404.70	117.03
404.89	124.05
405.09	93.62
405.28	114.69
405.47	161.50
405.66	154.48
405.85	77.24
406.05	166.18
406.24	154.48
406.43	88.94
406.62	140.43
406.81	100.64
407.00	95.96
407.20	145.11
407.39	152.13
407.58	112.35
407.77	163.84
407.96	51.49
408.15	194.26
408.34	145.11
408.54	126.39
408.73	161.50
408.92	67.88
409.11	166.18
409.30	163.84
409.49	121.71
409.68	124.05
409.87	107.66
410.07	60.85
410.26	145.11
410.45	79.58
410.64	21.06
410.83	112.35
411.02	77.24
411.21	142.77
411.40	191.92
411.59	173.20
411.78	133.41
411.98	110.01
412.17	156.82
412.36	72.56
412.55	161.50
412.74	124.05
412.93	191.92
413.12	149.79
413.31	168.52
413.50	161.50
413.69	170.86
413.88	147.45
414.07	128.73
414.26	95.96
414.45	163.84
414.64	203.63
414.83	140.43
415.02	131.07
415.22	110.01
415.41	191.92
415.60	140.43
415.79	124.05
415.98	152.13
416.17	154.48
416.36	88.94
416.55	105.32
416.74	84.26
416.93	138.09
417.12	149.79
417.31	117.03
417.50	154.48
417.69	175.54
417.88	95.96
418.07	98.30
418.26	163.84
418.45	161.50
418.64	135.75
418.83	201.29
419.02	217.67
419.21	145.11
419.39	168.52
419.58	131.07
419.77	110.01
419.96	161.50
420.15	142.77
420.34	98.30
420.53	145.11
420.72	159.16
420.91	163.84
421.10	189.58
421.29	177.88
421.48	156.82
421.67	187.24
421.86	173.20
422.05	161.50
422.24	100.64
422.43	187.24
422.61	72.56
422.80	154.48
422.99	128.73
423.18	142.77
423.37	168.52
423.56	198.95
423.75	156.82
423.94	112.35
424.13	110.01
424.32	140.43
424.50	149.79
424.69	180.22
424.88	159.16
425.07	131.07
425.26	147.45
425.45	156.82
425.64	182.56
425.83	102.98
426.01	154.48
426.20	229.37
426.39	163.84
426.58	189.58
426.77	217.67
426.96	140.43
427.15	163.84
427.33	131.07
427.52	161.50
427.71	135.75
427.90	215.33
428.09	112.35
428.28	147.45
428.46	149.79
428.65	102.98
428.84	189.58
429.03	212.99
429.22	121.71
429.40	102.98
429.59	93.62
429.78	222.35
429.97	105.32
430.16	194.26
430.34	184.90
430.53	128.73
430.72	163.84
430.91	212.99
431.10	140.43
431.28	175.54
431.47	222.35
431.66	138.09
431.85	72.56
432.03	147.45
432.22	154.48
432.41	74.90
432.60	210.65
432.79	166.18
432.97	161.50
433.16	93.62
433.35	95.96
433.54	95.96
433.72	149.79
433.91	124.05
434.10	135.75
434.28	159.16
434.47	159.16
434.66	262.14
434.85	184.90
435.03	297.25
435.22	557.05
435.41	978.34
435.59	1093.03
435.78	863.66
435.97	416.62
436.16	241.08
436.34	187.24
436.53	222.35
436.72	163.84
436.90	257.46
437.09	194.26
437.28	184.90
437.46	191.92
437.65	142.77
437.84	161.50
438.02	140.43
438.21	159.16
438.40	124.05
438.58	166.18
438.77	133.41
438.96	201.29
439.14	124.05
439.33	161.50
439.52	180.22
439.70	229.37
439.89	255.12
440.08	168.52
440.26	227.03
440.45	168.52
440.63	140.43
440.82	135.75
441.01	201.29
441.19	110.01
441.38	177.88
441.57	191.92
441.75	131.07
441.94	180.22
442.12	177.88
442.31	205.97
442.50	152.13
442.68	217.67
442.87	215.33
443.05	156.82
443.24	145.11
443.43	271.50
443.61	250.44
443.80	170.86
443.98	175.54
444.17	152.13
444.35	128.73
444.54	180.22
444.73	159.16
444.91	215.33
445.10	203.63
445.28	173.20
445.47	95.96
445.65	194.26
445.84	154.48
446.02	168.52
446.21	170.86
446.39	187.24
446.58	161.50
446.77	205.97
446.95	138.09
447.14	147.45
447.32	168.52
447.51	156.82
447.69	166.18
447.88	189.58
448.06	243.42
448.25	187.24
448.43	156.82
448.62	117.03
448.80	140.43
448.99	224.69
449.17	222.35
449.36	147.45
449.54	100.64
449.73	173.20
449.91	131.07
450.10	196.60
450.28	184.90
450.46	212.99
450.65	210.65
450.83	205.97
451.02	184.90
451.20	152.13
451.39	222.35
451.57	119.37
451.76	114.69
451.94	231.71
452.13	119.37
452.31	287.89
452.49	142.77
452.68	140.43
452.86	196.60
453.05	255.12
453.23	168.52
453.42	128.73
453.60	154.48
453.78	194.26
453.97	131.07
454.15	177.88
454.34	163.84
454.52	154.48
454.70	229.37
454.89	196.60
455.07	77.24
455.26	161.50
455.44	198.95
455.62	184.90
455.81	210.65
455.99	248.10
456.17	177.88
456.36	86.60
456.54	126.39
456.73	147.45
456.91	203.63
457.09	191.92
457.28	191.92
457.46	177.88
457.64	205.97
457.83	175.54
458.01	159.16
458.19	152.13
458.38	163.84
458.56	180.22
458.74	196.60
458.93	114.69
459.11	152.13
459.29	119.37
459.48	217.67
459.66	243.42
459.84	245.76
460.03	224.69
460.21	201.29
460.39	114.69
460.57	175.54
460.76	166.18
460.94	154.48
461.12	191.92
461.31	187.24
461.49	210.65
461.67	126.39
461.85	133.41
462.04	217.67
462.22	341.72
462.40	191.92
462.59	170.86
462.77	117.03
462.95	231.71
463.13	133.41
463.32	201.29
463.50	156.82
463.68	142.77
463.86	196.60
464.05	140.43
464.23	210.65
464.41	131.07
464.59	215.33
464.78	177.88
464.96	117.03
465.14	231.71
465.32	166.18
465.50	180.22
465.69	205.97
465.87	168.52
466.05	175.54
466.23	98.30
466.41	259.80
466.60	119.37
466.78	110.01
466.96	152.13
467.14	182.56
467.32	159.16
467.51	224.69
467.69	149.79
467.87	196.60
468.05	107.66
468.23	264.48
468.41	191.92
468.60	152.13
468.78	212.99
468.96	145.11
469.14	149.79
469.32	128.73
469.50	166.18
469.69	205.97
469.87	191.92
470.05	220.01
470.23	93.62
470.41	124.05
470.59	159.16
470.77	262.14
470.95	152.13
471.14	201.29
471.32	203.63
471.50	252.78
471.68	159.16
471.86	180.22
472.04	201.29
472.22	182.56
472.40	128.73
472.58	107.66
472.77	163.84
472.95	114.69
473.13	187.24
473.31	227.03
473.49	154.48
473.67	182.56
473.85	131.07
474.03	140.43
474.21	161.50
474.39	168.52
474.57	250.44
474.75	196.60
474.93	159.16
475.12	154.48
475.30	166.18
475.48	208.31
475.66	177.88
475.84	114.69
476.02	175.54
476.20	257.46
476.38	198.95
476.56	170.86
476.74	194.26
476.92	215.33
477.10	131.07
477.28	215.33
477.46	175.54
477.64	196.60
477.82	184.90
478.00	187.24
478.18	252.78
478.36	177.88
478.54	248.10
478.72	189.58
478.90	224.69
479.08	238.73
479.26	215.33
479.44	180.22
479.62	212.99
479.80	184.90
479.98	224.69
480.16	152.13
480.34	203.63
480.52	131.07
480.70	212.99
480.88	166.18
481.06	170.86
481.24	198.95
481.41	257.46
481.59	250.44
481.77	227.03
481.95	117.03
482.13	205.97
482.31	248.10
482.49	189.58
482.67	245.76
482.85	234.05
483.03	217.67
483.21	175.54
483.39	166.18
483.57	215.33
483.74	278.52
483.92	222.35
484.10	227.03
484.28	210.65
484.46	325.33
484.64	245.76
484.82	250.44
485.00	250.44
485.18	222.35
485.35	285.55
485.53	222.35
485.71	339.38
485.89	259.80
486.07	322.99
486.25	362.78
486.43	278.52
486.61	252.78
486.78	304.27
486.96	318.31
487.14	290.23
487.32	266.82
487.50	294.91
487.68	358.10
487.85	248.10
488.03	374.49
488.21	252.78
488.39	379.17
488.57	325.33
488.75	283.20
488.92	507.90
489.10	287.89
489.28	334.70
489.46	311.29
489.64	344.06
489.81	304.27
489.99	292.57
490.17	287.89
490.35	395.55
490.53	259.80
490.70	285.55
490.88	322.99
491.06	337.04
491.24	308.95
491.41	290.23
491.59	322.99
491.77	236.39
491.95	224.69
492.13	276.18
492.30	248.10
492.48	229.37
492.66	217.67
492.84	243.42
493.01	320.65
493.19	311.29
493.37	332.36
493.54	245.76
493.72	351.08
493.90	262.14
494.08	297.25
494.25	315.97
494.43	285.55
494.61	285.55
494.79	227.03
494.96	234.05
495.14	264.48
495.32	311.29
495.49	318.31
495.67	238.73
495.85	334.70
496.02	236.39
496.20	262.14
496.38	330.02
496.55	306.61
496.73	290.23
496.91	255.12
497.09	278.52
497.26	290.23
497.44	320.65
497.62	315.97
497.79	212.99
497.97	322.99
498.14	313.63
498.32	301.93
498.50	273.84
498.67	210.65
498.85	285.55
499.03	283.20
499.20	280.86
499.38	215.33
499.56	250.44
499.73	308.95
499.91	234.05
500.08	276.18
500.26	276.18
500.44	257.46
500.61	234.05
500.79	215.33
500.97	224.69
501.14	304.27
501.32	285.55
501.49	266.82
501.67	280.86
501.84	278.52
502.02	257.46
502.20	299.59
502.37	243.42
502.55	264.48
502.72	180.22
502.90	173.20
503.07	241.08
503.25	241.08
503.43	149.79
503.60	231.71
503.78	259.80
503.95	187.24
504.13	234.05
504.30	215.33
504.48	203.63
504.65	243.42
504.83	238.73
505.01	222.35
505.18	245.76
505.36	236.39
505.53	297.25
505.71	220.01
505.88	306.61
506.06	196.60
506.23	245.76
506.41	159.16
506.58	191.92
506.76	257.46
506.93	264.48
507.11	346.40
507.28	227.03
507.46	189.58
507.63	217.67
507.81	212.99
507.98	259.80
508.16	266.82
508.33	283.20
508.50	163.84
508.68	248.10
508.85	198.95
509.03	304.27
509.20	292.57
509.38	273.84
509.55	229.37
509.73	255.12
509.90	276.18
510.08	217.67
510.25	278.52
510.42	224.69
510.60	227.03
510.77	308.95
510.95	285.55
511.12	241.08
511.30	273.84
511.47	266.82
511.64	208.31
511.82	271.50
511.99	280.86
512.17	215.33
512.34	285.55
512.51	269.16
512.69	234.05
512.86	248.10
513.04	236.39
513.21	297.25
513.38	262.14
513.56	238.73
513.73	184.90
513.90	252.78
514.08	236.39
514.25	283.20
514.43	238.73
514.60	217.67
514.77	241.08
514.95	175.54
515.12	264.48
515.29	355.76
515.47	250.44
515.64	358.10
515.81	229.37
515.99	369.80
516.16	248.10
516.33	315.97
516.51	227.03
516.68	147.45
516.85	222.35
517.03	189.58
517.20	231.71
517.37	208.31
517.54	259.80
517.72	217.67
517.89	227.03
518.06	154.48
518.24	238.73
518.41	304.27
518.58	212.99
518.75	177.88
518.93	208.31
519.10	245.76
519.27	266.82
519.45	287.89
519.62	215.33
519.79	304.27
519.96	196.60
520.14	269.16
520.31	301.93
520.48	229.37
520.65	217.67
520.83	297.25
521.00	234.05
521.17	334.70
521.34	308.95
521.52	252.78
521.69	229.37
521.86	243.42
522.03	234.05
522.20	227.03
522.38	243.42
522.55	297.25
522.72	189.58
522.89	280.86
523.07	346.40
523.24	224.69
523.41	217.67
523.58	273.84
523.75	229.37
523.92	210.65
524.10	290.23
524.27	248.10
524.44	262.14
524.61	325.33
524.78	217.67
524.96	308.95
525.13	236.39
525.30	234.05
525.47	344.06
525.64	299.59
525.81	311.29
525.98	276.18
526.16	168.52
526.33	255.12
526.50	184.90
526.67	191.92
526.84	189.58
527.01	259.80
527.18	311.29
527.36	238.73
527.53	250.44
527.70	278.52
527.87	308.95
528.04	273.84
528.21	229.37
528.38	250.44
528.55	156.82
528.72	259.80
528.89	280.86
529.07	325.33
529.24	259.80
529.41	318.31
529.58	238.73
529.75	280.86
529.92	287.89
530.09	271.50
530.26	290.23
530.43	227.03
530.60	238.73
530.77	351.08
530.94	248.10
531.11	341.72
531.28	283.20
531.46	271.50
531.63	280.86
531.80	346.40
531.97	311.29
532.14	280.86
532.31	327.68
532.48	294.91
532.65	271.50
532.82	248.10
532.99	262.14
533.16	325.33
533.33	304.27
533.50	318.31
533.67	313.63
533.84	255.12
534.01	259.80
534.18	224.69
534.35	234.05
534.52	257.46
534.69	278.52
534.86	311.29
535.03	215.33
535.20	287.89
535.37	313.63
535.54	276.18
535.71	358.10
535.88	383.85
536.05	379.17
536.22	327.68
536.38	271.50
536.55	257.46
536.72	292.57
536.89	353.42
537.06	360.44
537.23	346.40
537.40	376.83
537.57	360.44
537.74	390.87
537.91	433.00
538.08	393.21
538.25	433.00
538.42	435.34
538.59	454.06
538.75	425.98
538.92	386.19
539.09	454.06
539.26	498.53
539.43	552.37
539.60	568.75
539.77	524.28
539.94	528.96
540.11	629.60
540.28	571.09
540.44	781.74
540.61	688.12
540.78	760.67
540.95	767.70
541.12	1050.90
541.29	1156.22
541.46	1196.01
541.62	1186.65
541.79	1252.19
541.96	1177.29
542.13	1196.01
542.30	1153.88
542.47	1130.48
542.63	999.41
542.80	1053.24
542.97	1109.41
543.14	1109.41
543.31	1083.67
543.48	1137.50
543.64	1069.62
543.81	1121.12
543.98	1018.13
544.15	1048.56
544.32	976.00
544.48	1086.01
544.65	1008.77
544.82	915.15
544.99	990.05
545.16	1015.79
545.32	990.05
545.49	1650.08
545.66	2342.88
545.83	2766.51
546.00	2593.31
546.16	1795.19
546.33	1362.19
546.50	1053.24
546.67	908.13
546.83	856.64
547.00	781.74
547.17	713.86
547.34	662.37
547.50	753.65
547.67	674.07
547.84	641.31
548.00	662.37
548.17	730.25
548.34	683.44
548.51	648.33
548.67	601.52
548.84	631.94
549.01	606.20
549.18	575.77
549.34	615.56
549.51	545.34
549.68	505.56
549.84	554.71
550.01	521.94
550.18	491.51
550.34	543.00
550.51	484.49
550.68	613.22
550.84	512.58
551.01	470.45
551.18	503.22
551.34	456.40
551.51	435.34
551.68	411.93
551.84	470.45
552.01	365.12
552.18	433.00
552.34	365.12
552.51	346.40
552.68	433.00
552.84	362.78
553.01	367.46
553.18	383.85
553.34	283.20
553.51	322.99
553.67	355.76
553.84	397.89
554.01	393.21
554.17	341.72
554.34	276.18
554.51	250.44
554.67	369.80
554.84	315.97
555.00	318.31
555.17	395.55
555.33	337.04
555.50	348.74
555.67	374.49
555.83	299.59
556.00	280.86
556.16	519.60
556.33	294.91
556.50	215.33
556.66	198.95
556.83	224.69
556.99	257.46
557.16	334.70
557.32	210.65
557.49	334.70
557.65	276.18
557.82	341.72
557.98	308.95
558.15	320.65
558.32	294.91
558.48	236.39
558.65	299.59
558.81	262.14
558.98	266.82
559.14	308.95
559.31	229.37
559.47	238.73
559.64	182.56
559.80	250.44
559.97	280.86
560.13	355.76
560.30	234.05
560.46	273.84
560.63	238.73
560.79	198.95
560.96	227.03
561.12	220.01
561.29	301.93
561.45	159.16
561.61	217.67
561.78	278.52
561.94	241.08
562.11	205.97
562.27	283.20
562.44	205.97
562.60	227.03
562.77	259.80
562.93	365.12
563.10	325.33
563.26	220.01
563.42	252.78
563.59	292.57
563.75	168.52
563.92	341.72
564.08	255.12
564.24	308.95
564.41	266.82
564.57	257.46
564.74	205.97
564.90	271.50
565.07	191.92
565.23	280.86
565.39	285.55
565.56	250.44
565.72	248.10
565.88	262.14
566.05	208.31
566.21	198.95
566.38	194.26
566.54	252.78
566.70	184.90
566.87	184.90
567.03	217.67
567.19	241.08
567.36	273.84
567.52	257.46
567.68	255.12
567.85	252.78
568.01	248.10
568.17	308.95
568.34	243.42
568.50	163.84
568.66	257.46
568.83	276.18
568.99	241.08
569.15	266.82
569.32	248.10
569.48	229.37
569.64	255.12
569.81	234.05
569.97	184.90
570.13	220.01
570.30	252.78
570.46	203.63
570.62	248.10
570.78	252.78
570.95	201.29
571.11	222.35
571.27	238.73
571.43	156.82
571.60	194.26
571.76	245.76
571.92	229.37
572.09	187.24
572.25	184.90
572.41	229.37
572.57	273.84
572.74	299.59
572.90	313.63
573.06	301.93
573.22	257.46
573.38	278.52
573.55	271.50
573.71	276.18
573.87	252.78
574.03	245.76
574.20	203.63
574.36	304.27
574.52	273.84
574.68	257.46
574.84	166.18
575.01	224.69
575.17	280.86
575.33	255.12
575.49	259.80
575.65	278.52
575.82	259.80
575.98	250.44
576.14	243.42
576.30	367.46
576.46	442.36
576.62	631.94
576.79	737.27
576.95	587.47
577.11	404.91
577.27	360.44
577.43	393.21
577.59	313.63
577.75	315.97
577.92	241.08
578.08	266.82
578.24	292.57
578.40	355.76
578.56	524.28
578.72	594.50
578.88	601.52
579.04	526.62
579.21	451.72
579.37	402.57
579.53	355.76
579.69	383.85
579.85	404.91
580.01	458.74
580.17	440.02
580.33	397.89
580.49	341.72
580.65	374.49
580.82	360.44
580.98	318.31
581.14	334.70
581.30	308.95
581.46	346.40
581.62	435.34
581.78	344.06
581.94	411.93
582.10	365.12
582.26	423.64
582.42	425.98
582.58	407.25
582.74	421.30
582.90	454.06
583.06	376.83
583.22	458.74
583.38	407.25
583.54	421.30
583.70	447.04
583.86	458.74
584.02	454.06
584.18	393.21
584.34	381.51
584.50	381.51
584.66	322.99
584.82	418.96
584.98	433.00
585.14	407.25
585.30	435.34
585.46	362.78
585.62	353.42
585.78	362.78
585.94	397.89
586.10	444.70
586.26	440.02
586.42	533.64
586.58	449.38
586.74	444.70
586.90	472.79
587.06	507.90
587.22	667.05
587.38	489.17
587.54	461.09
587.70	475.13
587.86	451.72
588.02	383.85
588.18	435.34
588.34	341.72
588.49	304.27
588.65	292.57
588.81	358.10
588.97	365.12
589.13	367.46
589.29	259.80
589.45	365.12
589.61	308.95
589.77	386.19
589.93	297.25
590.08	283.20
590.24	344.06
590.40	337.04
590.56	344.06
590.72	381.51
590.88	287.89
591.04	318.31
591.20	262.14
591.35	301.93
591.51	397.89
591.67	351.08
591.83	367.46
591.99	315.97
592.15	365.12
592.31	367.46
592.46	362.78
592.62	442.36
592.78	430.66
592.94	505.56
593.10	454.06
593.26	435.34
593.41	451.72
593.57	388.53
593.73	388.53
593.89	358.10
594.05	341.72
594.20	304.27
594.36	332.36
594.52	271.50
594.68	306.61
594.84	374.49
594.99	287.89
595.15	344.06
595.31	315.97
595.47	330.02
595.62	278.52
595.78	234.05
595.94	280.86
596.10	290.23
596.25	308.95
596.41	299.59
596.57	299.59
596.73	250.44
596.88	276.18
597.04	297.25
597.20	283.20
597.36	222.35
597.51	227.03
597.67	369.80
597.83	271.50
597.99	400.23
598.14	388.53
598.30	390.87
598.46	365.12
598.61	290.23
598.77	339.38
598.93	367.46
599.09	337.04
599.24	449.38
599.40	486.83
599.56	397.89
599.71	322.99
599.87	313.63
600.03	332.36
600.18	404.91
600.34	332.36
600.50	301.93
600.65	245.76
600.81	339.38
600.97	278.52
601.12	269.16
601.28	325.33
601.44	313.63
601.59	278.52
601.75	220.01
601.91	259.80
602.06	278.52
602.22	304.27
602.37	297.25
602.53	264.48
602.69	280.86
602.84	306.61
603.00	334.70
603.16	269.16
603.31	297.25
603.47	290.23
603.62	269.16
603.78	292.57
603.94	250.44
604.09	191.92
604.25	255.12
604.40	271.50
604.56	297.25
604.71	306.61
604.87	304.27
605.03	250.44
605.18	381.51
605.34	283.20
605.49	283.20
605.65	318.31
605.80	266.82
605.96	404.91
606.12	320.65
606.27	332.36
606.43	318.31
606.58	330.02
606.74	458.74
606.89	304.27
607.05	339.38
607.20	290.23
607.36	290.23
607.51	339.38
607.67	400.23
607.82	393.21
607.98	390.87
608.13	301.93
608.29	311.29
608.44	367.46
608.60	386.19
608.75	461.09
608.91	411.93
609.06	437.68
609.22	479.81
609.37	479.81
609.53	578.11
609.68	594.50
609.84	690.46
609.99	772.38
610.15	835.57
610.30	1032.18
610.46	1228.78
610.61	1551.78
610.76	1933.28
610.92	2345.22
611.07	2614.38
611.23	2630.76
611.38	2513.74
