SpectraSuite Data File
++++++++++++++++++++++++++++++++++++
Date: Fri Oct 04 11:41:53 GMT-05:00 2013
User: price-jones
Dark Spectrum Present: No
Reference Spectrum Present: No
Number of Sampled Component Spectra: 1
Spectrometers: USB2+H05261
Integration Time (usec): 100000 (USB2+H05261)
Spectra Averaged: 1 (USB2+H05261)
Boxcar Smoothing: 0 (USB2+H05261)
Correct for Electrical Dark: No (USB2+H05261)
Strobe/Lamp Enabled: No (USB2+H05261)
Correct for Detector Non-linearity: No (USB2+H05261)
Correct for Stray Light: No (USB2+H05261)
Number of Pixels in Processed Spectrum: 2048
>>>>>Begin Processed Spectral Data<<<<<
365.73	28.09
365.92	28.09
366.12	28.09
366.32	0.00
366.52	0.00
366.72	25.75
366.91	0.00
367.11	0.00
367.31	0.00
367.51	0.00
367.70	0.00
367.90	0.00
368.10	0.00
368.30	0.00
368.49	0.00
368.69	0.00
368.89	0.00
369.09	0.00
369.28	0.00
369.48	0.00
369.68	0.00
369.87	37.45
370.07	0.00
370.27	72.56
370.47	42.13
370.66	18.72
370.86	84.26
371.06	25.75
371.25	119.37
371.45	67.88
371.65	46.81
371.84	67.88
372.04	56.17
372.24	53.83
372.44	91.28
372.63	121.71
372.83	156.82
373.03	35.11
373.22	58.51
373.42	81.92
373.62	86.60
373.81	77.24
374.01	126.39
374.21	170.86
374.40	212.99
374.60	140.43
374.79	161.50
374.99	77.24
375.19	105.32
375.38	119.37
375.58	128.73
375.78	161.50
375.97	107.66
376.17	196.60
376.37	74.90
376.56	152.13
376.76	21.06
376.95	77.24
377.15	98.30
377.35	156.82
377.54	98.30
377.74	135.75
377.93	105.32
378.13	124.05
378.33	91.28
378.52	105.32
378.72	138.09
378.91	156.82
379.11	77.24
379.31	67.88
379.50	98.30
379.70	128.73
379.89	140.43
380.09	119.37
380.28	91.28
380.48	102.98
380.68	133.41
380.87	124.05
381.07	196.60
381.26	84.26
381.46	30.43
381.65	170.86
381.85	74.90
382.04	156.82
382.24	112.35
382.43	154.48
382.63	105.32
382.83	189.58
383.02	44.47
383.22	177.88
383.41	53.83
383.61	117.03
383.80	100.64
384.00	93.62
384.19	0.00
384.39	51.49
384.58	79.58
384.78	142.77
384.97	161.50
385.17	100.64
385.36	58.51
385.56	145.11
385.75	72.56
385.95	84.26
386.14	88.94
386.34	60.85
386.53	110.01
386.72	128.73
386.92	121.71
387.11	107.66
387.31	95.96
387.50	145.11
387.70	67.88
387.89	70.22
388.09	77.24
388.28	105.32
388.48	9.36
388.67	140.43
388.86	128.73
389.06	65.54
389.25	140.43
389.45	119.37
389.64	140.43
389.84	110.01
390.03	208.31
390.22	77.24
390.42	72.56
390.61	152.13
390.81	91.28
391.00	140.43
391.19	184.90
391.39	163.84
391.58	110.01
391.78	161.50
391.97	110.01
392.16	105.32
392.36	166.18
392.55	177.88
392.75	142.77
392.94	65.54
393.13	100.64
393.33	49.15
393.52	121.71
393.71	166.18
393.91	112.35
394.10	149.79
394.29	131.07
394.49	86.60
394.68	145.11
394.88	131.07
395.07	135.75
395.26	119.37
395.46	142.77
395.65	175.54
395.84	95.96
396.04	224.69
396.23	98.30
396.42	124.05
396.62	102.98
396.81	133.41
397.00	42.13
397.19	114.69
397.39	107.66
397.58	166.18
397.77	93.62
397.97	180.22
398.16	105.32
398.35	110.01
398.55	112.35
398.74	51.49
398.93	166.18
399.12	140.43
399.32	121.71
399.51	107.66
399.70	161.50
399.90	128.73
400.09	215.33
400.28	110.01
400.47	95.96
400.67	138.09
400.86	79.58
401.05	175.54
401.24	102.98
401.44	35.11
401.63	147.45
401.82	142.77
402.01	42.13
402.21	88.94
402.40	105.32
402.59	142.77
402.78	91.28
402.97	152.13
403.17	271.50
403.36	147.45
403.55	217.67
403.74	437.68
403.93	1282.61
404.13	2686.94
404.32	2988.86
404.51	2480.97
404.70	1462.83
404.89	603.86
405.09	308.95
405.28	191.92
405.47	149.79
405.66	135.75
405.85	182.56
406.05	168.52
406.24	189.58
406.43	180.22
406.62	208.31
406.81	252.78
407.00	170.86
407.20	390.87
407.39	425.98
407.58	463.43
407.77	351.08
407.96	250.44
408.15	124.05
408.34	140.43
408.54	107.66
408.73	147.45
408.92	196.60
409.11	135.75
409.30	210.65
409.49	159.16
409.68	196.60
409.87	131.07
410.07	166.18
410.26	184.90
410.45	177.88
410.64	194.26
410.83	184.90
411.02	222.35
411.21	149.79
411.40	161.50
411.59	152.13
411.78	156.82
411.98	142.77
412.17	156.82
412.36	241.08
412.55	161.50
412.74	154.48
412.93	173.20
413.12	215.33
413.31	110.01
413.50	166.18
413.69	95.96
413.88	241.08
414.07	138.09
414.26	191.92
414.45	117.03
414.64	217.67
414.83	154.48
415.02	175.54
415.22	110.01
415.41	163.84
415.60	180.22
415.79	201.29
415.98	191.92
416.17	191.92
416.36	229.37
416.55	201.29
416.74	163.84
416.93	170.86
417.12	112.35
417.31	238.73
417.50	220.01
417.69	245.76
417.88	187.24
418.07	163.84
418.26	234.05
418.45	201.29
418.64	238.73
418.83	245.76
419.02	201.29
419.21	184.90
419.39	184.90
419.58	205.97
419.77	224.69
419.96	161.50
420.15	250.44
420.34	145.11
420.53	220.01
420.72	266.82
420.91	234.05
421.10	177.88
421.29	234.05
421.48	259.80
421.67	170.86
421.86	241.08
422.05	177.88
422.24	278.52
422.43	217.67
422.61	210.65
422.80	161.50
422.99	149.79
423.18	142.77
423.37	212.99
423.56	196.60
423.75	236.39
423.94	152.13
424.13	142.77
424.32	229.37
424.50	175.54
424.69	241.08
424.88	269.16
425.07	262.14
425.26	182.56
425.45	187.24
425.64	196.60
425.83	215.33
426.01	222.35
426.20	266.82
426.39	220.01
426.58	170.86
426.77	210.65
426.96	236.39
427.15	212.99
427.33	166.18
427.52	182.56
427.71	220.01
427.90	255.12
428.09	250.44
428.28	177.88
428.46	262.14
428.65	229.37
428.84	269.16
429.03	212.99
429.22	252.78
429.40	191.92
429.59	269.16
429.78	311.29
429.97	234.05
430.16	269.16
430.34	271.50
430.53	180.22
430.72	196.60
430.91	287.89
431.10	238.73
431.28	210.65
431.47	276.18
431.66	297.25
431.85	311.29
432.03	271.50
432.22	299.59
432.41	273.84
432.60	360.44
432.79	215.33
432.97	259.80
433.16	201.29
433.35	334.70
433.54	341.72
433.72	414.27
433.91	411.93
434.10	407.25
434.28	477.47
434.47	484.49
434.66	575.77
434.85	730.25
435.03	2370.96
435.22	7847.82
435.41	13940.23
435.59	12475.06
435.78	8149.75
435.97	3786.99
436.16	1551.78
436.34	702.16
436.53	423.64
436.72	372.15
436.90	341.72
437.09	262.14
437.28	327.68
437.46	325.33
437.65	332.36
437.84	318.31
438.02	383.85
438.21	346.40
438.40	276.18
438.58	360.44
438.77	325.33
438.96	257.46
439.14	231.71
439.33	273.84
439.52	262.14
439.70	292.57
439.89	280.86
440.08	334.70
440.26	304.27
440.45	271.50
440.63	276.18
440.82	294.91
441.01	215.33
441.19	294.91
441.38	294.91
441.57	311.29
441.75	285.55
441.94	259.80
442.12	320.65
442.31	278.52
442.50	311.29
442.68	320.65
442.87	252.78
443.05	252.78
443.24	264.48
443.43	287.89
443.61	290.23
443.80	280.86
443.98	313.63
444.17	234.05
444.35	339.38
444.54	238.73
444.73	313.63
444.91	294.91
445.10	243.42
445.28	346.40
445.47	283.20
445.65	236.39
445.84	234.05
446.02	351.08
446.21	280.86
446.39	250.44
446.58	390.87
446.77	299.59
446.95	205.97
447.14	287.89
447.32	409.59
447.51	238.73
447.69	259.80
447.88	308.95
448.06	383.85
448.25	259.80
448.43	287.89
448.62	222.35
448.80	269.16
448.99	315.97
449.17	276.18
449.36	227.03
449.54	292.57
449.73	334.70
449.91	320.65
450.10	311.29
450.28	376.83
450.46	325.33
450.65	311.29
450.83	322.99
451.02	212.99
451.20	308.95
451.39	266.82
451.57	301.93
451.76	360.44
451.94	355.76
452.13	304.27
452.31	290.23
452.49	292.57
452.68	191.92
452.86	276.18
453.05	381.51
453.23	304.27
453.42	269.16
453.60	229.37
453.78	292.57
453.97	283.20
454.15	255.12
454.34	259.80
454.52	257.46
454.70	276.18
454.89	341.72
455.07	348.74
455.26	334.70
455.44	257.46
455.62	283.20
455.81	280.86
455.99	278.52
456.17	262.14
456.36	264.48
456.54	320.65
456.73	299.59
456.91	315.97
457.09	367.46
457.28	259.80
457.46	276.18
457.64	341.72
457.83	294.91
458.01	212.99
458.19	304.27
458.38	299.59
458.56	339.38
458.74	273.84
458.93	252.78
459.11	220.01
459.29	259.80
459.48	278.52
459.66	346.40
459.84	301.93
460.03	344.06
460.21	334.70
460.39	301.93
460.57	325.33
460.76	315.97
460.94	348.74
461.12	327.68
461.31	229.37
461.49	269.16
461.67	283.20
461.85	287.89
462.04	287.89
462.22	770.04
462.40	318.31
462.59	367.46
462.77	222.35
462.95	241.08
463.13	250.44
463.32	322.99
463.50	294.91
463.68	313.63
463.86	276.18
464.05	280.86
464.23	269.16
464.41	287.89
464.59	351.08
464.78	287.89
464.96	327.68
465.14	255.12
465.32	269.16
465.50	341.72
465.69	297.25
465.87	252.78
466.05	320.65
466.23	257.46
466.41	315.97
466.60	276.18
466.78	311.29
466.96	290.23
467.14	259.80
467.32	276.18
467.51	341.72
467.69	304.27
467.87	306.61
468.05	297.25
468.23	276.18
468.41	278.52
468.60	182.56
468.78	311.29
468.96	308.95
469.14	245.76
469.32	154.48
469.50	294.91
469.69	287.89
469.87	306.61
470.05	264.48
470.23	229.37
470.41	327.68
470.59	243.42
470.77	294.91
470.95	315.97
471.14	325.33
471.32	287.89
471.50	304.27
471.68	259.80
471.86	322.99
472.04	332.36
472.22	372.15
472.40	236.39
472.58	327.68
472.77	241.08
472.95	245.76
473.13	304.27
473.31	269.16
473.49	259.80
473.67	269.16
473.85	271.50
474.03	290.23
474.21	297.25
474.39	313.63
474.57	341.72
474.75	304.27
474.93	315.97
475.12	212.99
475.30	245.76
475.48	238.73
475.66	257.46
475.84	304.27
476.02	234.05
476.20	250.44
476.38	220.01
476.56	337.04
476.74	327.68
476.92	283.20
477.10	287.89
477.28	332.36
477.46	322.99
477.64	290.23
477.82	332.36
478.00	236.39
478.18	388.53
478.36	369.80
478.54	280.86
478.72	332.36
478.90	348.74
479.08	327.68
479.26	358.10
479.44	360.44
479.62	301.93
479.80	362.78
479.98	421.30
480.16	355.76
480.34	414.27
480.52	388.53
480.70	360.44
480.88	341.72
481.06	458.74
481.24	475.13
481.41	435.34
481.59	498.53
481.77	482.15
481.95	528.96
482.13	543.00
482.31	526.62
482.49	535.98
482.67	587.47
482.85	622.58
483.03	685.78
483.21	706.84
483.39	798.12
483.57	748.97
483.74	929.19
483.92	898.77
484.10	940.90
484.28	994.73
484.46	1067.28
484.64	1053.24
484.82	1064.94
485.00	1046.22
485.18	1280.27
485.35	1252.19
485.53	1329.42
485.71	1263.89
485.89	1376.24
486.07	1523.69
486.25	1537.73
486.43	1371.55
486.61	1427.73
486.78	1533.05
486.96	1526.03
487.14	1533.05
487.32	1497.94
487.50	1474.54
487.68	1413.68
487.85	1362.19
488.03	1544.75
488.21	1425.39
488.39	1310.70
488.57	1308.36
488.75	1233.46
488.92	1509.65
489.10	1228.78
489.28	1284.95
489.46	1291.98
489.64	1137.50
489.81	1184.31
489.99	1114.10
490.17	1188.99
490.35	1301.34
490.53	1090.69
490.70	1125.80
490.88	1139.84
491.06	1210.06
491.24	1212.40
491.41	1282.61
491.59	1172.61
491.77	1067.28
491.95	1078.99
492.13	1118.78
492.30	1151.54
492.48	947.92
492.66	1046.22
492.84	1053.24
493.01	983.02
493.19	1025.15
493.37	1069.62
493.54	950.26
493.72	983.02
493.90	931.53
494.08	973.66
494.25	966.64
494.43	891.74
494.61	950.26
494.79	814.51
494.96	800.46
495.14	847.27
495.32	847.27
495.49	863.66
495.67	809.83
495.85	887.06
496.02	823.87
496.20	755.99
496.38	781.74
496.55	795.78
496.73	753.65
496.91	718.54
497.09	774.72
497.26	777.06
497.44	692.80
497.62	739.61
497.79	711.52
497.97	732.59
498.14	697.48
498.32	660.03
498.50	676.41
498.67	653.01
498.85	655.35
499.03	606.20
499.20	671.73
499.38	531.30
499.56	582.79
499.73	596.84
499.91	660.03
500.08	566.41
500.26	533.64
500.44	528.96
500.61	477.47
500.79	498.53
500.97	545.34
501.14	587.47
501.32	456.40
501.49	571.09
501.67	482.15
501.84	444.70
502.02	428.32
502.20	521.94
502.37	498.53
502.55	402.57
502.72	421.30
502.90	489.17
503.07	409.59
503.25	379.17
503.43	383.85
503.60	379.17
503.78	344.06
503.95	374.49
504.13	423.64
504.30	409.59
504.48	360.44
504.65	416.62
504.83	416.62
505.01	374.49
505.18	332.36
505.36	456.40
505.53	369.80
505.71	386.19
505.88	369.80
506.06	287.89
506.23	315.97
506.41	365.12
506.58	379.17
506.76	351.08
506.93	341.72
507.11	318.31
507.28	355.76
507.46	358.10
507.63	374.49
507.81	287.89
507.98	313.63
508.16	262.14
508.33	369.80
508.50	311.29
508.68	341.72
508.85	365.12
509.03	351.08
509.20	351.08
509.38	292.57
509.55	299.59
509.73	355.76
509.90	290.23
510.08	243.42
510.25	339.38
510.42	330.02
510.60	334.70
510.77	348.74
510.95	337.04
511.12	306.61
511.30	397.89
511.47	341.72
511.64	365.12
511.82	271.50
511.99	315.97
512.17	353.42
512.34	236.39
512.51	358.10
512.69	306.61
512.86	334.70
513.04	276.18
513.21	276.18
513.38	332.36
513.56	271.50
513.73	262.14
513.90	290.23
514.08	306.61
514.25	306.61
514.43	252.78
514.60	198.95
514.77	227.03
514.95	315.97
515.12	278.52
515.29	271.50
515.47	327.68
515.64	313.63
515.81	308.95
515.99	280.86
516.16	290.23
516.33	308.95
516.51	315.97
516.68	262.14
516.85	374.49
517.03	315.97
517.20	290.23
517.37	287.89
517.54	273.84
517.72	241.08
517.89	264.48
518.06	271.50
518.24	386.19
518.41	304.27
518.58	304.27
518.75	306.61
518.93	339.38
519.10	243.42
519.27	273.84
519.45	330.02
519.62	318.31
519.79	306.61
519.96	308.95
520.14	276.18
520.31	311.29
520.48	294.91
520.65	362.78
520.83	334.70
521.00	194.26
521.17	351.08
521.34	196.60
521.52	227.03
521.69	276.18
521.86	224.69
522.03	325.33
522.20	262.14
522.38	297.25
522.55	250.44
522.72	271.50
522.89	297.25
523.07	360.44
523.24	294.91
523.41	374.49
523.58	414.27
523.75	311.29
523.92	287.89
524.10	355.76
524.27	308.95
524.44	325.33
524.61	358.10
524.78	320.65
524.96	299.59
525.13	383.85
525.30	318.31
525.47	386.19
525.64	229.37
525.81	313.63
525.98	376.83
526.16	325.33
526.33	339.38
526.50	341.72
526.67	297.25
526.84	346.40
527.01	313.63
527.18	362.78
527.36	344.06
527.53	348.74
527.70	348.74
527.87	362.78
528.04	379.17
528.21	330.02
528.38	325.33
528.55	330.02
528.72	367.46
528.89	416.62
529.07	425.98
529.24	362.78
529.41	430.66
529.58	297.25
529.75	294.91
529.92	271.50
530.09	353.42
530.26	341.72
530.43	362.78
530.60	409.59
530.77	416.62
530.94	435.34
531.11	393.21
531.28	395.55
531.46	339.38
531.63	395.55
531.80	416.62
531.97	514.92
532.14	566.41
532.31	578.11
532.48	561.73
532.65	676.41
532.82	774.72
532.99	847.27
533.16	837.91
533.33	954.94
533.50	816.85
533.67	727.91
533.84	690.46
534.01	631.94
534.18	573.43
534.35	608.54
534.52	638.97
534.69	688.12
534.86	538.32
535.03	606.20
535.20	657.69
535.37	697.48
535.54	779.40
535.71	779.40
535.88	828.55
536.05	877.70
536.22	912.81
536.38	964.30
536.55	1041.54
536.72	1160.91
536.89	1266.23
537.06	1329.42
537.23	1472.20
537.40	1636.03
537.57	1666.46
537.74	1708.59
537.91	1797.53
538.08	1959.03
538.25	1905.20
538.42	1944.99
538.59	1982.43
538.75	2071.37
538.92	2279.68
539.09	2417.77
539.26	2635.44
539.43	2920.99
539.60	3241.64
539.77	3571.66
539.94	4072.53
540.11	4421.27
540.28	4896.40
540.44	5378.55
540.61	5834.96
540.78	6698.61
540.95	8336.99
541.12	9621.94
541.29	10424.75
541.46	11023.92
541.62	10743.06
541.79	10345.17
541.96	9605.56
542.13	8809.78
542.30	8402.52
542.47	7854.84
542.63	7475.67
542.80	7218.21
542.97	7459.29
543.14	7197.15
543.31	7056.72
543.48	7178.42
543.64	7262.68
543.81	7243.96
543.98	7403.11
544.15	7375.03
544.32	7698.02
544.48	7389.07
544.65	7328.22
544.82	7318.86
544.99	7433.54
545.16	7325.88
545.32	8262.09
545.49	16177.78
545.66	26160.17
545.83	28975.83
546.00	23414.72
546.16	16566.31
546.33	12116.95
546.50	9097.66
546.67	7597.38
546.83	6665.85
547.00	6396.68
547.17	6029.22
547.34	5738.99
547.50	5509.62
547.67	5345.78
547.84	5153.86
548.00	5013.43
548.17	4748.95
548.34	4620.22
548.51	4421.27
548.67	4374.46
548.84	4091.26
549.01	3805.71
549.18	3737.84
549.34	3611.45
549.51	3618.47
549.68	3365.69
549.84	3234.62
550.01	2958.44
550.18	2984.18
550.34	2937.37
550.51	2736.09
550.68	2602.68
550.84	2476.29
551.01	2370.96
551.18	2265.64
551.34	2033.93
551.51	2033.93
551.68	1900.52
551.84	1966.05
552.01	1806.89
552.18	1877.11
552.34	1806.89
552.51	1561.14
552.68	1589.22
552.84	1455.81
553.01	1568.16
553.18	1502.62
553.34	1446.45
553.51	1488.58
553.67	1380.92
553.84	1277.93
554.01	1207.72
554.17	1193.67
554.34	1046.22
554.51	1050.90
554.67	1036.86
554.84	966.64
555.00	828.55
555.17	889.40
555.33	880.04
555.50	713.86
555.67	744.29
555.83	770.04
556.00	826.21
556.16	784.08
556.33	678.76
556.50	653.01
556.66	627.26
556.83	631.94
556.99	648.33
557.16	594.50
557.32	613.22
557.49	627.26
557.65	524.28
557.82	517.26
557.98	578.11
558.15	454.06
558.32	503.22
558.48	521.94
558.65	533.64
558.81	540.66
558.98	543.00
559.14	564.07
559.31	491.51
559.47	491.51
559.64	418.96
559.80	475.13
559.97	470.45
560.13	535.98
560.30	388.53
560.46	425.98
560.63	374.49
560.79	498.53
560.96	456.40
561.12	379.17
561.29	472.79
561.45	376.83
561.61	540.66
561.78	517.26
561.94	491.51
562.11	428.32
562.27	404.91
562.44	484.49
562.60	442.36
562.77	514.92
562.93	528.96
563.10	447.04
563.26	397.89
563.42	435.34
563.59	435.34
563.75	451.72
563.92	411.93
564.08	416.62
564.24	381.51
564.41	458.74
564.57	418.96
564.74	447.04
564.90	461.09
565.07	397.89
565.23	421.30
565.39	304.27
565.56	411.93
565.72	325.33
565.88	400.23
566.05	381.51
566.21	372.15
566.38	327.68
566.54	325.33
566.70	367.46
566.87	461.09
567.03	341.72
567.19	365.12
567.36	404.91
567.52	393.21
567.68	386.19
567.85	374.49
568.01	332.36
568.17	358.10
568.34	435.34
568.50	493.85
568.66	376.83
568.83	383.85
568.99	367.46
569.15	386.19
569.32	325.33
569.48	348.74
569.64	416.62
569.81	318.31
569.97	318.31
570.13	318.31
570.30	294.91
570.46	327.68
570.62	257.46
570.78	276.18
570.95	311.29
571.11	372.15
571.27	379.17
571.43	294.91
571.60	271.50
571.76	360.44
571.92	355.76
572.09	292.57
572.25	318.31
572.41	304.27
572.57	353.42
572.74	362.78
572.90	404.91
573.06	411.93
573.22	358.10
573.38	376.83
573.55	348.74
573.71	414.27
573.87	386.19
574.03	393.21
574.20	348.74
574.36	381.51
574.52	318.31
574.68	360.44
574.84	409.59
575.01	365.12
575.17	442.36
575.33	353.42
575.49	470.45
575.65	538.32
575.82	472.79
575.98	594.50
576.14	599.18
576.30	1392.62
576.46	3716.77
576.62	5011.09
576.79	4891.72
576.95	3501.44
577.11	2321.81
577.27	1659.44
577.43	1118.78
577.59	873.02
577.75	763.01
577.92	610.88
578.08	671.73
578.24	737.27
578.40	1341.13
578.56	3337.60
578.72	4542.98
578.88	4519.57
579.04	3398.46
579.21	2368.62
579.37	1834.98
579.53	1448.79
579.69	1542.41
579.85	1923.92
580.01	2015.20
580.17	1853.70
580.33	1727.32
580.49	1507.30
580.65	1390.28
580.82	1228.78
580.98	1146.86
581.14	1174.95
581.30	1338.79
581.46	1343.47
581.62	1493.26
581.78	1629.01
581.94	1734.34
582.10	1734.34
582.26	1830.30
582.42	1856.04
582.58	1952.01
582.74	2057.33
582.90	1952.01
583.06	1956.69
583.22	1989.46
583.38	1966.05
583.54	1919.24
583.70	1970.73
583.86	2003.50
584.02	1970.73
584.18	1989.46
584.34	1923.92
584.50	1912.22
584.66	1809.23
584.82	1739.02
584.98	1734.34
585.14	1631.35
585.30	1678.16
585.46	1647.74
585.62	1687.53
585.78	1617.31
585.94	1638.38
586.10	1621.99
586.26	1727.32
586.42	2113.50
586.58	2546.50
586.74	2988.86
586.90	3456.97
587.06	3658.26
587.22	3660.60
587.38	3019.29
587.54	2761.83
587.70	2352.24
587.86	2001.16
588.02	1776.47
588.18	1645.40
588.34	1465.18
588.49	1341.13
588.65	1306.02
588.81	1188.99
588.97	1144.52
589.13	1179.63
589.29	1088.35
589.45	1032.18
589.61	1114.10
589.77	1198.35
589.93	1146.86
590.08	1191.33
590.24	1291.98
590.40	1303.68
590.56	1331.76
590.72	1275.59
590.88	1303.68
591.04	1411.34
591.20	1474.54
591.35	1420.71
591.51	1486.24
591.67	1584.54
591.83	1755.40
591.99	1832.64
592.15	2012.86
592.31	2118.18
592.46	2356.92
592.62	2480.97
592.78	2708.00
592.94	2719.70
593.10	2691.62
593.26	2539.48
593.41	2260.96
593.57	2106.48
593.73	1914.56
593.89	1584.54
594.05	1432.41
594.20	1352.83
594.36	1254.53
594.52	1123.46
594.68	1193.67
594.84	1174.95
594.99	1116.44
595.15	1153.88
595.31	1102.39
595.47	1043.88
595.62	966.64
595.78	1034.52
595.94	1053.24
596.10	1046.22
596.25	1067.28
596.41	994.73
596.57	983.02
596.73	1076.65
596.88	1043.88
597.04	1086.01
597.20	945.58
597.36	1111.75
597.51	1149.20
597.67	1036.86
597.83	1207.72
597.99	1252.19
598.14	1277.93
598.30	1387.94
598.46	1460.49
598.61	1486.24
598.77	1540.07
598.93	1558.80
599.09	1732.00
599.24	1675.82
599.40	1680.50
599.56	1493.26
599.71	1511.99
599.87	1446.45
600.03	1409.00
600.18	1329.42
600.34	1277.93
600.50	1139.84
600.65	1111.75
600.81	1041.54
600.97	987.71
601.12	1041.54
601.28	908.13
601.44	889.40
601.59	849.61
601.75	849.61
601.91	788.76
602.06	772.38
602.22	805.14
602.37	772.38
602.53	849.61
602.69	826.21
602.84	692.80
603.00	746.63
603.16	779.40
603.31	727.91
603.47	819.19
603.62	678.76
603.78	816.85
603.94	755.99
604.09	833.23
604.25	821.53
604.40	814.51
604.56	819.19
604.71	751.31
604.87	868.34
605.03	781.74
605.18	894.08
605.34	929.19
605.49	983.02
605.65	908.13
605.80	929.19
605.96	1060.26
606.12	945.58
606.27	1078.99
606.43	1100.05
606.58	1186.65
606.74	1231.12
606.89	1219.42
607.05	1249.85
607.20	1406.66
607.36	1425.39
607.51	1397.30
