SpectraSuite Data File
++++++++++++++++++++++++++++++++++++
Date: Fri Oct 04 11:42:29 GMT-05:00 2013
User: price-jones
Dark Spectrum Present: No
Reference Spectrum Present: No
Number of Sampled Component Spectra: 1
Spectrometers: USB2+H05261
Integration Time (usec): 100000 (USB2+H05261)
Spectra Averaged: 1 (USB2+H05261)
Boxcar Smoothing: 0 (USB2+H05261)
Correct for Electrical Dark: No (USB2+H05261)
Strobe/Lamp Enabled: No (USB2+H05261)
Correct for Detector Non-linearity: No (USB2+H05261)
Correct for Stray Light: No (USB2+H05261)
Number of Pixels in Processed Spectrum: 2048
>>>>>Begin Processed Spectral Data<<<<<
365.73	28.09
365.92	28.09
366.12	28.09
366.32	0.00
366.52	0.00
366.72	0.00
366.91	0.00
367.11	0.00
367.31	0.00
367.51	0.00
367.70	0.00
367.90	0.00
368.10	0.00
368.30	0.00
368.49	0.00
368.69	46.81
368.89	0.00
369.09	0.00
369.28	0.00
369.48	0.00
369.68	4.68
369.87	65.54
370.07	0.00
370.27	0.00
370.47	0.00
370.66	0.00
370.86	0.00
371.06	95.96
371.25	84.26
371.45	0.00
371.65	72.56
371.84	121.71
372.04	114.69
372.24	23.41
372.44	65.54
372.63	177.88
372.83	168.52
373.03	161.50
373.22	112.35
373.42	154.48
373.62	107.66
373.81	112.35
374.01	135.75
374.21	131.07
374.40	112.35
374.60	79.58
374.79	84.26
374.99	114.69
375.19	98.30
375.38	112.35
375.58	39.79
375.78	135.75
375.97	84.26
376.17	152.13
376.37	72.56
376.56	184.90
376.76	135.75
376.95	4.68
377.15	135.75
377.35	119.37
377.54	194.26
377.74	184.90
377.93	208.31
378.13	86.60
378.33	194.26
378.52	77.24
378.72	112.35
378.91	105.32
379.11	93.62
379.31	131.07
379.50	93.62
379.70	91.28
379.89	126.39
380.09	105.32
380.28	117.03
380.48	114.69
380.68	126.39
380.87	112.35
381.07	140.43
381.26	133.41
381.46	107.66
381.65	184.90
381.85	161.50
382.04	81.92
382.24	159.16
382.43	114.69
382.63	65.54
382.83	117.03
383.02	159.16
383.22	205.97
383.41	70.22
383.61	161.50
383.80	126.39
384.00	121.71
384.19	133.41
384.39	88.94
384.58	154.48
384.78	105.32
384.97	114.69
385.17	156.82
385.36	91.28
385.56	39.79
385.75	105.32
385.95	145.11
386.14	142.77
386.34	135.75
386.53	119.37
386.72	93.62
386.92	166.18
387.11	119.37
387.31	147.45
387.50	114.69
387.70	184.90
387.89	140.43
388.09	95.96
388.28	86.60
388.48	93.62
388.67	67.88
388.86	77.24
389.06	93.62
389.25	100.64
389.45	128.73
389.64	147.45
389.84	86.60
390.03	128.73
390.22	63.19
390.42	121.71
390.61	107.66
390.81	56.17
391.00	56.17
391.19	170.86
391.39	170.86
391.58	0.00
391.78	91.28
391.97	131.07
392.16	86.60
392.36	133.41
392.55	100.64
392.75	86.60
392.94	133.41
393.13	175.54
393.33	79.58
393.52	175.54
393.71	145.11
393.91	79.58
394.10	102.98
394.29	98.30
394.49	86.60
394.68	117.03
394.88	135.75
395.07	63.19
395.26	147.45
395.46	86.60
395.65	198.95
395.84	161.50
396.04	187.24
396.23	74.90
396.42	135.75
396.62	163.84
396.81	140.43
397.00	100.64
397.19	98.30
397.39	145.11
397.58	163.84
397.77	159.16
397.97	147.45
398.16	135.75
398.35	107.66
398.55	102.98
398.74	161.50
398.93	145.11
399.12	79.58
399.32	201.29
399.51	198.95
399.70	114.69
399.90	184.90
400.09	112.35
400.28	131.07
400.47	156.82
400.67	138.09
400.86	105.32
401.05	110.01
401.24	135.75
401.44	142.77
401.63	142.77
401.82	128.73
402.01	37.45
402.21	86.60
402.40	110.01
402.59	91.28
402.78	133.41
402.97	173.20
403.17	135.75
403.36	121.71
403.55	168.52
403.74	386.19
403.93	1116.44
404.13	1949.67
404.32	2270.32
404.51	1813.92
404.70	1144.52
404.89	470.45
405.09	308.95
405.28	205.97
405.47	124.05
405.66	161.50
405.85	187.24
406.05	194.26
406.24	142.77
406.43	140.43
406.62	149.79
406.81	194.26
407.00	262.14
407.20	299.59
407.39	425.98
407.58	374.49
407.77	330.02
407.96	215.33
408.15	227.03
408.34	215.33
408.54	203.63
408.73	117.03
408.92	241.08
409.11	156.82
409.30	135.75
409.49	70.22
409.68	149.79
409.87	175.54
410.07	205.97
410.26	170.86
410.45	224.69
410.64	156.82
410.83	154.48
411.02	194.26
411.21	208.31
411.40	149.79
411.59	170.86
411.78	145.11
411.98	161.50
412.17	105.32
412.36	131.07
412.55	175.54
412.74	198.95
412.93	173.20
413.12	91.28
413.31	220.01
413.50	173.20
413.69	182.56
413.88	189.58
414.07	105.32
414.26	145.11
414.45	154.48
414.64	290.23
414.83	203.63
415.02	177.88
415.22	154.48
415.41	154.48
415.60	175.54
415.79	140.43
415.98	201.29
416.17	241.08
416.36	102.98
416.55	177.88
416.74	215.33
416.93	224.69
417.12	135.75
417.31	238.73
417.50	177.88
417.69	194.26
417.88	100.64
418.07	231.71
418.26	163.84
418.45	152.13
418.64	245.76
418.83	194.26
419.02	269.16
419.21	177.88
419.39	112.35
419.58	182.56
419.77	138.09
419.96	163.84
420.15	243.42
420.34	203.63
420.53	217.67
420.72	194.26
420.91	177.88
421.10	189.58
421.29	182.56
421.48	149.79
421.67	182.56
421.86	241.08
422.05	126.39
422.24	191.92
422.43	215.33
422.61	203.63
422.80	177.88
422.99	168.52
423.18	208.31
423.37	191.92
423.56	196.60
423.75	245.76
423.94	191.92
424.13	166.18
424.32	149.79
424.50	135.75
424.69	173.20
424.88	238.73
425.07	210.65
425.26	220.01
425.45	257.46
425.64	173.20
425.83	152.13
426.01	156.82
426.20	201.29
426.39	191.92
426.58	224.69
426.77	201.29
426.96	205.97
427.15	250.44
427.33	222.35
427.52	220.01
427.71	201.29
427.90	175.54
428.09	170.86
428.28	220.01
428.46	212.99
428.65	201.29
428.84	234.05
429.03	224.69
429.22	238.73
429.40	191.92
429.59	187.24
429.78	222.35
429.97	189.58
430.16	175.54
430.34	173.20
430.53	205.97
430.72	248.10
430.91	245.76
431.10	262.14
431.28	217.67
431.47	212.99
431.66	264.48
431.85	217.67
432.03	189.58
432.22	292.57
432.41	243.42
432.60	224.69
432.79	191.92
432.97	283.20
433.16	322.99
433.35	245.76
433.54	250.44
433.72	315.97
433.91	290.23
434.10	332.36
434.28	416.62
434.47	397.89
434.66	491.51
434.85	674.07
435.03	1879.45
435.22	6289.02
435.41	10132.18
435.59	9320.01
435.78	5830.27
435.97	2998.23
436.16	1252.19
436.34	524.28
436.53	325.33
436.72	243.42
436.90	285.55
437.09	241.08
437.28	257.46
437.46	238.73
437.65	259.80
437.84	294.91
438.02	262.14
438.21	266.82
438.40	201.29
438.58	243.42
438.77	203.63
438.96	180.22
439.14	212.99
439.33	292.57
439.52	229.37
439.70	259.80
439.89	285.55
440.08	294.91
440.26	285.55
440.45	285.55
440.63	250.44
440.82	301.93
441.01	238.73
441.19	252.78
441.38	285.55
441.57	212.99
441.75	283.20
441.94	276.18
442.12	273.84
442.31	264.48
442.50	234.05
442.68	189.58
442.87	297.25
443.05	231.71
443.24	173.20
443.43	325.33
443.61	259.80
443.80	311.29
443.98	320.65
444.17	231.71
444.35	210.65
444.54	292.57
444.73	238.73
444.91	273.84
445.10	217.67
445.28	255.12
445.47	229.37
445.65	257.46
445.84	236.39
446.02	292.57
446.21	287.89
446.39	243.42
446.58	285.55
446.77	231.71
446.95	236.39
447.14	292.57
447.32	266.82
447.51	264.48
447.69	203.63
447.88	229.37
448.06	241.08
448.25	341.72
448.43	243.42
448.62	231.71
448.80	276.18
448.99	255.12
449.17	236.39
449.36	243.42
449.54	262.14
449.73	266.82
449.91	313.63
450.10	290.23
450.28	292.57
450.46	220.01
450.65	337.04
450.83	243.42
451.02	294.91
451.20	287.89
451.39	264.48
451.57	252.78
451.76	311.29
451.94	215.33
452.13	248.10
452.31	241.08
452.49	308.95
452.68	154.48
452.86	245.76
453.05	299.59
453.23	191.92
453.42	229.37
453.60	234.05
453.78	283.20
453.97	262.14
454.15	168.52
454.34	229.37
454.52	262.14
454.70	325.33
454.89	334.70
455.07	208.31
455.26	201.29
455.44	262.14
455.62	266.82
455.81	245.76
455.99	241.08
456.17	255.12
456.36	210.65
456.54	234.05
456.73	224.69
456.91	318.31
457.09	217.67
457.28	283.20
457.46	327.68
457.64	311.29
457.83	170.86
458.01	273.84
458.19	322.99
458.38	280.86
458.56	276.18
458.74	194.26
458.93	217.67
459.11	227.03
459.29	266.82
459.48	290.23
459.66	297.25
459.84	241.08
460.03	358.10
460.21	271.50
460.39	255.12
460.57	259.80
460.76	280.86
460.94	299.59
461.12	318.31
461.31	334.70
461.49	243.42
461.67	191.92
461.85	177.88
462.04	166.18
462.22	379.17
462.40	262.14
462.59	215.33
462.77	259.80
462.95	334.70
463.13	198.95
463.32	259.80
463.50	248.10
463.68	301.93
463.86	252.78
464.05	147.45
464.23	257.46
464.41	306.61
464.59	271.50
464.78	241.08
464.96	210.65
465.14	243.42
465.32	212.99
465.50	271.50
465.69	276.18
465.87	257.46
466.05	292.57
466.23	276.18
466.41	273.84
466.60	252.78
466.78	210.65
466.96	297.25
467.14	234.05
467.32	269.16
467.51	210.65
467.69	198.95
467.87	290.23
468.05	262.14
468.23	280.86
468.41	332.36
468.60	189.58
468.78	210.65
468.96	234.05
469.14	250.44
469.32	205.97
469.50	276.18
469.69	229.37
469.87	210.65
470.05	198.95
470.23	243.42
470.41	229.37
470.59	278.52
470.77	201.29
470.95	252.78
471.14	283.20
471.32	238.73
471.50	322.99
471.68	234.05
471.86	238.73
472.04	241.08
472.22	306.61
472.40	210.65
472.58	257.46
472.77	198.95
472.95	252.78
473.13	290.23
473.31	231.71
473.49	217.67
473.67	297.25
473.85	292.57
474.03	259.80
474.21	250.44
474.39	327.68
474.57	273.84
474.75	252.78
474.93	250.44
475.12	191.92
475.30	238.73
475.48	273.84
475.66	301.93
475.84	255.12
476.02	306.61
476.20	163.84
476.38	156.82
476.56	339.38
476.74	234.05
476.92	217.67
477.10	236.39
477.28	304.27
477.46	285.55
477.64	304.27
477.82	306.61
478.00	241.08
478.18	299.59
478.36	351.08
478.54	264.48
478.72	236.39
478.90	322.99
479.08	325.33
479.26	297.25
479.44	341.72
479.62	294.91
479.80	262.14
479.98	299.59
480.16	304.27
480.34	304.27
480.52	362.78
480.70	339.38
480.88	290.23
481.06	374.49
481.24	344.06
481.41	332.36
481.59	374.49
481.77	379.17
481.95	416.62
482.13	442.36
482.31	390.87
482.49	454.06
482.67	599.18
482.85	507.90
483.03	582.79
483.21	603.86
483.39	650.67
483.57	627.26
483.74	669.39
483.92	702.16
484.10	699.82
484.28	842.59
484.46	784.08
484.64	819.19
484.82	903.45
485.00	947.92
485.18	959.62
485.35	976.00
485.53	912.81
485.71	1048.56
485.89	1043.88
486.07	1074.31
486.25	1163.25
486.43	1151.54
486.61	1118.78
486.78	1181.97
486.96	1097.71
487.14	1142.18
487.32	1069.62
487.50	1046.22
487.68	1032.18
487.85	1050.90
488.03	1022.81
488.21	1074.31
488.39	1013.45
488.57	1025.15
488.75	966.64
488.92	1240.48
489.10	1104.73
489.28	945.58
489.46	971.32
489.64	889.40
489.81	924.51
489.99	1043.88
490.17	889.40
490.35	950.26
490.53	830.89
490.70	919.83
490.88	894.08
491.06	952.60
491.24	1032.18
491.41	1074.31
491.59	950.26
491.77	791.10
491.95	828.55
492.13	870.68
492.30	826.21
492.48	919.83
492.66	875.36
492.84	858.98
493.01	861.32
493.19	774.72
493.37	840.25
493.54	760.67
493.72	774.72
493.90	690.46
494.08	748.97
494.25	807.48
494.43	812.17
494.61	763.01
494.79	688.12
494.96	702.16
495.14	669.39
495.32	699.82
495.49	711.52
495.67	744.29
495.85	575.77
496.02	627.26
496.20	662.37
496.38	660.03
496.55	636.63
496.73	610.88
496.91	638.97
497.09	653.01
497.26	533.64
497.44	603.86
497.62	594.50
497.79	557.05
497.97	545.34
498.14	566.41
498.32	601.52
498.50	486.83
498.67	564.07
498.85	465.77
499.03	477.47
499.20	503.22
499.38	512.58
499.56	477.47
499.73	585.13
499.91	524.28
500.08	496.19
500.26	507.90
500.44	390.87
500.61	519.60
500.79	381.51
500.97	409.59
501.14	437.68
501.32	444.70
501.49	416.62
501.67	425.98
501.84	451.72
502.02	423.64
502.20	423.64
502.37	386.19
502.55	407.25
502.72	407.25
502.90	360.44
503.07	416.62
503.25	355.76
503.43	341.72
503.60	400.23
503.78	390.87
503.95	358.10
504.13	299.59
504.30	418.96
504.48	344.06
504.65	353.42
504.83	313.63
505.01	337.04
505.18	372.15
505.36	266.82
505.53	348.74
505.71	360.44
505.88	376.83
506.06	341.72
506.23	315.97
506.41	245.76
506.58	257.46
506.76	358.10
506.93	290.23
507.11	259.80
507.28	294.91
507.46	374.49
507.63	287.89
507.81	297.25
507.98	311.29
508.16	266.82
508.33	322.99
508.50	337.04
508.68	327.68
508.85	292.57
509.03	330.02
509.20	313.63
509.38	311.29
509.55	395.55
509.73	365.12
509.90	344.06
510.08	374.49
510.25	315.97
510.42	320.65
510.60	327.68
510.77	341.72
510.95	315.97
511.12	337.04
511.30	330.02
511.47	301.93
511.64	337.04
511.82	220.01
511.99	313.63
512.17	372.15
512.34	227.03
512.51	301.93
512.69	304.27
512.86	332.36
513.04	297.25
513.21	330.02
513.38	334.70
513.56	299.59
513.73	311.29
513.90	250.44
514.08	332.36
514.25	376.83
514.43	290.23
514.60	290.23
514.77	292.57
514.95	283.20
515.12	243.42
515.29	294.91
515.47	220.01
515.64	257.46
515.81	280.86
515.99	257.46
516.16	266.82
516.33	330.02
516.51	198.95
516.68	220.01
516.85	262.14
517.03	271.50
517.20	234.05
517.37	280.86
517.54	271.50
517.72	285.55
517.89	217.67
518.06	280.86
518.24	308.95
518.41	271.50
518.58	315.97
518.75	334.70
518.93	217.67
519.10	252.78
519.27	259.80
519.45	299.59
519.62	248.10
519.79	299.59
519.96	234.05
520.14	224.69
520.31	313.63
520.48	348.74
520.65	306.61
520.83	334.70
521.00	318.31
521.17	287.89
521.34	285.55
521.52	304.27
521.69	304.27
521.86	315.97
522.03	273.84
522.20	234.05
522.38	285.55
522.55	290.23
522.72	301.93
522.89	269.16
523.07	236.39
523.24	292.57
523.41	318.31
523.58	308.95
523.75	236.39
523.92	299.59
524.10	236.39
524.27	231.71
524.44	245.76
524.61	365.12
524.78	318.31
524.96	330.02
525.13	334.70
525.30	433.00
525.47	386.19
525.64	285.55
525.81	262.14
525.98	351.08
526.16	269.16
526.33	243.42
526.50	264.48
526.67	278.52
526.84	276.18
527.01	210.65
527.18	348.74
527.36	290.23
527.53	376.83
527.70	308.95
527.87	243.42
528.04	367.46
528.21	308.95
528.38	322.99
528.55	355.76
528.72	414.27
528.89	358.10
529.07	362.78
529.24	308.95
529.41	423.64
529.58	339.38
529.75	332.36
529.92	315.97
530.09	320.65
530.26	369.80
530.43	330.02
530.60	353.42
530.77	416.62
530.94	341.72
531.11	313.63
531.28	430.66
531.46	358.10
531.63	484.49
531.80	290.23
531.97	360.44
532.14	449.38
532.31	437.68
532.48	564.07
532.65	559.39
532.82	620.24
532.99	685.78
533.16	744.29
533.33	704.50
533.50	594.50
533.67	620.24
533.84	573.43
534.01	566.41
534.18	496.19
534.35	470.45
534.52	491.51
534.69	561.73
534.86	564.07
535.03	559.39
535.20	538.32
535.37	617.90
535.54	627.26
535.71	655.35
535.88	697.48
536.05	704.50
536.22	779.40
536.38	770.04
536.55	814.51
536.72	915.15
536.89	1039.20
537.06	1071.97
537.23	1128.14
537.40	1226.44
537.57	1252.19
537.74	1462.83
537.91	1315.38
538.08	1444.11
538.25	1376.24
538.42	1441.77
538.59	1621.99
538.75	1596.25
538.92	1703.91
539.09	1776.47
539.26	2043.29
539.43	2134.57
539.60	2356.92
539.77	2778.22
539.94	3021.63
540.11	3330.58
540.28	3583.36
540.44	3983.59
540.61	4236.37
540.78	4905.76
540.95	5989.43
541.12	6937.35
541.29	7515.46
541.46	7833.77
541.62	7796.32
541.79	7405.46
541.96	6883.52
542.13	6506.69
542.30	5982.41
542.47	5699.20
542.63	5425.36
542.80	5472.17
542.97	5301.31
543.14	5249.82
543.31	5331.74
543.48	5263.86
543.64	5401.96
543.81	5568.13
543.98	5404.30
544.15	5528.35
544.32	5413.66
544.48	5549.41
544.65	5242.80
544.82	5313.02
544.99	5397.28
545.16	5521.32
545.32	5795.17
545.49	12079.50
545.66	19173.67
545.83	20451.60
546.00	16407.16
546.16	11580.97
546.33	8491.46
546.50	6497.33
546.67	5317.70
546.83	4910.44
547.00	4671.71
547.17	4442.34
547.34	4152.11
547.50	4205.94
547.67	3894.65
547.84	3669.96
548.00	3735.50
548.17	3473.36
548.34	3459.31
548.51	3236.96
548.67	3218.24
548.84	2958.44
549.01	2906.95
549.18	2729.06
549.34	2654.17
549.51	2546.50
549.68	2499.69
549.84	2279.68
550.01	2267.98
550.18	2298.41
550.34	2120.53
550.51	1982.43
550.68	1998.82
550.84	1771.79
551.01	1687.53
551.18	1605.61
551.34	1631.35
551.51	1549.43
551.68	1439.43
551.84	1474.54
552.01	1481.56
552.18	1397.30
552.34	1348.15
552.51	1350.49
552.68	1174.95
552.84	1240.48
553.01	1160.91
553.18	1104.73
553.34	1116.44
553.51	1043.88
553.67	1097.71
553.84	1004.09
554.01	987.71
554.17	896.43
554.34	847.27
554.51	882.38
554.67	723.23
554.84	732.59
555.00	711.52
555.17	704.50
555.33	631.94
555.50	561.73
555.67	636.63
555.83	585.13
556.00	575.77
556.16	699.82
556.33	575.77
556.50	624.92
556.66	547.69
556.83	472.79
556.99	489.17
557.16	521.94
557.32	456.40
557.49	603.86
557.65	456.40
557.82	463.43
557.98	507.90
558.15	477.47
558.32	428.32
558.48	468.11
558.65	402.57
558.81	489.17
558.98	477.47
559.14	433.00
559.31	379.17
559.47	409.59
559.64	442.36
559.80	465.77
559.97	351.08
560.13	442.36
560.30	367.46
560.46	444.70
560.63	430.66
560.79	409.59
560.96	433.00
561.12	451.72
561.29	416.62
561.45	365.12
561.61	297.25
561.78	507.90
561.94	451.72
562.11	383.85
562.27	430.66
562.44	388.53
562.60	337.04
562.77	315.97
562.93	409.59
563.10	353.42
563.26	381.51
563.42	433.00
563.59	355.76
563.75	400.23
563.92	390.87
564.08	362.78
564.24	386.19
564.41	421.30
564.57	327.68
564.74	318.31
564.90	362.78
565.07	351.08
565.23	355.76
565.39	374.49
565.56	341.72
565.72	360.44
565.88	313.63
566.05	330.02
566.21	360.44
566.38	400.23
566.54	330.02
566.70	379.17
566.87	358.10
567.03	264.48
567.19	339.38
567.36	411.93
567.52	327.68
567.68	388.53
567.85	365.12
568.01	353.42
568.17	397.89
568.34	304.27
568.50	311.29
568.66	301.93
568.83	330.02
568.99	287.89
569.15	379.17
569.32	322.99
569.48	311.29
569.64	360.44
569.81	339.38
569.97	212.99
570.13	444.70
570.30	243.42
570.46	313.63
570.62	243.42
570.78	290.23
570.95	301.93
571.11	259.80
571.27	360.44
571.43	341.72
571.60	379.17
571.76	259.80
571.92	245.76
572.09	194.26
572.25	250.44
572.41	315.97
572.57	203.63
572.74	404.91
572.90	257.46
573.06	360.44
573.22	339.38
573.38	273.84
573.55	299.59
573.71	383.85
573.87	360.44
574.03	365.12
574.20	397.89
574.36	355.76
574.52	330.02
574.68	285.55
574.84	308.95
575.01	355.76
575.17	414.27
575.33	287.89
575.49	369.80
575.65	348.74
575.82	428.32
575.98	435.34
576.14	526.62
576.30	1006.43
576.46	2663.53
576.62	3412.50
576.79	3396.12
576.95	2527.78
577.11	1825.62
577.27	1254.53
577.43	1032.18
577.59	610.88
577.75	561.73
577.92	514.92
578.08	566.41
578.24	550.03
578.40	1100.05
578.56	2368.62
578.72	3323.56
578.88	3075.46
579.04	2431.82
579.21	1729.66
579.37	1306.02
579.53	1083.67
579.69	1191.33
579.85	1350.49
580.01	1584.54
580.17	1380.92
580.33	1231.12
580.49	1130.48
580.65	1006.43
580.82	983.02
580.98	933.87
581.14	936.21
581.30	1081.33
581.46	1128.14
581.62	1181.97
581.78	1245.16
581.94	1275.59
582.10	1273.25
582.26	1289.64
582.42	1357.51
582.58	1411.34
582.74	1507.30
582.90	1483.90
583.06	1523.69
583.22	1542.41
583.38	1460.49
583.54	1479.22
583.70	1535.39
583.86	1427.73
584.02	1385.60
584.18	1526.03
584.34	1437.09
584.50	1392.62
584.66	1308.36
584.82	1280.27
584.98	1362.19
585.14	1296.66
585.30	1170.27
585.46	1245.16
585.62	1282.61
585.78	1196.01
585.94	1270.91
586.10	1362.19
586.26	1266.23
586.42	1612.63
586.58	1816.26
586.74	2108.82
586.90	2527.78
587.06	2614.38
587.22	2497.35
587.38	2270.32
587.54	1991.80
587.70	1774.13
587.86	1511.99
588.02	1310.70
588.18	1254.53
588.34	1125.80
588.49	994.73
588.65	1008.77
588.81	870.68
588.97	840.25
589.13	823.87
589.29	905.79
589.45	940.90
589.61	854.30
589.77	968.98
589.93	884.72
590.08	999.41
590.24	926.85
590.40	917.49
590.56	1015.79
590.72	1020.47
590.88	933.87
591.04	1086.01
591.20	1048.56
591.35	1149.20
591.51	1114.10
591.67	1111.75
591.83	1315.38
591.99	1420.71
592.15	1411.34
592.31	1605.61
592.46	1757.74
592.62	1884.13
592.78	1968.39
592.94	1874.77
593.10	1802.21
593.26	1743.70
593.41	1696.89
593.57	1542.41
593.73	1317.72
593.89	1217.08
594.05	1053.24
594.20	887.06
594.36	997.07
594.52	922.17
594.68	915.15
594.84	784.08
594.99	896.43
595.15	800.46
595.31	777.06
595.47	791.10
595.62	737.27
595.78	798.12
595.94	784.08
596.10	858.98
596.25	868.34
596.41	784.08
596.57	793.44
596.73	784.08
596.88	819.19
597.04	711.52
597.20	765.36
597.36	905.79
597.51	837.91
597.67	816.85
597.83	882.38
597.99	933.87
598.14	926.85
598.30	1071.97
598.46	1088.35
598.61	1184.31
598.77	1123.46
598.93	1228.78
599.09	1308.36
599.24	1266.23
599.40	1280.27
599.56	1217.08
599.71	1130.48
599.87	1093.03
600.03	1118.78
600.18	912.81
600.34	994.73
600.50	819.19
600.65	753.65
600.81	816.85
600.97	784.08
601.12	667.05
601.28	706.84
601.44	660.03
601.59	657.69
601.75	559.39
601.91	624.92
602.06	573.43
602.22	674.07
602.37	566.41
602.53	599.18
602.69	664.71
602.84	550.03
603.00	617.90
603.16	587.47
603.31	671.73
603.47	606.20
603.62	575.77
603.78	552.37
603.94	606.20
604.09	610.88
604.25	767.70
604.40	601.52
604.56	547.69
604.71	683.44
604.87	636.63
605.03	727.91
605.18	734.93
605.34	767.70
605.49	683.44
605.65	620.24
605.80	760.67
605.96	692.80
606.12	725.57
606.27	774.72
606.43	823.87
606.58	901.11
606.74	849.61
606.89	823.87
607.05	933.87
607.20	940.90
607.36	1097.71
607.51	1076.65
607.67	1146.86
607.82	1142.18
607.98	1291.98
608.13	1387.94
608.29	1488.58
608.44	1425.39
