SpectraSuite Data File
++++++++++++++++++++++++++++++++++++
Date: Fri Oct 04 11:42:15 GMT-05:00 2013
User: price-jones
Dark Spectrum Present: No
Reference Spectrum Present: No
Number of Sampled Component Spectra: 1
Spectrometers: USB2+H05261
Integration Time (usec): 100000 (USB2+H05261)
Spectra Averaged: 1 (USB2+H05261)
Boxcar Smoothing: 0 (USB2+H05261)
Correct for Electrical Dark: No (USB2+H05261)
Strobe/Lamp Enabled: No (USB2+H05261)
Correct for Detector Non-linearity: No (USB2+H05261)
Correct for Stray Light: No (USB2+H05261)
Number of Pixels in Processed Spectrum: 2048
>>>>>Begin Processed Spectral Data<<<<<
365.73	74.90
365.92	74.90
366.12	74.90
366.32	0.00
366.52	0.00
366.72	0.00
366.91	0.00
367.11	0.00
367.31	0.00
367.51	0.00
367.70	0.00
367.90	0.00
368.10	0.00
368.30	0.00
368.49	0.00
368.69	0.00
368.89	0.00
369.09	0.00
369.28	0.00
369.48	0.00
369.68	0.00
369.87	0.00
370.07	0.00
370.27	4.68
370.47	100.64
370.66	362.78
370.86	332.36
371.06	278.52
371.25	421.30
371.45	322.99
371.65	313.63
371.84	313.63
372.04	334.70
372.24	383.85
372.44	355.76
372.63	374.49
372.83	383.85
373.03	287.89
373.22	346.40
373.42	290.23
373.62	372.15
373.81	421.30
374.01	330.02
374.21	388.53
374.40	294.91
374.60	407.25
374.79	376.83
374.99	435.34
375.19	416.62
375.38	440.02
375.58	421.30
375.78	451.72
375.97	400.23
376.17	489.17
376.37	423.64
376.56	472.79
376.76	521.94
376.95	341.72
377.15	540.66
377.35	526.62
377.54	559.39
377.74	517.26
377.93	545.34
378.13	531.30
378.33	524.28
378.52	440.02
378.72	463.43
378.91	521.94
379.11	388.53
379.31	414.27
379.50	456.40
379.70	489.17
379.89	547.69
380.09	477.47
380.28	564.07
380.48	468.11
380.68	428.32
380.87	510.24
381.07	496.19
381.26	540.66
381.46	451.72
381.65	395.55
381.85	397.89
382.04	409.59
382.24	367.46
382.43	411.93
382.63	355.76
382.83	404.91
383.02	315.97
383.22	421.30
383.41	360.44
383.61	344.06
383.80	416.62
384.00	444.70
384.19	533.64
384.39	547.69
384.58	538.32
384.78	505.56
384.97	552.37
385.17	470.45
385.36	442.36
385.56	461.09
385.75	477.47
385.95	498.53
386.14	566.41
386.34	510.24
386.53	458.74
386.72	437.68
386.92	531.30
387.11	477.47
387.31	568.75
387.50	463.43
387.70	538.32
387.89	475.13
388.09	514.92
388.28	414.27
388.48	531.30
388.67	557.05
388.86	514.92
389.06	627.26
389.25	627.26
389.45	631.94
389.64	606.20
389.84	510.24
390.03	545.34
390.22	615.56
390.42	582.79
390.61	641.31
390.81	674.07
391.00	713.86
391.19	653.01
391.39	685.78
391.58	704.50
391.78	627.26
391.97	620.24
392.16	559.39
392.36	566.41
392.55	538.32
392.75	388.53
392.94	320.65
393.13	386.19
393.33	395.55
393.52	393.21
393.71	543.00
393.91	543.00
394.10	568.75
394.29	603.86
394.49	653.01
394.68	718.54
394.88	711.52
395.07	805.14
395.26	816.85
395.46	763.01
395.65	763.01
395.84	641.31
396.04	631.94
396.23	489.17
396.42	346.40
396.62	402.57
396.81	500.87
397.00	519.60
397.19	702.16
397.39	737.27
397.58	933.87
397.77	884.72
397.97	873.02
398.16	898.77
398.35	901.11
398.55	891.74
398.74	926.85
398.93	978.34
399.12	959.62
399.32	894.08
399.51	954.94
399.70	999.41
399.90	1027.50
400.09	1011.11
400.28	968.98
400.47	1039.20
400.67	1060.26
400.86	1057.92
401.05	1111.75
401.24	947.92
401.44	1053.24
401.63	992.39
401.82	1074.31
402.01	1071.97
402.21	1081.33
402.40	1100.05
402.59	1020.47
402.78	1048.56
402.97	978.34
403.17	997.07
403.36	1029.84
403.55	1102.39
403.74	1083.67
403.93	1212.40
404.13	1181.97
404.32	1144.52
404.51	1193.67
404.70	1144.52
404.89	1025.15
405.09	1135.16
405.28	1048.56
405.47	1050.90
405.66	1022.81
405.85	1067.28
406.05	966.64
406.24	910.47
406.43	1036.86
406.62	1053.24
406.81	1128.14
407.00	1078.99
407.20	1128.14
407.39	980.68
407.58	1074.31
407.77	1107.07
407.96	1156.22
408.15	1179.63
408.34	1167.93
408.54	1207.72
408.73	1170.27
408.92	1226.44
409.11	1142.18
409.30	1116.44
409.49	983.02
409.68	1029.84
409.87	968.98
410.07	1043.88
410.26	1125.80
410.45	1036.86
410.64	1186.65
410.83	1181.97
411.02	1205.38
411.21	1228.78
411.40	1196.01
411.59	1238.14
411.78	1348.15
411.98	1177.29
412.17	1172.61
412.36	1301.34
412.55	1233.46
412.74	1245.16
412.93	1172.61
413.12	1240.48
413.31	1256.87
413.50	1301.34
413.69	1331.76
413.88	1341.13
414.07	1282.61
414.26	1198.35
414.45	1277.93
414.64	1334.11
414.83	1322.40
415.02	1207.72
415.22	1331.76
415.41	1352.83
415.60	1378.58
415.79	1362.19
415.98	1444.11
416.17	1399.64
416.36	1409.00
416.55	1322.40
416.74	1341.13
416.93	1256.87
417.12	1343.47
417.31	1380.92
417.50	1280.27
417.69	1413.68
417.88	1371.55
418.07	1306.02
418.26	1362.19
418.45	1350.49
418.64	1385.60
418.83	1324.74
419.02	1444.11
419.21	1427.73
419.39	1296.66
419.58	1184.31
419.77	1348.15
419.96	1390.28
420.15	1359.85
420.34	1535.39
420.53	1549.43
420.72	1547.09
420.91	1390.28
421.10	1521.35
421.29	1509.65
421.48	1437.09
421.67	1558.80
421.86	1481.56
422.05	1324.74
422.24	1228.78
422.43	1247.51
422.61	1289.64
422.80	1488.58
422.99	1479.22
423.18	1390.28
423.37	1418.36
423.56	1430.07
423.75	1270.91
423.94	1348.15
424.13	1324.74
424.32	1310.70
424.50	1469.86
424.69	1455.81
424.88	1423.05
425.07	1345.81
425.26	1383.26
425.45	1252.19
425.64	1329.42
425.83	1338.79
426.01	1411.34
426.20	1411.34
426.39	1352.83
426.58	1228.78
426.77	1228.78
426.96	1235.80
427.15	1207.72
427.33	1240.48
427.52	1299.00
427.71	1322.40
427.90	1301.34
428.09	1371.55
428.28	1336.45
428.46	1329.42
428.65	1210.06
428.84	1299.00
429.03	1366.87
429.22	1153.88
429.40	1132.82
429.59	1053.24
429.78	1046.22
429.97	945.58
430.16	983.02
430.34	1064.94
430.53	978.34
430.72	1025.15
430.91	1125.80
431.10	1231.12
431.28	1469.86
431.47	1636.03
431.66	1650.08
431.85	1455.81
432.03	1394.96
432.22	1439.43
432.41	1383.26
432.60	1490.92
432.79	1551.78
432.97	1605.61
433.16	1507.30
433.35	1348.15
433.54	1231.12
433.72	1273.25
433.91	1261.55
434.10	1399.64
434.28	1430.07
434.47	1596.25
434.66	1556.46
434.85	1511.99
435.03	1472.20
435.22	1827.96
435.41	2338.20
435.59	2436.50
435.78	2209.47
435.97	1886.47
436.16	1736.68
436.34	1558.80
436.53	1689.87
436.72	1680.50
436.90	1593.90
437.09	1610.29
437.28	1462.83
437.46	1507.30
437.65	1533.05
437.84	1507.30
438.02	1345.81
438.21	1362.19
438.40	1432.41
438.58	1575.18
438.77	1610.29
438.96	1643.06
439.14	1551.78
439.33	1652.42
439.52	1640.72
439.70	1577.52
439.89	1633.69
440.08	1577.52
440.26	1610.29
440.45	1680.50
440.63	1610.29
440.82	1696.89
441.01	1771.79
441.19	1675.82
441.38	1717.95
441.57	1816.26
441.75	1968.39
441.94	1851.36
442.12	1778.81
442.31	1856.04
442.50	1916.90
442.68	1832.64
442.87	1825.62
443.05	1856.04
443.24	1816.26
443.43	1837.32
443.61	1809.23
443.80	1867.75
443.98	1736.68
444.17	1732.00
444.35	1952.01
444.54	1872.43
444.73	1881.79
444.91	1863.07
445.10	1696.89
445.28	1792.85
445.47	1818.60
445.65	1741.36
445.84	1694.55
446.02	1823.28
446.21	1771.79
446.39	1928.60
446.58	1912.22
446.77	1827.96
446.95	1881.79
447.14	1954.35
447.32	1952.01
447.51	1886.47
447.69	1743.70
447.88	1834.98
448.06	1865.41
448.25	1952.01
448.43	1858.39
448.62	1863.07
448.80	1792.85
448.99	1879.45
449.17	1797.53
449.36	1741.36
449.54	1914.56
449.73	1952.01
449.91	2015.20
450.10	2090.10
450.28	2120.53
450.46	2064.35
450.65	2052.65
450.83	2036.27
451.02	1994.14
451.20	2108.82
451.39	1982.43
451.57	1970.73
451.76	1952.01
451.94	2033.93
452.13	2057.33
452.31	1947.33
452.49	1809.23
452.68	1886.47
452.86	1898.17
453.05	1923.92
453.23	1781.15
453.42	1884.13
453.60	1870.09
453.78	1984.77
453.97	1987.11
454.15	1977.75
454.34	1905.20
454.52	2003.50
454.70	1947.33
454.89	1844.34
455.07	1867.75
455.26	1977.75
455.44	2090.10
455.62	2076.06
455.81	2073.71
455.99	2125.21
456.17	2024.56
456.36	1973.07
456.54	2129.89
456.73	2050.31
456.91	1975.41
457.09	2015.20
457.28	2153.29
457.46	2120.53
457.64	2197.76
457.83	1989.46
458.01	1935.62
458.19	1996.48
458.38	1977.75
458.56	2104.14
458.74	1984.77
458.93	2092.44
459.11	1970.73
459.29	1980.09
459.48	2057.33
459.66	2062.01
459.84	2064.35
460.03	2139.25
460.21	2036.27
460.39	2040.95
460.57	2204.78
460.76	2094.78
460.94	2172.02
461.12	2162.66
461.31	2078.40
461.49	2073.71
461.67	2057.33
461.85	2235.21
462.04	2207.13
462.22	2368.62
462.40	2146.27
462.59	2150.95
462.77	2052.65
462.95	2148.61
463.13	2108.82
463.32	2134.57
463.50	2113.50
463.68	2036.27
463.86	2127.55
464.05	2101.80
464.23	2022.22
464.41	1966.05
464.59	1996.48
464.78	2062.01
464.96	2094.78
465.14	2083.08
465.32	2225.85
465.50	2141.59
465.69	2246.91
465.87	2146.27
466.05	2022.22
466.23	2043.29
466.41	2057.33
466.60	2085.42
466.78	2019.88
466.96	2026.90
467.14	2111.16
467.32	2106.48
467.51	2076.06
467.69	1996.48
467.87	2085.42
468.05	2047.97
468.23	2080.74
468.41	2139.25
468.60	2022.22
468.78	2050.31
468.96	2085.42
469.14	2085.42
469.32	2022.22
469.50	2057.33
469.69	2059.67
469.87	1912.22
470.05	2050.31
470.23	2019.88
470.41	1996.48
470.59	2059.67
470.77	1996.48
470.95	2036.27
471.14	2083.08
471.32	2069.03
471.50	2207.13
471.68	2338.20
471.86	2223.51
472.04	2272.66
472.22	2239.89
472.40	2209.47
472.58	2120.53
472.77	2008.18
472.95	2106.48
473.13	2160.31
473.31	2160.31
473.49	2153.29
473.67	2132.23
473.85	2193.08
474.03	2235.21
474.21	2401.39
474.39	2326.49
474.57	2179.04
474.75	2251.60
474.93	2146.27
475.12	2155.63
475.30	2251.60
475.48	2293.72
475.66	2221.17
475.84	2214.15
476.02	2314.79
476.20	2197.76
476.38	2289.04
476.56	2324.15
476.74	2296.07
476.92	2335.85
477.10	2363.94
477.28	2370.96
477.46	2389.69
477.64	2469.27
477.82	2644.81
478.00	2480.97
478.18	2448.20
478.36	2333.51
478.54	2459.90
478.72	2377.98
478.90	2518.42
479.08	2574.59
479.26	2574.59
479.44	2649.49
479.62	2525.44
479.80	2637.78
479.98	2565.23
480.16	2698.64
480.34	2663.53
480.52	2684.59
480.70	2691.62
480.88	2597.99
481.06	2635.44
481.24	2569.91
481.41	2843.75
481.59	2768.85
481.77	2803.96
481.95	2778.22
482.13	2775.88
482.31	2775.88
482.49	2616.72
482.67	2787.58
482.85	2878.86
483.03	2813.32
483.21	2939.71
483.39	2860.13
483.57	2909.29
483.74	2782.90
483.92	2778.22
484.10	2782.90
484.28	2881.20
484.46	2963.12
484.64	2970.14
484.82	2843.75
485.00	2874.18
485.18	2843.75
485.35	2684.59
485.53	2616.72
485.71	2480.97
485.89	2399.05
486.07	2408.41
486.25	2658.85
486.43	2724.38
486.61	2977.16
486.78	2899.92
486.96	2904.60
487.14	2970.14
487.32	3059.08
487.50	3136.32
487.68	3108.23
487.85	3108.23
488.03	3265.05
488.21	3208.87
488.39	3187.81
488.57	3082.49
488.75	2972.48
488.92	3363.35
489.10	3290.79
489.28	3403.14
489.46	3447.61
489.64	3520.17
489.81	3358.67
489.99	3452.29
490.17	3485.06
490.35	3389.10
490.53	3410.16
490.70	3480.38
490.88	3396.12
491.06	3456.97
491.24	3536.55
491.41	3496.76
491.59	3442.93
491.77	3180.79
491.95	3239.30
492.13	3351.65
492.30	3391.44
492.48	3559.95
492.66	3639.53
492.84	3672.30
493.01	3667.62
493.19	3398.46
493.37	3585.70
493.54	3627.83
493.72	3660.60
493.90	3672.30
494.08	3679.32
494.25	3765.92
494.43	3723.79
494.61	3915.72
494.79	3889.97
494.96	3772.94
495.14	3789.33
495.32	3712.09
495.49	3571.66
495.67	3721.45
495.85	3873.59
496.02	3864.22
496.20	3901.67
496.38	3896.99
496.55	3885.29
496.73	3955.51
496.91	3992.95
497.09	3946.14
497.26	3824.44
497.44	3871.25
497.62	3723.79
497.79	3868.91
497.97	3609.11
498.14	3829.12
498.32	3730.81
498.50	4018.70
498.67	3929.76
498.85	4072.53
499.03	3887.63
499.20	3950.82
499.38	3920.40
499.56	4023.38
499.73	3920.40
499.91	3822.09
500.08	3779.97
500.26	3625.49
500.44	3648.90
500.61	3833.80
500.79	3733.15
500.97	3791.67
501.14	3730.81
501.32	3695.71
501.49	3590.38
501.67	3700.39
501.84	3721.45
502.02	3712.09
502.20	3904.01
502.37	3786.99
502.55	3716.77
502.72	3784.65
502.90	3948.48
503.07	3880.61
503.25	3796.35
503.43	3630.17
503.60	3686.34
503.78	3571.66
503.95	3522.51
504.13	3616.13
504.30	3908.69
504.48	3946.14
504.65	3953.16
504.83	3871.25
505.01	3992.95
505.18	4091.26
505.36	3990.61
505.53	3990.61
505.71	4140.41
505.88	4058.49
506.06	3913.38
506.23	3974.23
506.41	3936.78
506.58	4002.32
506.76	4051.47
506.93	3845.50
507.11	3761.24
507.28	3786.99
507.46	3796.35
507.63	3812.73
507.81	3667.62
507.98	3843.16
508.16	3843.16
508.33	3957.85
508.50	4128.70
508.68	4121.68
508.85	4184.88
509.03	4109.98
509.20	4210.62
509.38	4077.21
509.55	4049.13
509.73	4028.06
509.90	3939.12
510.08	4184.88
510.25	4156.79
510.42	4077.21
510.60	3976.57
510.77	4072.53
510.95	4058.49
511.12	4077.21
511.30	4095.94
511.47	4245.73
511.64	4367.44
511.82	4346.37
511.99	4250.41
512.17	4147.43
512.34	3955.51
512.51	3936.78
512.69	4084.23
512.86	4128.70
513.04	3992.95
513.21	3978.91
513.38	3997.64
513.56	3913.38
513.73	3988.27
513.90	4145.09
514.08	3887.63
514.25	4070.19
514.43	3946.14
514.60	3896.99
514.77	4016.36
514.95	4058.49
515.12	4058.49
515.29	4173.18
515.47	4182.54
515.64	4191.90
515.81	4203.60
515.99	4093.60
516.16	3810.39
516.33	3606.77
516.51	3438.25
516.68	3384.41
516.85	3365.69
517.03	3342.28
517.20	3744.86
517.37	3941.46
517.54	4042.11
517.72	3990.61
517.89	3522.51
518.06	3496.76
518.24	3473.36
518.41	3845.50
518.58	3901.67
518.75	3878.27
518.93	3927.42
519.10	3889.97
519.27	3936.78
519.45	4098.28
519.62	4114.66
519.79	4262.12
519.96	4156.79
520.14	4187.22
520.31	3955.51
520.48	3861.88
520.65	3901.67
520.83	4142.75
521.00	4269.14
521.17	4117.00
521.34	4051.47
521.52	4196.58
521.69	4203.60
521.86	4219.99
522.03	4290.20
522.20	4056.15
522.38	3833.80
522.55	3857.20
522.72	3899.33
522.89	4079.55
523.07	4109.98
523.24	4187.22
523.41	4180.20
523.58	4208.28
523.75	4341.69
523.92	4297.22
524.10	4259.78
524.27	4215.30
524.44	4243.39
524.61	4201.26
524.78	4217.65
524.96	4145.09
525.13	4245.73
525.30	4252.75
525.47	4402.55
525.64	4318.29
525.81	4257.43
525.98	3997.64
526.16	3878.27
526.33	3637.19
526.50	3681.66
526.67	3716.77
526.84	3611.45
527.01	3854.86
527.18	3983.59
527.36	4023.38
527.53	4154.45
527.70	4341.69
527.87	4133.39
528.04	4208.28
528.21	4102.96
528.38	4271.48
528.55	4362.76
528.72	4423.61
528.89	4526.60
529.07	4461.06
529.24	4210.62
529.41	4311.27
529.58	4070.19
529.75	4177.86
529.92	4280.84
530.09	4126.36
530.26	4290.20
530.43	4390.84
530.60	4407.23
530.77	4449.36
530.94	4444.68
531.11	4311.27
531.28	4390.84
531.46	4229.35
531.63	4173.18
531.80	4304.25
531.97	4292.54
532.14	4227.01
532.31	4063.17
532.48	3782.31
532.65	3915.72
532.82	3969.55
532.99	4177.86
533.16	4053.81
533.33	4468.08
533.50	4273.82
533.67	4229.35
533.84	4077.21
534.01	4222.33
534.18	4161.47
534.35	4308.93
534.52	4114.66
534.69	4189.56
534.86	4145.09
535.03	4266.80
535.20	4236.37
535.37	4404.89
535.54	4325.31
535.71	4404.89
535.88	4332.33
536.05	4222.33
536.22	4229.35
536.38	4152.11
536.55	4044.45
536.72	4086.58
536.89	3953.16
537.06	4107.64
537.23	4255.09
537.40	4227.01
537.57	4510.21
537.74	4365.10
537.91	4290.20
538.08	4353.40
538.25	4292.54
538.42	4283.18
538.59	4400.21
538.75	4322.97
538.92	4241.05
539.09	4210.62
539.26	4163.81
539.43	4166.15
539.60	4236.37
539.77	4304.25
539.94	4278.50
540.11	4194.24
540.28	4161.47
540.44	4128.70
540.61	4234.03
540.78	4231.69
540.95	4444.68
541.12	4564.04
541.29	4697.46
541.46	4610.86
541.62	4751.29
541.79	4699.80
541.96	4704.48
542.13	4720.86
542.30	4627.24
542.47	4727.88
542.63	4587.45
542.80	4484.47
542.97	4631.92
543.14	4482.13
543.31	4484.47
543.48	4596.81
543.64	4730.22
543.81	4744.27
543.98	4739.58
544.15	4528.94
544.32	4454.04
544.48	4528.94
544.65	4484.47
544.82	4683.41
544.99	4472.76
545.16	4631.92
545.32	4596.81
545.49	5078.96
545.66	5757.72
545.83	6106.46
546.00	5905.17
546.16	5186.63
546.33	5004.07
546.50	4550.00
546.67	4727.88
546.83	4526.60
547.00	4465.74
547.17	4379.14
547.34	4184.88
547.50	4266.80
547.67	4276.16
547.84	4201.26
548.00	4325.31
548.17	4346.37
548.34	4072.53
548.51	4367.44
548.67	4372.12
548.84	4280.84
549.01	4236.37
549.18	4194.24
549.34	4105.30
549.51	4173.18
549.68	4278.50
549.84	4255.09
550.01	4107.64
550.18	4287.86
550.34	4287.86
550.51	4177.86
550.68	4201.26
550.84	4112.32
551.01	4074.87
551.18	4074.87
551.34	4208.28
551.51	3992.95
551.68	4154.45
551.84	4332.33
552.01	4205.94
552.18	4304.25
552.34	4018.70
552.51	3997.64
552.68	3969.55
552.84	4044.45
553.01	4065.51
553.18	4077.21
553.34	4063.17
553.51	4112.32
553.67	3985.93
553.84	4156.79
554.01	4086.58
554.17	4004.66
554.34	3981.25
554.51	4152.11
554.67	4163.81
554.84	4046.79
555.00	3953.16
555.17	3962.53
555.33	3899.33
555.50	3995.29
555.67	3962.53
555.83	3868.91
556.00	3901.67
556.16	3988.27
556.33	3857.20
556.50	3929.76
556.66	3840.82
556.83	3906.35
556.99	3887.63
557.16	3887.63
557.32	3733.15
557.49	3936.78
557.65	3854.86
557.82	3840.82
557.98	3866.56
558.15	3929.76
558.32	3789.33
558.48	3632.51
558.65	3667.62
558.81	3761.24
558.98	3719.11
559.14	3887.63
559.31	3721.45
559.47	3658.26
559.64	3819.75
559.80	3618.47
559.97	3723.79
560.13	3784.65
560.30	3730.81
560.46	3824.44
560.63	3885.29
560.79	3859.54
560.96	3850.18
561.12	3672.30
561.29	3775.28
561.45	3707.41
561.61	3557.61
561.78	3854.86
561.94	3796.35
562.11	3838.48
562.27	3763.58
562.44	3674.64
562.60	3836.14
562.77	3850.18
562.93	3936.78
563.10	3850.18
563.26	3744.86
563.42	3822.09
563.59	3749.54
563.75	3777.62
563.92	3803.37
564.08	3733.15
564.24	3735.50
564.41	3786.99
564.57	3698.05
564.74	3651.24
564.90	3723.79
565.07	3616.13
565.23	3627.83
565.39	3555.27
565.56	3609.11
565.72	3520.17
565.88	3534.21
566.05	3524.85
566.21	3473.36
566.38	3602.08
566.54	3524.85
566.70	3627.83
566.87	3655.92
567.03	3714.43
567.19	3595.06
567.36	3695.71
567.52	3648.90
567.68	3625.49
567.85	3557.61
568.01	3452.29
568.17	3309.52
568.34	3332.92
568.50	3309.52
568.66	3389.10
568.83	3328.24
568.99	3356.33
569.15	3433.57
569.32	3365.69
569.48	3396.12
569.64	3480.38
569.81	3255.69
569.97	3255.69
570.13	3361.01
570.30	3353.99
570.46	3276.75
570.62	3286.11
570.78	3323.56
570.95	3258.03
571.11	3325.90
571.27	3279.09
571.43	3496.76
571.60	3421.86
571.76	3377.39
571.92	3581.02
572.09	3281.43
572.25	3417.18
572.41	3410.16
572.57	3426.54
572.74	3440.59
572.90	3494.42
573.06	3356.33
573.22	3365.69
573.38	3529.53
573.55	3531.87
573.71	3468.67
573.87	3377.39
574.03	3281.43
574.20	3386.76
574.36	3295.47
574.52	3309.52
574.68	3356.33
574.84	3255.69
575.01	3190.15
575.17	3166.74
575.33	3241.64
575.49	3185.47
575.65	3358.67
575.82	3281.43
575.98	3365.69
576.14	3307.18
576.30	3414.84
576.46	3613.79
576.62	3625.49
576.79	3599.74
576.95	3536.55
577.11	3419.52
577.27	3386.76
577.43	3384.41
577.59	3389.10
577.75	3222.92
577.92	3290.79
578.08	3283.77
578.24	3056.74
578.40	3358.67
578.56	3501.44
578.72	3562.30
578.88	3604.42
579.04	3452.29
579.21	3510.80
579.37	3339.94
579.53	3382.07
579.69	3468.67
579.85	3478.04
580.01	3442.93
580.17	3358.67
580.33	3478.04
580.49	3412.50
580.65	3396.12
580.82	3494.42
580.98	3468.67
581.14	3337.60
581.30	3372.71
581.46	3297.81
581.62	3398.46
581.78	3361.01
581.94	3396.12
582.10	3454.63
582.26	3456.97
582.42	3442.93
582.58	3433.57
582.74	3419.52
582.90	3522.51
583.06	3520.17
583.22	3407.82
583.38	3396.12
583.54	3372.71
583.70	3419.52
583.86	3428.88
584.02	3332.92
584.18	3482.72
584.34	3447.61
584.50	3435.91
584.66	3365.69
584.82	3370.37
584.98	3372.71
585.14	3269.73
585.30	3384.41
585.46	3225.26
585.62	3211.22
585.78	3241.64
585.94	3300.16
586.10	3201.85
586.26	3236.96
586.42	3276.75
586.58	3157.38
586.74	3290.79
586.90	3424.20
587.06	3363.35
587.22	3332.92
587.38	3215.90
587.54	3234.62
587.70	3183.13
587.86	3012.27
588.02	2876.52
588.18	2928.01
588.34	2846.09
588.49	2527.78
588.65	2373.30
588.81	2354.58
588.97	2368.62
589.13	2455.22
589.29	2408.41
589.45	2291.38
589.61	2476.29
589.77	2546.50
589.93	2654.17
590.08	2703.32
590.24	2698.64
590.40	2857.79
590.56	2761.83
590.72	2785.24
590.88	2656.51
591.04	2759.49
591.20	2773.53
591.35	2771.19
591.51	2738.43
591.67	2736.09
591.83	2612.04
591.99	2740.77
592.15	2668.21
592.31	2780.56
592.46	2967.80
592.62	2867.16
592.78	2846.09
592.94	2860.13
593.10	2958.44
593.26	3049.72
593.41	2920.99
593.57	3002.91
593.73	2818.00
593.89	2637.78
594.05	2537.14
594.20	2523.10
594.36	2499.69
594.52	2502.03
594.68	2654.17
594.84	2675.23
594.99	2806.30
595.15	2818.00
595.31	2820.35
595.47	2717.36
595.62	2782.90
595.78	2820.35
595.94	2750.13
596.10	2998.23
596.25	2745.45
596.41	2661.19
596.57	2640.12
596.73	2675.23
596.88	2888.22
597.04	2787.58
597.20	2808.64
597.36	2696.30
597.51	2609.70
597.67	2574.59
597.83	2913.97
597.99	2839.07
598.14	2827.37
