SpectraSuite Data File
++++++++++++++++++++++++++++++++++++
Date: Fri Oct 04 11:42:24 GMT-05:00 2013
User: price-jones
Dark Spectrum Present: No
Reference Spectrum Present: No
Number of Sampled Component Spectra: 1
Spectrometers: USB2+H05261
Integration Time (usec): 100000 (USB2+H05261)
Spectra Averaged: 1 (USB2+H05261)
Boxcar Smoothing: 0 (USB2+H05261)
Correct for Electrical Dark: No (USB2+H05261)
Strobe/Lamp Enabled: No (USB2+H05261)
Correct for Detector Non-linearity: No (USB2+H05261)
Correct for Stray Light: No (USB2+H05261)
Number of Pixels in Processed Spectrum: 2048
>>>>>Begin Processed Spectral Data<<<<<
365.73	95.96
365.92	95.96
366.12	95.96
366.32	0.00
366.52	0.00
366.72	25.75
366.91	0.00
367.11	0.00
367.31	0.00
367.51	0.00
367.70	0.00
367.90	0.00
368.10	0.00
368.30	0.00
368.49	0.00
368.69	0.00
368.89	0.00
369.09	0.00
369.28	0.00
369.48	0.00
369.68	0.00
369.87	0.00
370.07	0.00
370.27	0.00
370.47	72.56
370.66	0.00
370.86	95.96
371.06	46.81
371.25	100.64
371.45	46.81
371.65	110.01
371.84	81.92
372.04	0.00
372.24	102.98
372.44	39.79
372.63	77.24
372.83	110.01
373.03	72.56
373.22	93.62
373.42	93.62
373.62	100.64
373.81	100.64
374.01	105.32
374.21	196.60
374.40	107.66
374.60	102.98
374.79	149.79
374.99	79.58
375.19	142.77
375.38	98.30
375.58	107.66
375.78	77.24
375.97	117.03
376.17	124.05
376.37	140.43
376.56	212.99
376.76	156.82
376.95	93.62
377.15	98.30
377.35	142.77
377.54	124.05
377.74	119.37
377.93	74.90
378.13	110.01
378.33	194.26
378.52	49.15
378.72	72.56
378.91	175.54
379.11	149.79
379.31	138.09
379.50	98.30
379.70	105.32
379.89	70.22
380.09	23.41
380.28	147.45
380.48	135.75
380.68	63.19
380.87	95.96
381.07	161.50
381.26	196.60
381.46	170.86
381.65	95.96
381.85	119.37
382.04	145.11
382.24	74.90
382.43	140.43
382.63	95.96
382.83	159.16
383.02	110.01
383.22	159.16
383.41	114.69
383.61	114.69
383.80	149.79
384.00	114.69
384.19	145.11
384.39	112.35
384.58	170.86
384.78	95.96
384.97	175.54
385.17	110.01
385.36	93.62
385.56	98.30
385.75	124.05
385.95	58.51
386.14	117.03
386.34	49.15
386.53	126.39
386.72	67.88
386.92	152.13
387.11	124.05
387.31	100.64
387.50	100.64
387.70	9.36
387.89	81.92
388.09	16.38
388.28	72.56
388.48	114.69
388.67	93.62
388.86	63.19
389.06	72.56
389.25	114.69
389.45	53.83
389.64	79.58
389.84	121.71
390.03	112.35
390.22	145.11
390.42	46.81
390.61	112.35
390.81	46.81
391.00	168.52
391.19	110.01
391.39	110.01
391.58	107.66
391.78	128.73
391.97	161.50
392.16	107.66
392.36	191.92
392.55	121.71
392.75	145.11
392.94	100.64
393.13	88.94
393.33	91.28
393.52	81.92
393.71	126.39
393.91	88.94
394.10	105.32
394.29	37.45
394.49	63.19
394.68	93.62
394.88	81.92
395.07	128.73
395.26	107.66
395.46	112.35
395.65	142.77
395.84	112.35
396.04	135.75
396.23	152.13
396.42	121.71
396.62	140.43
396.81	16.38
397.00	58.51
397.19	152.13
397.39	114.69
397.58	128.73
397.77	88.94
397.97	128.73
398.16	128.73
398.35	95.96
398.55	166.18
398.74	119.37
398.93	102.98
399.12	72.56
399.32	114.69
399.51	84.26
399.70	161.50
399.90	210.65
400.09	168.52
400.28	117.03
400.47	93.62
400.67	72.56
400.86	140.43
401.05	135.75
401.24	100.64
401.44	234.05
401.63	145.11
401.82	154.48
402.01	145.11
402.21	128.73
402.40	126.39
402.59	88.94
402.78	74.90
402.97	135.75
403.17	126.39
403.36	100.64
403.55	84.26
403.74	124.05
403.93	175.54
404.13	330.02
404.32	266.82
404.51	276.18
404.70	203.63
404.89	173.20
405.09	168.52
405.28	133.41
405.47	133.41
405.66	117.03
405.85	126.39
406.05	142.77
406.24	37.45
406.43	39.79
406.62	154.48
406.81	126.39
407.00	133.41
407.20	93.62
407.39	133.41
407.58	112.35
407.77	182.56
407.96	163.84
408.15	128.73
408.34	51.49
408.54	121.71
408.73	95.96
408.92	72.56
409.11	121.71
409.30	161.50
409.49	138.09
409.68	140.43
409.87	177.88
410.07	102.98
410.26	187.24
410.45	81.92
410.64	53.83
410.83	126.39
411.02	147.45
411.21	149.79
411.40	98.30
411.59	138.09
411.78	133.41
411.98	95.96
412.17	100.64
412.36	168.52
412.55	95.96
412.74	124.05
412.93	168.52
413.12	138.09
413.31	180.22
413.50	102.98
413.69	154.48
413.88	166.18
414.07	117.03
414.26	114.69
414.45	126.39
414.64	93.62
414.83	180.22
415.02	72.56
415.22	145.11
415.41	182.56
415.60	102.98
415.79	161.50
415.98	112.35
416.17	138.09
416.36	147.45
416.55	67.88
416.74	112.35
416.93	154.48
417.12	159.16
417.31	102.98
417.50	140.43
417.69	180.22
417.88	102.98
418.07	84.26
418.26	84.26
418.45	102.98
418.64	140.43
418.83	217.67
419.02	145.11
419.21	114.69
419.39	138.09
419.58	154.48
419.77	145.11
419.96	112.35
420.15	170.86
420.34	138.09
420.53	173.20
420.72	91.28
420.91	163.84
421.10	198.95
421.29	114.69
421.48	205.97
421.67	152.13
421.86	154.48
422.05	51.49
422.24	142.77
422.43	112.35
422.61	135.75
422.80	124.05
422.99	72.56
423.18	149.79
423.37	133.41
423.56	110.01
423.75	152.13
423.94	154.48
424.13	128.73
424.32	159.16
424.50	203.63
424.69	65.54
424.88	159.16
425.07	163.84
425.26	105.32
425.45	255.12
425.64	119.37
425.83	117.03
426.01	133.41
426.20	173.20
426.39	131.07
426.58	166.18
426.77	102.98
426.96	229.37
427.15	156.82
427.33	72.56
427.52	166.18
427.71	161.50
427.90	170.86
428.09	107.66
428.28	72.56
428.46	105.32
428.65	201.29
428.84	142.77
429.03	147.45
429.22	138.09
429.40	159.16
429.59	121.71
429.78	168.52
429.97	159.16
430.16	117.03
430.34	100.64
430.53	16.38
430.72	177.88
430.91	212.99
431.10	121.71
431.28	156.82
431.47	184.90
431.66	166.18
431.85	95.96
432.03	140.43
432.22	198.95
432.41	138.09
432.60	198.95
432.79	124.05
432.97	201.29
433.16	140.43
433.35	205.97
433.54	180.22
433.72	149.79
433.91	184.90
434.10	194.26
434.28	154.48
434.47	154.48
434.66	194.26
434.85	194.26
435.03	355.76
435.22	664.71
435.41	1137.50
435.59	1109.41
435.78	830.89
435.97	416.62
436.16	330.02
436.34	194.26
436.53	163.84
436.72	102.98
436.90	208.31
437.09	163.84
437.28	166.18
437.46	142.77
437.65	180.22
437.84	208.31
438.02	173.20
438.21	131.07
438.40	147.45
438.58	117.03
438.77	201.29
438.96	159.16
439.14	175.54
439.33	217.67
439.52	168.52
439.70	184.90
439.89	138.09
440.08	175.54
440.26	196.60
440.45	173.20
440.63	243.42
440.82	187.24
441.01	170.86
441.19	159.16
441.38	128.73
441.57	126.39
441.75	198.95
441.94	161.50
442.12	142.77
442.31	154.48
442.50	124.05
442.68	168.52
442.87	133.41
443.05	152.13
443.24	231.71
443.43	184.90
443.61	159.16
443.80	161.50
443.98	168.52
444.17	170.86
444.35	241.08
444.54	88.94
444.73	159.16
444.91	110.01
445.10	131.07
445.28	102.98
445.47	168.52
445.65	180.22
445.84	140.43
446.02	175.54
446.21	170.86
446.39	196.60
446.58	194.26
446.77	191.92
446.95	210.65
447.14	184.90
447.32	191.92
447.51	187.24
447.69	149.79
447.88	131.07
448.06	156.82
448.25	231.71
448.43	227.03
448.62	145.11
448.80	187.24
448.99	170.86
449.17	147.45
449.36	72.56
449.54	231.71
449.73	154.48
449.91	161.50
450.10	161.50
450.28	191.92
450.46	245.76
450.65	208.31
450.83	156.82
451.02	163.84
451.20	198.95
451.39	187.24
451.57	161.50
451.76	140.43
451.94	177.88
452.13	175.54
452.31	126.39
452.49	105.32
452.68	140.43
452.86	145.11
453.05	191.92
453.23	208.31
453.42	154.48
453.60	191.92
453.78	198.95
453.97	128.73
454.15	147.45
454.34	210.65
454.52	198.95
454.70	203.63
454.89	198.95
455.07	98.30
455.26	168.52
455.44	147.45
455.62	154.48
455.81	196.60
455.99	189.58
456.17	208.31
456.36	177.88
456.54	187.24
456.73	119.37
456.91	184.90
457.09	227.03
457.28	154.48
457.46	140.43
457.64	180.22
457.83	177.88
458.01	250.44
458.19	203.63
458.38	220.01
458.56	241.08
458.74	110.01
458.93	175.54
459.11	187.24
459.29	135.75
459.48	196.60
459.66	234.05
459.84	191.92
460.03	304.27
460.21	173.20
460.39	117.03
460.57	215.33
460.76	191.92
460.94	203.63
461.12	259.80
461.31	203.63
461.49	175.54
461.67	208.31
461.85	149.79
462.04	166.18
462.22	264.48
462.40	262.14
462.59	156.82
462.77	163.84
462.95	248.10
463.13	161.50
463.32	215.33
463.50	227.03
463.68	173.20
463.86	149.79
464.05	161.50
464.23	180.22
464.41	215.33
464.59	147.45
464.78	173.20
464.96	124.05
465.14	128.73
465.32	152.13
465.50	196.60
465.69	142.77
465.87	210.65
466.05	189.58
466.23	201.29
466.41	182.56
466.60	215.33
466.78	159.16
466.96	184.90
467.14	142.77
467.32	145.11
467.51	194.26
467.69	224.69
467.87	180.22
468.05	205.97
468.23	241.08
468.41	145.11
468.60	170.86
468.78	201.29
468.96	156.82
469.14	205.97
469.32	149.79
469.50	102.98
469.69	142.77
469.87	154.48
470.05	156.82
470.23	124.05
470.41	140.43
470.59	142.77
470.77	182.56
470.95	177.88
471.14	241.08
471.32	168.52
471.50	149.79
471.68	156.82
471.86	271.50
472.04	212.99
472.22	250.44
472.40	252.78
472.58	198.95
472.77	102.98
472.95	86.60
473.13	245.76
473.31	285.55
473.49	170.86
473.67	234.05
473.85	191.92
474.03	182.56
474.21	264.48
474.39	184.90
474.57	175.54
474.75	241.08
474.93	159.16
475.12	161.50
475.30	187.24
475.48	161.50
475.66	224.69
475.84	140.43
476.02	238.73
476.20	182.56
476.38	205.97
476.56	220.01
476.74	217.67
476.92	124.05
477.10	166.18
477.28	142.77
477.46	152.13
477.64	236.39
477.82	121.71
478.00	177.88
478.18	224.69
478.36	154.48
478.54	191.92
478.72	124.05
478.90	187.24
479.08	196.60
479.26	166.18
479.44	191.92
479.62	196.60
479.80	203.63
479.98	161.50
480.16	180.22
480.34	222.35
480.52	168.52
480.70	177.88
480.88	180.22
481.06	182.56
481.24	145.11
481.41	184.90
481.59	224.69
481.77	180.22
481.95	203.63
482.13	283.20
482.31	259.80
482.49	189.58
482.67	243.42
482.85	276.18
483.03	245.76
483.21	252.78
483.39	227.03
483.57	182.56
483.74	290.23
483.92	222.35
484.10	262.14
484.28	337.04
484.46	280.86
484.64	273.84
484.82	318.31
485.00	287.89
485.18	330.02
485.35	224.69
485.53	285.55
485.71	346.40
485.89	308.95
486.07	259.80
486.25	327.68
486.43	362.78
486.61	341.72
486.78	297.25
486.96	304.27
487.14	325.33
487.32	248.10
487.50	344.06
487.68	308.95
487.85	325.33
488.03	294.91
488.21	330.02
488.39	341.72
488.57	348.74
488.75	353.42
488.92	566.41
489.10	264.48
489.28	404.91
489.46	252.78
489.64	337.04
489.81	285.55
489.99	332.36
490.17	315.97
490.35	409.59
490.53	332.36
490.70	276.18
490.88	306.61
491.06	315.97
491.24	273.84
491.41	421.30
491.59	327.68
491.77	215.33
491.95	278.52
492.13	290.23
492.30	332.36
492.48	236.39
492.66	266.82
492.84	245.76
493.01	322.99
493.19	243.42
493.37	257.46
493.54	297.25
493.72	259.80
493.90	222.35
494.08	241.08
494.25	341.72
494.43	325.33
494.61	311.29
494.79	217.67
494.96	285.55
495.14	285.55
495.32	292.57
495.49	332.36
495.67	292.57
495.85	294.91
496.02	304.27
496.20	306.61
496.38	276.18
496.55	278.52
496.73	266.82
496.91	205.97
497.09	325.33
497.26	215.33
497.44	294.91
497.62	269.16
497.79	294.91
497.97	262.14
498.14	229.37
498.32	259.80
498.50	299.59
498.67	304.27
498.85	262.14
499.03	250.44
499.20	273.84
499.38	189.58
499.56	224.69
499.73	278.52
499.91	273.84
500.08	301.93
500.26	196.60
500.44	184.90
500.61	250.44
500.79	262.14
500.97	311.29
501.14	320.65
501.32	182.56
501.49	234.05
501.67	262.14
501.84	208.31
502.02	203.63
502.20	264.48
502.37	259.80
502.55	184.90
502.72	308.95
502.90	276.18
503.07	220.01
503.25	215.33
503.43	168.52
503.60	222.35
503.78	210.65
503.95	222.35
504.13	212.99
504.30	245.76
504.48	205.97
504.65	337.04
504.83	252.78
505.01	301.93
505.18	269.16
505.36	177.88
505.53	257.46
505.71	252.78
505.88	234.05
506.06	234.05
506.23	278.52
506.41	234.05
506.58	229.37
506.76	264.48
506.93	255.12
507.11	224.69
507.28	196.60
507.46	149.79
507.63	257.46
507.81	234.05
507.98	278.52
508.16	215.33
508.33	276.18
508.50	271.50
508.68	292.57
508.85	252.78
509.03	212.99
509.20	222.35
509.38	243.42
509.55	250.44
509.73	304.27
509.90	217.67
510.08	184.90
510.25	227.03
510.42	299.59
510.60	280.86
510.77	252.78
510.95	344.06
511.12	327.68
511.30	290.23
511.47	238.73
511.64	264.48
511.82	285.55
511.99	159.16
512.17	236.39
512.34	217.67
512.51	231.71
512.69	191.92
512.86	276.18
513.04	231.71
513.21	264.48
513.38	292.57
513.56	210.65
513.73	269.16
513.90	243.42
514.08	187.24
514.25	210.65
514.43	198.95
514.60	227.03
514.77	184.90
514.95	283.20
515.12	276.18
515.29	257.46
515.47	273.84
515.64	203.63
515.81	182.56
515.99	299.59
516.16	208.31
516.33	234.05
516.51	217.67
516.68	215.33
516.85	271.50
517.03	241.08
517.20	278.52
517.37	238.73
517.54	313.63
517.72	259.80
517.89	180.22
518.06	236.39
518.24	271.50
518.41	264.48
518.58	220.01
518.75	236.39
518.93	248.10
519.10	287.89
519.27	255.12
519.45	189.58
519.62	175.54
519.79	224.69
519.96	177.88
520.14	255.12
520.31	215.33
520.48	241.08
520.65	220.01
520.83	262.14
521.00	287.89
521.17	210.65
521.34	297.25
521.52	250.44
521.69	280.86
521.86	299.59
522.03	184.90
522.20	283.20
522.38	278.52
522.55	215.33
522.72	245.76
522.89	280.86
523.07	411.93
523.24	278.52
523.41	238.73
523.58	243.42
523.75	215.33
523.92	201.29
524.10	191.92
524.27	196.60
524.44	236.39
524.61	194.26
524.78	257.46
524.96	311.29
525.13	227.03
525.30	269.16
525.47	255.12
525.64	306.61
525.81	273.84
525.98	273.84
526.16	201.29
526.33	243.42
526.50	175.54
526.67	210.65
526.84	231.71
527.01	241.08
527.18	341.72
527.36	297.25
527.53	194.26
527.70	278.52
527.87	280.86
528.04	322.99
528.21	222.35
528.38	252.78
528.55	276.18
528.72	205.97
528.89	290.23
529.07	248.10
529.24	308.95
529.41	250.44
529.58	250.44
529.75	227.03
529.92	308.95
530.09	355.76
530.26	266.82
530.43	283.20
530.60	273.84
530.77	278.52
530.94	299.59
531.11	241.08
531.28	292.57
531.46	234.05
531.63	259.80
531.80	264.48
531.97	315.97
532.14	196.60
532.31	294.91
532.48	304.27
532.65	250.44
532.82	287.89
532.99	322.99
533.16	283.20
533.33	353.42
533.50	292.57
533.67	271.50
533.84	227.03
534.01	315.97
534.18	306.61
534.35	393.21
534.52	262.14
534.69	311.29
534.86	255.12
535.03	269.16
535.20	327.68
535.37	301.93
535.54	320.65
535.71	231.71
535.88	294.91
536.05	290.23
536.22	346.40
536.38	285.55
536.55	322.99
536.72	360.44
536.89	304.27
537.06	353.42
537.23	360.44
537.40	407.25
537.57	330.02
537.74	407.25
537.91	402.57
538.08	325.33
538.25	461.09
538.42	369.80
538.59	414.27
538.75	414.27
538.92	411.93
539.09	517.26
539.26	538.32
539.43	514.92
539.60	535.98
539.77	557.05
539.94	582.79
540.11	629.60
540.28	777.06
540.44	842.59
540.61	746.63
540.78	795.78
540.95	945.58
541.12	1114.10
541.29	1142.18
541.46	1160.91
541.62	1275.59
541.79	1352.83
541.96	1263.89
542.13	1219.42
542.30	1149.20
542.47	1135.16
542.63	1163.25
542.80	1055.58
542.97	1144.52
543.14	1102.39
543.31	1121.12
543.48	1083.67
543.64	1254.53
543.81	1060.26
543.98	1043.88
544.15	1181.97
544.32	1130.48
544.48	1118.78
544.65	1022.81
544.82	1027.50
544.99	990.05
545.16	1053.24
545.32	1062.60
545.49	1621.99
545.66	2485.65
545.83	2935.03
546.00	2715.02
546.16	1886.47
546.33	1425.39
546.50	1139.84
546.67	943.24
546.83	819.19
547.00	795.78
547.17	858.98
547.34	732.59
547.50	725.57
547.67	688.12
547.84	671.73
548.00	767.70
548.17	667.05
548.34	770.04
548.51	643.65
548.67	669.39
548.84	599.18
549.01	627.26
549.18	627.26
549.34	599.18
549.51	545.34
549.68	552.37
549.84	538.32
550.01	564.07
550.18	636.63
550.34	657.69
550.51	463.43
550.68	449.38
550.84	433.00
551.01	442.36
551.18	470.45
551.34	500.87
551.51	510.24
551.68	486.83
551.84	423.64
552.01	444.70
552.18	468.11
552.34	407.25
552.51	379.17
552.68	365.12
552.84	407.25
553.01	430.66
553.18	428.32
553.34	365.12
553.51	292.57
553.67	339.38
553.84	322.99
554.01	402.57
554.17	327.68
554.34	308.95
554.51	330.02
554.67	308.95
554.84	292.57
555.00	339.38
555.17	308.95
555.33	365.12
555.50	341.72
555.67	229.37
555.83	224.69
556.00	285.55
556.16	421.30
556.33	250.44
556.50	304.27
556.66	313.63
556.83	283.20
556.99	205.97
557.16	276.18
557.32	259.80
557.49	292.57
557.65	271.50
557.82	201.29
557.98	231.71
558.15	290.23
558.32	276.18
558.48	313.63
558.65	205.97
558.81	257.46
558.98	227.03
559.14	262.14
559.31	332.36
559.47	238.73
559.64	283.20
559.80	255.12
559.97	231.71
560.13	287.89
560.30	255.12
560.46	337.04
560.63	287.89
560.79	294.91
560.96	287.89
561.12	304.27
561.29	250.44
561.45	269.16
561.61	276.18
561.78	379.17
561.94	290.23
562.11	243.42
562.27	271.50
562.44	203.63
562.60	238.73
562.77	348.74
562.93	271.50
563.10	292.57
563.26	224.69
563.42	266.82
563.59	245.76
563.75	205.97
563.92	273.84
564.08	278.52
564.24	278.52
564.41	250.44
564.57	273.84
564.74	210.65
564.90	191.92
565.07	313.63
565.23	273.84
565.39	287.89
565.56	224.69
565.72	248.10
565.88	245.76
566.05	262.14
566.21	212.99
566.38	231.71
566.54	257.46
566.70	243.42
566.87	290.23
567.03	224.69
567.19	257.46
567.36	269.16
567.52	264.48
567.68	257.46
567.85	285.55
568.01	201.29
568.17	257.46
568.34	255.12
568.50	313.63
568.66	245.76
568.83	292.57
568.99	255.12
569.15	320.65
569.32	189.58
569.48	229.37
569.64	252.78
569.81	205.97
569.97	227.03
570.13	264.48
570.30	283.20
570.46	353.42
570.62	276.18
570.78	259.80
570.95	147.45
571.11	287.89
571.27	259.80
571.43	231.71
571.60	306.61
571.76	212.99
571.92	220.01
572.09	262.14
572.25	203.63
572.41	262.14
572.57	201.29
572.74	278.52
572.90	252.78
573.06	297.25
573.22	189.58
573.38	283.20
573.55	215.33
573.71	227.03
573.87	259.80
574.03	241.08
574.20	278.52
574.36	299.59
574.52	245.76
574.68	189.58
574.84	191.92
575.01	210.65
575.17	248.10
575.33	243.42
575.49	292.57
575.65	313.63
575.82	283.20
575.98	294.91
576.14	325.33
576.30	280.86
576.46	524.28
576.62	716.20
576.79	781.74
576.95	531.30
577.11	503.22
577.27	444.70
577.43	365.12
577.59	269.16
577.75	283.20
577.92	208.31
578.08	262.14
578.24	276.18
578.40	325.33
578.56	528.96
578.72	681.10
578.88	702.16
579.04	486.83
579.21	475.13
579.37	353.42
579.53	315.97
579.69	355.76
579.85	414.27
580.01	435.34
580.17	414.27
580.33	379.17
580.49	390.87
580.65	285.55
580.82	369.80
580.98	353.42
581.14	269.16
581.30	383.85
581.46	402.57
581.62	346.40
581.78	369.80
581.94	433.00
582.10	409.59
582.26	416.62
582.42	379.17
582.58	421.30
582.74	444.70
582.90	451.72
583.06	440.02
583.22	468.11
583.38	463.43
583.54	418.96
583.70	496.19
583.86	444.70
584.02	411.93
584.18	486.83
584.34	437.68
584.50	430.66
584.66	414.27
584.82	463.43
584.98	475.13
585.14	402.57
585.30	477.47
585.46	322.99
585.62	341.72
585.78	461.09
585.94	386.19
586.10	362.78
586.26	461.09
586.42	491.51
586.58	447.04
586.74	575.77
586.90	568.75
587.06	561.73
587.22	575.77
587.38	580.45
587.54	557.05
587.70	514.92
587.86	407.25
588.02	388.53
588.18	348.74
588.34	360.44
588.49	318.31
588.65	362.78
588.81	271.50
588.97	297.25
589.13	297.25
589.29	325.33
589.45	313.63
589.61	428.32
589.77	330.02
589.93	390.87
590.08	255.12
590.24	362.78
590.40	397.89
590.56	374.49
590.72	369.80
590.88	313.63
591.04	360.44
591.20	390.87
591.35	416.62
591.51	285.55
591.67	332.36
591.83	365.12
591.99	400.23
592.15	451.72
592.31	425.98
592.46	484.49
592.62	507.90
592.78	428.32
592.94	437.68
593.10	507.90
593.26	369.80
593.41	414.27
593.57	369.80
593.73	437.68
593.89	374.49
594.05	313.63
594.20	257.46
594.36	315.97
594.52	220.01
594.68	252.78
594.84	344.06
594.99	341.72
595.15	301.93
595.31	304.27
595.47	390.87
595.62	355.76
595.78	276.18
595.94	299.59
596.10	297.25
596.25	355.76
596.41	341.72
596.57	334.70
596.73	269.16
596.88	341.72
597.04	294.91
597.20	315.97
597.36	294.91
597.51	250.44
597.67	245.76
597.83	290.23
597.99	308.95
598.14	409.59
598.30	374.49
598.46	430.66
598.61	425.98
598.77	367.46
598.93	339.38
599.09	311.29
599.24	369.80
599.40	437.68
599.56	365.12
599.71	348.74
599.87	294.91
600.03	339.38
600.18	348.74
600.34	259.80
600.50	220.01
600.65	287.89
600.81	269.16
600.97	224.69
601.12	238.73
601.28	334.70
601.44	285.55
601.59	285.55
601.75	252.78
601.91	259.80
602.06	313.63
602.22	287.89
602.37	222.35
602.53	238.73
602.69	337.04
602.84	262.14
603.00	262.14
603.16	241.08
603.31	322.99
603.47	299.59
603.62	266.82
603.78	245.76
603.94	248.10
604.09	250.44
604.25	269.16
604.40	290.23
604.56	236.39
604.71	238.73
604.87	299.59
605.03	294.91
605.18	285.55
605.34	257.46
605.49	334.70
605.65	220.01
605.80	208.31
605.96	262.14
606.12	355.76
606.27	367.46
606.43	241.08
606.58	353.42
606.74	332.36
606.89	292.57
607.05	353.42
607.20	330.02
607.36	327.68
607.51	337.04
607.67	304.27
607.82	311.29
607.98	365.12
608.13	369.80
608.29	386.19
608.44	503.22
608.60	421.30
608.75	458.74
608.91	486.83
609.06	491.51
609.22	519.60
609.37	528.96
609.53	587.47
609.68	657.69
609.84	718.54
609.99	816.85
610.15	992.39
610.30	1165.59
610.46	1352.83
610.61	1570.50
610.76	2033.93
610.92	2497.35
611.07	2628.42
611.23	2733.75
