SpectraSuite Data File
++++++++++++++++++++++++++++++++++++
Date: Fri Oct 04 11:42:20 GMT-05:00 2013
User: price-jones
Dark Spectrum Present: No
Reference Spectrum Present: No
Number of Sampled Component Spectra: 1
Spectrometers: USB2+H05261
Integration Time (usec): 100000 (USB2+H05261)
Spectra Averaged: 1 (USB2+H05261)
Boxcar Smoothing: 0 (USB2+H05261)
Correct for Electrical Dark: No (USB2+H05261)
Strobe/Lamp Enabled: No (USB2+H05261)
Correct for Detector Non-linearity: No (USB2+H05261)
Correct for Stray Light: No (USB2+H05261)
Number of Pixels in Processed Spectrum: 2048
>>>>>Begin Processed Spectral Data<<<<<
365.73	46.81
365.92	46.81
366.12	46.81
366.32	0.00
366.52	42.13
366.72	0.00
366.91	0.00
367.11	0.00
367.31	0.00
367.51	0.00
367.70	0.00
367.90	0.00
368.10	0.00
368.30	0.00
368.49	0.00
368.69	14.04
368.89	0.00
369.09	0.00
369.28	0.00
369.48	0.00
369.68	0.00
369.87	14.04
370.07	0.00
370.27	4.68
370.47	35.11
370.66	53.83
370.86	23.41
371.06	49.15
371.25	121.71
371.45	70.22
371.65	65.54
371.84	35.11
372.04	44.47
372.24	60.85
372.44	91.28
372.63	102.98
372.83	175.54
373.03	156.82
373.22	112.35
373.42	98.30
373.62	102.98
373.81	72.56
374.01	93.62
374.21	156.82
374.40	152.13
374.60	168.52
374.79	102.98
374.99	98.30
375.19	93.62
375.38	117.03
375.58	91.28
375.78	98.30
375.97	168.52
376.17	208.31
376.37	131.07
376.56	168.52
376.76	102.98
376.95	147.45
377.15	159.16
377.35	145.11
377.54	79.58
377.74	88.94
377.93	100.64
378.13	124.05
378.33	131.07
378.52	84.26
378.72	126.39
378.91	112.35
379.11	121.71
379.31	133.41
379.50	100.64
379.70	149.79
379.89	110.01
380.09	100.64
380.28	131.07
380.48	128.73
380.68	168.52
380.87	142.77
381.07	156.82
381.26	98.30
381.46	161.50
381.65	126.39
381.85	145.11
382.04	124.05
382.24	121.71
382.43	79.58
382.63	126.39
382.83	135.75
383.02	135.75
383.22	107.66
383.41	168.52
383.61	110.01
383.80	159.16
384.00	142.77
384.19	86.60
384.39	131.07
384.58	119.37
384.78	84.26
384.97	133.41
385.17	84.26
385.36	88.94
385.56	161.50
385.75	100.64
385.95	121.71
386.14	156.82
386.34	175.54
386.53	142.77
386.72	117.03
386.92	138.09
387.11	86.60
387.31	215.33
387.50	149.79
387.70	88.94
387.89	187.24
388.09	128.73
388.28	245.76
388.48	107.66
388.67	98.30
388.86	105.32
389.06	124.05
389.25	135.75
389.45	81.92
389.64	131.07
389.84	152.13
390.03	93.62
390.22	201.29
390.42	114.69
390.61	102.98
390.81	81.92
391.00	133.41
391.19	177.88
391.39	84.26
391.58	163.84
391.78	107.66
391.97	91.28
392.16	37.45
392.36	91.28
392.55	140.43
392.75	159.16
392.94	79.58
393.13	126.39
393.33	88.94
393.52	60.85
393.71	79.58
393.91	110.01
394.10	81.92
394.29	86.60
394.49	114.69
394.68	133.41
394.88	98.30
395.07	138.09
395.26	91.28
395.46	140.43
395.65	159.16
395.84	135.75
396.04	163.84
396.23	117.03
396.42	117.03
396.62	95.96
396.81	142.77
397.00	119.37
397.19	205.97
397.39	102.98
397.58	203.63
397.77	86.60
397.97	173.20
398.16	191.92
398.35	100.64
398.55	149.79
398.74	128.73
398.93	182.56
399.12	140.43
399.32	145.11
399.51	128.73
399.70	140.43
399.90	142.77
400.09	105.32
400.28	142.77
400.47	154.48
400.67	131.07
400.86	77.24
401.05	175.54
401.24	198.95
401.44	166.18
401.63	149.79
401.82	238.73
402.01	163.84
402.21	236.39
402.40	182.56
402.59	159.16
402.78	117.03
402.97	114.69
403.17	168.52
403.36	262.14
403.55	301.93
403.74	638.97
403.93	1809.23
404.13	4056.15
404.32	4999.38
404.51	4135.73
404.70	2363.94
404.89	980.68
405.09	362.78
405.28	203.63
405.47	145.11
405.66	257.46
405.85	234.05
406.05	194.26
406.24	135.75
406.43	147.45
406.62	252.78
406.81	229.37
407.00	344.06
407.20	505.56
407.39	741.95
407.58	713.86
407.77	521.94
407.96	369.80
408.15	236.39
408.34	138.09
408.54	173.20
408.73	166.18
408.92	126.39
409.11	147.45
409.30	128.73
409.49	156.82
409.68	184.90
409.87	220.01
410.07	234.05
410.26	248.10
410.45	222.35
410.64	156.82
410.83	170.86
411.02	203.63
411.21	222.35
411.40	168.52
411.59	152.13
411.78	175.54
411.98	231.71
412.17	189.58
412.36	173.20
412.55	208.31
412.74	180.22
412.93	217.67
413.12	93.62
413.31	149.79
413.50	191.92
413.69	236.39
413.88	182.56
414.07	149.79
414.26	142.77
414.45	252.78
414.64	231.71
414.83	262.14
415.02	290.23
415.22	208.31
415.41	245.76
415.60	182.56
415.79	215.33
415.98	231.71
416.17	220.01
416.36	189.58
416.55	194.26
416.74	229.37
416.93	212.99
417.12	238.73
417.31	227.03
417.50	201.29
417.69	269.16
417.88	234.05
418.07	210.65
418.26	212.99
418.45	210.65
418.64	215.33
418.83	238.73
419.02	248.10
419.21	220.01
419.39	168.52
419.58	184.90
419.77	175.54
419.96	196.60
420.15	287.89
420.34	168.52
420.53	255.12
420.72	252.78
420.91	304.27
421.10	220.01
421.29	224.69
421.48	243.42
421.67	217.67
421.86	222.35
422.05	189.58
422.24	210.65
422.43	215.33
422.61	231.71
422.80	189.58
422.99	196.60
423.18	259.80
423.37	304.27
423.56	320.65
423.75	280.86
423.94	163.84
424.13	266.82
424.32	262.14
424.50	231.71
424.69	238.73
424.88	201.29
425.07	203.63
425.26	161.50
425.45	266.82
425.64	215.33
425.83	290.23
426.01	322.99
426.20	231.71
426.39	250.44
426.58	212.99
426.77	259.80
426.96	264.48
427.15	238.73
427.33	325.33
427.52	224.69
427.71	271.50
427.90	325.33
428.09	294.91
428.28	311.29
428.46	273.84
428.65	262.14
428.84	285.55
429.03	313.63
429.22	250.44
429.40	285.55
429.59	262.14
429.78	259.80
429.97	344.06
430.16	308.95
430.34	315.97
430.53	229.37
430.72	325.33
430.91	325.33
431.10	313.63
431.28	351.08
431.47	351.08
431.66	290.23
431.85	322.99
432.03	376.83
432.22	374.49
432.41	320.65
432.60	393.21
432.79	322.99
432.97	381.51
433.16	388.53
433.35	475.13
433.54	489.17
433.72	451.72
433.91	524.28
434.10	468.11
434.28	702.16
434.47	819.19
434.66	814.51
434.85	1011.11
435.03	3016.95
435.22	10487.94
435.41	22113.38
435.59	21598.46
435.78	13778.73
435.97	6860.11
436.16	2654.17
436.34	1043.88
436.53	641.31
436.72	449.38
436.90	470.45
437.09	505.56
437.28	418.96
437.46	430.66
437.65	369.80
437.84	351.08
438.02	388.53
438.21	472.79
438.40	367.46
438.58	348.74
438.77	360.44
438.96	355.76
439.14	425.98
439.33	421.30
439.52	332.36
439.70	456.40
439.89	407.25
440.08	285.55
440.26	390.87
440.45	369.80
440.63	341.72
440.82	404.91
441.01	315.97
441.19	348.74
441.38	369.80
441.57	301.93
441.75	383.85
441.94	353.42
442.12	411.93
442.31	428.32
442.50	397.89
442.68	346.40
442.87	330.02
443.05	362.78
443.24	479.81
443.43	433.00
443.61	440.02
443.80	379.17
443.98	287.89
444.17	325.33
444.35	386.19
444.54	421.30
444.73	348.74
444.91	381.51
445.10	348.74
445.28	344.06
445.47	372.15
445.65	374.49
445.84	407.25
446.02	374.49
446.21	383.85
446.39	374.49
446.58	430.66
446.77	393.21
446.95	322.99
447.14	407.25
447.32	416.62
447.51	297.25
447.69	372.15
447.88	390.87
448.06	346.40
448.25	358.10
448.43	351.08
448.62	313.63
448.80	470.45
448.99	423.64
449.17	330.02
449.36	313.63
449.54	322.99
449.73	341.72
449.91	367.46
450.10	400.23
450.28	463.43
450.46	433.00
450.65	358.10
450.83	465.77
451.02	437.68
451.20	458.74
451.39	332.36
451.57	313.63
451.76	374.49
451.94	320.65
452.13	337.04
452.31	421.30
452.49	444.70
452.68	346.40
452.86	337.04
453.05	402.57
453.23	416.62
453.42	344.06
453.60	294.91
453.78	341.72
453.97	337.04
454.15	374.49
454.34	374.49
454.52	404.91
454.70	418.96
454.89	337.04
455.07	325.33
455.26	344.06
455.44	397.89
455.62	355.76
455.81	351.08
455.99	311.29
456.17	355.76
456.36	339.38
456.54	365.12
456.73	376.83
456.91	327.68
457.09	358.10
457.28	433.00
457.46	334.70
457.64	358.10
457.83	339.38
458.01	315.97
458.19	440.02
458.38	355.76
458.56	425.98
458.74	334.70
458.93	379.17
459.11	315.97
459.29	362.78
459.48	369.80
459.66	386.19
459.84	383.85
460.03	423.64
460.21	416.62
460.39	402.57
460.57	313.63
460.76	449.38
460.94	358.10
461.12	411.93
461.31	379.17
461.49	351.08
461.67	322.99
461.85	337.04
462.04	320.65
462.22	526.62
462.40	425.98
462.59	407.25
462.77	383.85
462.95	322.99
463.13	353.42
463.32	395.55
463.50	355.76
463.68	402.57
463.86	365.12
464.05	397.89
464.23	414.27
464.41	344.06
464.59	353.42
464.78	346.40
464.96	311.29
465.14	369.80
465.32	369.80
465.50	339.38
465.69	428.32
465.87	332.36
466.05	351.08
466.23	294.91
466.41	308.95
466.60	330.02
466.78	278.52
466.96	365.12
467.14	379.17
467.32	346.40
467.51	301.93
467.69	444.70
467.87	421.30
468.05	273.84
468.23	437.68
468.41	358.10
468.60	273.84
468.78	266.82
468.96	353.42
469.14	346.40
469.32	327.68
469.50	250.44
469.69	355.76
469.87	306.61
470.05	390.87
470.23	311.29
470.41	353.42
470.59	306.61
470.77	362.78
470.95	327.68
471.14	327.68
471.32	322.99
471.50	468.11
471.68	346.40
471.86	325.33
472.04	365.12
472.22	306.61
472.40	334.70
472.58	358.10
472.77	308.95
472.95	365.12
473.13	390.87
473.31	393.21
473.49	304.27
473.67	229.37
473.85	318.31
474.03	330.02
474.21	383.85
474.39	273.84
474.57	339.38
474.75	416.62
474.93	339.38
475.12	348.74
475.30	360.44
475.48	425.98
475.66	250.44
475.84	344.06
476.02	383.85
476.20	404.91
476.38	353.42
476.56	369.80
476.74	322.99
476.92	339.38
477.10	374.49
477.28	404.91
477.46	376.83
477.64	367.46
477.82	416.62
478.00	360.44
478.18	400.23
478.36	449.38
478.54	400.23
478.72	379.17
478.90	442.36
479.08	388.53
479.26	374.49
479.44	374.49
479.62	383.85
479.80	390.87
479.98	458.74
480.16	456.40
480.34	545.34
480.52	463.43
480.70	430.66
480.88	468.11
481.06	521.94
481.24	664.71
481.41	638.97
481.59	713.86
481.77	643.65
481.95	713.86
482.13	751.31
482.31	800.46
482.49	814.51
482.67	922.17
482.85	901.11
483.03	1001.75
483.21	1111.75
483.39	1123.46
483.57	1193.67
483.74	1172.61
483.92	1299.00
484.10	1404.32
484.28	1458.15
484.46	1621.99
484.64	1621.99
484.82	1607.95
485.00	1764.76
485.18	1792.85
485.35	2022.22
485.53	2033.93
485.71	2129.89
485.89	2155.63
486.07	2265.64
486.25	2394.37
486.43	2363.94
486.61	2314.79
486.78	2291.38
486.96	2289.04
487.14	2333.51
487.32	2228.19
487.50	2223.51
487.68	2223.51
487.85	2153.29
488.03	2143.93
488.21	2211.81
488.39	2015.20
488.57	2047.97
488.75	1977.75
488.92	2303.09
489.10	1923.92
489.28	1902.86
489.46	1844.34
489.64	1795.19
489.81	1778.81
489.99	1708.59
490.17	1729.66
490.35	1802.21
490.53	1734.34
490.70	1687.53
490.88	1762.42
491.06	1905.20
491.24	1980.09
491.41	1928.60
491.59	1881.79
491.77	1673.48
491.95	1689.87
492.13	1607.95
492.30	1469.86
492.48	1556.46
492.66	1582.20
492.84	1563.48
493.01	1418.36
493.19	1469.86
493.37	1495.60
493.54	1334.11
493.72	1348.15
493.90	1324.74
494.08	1390.28
494.25	1383.26
494.43	1327.08
494.61	1343.47
494.79	1282.61
494.96	1273.25
495.14	1282.61
495.32	1259.21
495.49	1277.93
495.67	1235.80
495.85	1217.08
496.02	1146.86
496.20	1151.54
496.38	1167.93
496.55	1041.54
496.73	1078.99
496.91	1102.39
497.09	1146.86
497.26	1083.67
497.44	1097.71
497.62	1090.69
497.79	936.21
497.97	961.96
498.14	1001.75
498.32	908.13
498.50	957.28
498.67	952.60
498.85	912.81
499.03	844.93
499.20	821.53
499.38	844.93
499.56	833.23
499.73	926.85
499.91	847.27
500.08	823.87
500.26	732.59
500.44	718.54
500.61	643.65
500.79	702.16
500.97	645.99
501.14	753.65
501.32	629.60
501.49	645.99
501.67	575.77
501.84	671.73
502.02	615.56
502.20	610.88
502.37	580.45
502.55	578.11
502.72	589.82
502.90	601.52
503.07	526.62
503.25	482.15
503.43	491.51
503.60	517.26
503.78	444.70
503.95	512.58
504.13	442.36
504.30	418.96
504.48	482.15
504.65	531.30
504.83	463.43
505.01	489.17
505.18	486.83
505.36	376.83
505.53	442.36
505.71	400.23
505.88	521.94
506.06	517.26
506.23	362.78
506.41	400.23
506.58	430.66
506.76	397.89
506.93	381.51
507.11	379.17
507.28	440.02
507.46	339.38
507.63	388.53
507.81	465.77
507.98	411.93
508.16	397.89
508.33	402.57
508.50	416.62
508.68	414.27
508.85	472.79
509.03	327.68
509.20	327.68
509.38	400.23
509.55	449.38
509.73	479.81
509.90	407.25
510.08	416.62
510.25	414.27
510.42	414.27
510.60	379.17
510.77	327.68
510.95	297.25
511.12	322.99
511.30	423.64
511.47	372.15
511.64	479.81
511.82	428.32
511.99	447.04
512.17	374.49
512.34	353.42
512.51	379.17
512.69	379.17
512.86	341.72
513.04	418.96
513.21	322.99
513.38	414.27
513.56	322.99
513.73	381.51
513.90	369.80
514.08	348.74
514.25	327.68
514.43	280.86
514.60	346.40
514.77	278.52
514.95	393.21
515.12	278.52
515.29	379.17
515.47	315.97
515.64	383.85
515.81	341.72
515.99	393.21
516.16	388.53
516.33	360.44
516.51	341.72
516.68	322.99
516.85	292.57
517.03	311.29
517.20	327.68
517.37	330.02
517.54	367.46
517.72	337.04
517.89	292.57
518.06	266.82
518.24	402.57
518.41	351.08
518.58	320.65
518.75	294.91
518.93	344.06
519.10	332.36
519.27	320.65
519.45	337.04
519.62	376.83
519.79	344.06
519.96	290.23
520.14	276.18
520.31	311.29
520.48	308.95
520.65	348.74
520.83	346.40
521.00	348.74
521.17	369.80
521.34	325.33
521.52	304.27
521.69	344.06
521.86	262.14
522.03	339.38
522.20	318.31
522.38	287.89
522.55	322.99
522.72	285.55
522.89	301.93
523.07	409.59
523.24	330.02
523.41	276.18
523.58	269.16
523.75	346.40
523.92	276.18
524.10	320.65
524.27	344.06
524.44	369.80
524.61	351.08
524.78	339.38
524.96	376.83
525.13	346.40
525.30	334.70
525.47	348.74
525.64	327.68
525.81	334.70
525.98	386.19
526.16	365.12
526.33	348.74
526.50	330.02
526.67	337.04
526.84	362.78
527.01	322.99
527.18	458.74
527.36	411.93
527.53	416.62
527.70	454.06
527.87	365.12
528.04	407.25
528.21	332.36
528.38	418.96
528.55	376.83
528.72	500.87
528.89	496.19
529.07	367.46
529.24	383.85
529.41	444.70
529.58	414.27
529.75	348.74
529.92	409.59
530.09	428.32
530.26	470.45
530.43	390.87
530.60	351.08
530.77	451.72
530.94	503.22
531.11	521.94
531.28	517.26
531.46	463.43
531.63	493.85
531.80	540.66
531.97	496.19
532.14	657.69
532.31	777.06
532.48	826.21
532.65	863.66
532.82	1069.62
532.99	1289.64
533.16	1366.87
533.33	1357.51
533.50	1268.57
533.67	1025.15
533.84	1013.45
534.01	947.92
534.18	807.48
534.35	828.55
534.52	884.72
534.69	884.72
534.86	856.64
535.03	889.40
535.20	978.34
535.37	957.28
535.54	1071.97
535.71	1064.94
535.88	1228.78
536.05	1179.63
536.22	1301.34
536.38	1401.98
536.55	1643.06
536.72	1764.76
536.89	1797.53
537.06	2099.46
537.23	2300.75
537.40	2560.55
537.57	2682.25
537.74	2853.11
537.91	2846.09
538.08	3054.40
538.25	3073.12
538.42	2942.05
538.59	3063.76
538.75	3176.11
538.92	3258.03
539.09	3730.81
539.26	4152.11
539.43	4566.39
539.60	5284.93
539.77	5741.33
539.94	6656.48
540.11	6981.82
540.28	7791.64
540.44	8571.04
540.61	9558.75
540.78	10780.51
540.95	13301.26
541.12	15641.80
541.29	17231.02
541.46	18284.26
541.62	17701.47
541.79	17174.85
541.96	16006.92
542.13	14778.14
542.30	13830.23
542.47	13083.59
542.63	12313.56
542.80	11906.31
542.97	11669.91
543.14	11868.86
543.31	11709.70
543.48	11690.98
543.64	12109.93
543.81	12013.97
543.98	12142.70
544.15	12348.67
544.32	12116.95
544.48	12416.54
544.65	11967.16
544.82	12039.72
544.99	11831.41
545.16	12411.86
545.32	13121.04
545.49	23520.04
545.66	43173.52
545.83	49214.44
546.00	41715.37
546.16	28566.24
546.33	21013.33
546.50	15611.37
546.67	12510.16
546.83	10967.75
547.00	10471.56
547.17	9949.62
547.34	9731.95
547.50	9205.33
547.67	8587.43
547.84	8610.83
548.00	8304.22
548.17	8039.74
548.34	7545.89
548.51	7234.60
548.67	7030.97
548.84	6684.57
549.01	6499.67
549.18	6045.60
549.34	5816.23
549.51	5645.37
549.68	5434.72
549.84	5170.24
550.01	5027.47
550.18	4882.36
550.34	4676.39
550.51	4334.67
550.68	4173.18
550.84	3967.21
551.01	3716.77
551.18	3562.30
551.34	3353.99
551.51	3353.99
551.68	3091.85
551.84	3112.91
552.01	2923.33
552.18	2719.70
552.34	2759.49
552.51	2583.95
552.68	2525.44
552.84	2293.72
553.01	2200.10
553.18	2263.30
553.34	2251.60
553.51	2181.38
553.67	2024.56
553.84	2106.48
554.01	1893.49
554.17	1760.08
554.34	1556.46
554.51	1483.90
554.67	1570.50
554.84	1425.39
555.00	1315.38
555.17	1413.68
555.33	1315.38
555.50	1210.06
555.67	1114.10
555.83	1100.05
556.00	1055.58
556.16	1214.74
556.33	1062.60
556.50	1001.75
556.66	1018.13
556.83	847.27
556.99	954.94
557.16	856.64
557.32	823.87
557.49	816.85
557.65	830.89
557.82	704.50
557.98	798.12
558.15	671.73
558.32	727.91
558.48	653.01
558.65	716.20
558.81	669.39
558.98	692.80
559.14	674.07
559.31	660.03
559.47	638.97
559.64	657.69
559.80	641.31
559.97	648.33
560.13	667.05
560.30	685.78
560.46	674.07
560.63	608.54
560.79	716.20
560.96	606.20
561.12	601.52
561.29	657.69
561.45	645.99
561.61	608.54
561.78	704.50
561.94	662.37
562.11	660.03
562.27	554.71
562.44	582.79
562.60	543.00
562.77	669.39
562.93	648.33
563.10	603.86
563.26	571.09
563.42	594.50
563.59	631.94
563.75	505.56
563.92	566.41
564.08	592.16
564.24	580.45
564.41	592.16
564.57	447.04
564.74	526.62
564.90	589.82
565.07	538.32
565.23	484.49
565.39	507.90
565.56	559.39
565.72	491.51
565.88	528.96
566.05	479.81
566.21	472.79
566.38	535.98
566.54	550.03
566.70	552.37
566.87	498.53
567.03	456.40
567.19	461.09
567.36	500.87
567.52	475.13
567.68	503.22
567.85	557.05
568.01	491.51
568.17	482.15
568.34	510.24
568.50	594.50
568.66	505.56
568.83	543.00
568.99	489.17
569.15	421.30
569.32	393.21
569.48	465.77
569.64	484.49
569.81	388.53
569.97	411.93
570.13	395.55
570.30	442.36
570.46	386.19
570.62	341.72
570.78	341.72
570.95	318.31
571.11	407.25
571.27	428.32
571.43	358.10
571.60	402.57
571.76	393.21
571.92	418.96
572.09	437.68
572.25	374.49
572.41	388.53
572.57	355.76
572.74	465.77
572.90	407.25
573.06	458.74
573.22	397.89
573.38	454.06
573.55	456.40
573.71	379.17
573.87	521.94
574.03	407.25
574.20	444.70
574.36	564.07
574.52	538.32
574.68	428.32
574.84	484.49
575.01	500.87
575.17	512.58
575.33	486.83
575.49	606.20
575.65	690.46
575.82	681.10
575.98	730.25
576.14	798.12
576.30	1490.92
576.46	4959.60
576.62	7880.58
576.79	8594.45
576.95	5940.28
577.11	3805.71
577.27	2747.79
577.43	1930.94
577.59	1210.06
577.75	1022.81
577.92	912.81
578.08	917.49
578.24	952.60
578.40	1781.15
578.56	4842.57
578.72	7438.22
578.88	7829.09
579.04	5685.16
579.21	3988.27
579.37	2972.48
579.53	2480.97
579.69	2249.25
579.85	2810.98
580.01	3246.32
580.17	3162.06
580.33	2511.39
580.49	2270.32
580.65	2017.54
580.82	1785.83
580.98	1827.96
581.14	1856.04
581.30	1998.82
581.46	2136.91
581.62	2216.49
581.78	2487.99
581.94	2602.68
582.10	2635.44
582.26	2773.53
582.42	2874.18
582.58	2977.16
582.74	3119.93
582.90	3117.59
583.06	3080.14
583.22	3152.70
583.38	3112.91
583.54	3129.30
583.70	2988.86
583.86	3033.33
584.02	3014.61
584.18	2963.12
584.34	2925.67
584.50	2745.45
584.66	2799.28
584.82	2818.00
584.98	2808.64
585.14	2579.27
585.30	2640.12
585.46	2605.02
585.62	2649.49
585.78	2656.51
585.94	2621.40
586.10	2724.38
586.26	2780.56
586.42	3248.66
586.58	3992.95
586.74	4650.64
586.90	5483.88
587.06	5982.41
587.22	5689.84
587.38	5081.30
587.54	4510.21
587.70	3749.54
587.86	3372.71
588.02	2810.98
588.18	2518.42
588.34	2380.32
588.49	2099.46
588.65	1996.48
588.81	1877.11
588.97	1755.40
589.13	1832.64
589.29	1706.25
589.45	1750.72
589.61	1680.50
589.77	1799.87
589.93	1771.79
590.08	1767.10
590.24	1886.47
590.40	1963.71
590.56	2050.31
590.72	2050.31
590.88	2078.40
591.04	2052.65
591.20	2101.80
591.35	2218.83
591.51	2408.41
591.67	2518.42
591.83	2724.38
591.99	2827.37
592.15	3126.96
592.31	3510.80
592.46	3744.86
592.62	3927.42
592.78	4056.15
592.94	4219.99
593.10	4147.43
593.26	3995.29
593.41	3817.41
593.57	3463.99
593.73	2963.12
593.89	2621.40
594.05	2314.79
594.20	2146.27
594.36	1952.01
594.52	1827.96
594.68	1722.63
594.84	1727.32
594.99	1708.59
595.15	1624.33
595.31	1645.40
595.47	1563.48
595.62	1514.33
595.78	1521.35
595.94	1507.30
596.10	1519.01
596.25	1544.75
596.41	1680.50
596.57	1486.24
596.73	1481.56
596.88	1537.73
597.04	1493.26
597.20	1582.20
597.36	1626.67
597.51	1699.23
597.67	1820.94
597.83	1755.40
597.99	1947.33
598.14	2062.01
598.30	2221.17
598.46	2181.38
598.61	2373.30
598.77	2415.43
598.93	2516.08
599.09	2698.64
599.24	2420.11
599.40	2579.27
599.56	2509.05
599.71	2370.96
599.87	2272.66
600.03	2097.12
600.18	2019.88
600.34	1804.55
600.50	1760.08
600.65	1640.72
600.81	1633.69
600.97	1526.03
601.12	1455.81
601.28	1385.60
601.44	1261.55
601.59	1228.78
601.75	1231.12
601.91	1083.67
602.06	1041.54
602.22	1174.95
602.37	1071.97
602.53	1097.71
602.69	1013.45
602.84	1057.92
603.00	1130.48
603.16	1060.26
603.31	1142.18
603.47	1125.80
603.62	1123.46
603.78	1224.10
603.94	1205.38
604.09	1221.76
604.25	1277.93
604.40	1156.22
604.56	1210.06
604.71	1224.10
604.87	1249.85
605.03	1320.06
605.18	1343.47
605.34	1357.51
605.49	1313.04
605.65	1394.96
605.80	1308.36
605.96	1453.47
