SpectraSuite Data File
++++++++++++++++++++++++++++++++++++
Date: Fri Oct 04 11:41:58 GMT-05:00 2013
User: price-jones
Dark Spectrum Present: No
Reference Spectrum Present: No
Number of Sampled Component Spectra: 1
Spectrometers: USB2+H05261
Integration Time (usec): 100000 (USB2+H05261)
Spectra Averaged: 1 (USB2+H05261)
Boxcar Smoothing: 0 (USB2+H05261)
Correct for Electrical Dark: No (USB2+H05261)
Strobe/Lamp Enabled: No (USB2+H05261)
Correct for Detector Non-linearity: No (USB2+H05261)
Correct for Stray Light: No (USB2+H05261)
Number of Pixels in Processed Spectrum: 2048
>>>>>Begin Processed Spectral Data<<<<<
365.73	0.00
365.92	0.00
366.12	0.00
366.32	0.00
366.52	14.04
366.72	0.00
366.91	0.00
367.11	39.79
367.31	0.00
367.51	0.00
367.70	0.00
367.90	0.00
368.10	0.00
368.30	0.00
368.49	0.00
368.69	0.00
368.89	0.00
369.09	0.00
369.28	0.00
369.48	0.00
369.68	0.00
369.87	0.00
370.07	0.00
370.27	0.00
370.47	32.77
370.66	14.04
370.86	39.79
371.06	98.30
371.25	119.37
371.45	86.60
371.65	140.43
371.84	95.96
372.04	81.92
372.24	79.58
372.44	100.64
372.63	128.73
372.83	131.07
373.03	114.69
373.22	79.58
373.42	77.24
373.62	102.98
373.81	98.30
374.01	124.05
374.21	124.05
374.40	70.22
374.60	152.13
374.79	161.50
374.99	65.54
375.19	159.16
375.38	98.30
375.58	51.49
375.78	187.24
375.97	140.43
376.17	215.33
376.37	145.11
376.56	147.45
376.76	93.62
376.95	114.69
377.15	84.26
377.35	131.07
377.54	79.58
377.74	142.77
377.93	65.54
378.13	110.01
378.33	163.84
378.52	107.66
378.72	124.05
378.91	67.88
379.11	0.00
379.31	159.16
379.50	140.43
379.70	170.86
379.89	14.04
380.09	100.64
380.28	74.90
380.48	110.01
380.68	159.16
380.87	70.22
381.07	42.13
381.26	121.71
381.46	135.75
381.65	102.98
381.85	102.98
382.04	46.81
382.24	131.07
382.43	77.24
382.63	95.96
382.83	86.60
383.02	154.48
383.22	95.96
383.41	114.69
383.61	95.96
383.80	102.98
384.00	121.71
384.19	102.98
384.39	63.19
384.58	30.43
384.78	142.77
384.97	95.96
385.17	70.22
385.36	56.17
385.56	65.54
385.75	21.06
385.95	145.11
386.14	156.82
386.34	140.43
386.53	138.09
386.72	74.90
386.92	147.45
387.11	88.94
387.31	142.77
387.50	124.05
387.70	56.17
387.89	163.84
388.09	128.73
388.28	74.90
388.48	95.96
388.67	124.05
388.86	79.58
389.06	163.84
389.25	205.97
389.45	102.98
389.64	88.94
389.84	110.01
390.03	163.84
390.22	93.62
390.42	119.37
390.61	53.83
390.81	110.01
391.00	126.39
391.19	149.79
391.39	86.60
391.58	72.56
391.78	131.07
391.97	86.60
392.16	91.28
392.36	198.95
392.55	114.69
392.75	119.37
392.94	135.75
393.13	105.32
393.33	51.49
393.52	91.28
393.71	205.97
393.91	110.01
394.10	145.11
394.29	95.96
394.49	196.60
394.68	161.50
394.88	135.75
395.07	180.22
395.26	138.09
395.46	74.90
395.65	135.75
395.84	175.54
396.04	189.58
396.23	161.50
396.42	138.09
396.62	110.01
396.81	140.43
397.00	88.94
397.19	131.07
397.39	119.37
397.58	250.44
397.77	128.73
397.97	70.22
398.16	119.37
398.35	182.56
398.55	133.41
398.74	79.58
398.93	100.64
399.12	102.98
399.32	58.51
399.51	119.37
399.70	173.20
399.90	161.50
400.09	124.05
400.28	84.26
400.47	46.81
400.67	81.92
400.86	112.35
401.05	145.11
401.24	138.09
401.44	147.45
401.63	121.71
401.82	159.16
402.01	102.98
402.21	147.45
402.40	152.13
402.59	126.39
402.78	58.51
402.97	126.39
403.17	110.01
403.36	117.03
403.55	100.64
403.74	121.71
403.93	140.43
404.13	196.60
404.32	287.89
404.51	238.73
404.70	203.63
404.89	95.96
405.09	257.46
405.28	119.37
405.47	79.58
405.66	114.69
405.85	95.96
406.05	142.77
406.24	135.75
406.43	102.98
406.62	114.69
406.81	142.77
407.00	156.82
407.20	112.35
407.39	133.41
407.58	107.66
407.77	156.82
407.96	159.16
408.15	180.22
408.34	234.05
408.54	156.82
408.73	135.75
408.92	100.64
409.11	114.69
409.30	114.69
409.49	135.75
409.68	102.98
409.87	119.37
410.07	173.20
410.26	194.26
410.45	70.22
410.64	100.64
410.83	88.94
411.02	100.64
411.21	133.41
411.40	182.56
411.59	145.11
411.78	84.26
411.98	114.69
412.17	95.96
412.36	133.41
412.55	93.62
412.74	117.03
412.93	145.11
413.12	98.30
413.31	182.56
413.50	210.65
413.69	175.54
413.88	154.48
414.07	149.79
414.26	142.77
414.45	138.09
414.64	180.22
414.83	112.35
415.02	159.16
415.22	86.60
415.41	110.01
415.60	140.43
415.79	105.32
415.98	124.05
416.17	100.64
416.36	110.01
416.55	140.43
416.74	112.35
416.93	149.79
417.12	175.54
417.31	126.39
417.50	102.98
417.69	135.75
417.88	180.22
418.07	117.03
418.26	191.92
418.45	180.22
418.64	154.48
418.83	161.50
419.02	81.92
419.21	81.92
419.39	81.92
419.58	119.37
419.77	133.41
419.96	149.79
420.15	215.33
420.34	112.35
420.53	145.11
420.72	124.05
420.91	147.45
421.10	154.48
421.29	147.45
421.48	107.66
421.67	138.09
421.86	124.05
422.05	152.13
422.24	163.84
422.43	105.32
422.61	147.45
422.80	133.41
422.99	217.67
423.18	124.05
423.37	145.11
423.56	175.54
423.75	147.45
423.94	152.13
424.13	159.16
424.32	107.66
424.50	126.39
424.69	177.88
424.88	191.92
425.07	128.73
425.26	187.24
425.45	208.31
425.64	124.05
425.83	124.05
426.01	220.01
426.20	180.22
426.39	142.77
426.58	95.96
426.77	170.86
426.96	220.01
427.15	166.18
427.33	107.66
427.52	102.98
427.71	72.56
427.90	110.01
428.09	112.35
428.28	189.58
428.46	147.45
428.65	152.13
428.84	163.84
429.03	145.11
429.22	140.43
429.40	180.22
429.59	149.79
429.78	248.10
429.97	180.22
430.16	135.75
430.34	159.16
430.53	138.09
430.72	81.92
430.91	140.43
431.10	163.84
431.28	161.50
431.47	161.50
431.66	112.35
431.85	147.45
432.03	105.32
432.22	238.73
432.41	145.11
432.60	163.84
432.79	196.60
432.97	74.90
433.16	98.30
433.35	121.71
433.54	161.50
433.72	124.05
433.91	105.32
434.10	121.71
434.28	227.03
434.47	191.92
434.66	156.82
434.85	241.08
435.03	294.91
435.22	643.65
435.41	1137.50
435.59	1128.14
435.78	828.55
435.97	442.36
436.16	248.10
436.34	194.26
436.53	224.69
436.72	252.78
436.90	189.58
437.09	208.31
437.28	152.13
437.46	189.58
437.65	205.97
437.84	220.01
438.02	147.45
438.21	140.43
438.40	170.86
438.58	184.90
438.77	180.22
438.96	149.79
439.14	138.09
439.33	161.50
439.52	208.31
439.70	114.69
439.89	133.41
440.08	121.71
440.26	177.88
440.45	189.58
440.63	100.64
440.82	154.48
441.01	152.13
441.19	154.48
441.38	149.79
441.57	154.48
441.75	208.31
441.94	217.67
442.12	112.35
442.31	215.33
442.50	184.90
442.68	149.79
442.87	229.37
443.05	110.01
443.24	156.82
443.43	184.90
443.61	184.90
443.80	243.42
443.98	119.37
444.17	212.99
444.35	131.07
444.54	229.37
444.73	187.24
444.91	159.16
445.10	128.73
445.28	191.92
445.47	217.67
445.65	173.20
445.84	145.11
446.02	163.84
446.21	145.11
446.39	250.44
446.58	114.69
446.77	131.07
446.95	154.48
447.14	231.71
447.32	250.44
447.51	161.50
447.69	205.97
447.88	166.18
448.06	255.12
448.25	182.56
448.43	131.07
448.62	110.01
448.80	168.52
448.99	180.22
449.17	163.84
449.36	203.63
449.54	205.97
449.73	161.50
449.91	231.71
450.10	163.84
450.28	231.71
450.46	252.78
450.65	243.42
450.83	142.77
451.02	86.60
451.20	187.24
451.39	236.39
451.57	180.22
451.76	140.43
451.94	145.11
452.13	252.78
452.31	184.90
452.49	173.20
452.68	198.95
452.86	187.24
453.05	131.07
453.23	227.03
453.42	133.41
453.60	224.69
453.78	138.09
453.97	152.13
454.15	140.43
454.34	133.41
454.52	187.24
454.70	259.80
454.89	156.82
455.07	135.75
455.26	257.46
455.44	224.69
455.62	128.73
455.81	189.58
455.99	224.69
456.17	203.63
456.36	187.24
456.54	243.42
456.73	154.48
456.91	203.63
457.09	229.37
457.28	175.54
457.46	173.20
457.64	128.73
457.83	145.11
458.01	140.43
458.19	114.69
458.38	152.13
458.56	231.71
458.74	138.09
458.93	159.16
459.11	102.98
459.29	142.77
459.48	133.41
459.66	224.69
459.84	177.88
460.03	191.92
460.21	224.69
460.39	189.58
460.57	166.18
460.76	222.35
460.94	152.13
461.12	205.97
461.31	198.95
461.49	173.20
461.67	135.75
461.85	166.18
462.04	191.92
462.22	636.63
462.40	191.92
462.59	203.63
462.77	124.05
462.95	142.77
463.13	182.56
463.32	241.08
463.50	168.52
463.68	156.82
463.86	220.01
464.05	177.88
464.23	182.56
464.41	245.76
464.59	154.48
464.78	119.37
464.96	180.22
465.14	198.95
465.32	163.84
465.50	241.08
465.69	182.56
465.87	149.79
466.05	161.50
466.23	149.79
466.41	177.88
466.60	163.84
466.78	238.73
466.96	187.24
467.14	224.69
467.32	205.97
467.51	273.84
467.69	234.05
467.87	222.35
468.05	177.88
468.23	149.79
468.41	149.79
468.60	112.35
468.78	156.82
468.96	245.76
469.14	152.13
469.32	182.56
469.50	140.43
469.69	114.69
469.87	217.67
470.05	154.48
470.23	177.88
470.41	184.90
470.59	117.03
470.77	131.07
470.95	161.50
471.14	168.52
471.32	100.64
471.50	224.69
471.68	184.90
471.86	119.37
472.04	201.29
472.22	102.98
472.40	95.96
472.58	243.42
472.77	180.22
472.95	156.82
473.13	156.82
473.31	210.65
473.49	170.86
473.67	110.01
473.85	163.84
474.03	152.13
474.21	140.43
474.39	145.11
474.57	229.37
474.75	248.10
474.93	243.42
475.12	142.77
475.30	252.78
475.48	196.60
475.66	201.29
475.84	210.65
476.02	187.24
476.20	227.03
476.38	198.95
476.56	341.72
476.74	149.79
476.92	159.16
477.10	180.22
477.28	234.05
477.46	168.52
477.64	177.88
477.82	257.46
478.00	231.71
478.18	241.08
478.36	234.05
478.54	184.90
478.72	159.16
478.90	201.29
479.08	194.26
479.26	110.01
479.44	257.46
479.62	156.82
479.80	245.76
479.98	124.05
480.16	170.86
480.34	128.73
480.52	191.92
480.70	175.54
480.88	198.95
481.06	154.48
481.24	212.99
481.41	194.26
481.59	222.35
481.77	177.88
481.95	203.63
482.13	306.61
482.31	224.69
482.49	222.35
482.67	262.14
482.85	215.33
483.03	245.76
483.21	276.18
483.39	269.16
483.57	292.57
483.74	252.78
483.92	322.99
484.10	203.63
484.28	285.55
484.46	273.84
484.64	262.14
484.82	241.08
485.00	262.14
485.18	290.23
485.35	297.25
485.53	301.93
485.71	301.93
485.89	259.80
486.07	264.48
486.25	374.49
486.43	337.04
486.61	367.46
486.78	280.86
486.96	315.97
487.14	294.91
487.32	313.63
487.50	369.80
487.68	327.68
487.85	332.36
488.03	278.52
488.21	372.15
488.39	290.23
488.57	341.72
488.75	353.42
488.92	571.09
489.10	367.46
489.28	304.27
489.46	299.59
489.64	280.86
489.81	236.39
489.99	332.36
490.17	257.46
490.35	290.23
490.53	299.59
490.70	264.48
490.88	283.20
491.06	313.63
491.24	297.25
491.41	372.15
491.59	308.95
491.77	257.46
491.95	208.31
492.13	280.86
492.30	306.61
492.48	184.90
492.66	182.56
492.84	262.14
493.01	327.68
493.19	257.46
493.37	262.14
493.54	322.99
493.72	241.08
493.90	287.89
494.08	299.59
494.25	341.72
494.43	227.03
494.61	257.46
494.79	224.69
494.96	203.63
495.14	301.93
495.32	271.50
495.49	287.89
495.67	287.89
495.85	205.97
496.02	271.50
496.20	292.57
496.38	252.78
496.55	301.93
496.73	212.99
496.91	250.44
497.09	238.73
497.26	292.57
497.44	201.29
497.62	290.23
497.79	259.80
497.97	353.42
498.14	294.91
498.32	280.86
498.50	264.48
498.67	227.03
498.85	248.10
499.03	236.39
499.20	341.72
499.38	196.60
499.56	220.01
499.73	278.52
499.91	287.89
500.08	229.37
500.26	273.84
500.44	222.35
500.61	243.42
500.79	234.05
500.97	320.65
501.14	278.52
501.32	231.71
501.49	339.38
501.67	187.24
501.84	259.80
502.02	229.37
502.20	294.91
502.37	205.97
502.55	250.44
502.72	266.82
502.90	287.89
503.07	238.73
503.25	194.26
503.43	229.37
503.60	152.13
503.78	220.01
503.95	212.99
504.13	259.80
504.30	238.73
504.48	234.05
504.65	283.20
504.83	269.16
505.01	278.52
505.18	273.84
505.36	236.39
505.53	339.38
505.71	205.97
505.88	257.46
506.06	224.69
506.23	229.37
506.41	210.65
506.58	198.95
506.76	257.46
506.93	259.80
507.11	257.46
507.28	243.42
507.46	285.55
507.63	248.10
507.81	184.90
507.98	194.26
508.16	205.97
508.33	236.39
508.50	250.44
508.68	290.23
508.85	313.63
509.03	187.24
509.20	175.54
509.38	250.44
509.55	297.25
509.73	217.67
509.90	299.59
510.08	210.65
510.25	229.37
510.42	224.69
510.60	285.55
510.77	276.18
510.95	266.82
511.12	318.31
511.30	241.08
511.47	217.67
511.64	259.80
511.82	210.65
511.99	224.69
512.17	187.24
512.34	217.67
512.51	215.33
512.69	234.05
512.86	250.44
513.04	212.99
513.21	264.48
513.38	182.56
513.56	217.67
513.73	278.52
513.90	222.35
514.08	262.14
514.25	243.42
514.43	191.92
514.60	252.78
514.77	187.24
514.95	238.73
515.12	194.26
515.29	264.48
515.47	292.57
515.64	297.25
515.81	198.95
515.99	278.52
516.16	222.35
516.33	243.42
516.51	191.92
516.68	126.39
516.85	191.92
517.03	166.18
517.20	252.78
517.37	191.92
517.54	248.10
517.72	231.71
517.89	173.20
518.06	220.01
518.24	271.50
518.41	259.80
518.58	252.78
518.75	238.73
518.93	259.80
519.10	224.69
519.27	276.18
519.45	311.29
519.62	215.33
519.79	252.78
519.96	236.39
520.14	299.59
520.31	182.56
520.48	231.71
520.65	264.48
520.83	250.44
521.00	297.25
521.17	252.78
521.34	198.95
521.52	194.26
521.69	191.92
521.86	222.35
522.03	278.52
522.20	259.80
522.38	313.63
522.55	245.76
522.72	262.14
522.89	259.80
523.07	255.12
523.24	215.33
523.41	271.50
523.58	283.20
523.75	224.69
523.92	205.97
524.10	205.97
524.27	255.12
524.44	259.80
524.61	315.97
524.78	222.35
524.96	257.46
525.13	255.12
525.30	224.69
525.47	266.82
525.64	231.71
525.81	248.10
525.98	273.84
526.16	173.20
526.33	152.13
526.50	189.58
526.67	266.82
526.84	245.76
527.01	236.39
527.18	299.59
527.36	201.29
527.53	234.05
527.70	304.27
527.87	320.65
528.04	325.33
528.21	224.69
528.38	198.95
528.55	301.93
528.72	292.57
528.89	320.65
529.07	229.37
529.24	285.55
529.41	320.65
529.58	337.04
529.75	292.57
529.92	280.86
530.09	205.97
530.26	243.42
530.43	271.50
530.60	187.24
530.77	311.29
530.94	273.84
531.11	259.80
531.28	229.37
531.46	182.56
531.63	330.02
531.80	271.50
531.97	255.12
532.14	234.05
532.31	278.52
532.48	315.97
532.65	222.35
532.82	297.25
532.99	285.55
533.16	170.86
533.33	322.99
533.50	362.78
533.67	259.80
533.84	308.95
534.01	313.63
534.18	283.20
534.35	299.59
534.52	248.10
534.69	273.84
534.86	311.29
535.03	297.25
535.20	304.27
535.37	292.57
535.54	283.20
535.71	301.93
535.88	318.31
536.05	304.27
536.22	294.91
536.38	287.89
536.55	212.99
536.72	259.80
536.89	313.63
537.06	353.42
537.23	374.49
537.40	292.57
537.57	353.42
537.74	372.15
537.91	360.44
538.08	418.96
538.25	404.91
538.42	351.08
538.59	386.19
538.75	461.09
538.92	400.23
539.09	400.23
539.26	421.30
539.43	447.04
539.60	500.87
539.77	582.79
539.94	599.18
540.11	643.65
540.28	697.48
540.44	706.84
540.61	720.88
540.78	720.88
540.95	866.00
541.12	978.34
541.29	1074.31
541.46	1186.65
541.62	1177.29
541.79	1181.97
541.96	1090.69
542.13	1121.12
542.30	1088.35
542.47	1149.20
542.63	1018.13
542.80	1071.97
542.97	1062.60
543.14	1146.86
543.31	992.39
543.48	1060.26
543.64	1076.65
543.81	1034.52
543.98	1090.69
544.15	1057.92
544.32	1043.88
544.48	938.55
544.65	964.30
544.82	976.00
544.99	994.73
545.16	961.96
545.32	1011.11
545.49	1612.63
545.66	2366.28
545.83	2733.75
546.00	2513.74
546.16	1771.79
546.33	1401.98
546.50	1151.54
546.67	903.45
546.83	880.04
547.00	732.59
547.17	685.78
547.34	636.63
547.50	636.63
547.67	741.95
547.84	617.90
548.00	667.05
548.17	624.92
548.34	648.33
548.51	650.67
548.67	660.03
548.84	667.05
549.01	636.63
549.18	599.18
549.34	557.05
549.51	489.17
549.68	554.71
549.84	505.56
550.01	458.74
550.18	587.47
550.34	550.03
550.51	538.32
550.68	507.90
550.84	416.62
551.01	430.66
551.18	454.06
551.34	437.68
551.51	444.70
551.68	381.51
551.84	531.30
552.01	365.12
552.18	339.38
552.34	482.15
552.51	418.96
552.68	383.85
552.84	367.46
553.01	395.55
553.18	425.98
553.34	369.80
553.51	393.21
553.67	313.63
553.84	341.72
554.01	332.36
554.17	337.04
554.34	353.42
554.51	311.29
554.67	341.72
554.84	322.99
555.00	395.55
555.17	248.10
555.33	360.44
555.50	313.63
555.67	297.25
555.83	355.76
556.00	294.91
556.16	484.49
556.33	227.03
556.50	222.35
556.66	187.24
556.83	313.63
556.99	280.86
557.16	273.84
557.32	318.31
557.49	304.27
557.65	280.86
557.82	311.29
557.98	294.91
558.15	271.50
558.32	290.23
558.48	334.70
558.65	255.12
558.81	264.48
558.98	262.14
559.14	273.84
559.31	201.29
559.47	290.23
559.64	266.82
559.80	273.84
559.97	248.10
560.13	208.31
560.30	154.48
560.46	208.31
560.63	224.69
560.79	280.86
560.96	236.39
561.12	215.33
561.29	271.50
561.45	266.82
561.61	299.59
561.78	320.65
561.94	290.23
562.11	231.71
562.27	229.37
562.44	245.76
562.60	215.33
562.77	248.10
562.93	266.82
563.10	224.69
563.26	285.55
563.42	290.23
563.59	259.80
563.75	220.01
563.92	290.23
564.08	191.92
564.24	308.95
564.41	320.65
564.57	187.24
564.74	238.73
564.90	215.33
565.07	215.33
565.23	271.50
565.39	315.97
565.56	283.20
565.72	250.44
565.88	315.97
566.05	301.93
566.21	234.05
566.38	248.10
566.54	266.82
566.70	269.16
566.87	208.31
567.03	215.33
567.19	212.99
567.36	266.82
567.52	273.84
567.68	301.93
567.85	322.99
568.01	245.76
568.17	292.57
568.34	266.82
568.50	250.44
568.66	173.20
568.83	341.72
568.99	187.24
569.15	297.25
569.32	262.14
569.48	269.16
569.64	266.82
569.81	308.95
569.97	257.46
570.13	224.69
570.30	215.33
570.46	210.65
570.62	243.42
570.78	269.16
570.95	229.37
571.11	234.05
571.27	198.95
571.43	234.05
571.60	238.73
571.76	180.22
571.92	212.99
572.09	243.42
572.25	191.92
572.41	243.42
572.57	285.55
572.74	259.80
572.90	304.27
573.06	259.80
573.22	280.86
573.38	285.55
573.55	238.73
573.71	292.57
573.87	175.54
574.03	283.20
574.20	243.42
574.36	229.37
574.52	266.82
574.68	177.88
574.84	215.33
575.01	278.52
575.17	259.80
575.33	203.63
575.49	276.18
575.65	269.16
575.82	325.33
575.98	278.52
576.14	241.08
576.30	243.42
576.46	440.02
576.62	636.63
576.79	716.20
576.95	578.11
577.11	386.19
577.27	318.31
577.43	351.08
577.59	339.38
577.75	318.31
577.92	325.33
578.08	255.12
578.24	294.91
578.40	332.36
578.56	512.58
578.72	573.43
578.88	664.71
579.04	589.82
579.21	442.36
579.37	407.25
579.53	355.76
579.69	383.85
579.85	334.70
580.01	388.53
580.17	414.27
580.33	404.91
580.49	341.72
580.65	311.29
580.82	304.27
580.98	248.10
581.14	367.46
581.30	411.93
581.46	351.08
581.62	409.59
581.78	425.98
581.94	442.36
582.10	400.23
582.26	320.65
582.42	421.30
582.58	369.80
582.74	360.44
582.90	353.42
583.06	358.10
583.22	463.43
583.38	423.64
583.54	435.34
583.70	477.47
583.86	456.40
584.02	425.98
584.18	451.72
584.34	358.10
584.50	358.10
584.66	351.08
584.82	341.72
584.98	425.98
585.14	430.66
585.30	458.74
585.46	386.19
585.62	348.74
585.78	374.49
585.94	334.70
586.10	393.21
586.26	416.62
586.42	475.13
586.58	507.90
586.74	575.77
586.90	575.77
587.06	580.45
587.22	533.64
587.38	538.32
587.54	428.32
587.70	484.49
587.86	496.19
588.02	376.83
588.18	379.17
588.34	327.68
588.49	397.89
588.65	290.23
588.81	294.91
588.97	304.27
589.13	339.38
589.29	276.18
589.45	294.91
589.61	259.80
589.77	292.57
589.93	308.95
590.08	306.61
590.24	362.78
590.40	308.95
590.56	346.40
590.72	287.89
590.88	313.63
591.04	344.06
591.20	325.33
591.35	299.59
591.51	325.33
591.67	304.27
591.83	311.29
591.99	430.66
592.15	489.17
592.31	435.34
592.46	479.81
592.62	479.81
592.78	442.36
592.94	449.38
593.10	430.66
593.26	435.34
593.41	440.02
593.57	444.70
593.73	313.63
593.89	334.70
594.05	217.67
594.20	315.97
594.36	266.82
594.52	259.80
594.68	318.31
594.84	315.97
594.99	241.08
595.15	231.71
595.31	337.04
595.47	341.72
595.62	255.12
595.78	290.23
595.94	327.68
596.10	313.63
596.25	245.76
596.41	276.18
596.57	236.39
596.73	271.50
596.88	248.10
597.04	252.78
597.20	318.31
597.36	320.65
597.51	252.78
597.67	341.72
597.83	313.63
597.99	264.48
598.14	299.59
598.30	332.36
598.46	351.08
598.61	379.17
598.77	367.46
598.93	287.89
599.09	402.57
599.24	379.17
599.40	330.02
599.56	407.25
599.71	351.08
599.87	337.04
600.03	337.04
600.18	346.40
600.34	374.49
600.50	297.25
600.65	318.31
600.81	269.16
600.97	301.93
601.12	182.56
601.28	278.52
601.44	245.76
601.59	203.63
601.75	285.55
601.91	285.55
602.06	292.57
602.22	348.74
602.37	301.93
602.53	308.95
602.69	337.04
602.84	217.67
603.00	198.95
603.16	287.89
603.31	304.27
603.47	313.63
603.62	276.18
603.78	262.14
603.94	344.06
604.09	341.72
604.25	276.18
604.40	264.48
604.56	175.54
604.71	252.78
604.87	285.55
605.03	234.05
605.18	283.20
605.34	273.84
605.49	269.16
605.65	283.20
605.80	259.80
605.96	294.91
606.12	248.10
606.27	308.95
606.43	285.55
606.58	337.04
606.74	299.59
606.89	271.50
607.05	257.46
607.20	337.04
607.36	339.38
607.51	299.59
607.67	365.12
607.82	386.19
607.98	402.57
608.13	374.49
608.29	402.57
608.44	341.72
608.60	346.40
608.75	404.91
608.91	433.00
609.06	524.28
609.22	486.83
609.37	500.87
609.53	578.11
609.68	631.94
609.84	662.37
609.99	826.21
610.15	889.40
610.30	1006.43
610.46	1228.78
610.61	1476.88
610.76	1900.52
610.92	2242.23
611.07	2569.91
611.23	2546.50
