SpectraSuite Data File
++++++++++++++++++++++++++++++++++++
Date: Fri Oct 04 11:42:23 GMT-05:00 2013
User: price-jones
Dark Spectrum Present: No
Reference Spectrum Present: No
Number of Sampled Component Spectra: 1
Spectrometers: USB2+H05261
Integration Time (usec): 100000 (USB2+H05261)
Spectra Averaged: 1 (USB2+H05261)
Boxcar Smoothing: 0 (USB2+H05261)
Correct for Electrical Dark: No (USB2+H05261)
Strobe/Lamp Enabled: No (USB2+H05261)
Correct for Detector Non-linearity: No (USB2+H05261)
Correct for Stray Light: No (USB2+H05261)
Number of Pixels in Processed Spectrum: 2048
>>>>>Begin Processed Spectral Data<<<<<
365.73	0.00
365.92	0.00
366.12	0.00
366.32	30.43
366.52	30.43
366.72	0.00
366.91	0.00
367.11	0.00
367.31	0.00
367.51	0.00
367.70	0.00
367.90	0.00
368.10	0.00
368.30	0.00
368.49	0.00
368.69	0.00
368.89	0.00
369.09	0.00
369.28	0.00
369.48	0.00
369.68	0.00
369.87	0.00
370.07	0.00
370.27	107.66
370.47	145.11
370.66	245.76
370.86	388.53
371.06	372.15
371.25	376.83
371.45	353.42
371.65	372.15
371.84	379.17
372.04	341.72
372.24	315.97
372.44	402.57
372.63	374.49
372.83	454.06
373.03	409.59
373.22	313.63
373.42	334.70
373.62	381.51
373.81	367.46
374.01	390.87
374.21	430.66
374.40	397.89
374.60	390.87
374.79	409.59
374.99	376.83
375.19	510.24
375.38	505.56
375.58	409.59
375.78	454.06
375.97	454.06
376.17	517.26
376.37	496.19
376.56	482.15
376.76	411.93
376.95	503.22
377.15	599.18
377.35	578.11
377.54	568.75
377.74	528.96
377.93	552.37
378.13	578.11
378.33	479.81
378.52	507.90
378.72	465.77
378.91	575.77
379.11	456.40
379.31	503.22
379.50	461.09
379.70	507.90
379.89	505.56
380.09	461.09
380.28	517.26
380.48	514.92
380.68	484.49
380.87	451.72
381.07	458.74
381.26	449.38
381.46	409.59
381.65	428.32
381.85	381.51
382.04	379.17
382.24	421.30
382.43	311.29
382.63	320.65
382.83	337.04
383.02	346.40
383.22	463.43
383.41	341.72
383.61	400.23
383.80	503.22
384.00	514.92
384.19	550.03
384.39	557.05
384.58	491.51
384.78	575.77
384.97	557.05
385.17	528.96
385.36	484.49
385.56	559.39
385.75	411.93
385.95	486.83
386.14	571.09
386.34	573.43
386.53	538.32
386.72	477.47
386.92	564.07
387.11	493.85
387.31	559.39
387.50	561.73
387.70	486.83
387.89	528.96
388.09	554.71
388.28	449.38
388.48	554.71
388.67	575.77
388.86	592.16
389.06	594.50
389.25	617.90
389.45	638.97
389.64	629.60
389.84	671.73
390.03	643.65
390.22	641.31
390.42	699.82
390.61	678.76
390.81	777.06
391.00	765.36
391.19	772.38
391.39	648.33
391.58	648.33
391.78	653.01
391.97	622.58
392.16	622.58
392.36	669.39
392.55	535.98
392.75	330.02
392.94	458.74
393.13	379.17
393.33	472.79
393.52	538.32
393.71	641.31
393.91	643.65
394.10	571.09
394.29	669.39
394.49	763.01
394.68	753.65
394.88	798.12
395.07	828.55
395.26	844.93
395.46	870.68
395.65	767.70
395.84	667.05
396.04	678.76
396.23	521.94
396.42	428.32
396.62	468.11
396.81	444.70
397.00	582.79
397.19	704.50
397.39	812.17
397.58	936.21
397.77	884.72
397.97	987.71
398.16	908.13
398.35	1011.11
398.55	980.68
398.74	992.39
398.93	1069.62
399.12	1036.86
399.32	997.07
399.51	1020.47
399.70	1013.45
399.90	1055.58
400.09	1167.93
400.28	1156.22
400.47	1078.99
400.67	1090.69
400.86	1156.22
401.05	1167.93
401.24	1156.22
401.44	1160.91
401.63	1184.31
401.82	1137.50
402.01	1151.54
402.21	1179.63
402.40	1191.33
402.59	1090.69
402.78	1123.46
402.97	1069.62
403.17	1088.35
403.36	1240.48
403.55	1282.61
403.74	1287.29
403.93	1114.10
404.13	1217.08
404.32	1156.22
404.51	1188.99
404.70	1177.29
404.89	1217.08
405.09	1205.38
405.28	1123.46
405.47	1088.35
405.66	1165.59
405.85	1069.62
406.05	1137.50
406.24	1055.58
406.43	1083.67
406.62	1078.99
406.81	1191.33
407.00	1163.25
407.20	1071.97
407.39	1200.69
407.58	1212.40
407.77	1174.95
407.96	1273.25
408.15	1301.34
408.34	1277.93
408.54	1249.85
408.73	1364.53
408.92	1299.00
409.11	1296.66
409.30	1238.14
409.49	1125.80
409.68	1057.92
409.87	1104.73
410.07	1114.10
410.26	1177.29
410.45	1207.72
410.64	1322.40
410.83	1254.53
411.02	1303.68
411.21	1399.64
411.40	1387.94
411.59	1413.68
411.78	1430.07
411.98	1329.42
412.17	1439.43
412.36	1329.42
412.55	1331.76
412.74	1289.64
412.93	1350.49
413.12	1329.42
413.31	1481.56
413.50	1341.13
413.69	1383.26
413.88	1397.30
414.07	1378.58
414.26	1448.79
414.45	1481.56
414.64	1378.58
414.83	1490.92
415.02	1406.66
415.22	1418.36
415.41	1563.48
415.60	1430.07
415.79	1584.54
415.98	1511.99
416.17	1474.54
416.36	1533.05
416.55	1446.45
416.74	1411.34
416.93	1441.77
417.12	1313.04
417.31	1380.92
417.50	1476.88
417.69	1465.18
417.88	1437.09
418.07	1420.71
418.26	1446.45
418.45	1385.60
418.64	1479.22
418.83	1575.18
419.02	1448.79
419.21	1549.43
419.39	1462.83
419.58	1432.41
419.77	1418.36
419.96	1467.52
420.15	1537.73
420.34	1568.16
420.53	1610.29
420.72	1640.72
420.91	1694.55
421.10	1638.38
421.29	1675.82
421.48	1575.18
421.67	1631.35
421.86	1673.48
422.05	1437.09
422.24	1378.58
422.43	1284.95
422.61	1409.00
422.80	1537.73
422.99	1502.62
423.18	1540.07
423.37	1612.63
423.56	1542.41
423.75	1544.75
423.94	1488.58
424.13	1483.90
424.32	1385.60
424.50	1441.77
424.69	1380.92
424.88	1511.99
425.07	1474.54
425.26	1521.35
425.45	1441.77
425.64	1369.21
425.83	1371.55
426.01	1530.71
426.20	1465.18
426.39	1469.86
426.58	1416.02
426.77	1364.53
426.96	1380.92
427.15	1409.00
427.33	1371.55
427.52	1455.81
427.71	1441.77
427.90	1385.60
428.09	1575.18
428.28	1301.34
428.46	1352.83
428.65	1327.08
428.84	1434.75
429.03	1418.36
429.22	1324.74
429.40	1210.06
429.59	1228.78
429.78	1130.48
429.97	1062.60
430.16	1076.65
430.34	936.21
430.53	1121.12
430.72	1107.07
430.91	1184.31
431.10	1341.13
431.28	1582.20
431.47	1652.42
431.66	1657.10
431.85	1614.97
432.03	1444.11
432.22	1474.54
432.41	1467.52
432.60	1572.84
432.79	1596.25
432.97	1722.63
433.16	1647.74
433.35	1535.39
433.54	1383.26
433.72	1357.51
433.91	1390.28
434.10	1556.46
434.28	1575.18
434.47	1755.40
434.66	1614.97
434.85	1612.63
435.03	1724.97
435.22	1881.79
435.41	2127.55
435.59	2246.91
435.78	1982.43
435.97	1933.28
436.16	1863.07
436.34	1799.87
436.53	1682.85
436.72	1692.21
436.90	1607.95
437.09	1624.33
437.28	1582.20
437.46	1652.42
437.65	1629.01
437.84	1579.86
438.02	1462.83
438.21	1549.43
438.40	1535.39
438.58	1467.52
438.77	1694.55
438.96	1785.83
439.14	1699.23
439.33	1809.23
439.52	1715.61
439.70	1776.47
439.89	1687.53
440.08	1596.25
440.26	1668.80
440.45	1652.42
440.63	1853.70
440.82	1895.83
441.01	1818.60
441.19	1905.20
441.38	1813.92
441.57	1930.94
441.75	2064.35
441.94	1898.17
442.12	1865.41
442.31	1970.73
442.50	1923.92
442.68	1970.73
442.87	1919.24
443.05	1949.67
443.24	1942.64
443.43	1980.09
443.61	1961.37
443.80	1996.48
443.98	1975.41
444.17	1839.66
444.35	2054.99
444.54	2005.84
444.73	2083.08
444.91	1909.88
445.10	1956.69
445.28	1757.74
445.47	1760.08
445.65	1802.21
445.84	1919.24
446.02	1898.17
446.21	1928.60
446.39	1954.35
446.58	1987.11
446.77	1968.39
446.95	2005.84
447.14	2054.99
447.32	2012.86
447.51	2090.10
447.69	1944.99
447.88	1907.54
448.06	1872.43
448.25	1982.43
448.43	2031.58
448.62	1968.39
448.80	2045.63
448.99	2019.88
449.17	1994.14
449.36	1973.07
449.54	2108.82
449.73	2076.06
449.91	2193.08
450.10	2188.40
450.28	2267.98
450.46	2249.25
450.65	2242.23
450.83	2169.68
451.02	2115.84
451.20	2139.25
451.39	2225.85
451.57	2097.12
451.76	2080.74
451.94	2125.21
452.13	2148.61
452.31	1987.11
452.49	1947.33
452.68	1919.24
452.86	1865.41
453.05	1970.73
453.23	1947.33
453.42	2094.78
453.60	2024.56
453.78	2186.06
453.97	2057.33
454.15	2029.24
454.34	1923.92
454.52	2026.90
454.70	2033.93
454.89	2078.40
455.07	1961.37
455.26	2132.23
455.44	2249.25
455.62	2270.32
455.81	2115.84
455.99	2108.82
456.17	2106.48
456.36	2083.08
456.54	2181.38
456.73	2162.66
456.91	2113.50
457.09	2197.76
457.28	2242.23
457.46	2221.17
457.64	2066.69
457.83	2223.51
458.01	2160.31
458.19	2127.55
458.38	2139.25
458.56	2263.30
458.74	2108.82
458.93	2230.53
459.11	2150.95
459.29	2012.86
459.48	2193.08
459.66	2108.82
459.84	2108.82
460.03	2312.45
460.21	2153.29
460.39	2146.27
460.57	2251.60
460.76	2143.93
460.94	2284.36
461.12	2300.75
461.31	2317.13
461.49	2235.21
461.67	2087.76
461.85	2267.98
462.04	2221.17
462.22	2401.39
462.40	2382.67
462.59	2377.98
462.77	2256.28
462.95	2246.91
463.13	2157.97
463.32	2190.74
463.50	2172.02
463.68	2214.15
463.86	2293.72
464.05	2059.67
464.23	2207.13
464.41	2097.12
464.59	2136.91
464.78	2209.47
464.96	2148.61
465.14	2160.31
465.32	2167.34
465.50	2258.62
465.69	2249.25
465.87	2260.96
466.05	2277.34
466.23	2125.21
466.41	2015.20
466.60	2085.42
466.78	2202.44
466.96	2150.95
467.14	2090.10
467.32	2289.04
467.51	2286.70
467.69	2150.95
467.87	2136.91
468.05	2183.72
468.23	2232.87
468.41	2165.00
468.60	2181.38
468.78	2260.96
468.96	2134.57
469.14	2167.34
469.32	2181.38
469.50	2062.01
469.69	2139.25
469.87	2097.12
470.05	2083.08
470.23	2101.80
470.41	2111.16
470.59	2157.97
470.77	2202.44
470.95	2186.06
471.14	2265.64
471.32	2143.93
471.50	2296.07
471.68	2291.38
471.86	2394.37
472.04	2356.92
472.22	2389.69
472.40	2211.81
472.58	2150.95
472.77	2162.66
472.95	2258.62
473.13	2422.45
473.31	2230.53
473.49	2293.72
473.67	2291.38
473.85	2314.79
474.03	2340.54
474.21	2347.56
474.39	2361.60
474.57	2548.84
474.75	2429.48
474.93	2443.52
475.12	2373.30
475.30	2214.15
475.48	2410.75
475.66	2380.32
475.84	2361.60
476.02	2338.20
476.20	2345.22
476.38	2361.60
476.56	2392.03
476.74	2513.74
476.92	2431.82
477.10	2438.84
477.28	2567.57
477.46	2567.57
477.64	2600.34
477.82	2504.37
478.00	2682.25
478.18	2530.12
478.36	2520.76
478.54	2497.35
478.72	2483.31
478.90	2672.89
479.08	2593.31
479.26	2834.39
479.44	2712.68
479.62	2729.06
479.80	2642.46
479.98	2752.47
480.16	2715.02
480.34	2745.45
480.52	2771.19
480.70	2750.13
480.88	2719.70
481.06	2855.45
481.24	2881.20
481.41	2932.69
481.59	2951.42
481.77	2960.78
481.95	2888.22
482.13	2850.77
482.31	2942.05
482.49	2883.54
482.67	2899.92
482.85	2951.42
483.03	2967.80
483.21	2979.50
483.39	3033.33
483.57	2864.82
483.74	2937.37
483.92	2942.05
484.10	2956.10
484.28	3052.06
484.46	3030.99
484.64	3035.67
484.82	3026.31
485.00	3075.46
485.18	2867.16
485.35	2853.11
485.53	2565.23
485.71	2485.65
485.89	2434.16
486.07	2490.33
486.25	2726.72
486.43	2895.24
486.61	2986.52
486.78	3016.95
486.96	2981.84
487.14	3019.29
487.32	3014.61
487.50	3105.89
487.68	3155.04
487.85	3197.17
488.03	3295.47
488.21	3279.09
488.39	3206.53
488.57	3204.19
488.75	3117.59
488.92	3520.17
489.10	3349.31
489.28	3550.59
489.46	3571.66
489.64	3637.19
489.81	3637.19
489.99	3449.95
490.17	3744.86
490.35	3744.86
490.53	3478.04
490.70	3485.06
490.88	3520.17
491.06	3576.34
491.24	3536.55
491.41	3492.08
491.59	3384.41
491.77	3225.26
491.95	3361.01
492.13	3545.91
492.30	3702.73
492.48	3648.90
492.66	3691.02
492.84	3707.41
493.01	3751.88
493.19	3606.77
493.37	3588.04
493.54	3632.51
493.72	3740.18
493.90	3712.09
494.08	3794.01
494.25	3943.80
494.43	3981.25
494.61	4049.13
494.79	3999.98
494.96	3878.27
495.14	3925.08
495.32	3634.85
495.49	3686.34
495.67	3953.16
495.85	3906.35
496.02	3868.91
496.20	4018.70
496.38	3906.35
496.55	3997.64
496.73	4135.73
496.91	4091.26
497.09	4131.05
497.26	4093.60
497.44	3955.51
497.62	3943.80
497.79	3904.01
497.97	3859.54
498.14	3817.41
498.32	3861.88
498.50	4011.68
498.67	4177.86
498.85	4142.75
499.03	4081.89
499.20	4191.90
499.38	4175.52
499.56	4014.02
499.73	4016.36
499.91	4032.74
500.08	3887.63
500.26	3918.06
500.44	3815.07
500.61	3964.87
500.79	3948.48
500.97	3817.41
501.14	3857.20
501.32	3808.05
501.49	3974.23
501.67	3854.86
501.84	3936.78
502.02	3955.51
502.20	4149.77
502.37	3974.23
502.55	3817.41
502.72	3950.82
502.90	4049.13
503.07	4016.36
503.25	3873.59
503.43	3751.88
503.60	3648.90
503.78	3723.79
503.95	3648.90
504.13	3798.69
504.30	4133.39
504.48	4053.81
504.65	4032.74
504.83	4023.38
505.01	4133.39
505.18	4191.90
505.36	4081.89
505.53	4145.09
505.71	4416.59
505.88	4292.54
506.06	4198.92
506.23	4119.34
506.41	4154.45
506.58	4056.15
506.76	4042.11
506.93	3967.21
507.11	4098.28
507.28	4140.41
507.46	4067.85
507.63	4093.60
507.81	3957.85
507.98	3932.10
508.16	4046.79
508.33	4063.17
508.50	4196.58
508.68	4184.88
508.85	4444.68
509.03	4308.93
509.20	4388.50
509.38	4276.16
509.55	4030.40
509.73	4037.42
509.90	4086.58
510.08	4205.94
510.25	4255.09
510.42	4133.39
510.60	4117.00
510.77	4311.27
510.95	4418.93
511.12	4278.50
511.30	4402.55
511.47	4561.70
511.64	4404.89
511.82	4437.66
511.99	4250.41
512.17	4299.56
512.34	4046.79
512.51	4203.60
512.69	4271.48
512.86	4299.56
513.04	4344.03
513.21	4299.56
513.38	4222.33
513.56	4163.81
513.73	4060.83
513.90	4161.47
514.08	4252.75
514.25	4205.94
514.43	4262.12
514.60	4257.43
514.77	4269.14
514.95	4098.28
515.12	4294.88
515.29	4329.99
515.47	4374.46
515.64	4559.36
515.81	4393.19
515.99	4280.84
516.16	4203.60
516.33	3765.92
516.51	3613.79
516.68	3452.29
516.85	3466.33
517.03	3412.50
517.20	3803.37
517.37	4077.21
517.54	4212.96
517.72	4121.68
517.89	3831.46
518.06	3653.58
518.24	3751.88
518.41	3913.38
518.58	3999.98
518.75	4070.19
518.93	4119.34
519.10	4227.01
519.27	4180.20
519.45	4112.32
519.62	4287.86
519.79	4341.69
519.96	4203.60
520.14	4248.07
520.31	4095.94
520.48	4074.87
520.65	4269.14
520.83	4152.11
521.00	4533.62
521.17	4383.82
521.34	4285.52
521.52	4234.03
521.69	4414.25
521.86	4477.44
522.03	4461.06
522.20	4255.09
522.38	4037.42
522.55	4105.30
522.72	4224.67
522.89	4227.01
523.07	4262.12
523.24	4329.99
523.41	4369.78
523.58	4414.25
523.75	4409.57
523.92	4430.63
524.10	4596.81
524.27	4447.02
524.44	4498.51
524.61	4533.62
524.78	4540.64
524.96	4367.44
525.13	4236.37
525.30	4379.14
525.47	4491.49
525.64	4402.55
525.81	4493.83
525.98	4095.94
526.16	4028.06
526.33	3904.01
526.50	3705.07
526.67	3730.81
526.84	3950.82
527.01	3985.93
527.18	4189.56
527.36	4102.96
527.53	4294.88
527.70	4374.46
527.87	4301.90
528.04	4325.31
528.21	4266.80
528.38	4280.84
528.55	4559.36
528.72	4580.43
528.89	4650.64
529.07	4596.81
529.24	4430.63
529.41	4329.99
529.58	4201.26
529.75	4294.88
529.92	4348.72
530.09	4468.08
530.26	4554.68
530.43	4498.51
530.60	4606.17
530.77	4652.98
530.94	4557.02
531.11	4603.83
531.28	4489.15
531.46	4461.06
531.63	4468.08
531.80	4475.10
531.97	4376.80
532.14	4285.52
532.31	4266.80
532.48	3833.80
532.65	3976.57
532.82	4156.79
532.99	4320.63
533.16	4362.76
533.33	4386.16
533.50	4299.56
533.67	4212.96
533.84	4285.52
534.01	4355.74
534.18	4327.65
534.35	4449.36
534.52	4358.08
534.69	4379.14
534.86	4264.46
535.03	4500.85
535.20	4512.55
535.37	4615.54
535.54	4596.81
535.71	4629.58
535.88	4589.79
536.05	4465.74
536.22	4283.18
536.38	4299.56
536.55	4156.79
536.72	4114.66
536.89	4091.26
537.06	4231.69
537.23	4465.74
537.40	4231.69
537.57	4423.61
537.74	4514.89
537.91	4531.28
538.08	4463.40
538.25	4362.76
538.42	4550.00
538.59	4449.36
538.75	4369.78
538.92	4318.29
539.09	4325.31
539.26	4322.97
539.43	4276.16
539.60	4381.48
539.77	4315.95
539.94	4290.20
540.11	4327.65
540.28	4168.49
540.44	4264.46
540.61	4259.78
540.78	4290.20
540.95	4276.16
541.12	4449.36
541.29	4545.32
541.46	4704.48
541.62	4573.41
541.79	4636.60
541.96	4601.49
542.13	4568.73
542.30	4582.77
542.47	4741.93
542.63	4606.17
542.80	4636.60
542.97	4613.20
543.14	4566.39
543.31	4603.83
543.48	4662.35
543.64	4648.30
543.81	4748.95
543.98	4638.94
544.15	4638.94
544.32	4383.82
544.48	4510.21
544.65	4585.11
544.82	4730.22
544.99	4582.77
545.16	4599.15
545.32	4547.66
545.49	4959.60
545.66	5355.15
545.83	5621.97
546.00	5277.91
546.16	4917.47
546.33	4727.88
546.50	4587.45
546.67	4540.64
546.83	4599.15
547.00	4641.28
547.17	4360.42
547.34	4250.41
547.50	4140.41
547.67	4351.06
547.84	4257.43
548.00	4322.97
548.17	4280.84
548.34	4313.61
548.51	4444.68
548.67	4472.76
548.84	4442.34
549.01	4318.29
549.18	4414.25
549.34	4337.01
549.51	4390.84
549.68	4358.08
549.84	4255.09
550.01	4245.73
550.18	4383.82
550.34	4386.16
550.51	4341.69
550.68	4238.71
550.84	4243.39
551.01	4056.15
551.18	4486.81
551.34	4264.46
551.51	4205.94
551.68	4451.70
551.84	4458.72
552.01	4255.09
552.18	4227.01
552.34	4215.30
552.51	4219.99
552.68	4093.60
552.84	4222.33
553.01	4145.09
553.18	4142.75
553.34	4215.30
553.51	4051.47
553.67	4159.13
553.84	4355.74
554.01	4142.75
554.17	4198.92
554.34	4182.54
554.51	4273.82
554.67	4212.96
554.84	4147.43
555.00	4166.15
555.17	4163.81
555.33	4039.76
555.50	4074.87
555.67	3999.98
555.83	4004.66
556.00	4088.92
556.16	4140.41
556.33	4025.72
556.50	4011.68
556.66	4009.34
556.83	3988.27
556.99	3995.29
557.16	3997.64
557.32	3999.98
557.49	3946.14
557.65	4124.02
557.82	4140.41
557.98	3868.91
558.15	4039.76
558.32	3845.50
558.48	3817.41
558.65	3791.67
558.81	3880.61
558.98	3976.57
559.14	3929.76
559.31	3957.85
559.47	3925.08
559.64	3747.20
559.80	3836.14
559.97	3747.20
560.13	3726.13
560.30	3920.40
560.46	4042.11
560.63	4042.11
560.79	4105.30
560.96	3995.29
561.12	3775.28
561.29	3822.09
561.45	3859.54
561.61	3805.71
561.78	3864.22
561.94	3747.20
562.11	3784.65
562.27	3815.07
562.44	3789.33
562.60	3882.95
562.77	3918.06
562.93	3981.25
563.10	3999.98
563.26	3974.23
563.42	3908.69
563.59	3866.56
563.75	3791.67
563.92	3817.41
564.08	3700.39
564.24	3822.09
564.41	3871.25
564.57	3796.35
564.74	3847.84
564.90	3829.12
565.07	3712.09
565.23	3700.39
565.39	3810.39
565.56	3688.68
565.72	3712.09
565.88	3660.60
566.05	3562.30
566.21	3674.64
566.38	3822.09
566.54	3740.18
566.70	3721.45
566.87	3721.45
567.03	3709.75
567.19	3929.76
567.36	3922.74
567.52	3667.62
567.68	3721.45
567.85	3623.15
568.01	3485.06
568.17	3555.27
568.34	3412.50
568.50	3356.33
568.66	3508.46
568.83	3716.77
568.99	3648.90
569.15	3435.91
569.32	3517.83
569.48	3613.79
569.64	3552.93
569.81	3452.29
569.97	3559.95
570.13	3456.97
570.30	3480.38
570.46	3475.70
570.62	3339.94
570.78	3403.14
570.95	3375.05
571.11	3463.99
571.27	3501.44
571.43	3492.08
571.60	3620.81
571.76	3513.14
571.92	3627.83
572.09	3480.38
572.25	3499.10
572.41	3564.64
572.57	3616.13
572.74	3576.34
572.90	3520.17
573.06	3471.01
573.22	3555.27
573.38	3454.63
573.55	3564.64
573.71	3597.40
573.87	3480.38
574.03	3442.93
574.20	3449.95
574.36	3447.61
574.52	3473.36
574.68	3379.73
574.84	3417.18
575.01	3276.75
575.17	3251.00
575.33	3363.35
575.49	3405.48
575.65	3384.41
575.82	3461.65
575.98	3368.03
576.14	3375.05
576.30	3531.87
576.46	3520.17
576.62	3620.81
576.79	3632.51
576.95	3536.55
577.11	3478.04
577.27	3508.46
577.43	3482.72
577.59	3412.50
577.75	3410.16
577.92	3349.31
578.08	3274.41
578.24	3314.20
578.40	3321.22
578.56	3417.18
578.72	3604.42
578.88	3679.32
579.04	3543.57
579.21	3449.95
579.37	3403.14
579.53	3571.66
579.69	3492.08
579.85	3508.46
580.01	3487.40
580.17	3424.20
580.33	3393.78
580.49	3377.39
580.65	3449.95
580.82	3382.07
580.98	3375.05
581.14	3478.04
581.30	3564.64
581.46	3461.65
581.62	3527.19
581.78	3459.31
581.94	3447.61
582.10	3475.70
582.26	3548.25
582.42	3410.16
582.58	3471.01
582.74	3527.19
582.90	3564.64
583.06	3480.38
583.22	3478.04
583.38	3396.12
583.54	3485.06
583.70	3515.48
583.86	3625.49
584.02	3389.10
584.18	3403.14
584.34	3482.72
584.50	3410.16
584.66	3400.80
584.82	3426.54
584.98	3543.57
585.14	3314.20
585.30	3293.13
585.46	3251.00
585.62	3141.00
585.78	3126.96
585.94	3241.64
586.10	3272.07
586.26	3150.36
586.42	3201.85
586.58	3325.90
586.74	3211.22
586.90	3527.19
587.06	3346.97
587.22	3194.83
587.38	3281.43
587.54	3169.09
587.70	3222.92
587.86	2986.52
588.02	2862.48
588.18	2715.02
588.34	2726.72
588.49	2595.65
588.65	2438.84
588.81	2387.35
588.97	2396.71
589.13	2492.67
589.29	2373.30
589.45	2431.82
589.61	2455.22
589.77	2434.16
589.93	2682.25
590.08	2663.53
590.24	2719.70
590.40	2733.75
590.56	2796.94
590.72	2733.75
590.88	2724.38
591.04	2754.81
591.20	2810.98
591.35	2759.49
591.51	2782.90
591.67	2698.64
591.83	2724.38
591.99	2761.83
592.15	2668.21
592.31	2822.69
592.46	2916.31
592.62	2974.82
592.78	2836.73
592.94	2930.35
593.10	3038.02
593.26	2867.16
593.41	2986.52
593.57	2874.18
593.73	2752.47
593.89	2693.96
594.05	2698.64
594.20	2572.25
594.36	2476.29
594.52	2530.12
594.68	2569.91
594.84	2700.98
594.99	2712.68
595.15	2848.43
595.31	2904.60
595.47	2829.71
595.62	2813.32
595.78	2829.71
595.94	2911.63
596.10	2920.99
596.25	2803.96
596.41	2719.70
596.57	2733.75
596.73	2768.85
596.88	2864.82
597.04	2986.52
597.20	2946.73
597.36	2813.32
597.51	2918.65
597.67	2789.92
597.83	2839.07
597.99	2918.65
