SpectraSuite Data File
++++++++++++++++++++++++++++++++++++
Date: Fri Oct 04 11:41:43 GMT-05:00 2013
User: price-jones
Dark Spectrum Present: No
Reference Spectrum Present: No
Number of Sampled Component Spectra: 1
Spectrometers: USB2+H05261
Integration Time (usec): 100000 (USB2+H05261)
Spectra Averaged: 1 (USB2+H05261)
Boxcar Smoothing: 0 (USB2+H05261)
Correct for Electrical Dark: No (USB2+H05261)
Strobe/Lamp Enabled: No (USB2+H05261)
Correct for Detector Non-linearity: No (USB2+H05261)
Correct for Stray Light: No (USB2+H05261)
Number of Pixels in Processed Spectrum: 2048
>>>>>Begin Processed Spectral Data<<<<<
365.73	65.54
365.92	65.54
366.12	65.54
366.32	58.51
366.52	0.00
366.72	0.00
366.91	0.00
367.11	0.00
367.31	0.00
367.51	0.00
367.70	0.00
367.90	0.00
368.10	0.00
368.30	0.00
368.49	0.00
368.69	0.00
368.89	0.00
369.09	0.00
369.28	0.00
369.48	14.04
369.68	14.04
369.87	0.00
370.07	0.00
370.27	65.54
370.47	35.11
370.66	51.49
370.86	30.43
371.06	56.17
371.25	217.67
371.45	124.05
371.65	149.79
371.84	23.41
372.04	100.64
372.24	184.90
372.44	53.83
372.63	110.01
372.83	187.24
373.03	65.54
373.22	79.58
373.42	117.03
373.62	187.24
373.81	163.84
374.01	105.32
374.21	126.39
374.40	124.05
374.60	159.16
374.79	159.16
374.99	126.39
375.19	159.16
375.38	114.69
375.58	86.60
375.78	138.09
375.97	175.54
376.17	236.39
376.37	140.43
376.56	56.17
376.76	182.56
376.95	142.77
377.15	205.97
377.35	168.52
377.54	184.90
377.74	77.24
377.93	105.32
378.13	173.20
378.33	140.43
378.52	205.97
378.72	147.45
378.91	166.18
379.11	135.75
379.31	60.85
379.50	114.69
379.70	194.26
379.89	161.50
380.09	138.09
380.28	114.69
380.48	142.77
380.68	100.64
380.87	14.04
381.07	177.88
381.26	126.39
381.46	140.43
381.65	133.41
381.85	117.03
382.04	152.13
382.24	166.18
382.43	121.71
382.63	140.43
382.83	117.03
383.02	140.43
383.22	161.50
383.41	67.88
383.61	191.92
383.80	86.60
384.00	30.43
384.19	117.03
384.39	102.98
384.58	170.86
384.78	147.45
384.97	119.37
385.17	56.17
385.36	177.88
385.56	142.77
385.75	98.30
385.95	196.60
386.14	147.45
386.34	114.69
386.53	67.88
386.72	173.20
386.92	182.56
387.11	147.45
387.31	133.41
387.50	77.24
387.70	58.51
387.89	117.03
388.09	105.32
388.28	154.48
388.48	91.28
388.67	117.03
388.86	88.94
389.06	79.58
389.25	124.05
389.45	149.79
389.64	175.54
389.84	147.45
390.03	105.32
390.22	149.79
390.42	198.95
390.61	98.30
390.81	121.71
391.00	133.41
391.19	191.92
391.39	175.54
391.58	114.69
391.78	184.90
391.97	119.37
392.16	105.32
392.36	154.48
392.55	198.95
392.75	60.85
392.94	110.01
393.13	182.56
393.33	42.13
393.52	208.31
393.71	98.30
393.91	39.79
394.10	170.86
394.29	91.28
394.49	91.28
394.68	175.54
394.88	79.58
395.07	224.69
395.26	72.56
395.46	140.43
395.65	42.13
395.84	112.35
396.04	241.08
396.23	257.46
396.42	112.35
396.62	208.31
396.81	201.29
397.00	70.22
397.19	168.52
397.39	184.90
397.58	222.35
397.77	142.77
397.97	105.32
398.16	119.37
398.35	205.97
398.55	168.52
398.74	173.20
398.93	180.22
399.12	203.63
399.32	154.48
399.51	98.30
399.70	187.24
399.90	161.50
400.09	203.63
400.28	229.37
400.47	138.09
400.67	259.80
400.86	161.50
401.05	198.95
401.24	147.45
401.44	243.42
401.63	187.24
401.82	177.88
402.01	224.69
402.21	198.95
402.40	184.90
402.59	294.91
402.78	166.18
402.97	217.67
403.17	250.44
403.36	280.86
403.55	353.42
403.74	800.46
403.93	2434.16
404.13	6045.60
404.32	10237.50
404.51	11124.57
404.70	7101.19
404.89	2588.63
405.09	678.76
405.28	360.44
405.47	245.76
405.66	245.76
405.85	273.84
406.05	231.71
406.24	168.52
406.43	250.44
406.62	236.39
406.81	318.31
407.00	362.78
407.20	709.18
407.39	1280.27
407.58	1643.06
407.77	1266.23
407.96	636.63
408.15	344.06
408.34	198.95
408.54	264.48
408.73	196.60
408.92	180.22
409.11	194.26
409.30	273.84
409.49	105.32
409.68	227.03
409.87	184.90
410.07	212.99
410.26	271.50
410.45	191.92
410.64	245.76
410.83	273.84
411.02	245.76
411.21	238.73
411.40	287.89
411.59	262.14
411.78	252.78
411.98	149.79
412.17	264.48
412.36	259.80
412.55	341.72
412.74	250.44
412.93	273.84
413.12	191.92
413.31	341.72
413.50	318.31
413.69	227.03
413.88	297.25
414.07	292.57
414.26	315.97
414.45	264.48
414.64	339.38
414.83	325.33
415.02	294.91
415.22	400.23
415.41	278.52
415.60	322.99
415.79	283.20
415.98	367.46
416.17	278.52
416.36	259.80
416.55	231.71
416.74	334.70
416.93	351.08
417.12	306.61
417.31	332.36
417.50	341.72
417.69	369.80
417.88	358.10
418.07	304.27
418.26	290.23
418.45	362.78
418.64	358.10
418.83	325.33
419.02	299.59
419.21	362.78
419.39	337.04
419.58	285.55
419.77	308.95
419.96	400.23
420.15	358.10
420.34	278.52
420.53	299.59
420.72	341.72
420.91	355.76
421.10	276.18
421.29	348.74
421.48	334.70
421.67	313.63
421.86	395.55
422.05	454.06
422.24	304.27
422.43	290.23
422.61	290.23
422.80	390.87
422.99	332.36
423.18	400.23
423.37	393.21
423.56	418.96
423.75	421.30
423.94	287.89
424.13	390.87
424.32	393.21
424.50	393.21
424.69	388.53
424.88	397.89
425.07	334.70
425.26	444.70
425.45	395.55
425.64	449.38
425.83	390.87
426.01	451.72
426.20	435.34
426.39	433.00
426.58	435.34
426.77	404.91
426.96	489.17
427.15	397.89
427.33	339.38
427.52	388.53
427.71	435.34
427.90	430.66
428.09	397.89
428.28	407.25
428.46	465.77
428.65	461.09
428.84	477.47
429.03	482.15
429.22	416.62
429.40	451.72
429.59	479.81
429.78	528.96
429.97	449.38
430.16	498.53
430.34	498.53
430.53	489.17
430.72	510.24
430.91	524.28
431.10	498.53
431.28	528.96
431.47	538.32
431.66	500.87
431.85	538.32
432.03	566.41
432.22	535.98
432.41	585.13
432.60	557.05
432.79	582.79
432.97	589.82
433.16	650.67
433.35	685.78
433.54	800.46
433.72	814.51
433.91	922.17
434.10	858.98
434.28	1123.46
434.47	1432.41
434.66	1540.07
434.85	1750.72
435.03	4175.52
435.22	14274.93
435.41	36755.77
435.59	52062.88
435.78	41993.89
435.97	18398.95
436.16	6841.39
436.34	2253.94
436.53	1252.19
436.72	1015.79
436.90	842.59
437.09	821.53
437.28	716.20
437.46	770.04
437.65	706.84
437.84	763.01
438.02	634.29
438.21	690.46
438.40	669.39
438.58	662.37
438.77	671.73
438.96	538.32
439.14	589.82
439.33	606.20
439.52	535.98
439.70	662.37
439.89	648.33
440.08	655.35
440.26	650.67
440.45	667.05
440.63	683.44
440.82	650.67
441.01	568.75
441.19	653.01
441.38	655.35
441.57	550.03
441.75	638.97
441.94	554.71
442.12	615.56
442.31	648.33
442.50	578.11
442.68	571.09
442.87	589.82
443.05	575.77
443.24	655.35
443.43	678.76
443.61	643.65
443.80	676.41
443.98	606.20
444.17	608.54
444.35	582.79
444.54	582.79
444.73	655.35
444.91	559.39
445.10	585.13
445.28	566.41
445.47	648.33
445.65	631.94
445.84	596.84
446.02	610.88
446.21	608.54
446.39	585.13
446.58	589.82
446.77	582.79
446.95	559.39
447.14	564.07
447.32	685.78
447.51	648.33
447.69	580.45
447.88	582.79
448.06	538.32
448.25	636.63
448.43	580.45
448.62	587.47
448.80	613.22
448.99	573.43
449.17	617.90
449.36	596.84
449.54	669.39
449.73	540.66
449.91	603.86
450.10	596.84
450.28	662.37
450.46	681.10
450.65	634.29
450.83	599.18
451.02	615.56
451.20	645.99
451.39	603.86
451.57	547.69
451.76	550.03
451.94	543.00
452.13	702.16
452.31	594.50
452.49	587.47
452.68	613.22
452.86	695.14
453.05	662.37
453.23	671.73
453.42	575.77
453.60	678.76
453.78	671.73
453.97	662.37
454.15	613.22
454.34	587.47
454.52	617.90
454.70	648.33
454.89	622.58
455.07	566.41
455.26	554.71
455.44	683.44
455.62	575.77
455.81	645.99
455.99	613.22
456.17	653.01
456.36	613.22
456.54	592.16
456.73	627.26
456.91	650.67
457.09	564.07
457.28	718.54
457.46	594.50
457.64	655.35
457.83	615.56
458.01	589.82
458.19	561.73
458.38	589.82
458.56	638.97
458.74	601.52
458.93	545.34
459.11	550.03
459.29	531.30
459.48	571.09
459.66	627.26
459.84	702.16
460.03	636.63
460.21	648.33
460.39	655.35
460.57	648.33
460.76	585.13
460.94	648.33
461.12	603.86
461.31	582.79
461.49	622.58
461.67	564.07
461.85	566.41
462.04	599.18
462.22	706.84
462.40	622.58
462.59	685.78
462.77	603.86
462.95	613.22
463.13	587.47
463.32	634.29
463.50	580.45
463.68	554.71
463.86	571.09
464.05	554.71
464.23	664.71
464.41	671.73
464.59	620.24
464.78	622.58
464.96	585.13
465.14	580.45
465.32	636.63
465.50	594.50
465.69	580.45
465.87	554.71
466.05	557.05
466.23	531.30
466.41	444.70
466.60	585.13
466.78	643.65
466.96	711.52
467.14	678.76
467.32	702.16
467.51	655.35
467.69	620.24
467.87	603.86
468.05	587.47
468.23	580.45
468.41	608.54
468.60	496.19
468.78	465.77
468.96	540.66
469.14	552.37
469.32	521.94
469.50	503.22
469.69	582.79
469.87	493.85
470.05	533.64
470.23	620.24
470.41	543.00
470.59	482.15
470.77	505.56
470.95	517.26
471.14	573.43
471.32	650.67
471.50	580.45
471.68	601.52
471.86	491.51
472.04	620.24
472.22	627.26
472.40	535.98
472.58	557.05
472.77	521.94
472.95	566.41
473.13	634.29
473.31	678.76
473.49	505.56
473.67	578.11
473.85	606.20
474.03	521.94
474.21	580.45
474.39	592.16
474.57	650.67
474.75	624.92
474.93	545.34
475.12	589.82
475.30	451.72
475.48	610.88
475.66	620.24
475.84	596.84
476.02	566.41
476.20	559.39
476.38	533.64
476.56	587.47
476.74	550.03
476.92	524.28
477.10	568.75
477.28	587.47
477.46	514.92
477.64	571.09
477.82	552.37
478.00	620.24
478.18	648.33
478.36	674.07
478.54	681.10
478.72	627.26
478.90	615.56
479.08	777.06
479.26	751.31
479.44	784.08
479.62	800.46
479.80	702.16
479.98	856.64
480.16	861.32
480.34	821.53
480.52	847.27
480.70	971.32
480.88	983.02
481.06	889.40
481.24	1034.52
481.41	1067.28
481.59	1153.88
481.77	1214.74
481.95	1364.53
482.13	1362.19
482.31	1383.26
482.49	1577.52
482.67	1605.61
482.85	1802.21
483.03	1860.73
483.21	2059.67
483.39	2169.68
483.57	2232.87
483.74	2462.24
483.92	2740.77
484.10	2679.91
484.28	2923.33
484.46	2991.20
484.64	3218.24
484.82	3351.65
485.00	3576.34
485.18	3585.70
485.35	4014.02
485.53	4250.41
485.71	4432.97
485.89	4561.70
486.07	4617.88
486.25	4798.10
486.43	4739.58
486.61	4908.10
486.78	4755.97
486.96	4760.65
487.14	4727.88
487.32	4718.52
487.50	4830.87
487.68	4744.27
487.85	4519.57
488.03	4652.98
488.21	4435.32
488.39	4432.97
488.57	4423.61
488.75	4189.56
488.92	4421.27
489.10	3904.01
489.28	4023.38
489.46	3873.59
489.64	3679.32
489.81	3719.11
489.99	3747.20
490.17	3424.20
490.35	3581.02
490.53	3473.36
490.70	3576.34
490.88	3597.40
491.06	3749.54
491.24	3880.61
491.41	4084.23
491.59	3927.42
491.77	3707.41
491.95	3419.52
492.13	3342.28
492.30	3173.77
492.48	3136.32
492.66	3124.62
492.84	3098.87
493.01	3075.46
493.19	3063.76
493.37	3066.10
493.54	2951.42
493.72	3052.06
493.90	2682.25
494.08	2658.85
494.25	2810.98
494.43	2729.06
494.61	2537.14
494.79	2635.44
494.96	2600.34
495.14	2523.10
495.32	2422.45
495.49	2502.03
495.67	2338.20
495.85	2359.26
496.02	2438.84
496.20	2333.51
496.38	2310.11
496.55	2172.02
496.73	2251.60
496.91	2204.78
497.09	2132.23
497.26	2172.02
497.44	2022.22
497.62	2022.22
497.79	1928.60
497.97	1891.15
498.14	1863.07
498.32	1802.21
498.50	1748.38
498.67	1788.17
498.85	1776.47
499.03	1673.48
499.20	1741.36
499.38	1582.20
499.56	1551.78
499.73	1600.93
499.91	1533.05
500.08	1530.71
500.26	1413.68
500.44	1348.15
500.61	1324.74
500.79	1331.76
500.97	1249.85
501.14	1306.02
501.32	1174.95
501.49	1214.74
501.67	1172.61
501.84	1132.82
502.02	1109.41
502.20	1163.25
502.37	1093.03
502.55	1008.77
502.72	908.13
502.90	908.13
503.07	973.66
503.25	842.59
503.43	847.27
503.60	833.23
503.78	826.21
503.95	849.61
504.13	791.10
504.30	793.44
504.48	826.21
504.65	826.21
504.83	681.10
505.01	767.70
505.18	758.33
505.36	807.48
505.53	655.35
505.71	716.20
505.88	730.25
506.06	648.33
506.23	727.91
506.41	641.31
506.58	697.48
506.76	624.92
506.93	564.07
507.11	711.52
507.28	660.03
507.46	571.09
507.63	585.13
507.81	592.16
507.98	552.37
508.16	634.29
508.33	535.98
508.50	528.96
508.68	662.37
508.85	601.52
509.03	645.99
509.20	671.73
509.38	706.84
509.55	624.92
509.73	641.31
509.90	613.22
510.08	545.34
510.25	564.07
510.42	521.94
510.60	514.92
510.77	552.37
510.95	517.26
511.12	545.34
511.30	585.13
511.47	547.69
511.64	594.50
511.82	533.64
511.99	594.50
512.17	507.90
512.34	582.79
512.51	550.03
512.69	503.22
512.86	568.75
513.04	547.69
513.21	622.58
513.38	477.47
513.56	442.36
513.73	566.41
513.90	468.11
514.08	449.38
514.25	517.26
514.43	540.66
514.60	461.09
514.77	521.94
514.95	519.60
515.12	425.98
515.29	454.06
515.47	440.02
515.64	433.00
515.81	393.21
515.99	510.24
516.16	491.51
516.33	503.22
516.51	463.43
516.68	458.74
516.85	512.58
517.03	430.66
517.20	430.66
517.37	472.79
517.54	440.02
517.72	491.51
517.89	381.51
518.06	402.57
518.24	400.23
518.41	454.06
518.58	477.47
518.75	461.09
518.93	447.04
519.10	554.71
519.27	458.74
519.45	461.09
519.62	486.83
519.79	444.70
519.96	472.79
520.14	388.53
520.31	461.09
520.48	456.40
520.65	379.17
520.83	416.62
521.00	414.27
521.17	458.74
521.34	477.47
521.52	442.36
521.69	421.30
521.86	390.87
522.03	334.70
522.20	475.13
522.38	367.46
522.55	400.23
522.72	428.32
522.89	428.32
523.07	498.53
523.24	465.77
523.41	507.90
523.58	376.83
523.75	463.43
523.92	400.23
524.10	458.74
524.27	468.11
524.44	477.47
524.61	505.56
524.78	444.70
524.96	437.68
525.13	519.60
525.30	521.94
525.47	545.34
525.64	440.02
525.81	540.66
525.98	505.56
526.16	456.40
526.33	479.81
526.50	533.64
526.67	528.96
526.84	461.09
527.01	571.09
527.18	627.26
527.36	631.94
527.53	528.96
527.70	664.71
527.87	634.29
528.04	561.73
528.21	524.28
528.38	575.77
528.55	496.19
528.72	617.90
528.89	650.67
529.07	627.26
529.24	571.09
529.41	620.24
529.58	587.47
529.75	641.31
529.92	643.65
530.09	603.86
530.26	641.31
530.43	676.41
530.60	615.56
530.77	674.07
530.94	746.63
531.11	699.82
531.28	819.19
531.46	844.93
531.63	765.36
531.80	912.81
531.97	938.55
532.14	976.00
532.31	1200.69
532.48	1441.77
532.65	1631.35
532.82	1860.73
532.99	2380.32
533.16	2722.04
533.33	2967.80
533.50	2724.38
533.67	2373.30
533.84	1912.22
534.01	1788.17
534.18	1472.20
534.35	1516.67
534.52	1558.80
534.69	1544.75
534.86	1678.16
535.03	1724.97
535.20	1886.47
535.37	1944.99
535.54	1987.11
535.71	2108.82
535.88	2249.25
536.05	2249.25
536.22	2551.18
536.38	2864.82
536.55	3038.02
536.72	3393.78
536.89	3651.24
537.06	4241.05
537.23	4814.48
537.40	5277.91
537.57	5767.08
537.74	6026.88
537.91	6183.70
538.08	6399.02
538.25	6443.49
538.42	6530.09
538.59	6665.85
538.75	6920.96
538.92	7089.48
539.09	7817.39
539.26	8779.35
539.43	9881.74
539.60	11421.81
539.77	12746.56
539.94	14209.39
540.11	16018.63
540.28	17266.13
540.44	19232.18
540.61	20959.50
540.78	23927.30
540.95	28620.07
541.12	34319.28
541.29	39887.41
541.46	41940.06
541.62	42623.50
541.79	40882.14
541.96	37907.32
542.13	35007.39
542.30	32060.66
542.47	30015.03
542.63	29244.99
542.80	27754.07
542.97	27119.79
543.14	27154.90
543.31	27346.82
543.48	27758.75
543.64	28067.70
543.81	28151.96
543.98	28044.30
544.15	28222.18
544.32	28533.47
544.48	28418.78
544.65	28018.55
544.82	27419.38
544.99	27541.08
545.16	28446.87
545.32	29184.14
545.49	42073.47
545.66	60949.89
545.83	65535.00
546.00	65535.00
546.16	63664.91
546.33	47601.82
546.50	36327.45
546.67	29163.08
546.83	25671.00
547.00	25055.43
547.17	23681.54
547.34	22328.71
547.50	21472.07
547.67	20903.32
547.84	19976.47
548.00	19049.62
548.17	18431.72
548.34	17914.46
548.51	16898.67
548.67	16496.10
548.84	15531.80
549.01	14885.81
549.18	14155.56
549.34	13385.52
549.51	12758.26
549.68	12313.56
549.84	11365.64
550.01	11180.74
550.18	10768.80
550.34	10274.95
550.51	9921.53
550.68	9664.07
550.84	8734.88
551.01	8446.99
551.18	7901.65
551.34	7578.65
551.51	7162.04
551.68	6895.22
551.84	6628.40
552.01	6516.05
552.18	6174.33
552.34	6064.33
552.51	5736.65
552.68	5453.45
552.84	5170.24
553.01	5174.92
553.18	4901.08
553.34	4587.45
553.51	4610.86
553.67	4456.38
553.84	4339.35
554.01	4018.70
554.17	3712.09
554.34	3506.12
554.51	3073.12
554.67	2946.73
554.84	2932.69
555.00	2710.34
555.17	2537.14
555.33	2438.84
555.50	2361.60
555.67	2253.94
555.83	2235.21
556.00	2125.21
556.16	2214.15
556.33	1991.80
556.50	1872.43
556.66	1753.06
556.83	1743.70
556.99	1694.55
557.16	1570.50
557.32	1584.54
557.49	1521.35
557.65	1486.24
557.82	1514.33
557.98	1448.79
558.15	1284.95
558.32	1359.85
558.48	1310.70
558.65	1291.98
558.81	1348.15
558.98	1158.57
559.14	1184.31
559.31	1266.23
559.47	1132.82
559.64	1032.18
559.80	1128.14
559.97	1071.97
560.13	1186.65
560.30	1062.60
560.46	1132.82
560.63	1062.60
560.79	1158.57
560.96	1046.22
561.12	973.66
561.29	1046.22
561.45	1076.65
561.61	1034.52
561.78	1156.22
561.94	1074.31
562.11	1109.41
562.27	1100.05
562.44	1078.99
562.60	1088.35
562.77	1067.28
562.93	1032.18
563.10	931.53
563.26	945.58
563.42	945.58
563.59	945.58
563.75	870.68
563.92	842.59
564.08	964.30
564.24	912.81
564.41	861.32
564.57	877.70
564.74	819.19
564.90	840.25
565.07	765.36
565.23	833.23
565.39	730.25
565.56	821.53
565.72	800.46
565.88	798.12
566.05	730.25
566.21	826.21
566.38	830.89
566.54	802.80
566.70	723.23
566.87	819.19
567.03	870.68
567.19	884.72
567.36	957.28
567.52	828.55
567.68	812.17
567.85	833.23
568.01	837.91
568.17	840.25
568.34	858.98
568.50	985.37
568.66	915.15
568.83	952.60
568.99	851.96
569.15	875.36
569.32	772.38
569.48	711.52
569.64	667.05
569.81	660.03
569.97	636.63
570.13	636.63
570.30	716.20
570.46	636.63
570.62	641.31
570.78	571.09
570.95	540.66
571.11	653.01
571.27	578.11
571.43	613.22
571.60	643.65
571.76	568.75
571.92	648.33
572.09	650.67
572.25	594.50
572.41	559.39
572.57	648.33
572.74	695.14
572.90	599.18
573.06	606.20
573.22	662.37
573.38	648.33
573.55	720.88
573.71	674.07
573.87	779.40
574.03	596.84
574.20	692.80
574.36	725.57
574.52	786.42
574.68	788.76
574.84	779.40
575.01	837.91
575.17	861.32
575.33	910.47
575.49	1057.92
575.65	1062.60
575.82	1153.88
575.98	1296.66
576.14	1350.49
576.30	2499.69
576.46	7564.61
576.62	16098.20
576.79	23798.57
576.95	16879.94
577.11	9647.69
577.27	6389.66
577.43	4093.60
577.59	2637.78
577.75	2132.23
577.92	1991.80
578.08	1893.49
578.24	1987.11
578.40	2832.05
578.56	7302.47
578.72	14750.06
578.88	22813.20
579.04	15667.55
579.21	9284.91
579.37	6609.67
579.53	5064.92
579.69	4660.01
579.85	5785.80
580.01	7360.98
580.17	7438.22
580.33	6298.38
580.49	5151.52
580.65	4521.92
580.82	4093.60
580.98	3978.91
581.14	3948.48
581.30	4308.93
581.46	4622.56
581.62	4922.15
581.78	5111.73
581.94	5895.81
582.10	5966.03
582.26	6282.00
582.42	6511.37
582.58	7049.69
582.74	7019.27
582.90	7164.38
583.06	7082.46
583.22	7007.56
583.38	7105.87
583.54	7105.87
583.70	6902.24
583.86	6986.50
584.02	6679.89
584.18	6548.82
584.34	6544.14
584.50	6499.67
584.66	6223.48
584.82	6270.30
584.98	6143.91
585.14	6136.88
585.30	5874.74
585.46	5951.98
585.62	5930.92
585.78	5713.25
585.94	5591.54
586.10	5961.34
586.26	6207.10
586.42	6881.18
586.58	8119.32
586.74	10331.12
586.90	12840.18
587.06	14263.22
587.22	14600.26
587.38	12966.57
587.54	11087.12
587.70	9104.68
587.86	7658.23
588.02	6555.84
588.18	5954.32
588.34	5240.46
588.49	4730.22
588.65	4355.74
588.81	4210.62
588.97	4077.21
589.13	3929.76
589.29	3892.31
589.45	3836.14
589.61	3936.78
589.77	3854.86
589.93	3854.86
590.08	4032.74
590.24	4039.76
590.40	4313.61
590.56	4500.85
590.72	4550.00
590.88	4620.22
591.04	4938.53
591.20	4891.72
591.35	5275.57
591.51	5327.06
591.67	5666.44
591.83	6019.86
591.99	6450.52
592.15	6986.50
592.31	7609.08
592.46	8390.82
592.62	8870.63
592.78	9528.32
592.94	10139.20
593.10	10008.13
593.26	9605.56
593.41	8896.38
593.57	7962.50
593.73	6939.69
593.89	6312.42
594.05	5540.05
594.20	4891.72
594.36	4416.59
594.52	4095.94
594.68	3983.59
594.84	3693.37
594.99	3789.33
595.15	3449.95
595.31	3449.95
595.47	3499.10
595.62	3478.04
595.78	3393.78
595.94	3410.16
596.10	3604.42
596.25	3433.57
596.41	3449.95
596.57	3410.16
596.73	3503.78
596.88	3471.01
597.04	3389.10
597.20	3419.52
597.36	3611.45
597.51	3674.64
597.67	3630.17
597.83	3765.92
597.99	4021.04
598.14	4332.33
598.30	4751.29
598.46	4959.60
598.61	5069.60
598.77	5336.42
598.93	5792.83
599.09	5802.19
599.24	5874.74
599.40	5886.45
599.56	5879.43
599.71	5530.69
599.87	5055.56
600.03	4837.89
600.18	4573.41
600.34	4374.46
600.50	3981.25
600.65	3620.81
600.81	3555.27
600.97	3279.09
601.12	3166.74
601.28	3059.08
601.44	2785.24
601.59	2708.00
601.75	2696.30
601.91	2525.44
602.06	2553.52
602.22	2483.31
602.37	2312.45
602.53	2174.36
602.69	2312.45
602.84	2272.66
603.00	2218.83
603.16	2317.13
603.31	2253.94
603.47	2382.67
603.62	2303.09
603.78	2436.50
603.94	2431.82
604.09	2569.91
604.25	2516.08
604.40	2548.84
