SpectraSuite Data File
++++++++++++++++++++++++++++++++++++
Date: Fri Oct 04 11:42:10 GMT-05:00 2013
User: price-jones
Dark Spectrum Present: No
Reference Spectrum Present: No
Number of Sampled Component Spectra: 1
Spectrometers: USB2+H05261
Integration Time (usec): 100000 (USB2+H05261)
Spectra Averaged: 1 (USB2+H05261)
Boxcar Smoothing: 0 (USB2+H05261)
Correct for Electrical Dark: No (USB2+H05261)
Strobe/Lamp Enabled: No (USB2+H05261)
Correct for Detector Non-linearity: No (USB2+H05261)
Correct for Stray Light: No (USB2+H05261)
Number of Pixels in Processed Spectrum: 2048
>>>>>Begin Processed Spectral Data<<<<<
365.73	72.56
365.92	72.56
366.12	72.56
366.32	7.02
366.52	0.00
366.72	0.00
366.91	0.00
367.11	0.00
367.31	0.00
367.51	0.00
367.70	0.00
367.90	0.00
368.10	0.00
368.30	0.00
368.49	0.00
368.69	16.38
368.89	0.00
369.09	0.00
369.28	0.00
369.48	0.00
369.68	0.00
369.87	7.02
370.07	14.04
370.27	77.24
370.47	0.00
370.66	0.00
370.86	44.47
371.06	0.00
371.25	77.24
371.45	56.17
371.65	63.19
371.84	42.13
372.04	98.30
372.24	72.56
372.44	126.39
372.63	93.62
372.83	119.37
373.03	198.95
373.22	95.96
373.42	81.92
373.62	135.75
373.81	46.81
374.01	131.07
374.21	147.45
374.40	77.24
374.60	98.30
374.79	149.79
374.99	114.69
375.19	114.69
375.38	191.92
375.58	131.07
375.78	56.17
375.97	128.73
376.17	119.37
376.37	84.26
376.56	142.77
376.76	140.43
376.95	58.51
377.15	128.73
377.35	145.11
377.54	194.26
377.74	93.62
377.93	86.60
378.13	142.77
378.33	161.50
378.52	119.37
378.72	154.48
378.91	88.94
379.11	105.32
379.31	100.64
379.50	63.19
379.70	131.07
379.89	145.11
380.09	70.22
380.28	63.19
380.48	126.39
380.68	56.17
380.87	0.00
381.07	112.35
381.26	124.05
381.46	149.79
381.65	81.92
381.85	110.01
382.04	32.77
382.24	131.07
382.43	105.32
382.63	30.43
382.83	21.06
383.02	119.37
383.22	95.96
383.41	88.94
383.61	177.88
383.80	39.79
384.00	135.75
384.19	53.83
384.39	203.63
384.58	88.94
384.78	110.01
384.97	77.24
385.17	79.58
385.36	32.77
385.56	42.13
385.75	58.51
385.95	56.17
386.14	133.41
386.34	117.03
386.53	67.88
386.72	58.51
386.92	107.66
387.11	149.79
387.31	119.37
387.50	63.19
387.70	131.07
387.89	77.24
388.09	60.85
388.28	142.77
388.48	126.39
388.67	152.13
388.86	140.43
389.06	156.82
389.25	133.41
389.45	198.95
389.64	173.20
389.84	72.56
390.03	126.39
390.22	84.26
390.42	100.64
390.61	117.03
390.81	84.26
391.00	121.71
391.19	184.90
391.39	112.35
391.58	77.24
391.78	205.97
391.97	100.64
392.16	142.77
392.36	67.88
392.55	161.50
392.75	121.71
392.94	53.83
393.13	105.32
393.33	126.39
393.52	140.43
393.71	152.13
393.91	60.85
394.10	63.19
394.29	140.43
394.49	21.06
394.68	100.64
394.88	126.39
395.07	70.22
395.26	138.09
395.46	156.82
395.65	79.58
395.84	173.20
396.04	191.92
396.23	77.24
396.42	110.01
396.62	114.69
396.81	182.56
397.00	124.05
397.19	168.52
397.39	138.09
397.58	149.79
397.77	131.07
397.97	67.88
398.16	145.11
398.35	93.62
398.55	91.28
398.74	63.19
398.93	140.43
399.12	91.28
399.32	100.64
399.51	133.41
399.70	142.77
399.90	91.28
400.09	140.43
400.28	189.58
400.47	180.22
400.67	147.45
400.86	145.11
401.05	117.03
401.24	128.73
401.44	121.71
401.63	114.69
401.82	138.09
402.01	173.20
402.21	105.32
402.40	131.07
402.59	67.88
402.78	119.37
402.97	114.69
403.17	93.62
403.36	37.45
403.55	149.79
403.74	107.66
403.93	182.56
404.13	224.69
404.32	245.76
404.51	283.20
404.70	266.82
404.89	159.16
405.09	177.88
405.28	205.97
405.47	124.05
405.66	159.16
405.85	128.73
406.05	102.98
406.24	105.32
406.43	112.35
406.62	163.84
406.81	119.37
407.00	121.71
407.20	84.26
407.39	100.64
407.58	154.48
407.77	145.11
407.96	114.69
408.15	182.56
408.34	131.07
408.54	95.96
408.73	100.64
408.92	131.07
409.11	95.96
409.30	159.16
409.49	173.20
409.68	173.20
409.87	163.84
410.07	102.98
410.26	229.37
410.45	133.41
410.64	142.77
410.83	173.20
411.02	180.22
411.21	91.28
411.40	184.90
411.59	189.58
411.78	126.39
411.98	194.26
412.17	121.71
412.36	51.49
412.55	198.95
412.74	100.64
412.93	131.07
413.12	133.41
413.31	121.71
413.50	100.64
413.69	65.54
413.88	147.45
414.07	189.58
414.26	161.50
414.45	117.03
414.64	128.73
414.83	140.43
415.02	102.98
415.22	145.11
415.41	147.45
415.60	114.69
415.79	159.16
415.98	149.79
416.17	140.43
416.36	201.29
416.55	175.54
416.74	154.48
416.93	135.75
417.12	105.32
417.31	138.09
417.50	107.66
417.69	175.54
417.88	138.09
418.07	126.39
418.26	117.03
418.45	56.17
418.64	133.41
418.83	138.09
419.02	102.98
419.21	131.07
419.39	133.41
419.58	23.41
419.77	147.45
419.96	154.48
420.15	173.20
420.34	135.75
420.53	177.88
420.72	163.84
420.91	117.03
421.10	175.54
421.29	138.09
421.48	177.88
421.67	135.75
421.86	142.77
422.05	177.88
422.24	175.54
422.43	128.73
422.61	114.69
422.80	107.66
422.99	149.79
423.18	135.75
423.37	135.75
423.56	170.86
423.75	147.45
423.94	149.79
424.13	114.69
424.32	119.37
424.50	138.09
424.69	187.24
424.88	145.11
425.07	138.09
425.26	154.48
425.45	189.58
425.64	102.98
425.83	180.22
426.01	166.18
426.20	133.41
426.39	72.56
426.58	128.73
426.77	105.32
426.96	189.58
427.15	86.60
427.33	152.13
427.52	107.66
427.71	112.35
427.90	205.97
428.09	142.77
428.28	215.33
428.46	126.39
428.65	67.88
428.84	145.11
429.03	102.98
429.22	166.18
429.40	187.24
429.59	117.03
429.78	205.97
429.97	98.30
430.16	156.82
430.34	128.73
430.53	95.96
430.72	133.41
430.91	135.75
431.10	105.32
431.28	117.03
431.47	177.88
431.66	128.73
431.85	159.16
432.03	147.45
432.22	210.65
432.41	177.88
432.60	152.13
432.79	117.03
432.97	184.90
433.16	175.54
433.35	107.66
433.54	149.79
433.72	147.45
433.91	102.98
434.10	119.37
434.28	142.77
434.47	147.45
434.66	187.24
434.85	173.20
435.03	187.24
435.22	491.51
435.41	830.89
435.59	784.08
435.78	631.94
435.97	325.33
436.16	243.42
436.34	173.20
436.53	140.43
436.72	140.43
436.90	222.35
437.09	161.50
437.28	110.01
437.46	131.07
437.65	166.18
437.84	133.41
438.02	170.86
438.21	152.13
438.40	191.92
438.58	163.84
438.77	142.77
438.96	180.22
439.14	128.73
439.33	170.86
439.52	184.90
439.70	154.48
439.89	135.75
440.08	224.69
440.26	182.56
440.45	91.28
440.63	131.07
440.82	114.69
441.01	187.24
441.19	119.37
441.38	166.18
441.57	159.16
441.75	182.56
441.94	140.43
442.12	147.45
442.31	140.43
442.50	161.50
442.68	161.50
442.87	119.37
443.05	149.79
443.24	170.86
443.43	112.35
443.61	173.20
443.80	187.24
443.98	131.07
444.17	173.20
444.35	152.13
444.54	156.82
444.73	177.88
444.91	222.35
445.10	147.45
445.28	161.50
445.47	88.94
445.65	184.90
445.84	168.52
446.02	91.28
446.21	156.82
446.39	84.26
446.58	205.97
446.77	142.77
446.95	201.29
447.14	175.54
447.32	196.60
447.51	140.43
447.69	147.45
447.88	140.43
448.06	175.54
448.25	138.09
448.43	161.50
448.62	182.56
448.80	145.11
448.99	215.33
449.17	198.95
449.36	121.71
449.54	191.92
449.73	140.43
449.91	152.13
450.10	152.13
450.28	203.63
450.46	175.54
450.65	154.48
450.83	180.22
451.02	205.97
451.20	100.64
451.39	191.92
451.57	117.03
451.76	147.45
451.94	227.03
452.13	205.97
452.31	145.11
452.49	110.01
452.68	117.03
452.86	149.79
453.05	220.01
453.23	145.11
453.42	191.92
453.60	170.86
453.78	175.54
453.97	112.35
454.15	180.22
454.34	175.54
454.52	152.13
454.70	212.99
454.89	168.52
455.07	112.35
455.26	180.22
455.44	93.62
455.62	126.39
455.81	245.76
455.99	187.24
456.17	180.22
456.36	145.11
456.54	102.98
456.73	145.11
456.91	187.24
457.09	168.52
457.28	170.86
457.46	173.20
457.64	243.42
457.83	168.52
458.01	175.54
458.19	81.92
458.38	159.16
458.56	135.75
458.74	159.16
458.93	231.71
459.11	168.52
459.29	152.13
459.48	100.64
459.66	241.08
459.84	234.05
460.03	278.52
460.21	222.35
460.39	182.56
460.57	189.58
460.76	131.07
460.94	175.54
461.12	119.37
461.31	152.13
461.49	159.16
461.67	161.50
461.85	152.13
462.04	140.43
462.22	589.82
462.40	175.54
462.59	161.50
462.77	177.88
462.95	107.66
463.13	107.66
463.32	210.65
463.50	121.71
463.68	135.75
463.86	112.35
464.05	124.05
464.23	175.54
464.41	184.90
464.59	128.73
464.78	135.75
464.96	201.29
465.14	182.56
465.32	142.77
465.50	163.84
465.69	234.05
465.87	126.39
466.05	208.31
466.23	149.79
466.41	236.39
466.60	168.52
466.78	121.71
466.96	203.63
467.14	170.86
467.32	234.05
467.51	152.13
467.69	147.45
467.87	250.44
468.05	163.84
468.23	245.76
468.41	159.16
468.60	135.75
468.78	168.52
468.96	224.69
469.14	191.92
469.32	107.66
469.50	102.98
469.69	262.14
469.87	117.03
470.05	201.29
470.23	170.86
470.41	229.37
470.59	166.18
470.77	107.66
470.95	138.09
471.14	170.86
471.32	173.20
471.50	177.88
471.68	198.95
471.86	191.92
472.04	107.66
472.22	110.01
472.40	210.65
472.58	198.95
472.77	147.45
472.95	191.92
473.13	220.01
473.31	177.88
473.49	161.50
473.67	234.05
473.85	189.58
474.03	184.90
474.21	166.18
474.39	170.86
474.57	117.03
474.75	280.86
474.93	196.60
475.12	117.03
475.30	229.37
475.48	220.01
475.66	180.22
475.84	154.48
476.02	121.71
476.20	156.82
476.38	140.43
476.56	222.35
476.74	147.45
476.92	229.37
477.10	170.86
477.28	266.82
477.46	112.35
477.64	166.18
477.82	212.99
478.00	173.20
478.18	128.73
478.36	201.29
478.54	105.32
478.72	128.73
478.90	234.05
479.08	205.97
479.26	170.86
479.44	133.41
479.62	156.82
479.80	215.33
479.98	168.52
480.16	112.35
480.34	217.67
480.52	189.58
480.70	203.63
480.88	142.77
481.06	191.92
481.24	259.80
481.41	180.22
481.59	177.88
481.77	238.73
481.95	121.71
482.13	229.37
482.31	138.09
482.49	194.26
482.67	229.37
482.85	147.45
483.03	154.48
483.21	259.80
483.39	126.39
483.57	245.76
483.74	255.12
483.92	194.26
484.10	163.84
484.28	292.57
484.46	337.04
484.64	182.56
484.82	294.91
485.00	159.16
485.18	238.73
485.35	297.25
485.53	159.16
485.71	276.18
485.89	203.63
486.07	229.37
486.25	301.93
486.43	217.67
486.61	285.55
486.78	327.68
486.96	337.04
487.14	262.14
487.32	290.23
487.50	231.71
487.68	344.06
487.85	220.01
488.03	292.57
488.21	351.08
488.39	243.42
488.57	285.55
488.75	243.42
488.92	573.43
489.10	236.39
489.28	311.29
489.46	297.25
489.64	348.74
489.81	313.63
489.99	315.97
490.17	243.42
490.35	367.46
490.53	262.14
490.70	287.89
490.88	341.72
491.06	304.27
491.24	222.35
491.41	262.14
491.59	217.67
491.77	259.80
491.95	262.14
492.13	308.95
492.30	210.65
492.48	290.23
492.66	205.97
492.84	280.86
493.01	299.59
493.19	269.16
493.37	330.02
493.54	252.78
493.72	273.84
493.90	299.59
494.08	285.55
494.25	273.84
494.43	283.20
494.61	315.97
494.79	241.08
494.96	259.80
495.14	248.10
495.32	273.84
495.49	243.42
495.67	191.92
495.85	243.42
496.02	259.80
496.20	194.26
496.38	290.23
496.55	189.58
496.73	266.82
496.91	257.46
497.09	177.88
497.26	212.99
497.44	290.23
497.62	229.37
497.79	156.82
497.97	257.46
498.14	252.78
498.32	271.50
498.50	208.31
498.67	238.73
498.85	273.84
499.03	210.65
499.20	229.37
499.38	234.05
499.56	154.48
499.73	276.18
499.91	175.54
500.08	292.57
500.26	198.95
500.44	269.16
500.61	280.86
500.79	234.05
500.97	229.37
501.14	315.97
501.32	241.08
501.49	189.58
501.67	255.12
501.84	227.03
502.02	140.43
502.20	266.82
502.37	234.05
502.55	180.22
502.72	241.08
502.90	212.99
503.07	217.67
503.25	191.92
503.43	173.20
503.60	198.95
503.78	210.65
503.95	161.50
504.13	196.60
504.30	222.35
504.48	170.86
504.65	273.84
504.83	241.08
505.01	191.92
505.18	248.10
505.36	248.10
505.53	205.97
505.71	140.43
505.88	259.80
506.06	243.42
506.23	203.63
506.41	287.89
506.58	266.82
506.76	238.73
506.93	198.95
507.11	255.12
507.28	189.58
507.46	269.16
507.63	210.65
507.81	217.67
507.98	210.65
508.16	210.65
508.33	252.78
508.50	271.50
508.68	257.46
508.85	191.92
509.03	175.54
509.20	198.95
509.38	259.80
509.55	252.78
509.73	189.58
509.90	259.80
510.08	173.20
510.25	278.52
510.42	266.82
510.60	243.42
510.77	257.46
510.95	264.48
511.12	241.08
511.30	205.97
511.47	238.73
511.64	245.76
511.82	159.16
511.99	266.82
512.17	243.42
512.34	220.01
512.51	182.56
512.69	238.73
512.86	294.91
513.04	215.33
513.21	212.99
513.38	156.82
513.56	269.16
513.73	229.37
513.90	236.39
514.08	175.54
514.25	194.26
514.43	234.05
514.60	205.97
514.77	227.03
514.95	294.91
515.12	229.37
515.29	269.16
515.47	203.63
515.64	196.60
515.81	278.52
515.99	283.20
516.16	229.37
516.33	304.27
516.51	273.84
516.68	201.29
516.85	177.88
517.03	142.77
517.20	191.92
517.37	220.01
517.54	194.26
517.72	227.03
517.89	203.63
518.06	170.86
518.24	227.03
518.41	327.68
518.58	220.01
518.75	173.20
518.93	182.56
519.10	210.65
519.27	203.63
519.45	224.69
519.62	238.73
519.79	255.12
519.96	203.63
520.14	224.69
520.31	292.57
520.48	290.23
520.65	229.37
520.83	220.01
521.00	248.10
521.17	175.54
521.34	220.01
521.52	152.13
521.69	220.01
521.86	229.37
522.03	234.05
522.20	245.76
522.38	217.67
522.55	229.37
522.72	173.20
522.89	292.57
523.07	306.61
523.24	259.80
523.41	294.91
523.58	196.60
523.75	259.80
523.92	182.56
524.10	241.08
524.27	231.71
524.44	241.08
524.61	266.82
524.78	203.63
524.96	276.18
525.13	194.26
525.30	259.80
525.47	322.99
525.64	234.05
525.81	191.92
525.98	287.89
526.16	264.48
526.33	184.90
526.50	241.08
526.67	238.73
526.84	245.76
527.01	224.69
527.18	182.56
527.36	168.52
527.53	257.46
527.70	339.38
527.87	262.14
528.04	273.84
528.21	210.65
528.38	222.35
528.55	234.05
528.72	299.59
528.89	318.31
529.07	189.58
529.24	248.10
529.41	269.16
529.58	196.60
529.75	250.44
529.92	220.01
530.09	215.33
530.26	198.95
530.43	196.60
530.60	269.16
530.77	203.63
530.94	259.80
531.11	259.80
531.28	259.80
531.46	248.10
531.63	255.12
531.80	212.99
531.97	236.39
532.14	203.63
532.31	241.08
532.48	234.05
532.65	262.14
532.82	290.23
532.99	311.29
533.16	266.82
533.33	241.08
533.50	283.20
533.67	252.78
533.84	180.22
534.01	273.84
534.18	191.92
534.35	278.52
534.52	301.93
534.69	332.36
534.86	266.82
535.03	191.92
535.20	201.29
535.37	320.65
535.54	229.37
535.71	257.46
535.88	271.50
536.05	269.16
536.22	224.69
536.38	196.60
536.55	248.10
536.72	330.02
536.89	271.50
537.06	271.50
537.23	358.10
537.40	334.70
537.57	355.76
537.74	381.51
537.91	322.99
538.08	346.40
538.25	376.83
538.42	374.49
538.59	365.12
538.75	381.51
538.92	287.89
539.09	386.19
539.26	374.49
539.43	503.22
539.60	482.15
539.77	465.77
539.94	409.59
540.11	493.85
540.28	610.88
540.44	573.43
540.61	650.67
540.78	615.56
540.95	596.84
541.12	793.44
541.29	777.06
541.46	910.47
541.62	877.70
541.79	964.30
541.96	873.02
542.13	875.36
542.30	849.61
542.47	830.89
542.63	737.27
542.80	690.46
542.97	856.64
543.14	901.11
543.31	800.46
543.48	837.91
543.64	908.13
543.81	844.93
543.98	784.08
544.15	830.89
544.32	807.48
544.48	755.99
544.65	758.33
544.82	692.80
544.99	786.42
545.16	723.23
545.32	725.57
545.49	1217.08
545.66	1792.85
545.83	2071.37
546.00	1783.49
546.16	1352.83
546.33	901.11
546.50	788.76
546.67	805.14
546.83	681.10
547.00	650.67
547.17	638.97
547.34	545.34
547.50	566.41
547.67	557.05
547.84	540.66
548.00	482.15
548.17	468.11
548.34	489.17
548.51	592.16
548.67	575.77
548.84	461.09
549.01	493.85
549.18	526.62
549.34	484.49
549.51	437.68
549.68	402.57
549.84	397.89
550.01	404.91
550.18	465.77
550.34	407.25
550.51	383.85
550.68	388.53
550.84	367.46
551.01	433.00
551.18	395.55
551.34	397.89
551.51	372.15
551.68	372.15
551.84	355.76
552.01	337.04
552.18	360.44
552.34	353.42
552.51	351.08
552.68	337.04
552.84	332.36
553.01	351.08
553.18	334.70
553.34	290.23
553.51	360.44
553.67	332.36
553.84	327.68
554.01	327.68
554.17	318.31
554.34	287.89
554.51	266.82
554.67	304.27
554.84	248.10
555.00	196.60
555.17	278.52
555.33	264.48
555.50	313.63
555.67	292.57
555.83	248.10
556.00	224.69
556.16	461.09
556.33	227.03
556.50	231.71
556.66	273.84
556.83	201.29
556.99	205.97
557.16	241.08
557.32	297.25
557.49	236.39
557.65	313.63
557.82	205.97
557.98	262.14
558.15	250.44
558.32	210.65
558.48	278.52
558.65	189.58
558.81	259.80
558.98	187.24
559.14	269.16
559.31	236.39
559.47	264.48
559.64	241.08
559.80	283.20
559.97	215.33
560.13	262.14
560.30	248.10
560.46	224.69
560.63	255.12
560.79	273.84
560.96	266.82
561.12	147.45
561.29	297.25
561.45	241.08
561.61	266.82
561.78	299.59
561.94	210.65
562.11	285.55
562.27	229.37
562.44	285.55
562.60	182.56
562.77	262.14
562.93	332.36
563.10	273.84
563.26	191.92
563.42	212.99
563.59	301.93
563.75	245.76
563.92	231.71
564.08	292.57
564.24	259.80
564.41	276.18
564.57	222.35
564.74	278.52
564.90	220.01
565.07	231.71
565.23	248.10
565.39	161.50
565.56	262.14
565.72	212.99
565.88	177.88
566.05	210.65
566.21	205.97
566.38	257.46
566.54	271.50
566.70	224.69
566.87	166.18
567.03	245.76
567.19	212.99
567.36	259.80
567.52	191.92
567.68	248.10
567.85	245.76
568.01	177.88
568.17	196.60
568.34	220.01
568.50	262.14
568.66	224.69
568.83	266.82
568.99	229.37
569.15	196.60
569.32	191.92
569.48	217.67
569.64	203.63
569.81	273.84
569.97	191.92
570.13	201.29
570.30	243.42
570.46	159.16
570.62	227.03
570.78	259.80
570.95	262.14
571.11	234.05
571.27	201.29
571.43	189.58
571.60	280.86
571.76	203.63
571.92	231.71
572.09	173.20
572.25	227.03
572.41	287.89
572.57	215.33
572.74	250.44
572.90	294.91
573.06	290.23
573.22	259.80
573.38	257.46
573.55	222.35
573.71	262.14
573.87	294.91
574.03	264.48
574.20	205.97
574.36	285.55
574.52	156.82
574.68	210.65
574.84	170.86
575.01	154.48
575.17	245.76
575.33	205.97
575.49	205.97
575.65	243.42
575.82	236.39
575.98	266.82
576.14	264.48
576.30	248.10
576.46	381.51
576.62	589.82
576.79	503.22
576.95	449.38
577.11	334.70
577.27	276.18
577.43	266.82
577.59	327.68
577.75	220.01
577.92	241.08
578.08	241.08
578.24	161.50
578.40	299.59
578.56	411.93
578.72	524.28
578.88	512.58
579.04	477.47
579.21	304.27
579.37	433.00
579.53	327.68
579.69	322.99
579.85	306.61
580.01	320.65
580.17	322.99
580.33	318.31
580.49	264.48
580.65	287.89
580.82	320.65
580.98	280.86
581.14	308.95
581.30	283.20
581.46	292.57
581.62	290.23
581.78	393.21
581.94	400.23
582.10	273.84
582.26	355.76
582.42	369.80
582.58	325.33
582.74	369.80
582.90	339.38
583.06	416.62
583.22	358.10
583.38	400.23
583.54	423.64
583.70	449.38
583.86	337.04
584.02	346.40
584.18	411.93
584.34	367.46
584.50	341.72
584.66	348.74
584.82	301.93
584.98	311.29
585.14	365.12
585.30	353.42
585.46	379.17
585.62	358.10
585.78	278.52
585.94	332.36
586.10	301.93
586.26	369.80
586.42	404.91
586.58	407.25
586.74	369.80
586.90	482.15
587.06	367.46
587.22	440.02
587.38	517.26
587.54	440.02
587.70	454.06
587.86	353.42
588.02	273.84
588.18	311.29
588.34	269.16
588.49	266.82
588.65	236.39
588.81	243.42
588.97	203.63
589.13	264.48
589.29	301.93
589.45	308.95
589.61	269.16
589.77	257.46
589.93	276.18
590.08	243.42
590.24	243.42
590.40	255.12
590.56	299.59
590.72	283.20
590.88	201.29
591.04	365.12
591.20	313.63
591.35	311.29
591.51	252.78
591.67	264.48
591.83	252.78
591.99	325.33
592.15	222.35
592.31	327.68
592.46	322.99
592.62	386.19
592.78	341.72
592.94	390.87
593.10	346.40
593.26	337.04
593.41	311.29
593.57	294.91
593.73	358.10
593.89	287.89
594.05	294.91
594.20	294.91
594.36	269.16
594.52	255.12
594.68	196.60
594.84	304.27
594.99	248.10
595.15	264.48
595.31	273.84
595.47	257.46
595.62	297.25
595.78	257.46
595.94	280.86
596.10	297.25
596.25	241.08
596.41	332.36
596.57	243.42
596.73	201.29
596.88	276.18
597.04	205.97
597.20	248.10
597.36	304.27
597.51	259.80
597.67	299.59
597.83	290.23
597.99	318.31
598.14	255.12
598.30	238.73
598.46	248.10
598.61	269.16
598.77	297.25
598.93	372.15
599.09	276.18
599.24	297.25
599.40	367.46
599.56	337.04
599.71	280.86
599.87	283.20
600.03	273.84
600.18	285.55
600.34	250.44
600.50	259.80
600.65	297.25
600.81	327.68
600.97	266.82
601.12	184.90
601.28	306.61
601.44	243.42
601.59	292.57
601.75	250.44
601.91	264.48
602.06	210.65
602.22	287.89
602.37	187.24
602.53	271.50
602.69	187.24
602.84	170.86
603.00	231.71
603.16	250.44
603.31	271.50
603.47	273.84
603.62	238.73
603.78	264.48
603.94	236.39
604.09	238.73
604.25	238.73
604.40	191.92
604.56	222.35
604.71	243.42
604.87	266.82
605.03	269.16
605.18	269.16
605.34	299.59
605.49	229.37
605.65	259.80
605.80	159.16
605.96	367.46
606.12	215.33
606.27	262.14
606.43	262.14
606.58	276.18
606.74	266.82
606.89	367.46
607.05	322.99
607.20	344.06
607.36	301.93
607.51	276.18
607.67	308.95
607.82	273.84
607.98	313.63
608.13	273.84
608.29	285.55
608.44	369.80
608.60	365.12
608.75	311.29
608.91	414.27
609.06	425.98
609.22	418.96
609.37	496.19
609.53	428.32
609.68	472.79
609.84	603.86
609.99	603.86
610.15	702.16
610.30	833.23
610.46	973.66
610.61	1188.99
610.76	1523.69
610.92	1746.04
611.07	1842.00
611.23	1926.26
611.38	1830.30
