SpectraSuite Data File
++++++++++++++++++++++++++++++++++++
Date: Fri Oct 04 11:41:41 GMT-05:00 2013
User: price-jones
Dark Spectrum Present: No
Reference Spectrum Present: No
Number of Sampled Component Spectra: 1
Spectrometers: USB2+H05261
Integration Time (usec): 100000 (USB2+H05261)
Spectra Averaged: 1 (USB2+H05261)
Boxcar Smoothing: 0 (USB2+H05261)
Correct for Electrical Dark: No (USB2+H05261)
Strobe/Lamp Enabled: No (USB2+H05261)
Correct for Detector Non-linearity: No (USB2+H05261)
Correct for Stray Light: No (USB2+H05261)
Number of Pixels in Processed Spectrum: 2048
>>>>>Begin Processed Spectral Data<<<<<
365.73	23.41
365.92	23.41
366.12	23.41
366.32	0.00
366.52	21.06
366.72	0.00
366.91	0.00
367.11	0.00
367.31	0.00
367.51	0.00
367.70	0.00
367.90	0.00
368.10	0.00
368.30	0.00
368.49	0.00
368.69	0.00
368.89	0.00
369.09	0.00
369.28	2.34
369.48	18.72
369.68	0.00
369.87	0.00
370.07	7.02
370.27	30.43
370.47	88.94
370.66	0.00
370.86	9.36
371.06	93.62
371.25	154.48
371.45	72.56
371.65	102.98
371.84	0.00
372.04	60.85
372.24	44.47
372.44	86.60
372.63	102.98
372.83	135.75
373.03	119.37
373.22	121.71
373.42	128.73
373.62	98.30
373.81	128.73
374.01	189.58
374.21	149.79
374.40	100.64
374.60	149.79
374.79	147.45
374.99	145.11
375.19	107.66
375.38	79.58
375.58	84.26
375.78	114.69
375.97	156.82
376.17	154.48
376.37	152.13
376.56	138.09
376.76	119.37
376.95	121.71
377.15	117.03
377.35	128.73
377.54	187.24
377.74	152.13
377.93	140.43
378.13	147.45
378.33	180.22
378.52	142.77
378.72	161.50
378.91	175.54
379.11	145.11
379.31	121.71
379.50	100.64
379.70	147.45
379.89	145.11
380.09	119.37
380.28	77.24
380.48	117.03
380.68	91.28
380.87	79.58
381.07	114.69
381.26	117.03
381.46	154.48
381.65	142.77
381.85	102.98
382.04	84.26
382.24	112.35
382.43	126.39
382.63	114.69
382.83	110.01
383.02	138.09
383.22	163.84
383.41	91.28
383.61	142.77
383.80	203.63
384.00	86.60
384.19	95.96
384.39	39.79
384.58	152.13
384.78	191.92
384.97	77.24
385.17	77.24
385.36	131.07
385.56	131.07
385.75	70.22
385.95	72.56
386.14	112.35
386.34	147.45
386.53	149.79
386.72	119.37
386.92	170.86
387.11	131.07
387.31	212.99
387.50	140.43
387.70	93.62
387.89	145.11
388.09	142.77
388.28	72.56
388.48	170.86
388.67	170.86
388.86	121.71
389.06	156.82
389.25	182.56
389.45	135.75
389.64	156.82
389.84	163.84
390.03	215.33
390.22	105.32
390.42	102.98
390.61	95.96
390.81	152.13
391.00	100.64
391.19	191.92
391.39	154.48
391.58	98.30
391.78	135.75
391.97	88.94
392.16	121.71
392.36	154.48
392.55	154.48
392.75	156.82
392.94	100.64
393.13	149.79
393.33	98.30
393.52	119.37
393.71	210.65
393.91	79.58
394.10	98.30
394.29	114.69
394.49	126.39
394.68	154.48
394.88	117.03
395.07	159.16
395.26	119.37
395.46	203.63
395.65	182.56
395.84	107.66
396.04	269.16
396.23	93.62
396.42	114.69
396.62	100.64
396.81	152.13
397.00	156.82
397.19	86.60
397.39	133.41
397.58	163.84
397.77	187.24
397.97	126.39
398.16	112.35
398.35	161.50
398.55	189.58
398.74	173.20
398.93	95.96
399.12	86.60
399.32	156.82
399.51	173.20
399.70	133.41
399.90	110.01
400.09	98.30
400.28	241.08
400.47	128.73
400.67	156.82
400.86	114.69
401.05	220.01
401.24	168.52
401.44	159.16
401.63	110.01
401.82	177.88
402.01	161.50
402.21	173.20
402.40	217.67
402.59	205.97
402.78	142.77
402.97	182.56
403.17	212.99
403.36	191.92
403.55	238.73
403.74	554.71
403.93	1783.49
404.13	4208.28
404.32	5900.49
404.51	4943.21
404.70	3009.93
404.89	1158.57
405.09	442.36
405.28	250.44
405.47	117.03
405.66	252.78
405.85	170.86
406.05	243.42
406.24	208.31
406.43	175.54
406.62	210.65
406.81	222.35
407.00	362.78
407.20	648.33
407.39	788.76
407.58	777.06
407.77	547.69
407.96	428.32
408.15	278.52
408.34	229.37
408.54	147.45
408.73	135.75
408.92	215.33
409.11	189.58
409.30	220.01
409.49	135.75
409.68	159.16
409.87	184.90
410.07	126.39
410.26	140.43
410.45	180.22
410.64	98.30
410.83	163.84
411.02	210.65
411.21	250.44
411.40	205.97
411.59	163.84
411.78	138.09
411.98	191.92
412.17	189.58
412.36	138.09
412.55	154.48
412.74	191.92
412.93	292.57
413.12	145.11
413.31	198.95
413.50	222.35
413.69	159.16
413.88	182.56
414.07	241.08
414.26	201.29
414.45	201.29
414.64	285.55
414.83	212.99
415.02	154.48
415.22	283.20
415.41	191.92
415.60	210.65
415.79	220.01
415.98	222.35
416.17	259.80
416.36	243.42
416.55	222.35
416.74	250.44
416.93	285.55
417.12	266.82
417.31	229.37
417.50	163.84
417.69	283.20
417.88	243.42
418.07	180.22
418.26	201.29
418.45	255.12
418.64	231.71
418.83	201.29
419.02	227.03
419.21	248.10
419.39	203.63
419.58	243.42
419.77	257.46
419.96	280.86
420.15	248.10
420.34	238.73
420.53	231.71
420.72	245.76
420.91	290.23
421.10	257.46
421.29	292.57
421.48	252.78
421.67	234.05
421.86	257.46
422.05	205.97
422.24	271.50
422.43	212.99
422.61	234.05
422.80	358.10
422.99	294.91
423.18	222.35
423.37	252.78
423.56	285.55
423.75	278.52
423.94	212.99
424.13	308.95
424.32	248.10
424.50	292.57
424.69	276.18
424.88	264.48
425.07	273.84
425.26	273.84
425.45	344.06
425.64	255.12
425.83	220.01
426.01	299.59
426.20	334.70
426.39	299.59
426.58	231.71
426.77	229.37
426.96	248.10
427.15	269.16
427.33	344.06
427.52	313.63
427.71	292.57
427.90	330.02
428.09	285.55
428.28	290.23
428.46	395.55
428.65	292.57
428.84	341.72
429.03	337.04
429.22	301.93
429.40	257.46
429.59	308.95
429.78	348.74
429.97	299.59
430.16	327.68
430.34	271.50
430.53	351.08
430.72	262.14
430.91	353.42
431.10	360.44
431.28	381.51
431.47	421.30
431.66	390.87
431.85	351.08
432.03	355.76
432.22	344.06
432.41	395.55
432.60	353.42
432.79	348.74
432.97	351.08
433.16	510.24
433.35	512.58
433.54	564.07
433.72	482.15
433.91	587.47
434.10	634.29
434.28	755.99
434.47	746.63
434.66	915.15
434.85	1057.92
435.03	2935.03
435.22	11007.54
435.41	25373.75
435.59	27239.15
435.78	17474.44
435.97	8388.48
436.16	3346.97
436.34	1181.97
436.53	814.51
436.72	610.88
436.90	540.66
437.09	402.57
437.28	463.43
437.46	437.68
437.65	454.06
437.84	496.19
438.02	379.17
438.21	503.22
438.40	360.44
438.58	353.42
438.77	414.27
438.96	454.06
439.14	458.74
439.33	454.06
439.52	400.23
439.70	416.62
439.89	402.57
440.08	344.06
440.26	400.23
440.45	423.64
440.63	512.58
440.82	440.02
441.01	423.64
441.19	360.44
441.38	414.27
441.57	379.17
441.75	409.59
441.94	447.04
442.12	376.83
442.31	379.17
442.50	442.36
442.68	379.17
442.87	472.79
443.05	425.98
443.24	449.38
443.43	430.66
443.61	468.11
443.80	411.93
443.98	376.83
444.17	339.38
444.35	437.68
444.54	407.25
444.73	395.55
444.91	444.70
445.10	449.38
445.28	416.62
445.47	337.04
445.65	372.15
445.84	433.00
446.02	456.40
446.21	430.66
446.39	425.98
446.58	505.56
446.77	437.68
446.95	402.57
447.14	411.93
447.32	383.85
447.51	425.98
447.69	414.27
447.88	388.53
448.06	454.06
448.25	386.19
448.43	451.72
448.62	360.44
448.80	433.00
448.99	468.11
449.17	388.53
449.36	351.08
449.54	484.49
449.73	416.62
449.91	430.66
450.10	383.85
450.28	390.87
450.46	484.49
450.65	489.17
450.83	472.79
451.02	339.38
451.20	428.32
451.39	374.49
451.57	430.66
451.76	348.74
451.94	430.66
452.13	397.89
452.31	407.25
452.49	334.70
452.68	311.29
452.86	463.43
453.05	409.59
453.23	489.17
453.42	339.38
453.60	407.25
453.78	379.17
453.97	425.98
454.15	339.38
454.34	351.08
454.52	407.25
454.70	416.62
454.89	386.19
455.07	369.80
455.26	411.93
455.44	381.51
455.62	367.46
455.81	442.36
455.99	390.87
456.17	421.30
456.36	388.53
456.54	383.85
456.73	306.61
456.91	322.99
457.09	383.85
457.28	409.59
457.46	341.72
457.64	360.44
457.83	456.40
458.01	308.95
458.19	348.74
458.38	397.89
458.56	390.87
458.74	428.32
458.93	395.55
459.11	411.93
459.29	365.12
459.48	348.74
459.66	444.70
459.84	425.98
460.03	365.12
460.21	285.55
460.39	353.42
460.57	372.15
460.76	433.00
460.94	454.06
461.12	388.53
461.31	430.66
461.49	334.70
461.67	381.51
461.85	402.57
462.04	400.23
462.22	507.90
462.40	339.38
462.59	388.53
462.77	351.08
462.95	442.36
463.13	400.23
463.32	320.65
463.50	344.06
463.68	353.42
463.86	360.44
464.05	355.76
464.23	390.87
464.41	510.24
464.59	407.25
464.78	418.96
464.96	315.97
465.14	306.61
465.32	348.74
465.50	409.59
465.69	388.53
465.87	393.21
466.05	376.83
466.23	423.64
466.41	407.25
466.60	409.59
466.78	400.23
466.96	411.93
467.14	444.70
467.32	498.53
467.51	416.62
467.69	365.12
467.87	379.17
468.05	330.02
468.23	433.00
468.41	414.27
468.60	346.40
468.78	367.46
468.96	402.57
469.14	318.31
469.32	334.70
469.50	365.12
469.69	365.12
469.87	358.10
470.05	353.42
470.23	379.17
470.41	344.06
470.59	395.55
470.77	334.70
470.95	355.76
471.14	409.59
471.32	367.46
471.50	351.08
471.68	379.17
471.86	414.27
472.04	442.36
472.22	301.93
472.40	351.08
472.58	447.04
472.77	393.21
472.95	332.36
473.13	369.80
473.31	440.02
473.49	362.78
473.67	337.04
473.85	379.17
474.03	416.62
474.21	369.80
474.39	397.89
474.57	425.98
474.75	451.72
474.93	322.99
475.12	332.36
475.30	372.15
475.48	407.25
475.66	418.96
475.84	372.15
476.02	433.00
476.20	407.25
476.38	320.65
476.56	404.91
476.74	449.38
476.92	400.23
477.10	411.93
477.28	386.19
477.46	411.93
477.64	386.19
477.82	423.64
478.00	383.85
478.18	482.15
478.36	440.02
478.54	423.64
478.72	456.40
478.90	447.04
479.08	461.09
479.26	505.56
479.44	465.77
479.62	465.77
479.80	484.49
479.98	526.62
480.16	517.26
480.34	524.28
480.52	535.98
480.70	547.69
480.88	552.37
481.06	631.94
481.24	610.88
481.41	669.39
481.59	685.78
481.77	723.23
481.95	690.46
482.13	915.15
482.31	842.59
482.49	908.13
482.67	940.90
482.85	994.73
483.03	1210.06
483.21	1125.80
483.39	1284.95
483.57	1303.68
483.74	1437.09
483.92	1394.96
484.10	1533.05
484.28	1540.07
484.46	1659.44
484.64	1783.49
484.82	1799.87
485.00	1818.60
485.18	1942.64
485.35	2188.40
485.53	2317.13
485.71	2293.72
485.89	2525.44
486.07	2382.67
486.25	2527.78
486.43	2581.61
486.61	2532.46
486.78	2567.57
486.96	2546.50
487.14	2562.89
487.32	2555.86
487.50	2509.05
487.68	2579.27
487.85	2469.27
488.03	2403.73
488.21	2375.64
488.39	2307.77
488.57	2459.90
488.75	2282.02
488.92	2434.16
489.10	2167.34
489.28	2181.38
489.46	2010.52
489.64	1982.43
489.81	2038.61
489.99	1963.71
490.17	1930.94
490.35	1956.69
490.53	1891.15
490.70	1940.30
490.88	1982.43
491.06	2052.65
491.24	2209.47
491.41	2143.93
491.59	2036.27
491.77	1944.99
491.95	1820.94
492.13	1849.02
492.30	1806.89
492.48	1673.48
492.66	1757.74
492.84	1739.02
493.01	1666.46
493.19	1619.65
493.37	1727.32
493.54	1568.16
493.72	1631.35
493.90	1591.56
494.08	1575.18
494.25	1584.54
494.43	1511.99
494.61	1413.68
494.79	1416.02
494.96	1416.02
495.14	1481.56
495.32	1362.19
495.49	1404.32
495.67	1383.26
495.85	1373.89
496.02	1245.16
496.20	1240.48
496.38	1345.81
496.55	1275.59
496.73	1193.67
496.91	1219.42
497.09	1210.06
497.26	1228.78
497.44	1149.20
497.62	1069.62
497.79	1158.57
497.97	1165.59
498.14	1067.28
498.32	1104.73
498.50	1090.69
498.67	1018.13
498.85	950.26
499.03	940.90
499.20	1039.20
499.38	940.90
499.56	959.62
499.73	957.28
499.91	947.92
500.08	854.30
500.26	791.10
500.44	786.42
500.61	793.44
500.79	753.65
500.97	727.91
501.14	763.01
501.32	697.48
501.49	664.71
501.67	653.01
501.84	725.57
502.02	664.71
502.20	725.57
502.37	580.45
502.55	601.52
502.72	507.90
502.90	571.09
503.07	561.73
503.25	580.45
503.43	507.90
503.60	550.03
503.78	554.71
503.95	538.32
504.13	486.83
504.30	550.03
504.48	491.51
504.65	578.11
504.83	458.74
505.01	531.30
505.18	524.28
505.36	475.13
505.53	484.49
505.71	458.74
505.88	395.55
506.06	383.85
506.23	470.45
506.41	465.77
506.58	454.06
506.76	428.32
506.93	423.64
507.11	437.68
507.28	381.51
507.46	388.53
507.63	404.91
507.81	360.44
507.98	440.02
508.16	381.51
508.33	416.62
508.50	411.93
508.68	489.17
508.85	435.34
509.03	561.73
509.20	409.59
509.38	500.87
509.55	428.32
509.73	414.27
509.90	390.87
510.08	414.27
510.25	411.93
510.42	397.89
510.60	360.44
510.77	423.64
510.95	425.98
511.12	313.63
511.30	402.57
511.47	315.97
511.64	449.38
511.82	381.51
511.99	430.66
512.17	388.53
512.34	376.83
512.51	358.10
512.69	418.96
512.86	344.06
513.04	442.36
513.21	376.83
513.38	416.62
513.56	348.74
513.73	386.19
513.90	330.02
514.08	374.49
514.25	379.17
514.43	428.32
514.60	304.27
514.77	348.74
514.95	353.42
515.12	390.87
515.29	416.62
515.47	299.59
515.64	259.80
515.81	346.40
515.99	414.27
516.16	395.55
516.33	344.06
516.51	339.38
516.68	383.85
516.85	297.25
517.03	353.42
517.20	313.63
517.37	315.97
517.54	374.49
517.72	262.14
517.89	304.27
518.06	243.42
518.24	383.85
518.41	351.08
518.58	330.02
518.75	285.55
518.93	287.89
519.10	360.44
519.27	334.70
519.45	404.91
519.62	320.65
519.79	332.36
519.96	311.29
520.14	390.87
520.31	299.59
520.48	379.17
520.65	330.02
520.83	355.76
521.00	355.76
521.17	294.91
521.34	346.40
521.52	337.04
521.69	234.05
521.86	325.33
522.03	374.49
522.20	365.12
522.38	337.04
522.55	315.97
522.72	344.06
522.89	358.10
523.07	339.38
523.24	344.06
523.41	283.20
523.58	330.02
523.75	325.33
523.92	306.61
524.10	320.65
524.27	346.40
524.44	311.29
524.61	454.06
524.78	318.31
524.96	311.29
525.13	330.02
525.30	358.10
525.47	440.02
525.64	374.49
525.81	346.40
525.98	376.83
526.16	369.80
526.33	318.31
526.50	304.27
526.67	383.85
526.84	372.15
527.01	376.83
527.18	500.87
527.36	493.85
527.53	416.62
527.70	503.22
527.87	402.57
528.04	489.17
528.21	444.70
528.38	390.87
528.55	430.66
528.72	344.06
528.89	545.34
529.07	404.91
529.24	430.66
529.41	498.53
529.58	430.66
529.75	437.68
529.92	458.74
530.09	477.47
530.26	519.60
530.43	505.56
530.60	543.00
530.77	463.43
530.94	477.47
531.11	533.64
531.28	470.45
531.46	543.00
531.63	538.32
531.80	575.77
531.97	578.11
532.14	711.52
532.31	784.08
532.48	828.55
532.65	999.41
532.82	1130.48
532.99	1238.14
533.16	1514.33
533.33	1446.45
533.50	1455.81
533.67	1259.21
533.84	1062.60
534.01	994.73
534.18	875.36
534.35	910.47
534.52	938.55
534.69	1015.79
534.86	1034.52
535.03	1001.75
535.20	1093.03
535.37	1135.16
535.54	1217.08
535.71	1196.01
535.88	1327.08
536.05	1448.79
536.22	1458.15
536.38	1486.24
536.55	1795.19
536.72	2017.54
536.89	2195.42
537.06	2303.09
537.23	2565.23
537.40	2782.90
537.57	2981.84
537.74	3129.30
537.91	3314.20
538.08	3325.90
538.25	3304.84
538.42	3386.76
538.59	3431.23
538.75	3613.79
538.92	3815.07
539.09	4124.02
539.26	4603.83
539.43	5240.46
539.60	5858.36
539.77	6443.49
539.94	7414.82
540.11	8184.85
540.28	9043.83
540.44	9696.84
540.61	10497.30
540.78	12241.00
540.95	14888.15
541.12	18101.70
541.29	20285.42
541.46	21273.13
541.62	20549.90
541.79	19829.02
541.96	18394.27
542.13	17069.53
542.30	15833.72
542.47	14813.25
542.63	14181.31
542.80	13844.27
542.97	13720.22
543.14	13565.74
543.31	13525.96
543.48	13757.67
543.64	13914.48
543.81	13701.50
543.98	14017.47
544.15	13991.72
544.32	14235.14
544.48	14195.35
544.65	13895.76
544.82	14010.45
544.99	13973.00
545.16	14120.45
545.32	14815.59
545.49	25097.56
545.66	45897.91
545.83	54770.88
546.00	48261.85
546.16	33092.83
546.33	24238.59
546.50	18211.71
546.67	14303.01
546.83	12634.21
547.00	12149.72
547.17	11726.08
547.34	10757.10
547.50	10895.19
547.67	10197.71
547.84	9863.02
548.00	9345.76
548.17	9025.11
548.34	8777.01
548.51	8257.41
548.67	8072.51
548.84	7688.66
549.01	7274.38
549.18	6963.09
549.34	6752.45
549.51	6497.33
549.68	6333.49
549.84	5907.51
550.01	5706.23
550.18	5713.25
550.34	5214.71
550.51	5029.81
550.68	4711.50
550.84	4557.02
551.01	4320.63
551.18	4009.34
551.34	3737.84
551.51	3742.52
551.68	3571.66
551.84	3393.78
552.01	3379.73
552.18	3246.32
552.34	3007.59
552.51	2993.55
552.68	2822.69
552.84	2839.07
553.01	2686.94
553.18	2483.31
553.34	2401.39
553.51	2361.60
553.67	2410.75
553.84	2249.25
554.01	2211.81
554.17	1914.56
554.34	1849.02
554.51	1727.32
554.67	1526.03
554.84	1659.44
555.00	1493.26
555.17	1397.30
555.33	1411.34
555.50	1280.27
555.67	1170.27
555.83	1149.20
556.00	1212.40
556.16	1242.82
556.33	1139.84
556.50	1090.69
556.66	987.71
556.83	1029.84
556.99	940.90
557.16	983.02
557.32	873.02
557.49	823.87
557.65	915.15
557.82	851.96
557.98	847.27
558.15	816.85
558.32	835.57
558.48	727.91
558.65	713.86
558.81	734.93
558.98	748.97
559.14	753.65
559.31	774.72
559.47	641.31
559.64	678.76
559.80	767.70
559.97	631.94
560.13	732.59
560.30	676.41
560.46	643.65
560.63	636.63
560.79	669.39
560.96	711.52
561.12	627.26
561.29	634.29
561.45	683.44
561.61	655.35
561.78	690.46
561.94	720.88
562.11	613.22
562.27	645.99
562.44	657.69
562.60	566.41
562.77	568.75
562.93	645.99
563.10	627.26
563.26	620.24
563.42	578.11
563.59	589.82
563.75	547.69
563.92	629.60
564.08	578.11
564.24	571.09
564.41	645.99
564.57	603.86
564.74	587.47
564.90	582.79
565.07	500.87
565.23	528.96
565.39	585.13
565.56	533.64
565.72	507.90
565.88	519.60
566.05	528.96
566.21	531.30
566.38	566.41
566.54	531.30
566.70	510.24
566.87	561.73
567.03	528.96
567.19	470.45
567.36	585.13
567.52	540.66
567.68	526.62
567.85	543.00
568.01	514.92
568.17	566.41
568.34	557.05
568.50	550.03
568.66	519.60
568.83	559.39
568.99	437.68
569.15	554.71
569.32	514.92
569.48	461.09
569.64	486.83
569.81	472.79
569.97	444.70
570.13	489.17
570.30	362.78
570.46	461.09
570.62	386.19
570.78	397.89
570.95	330.02
571.11	407.25
571.27	365.12
571.43	444.70
571.60	360.44
571.76	397.89
571.92	433.00
572.09	404.91
572.25	440.02
572.41	376.83
572.57	421.30
572.74	510.24
572.90	423.64
573.06	451.72
573.22	461.09
573.38	418.96
573.55	505.56
573.71	444.70
573.87	449.38
574.03	435.34
574.20	456.40
574.36	507.90
574.52	421.30
574.68	540.66
574.84	533.64
575.01	512.58
575.17	486.83
575.33	624.92
575.49	554.71
575.65	692.80
575.82	683.44
575.98	812.17
576.14	856.64
576.30	1668.80
576.46	5376.21
576.62	9158.52
576.79	9785.78
576.95	7129.27
577.11	4760.65
577.27	3293.13
577.43	2183.72
577.59	1479.22
577.75	1268.57
577.92	1074.31
578.08	1048.56
578.24	1034.52
578.40	1813.92
578.56	4807.46
578.72	8517.21
578.88	8999.36
579.04	6661.16
579.21	4465.74
579.37	3466.33
579.53	2677.57
579.69	2581.61
579.85	3229.94
580.01	3637.19
580.17	3515.48
580.33	3019.29
580.49	2698.64
580.65	2310.11
580.82	2099.46
580.98	2129.89
581.14	2083.08
581.30	2256.28
581.46	2408.41
581.62	2541.82
581.78	2754.81
581.94	3084.83
582.10	3066.10
582.26	3337.60
582.42	3307.18
582.58	3529.53
582.74	3482.72
582.90	3623.15
583.06	3538.89
583.22	3489.74
583.38	3550.59
583.54	3461.65
583.70	3452.29
583.86	3403.14
584.02	3517.83
584.18	3358.67
584.34	3351.65
584.50	3276.75
584.66	3365.69
584.82	3232.28
584.98	3122.27
585.14	3108.23
585.30	3073.12
585.46	2988.86
585.62	3045.04
585.78	2918.65
585.94	2888.22
586.10	3021.63
586.26	3201.85
586.42	3632.51
586.58	4334.67
586.74	5249.82
586.90	6310.08
587.06	6846.07
587.22	6626.06
587.38	6005.81
587.54	5207.69
587.70	4355.74
587.86	3749.54
588.02	3258.03
588.18	2935.03
588.34	2703.32
588.49	2431.82
588.65	2232.87
588.81	2277.34
588.97	2019.88
589.13	2003.50
589.29	1975.41
589.45	1940.30
589.61	2040.95
589.77	2038.61
589.93	2083.08
590.08	2080.74
590.24	2005.84
590.40	2169.68
590.56	2209.47
590.72	2218.83
590.88	2253.94
591.04	2480.97
591.20	2429.48
591.35	2572.25
591.51	2609.70
591.67	2794.60
591.83	3133.98
591.99	3272.07
592.15	3386.76
592.31	3901.67
592.46	4128.70
592.62	4463.40
592.78	4627.24
592.94	4929.17
593.10	4844.91
593.26	4660.01
593.41	4184.88
593.57	3784.65
593.73	3473.36
593.89	2963.12
594.05	2768.85
594.20	2359.26
594.36	2303.09
594.52	2062.01
594.68	2073.71
594.84	1930.94
594.99	1926.26
595.15	1816.26
595.31	1722.63
595.47	1799.87
595.62	1678.16
595.78	1799.87
595.94	1743.70
596.10	1900.52
596.25	1804.55
596.41	1806.89
596.57	1739.02
596.73	1811.57
596.88	1696.89
597.04	1816.26
597.20	1727.32
597.36	1816.26
597.51	1912.22
597.67	1811.57
597.83	2071.37
597.99	2162.66
598.14	2258.62
598.30	2504.37
598.46	2459.90
598.61	2698.64
598.77	2675.23
598.93	2991.20
599.09	2981.84
599.24	3059.08
599.40	2935.03
599.56	3030.99
599.71	2733.75
599.87	2637.78
600.03	2485.65
600.18	2314.79
600.34	2179.04
600.50	2010.52
600.65	1961.37
600.81	1790.51
600.97	1750.72
601.12	1617.31
601.28	1631.35
601.44	1432.41
601.59	1516.67
601.75	1413.68
601.91	1488.58
602.06	1242.82
602.22	1294.32
602.37	1275.59
602.53	1256.87
602.69	1233.46
602.84	1151.54
603.00	1153.88
603.16	1268.57
603.31	1284.95
603.47	1235.80
603.62	1270.91
603.78	1270.91
603.94	1296.66
604.09	1359.85
604.25	1460.49
604.40	1303.68
604.56	1371.55
604.71	1366.87
604.87	1437.09
605.03	1413.68
605.18	1439.43
605.34	1540.07
605.49	1483.90
605.65	1509.65
605.80	1593.90
