SpectraSuite Data File
++++++++++++++++++++++++++++++++++++
Date: Fri Oct 04 11:41:42 GMT-05:00 2013
User: price-jones
Dark Spectrum Present: No
Reference Spectrum Present: No
Number of Sampled Component Spectra: 1
Spectrometers: USB2+H05261
Integration Time (usec): 100000 (USB2+H05261)
Spectra Averaged: 1 (USB2+H05261)
Boxcar Smoothing: 0 (USB2+H05261)
Correct for Electrical Dark: No (USB2+H05261)
Strobe/Lamp Enabled: No (USB2+H05261)
Correct for Detector Non-linearity: No (USB2+H05261)
Correct for Stray Light: No (USB2+H05261)
Number of Pixels in Processed Spectrum: 2048
>>>>>Begin Processed Spectral Data<<<<<
365.73	72.56
365.92	72.56
366.12	72.56
366.32	0.00
366.52	0.00
366.72	0.00
366.91	0.00
367.11	0.00
367.31	0.00
367.51	0.00
367.70	0.00
367.90	0.00
368.10	0.00
368.30	0.00
368.49	0.00
368.69	0.00
368.89	0.00
369.09	7.02
369.28	0.00
369.48	0.00
369.68	39.79
369.87	0.00
370.07	0.00
370.27	39.79
370.47	65.54
370.66	126.39
370.86	72.56
371.06	23.41
371.25	95.96
371.45	133.41
371.65	121.71
371.84	65.54
372.04	21.06
372.24	126.39
372.44	117.03
372.63	138.09
372.83	173.20
373.03	100.64
373.22	37.45
373.42	93.62
373.62	128.73
373.81	170.86
374.01	135.75
374.21	156.82
374.40	16.38
374.60	196.60
374.79	133.41
374.99	154.48
375.19	102.98
375.38	184.90
375.58	126.39
375.78	156.82
375.97	84.26
376.17	170.86
376.37	81.92
376.56	110.01
376.76	91.28
376.95	126.39
377.15	126.39
377.35	154.48
377.54	140.43
377.74	126.39
377.93	119.37
378.13	72.56
378.33	149.79
378.52	217.67
378.72	133.41
378.91	93.62
379.11	114.69
379.31	70.22
379.50	84.26
379.70	98.30
379.89	145.11
380.09	142.77
380.28	105.32
380.48	102.98
380.68	133.41
380.87	138.09
381.07	81.92
381.26	173.20
381.46	145.11
381.65	63.19
381.85	98.30
382.04	51.49
382.24	145.11
382.43	131.07
382.63	227.03
382.83	161.50
383.02	79.58
383.22	79.58
383.41	44.47
383.61	149.79
383.80	72.56
384.00	98.30
384.19	60.85
384.39	152.13
384.58	81.92
384.78	191.92
384.97	159.16
385.17	159.16
385.36	30.43
385.56	159.16
385.75	124.05
385.95	110.01
386.14	53.83
386.34	124.05
386.53	238.73
386.72	168.52
386.92	229.37
387.11	161.50
387.31	107.66
387.50	142.77
387.70	173.20
387.89	81.92
388.09	131.07
388.28	145.11
388.48	81.92
388.67	121.71
388.86	110.01
389.06	112.35
389.25	124.05
389.45	107.66
389.64	105.32
389.84	163.84
390.03	175.54
390.22	88.94
390.42	156.82
390.61	105.32
390.81	100.64
391.00	86.60
391.19	182.56
391.39	102.98
391.58	102.98
391.78	112.35
391.97	133.41
392.16	117.03
392.36	189.58
392.55	140.43
392.75	147.45
392.94	126.39
393.13	147.45
393.33	161.50
393.52	72.56
393.71	112.35
393.91	154.48
394.10	74.90
394.29	117.03
394.49	142.77
394.68	124.05
394.88	173.20
395.07	201.29
395.26	131.07
395.46	208.31
395.65	166.18
395.84	81.92
396.04	149.79
396.23	95.96
396.42	187.24
396.62	175.54
396.81	91.28
397.00	135.75
397.19	138.09
397.39	140.43
397.58	191.92
397.77	138.09
397.97	166.18
398.16	163.84
398.35	126.39
398.55	102.98
398.74	102.98
398.93	201.29
399.12	93.62
399.32	149.79
399.51	128.73
399.70	161.50
399.90	159.16
400.09	154.48
400.28	177.88
400.47	42.13
400.67	177.88
400.86	168.52
401.05	117.03
401.24	177.88
401.44	114.69
401.63	173.20
401.82	112.35
402.01	145.11
402.21	133.41
402.40	138.09
402.59	142.77
402.78	161.50
402.97	180.22
403.17	184.90
403.36	173.20
403.55	294.91
403.74	601.52
403.93	1839.66
404.13	4423.61
404.32	6120.50
404.51	5074.28
404.70	3112.91
404.89	1207.72
405.09	482.15
405.28	196.60
405.47	208.31
405.66	238.73
405.85	222.35
406.05	187.24
406.24	124.05
406.43	177.88
406.62	189.58
406.81	297.25
407.00	320.65
407.20	554.71
407.39	884.72
407.58	767.70
407.77	608.54
407.96	400.23
408.15	210.65
408.34	231.71
408.54	154.48
408.73	149.79
408.92	124.05
409.11	212.99
409.30	173.20
409.49	110.01
409.68	166.18
409.87	205.97
410.07	105.32
410.26	175.54
410.45	166.18
410.64	238.73
410.83	215.33
411.02	205.97
411.21	182.56
411.40	255.12
411.59	217.67
411.78	152.13
411.98	140.43
412.17	222.35
412.36	147.45
412.55	147.45
412.74	224.69
412.93	241.08
413.12	159.16
413.31	308.95
413.50	154.48
413.69	224.69
413.88	271.50
414.07	250.44
414.26	262.14
414.45	264.48
414.64	168.52
414.83	236.39
415.02	227.03
415.22	159.16
415.41	241.08
415.60	191.92
415.79	220.01
415.98	205.97
416.17	210.65
416.36	259.80
416.55	140.43
416.74	238.73
416.93	266.82
417.12	287.89
417.31	182.56
417.50	189.58
417.69	311.29
417.88	259.80
418.07	290.23
418.26	257.46
418.45	196.60
418.64	264.48
418.83	220.01
419.02	184.90
419.21	210.65
419.39	201.29
419.58	189.58
419.77	182.56
419.96	264.48
420.15	224.69
420.34	257.46
420.53	217.67
420.72	266.82
420.91	194.26
421.10	201.29
421.29	257.46
421.48	308.95
421.67	290.23
421.86	212.99
422.05	243.42
422.24	322.99
422.43	229.37
422.61	276.18
422.80	311.29
422.99	280.86
423.18	255.12
423.37	358.10
423.56	306.61
423.75	276.18
423.94	259.80
424.13	255.12
424.32	245.76
424.50	332.36
424.69	285.55
424.88	315.97
425.07	241.08
425.26	262.14
425.45	322.99
425.64	306.61
425.83	252.78
426.01	325.33
426.20	339.38
426.39	332.36
426.58	313.63
426.77	262.14
426.96	292.57
427.15	313.63
427.33	250.44
427.52	294.91
427.71	346.40
427.90	397.89
428.09	334.70
428.28	308.95
428.46	271.50
428.65	379.17
428.84	332.36
429.03	383.85
429.22	304.27
429.40	313.63
429.59	320.65
429.78	306.61
429.97	355.76
430.16	322.99
430.34	320.65
430.53	308.95
430.72	353.42
430.91	341.72
431.10	334.70
431.28	339.38
431.47	351.08
431.66	362.78
431.85	393.21
432.03	437.68
432.22	526.62
432.41	430.66
432.60	418.96
432.79	437.68
432.97	409.59
433.16	491.51
433.35	437.68
433.54	589.82
433.72	543.00
433.91	528.96
434.10	603.86
434.28	711.52
434.47	798.12
434.66	901.11
434.85	1238.14
435.03	3103.55
435.22	11946.09
435.41	26267.83
435.59	26539.33
435.78	17612.53
435.97	8606.15
436.16	3145.68
436.34	1219.42
436.53	720.88
436.72	592.16
436.90	608.54
437.09	507.90
437.28	418.96
437.46	470.45
437.65	461.09
437.84	456.40
438.02	477.47
438.21	461.09
438.40	390.87
438.58	430.66
438.77	472.79
438.96	355.76
439.14	461.09
439.33	423.64
439.52	404.91
439.70	468.11
439.89	376.83
440.08	465.77
440.26	407.25
440.45	440.02
440.63	390.87
440.82	360.44
441.01	465.77
441.19	400.23
441.38	358.10
441.57	444.70
441.75	461.09
441.94	447.04
442.12	421.30
442.31	400.23
442.50	472.79
442.68	411.93
442.87	468.11
443.05	425.98
443.24	407.25
443.43	437.68
443.61	496.19
443.80	479.81
443.98	397.89
444.17	369.80
444.35	461.09
444.54	395.55
444.73	397.89
444.91	428.32
445.10	423.64
445.28	447.04
445.47	477.47
445.65	381.51
445.84	344.06
446.02	397.89
446.21	353.42
446.39	381.51
446.58	477.47
446.77	341.72
446.95	416.62
447.14	444.70
447.32	500.87
447.51	423.64
447.69	351.08
447.88	477.47
448.06	435.34
448.25	409.59
448.43	388.53
448.62	383.85
448.80	397.89
448.99	425.98
449.17	402.57
449.36	327.68
449.54	430.66
449.73	418.96
449.91	397.89
450.10	383.85
450.28	430.66
450.46	418.96
450.65	404.91
450.83	404.91
451.02	322.99
451.20	461.09
451.39	379.17
451.57	397.89
451.76	414.27
451.94	367.46
452.13	390.87
452.31	421.30
452.49	369.80
452.68	414.27
452.86	411.93
453.05	433.00
453.23	393.21
453.42	381.51
453.60	447.04
453.78	428.32
453.97	330.02
454.15	390.87
454.34	383.85
454.52	348.74
454.70	393.21
454.89	442.36
455.07	383.85
455.26	379.17
455.44	397.89
455.62	351.08
455.81	383.85
455.99	402.57
456.17	437.68
456.36	418.96
456.54	442.36
456.73	360.44
456.91	409.59
457.09	404.91
457.28	390.87
457.46	418.96
457.64	444.70
457.83	402.57
458.01	411.93
458.19	355.76
458.38	341.72
458.56	379.17
458.74	276.18
458.93	449.38
459.11	374.49
459.29	337.04
459.48	367.46
459.66	423.64
459.84	397.89
460.03	500.87
460.21	465.77
460.39	402.57
460.57	433.00
460.76	421.30
460.94	402.57
461.12	454.06
461.31	409.59
461.49	330.02
461.67	407.25
461.85	433.00
462.04	421.30
462.22	575.77
462.40	381.51
462.59	395.55
462.77	409.59
462.95	360.44
463.13	421.30
463.32	447.04
463.50	388.53
463.68	379.17
463.86	334.70
464.05	397.89
464.23	404.91
464.41	451.72
464.59	447.04
464.78	421.30
464.96	379.17
465.14	379.17
465.32	337.04
465.50	421.30
465.69	470.45
465.87	367.46
466.05	404.91
466.23	358.10
466.41	416.62
466.60	451.72
466.78	407.25
466.96	442.36
467.14	454.06
467.32	435.34
467.51	365.12
467.69	454.06
467.87	416.62
468.05	327.68
468.23	430.66
468.41	353.42
468.60	287.89
468.78	449.38
468.96	418.96
469.14	397.89
469.32	297.25
469.50	369.80
469.69	411.93
469.87	355.76
470.05	369.80
470.23	360.44
470.41	379.17
470.59	348.74
470.77	360.44
470.95	444.70
471.14	454.06
471.32	411.93
471.50	454.06
471.68	390.87
471.86	337.04
472.04	348.74
472.22	414.27
472.40	344.06
472.58	374.49
472.77	341.72
472.95	351.08
473.13	433.00
473.31	477.47
473.49	379.17
473.67	327.68
473.85	444.70
474.03	372.15
474.21	414.27
474.39	381.51
474.57	344.06
474.75	386.19
474.93	360.44
475.12	330.02
475.30	339.38
475.48	390.87
475.66	458.74
475.84	376.83
476.02	397.89
476.20	407.25
476.38	383.85
476.56	507.90
476.74	386.19
476.92	425.98
477.10	362.78
477.28	425.98
477.46	404.91
477.64	463.43
477.82	411.93
478.00	344.06
478.18	421.30
478.36	397.89
478.54	400.23
478.72	491.51
478.90	435.34
479.08	552.37
479.26	475.13
479.44	521.94
479.62	510.24
479.80	498.53
479.98	533.64
480.16	571.09
480.34	554.71
480.52	580.45
480.70	498.53
480.88	564.07
481.06	613.22
481.24	660.03
481.41	706.84
481.59	760.67
481.77	758.33
481.95	819.19
482.13	875.36
482.31	877.70
482.49	968.98
482.67	957.28
482.85	1130.48
483.03	1137.50
483.21	1219.42
483.39	1235.80
483.57	1287.29
483.74	1446.45
483.92	1650.08
484.10	1607.95
484.28	1741.36
484.46	1809.23
484.64	1933.28
484.82	1968.39
485.00	1898.17
485.18	2101.80
485.35	2277.34
485.53	2335.85
485.71	2490.33
485.89	2588.63
486.07	2612.04
486.25	2686.94
486.43	2700.98
486.61	2693.96
486.78	2567.57
486.96	2637.78
487.14	2637.78
487.32	2700.98
487.50	2607.36
487.68	2626.08
487.85	2621.40
488.03	2509.05
488.21	2518.42
488.39	2420.11
488.57	2335.85
488.75	2331.17
488.92	2532.46
489.10	2303.09
489.28	2230.53
489.46	2267.98
489.64	2111.16
489.81	2115.84
489.99	2040.95
490.17	2017.54
490.35	2146.27
490.53	2031.58
490.70	2045.63
490.88	2092.44
491.06	2087.76
491.24	2265.64
491.41	2310.11
491.59	2073.71
491.77	1947.33
491.95	1830.30
492.13	1914.56
492.30	1804.55
492.48	1823.28
492.66	1748.38
492.84	1760.08
493.01	1671.14
493.19	1757.74
493.37	1708.59
493.54	1629.01
493.72	1643.06
493.90	1544.75
494.08	1640.72
494.25	1619.65
494.43	1519.01
494.61	1540.07
494.79	1519.01
494.96	1523.69
495.14	1511.99
495.32	1589.22
495.49	1493.26
495.67	1380.92
495.85	1364.53
496.02	1299.00
496.20	1310.70
496.38	1336.45
496.55	1420.71
496.73	1324.74
496.91	1296.66
497.09	1242.82
497.26	1226.44
497.44	1254.53
497.62	1210.06
497.79	1158.57
497.97	1170.27
498.14	1032.18
498.32	1104.73
498.50	1100.05
498.67	1067.28
498.85	1057.92
499.03	950.26
499.20	1001.75
499.38	931.53
499.56	917.49
499.73	945.58
499.91	943.24
500.08	908.13
500.26	954.94
500.44	842.59
500.61	919.83
500.79	800.46
500.97	788.76
501.14	725.57
501.32	760.67
501.49	774.72
501.67	734.93
501.84	727.91
502.02	758.33
502.20	662.37
502.37	678.76
502.55	720.88
502.72	662.37
502.90	613.22
503.07	645.99
503.25	613.22
503.43	526.62
503.60	505.56
503.78	613.22
503.95	564.07
504.13	496.19
504.30	493.85
504.48	510.24
504.65	571.09
504.83	428.32
505.01	550.03
505.18	510.24
505.36	463.43
505.53	454.06
505.71	449.38
505.88	571.09
506.06	447.04
506.23	484.49
506.41	451.72
506.58	519.60
506.76	507.90
506.93	381.51
507.11	477.47
507.28	437.68
507.46	381.51
507.63	407.25
507.81	477.47
507.98	444.70
508.16	472.79
508.33	449.38
508.50	454.06
508.68	510.24
508.85	430.66
509.03	454.06
509.20	437.68
509.38	458.74
509.55	482.15
509.73	475.13
509.90	472.79
510.08	425.98
510.25	348.74
510.42	397.89
510.60	404.91
510.77	517.26
510.95	512.58
511.12	423.64
511.30	400.23
511.47	402.57
511.64	379.17
511.82	423.64
511.99	383.85
512.17	430.66
512.34	362.78
512.51	369.80
512.69	468.11
512.86	454.06
513.04	381.51
513.21	367.46
513.38	404.91
513.56	337.04
513.73	360.44
513.90	327.68
514.08	365.12
514.25	355.76
514.43	346.40
514.60	297.25
514.77	400.23
514.95	367.46
515.12	351.08
515.29	390.87
515.47	315.97
515.64	276.18
515.81	320.65
515.99	287.89
516.16	421.30
516.33	365.12
516.51	330.02
516.68	301.93
516.85	315.97
517.03	180.22
517.20	339.38
517.37	393.21
517.54	358.10
517.72	416.62
517.89	341.72
518.06	280.86
518.24	404.91
518.41	374.49
518.58	346.40
518.75	332.36
518.93	311.29
519.10	280.86
519.27	322.99
519.45	248.10
519.62	337.04
519.79	318.31
519.96	311.29
520.14	383.85
520.31	362.78
520.48	332.36
520.65	287.89
520.83	369.80
521.00	397.89
521.17	327.68
521.34	360.44
521.52	362.78
521.69	355.76
521.86	292.57
522.03	341.72
522.20	341.72
522.38	287.89
522.55	346.40
522.72	346.40
522.89	341.72
523.07	362.78
523.24	386.19
523.41	322.99
523.58	337.04
523.75	341.72
523.92	383.85
524.10	381.51
524.27	388.53
524.44	280.86
524.61	348.74
524.78	397.89
524.96	440.02
525.13	341.72
525.30	339.38
525.47	311.29
525.64	339.38
525.81	365.12
525.98	381.51
526.16	318.31
526.33	353.42
526.50	367.46
526.67	313.63
526.84	327.68
527.01	402.57
527.18	400.23
527.36	395.55
527.53	402.57
527.70	493.85
527.87	449.38
528.04	411.93
528.21	278.52
528.38	442.36
528.55	421.30
528.72	440.02
528.89	484.49
529.07	440.02
529.24	428.32
529.41	433.00
529.58	442.36
529.75	458.74
529.92	411.93
530.09	500.87
530.26	526.62
530.43	451.72
530.60	435.34
530.77	468.11
530.94	587.47
531.11	510.24
531.28	491.51
531.46	491.51
531.63	589.82
531.80	519.60
531.97	641.31
532.14	655.35
532.31	940.90
532.48	976.00
532.65	1020.47
532.82	1090.69
532.99	1357.51
533.16	1530.71
533.33	1556.46
533.50	1488.58
533.67	1299.00
533.84	1181.97
534.01	1046.22
534.18	875.36
534.35	1001.75
534.52	929.19
534.69	1057.92
534.86	1064.94
535.03	1034.52
535.20	1097.71
535.37	1156.22
535.54	1235.80
535.71	1301.34
535.88	1397.30
536.05	1462.83
536.22	1542.41
536.38	1661.78
536.55	1804.55
536.72	2043.29
536.89	2127.55
537.06	2495.01
537.23	2609.70
537.40	2902.26
537.57	3061.42
537.74	3431.23
537.91	3400.80
538.08	3557.61
538.25	3550.59
538.42	3625.49
538.59	3660.60
538.75	3763.58
538.92	4109.98
539.09	4332.33
539.26	4746.61
539.43	5502.60
539.60	6246.89
539.77	7068.42
539.94	7768.24
540.11	8503.17
540.28	9507.26
540.44	10335.81
540.61	11311.81
540.78	13191.26
540.95	15492.01
541.12	18668.11
541.29	21322.28
541.46	21907.41
541.62	21844.22
541.79	20659.91
541.96	19234.52
542.13	18082.98
542.30	16915.05
542.47	15819.68
542.63	15103.48
542.80	14647.07
542.97	14305.35
543.14	14141.52
543.31	13998.74
543.48	14253.86
543.64	14448.13
543.81	14626.01
543.98	14782.82
544.15	14864.74
544.32	14881.13
544.48	14949.00
544.65	14782.82
544.82	14459.83
544.99	14644.73
545.16	14768.78
545.32	15798.62
545.49	27405.33
545.66	48254.82
545.83	55952.85
546.00	49184.02
546.16	33640.52
546.33	25401.83
546.50	18979.40
546.67	15063.69
546.83	13109.34
547.00	12835.50
547.17	12079.50
547.34	11482.67
547.50	11075.42
547.67	10750.08
547.84	10335.81
548.00	9844.29
548.17	9320.01
548.34	9076.60
548.51	8840.20
548.67	8456.36
548.84	8252.73
549.01	7906.33
549.18	7267.36
549.34	7105.87
549.51	6862.45
549.68	6705.63
549.84	6153.27
550.01	5881.77
550.18	5935.60
550.34	5502.60
550.51	5247.48
550.68	5001.72
550.84	4674.05
551.01	4390.84
551.18	4259.78
551.34	4135.73
551.51	3812.73
551.68	3702.73
551.84	3562.30
552.01	3389.10
552.18	3379.73
552.34	3220.58
552.51	3042.70
552.68	3075.46
552.84	2801.62
553.01	2834.39
553.18	2766.51
553.34	2738.43
553.51	2518.42
553.67	2361.60
553.84	2291.38
554.01	2223.51
554.17	2083.08
554.34	1991.80
554.51	1790.51
554.67	1755.40
554.84	1626.67
555.00	1619.65
555.17	1481.56
555.33	1376.24
555.50	1338.79
555.67	1280.27
555.83	1306.02
556.00	1277.93
556.16	1296.66
556.33	1144.52
556.50	1067.28
556.66	1135.16
556.83	1018.13
556.99	933.87
557.16	997.07
557.32	915.15
557.49	924.51
557.65	931.53
557.82	856.64
557.98	858.98
558.15	847.27
558.32	814.51
558.48	777.06
558.65	887.06
558.81	842.59
558.98	828.55
559.14	809.83
559.31	695.14
559.47	716.20
559.64	706.84
559.80	737.27
559.97	631.94
560.13	645.99
560.30	671.73
560.46	671.73
560.63	636.63
560.79	622.58
560.96	744.29
561.12	650.67
561.29	699.82
561.45	613.22
561.61	643.65
561.78	781.74
561.94	617.90
562.11	601.52
562.27	685.78
562.44	702.16
562.60	704.50
562.77	692.80
562.93	732.59
563.10	660.03
563.26	601.52
563.42	622.58
563.59	662.37
563.75	603.86
563.92	617.90
564.08	641.31
564.24	631.94
564.41	631.94
564.57	557.05
564.74	566.41
564.90	592.16
565.07	547.69
565.23	578.11
565.39	507.90
565.56	510.24
565.72	458.74
565.88	468.11
566.05	517.26
566.21	503.22
566.38	514.92
566.54	550.03
566.70	475.13
566.87	596.84
567.03	552.37
567.19	587.47
567.36	559.39
567.52	550.03
567.68	465.77
567.85	547.69
568.01	498.53
568.17	517.26
568.34	608.54
568.50	561.73
568.66	440.02
568.83	606.20
568.99	521.94
569.15	538.32
569.32	493.85
569.48	489.17
569.64	449.38
569.81	465.77
569.97	416.62
570.13	468.11
570.30	465.77
570.46	470.45
570.62	393.21
570.78	433.00
570.95	437.68
571.11	510.24
571.27	463.43
571.43	416.62
571.60	503.22
571.76	404.91
571.92	444.70
572.09	358.10
572.25	486.83
572.41	456.40
572.57	407.25
572.74	484.49
572.90	404.91
573.06	528.96
573.22	404.91
573.38	472.79
573.55	517.26
573.71	514.92
573.87	451.72
574.03	500.87
574.20	526.62
574.36	566.41
574.52	535.98
574.68	561.73
574.84	531.30
575.01	613.22
575.17	547.69
575.33	594.50
575.49	688.12
575.65	655.35
575.82	779.40
575.98	816.85
576.14	957.28
576.30	1771.79
576.46	5692.18
576.62	9404.27
576.79	10408.36
576.95	7433.54
577.11	4894.06
577.27	3578.68
577.43	2417.77
577.59	1570.50
577.75	1254.53
577.92	1086.01
578.08	1151.54
578.24	1125.80
578.40	1886.47
578.56	5254.50
578.72	8814.46
578.88	9144.47
579.04	6895.22
579.21	4746.61
579.37	3599.74
579.53	2850.77
579.69	2839.07
579.85	3323.56
580.01	3974.23
580.17	3695.71
580.33	3070.78
580.49	2729.06
580.65	2485.65
580.82	2270.32
580.98	2134.57
581.14	2169.68
581.30	2490.33
581.46	2539.48
581.62	2761.83
581.78	2785.24
581.94	3047.38
582.10	3286.11
582.26	3379.73
582.42	3578.68
582.58	3676.98
582.74	3665.28
582.90	3723.79
583.06	3688.68
583.22	3660.60
583.38	3709.75
583.54	3791.67
583.70	3794.01
583.86	3637.19
584.02	3632.51
584.18	3592.72
584.34	3559.95
584.50	3478.04
584.66	3375.05
584.82	3307.18
584.98	3269.73
585.14	3255.69
585.30	3190.15
585.46	3002.91
585.62	2998.23
585.78	3066.10
585.94	3215.90
586.10	3234.62
586.26	3288.45
586.42	3798.69
586.58	4416.59
586.74	5610.26
586.90	6689.25
587.06	7379.71
587.22	7005.22
587.38	6274.98
587.54	5652.39
587.70	4685.75
587.86	3852.52
588.02	3339.94
588.18	3054.40
588.34	2836.73
588.49	2541.82
588.65	2354.58
588.81	2211.81
588.97	2209.47
589.13	1987.11
589.29	2097.12
589.45	2113.50
589.61	2043.29
589.77	2066.69
589.93	2094.78
590.08	2207.13
590.24	2188.40
590.40	2382.67
590.56	2417.77
590.72	2394.37
590.88	2382.67
591.04	2551.18
591.20	2736.09
591.35	2764.17
591.51	2928.01
591.67	2986.52
591.83	3171.43
591.99	3529.53
592.15	3911.04
592.31	3985.93
592.46	4512.55
592.62	4903.42
592.78	5151.52
592.94	5207.69
593.10	5095.35
593.26	4926.83
593.41	4477.44
593.57	3899.33
593.73	3538.89
593.89	3204.19
594.05	2876.52
594.20	2410.75
594.36	2370.96
594.52	2242.23
594.68	2275.00
594.84	1933.28
594.99	1928.60
595.15	1874.77
595.31	1907.54
595.47	1933.28
595.62	1851.36
595.78	1867.75
595.94	1769.44
596.10	1886.47
596.25	1886.47
596.41	1907.54
596.57	1849.02
596.73	1888.81
596.88	1851.36
597.04	1902.86
597.20	1947.33
597.36	1980.09
597.51	1998.82
597.67	2059.67
597.83	2246.91
597.99	2303.09
598.14	2466.92
598.30	2513.74
598.46	2745.45
598.61	2771.19
598.77	2782.90
598.93	3007.59
599.09	3028.65
599.24	3141.00
599.40	3045.04
599.56	3038.02
599.71	2789.92
599.87	2757.15
600.03	2677.57
600.18	2434.16
600.34	2218.83
600.50	2179.04
600.65	1926.26
600.81	1977.75
600.97	1729.66
601.12	1664.12
601.28	1605.61
601.44	1640.72
601.59	1488.58
601.75	1432.41
601.91	1411.34
602.06	1390.28
602.22	1397.30
602.37	1355.17
602.53	1306.02
602.69	1235.80
602.84	1210.06
603.00	1210.06
603.16	1345.81
603.31	1366.87
603.47	1366.87
603.62	1315.38
603.78	1392.62
603.94	1383.26
604.09	1378.58
604.25	1441.77
604.40	1446.45
604.56	1483.90
604.71	1523.69
604.87	1497.94
605.03	1526.03
605.18	1607.95
605.34	1568.16
605.49	1612.63
605.65	1654.76
