SpectraSuite Data File
++++++++++++++++++++++++++++++++++++
Date: Fri Oct 04 11:42:16 GMT-05:00 2013
User: price-jones
Dark Spectrum Present: No
Reference Spectrum Present: No
Number of Sampled Component Spectra: 1
Spectrometers: USB2+H05261
Integration Time (usec): 100000 (USB2+H05261)
Spectra Averaged: 1 (USB2+H05261)
Boxcar Smoothing: 0 (USB2+H05261)
Correct for Electrical Dark: No (USB2+H05261)
Strobe/Lamp Enabled: No (USB2+H05261)
Correct for Detector Non-linearity: No (USB2+H05261)
Correct for Stray Light: No (USB2+H05261)
Number of Pixels in Processed Spectrum: 2048
>>>>>Begin Processed Spectral Data<<<<<
365.73	0.00
365.92	0.00
366.12	0.00
366.32	0.00
366.52	0.00
366.72	0.00
366.91	0.00
367.11	4.68
367.31	0.00
367.51	0.00
367.70	0.00
367.90	0.00
368.10	0.00
368.30	0.00
368.49	0.00
368.69	0.00
368.89	0.00
369.09	0.00
369.28	0.00
369.48	37.45
369.68	0.00
369.87	0.00
370.07	0.00
370.27	0.00
370.47	58.51
370.66	163.84
370.86	257.46
371.06	255.12
371.25	262.14
371.45	196.60
371.65	306.61
371.84	156.82
372.04	245.76
372.24	287.89
372.44	271.50
372.63	322.99
372.83	287.89
373.03	220.01
373.22	210.65
373.42	208.31
373.62	245.76
373.81	255.12
374.01	327.68
374.21	294.91
374.40	231.71
374.60	320.65
374.79	320.65
374.99	266.82
375.19	294.91
375.38	285.55
375.58	290.23
375.78	351.08
375.97	308.95
376.17	402.57
376.37	280.86
376.56	358.10
376.76	348.74
376.95	362.78
377.15	332.36
377.35	278.52
377.54	395.55
377.74	383.85
377.93	271.50
378.13	386.19
378.33	297.25
378.52	379.17
378.72	313.63
378.91	304.27
379.11	332.36
379.31	339.38
379.50	301.93
379.70	376.83
379.89	379.17
380.09	283.20
380.28	337.04
380.48	407.25
380.68	411.93
380.87	332.36
381.07	318.31
381.26	290.23
381.46	243.42
381.65	229.37
381.85	334.70
382.04	177.88
382.24	257.46
382.43	255.12
382.63	231.71
382.83	222.35
383.02	311.29
383.22	379.17
383.41	241.08
383.61	297.25
383.80	248.10
384.00	320.65
384.19	294.91
384.39	379.17
384.58	360.44
384.78	367.46
384.97	404.91
385.17	344.06
385.36	339.38
385.56	325.33
385.75	292.57
385.95	355.76
386.14	407.25
386.34	332.36
386.53	381.51
386.72	344.06
386.92	322.99
387.11	369.80
387.31	327.68
387.50	332.36
387.70	341.72
387.89	259.80
388.09	304.27
388.28	304.27
388.48	358.10
388.67	337.04
388.86	451.72
389.06	425.98
389.25	458.74
389.45	381.51
389.64	451.72
389.84	414.27
390.03	444.70
390.22	397.89
390.42	425.98
390.61	400.23
390.81	435.34
391.00	456.40
391.19	442.36
391.39	456.40
391.58	449.38
391.78	348.74
391.97	367.46
392.16	395.55
392.36	313.63
392.55	376.83
392.75	294.91
392.94	292.57
393.13	273.84
393.33	234.05
393.52	315.97
393.71	372.15
393.91	348.74
394.10	372.15
394.29	411.93
394.49	470.45
394.68	521.94
394.88	444.70
395.07	528.96
395.26	540.66
395.46	524.28
395.65	517.26
395.84	372.15
396.04	404.91
396.23	287.89
396.42	318.31
396.62	315.97
396.81	386.19
397.00	301.93
397.19	435.34
397.39	456.40
397.58	547.69
397.77	444.70
397.97	535.98
398.16	528.96
398.35	571.09
398.55	578.11
398.74	702.16
398.93	664.71
399.12	561.73
399.32	566.41
399.51	629.60
399.70	720.88
399.90	578.11
400.09	655.35
400.28	660.03
400.47	615.56
400.67	692.80
400.86	671.73
401.05	620.24
401.24	755.99
401.44	688.12
401.63	669.39
401.82	641.31
402.01	695.14
402.21	664.71
402.40	699.82
402.59	678.76
402.78	636.63
402.97	664.71
403.17	720.88
403.36	685.78
403.55	758.33
403.74	657.69
403.93	695.14
404.13	784.08
404.32	835.57
404.51	748.97
404.70	809.83
404.89	716.20
405.09	748.97
405.28	671.73
405.47	641.31
405.66	613.22
405.85	709.18
406.05	657.69
406.24	669.39
406.43	688.12
406.62	669.39
406.81	737.27
407.00	615.56
407.20	678.76
407.39	603.86
407.58	662.37
407.77	617.90
407.96	713.86
408.15	786.42
408.34	716.20
408.54	755.99
408.73	812.17
408.92	699.82
409.11	751.31
409.30	770.04
409.49	664.71
409.68	716.20
409.87	645.99
410.07	720.88
410.26	699.82
410.45	784.08
410.64	720.88
410.83	720.88
411.02	791.10
411.21	793.44
411.40	763.01
411.59	777.06
411.78	828.55
411.98	828.55
412.17	777.06
412.36	809.83
412.55	720.88
412.74	784.08
412.93	760.67
413.12	777.06
413.31	847.27
413.50	793.44
413.69	805.14
413.88	840.25
414.07	894.08
414.26	807.48
414.45	791.10
414.64	842.59
414.83	903.45
415.02	856.64
415.22	833.23
415.41	858.98
415.60	844.93
415.79	905.79
415.98	844.93
416.17	912.81
416.36	945.58
416.55	835.57
416.74	908.13
416.93	875.36
417.12	814.51
417.31	858.98
417.50	821.53
417.69	898.77
417.88	833.23
418.07	929.19
418.26	835.57
418.45	821.53
418.64	943.24
418.83	898.77
419.02	964.30
419.21	861.32
419.39	898.77
419.58	748.97
419.77	739.61
419.96	854.30
420.15	917.49
420.34	922.17
420.53	919.83
420.72	966.64
420.91	943.24
421.10	950.26
421.29	950.26
421.48	936.21
421.67	894.08
421.86	957.28
422.05	840.25
422.24	786.42
422.43	851.96
422.61	875.36
422.80	901.11
422.99	863.66
423.18	880.04
423.37	866.00
423.56	898.77
423.75	884.72
423.94	847.27
424.13	847.27
424.32	908.13
424.50	807.48
424.69	884.72
424.88	814.51
425.07	847.27
425.26	917.49
425.45	854.30
425.64	851.96
425.83	812.17
426.01	866.00
426.20	910.47
426.39	957.28
426.58	772.38
426.77	716.20
426.96	732.59
427.15	734.93
427.33	748.97
427.52	858.98
427.71	823.87
427.90	791.10
428.09	805.14
428.28	763.01
428.46	821.53
428.65	821.53
428.84	882.38
429.03	863.66
429.22	788.76
429.40	711.52
429.59	660.03
429.78	667.05
429.97	631.94
430.16	554.71
430.34	610.88
430.53	671.73
430.72	671.73
430.91	727.91
431.10	737.27
431.28	936.21
431.47	1043.88
431.66	933.87
431.85	854.30
432.03	870.68
432.22	880.04
432.41	866.00
432.60	966.64
432.79	957.28
432.97	976.00
433.16	891.74
433.35	889.40
433.54	732.59
433.72	805.14
433.91	837.91
434.10	940.90
434.28	1053.24
434.47	952.60
434.66	990.05
434.85	978.34
435.03	992.39
435.22	1373.89
435.41	1666.46
435.59	1781.15
435.78	1549.43
435.97	1315.38
436.16	1200.69
436.34	1064.94
436.53	976.00
436.72	1015.79
436.90	976.00
437.09	940.90
437.28	999.41
437.46	940.90
437.65	1001.75
437.84	961.96
438.02	868.34
438.21	828.55
438.40	856.64
438.58	957.28
438.77	931.53
438.96	1008.77
439.14	1013.45
439.33	1093.03
439.52	1102.39
439.70	1018.13
439.89	992.39
440.08	1055.58
440.26	994.73
440.45	1022.81
440.63	1020.47
440.82	1043.88
441.01	1050.90
441.19	1022.81
441.38	1074.31
441.57	1184.31
441.75	1135.16
441.94	1181.97
442.12	1097.71
442.31	1125.80
442.50	1088.35
442.68	1172.61
442.87	1111.75
443.05	1109.41
443.24	1041.54
443.43	1196.01
443.61	1203.04
443.80	1200.69
443.98	1160.91
444.17	1088.35
444.35	1184.31
444.54	1121.12
444.73	1203.04
444.91	1116.44
445.10	1050.90
445.28	1100.05
445.47	1048.56
445.65	1104.73
445.84	1081.33
446.02	1170.27
446.21	1188.99
446.39	1060.26
446.58	1142.18
446.77	1123.46
446.95	1172.61
447.14	1165.59
447.32	1181.97
447.51	1252.19
447.69	1174.95
447.88	1142.18
448.06	1130.48
448.25	1200.69
448.43	1226.44
448.62	1156.22
448.80	1214.74
448.99	1196.01
449.17	1121.12
449.36	1170.27
449.54	1167.93
449.73	1205.38
449.91	1254.53
450.10	1320.06
450.28	1329.42
450.46	1338.79
450.65	1320.06
450.83	1327.08
451.02	1254.53
451.20	1228.78
451.39	1242.82
451.57	1233.46
451.76	1240.48
451.94	1282.61
452.13	1355.17
452.31	1153.88
452.49	1163.25
452.68	1083.67
452.86	1121.12
453.05	1163.25
453.23	1114.10
453.42	1214.74
453.60	1249.85
453.78	1097.71
453.97	1224.10
454.15	1245.16
454.34	1144.52
454.52	1193.67
454.70	1165.59
454.89	1151.54
455.07	1181.97
455.26	1179.63
455.44	1214.74
455.62	1266.23
455.81	1324.74
455.99	1214.74
456.17	1306.02
456.36	1214.74
456.54	1247.51
456.73	1207.72
456.91	1242.82
457.09	1188.99
457.28	1378.58
457.46	1303.68
457.64	1240.48
457.83	1231.12
458.01	1214.74
458.19	1296.66
458.38	1217.08
458.56	1327.08
458.74	1282.61
458.93	1270.91
459.11	1331.76
459.29	1338.79
459.48	1299.00
459.66	1313.04
459.84	1296.66
460.03	1341.13
460.21	1362.19
460.39	1315.38
460.57	1355.17
460.76	1231.12
460.94	1329.42
461.12	1303.68
461.31	1313.04
461.49	1284.95
461.67	1263.89
461.85	1362.19
462.04	1343.47
462.22	1406.66
462.40	1313.04
462.59	1331.76
462.77	1273.25
462.95	1371.55
463.13	1327.08
463.32	1359.85
463.50	1369.21
463.68	1406.66
463.86	1299.00
464.05	1273.25
464.23	1378.58
464.41	1331.76
464.59	1238.14
464.78	1233.46
464.96	1249.85
465.14	1224.10
465.32	1268.57
465.50	1245.16
465.69	1383.26
465.87	1291.98
466.05	1406.66
466.23	1240.48
466.41	1196.01
466.60	1240.48
466.78	1179.63
466.96	1249.85
467.14	1174.95
467.32	1287.29
467.51	1277.93
467.69	1242.82
467.87	1228.78
468.05	1341.13
468.23	1303.68
468.41	1338.79
468.60	1277.93
468.78	1299.00
468.96	1385.60
469.14	1366.87
469.32	1310.70
469.50	1214.74
469.69	1259.21
469.87	1254.53
470.05	1226.44
470.23	1231.12
470.41	1306.02
470.59	1203.04
470.77	1315.38
470.95	1249.85
471.14	1273.25
471.32	1320.06
471.50	1385.60
471.68	1366.87
471.86	1362.19
472.04	1357.51
472.22	1336.45
472.40	1294.32
472.58	1355.17
472.77	1287.29
472.95	1322.40
473.13	1308.36
473.31	1315.38
473.49	1277.93
473.67	1348.15
473.85	1315.38
474.03	1409.00
474.21	1444.11
474.39	1420.71
474.57	1516.67
474.75	1378.58
474.93	1392.62
475.12	1448.79
475.30	1390.28
475.48	1376.24
475.66	1343.47
475.84	1448.79
476.02	1406.66
476.20	1451.13
476.38	1416.02
476.56	1446.45
476.74	1411.34
476.92	1430.07
477.10	1481.56
477.28	1469.86
477.46	1444.11
477.64	1514.33
477.82	1458.15
478.00	1549.43
478.18	1479.22
478.36	1565.82
478.54	1504.96
478.72	1448.79
478.90	1509.65
479.08	1481.56
479.26	1596.25
479.44	1570.50
479.62	1701.57
479.80	1526.03
479.98	1596.25
480.16	1526.03
480.34	1533.05
480.52	1591.56
480.70	1638.38
480.88	1565.82
481.06	1582.20
481.24	1612.63
481.41	1600.93
481.59	1710.93
481.77	1717.95
481.95	1729.66
482.13	1778.81
482.31	1671.14
482.49	1624.33
482.67	1715.61
482.85	1710.93
483.03	1689.87
483.21	1818.60
483.39	1760.08
483.57	1799.87
483.74	1834.98
483.92	1757.74
484.10	1727.32
484.28	1734.34
484.46	1746.04
484.64	1713.27
484.82	1739.02
485.00	1736.68
485.18	1757.74
485.35	1778.81
485.53	1631.35
485.71	1607.95
485.89	1516.67
486.07	1563.48
486.25	1605.61
486.43	1673.48
486.61	1842.00
486.78	1734.34
486.96	1713.27
487.14	1872.43
487.32	1914.56
487.50	1832.64
487.68	1926.26
487.85	2019.88
488.03	1987.11
488.21	1984.77
488.39	1994.14
488.57	1891.15
488.75	1863.07
488.92	2129.89
489.10	2167.34
489.28	2139.25
489.46	2026.90
489.64	2127.55
489.81	2146.27
489.99	2127.55
490.17	2125.21
490.35	2237.55
490.53	2022.22
490.70	2071.37
490.88	2150.95
491.06	2136.91
491.24	2083.08
491.41	2111.16
491.59	2073.71
491.77	1982.43
491.95	2012.86
492.13	2050.31
492.30	2239.89
492.48	2153.29
492.66	2209.47
492.84	2132.23
493.01	2221.17
493.19	2101.80
493.37	2169.68
493.54	2104.14
493.72	2267.98
493.90	2293.72
494.08	2305.43
494.25	2225.85
494.43	2340.54
494.61	2230.53
494.79	2338.20
494.96	2300.75
495.14	2307.77
495.32	2303.09
495.49	2160.31
495.67	2319.47
495.85	2345.22
496.02	2300.75
496.20	2385.01
496.38	2232.87
496.55	2326.49
496.73	2342.88
496.91	2359.26
497.09	2396.71
497.26	2347.56
497.44	2363.94
497.62	2246.91
497.79	2265.64
497.97	2136.91
498.14	2090.10
498.32	2298.41
498.50	2352.24
498.67	2356.92
498.85	2492.67
499.03	2443.52
499.20	2417.77
499.38	2279.68
499.56	2270.32
499.73	2310.11
499.91	2361.60
500.08	2382.67
500.26	2272.66
500.44	2370.96
500.61	2253.94
500.79	2375.64
500.97	2270.32
501.14	2244.57
501.32	2284.36
501.49	2181.38
501.67	2143.93
501.84	2331.17
502.02	2230.53
502.20	2415.43
502.37	2340.54
502.55	2352.24
502.72	2363.94
502.90	2385.01
503.07	2256.28
503.25	2303.09
503.43	2190.74
503.60	2083.08
503.78	2139.25
503.95	2078.40
504.13	2275.00
504.30	2366.28
504.48	2324.15
504.65	2359.26
504.83	2326.49
505.01	2399.05
505.18	2394.37
505.36	2478.63
505.53	2443.52
505.71	2516.08
505.88	2534.80
506.06	2443.52
506.23	2408.41
506.41	2401.39
506.58	2333.51
506.76	2363.94
506.93	2333.51
507.11	2298.41
507.28	2441.18
507.46	2265.64
507.63	2291.38
507.81	2317.13
507.98	2347.56
508.16	2265.64
508.33	2406.07
508.50	2527.78
508.68	2438.84
508.85	2480.97
509.03	2431.82
509.20	2392.03
509.38	2452.88
509.55	2572.25
509.73	2471.61
509.90	2452.88
510.08	2370.96
510.25	2541.82
510.42	2462.24
510.60	2462.24
510.77	2403.73
510.95	2483.31
511.12	2539.48
511.30	2579.27
511.47	2553.52
511.64	2590.97
511.82	2663.53
511.99	2473.95
512.17	2427.14
512.34	2399.05
512.51	2417.77
512.69	2485.65
512.86	2490.33
513.04	2429.48
513.21	2431.82
513.38	2469.27
513.56	2420.11
513.73	2368.62
513.90	2394.37
514.08	2347.56
514.25	2415.43
514.43	2403.73
514.60	2260.96
514.77	2457.56
514.95	2469.27
515.12	2338.20
515.29	2370.96
515.47	2476.29
515.64	2588.63
515.81	2567.57
515.99	2497.35
516.16	2361.60
516.33	2239.89
516.51	2054.99
516.68	2073.71
516.85	1891.15
517.03	1956.69
517.20	2153.29
517.37	2417.77
517.54	2527.78
517.72	2401.39
517.89	2235.21
518.06	2087.76
518.24	2108.82
518.41	2251.60
518.58	2429.48
518.75	2340.54
518.93	2326.49
519.10	2326.49
519.27	2396.71
519.45	2455.22
519.62	2450.54
519.79	2605.02
519.96	2511.39
520.14	2509.05
520.31	2373.30
520.48	2335.85
520.65	2462.24
520.83	2462.24
521.00	2518.42
521.17	2471.61
521.34	2347.56
521.52	2579.27
521.69	2520.76
521.86	2630.76
522.03	2495.01
522.20	2392.03
522.38	2438.84
522.55	2363.94
522.72	2242.23
522.89	2354.58
523.07	2492.67
523.24	2452.88
523.41	2518.42
523.58	2441.18
523.75	2492.67
523.92	2518.42
524.10	2572.25
524.27	2509.05
524.44	2562.89
524.61	2686.94
524.78	2567.57
524.96	2658.85
525.13	2560.55
525.30	2633.10
525.47	2663.53
525.64	2436.50
525.81	2612.04
525.98	2389.69
526.16	2342.88
526.33	2200.10
526.50	2204.78
526.67	2284.36
526.84	2253.94
527.01	2370.96
527.18	2314.79
527.36	2410.75
527.53	2525.44
527.70	2527.78
527.87	2401.39
528.04	2490.33
528.21	2513.74
528.38	2518.42
528.55	2614.38
528.72	2670.55
528.89	2663.53
529.07	2696.30
529.24	2588.63
529.41	2492.67
529.58	2527.78
529.75	2459.90
529.92	2502.03
530.09	2588.63
530.26	2654.17
530.43	2574.59
530.60	2684.59
530.77	2551.18
530.94	2551.18
531.11	2600.34
531.28	2579.27
531.46	2518.42
531.63	2649.49
531.80	2555.86
531.97	2562.89
532.14	2424.80
532.31	2375.64
532.48	2333.51
532.65	2373.30
532.82	2452.88
532.99	2480.97
533.16	2483.31
533.33	2476.29
533.50	2520.76
533.67	2553.52
533.84	2429.48
534.01	2602.68
534.18	2595.65
534.35	2581.61
534.52	2502.03
534.69	2490.33
534.86	2649.49
535.03	2597.99
535.20	2457.56
535.37	2691.62
535.54	2726.72
535.71	2719.70
535.88	2539.48
536.05	2560.55
536.22	2532.46
536.38	2612.04
536.55	2502.03
536.72	2466.92
536.89	2476.29
537.06	2546.50
537.23	2569.91
537.40	2551.18
537.57	2579.27
537.74	2693.96
537.91	2616.72
538.08	2691.62
538.25	2614.38
538.42	2478.63
538.59	2597.99
538.75	2555.86
538.92	2658.85
539.09	2644.81
539.26	2490.33
539.43	2654.17
539.60	2761.83
539.77	2696.30
539.94	2761.83
540.11	2633.10
540.28	2715.02
540.44	2710.34
540.61	2715.02
540.78	2745.45
540.95	2979.50
541.12	3131.64
541.29	3192.49
541.46	3262.71
541.62	3293.13
541.79	3178.45
541.96	3040.36
542.13	3157.38
542.30	3150.36
542.47	3047.38
542.63	3169.09
542.80	2904.60
542.97	3169.09
543.14	2906.95
543.31	2991.20
543.48	3077.80
543.64	3087.17
543.81	3049.72
543.98	3047.38
544.15	3016.95
544.32	3040.36
544.48	3101.21
544.65	3148.02
544.82	3042.70
544.99	2904.60
545.16	3056.74
545.32	2928.01
545.49	3590.38
545.66	4229.35
545.83	4711.50
546.00	4528.94
546.16	3840.82
546.33	3379.73
546.50	3141.00
546.67	2974.82
546.83	2906.95
547.00	2815.66
547.17	2820.35
547.34	2825.03
547.50	2780.56
547.67	2677.57
547.84	2775.88
548.00	2747.79
548.17	2649.49
548.34	2743.11
548.51	2857.79
548.67	2768.85
548.84	2740.77
549.01	2787.58
549.18	2693.96
549.34	2719.70
549.51	2759.49
549.68	2626.08
549.84	2593.31
550.01	2572.25
550.18	2693.96
550.34	2743.11
550.51	2621.40
550.68	2607.36
550.84	2558.21
551.01	2523.10
551.18	2450.54
551.34	2518.42
551.51	2450.54
551.68	2590.97
551.84	2590.97
552.01	2679.91
552.18	2473.95
552.34	2476.29
552.51	2415.43
552.68	2445.86
552.84	2424.80
553.01	2361.60
553.18	2548.84
553.34	2483.31
553.51	2408.41
553.67	2560.55
553.84	2466.92
554.01	2380.32
554.17	2509.05
554.34	2527.78
554.51	2513.74
554.67	2516.08
554.84	2572.25
555.00	2450.54
555.17	2518.42
555.33	2509.05
555.50	2462.24
555.67	2366.28
555.83	2310.11
556.00	2401.39
556.16	2469.27
556.33	2389.69
556.50	2401.39
556.66	2363.94
556.83	2279.68
556.99	2293.72
557.16	2366.28
557.32	2314.79
557.49	2438.84
557.65	2237.55
557.82	2387.35
557.98	2326.49
558.15	2326.49
558.32	2267.98
558.48	2174.36
558.65	2174.36
558.81	2284.36
558.98	2270.32
559.14	2251.60
559.31	2246.91
559.47	2157.97
559.64	2118.18
559.80	2172.02
559.97	2155.63
560.13	2190.74
560.30	2291.38
560.46	2321.81
560.63	2436.50
560.79	2321.81
560.96	2326.49
561.12	2232.87
561.29	2286.70
561.45	2331.17
561.61	2345.22
561.78	2263.30
561.94	2204.78
562.11	2204.78
562.27	2155.63
562.44	2207.13
562.60	2300.75
562.77	2289.04
562.93	2368.62
563.10	2293.72
563.26	2211.81
563.42	2267.98
563.59	2242.23
563.75	2218.83
563.92	2239.89
564.08	2190.74
564.24	2246.91
564.41	2349.90
564.57	2162.66
564.74	2263.30
564.90	2258.62
565.07	2225.85
565.23	2162.66
565.39	2111.16
565.56	2113.50
565.72	2211.81
565.88	2143.93
566.05	2106.48
566.21	2057.33
566.38	2104.14
566.54	2207.13
566.70	2097.12
566.87	2125.21
567.03	2169.68
567.19	2249.25
567.36	2214.15
567.52	2202.44
567.68	2235.21
567.85	2134.57
568.01	2129.89
568.17	2038.61
568.34	2005.84
568.50	2038.61
568.66	2104.14
568.83	2108.82
568.99	2064.35
569.15	2045.63
569.32	2085.42
569.48	2052.65
569.64	2071.37
569.81	2031.58
569.97	2108.82
570.13	1980.09
570.30	2022.22
570.46	1952.01
570.62	1856.04
570.78	1996.48
570.95	1952.01
571.11	1975.41
571.27	2012.86
571.43	1975.41
571.60	2012.86
571.76	1968.39
571.92	2076.06
572.09	2064.35
572.25	1994.14
572.41	2038.61
572.57	2036.27
572.74	2085.42
572.90	2064.35
573.06	2132.23
573.22	1935.62
573.38	2150.95
573.55	2038.61
573.71	2127.55
573.87	2012.86
574.03	2024.56
574.20	2050.31
574.36	1905.20
574.52	1994.14
574.68	1996.48
574.84	2003.50
575.01	1851.36
575.17	1895.83
575.33	1930.94
575.49	2050.31
575.65	1984.77
575.82	2047.97
575.98	2036.27
576.14	2040.95
576.30	2108.82
576.46	2230.53
576.62	2270.32
576.79	2401.39
576.95	2321.81
577.11	2150.95
577.27	2024.56
577.43	2064.35
577.59	1930.94
577.75	2080.74
577.92	1994.14
578.08	1872.43
578.24	1956.69
578.40	2073.71
578.56	2200.10
578.72	2195.42
578.88	2401.39
579.04	2270.32
579.21	2197.76
579.37	2150.95
579.53	2015.20
579.69	2038.61
579.85	2087.76
580.01	2155.63
580.17	2087.76
580.33	2092.44
580.49	1980.09
580.65	2071.37
580.82	2066.69
580.98	2022.22
581.14	2012.86
581.30	2129.89
581.46	2122.87
581.62	2169.68
581.78	2083.08
581.94	2251.60
582.10	2115.84
582.26	2022.22
582.42	2139.25
582.58	2139.25
582.74	2038.61
582.90	2101.80
583.06	2136.91
583.22	2057.33
583.38	2153.29
583.54	2076.06
583.70	2078.40
583.86	2218.83
584.02	2064.35
584.18	2108.82
584.34	2092.44
584.50	2057.33
584.66	2118.18
584.82	2176.70
584.98	2076.06
585.14	1930.94
585.30	2003.50
585.46	2047.97
585.62	2015.20
585.78	2012.86
585.94	2085.42
586.10	2054.99
586.26	1980.09
586.42	2078.40
586.58	2045.63
586.74	2069.03
586.90	2127.55
587.06	2085.42
587.22	2106.48
587.38	2064.35
587.54	1942.64
587.70	2008.18
587.86	1891.15
588.02	1809.23
588.18	1722.63
588.34	1785.83
588.49	1502.62
588.65	1523.69
588.81	1493.26
588.97	1411.34
589.13	1483.90
589.29	1528.37
589.45	1486.24
589.61	1565.82
589.77	1586.88
589.93	1556.46
590.08	1626.67
590.24	1715.61
590.40	1626.67
590.56	1818.60
590.72	1732.00
590.88	1654.76
591.04	1619.65
591.20	1717.95
591.35	1664.12
591.51	1647.74
591.67	1603.27
591.83	1682.85
591.99	1699.23
592.15	1720.29
592.31	1809.23
592.46	1764.76
592.62	1809.23
592.78	1844.34
592.94	1827.96
593.10	1905.20
593.26	1923.92
593.41	1769.44
593.57	1888.81
593.73	1727.32
593.89	1596.25
594.05	1589.22
594.20	1729.66
594.36	1661.78
594.52	1558.80
594.68	1455.81
594.84	1612.63
594.99	1652.42
595.15	1675.82
595.31	1734.34
595.47	1558.80
595.62	1621.99
595.78	1713.27
595.94	1732.00
596.10	1743.70
596.25	1771.79
596.41	1753.06
596.57	1631.35
596.73	1717.95
596.88	1746.04
597.04	1696.89
597.20	1640.72
597.36	1823.28
597.51	1678.16
597.67	1687.53
597.83	1729.66
597.99	1720.29
598.14	1741.36
598.30	1722.63
598.46	1724.97
598.61	1673.48
598.77	1650.08
598.93	1643.06
599.09	1797.53
599.24	1769.44
599.40	1872.43
599.56	1877.11
599.71	1811.57
599.87	1851.36
600.03	1790.51
600.18	1743.70
