SpectraSuite Data File
++++++++++++++++++++++++++++++++++++
Date: Fri Oct 04 11:42:21 GMT-05:00 2013
User: price-jones
Dark Spectrum Present: No
Reference Spectrum Present: No
Number of Sampled Component Spectra: 1
Spectrometers: USB2+H05261
Integration Time (usec): 100000 (USB2+H05261)
Spectra Averaged: 1 (USB2+H05261)
Boxcar Smoothing: 0 (USB2+H05261)
Correct for Electrical Dark: No (USB2+H05261)
Strobe/Lamp Enabled: No (USB2+H05261)
Correct for Detector Non-linearity: No (USB2+H05261)
Correct for Stray Light: No (USB2+H05261)
Number of Pixels in Processed Spectrum: 2048
>>>>>Begin Processed Spectral Data<<<<<
365.73	72.56
365.92	72.56
366.12	72.56
366.32	0.00
366.52	0.00
366.72	0.00
366.91	0.00
367.11	0.00
367.31	0.00
367.51	0.00
367.70	0.00
367.90	0.00
368.10	0.00
368.30	0.00
368.49	0.00
368.69	0.00
368.89	0.00
369.09	0.00
369.28	0.00
369.48	0.00
369.68	0.00
369.87	0.00
370.07	0.00
370.27	65.54
370.47	35.11
370.66	0.00
370.86	60.85
371.06	100.64
371.25	77.24
371.45	74.90
371.65	135.75
371.84	18.72
372.04	4.68
372.24	56.17
372.44	23.41
372.63	81.92
372.83	147.45
373.03	152.13
373.22	117.03
373.42	37.45
373.62	110.01
373.81	142.77
374.01	56.17
374.21	201.29
374.40	79.58
374.60	145.11
374.79	131.07
374.99	119.37
375.19	145.11
375.38	161.50
375.58	133.41
375.78	105.32
375.97	102.98
376.17	161.50
376.37	117.03
376.56	184.90
376.76	110.01
376.95	63.19
377.15	117.03
377.35	95.96
377.54	100.64
377.74	124.05
377.93	107.66
378.13	86.60
378.33	173.20
378.52	145.11
378.72	152.13
378.91	196.60
379.11	46.81
379.31	77.24
379.50	133.41
379.70	152.13
379.89	112.35
380.09	102.98
380.28	95.96
380.48	93.62
380.68	107.66
380.87	142.77
381.07	163.84
381.26	119.37
381.46	140.43
381.65	93.62
381.85	105.32
382.04	86.60
382.24	170.86
382.43	142.77
382.63	117.03
382.83	131.07
383.02	189.58
383.22	107.66
383.41	81.92
383.61	135.75
383.80	128.73
384.00	86.60
384.19	107.66
384.39	131.07
384.58	93.62
384.78	135.75
384.97	93.62
385.17	175.54
385.36	112.35
385.56	131.07
385.75	133.41
385.95	119.37
386.14	163.84
386.34	79.58
386.53	133.41
386.72	105.32
386.92	135.75
387.11	191.92
387.31	114.69
387.50	100.64
387.70	107.66
387.89	77.24
388.09	91.28
388.28	117.03
388.48	53.83
388.67	135.75
388.86	102.98
389.06	133.41
389.25	107.66
389.45	126.39
389.64	124.05
389.84	180.22
390.03	168.52
390.22	203.63
390.42	91.28
390.61	112.35
390.81	121.71
391.00	133.41
391.19	177.88
391.39	194.26
391.58	140.43
391.78	79.58
391.97	51.49
392.16	126.39
392.36	159.16
392.55	91.28
392.75	46.81
392.94	53.83
393.13	189.58
393.33	119.37
393.52	72.56
393.71	102.98
393.91	124.05
394.10	159.16
394.29	154.48
394.49	112.35
394.68	114.69
394.88	191.92
395.07	161.50
395.26	88.94
395.46	81.92
395.65	170.86
395.84	112.35
396.04	163.84
396.23	37.45
396.42	133.41
396.62	128.73
396.81	124.05
397.00	180.22
397.19	88.94
397.39	187.24
397.58	114.69
397.77	147.45
397.97	142.77
398.16	149.79
398.35	156.82
398.55	86.60
398.74	77.24
398.93	201.29
399.12	154.48
399.32	142.77
399.51	170.86
399.70	191.92
399.90	152.13
400.09	81.92
400.28	156.82
400.47	196.60
400.67	77.24
400.86	102.98
401.05	149.79
401.24	105.32
401.44	37.45
401.63	138.09
401.82	117.03
402.01	105.32
402.21	121.71
402.40	100.64
402.59	168.52
402.78	175.54
402.97	180.22
403.17	131.07
403.36	245.76
403.55	182.56
403.74	402.57
403.93	1392.62
404.13	2846.09
404.32	3559.95
404.51	2890.56
404.70	1694.55
404.89	631.94
405.09	353.42
405.28	189.58
405.47	220.01
405.66	138.09
405.85	175.54
406.05	170.86
406.24	166.18
406.43	159.16
406.62	173.20
406.81	238.73
407.00	273.84
407.20	482.15
407.39	463.43
407.58	554.71
407.77	383.85
407.96	269.16
408.15	203.63
408.34	217.67
408.54	205.97
408.73	227.03
408.92	114.69
409.11	114.69
409.30	105.32
409.49	110.01
409.68	131.07
409.87	180.22
410.07	140.43
410.26	119.37
410.45	205.97
410.64	184.90
410.83	196.60
411.02	173.20
411.21	182.56
411.40	198.95
411.59	119.37
411.78	131.07
411.98	173.20
412.17	161.50
412.36	198.95
412.55	140.43
412.74	105.32
412.93	217.67
413.12	163.84
413.31	173.20
413.50	231.71
413.69	170.86
413.88	154.48
414.07	156.82
414.26	119.37
414.45	166.18
414.64	170.86
414.83	175.54
415.02	196.60
415.22	248.10
415.41	191.92
415.60	189.58
415.79	245.76
415.98	215.33
416.17	142.77
416.36	175.54
416.55	173.20
416.74	224.69
416.93	182.56
417.12	173.20
417.31	201.29
417.50	147.45
417.69	128.73
417.88	220.01
418.07	149.79
418.26	191.92
418.45	161.50
418.64	112.35
418.83	220.01
419.02	271.50
419.21	170.86
419.39	215.33
419.58	121.71
419.77	173.20
419.96	283.20
420.15	276.18
420.34	166.18
420.53	234.05
420.72	201.29
420.91	198.95
421.10	159.16
421.29	227.03
421.48	241.08
421.67	210.65
421.86	227.03
422.05	212.99
422.24	201.29
422.43	255.12
422.61	222.35
422.80	163.84
422.99	273.84
423.18	212.99
423.37	299.59
423.56	198.95
423.75	276.18
423.94	224.69
424.13	168.52
424.32	189.58
424.50	271.50
424.69	161.50
424.88	217.67
425.07	194.26
425.26	208.31
425.45	201.29
425.64	278.52
425.83	238.73
426.01	259.80
426.20	224.69
426.39	266.82
426.58	196.60
426.77	297.25
426.96	215.33
427.15	243.42
427.33	198.95
427.52	227.03
427.71	264.48
427.90	255.12
428.09	163.84
428.28	224.69
428.46	304.27
428.65	285.55
428.84	220.01
429.03	273.84
429.22	262.14
429.40	182.56
429.59	245.76
429.78	271.50
429.97	227.03
430.16	212.99
430.34	198.95
430.53	229.37
430.72	313.63
430.91	280.86
431.10	210.65
431.28	287.89
431.47	229.37
431.66	243.42
431.85	245.76
432.03	273.84
432.22	311.29
432.41	315.97
432.60	315.97
432.79	224.69
432.97	327.68
433.16	332.36
433.35	318.31
433.54	346.40
433.72	433.00
433.91	430.66
434.10	416.62
434.28	538.32
434.47	543.00
434.66	613.22
434.85	748.97
435.03	2347.56
435.22	7929.74
435.41	15040.28
435.59	13970.66
435.78	9013.40
435.97	4517.23
436.16	1792.85
436.34	746.63
436.53	519.60
436.72	451.72
436.90	327.68
437.09	339.38
437.28	322.99
437.46	400.23
437.65	262.14
437.84	318.31
438.02	325.33
438.21	360.44
438.40	365.12
438.58	257.46
438.77	355.76
438.96	280.86
439.14	301.93
439.33	304.27
439.52	278.52
439.70	290.23
439.89	355.76
440.08	257.46
440.26	266.82
440.45	264.48
440.63	365.12
440.82	322.99
441.01	306.61
441.19	292.57
441.38	353.42
441.57	325.33
441.75	297.25
441.94	341.72
442.12	325.33
442.31	285.55
442.50	243.42
442.68	327.68
442.87	285.55
443.05	320.65
443.24	367.46
443.43	351.08
443.61	292.57
443.80	278.52
443.98	280.86
444.17	266.82
444.35	334.70
444.54	280.86
444.73	285.55
444.91	299.59
445.10	217.67
445.28	322.99
445.47	395.55
445.65	294.91
445.84	290.23
446.02	318.31
446.21	262.14
446.39	301.93
446.58	299.59
446.77	334.70
446.95	264.48
447.14	229.37
447.32	344.06
447.51	283.20
447.69	227.03
447.88	269.16
448.06	365.12
448.25	320.65
448.43	241.08
448.62	334.70
448.80	346.40
448.99	287.89
449.17	313.63
449.36	278.52
449.54	358.10
449.73	255.12
449.91	290.23
450.10	287.89
450.28	388.53
450.46	388.53
450.65	271.50
450.83	322.99
451.02	241.08
451.20	315.97
451.39	365.12
451.57	278.52
451.76	301.93
451.94	257.46
452.13	245.76
452.31	337.04
452.49	229.37
452.68	280.86
452.86	257.46
453.05	362.78
453.23	294.91
453.42	285.55
453.60	362.78
453.78	313.63
453.97	271.50
454.15	248.10
454.34	325.33
454.52	255.12
454.70	227.03
454.89	273.84
455.07	271.50
455.26	301.93
455.44	301.93
455.62	283.20
455.81	294.91
455.99	299.59
456.17	313.63
456.36	299.59
456.54	287.89
456.73	259.80
456.91	227.03
457.09	311.29
457.28	381.51
457.46	222.35
457.64	362.78
457.83	273.84
458.01	299.59
458.19	236.39
458.38	322.99
458.56	290.23
458.74	255.12
458.93	292.57
459.11	278.52
459.29	299.59
459.48	294.91
459.66	271.50
459.84	355.76
460.03	390.87
460.21	330.02
460.39	285.55
460.57	299.59
460.76	283.20
460.94	341.72
461.12	322.99
461.31	330.02
461.49	292.57
461.67	330.02
461.85	397.89
462.04	313.63
462.22	362.78
462.40	318.31
462.59	301.93
462.77	266.82
462.95	348.74
463.13	222.35
463.32	315.97
463.50	311.29
463.68	376.83
463.86	322.99
464.05	290.23
464.23	271.50
464.41	374.49
464.59	358.10
464.78	320.65
464.96	271.50
465.14	301.93
465.32	351.08
465.50	308.95
465.69	271.50
465.87	224.69
466.05	278.52
466.23	248.10
466.41	320.65
466.60	334.70
466.78	308.95
466.96	306.61
467.14	322.99
467.32	376.83
467.51	325.33
467.69	337.04
467.87	332.36
468.05	262.14
468.23	301.93
468.41	220.01
468.60	339.38
468.78	224.69
468.96	287.89
469.14	262.14
469.32	318.31
469.50	273.84
469.69	276.18
469.87	339.38
470.05	243.42
470.23	285.55
470.41	191.92
470.59	306.61
470.77	353.42
470.95	245.76
471.14	332.36
471.32	269.16
471.50	318.31
471.68	283.20
471.86	355.76
472.04	257.46
472.22	358.10
472.40	362.78
472.58	255.12
472.77	229.37
472.95	287.89
473.13	278.52
473.31	332.36
473.49	311.29
473.67	304.27
473.85	276.18
474.03	285.55
474.21	379.17
474.39	266.82
474.57	311.29
474.75	257.46
474.93	327.68
475.12	292.57
475.30	290.23
475.48	290.23
475.66	217.67
475.84	273.84
476.02	315.97
476.20	315.97
476.38	255.12
476.56	454.06
476.74	273.84
476.92	306.61
477.10	238.73
477.28	388.53
477.46	372.15
477.64	332.36
477.82	365.12
478.00	252.78
478.18	315.97
478.36	351.08
478.54	241.08
478.72	248.10
478.90	325.33
479.08	266.82
479.26	304.27
479.44	346.40
479.62	376.83
479.80	339.38
479.98	383.85
480.16	320.65
480.34	393.21
480.52	320.65
480.70	397.89
480.88	348.74
481.06	421.30
481.24	421.30
481.41	411.93
481.59	507.90
481.77	566.41
481.95	589.82
482.13	610.88
482.31	550.03
482.49	552.37
482.67	685.78
482.85	807.48
483.03	744.29
483.21	765.36
483.39	812.17
483.57	763.01
483.74	917.49
483.92	863.66
484.10	933.87
484.28	978.34
484.46	1083.67
484.64	1160.91
484.82	1177.29
485.00	1231.12
485.18	1291.98
485.35	1357.51
485.53	1261.55
485.71	1437.09
485.89	1441.77
486.07	1390.28
486.25	1549.43
486.43	1533.05
486.61	1500.28
486.78	1533.05
486.96	1542.41
487.14	1603.27
487.32	1479.22
487.50	1469.86
487.68	1486.24
487.85	1507.30
488.03	1371.55
488.21	1472.20
488.39	1359.85
488.57	1366.87
488.75	1394.96
488.92	1563.48
489.10	1310.70
489.28	1327.08
489.46	1266.23
489.64	1280.27
489.81	1174.95
489.99	1205.38
490.17	1181.97
490.35	1242.82
490.53	1167.93
490.70	1205.38
490.88	1249.85
491.06	1345.81
491.24	1378.58
491.41	1355.17
491.59	1277.93
491.77	1144.52
491.95	1093.03
492.13	1029.84
492.30	1036.86
492.48	1142.18
492.66	1097.71
492.84	1083.67
493.01	1053.24
493.19	1104.73
493.37	1100.05
493.54	1039.20
493.72	877.70
493.90	938.55
494.08	973.66
494.25	999.41
494.43	980.68
494.61	929.19
494.79	891.74
494.96	884.72
495.14	992.39
495.32	861.32
495.49	847.27
495.67	882.38
495.85	847.27
496.02	840.25
496.20	875.36
496.38	842.59
496.55	807.48
496.73	842.59
496.91	809.83
497.09	826.21
497.26	730.25
497.44	727.91
497.62	711.52
497.79	713.86
497.97	653.01
498.14	739.61
498.32	760.67
498.50	671.73
498.67	585.13
498.85	622.58
499.03	648.33
499.20	718.54
499.38	585.13
499.56	531.30
499.73	660.03
499.91	641.31
500.08	636.63
500.26	500.87
500.44	592.16
500.61	575.77
500.79	491.51
500.97	592.16
501.14	575.77
501.32	599.18
501.49	535.98
501.67	561.73
501.84	498.53
502.02	425.98
502.20	578.11
502.37	451.72
502.55	367.46
502.72	451.72
502.90	428.32
503.07	449.38
503.25	461.09
503.43	299.59
503.60	489.17
503.78	475.13
503.95	423.64
504.13	465.77
504.30	393.21
504.48	365.12
504.65	374.49
504.83	351.08
505.01	367.46
505.18	360.44
505.36	360.44
505.53	423.64
505.71	444.70
505.88	376.83
506.06	372.15
506.23	315.97
506.41	301.93
506.58	301.93
506.76	301.93
506.93	339.38
507.11	360.44
507.28	276.18
507.46	351.08
507.63	294.91
507.81	285.55
507.98	308.95
508.16	386.19
508.33	383.85
508.50	393.21
508.68	374.49
508.85	395.55
509.03	341.72
509.20	325.33
509.38	381.51
509.55	351.08
509.73	381.51
509.90	315.97
510.08	341.72
510.25	390.87
510.42	318.31
510.60	404.91
510.77	330.02
510.95	360.44
511.12	379.17
511.30	299.59
511.47	341.72
511.64	416.62
511.82	390.87
511.99	311.29
512.17	264.48
512.34	339.38
512.51	294.91
512.69	287.89
512.86	358.10
513.04	285.55
513.21	362.78
513.38	325.33
513.56	301.93
513.73	294.91
513.90	285.55
514.08	308.95
514.25	330.02
514.43	252.78
514.60	280.86
514.77	301.93
514.95	334.70
515.12	276.18
515.29	318.31
515.47	341.72
515.64	308.95
515.81	325.33
515.99	301.93
516.16	280.86
516.33	243.42
516.51	308.95
516.68	224.69
516.85	306.61
517.03	255.12
517.20	304.27
517.37	259.80
517.54	348.74
517.72	341.72
517.89	264.48
518.06	231.71
518.24	271.50
518.41	294.91
518.58	301.93
518.75	266.82
518.93	337.04
519.10	283.20
519.27	301.93
519.45	367.46
519.62	327.68
519.79	292.57
519.96	259.80
520.14	269.16
520.31	322.99
520.48	287.89
520.65	273.84
520.83	248.10
521.00	292.57
521.17	299.59
521.34	322.99
521.52	276.18
521.69	259.80
521.86	280.86
522.03	353.42
522.20	341.72
522.38	297.25
522.55	280.86
522.72	201.29
522.89	330.02
523.07	327.68
523.24	315.97
523.41	311.29
523.58	318.31
523.75	306.61
523.92	264.48
524.10	327.68
524.27	358.10
524.44	280.86
524.61	285.55
524.78	332.36
524.96	353.42
525.13	360.44
525.30	322.99
525.47	250.44
525.64	313.63
525.81	376.83
525.98	367.46
526.16	278.52
526.33	262.14
526.50	290.23
526.67	332.36
526.84	337.04
527.01	308.95
527.18	390.87
527.36	425.98
527.53	285.55
527.70	388.53
527.87	332.36
528.04	334.70
528.21	372.15
528.38	451.72
528.55	334.70
528.72	421.30
528.89	332.36
529.07	369.80
529.24	341.72
529.41	458.74
529.58	397.89
529.75	276.18
529.92	451.72
530.09	372.15
530.26	367.46
530.43	505.56
530.60	393.21
530.77	437.68
530.94	390.87
531.11	428.32
531.28	437.68
531.46	386.19
531.63	379.17
531.80	571.09
531.97	461.09
532.14	503.22
532.31	517.26
532.48	564.07
532.65	662.37
532.82	690.46
532.99	842.59
533.16	924.51
533.33	959.62
533.50	910.47
533.67	807.48
533.84	718.54
534.01	648.33
534.18	629.60
534.35	566.41
534.52	660.03
534.69	727.91
534.86	685.78
535.03	763.01
535.20	725.57
535.37	755.99
535.54	777.06
535.71	816.85
535.88	842.59
536.05	868.34
536.22	961.96
536.38	1001.75
536.55	1090.69
536.72	1254.53
536.89	1125.80
537.06	1376.24
537.23	1497.94
537.40	1678.16
537.57	1673.48
537.74	1898.17
537.91	1886.47
538.08	1996.48
538.25	1952.01
538.42	2017.54
538.59	2162.66
538.75	2057.33
538.92	2235.21
539.09	2504.37
539.26	2553.52
539.43	3038.02
539.60	3452.29
539.77	3801.03
539.94	4105.30
540.11	4564.04
540.28	5083.64
540.44	5369.19
540.61	6040.92
540.78	6979.48
540.95	8355.71
541.12	9825.57
541.29	10721.99
541.46	11213.51
541.62	11236.91
541.79	10637.73
541.96	9839.61
542.13	9174.90
542.30	8606.15
542.47	8269.11
542.63	7908.67
542.80	7674.62
542.97	7602.06
543.14	7557.59
543.31	7501.42
543.48	7578.65
543.64	7836.11
543.81	7707.38
543.98	7871.22
544.15	7889.95
544.32	7751.85
544.48	7672.28
544.65	7686.32
544.82	7705.04
544.99	7569.29
545.16	7733.13
545.32	8353.37
545.49	15597.33
545.66	26857.65
545.83	30609.53
546.00	25242.68
546.16	17081.23
546.33	12737.20
546.50	9767.06
546.67	7765.90
546.83	6796.92
547.00	6471.58
547.17	6221.14
547.34	5923.90
547.50	5696.86
547.67	5547.07
547.84	5242.80
548.00	5050.88
548.17	5032.15
548.34	4711.50
548.51	4482.13
548.67	4381.48
548.84	4234.03
549.01	4039.76
549.18	3885.29
549.34	3723.79
549.51	3588.04
549.68	3456.97
549.84	3337.60
550.01	3229.94
550.18	3129.30
550.34	3014.61
550.51	2789.92
550.68	2785.24
550.84	2452.88
551.01	2448.20
551.18	2359.26
551.34	2207.13
551.51	2148.61
551.68	2108.82
551.84	1996.48
552.01	1830.30
552.18	1802.21
552.34	1710.93
552.51	1654.76
552.68	1638.38
552.84	1572.84
553.01	1472.20
553.18	1446.45
553.34	1434.75
553.51	1345.81
553.67	1315.38
553.84	1324.74
554.01	1254.53
554.17	1184.31
554.34	1125.80
554.51	1069.62
554.67	1062.60
554.84	922.17
555.00	1001.75
555.17	908.13
555.33	976.00
555.50	931.53
555.67	720.88
555.83	709.18
556.00	732.59
556.16	786.42
556.33	732.59
556.50	636.63
556.66	643.65
556.83	610.88
556.99	580.45
557.16	678.76
557.32	585.13
557.49	592.16
557.65	587.47
557.82	697.48
557.98	552.37
558.15	573.43
558.32	552.37
558.48	449.38
558.65	535.98
558.81	561.73
558.98	531.30
559.14	484.49
559.31	465.77
559.47	440.02
559.64	533.64
559.80	554.71
559.97	526.62
560.13	491.51
560.30	505.56
560.46	521.94
560.63	451.72
560.79	447.04
560.96	601.52
561.12	449.38
561.29	535.98
561.45	489.17
561.61	496.19
561.78	596.84
561.94	475.13
562.11	496.19
562.27	528.96
562.44	395.55
562.60	482.15
562.77	486.83
562.93	521.94
563.10	456.40
563.26	397.89
563.42	449.38
563.59	468.11
563.75	449.38
563.92	451.72
564.08	376.83
564.24	402.57
564.41	470.45
564.57	353.42
564.74	393.21
564.90	416.62
565.07	409.59
565.23	468.11
565.39	330.02
565.56	372.15
565.72	397.89
565.88	374.49
566.05	355.76
566.21	409.59
566.38	393.21
566.54	358.10
566.70	355.76
566.87	372.15
567.03	404.91
567.19	437.68
567.36	463.43
567.52	414.27
567.68	409.59
567.85	395.55
568.01	402.57
568.17	341.72
568.34	411.93
568.50	456.40
568.66	447.04
568.83	482.15
568.99	367.46
569.15	388.53
569.32	327.68
569.48	358.10
569.64	325.33
569.81	311.29
569.97	355.76
570.13	353.42
570.30	322.99
570.46	381.51
570.62	397.89
570.78	320.65
570.95	308.95
571.11	409.59
571.27	379.17
571.43	257.46
571.60	367.46
571.76	390.87
571.92	337.04
572.09	341.72
572.25	390.87
572.41	294.91
572.57	322.99
572.74	332.36
572.90	348.74
573.06	365.12
573.22	334.70
573.38	306.61
573.55	320.65
573.71	425.98
573.87	428.32
574.03	327.68
574.20	402.57
574.36	360.44
574.52	367.46
574.68	369.80
574.84	353.42
575.01	461.09
575.17	472.79
575.33	421.30
575.49	526.62
575.65	493.85
575.82	550.03
575.98	568.75
576.14	613.22
576.30	1186.65
576.46	3513.14
576.62	5029.81
576.79	5139.82
576.95	3644.21
577.11	2555.86
577.27	1832.64
577.43	1263.89
577.59	924.51
577.75	774.72
577.92	681.10
578.08	664.71
578.24	645.99
578.40	1275.59
578.56	3286.11
578.72	4638.94
578.88	4706.82
579.04	3463.99
579.21	2459.90
579.37	1966.05
579.53	1579.86
579.69	1614.97
579.85	1926.26
580.01	2047.97
580.17	1947.33
580.33	1685.19
580.49	1416.02
580.65	1390.28
580.82	1277.93
580.98	1207.72
581.14	1268.57
581.30	1324.74
581.46	1385.60
581.62	1483.90
581.78	1657.10
581.94	1750.72
582.10	1696.89
582.26	1860.73
582.42	1832.64
582.58	1933.28
582.74	1959.03
582.90	1989.46
583.06	1961.37
583.22	1989.46
583.38	2059.67
583.54	1996.48
583.70	1989.46
583.86	1973.07
584.02	1937.96
584.18	1877.11
584.34	1813.92
584.50	1926.26
584.66	1902.86
584.82	1809.23
584.98	1867.75
585.14	1746.04
585.30	1877.11
585.46	1647.74
585.62	1661.78
585.78	1694.55
585.94	1710.93
586.10	1757.74
586.26	1788.17
586.42	2132.23
586.58	2537.14
586.74	3073.12
586.90	3487.40
587.06	3595.06
587.22	3569.32
587.38	3148.02
587.54	2794.60
587.70	2497.35
587.86	1980.09
588.02	1746.04
588.18	1483.90
588.34	1430.07
588.49	1378.58
588.65	1277.93
588.81	1245.16
588.97	1137.50
589.13	1142.18
589.29	1167.93
589.45	1181.97
589.61	1135.16
589.77	1221.76
589.93	1123.46
590.08	1214.74
590.24	1240.48
590.40	1233.46
590.56	1355.17
590.72	1343.47
590.88	1350.49
591.04	1401.98
591.20	1399.64
591.35	1514.33
591.51	1549.43
591.67	1607.95
591.83	1753.06
591.99	1879.45
592.15	2043.29
592.31	2202.44
592.46	2347.56
592.62	2628.42
592.78	2623.74
592.94	2761.83
593.10	2642.46
593.26	2511.39
593.41	2216.49
593.57	2150.95
593.73	1830.30
593.89	1734.34
594.05	1509.65
594.20	1383.26
594.36	1341.13
594.52	1219.42
594.68	1090.69
594.84	1200.69
594.99	1064.94
595.15	1135.16
595.31	1114.10
595.47	1097.71
595.62	997.07
595.78	1001.75
595.94	1055.58
596.10	1123.46
596.25	1015.79
596.41	999.41
596.57	990.05
596.73	1088.35
596.88	1128.14
597.04	1008.77
597.20	1067.28
597.36	1001.75
597.51	1135.16
597.67	1114.10
597.83	1160.91
597.99	1301.34
598.14	1341.13
598.30	1418.36
598.46	1327.08
598.61	1469.86
598.77	1586.88
598.93	1633.69
599.09	1624.33
599.24	1664.12
599.40	1708.59
599.56	1654.76
599.71	1647.74
599.87	1521.35
600.03	1423.05
600.18	1273.25
600.34	1233.46
600.50	1043.88
600.65	1121.12
600.81	1032.18
600.97	1043.88
601.12	1022.81
601.28	952.60
601.44	887.06
601.59	896.43
601.75	868.34
601.91	837.91
602.06	809.83
602.22	847.27
602.37	720.88
602.53	774.72
602.69	791.10
602.84	676.41
603.00	741.95
603.16	732.59
603.31	770.04
603.47	741.95
603.62	732.59
603.78	784.08
603.94	798.12
604.09	870.68
604.25	875.36
604.40	800.46
604.56	849.61
604.71	840.25
604.87	896.43
605.03	854.30
605.18	882.38
605.34	926.85
605.49	915.15
605.65	915.15
605.80	978.34
605.96	1067.28
606.12	1053.24
606.27	1064.94
606.43	1062.60
606.58	1214.74
606.74	1160.91
606.89	1184.31
607.05	1284.95
607.20	1317.72
607.36	1425.39
