SpectraSuite Data File
++++++++++++++++++++++++++++++++++++
Date: Fri Oct 04 11:41:41 GMT-05:00 2013
User: price-jones
Dark Spectrum Present: No
Reference Spectrum Present: No
Number of Sampled Component Spectra: 1
Spectrometers: USB2+H05261
Integration Time (usec): 100000 (USB2+H05261)
Spectra Averaged: 1 (USB2+H05261)
Boxcar Smoothing: 0 (USB2+H05261)
Correct for Electrical Dark: No (USB2+H05261)
Strobe/Lamp Enabled: No (USB2+H05261)
Correct for Detector Non-linearity: No (USB2+H05261)
Correct for Stray Light: No (USB2+H05261)
Number of Pixels in Processed Spectrum: 2048
>>>>>Begin Processed Spectral Data<<<<<
365.73	98.30
365.92	98.30
366.12	98.30
366.32	0.00
366.52	0.00
366.72	0.00
366.91	0.00
367.11	0.00
367.31	0.00
367.51	0.00
367.70	0.00
367.90	32.77
368.10	0.00
368.30	0.00
368.49	0.00
368.69	0.00
368.89	0.00
369.09	0.00
369.28	0.00
369.48	0.00
369.68	4.68
369.87	0.00
370.07	11.70
370.27	35.11
370.47	0.00
370.66	37.45
370.86	74.90
371.06	65.54
371.25	147.45
371.45	86.60
371.65	79.58
371.84	79.58
372.04	39.79
372.24	124.05
372.44	42.13
372.63	77.24
372.83	124.05
373.03	131.07
373.22	131.07
373.42	86.60
373.62	133.41
373.81	138.09
374.01	182.56
374.21	170.86
374.40	175.54
374.60	138.09
374.79	191.92
374.99	93.62
375.19	180.22
375.38	135.75
375.58	95.96
375.78	161.50
375.97	184.90
376.17	126.39
376.37	156.82
376.56	145.11
376.76	117.03
376.95	60.85
377.15	126.39
377.35	145.11
377.54	149.79
377.74	154.48
377.93	138.09
378.13	77.24
378.33	100.64
378.52	88.94
378.72	161.50
378.91	128.73
379.11	39.79
379.31	149.79
379.50	58.51
379.70	149.79
379.89	100.64
380.09	126.39
380.28	124.05
380.48	182.56
380.68	138.09
380.87	56.17
381.07	95.96
381.26	161.50
381.46	100.64
381.65	32.77
381.85	81.92
382.04	163.84
382.24	196.60
382.43	166.18
382.63	124.05
382.83	191.92
383.02	147.45
383.22	42.13
383.41	39.79
383.61	95.96
383.80	161.50
384.00	56.17
384.19	18.72
384.39	205.97
384.58	173.20
384.78	117.03
384.97	70.22
385.17	140.43
385.36	152.13
385.56	128.73
385.75	105.32
385.95	121.71
386.14	107.66
386.34	67.88
386.53	140.43
386.72	159.16
386.92	220.01
387.11	91.28
387.31	191.92
387.50	63.19
387.70	124.05
387.89	133.41
388.09	49.15
388.28	112.35
388.48	142.77
388.67	133.41
388.86	72.56
389.06	81.92
389.25	84.26
389.45	46.81
389.64	121.71
389.84	212.99
390.03	177.88
390.22	105.32
390.42	131.07
390.61	170.86
390.81	91.28
391.00	124.05
391.19	156.82
391.39	175.54
391.58	173.20
391.78	77.24
391.97	198.95
392.16	107.66
392.36	140.43
392.55	133.41
392.75	112.35
392.94	74.90
393.13	117.03
393.33	110.01
393.52	79.58
393.71	163.84
393.91	161.50
394.10	112.35
394.29	124.05
394.49	145.11
394.68	114.69
394.88	159.16
395.07	149.79
395.26	114.69
395.46	135.75
395.65	117.03
395.84	121.71
396.04	173.20
396.23	131.07
396.42	93.62
396.62	124.05
396.81	110.01
397.00	168.52
397.19	154.48
397.39	126.39
397.58	121.71
397.77	145.11
397.97	145.11
398.16	126.39
398.35	215.33
398.55	65.54
398.74	149.79
398.93	163.84
399.12	93.62
399.32	142.77
399.51	170.86
399.70	114.69
399.90	98.30
400.09	173.20
400.28	170.86
400.47	147.45
400.67	58.51
400.86	138.09
401.05	163.84
401.24	203.63
401.44	145.11
401.63	107.66
401.82	210.65
402.01	170.86
402.21	255.12
402.40	121.71
402.59	117.03
402.78	161.50
402.97	198.95
403.17	210.65
403.36	234.05
403.55	280.86
403.74	550.03
403.93	1797.53
404.13	3927.42
404.32	5071.94
404.51	4287.86
404.70	2619.06
404.89	999.41
405.09	397.89
405.28	234.05
405.47	173.20
405.66	168.52
405.85	117.03
406.05	152.13
406.24	250.44
406.43	128.73
406.62	154.48
406.81	255.12
407.00	334.70
407.20	528.96
407.39	760.67
407.58	669.39
407.77	641.31
407.96	294.91
408.15	222.35
408.34	222.35
408.54	231.71
408.73	149.79
408.92	166.18
409.11	182.56
409.30	238.73
409.49	154.48
409.68	222.35
409.87	163.84
410.07	124.05
410.26	236.39
410.45	163.84
410.64	98.30
410.83	205.97
411.02	187.24
411.21	175.54
411.40	203.63
411.59	175.54
411.78	142.77
411.98	145.11
412.17	170.86
412.36	168.52
412.55	217.67
412.74	191.92
412.93	252.78
413.12	156.82
413.31	231.71
413.50	182.56
413.69	203.63
413.88	189.58
414.07	161.50
414.26	196.60
414.45	220.01
414.64	196.60
414.83	243.42
415.02	222.35
415.22	175.54
415.41	159.16
415.60	198.95
415.79	191.92
415.98	222.35
416.17	238.73
416.36	243.42
416.55	149.79
416.74	234.05
416.93	182.56
417.12	189.58
417.31	234.05
417.50	229.37
417.69	262.14
417.88	231.71
418.07	182.56
418.26	187.24
418.45	222.35
418.64	299.59
418.83	217.67
419.02	255.12
419.21	243.42
419.39	257.46
419.58	173.20
419.77	198.95
419.96	283.20
420.15	262.14
420.34	175.54
420.53	203.63
420.72	241.08
420.91	210.65
421.10	243.42
421.29	205.97
421.48	278.52
421.67	217.67
421.86	264.48
422.05	294.91
422.24	248.10
422.43	297.25
422.61	187.24
422.80	255.12
422.99	215.33
423.18	241.08
423.37	290.23
423.56	227.03
423.75	210.65
423.94	222.35
424.13	271.50
424.32	283.20
424.50	283.20
424.69	245.76
424.88	191.92
425.07	255.12
425.26	308.95
425.45	257.46
425.64	259.80
425.83	222.35
426.01	292.57
426.20	301.93
426.39	318.31
426.58	266.82
426.77	269.16
426.96	250.44
427.15	266.82
427.33	250.44
427.52	285.55
427.71	252.78
427.90	285.55
428.09	290.23
428.28	241.08
428.46	280.86
428.65	243.42
428.84	285.55
429.03	351.08
429.22	184.90
429.40	273.84
429.59	290.23
429.78	395.55
429.97	276.18
430.16	276.18
430.34	252.78
430.53	344.06
430.72	212.99
430.91	287.89
431.10	297.25
431.28	362.78
431.47	325.33
431.66	360.44
431.85	299.59
432.03	271.50
432.22	337.04
432.41	346.40
432.60	332.36
432.79	383.85
432.97	367.46
433.16	411.93
433.35	400.23
433.54	533.64
433.72	550.03
433.91	526.62
434.10	528.96
434.28	629.60
434.47	627.26
434.66	830.89
434.85	1029.84
435.03	2839.07
435.22	10693.91
435.41	22707.88
435.59	22539.36
435.78	14345.14
435.97	7258.00
436.16	2841.41
436.34	1142.18
436.53	620.24
436.72	566.41
436.90	437.68
437.09	402.57
437.28	416.62
437.46	388.53
437.65	489.17
437.84	496.19
438.02	388.53
438.21	397.89
438.40	447.04
438.58	425.98
438.77	383.85
438.96	355.76
439.14	369.80
439.33	344.06
439.52	320.65
439.70	379.17
439.89	390.87
440.08	395.55
440.26	386.19
440.45	400.23
440.63	381.51
440.82	383.85
441.01	423.64
441.19	421.30
441.38	376.83
441.57	376.83
441.75	341.72
441.94	388.53
442.12	330.02
442.31	376.83
442.50	351.08
442.68	306.61
442.87	327.68
443.05	360.44
443.24	304.27
443.43	425.98
443.61	463.43
443.80	351.08
443.98	379.17
444.17	404.91
444.35	365.12
444.54	402.57
444.73	304.27
444.91	379.17
445.10	423.64
445.28	353.42
445.47	348.74
445.65	477.47
445.84	386.19
446.02	351.08
446.21	367.46
446.39	411.93
446.58	430.66
446.77	362.78
446.95	290.23
447.14	341.72
447.32	379.17
447.51	383.85
447.69	461.09
447.88	395.55
448.06	320.65
448.25	376.83
448.43	287.89
448.62	327.68
448.80	402.57
448.99	299.59
449.17	386.19
449.36	341.72
449.54	374.49
449.73	421.30
449.91	346.40
450.10	416.62
450.28	461.09
450.46	395.55
450.65	327.68
450.83	367.46
451.02	353.42
451.20	428.32
451.39	393.21
451.57	344.06
451.76	362.78
451.94	454.06
452.13	362.78
452.31	428.32
452.49	330.02
452.68	388.53
452.86	348.74
453.05	379.17
453.23	365.12
453.42	381.51
453.60	339.38
453.78	332.36
453.97	283.20
454.15	332.36
454.34	318.31
454.52	313.63
454.70	367.46
454.89	353.42
455.07	381.51
455.26	444.70
455.44	362.78
455.62	332.36
455.81	500.87
455.99	308.95
456.17	330.02
456.36	409.59
456.54	379.17
456.73	365.12
456.91	360.44
457.09	379.17
457.28	395.55
457.46	360.44
457.64	330.02
457.83	360.44
458.01	339.38
458.19	381.51
458.38	337.04
458.56	367.46
458.74	325.33
458.93	430.66
459.11	334.70
459.29	395.55
459.48	224.69
459.66	388.53
459.84	435.34
460.03	463.43
460.21	322.99
460.39	388.53
460.57	404.91
460.76	362.78
460.94	395.55
461.12	470.45
461.31	367.46
461.49	334.70
461.67	397.89
461.85	341.72
462.04	339.38
462.22	470.45
462.40	341.72
462.59	409.59
462.77	360.44
462.95	365.12
463.13	339.38
463.32	276.18
463.50	346.40
463.68	315.97
463.86	425.98
464.05	386.19
464.23	433.00
464.41	397.89
464.59	379.17
464.78	400.23
464.96	325.33
465.14	301.93
465.32	383.85
465.50	374.49
465.69	339.38
465.87	313.63
466.05	376.83
466.23	449.38
466.41	372.15
466.60	369.80
466.78	421.30
466.96	341.72
467.14	444.70
467.32	358.10
467.51	369.80
467.69	423.64
467.87	388.53
468.05	407.25
468.23	437.68
468.41	409.59
468.60	346.40
468.78	393.21
468.96	306.61
469.14	425.98
469.32	322.99
469.50	346.40
469.69	374.49
469.87	395.55
470.05	355.76
470.23	313.63
470.41	308.95
470.59	215.33
470.77	339.38
470.95	344.06
471.14	372.15
471.32	388.53
471.50	372.15
471.68	327.68
471.86	367.46
472.04	372.15
472.22	327.68
472.40	365.12
472.58	313.63
472.77	367.46
472.95	411.93
473.13	411.93
473.31	351.08
473.49	322.99
473.67	353.42
473.85	418.96
474.03	367.46
474.21	409.59
474.39	301.93
474.57	346.40
474.75	358.10
474.93	327.68
475.12	346.40
475.30	360.44
475.48	358.10
475.66	397.89
475.84	287.89
476.02	337.04
476.20	367.46
476.38	327.68
476.56	461.09
476.74	292.57
476.92	376.83
477.10	374.49
477.28	440.02
477.46	344.06
477.64	435.34
477.82	346.40
478.00	409.59
478.18	390.87
478.36	320.65
478.54	358.10
478.72	402.57
478.90	423.64
479.08	498.53
479.26	418.96
479.44	423.64
479.62	468.11
479.80	477.47
479.98	440.02
480.16	521.94
480.34	489.17
480.52	526.62
480.70	510.24
480.88	489.17
481.06	538.32
481.24	543.00
481.41	655.35
481.59	641.31
481.77	629.60
481.95	671.73
482.13	753.65
482.31	779.40
482.49	858.98
482.67	922.17
482.85	990.05
483.03	990.05
483.21	1137.50
483.39	1153.88
483.57	1193.67
483.74	1254.53
483.92	1315.38
484.10	1451.13
484.28	1432.41
484.46	1476.88
484.64	1675.82
484.82	1701.57
485.00	1764.76
485.18	1895.83
485.35	1966.05
485.53	2059.67
485.71	2244.57
485.89	2303.09
486.07	2272.66
486.25	2340.54
486.43	2448.20
486.61	2361.60
486.78	2359.26
486.96	2335.85
487.14	2312.45
487.32	2265.64
487.50	2263.30
487.68	2260.96
487.85	2249.25
488.03	2284.36
488.21	2136.91
488.39	2216.49
488.57	2052.65
488.75	2001.16
488.92	2253.94
489.10	1905.20
489.28	1980.09
489.46	1851.36
489.64	1867.75
489.81	1778.81
489.99	1811.57
490.17	1734.34
490.35	1760.08
490.53	1760.08
490.70	1774.13
490.88	1577.52
491.06	1865.41
491.24	2083.08
491.41	1877.11
491.59	1947.33
491.77	1708.59
491.95	1830.30
492.13	1706.25
492.30	1624.33
492.48	1659.44
492.66	1598.59
492.84	1488.58
493.01	1607.95
493.19	1526.03
493.37	1558.80
493.54	1577.52
493.72	1416.02
493.90	1357.51
494.08	1483.90
494.25	1387.94
494.43	1366.87
494.61	1490.92
494.79	1366.87
494.96	1254.53
495.14	1329.42
495.32	1256.87
495.49	1210.06
495.67	1228.78
495.85	1160.91
496.02	1233.46
496.20	1210.06
496.38	1177.29
496.55	1242.82
496.73	1186.65
496.91	1076.65
497.09	1123.46
497.26	1132.82
497.44	1078.99
497.62	992.39
497.79	1102.39
497.97	1034.52
498.14	1022.81
498.32	987.71
498.50	1015.79
498.67	795.78
498.85	931.53
499.03	992.39
499.20	910.47
499.38	784.08
499.56	901.11
499.73	891.74
499.91	791.10
500.08	851.96
500.26	725.57
500.44	727.91
500.61	723.23
500.79	779.40
500.97	770.04
501.14	711.52
501.32	603.86
501.49	634.29
501.67	615.56
501.84	552.37
502.02	550.03
502.20	648.33
502.37	568.75
502.55	631.94
502.72	561.73
502.90	587.47
503.07	608.54
503.25	559.39
503.43	603.86
503.60	517.26
503.78	503.22
503.95	524.28
504.13	484.49
504.30	484.49
504.48	552.37
504.65	535.98
504.83	538.32
505.01	433.00
505.18	395.55
505.36	428.32
505.53	416.62
505.71	376.83
505.88	402.57
506.06	388.53
506.23	458.74
506.41	451.72
506.58	454.06
506.76	355.76
506.93	367.46
507.11	388.53
507.28	407.25
507.46	362.78
507.63	369.80
507.81	414.27
507.98	369.80
508.16	339.38
508.33	418.96
508.50	355.76
508.68	390.87
508.85	433.00
509.03	456.40
509.20	472.79
509.38	491.51
509.55	430.66
509.73	465.77
509.90	433.00
510.08	365.12
510.25	374.49
510.42	351.08
510.60	421.30
510.77	416.62
510.95	414.27
511.12	315.97
511.30	334.70
511.47	437.68
511.64	496.19
511.82	381.51
511.99	365.12
512.17	353.42
512.34	404.91
512.51	402.57
512.69	280.86
512.86	425.98
513.04	365.12
513.21	362.78
513.38	360.44
513.56	381.51
513.73	348.74
513.90	304.27
514.08	355.76
514.25	337.04
514.43	276.18
514.60	411.93
514.77	330.02
514.95	325.33
515.12	290.23
515.29	297.25
515.47	395.55
515.64	353.42
515.81	344.06
515.99	367.46
516.16	404.91
516.33	248.10
516.51	273.84
516.68	264.48
516.85	308.95
517.03	346.40
517.20	362.78
517.37	301.93
517.54	292.57
517.72	351.08
517.89	194.26
518.06	278.52
518.24	346.40
518.41	381.51
518.58	339.38
518.75	278.52
518.93	269.16
519.10	351.08
519.27	369.80
519.45	341.72
519.62	250.44
519.79	351.08
519.96	304.27
520.14	308.95
520.31	330.02
520.48	278.52
520.65	299.59
520.83	390.87
521.00	393.21
521.17	299.59
521.34	337.04
521.52	379.17
521.69	259.80
521.86	367.46
522.03	416.62
522.20	348.74
522.38	241.08
522.55	332.36
522.72	332.36
522.89	299.59
523.07	388.53
523.24	358.10
523.41	262.14
523.58	358.10
523.75	283.20
523.92	287.89
524.10	346.40
524.27	397.89
524.44	294.91
524.61	360.44
524.78	271.50
524.96	301.93
525.13	353.42
525.30	381.51
525.47	341.72
525.64	358.10
525.81	390.87
525.98	376.83
526.16	348.74
526.33	388.53
526.50	276.18
526.67	388.53
526.84	330.02
527.01	393.21
527.18	423.64
527.36	416.62
527.53	374.49
527.70	397.89
527.87	311.29
528.04	458.74
528.21	344.06
528.38	344.06
528.55	388.53
528.72	390.87
528.89	418.96
529.07	388.53
529.24	393.21
529.41	425.98
529.58	470.45
529.75	449.38
529.92	449.38
530.09	430.66
530.26	442.36
530.43	554.71
530.60	383.85
530.77	397.89
530.94	479.81
531.11	500.87
531.28	440.02
531.46	535.98
531.63	507.90
531.80	491.51
531.97	624.92
532.14	678.76
532.31	781.74
532.48	936.21
532.65	858.98
532.82	992.39
532.99	1259.21
533.16	1411.34
533.33	1474.54
533.50	1221.76
533.67	1062.60
533.84	1132.82
534.01	929.19
534.18	781.74
534.35	875.36
534.52	847.27
534.69	847.27
534.86	816.85
535.03	961.96
535.20	873.02
535.37	1057.92
535.54	1015.79
535.71	1125.80
535.88	1245.16
536.05	1322.40
536.22	1416.02
536.38	1507.30
536.55	1502.62
536.72	1771.79
536.89	1923.92
537.06	2090.10
537.23	2342.88
537.40	2523.10
537.57	2764.17
537.74	2850.77
537.91	3021.63
538.08	2920.99
538.25	2944.39
538.42	3148.02
538.59	3131.64
538.75	3279.09
538.92	3597.40
539.09	3885.29
539.26	4219.99
539.43	4964.28
539.60	5514.30
539.77	5942.62
539.94	6651.80
540.11	7485.03
540.28	8191.88
540.44	9100.00
540.61	9767.06
540.78	11314.15
540.95	13451.06
541.12	16409.50
541.29	18363.84
541.46	19283.67
541.62	18583.85
541.79	18043.19
541.96	16978.25
542.13	15599.67
542.30	14394.29
542.47	13479.15
542.63	13074.23
542.80	12470.37
542.97	12318.24
543.14	12233.98
543.31	12163.76
543.48	12327.60
543.64	12599.10
543.81	12634.21
543.98	12411.86
544.15	12353.35
544.32	12833.16
544.48	12676.34
544.65	12535.91
544.82	12585.06
544.99	12865.92
545.16	12886.99
545.32	13474.46
545.49	24091.13
545.66	43674.40
545.83	50780.26
546.00	43852.28
546.16	29685.01
546.33	21944.86
546.50	16760.58
546.67	12854.22
546.83	11459.26
547.00	11101.16
547.17	10431.77
547.34	9975.36
547.50	9481.51
547.67	9083.62
547.84	8877.65
548.00	8505.51
548.17	8308.90
548.34	7845.48
548.51	7653.55
548.67	7442.90
548.84	7101.19
549.01	6586.27
549.18	6356.90
549.34	6193.06
549.51	5811.55
549.68	5809.21
549.84	5392.59
550.01	5338.76
550.18	5149.18
550.34	4830.87
550.51	4594.47
550.68	4454.04
550.84	4065.51
551.01	3761.24
551.18	3751.88
551.34	3494.42
551.51	3396.12
551.68	3311.86
551.84	3119.93
552.01	2988.86
552.18	2928.01
552.34	2825.03
552.51	2640.12
552.68	2480.97
552.84	2523.10
553.01	2424.80
553.18	2380.32
553.34	2333.51
553.51	2221.17
553.67	2146.27
553.84	2050.31
554.01	1886.47
554.17	1687.53
554.34	1624.33
554.51	1661.78
554.67	1563.48
554.84	1483.90
555.00	1373.89
555.17	1343.47
555.33	1348.15
555.50	1247.51
555.67	1224.10
555.83	1170.27
556.00	1062.60
556.16	1149.20
556.33	1036.86
556.50	1006.43
556.66	1043.88
556.83	931.53
556.99	905.79
557.16	849.61
557.32	877.70
557.49	851.96
557.65	781.74
557.82	877.70
557.98	828.55
558.15	819.19
558.32	767.70
558.48	847.27
558.65	657.69
558.81	702.16
558.98	732.59
559.14	662.37
559.31	638.97
559.47	716.20
559.64	615.56
559.80	638.97
559.97	615.56
560.13	578.11
560.30	545.34
560.46	613.22
560.63	608.54
560.79	702.16
560.96	610.88
561.12	660.03
561.29	582.79
561.45	641.31
561.61	641.31
561.78	692.80
561.94	578.11
562.11	601.52
562.27	622.58
562.44	636.63
562.60	631.94
562.77	662.37
562.93	660.03
563.10	606.20
563.26	543.00
563.42	587.47
563.59	477.47
563.75	573.43
563.92	561.73
564.08	550.03
564.24	533.64
564.41	564.07
564.57	503.22
564.74	547.69
564.90	484.49
565.07	599.18
565.23	496.19
565.39	442.36
565.56	521.94
565.72	514.92
565.88	526.62
566.05	390.87
566.21	505.56
566.38	552.37
566.54	472.79
566.70	557.05
566.87	512.58
567.03	566.41
567.19	465.77
567.36	510.24
567.52	449.38
567.68	547.69
567.85	472.79
568.01	538.32
568.17	505.56
568.34	505.56
568.50	561.73
568.66	510.24
568.83	512.58
568.99	500.87
569.15	575.77
569.32	524.28
569.48	528.96
569.64	449.38
569.81	500.87
569.97	372.15
570.13	465.77
570.30	388.53
570.46	425.98
570.62	479.81
570.78	409.59
570.95	369.80
571.11	411.93
571.27	444.70
571.43	381.51
571.60	404.91
571.76	381.51
571.92	379.17
572.09	365.12
572.25	435.34
572.41	489.17
572.57	388.53
572.74	454.06
572.90	360.44
573.06	491.51
573.22	365.12
573.38	517.26
573.55	468.11
573.71	444.70
573.87	463.43
574.03	388.53
574.20	458.74
574.36	465.77
574.52	461.09
574.68	362.78
574.84	566.41
575.01	423.64
575.17	528.96
575.33	594.50
575.49	624.92
575.65	641.31
575.82	697.48
575.98	753.65
576.14	669.39
576.30	1610.29
576.46	4950.23
576.62	8381.46
576.79	8870.63
576.95	6216.46
577.11	4283.18
577.27	3000.57
577.43	1959.03
577.59	1348.15
577.75	1046.22
577.92	999.41
578.08	980.68
578.24	968.98
578.40	1778.81
578.56	4912.78
578.72	7714.41
578.88	8138.04
579.04	6139.23
579.21	4271.48
579.37	3075.46
579.53	2314.79
579.69	2375.64
579.85	2963.12
580.01	3302.50
580.17	3248.66
580.33	2818.00
580.49	2455.22
580.65	2148.61
580.82	2092.44
580.98	1956.69
581.14	1973.07
581.30	1968.39
581.46	2157.97
581.62	2345.22
581.78	2569.91
581.94	2869.50
582.10	2827.37
582.26	2944.39
582.42	2998.23
582.58	3265.05
582.74	3232.28
582.90	3363.35
583.06	3400.80
583.22	3344.63
583.38	3428.88
583.54	3361.01
583.70	3309.52
583.86	3232.28
584.02	3082.49
584.18	3124.62
584.34	3136.32
584.50	3059.08
584.66	2946.73
584.82	2890.56
584.98	2932.69
585.14	2857.79
585.30	2857.79
585.46	2628.42
585.62	2686.94
585.78	2715.02
585.94	2775.88
586.10	2792.26
586.26	3077.80
586.42	3480.38
586.58	4081.89
586.74	4992.36
586.90	5722.61
587.06	6218.80
587.22	6190.72
587.38	5493.24
587.54	4786.40
587.70	4194.24
587.86	3449.95
588.02	2977.16
588.18	2548.84
588.34	2401.39
588.49	2104.14
588.65	2127.55
588.81	2036.27
588.97	1928.60
589.13	1966.05
589.29	1849.02
589.45	1888.81
589.61	1865.41
589.77	1902.86
589.93	1867.75
590.08	1895.83
590.24	2010.52
590.40	2047.97
590.56	2101.80
590.72	2118.18
590.88	2216.49
591.04	2263.30
591.20	2300.75
591.35	2483.31
591.51	2352.24
591.67	2609.70
591.83	2768.85
591.99	2913.97
592.15	3339.94
592.31	3522.51
592.46	3789.33
592.62	4133.39
592.78	4512.55
592.94	4479.79
593.10	4374.46
593.26	4332.33
593.41	4046.79
593.57	3538.89
593.73	3007.59
593.89	2796.94
594.05	2385.01
594.20	2228.19
594.36	2052.65
594.52	1860.73
594.68	1809.23
594.84	1891.15
594.99	1769.44
595.15	1713.27
595.31	1701.57
595.47	1671.14
595.62	1666.46
595.78	1657.10
595.94	1626.67
596.10	1732.00
596.25	1736.68
596.41	1739.02
596.57	1584.54
596.73	1640.72
596.88	1647.74
597.04	1633.69
597.20	1685.19
597.36	1781.15
597.51	1781.15
597.67	1818.60
597.83	1970.73
597.99	2115.84
598.14	2022.22
598.30	2221.17
598.46	2291.38
598.61	2457.56
598.77	2518.42
598.93	2569.91
599.09	2644.81
599.24	2766.51
599.40	2663.53
599.56	2626.08
599.71	2551.18
599.87	2415.43
600.03	2270.32
600.18	2113.50
600.34	2029.24
600.50	1940.30
600.65	1788.17
600.81	1696.89
600.97	1533.05
601.12	1458.15
601.28	1399.64
601.44	1348.15
601.59	1324.74
601.75	1350.49
601.91	1179.63
602.06	1221.76
602.22	1193.67
602.37	1151.54
602.53	1118.78
602.69	1102.39
602.84	1231.12
603.00	1146.86
603.16	1284.95
603.31	1174.95
603.47	1177.29
603.62	1165.59
603.78	1277.93
603.94	1233.46
604.09	1224.10
604.25	1310.70
604.40	1327.08
604.56	1259.21
604.71	1268.57
604.87	1392.62
605.03	1378.58
605.18	1404.32
605.34	1352.83
605.49	1418.36
605.65	1301.34
605.80	1507.30
605.96	1493.26
