SpectraSuite Data File
++++++++++++++++++++++++++++++++++++
Date: Fri Oct 04 11:41:44 GMT-05:00 2013
User: price-jones
Dark Spectrum Present: No
Reference Spectrum Present: No
Number of Sampled Component Spectra: 1
Spectrometers: USB2+H05261
Integration Time (usec): 100000 (USB2+H05261)
Spectra Averaged: 1 (USB2+H05261)
Boxcar Smoothing: 0 (USB2+H05261)
Correct for Electrical Dark: No (USB2+H05261)
Strobe/Lamp Enabled: No (USB2+H05261)
Correct for Detector Non-linearity: No (USB2+H05261)
Correct for Stray Light: No (USB2+H05261)
Number of Pixels in Processed Spectrum: 2048
>>>>>Begin Processed Spectral Data<<<<<
365.73	37.45
365.92	37.45
366.12	37.45
366.32	0.00
366.52	0.00
366.72	0.00
366.91	0.00
367.11	0.00
367.31	0.00
367.51	0.00
367.70	0.00
367.90	0.00
368.10	0.00
368.30	0.00
368.49	0.00
368.69	0.00
368.89	21.06
369.09	0.00
369.28	0.00
369.48	16.38
369.68	0.00
369.87	0.00
370.07	0.00
370.27	0.00
370.47	25.75
370.66	0.00
370.86	14.04
371.06	84.26
371.25	168.52
371.45	74.90
371.65	156.82
371.84	81.92
372.04	88.94
372.24	114.69
372.44	131.07
372.63	110.01
372.83	154.48
373.03	145.11
373.22	112.35
373.42	74.90
373.62	74.90
373.81	201.29
374.01	128.73
374.21	133.41
374.40	53.83
374.60	124.05
374.79	173.20
374.99	72.56
375.19	142.77
375.38	140.43
375.58	140.43
375.78	177.88
375.97	102.98
376.17	142.77
376.37	133.41
376.56	161.50
376.76	133.41
376.95	154.48
377.15	91.28
377.35	196.60
377.54	86.60
377.74	175.54
377.93	65.54
378.13	154.48
378.33	88.94
378.52	102.98
378.72	135.75
378.91	102.98
379.11	79.58
379.31	105.32
379.50	81.92
379.70	163.84
379.89	175.54
380.09	175.54
380.28	88.94
380.48	77.24
380.68	110.01
380.87	119.37
381.07	161.50
381.26	124.05
381.46	110.01
381.65	60.85
381.85	91.28
382.04	102.98
382.24	119.37
382.43	102.98
382.63	131.07
382.83	124.05
383.02	177.88
383.22	159.16
383.41	133.41
383.61	88.94
383.80	56.17
384.00	154.48
384.19	145.11
384.39	145.11
384.58	121.71
384.78	133.41
384.97	135.75
385.17	208.31
385.36	168.52
385.56	107.66
385.75	168.52
385.95	70.22
386.14	170.86
386.34	84.26
386.53	98.30
386.72	147.45
386.92	147.45
387.11	128.73
387.31	0.00
387.50	58.51
387.70	121.71
387.89	182.56
388.09	126.39
388.28	70.22
388.48	110.01
388.67	149.79
388.86	70.22
389.06	86.60
389.25	189.58
389.45	126.39
389.64	79.58
389.84	135.75
390.03	138.09
390.22	119.37
390.42	140.43
390.61	119.37
390.81	145.11
391.00	121.71
391.19	154.48
391.39	138.09
391.58	168.52
391.78	145.11
391.97	121.71
392.16	203.63
392.36	79.58
392.55	114.69
392.75	98.30
392.94	74.90
393.13	163.84
393.33	72.56
393.52	63.19
393.71	264.48
393.91	131.07
394.10	107.66
394.29	44.47
394.49	110.01
394.68	131.07
394.88	184.90
395.07	149.79
395.26	121.71
395.46	177.88
395.65	147.45
395.84	156.82
396.04	191.92
396.23	105.32
396.42	79.58
396.62	110.01
396.81	93.62
397.00	194.26
397.19	105.32
397.39	135.75
397.58	142.77
397.77	0.00
397.97	147.45
398.16	119.37
398.35	121.71
398.55	133.41
398.74	205.97
398.93	168.52
399.12	142.77
399.32	149.79
399.51	126.39
399.70	173.20
399.90	217.67
400.09	124.05
400.28	198.95
400.47	173.20
400.67	152.13
400.86	159.16
401.05	154.48
401.24	154.48
401.44	145.11
401.63	161.50
401.82	126.39
402.01	135.75
402.21	201.29
402.40	170.86
402.59	224.69
402.78	163.84
402.97	166.18
403.17	180.22
403.36	198.95
403.55	313.63
403.74	681.10
403.93	1961.37
404.13	4538.30
404.32	6176.67
404.51	5516.64
404.70	3258.03
404.89	1270.91
405.09	498.53
405.28	287.89
405.47	198.95
405.66	215.33
405.85	252.78
406.05	161.50
406.24	161.50
406.43	203.63
406.62	201.29
406.81	243.42
407.00	325.33
407.20	554.71
407.39	870.68
407.58	858.98
407.77	645.99
407.96	355.76
408.15	198.95
408.34	182.56
408.54	236.39
408.73	287.89
408.92	177.88
409.11	210.65
409.30	227.03
409.49	173.20
409.68	234.05
409.87	250.44
410.07	161.50
410.26	217.67
410.45	229.37
410.64	175.54
410.83	149.79
411.02	182.56
411.21	222.35
411.40	222.35
411.59	259.80
411.78	161.50
411.98	131.07
412.17	145.11
412.36	156.82
412.55	215.33
412.74	222.35
412.93	227.03
413.12	145.11
413.31	252.78
413.50	196.60
413.69	173.20
413.88	236.39
414.07	187.24
414.26	196.60
414.45	196.60
414.64	191.92
414.83	250.44
415.02	248.10
415.22	180.22
415.41	241.08
415.60	234.05
415.79	259.80
415.98	227.03
416.17	280.86
416.36	215.33
416.55	212.99
416.74	210.65
416.93	210.65
417.12	306.61
417.31	205.97
417.50	194.26
417.69	313.63
417.88	236.39
418.07	231.71
418.26	159.16
418.45	180.22
418.64	294.91
418.83	180.22
419.02	222.35
419.21	285.55
419.39	241.08
419.58	257.46
419.77	248.10
419.96	283.20
420.15	271.50
420.34	285.55
420.53	262.14
420.72	318.31
420.91	234.05
421.10	252.78
421.29	292.57
421.48	250.44
421.67	269.16
421.86	290.23
422.05	243.42
422.24	241.08
422.43	266.82
422.61	196.60
422.80	236.39
422.99	327.68
423.18	287.89
423.37	304.27
423.56	273.84
423.75	264.48
423.94	271.50
424.13	266.82
424.32	269.16
424.50	318.31
424.69	290.23
424.88	262.14
425.07	255.12
425.26	311.29
425.45	297.25
425.64	348.74
425.83	273.84
426.01	332.36
426.20	304.27
426.39	299.59
426.58	311.29
426.77	292.57
426.96	407.25
427.15	269.16
427.33	362.78
427.52	299.59
427.71	271.50
427.90	360.44
428.09	280.86
428.28	322.99
428.46	301.93
428.65	339.38
428.84	306.61
429.03	341.72
429.22	327.68
429.40	250.44
429.59	227.03
429.78	304.27
429.97	358.10
430.16	292.57
430.34	311.29
430.53	215.33
430.72	276.18
430.91	386.19
431.10	344.06
431.28	386.19
431.47	407.25
431.66	386.19
431.85	442.36
432.03	372.15
432.22	449.38
432.41	299.59
432.60	388.53
432.79	397.89
432.97	456.40
433.16	402.57
433.35	517.26
433.54	578.11
433.72	559.39
433.91	634.29
434.10	732.59
434.28	777.06
434.47	854.30
434.66	952.60
434.85	1259.21
435.03	3152.70
435.22	11840.77
435.41	27555.13
435.59	28556.88
435.78	18291.29
435.97	9184.26
436.16	3485.06
436.34	1336.45
436.53	772.38
436.72	720.88
436.90	554.71
437.09	517.26
437.28	444.70
437.46	409.59
437.65	465.77
437.84	383.85
438.02	444.70
438.21	351.08
438.40	390.87
438.58	437.68
438.77	477.47
438.96	353.42
439.14	451.72
439.33	500.87
439.52	393.21
439.70	367.46
439.89	416.62
440.08	381.51
440.26	416.62
440.45	428.32
440.63	435.34
440.82	498.53
441.01	449.38
441.19	486.83
441.38	437.68
441.57	367.46
441.75	482.15
441.94	472.79
442.12	423.64
442.31	388.53
442.50	400.23
442.68	376.83
442.87	414.27
443.05	325.33
443.24	421.30
443.43	507.90
443.61	425.98
443.80	496.19
443.98	388.53
444.17	425.98
444.35	451.72
444.54	404.91
444.73	400.23
444.91	414.27
445.10	449.38
445.28	423.64
445.47	416.62
445.65	400.23
445.84	482.15
446.02	386.19
446.21	428.32
446.39	472.79
446.58	468.11
446.77	409.59
446.95	507.90
447.14	470.45
447.32	486.83
447.51	435.34
447.69	411.93
447.88	402.57
448.06	505.56
448.25	447.04
448.43	397.89
448.62	451.72
448.80	456.40
448.99	395.55
449.17	386.19
449.36	442.36
449.54	430.66
449.73	433.00
449.91	458.74
450.10	372.15
450.28	531.30
450.46	461.09
450.65	430.66
450.83	390.87
451.02	507.90
451.20	411.93
451.39	409.59
451.57	400.23
451.76	451.72
451.94	404.91
452.13	433.00
452.31	440.02
452.49	444.70
452.68	393.21
452.86	411.93
453.05	418.96
453.23	421.30
453.42	402.57
453.60	395.55
453.78	355.76
453.97	308.95
454.15	414.27
454.34	435.34
454.52	411.93
454.70	421.30
454.89	423.64
455.07	428.32
455.26	447.04
455.44	442.36
455.62	421.30
455.81	400.23
455.99	482.15
456.17	400.23
456.36	454.06
456.54	454.06
456.73	318.31
456.91	325.33
457.09	449.38
457.28	456.40
457.46	440.02
457.64	414.27
457.83	416.62
458.01	416.62
458.19	411.93
458.38	421.30
458.56	435.34
458.74	428.32
458.93	414.27
459.11	486.83
459.29	428.32
459.48	491.51
459.66	383.85
459.84	451.72
460.03	559.39
460.21	409.59
460.39	423.64
460.57	409.59
460.76	348.74
460.94	381.51
461.12	428.32
461.31	524.28
461.49	374.49
461.67	283.20
461.85	407.25
462.04	423.64
462.22	561.73
462.40	423.64
462.59	430.66
462.77	362.78
462.95	388.53
463.13	444.70
463.32	411.93
463.50	365.12
463.68	374.49
463.86	372.15
464.05	393.21
464.23	472.79
464.41	486.83
464.59	482.15
464.78	470.45
464.96	318.31
465.14	379.17
465.32	388.53
465.50	383.85
465.69	458.74
465.87	374.49
466.05	400.23
466.23	320.65
466.41	442.36
466.60	535.98
466.78	468.11
466.96	463.43
467.14	402.57
467.32	416.62
467.51	430.66
467.69	414.27
467.87	421.30
468.05	374.49
468.23	433.00
468.41	411.93
468.60	433.00
468.78	400.23
468.96	365.12
469.14	484.49
469.32	332.36
469.50	327.68
469.69	374.49
469.87	325.33
470.05	369.80
470.23	355.76
470.41	280.86
470.59	400.23
470.77	346.40
470.95	388.53
471.14	360.44
471.32	322.99
471.50	444.70
471.68	404.91
471.86	437.68
472.04	304.27
472.22	447.04
472.40	346.40
472.58	372.15
472.77	395.55
472.95	393.21
473.13	447.04
473.31	444.70
473.49	423.64
473.67	433.00
473.85	416.62
474.03	362.78
474.21	365.12
474.39	456.40
474.57	407.25
474.75	355.76
474.93	470.45
475.12	444.70
475.30	407.25
475.48	383.85
475.66	442.36
475.84	407.25
476.02	351.08
476.20	367.46
476.38	358.10
476.56	404.91
476.74	334.70
476.92	400.23
477.10	379.17
477.28	386.19
477.46	421.30
477.64	437.68
477.82	451.72
478.00	355.76
478.18	477.47
478.36	458.74
478.54	404.91
478.72	463.43
478.90	500.87
479.08	500.87
479.26	512.58
479.44	545.34
479.62	514.92
479.80	547.69
479.98	521.94
480.16	535.98
480.34	601.52
480.52	557.05
480.70	585.13
480.88	636.63
481.06	669.39
481.24	744.29
481.41	617.90
481.59	777.06
481.77	774.72
481.95	835.57
482.13	901.11
482.31	976.00
482.49	887.06
482.67	1001.75
482.85	1125.80
483.03	1121.12
483.21	1289.64
483.39	1427.73
483.57	1434.75
483.74	1549.43
483.92	1540.07
484.10	1542.41
484.28	1748.38
484.46	1874.77
484.64	1961.37
484.82	1893.49
485.00	2026.90
485.18	2251.60
485.35	2382.67
485.53	2424.80
485.71	2703.32
485.89	2710.34
486.07	2719.70
486.25	2668.21
486.43	2736.09
486.61	2808.64
486.78	2801.62
486.96	2637.78
487.14	2698.64
487.32	2773.53
487.50	2724.38
487.68	2738.43
487.85	2679.91
488.03	2682.25
488.21	2644.81
488.39	2705.66
488.57	2452.88
488.75	2399.05
488.92	2682.25
489.10	2413.09
489.28	2368.62
489.46	2122.87
489.64	2296.07
489.81	2172.02
489.99	2132.23
490.17	2214.15
490.35	2183.72
490.53	2073.71
490.70	2087.76
490.88	2115.84
491.06	2207.13
491.24	2424.80
491.41	2267.98
491.59	2258.62
491.77	2064.35
491.95	2113.50
492.13	1968.39
492.30	1928.60
492.48	1895.83
492.66	1891.15
492.84	1790.51
493.01	1804.55
493.19	1809.23
493.37	1834.98
493.54	1797.53
493.72	1839.66
493.90	1689.87
494.08	1689.87
494.25	1570.50
494.43	1640.72
494.61	1678.16
494.79	1629.01
494.96	1572.84
495.14	1561.14
495.32	1493.26
495.49	1355.17
495.67	1540.07
495.85	1474.54
496.02	1504.96
496.20	1462.83
496.38	1406.66
496.55	1294.32
496.73	1310.70
496.91	1294.32
497.09	1299.00
497.26	1357.51
497.44	1329.42
497.62	1240.48
497.79	1226.44
497.97	1200.69
498.14	1146.86
498.32	1128.14
498.50	1174.95
498.67	1107.07
498.85	1100.05
499.03	971.32
499.20	1036.86
499.38	983.02
499.56	943.24
499.73	990.05
499.91	959.62
500.08	889.40
500.26	884.72
500.44	791.10
500.61	880.04
500.79	812.17
500.97	835.57
501.14	926.85
501.32	898.77
501.49	770.04
501.67	819.19
501.84	746.63
502.02	737.27
502.20	795.78
502.37	730.25
502.55	713.86
502.72	638.97
502.90	582.79
503.07	643.65
503.25	664.71
503.43	603.86
503.60	599.18
503.78	547.69
503.95	484.49
504.13	603.86
504.30	538.32
504.48	592.16
504.65	491.51
504.83	493.85
505.01	484.49
505.18	496.19
505.36	463.43
505.53	540.66
505.71	486.83
505.88	409.59
506.06	430.66
506.23	461.09
506.41	486.83
506.58	465.77
506.76	456.40
506.93	496.19
507.11	395.55
507.28	449.38
507.46	470.45
507.63	421.30
507.81	421.30
507.98	395.55
508.16	407.25
508.33	468.11
508.50	470.45
508.68	454.06
508.85	458.74
509.03	559.39
509.20	470.45
509.38	498.53
509.55	475.13
509.73	451.72
509.90	489.17
510.08	395.55
510.25	376.83
510.42	400.23
510.60	402.57
510.77	449.38
510.95	397.89
511.12	404.91
511.30	383.85
511.47	456.40
511.64	442.36
511.82	409.59
511.99	330.02
512.17	393.21
512.34	404.91
512.51	397.89
512.69	430.66
512.86	435.34
513.04	409.59
513.21	430.66
513.38	407.25
513.56	402.57
513.73	346.40
513.90	400.23
514.08	383.85
514.25	400.23
514.43	322.99
514.60	418.96
514.77	379.17
514.95	320.65
515.12	337.04
515.29	355.76
515.47	402.57
515.64	404.91
515.81	383.85
515.99	386.19
516.16	423.64
516.33	346.40
516.51	311.29
516.68	341.72
516.85	313.63
517.03	369.80
517.20	383.85
517.37	362.78
517.54	376.83
517.72	330.02
517.89	308.95
518.06	355.76
518.24	416.62
518.41	337.04
518.58	390.87
518.75	297.25
518.93	430.66
519.10	444.70
519.27	423.64
519.45	339.38
519.62	355.76
519.79	325.33
519.96	351.08
520.14	360.44
520.31	339.38
520.48	341.72
520.65	264.48
520.83	402.57
521.00	369.80
521.17	411.93
521.34	292.57
521.52	386.19
521.69	386.19
521.86	313.63
522.03	299.59
522.20	388.53
522.38	402.57
522.55	337.04
522.72	430.66
522.89	290.23
523.07	339.38
523.24	367.46
523.41	290.23
523.58	376.83
523.75	299.59
523.92	358.10
524.10	344.06
524.27	339.38
524.44	337.04
524.61	308.95
524.78	332.36
524.96	381.51
525.13	376.83
525.30	428.32
525.47	433.00
525.64	395.55
525.81	365.12
525.98	341.72
526.16	372.15
526.33	346.40
526.50	311.29
526.67	355.76
526.84	346.40
527.01	334.70
527.18	503.22
527.36	442.36
527.53	451.72
527.70	458.74
527.87	416.62
528.04	477.47
528.21	339.38
528.38	486.83
528.55	374.49
528.72	440.02
528.89	468.11
529.07	440.02
529.24	444.70
529.41	482.15
529.58	503.22
529.75	479.81
529.92	440.02
530.09	486.83
530.26	465.77
530.43	500.87
530.60	486.83
530.77	517.26
530.94	498.53
531.11	491.51
531.28	543.00
531.46	505.56
531.63	638.97
531.80	636.63
531.97	688.12
532.14	758.33
532.31	819.19
532.48	971.32
532.65	1078.99
532.82	1242.82
532.99	1516.67
533.16	1652.42
533.33	1650.08
533.50	1624.33
533.67	1341.13
533.84	1156.22
534.01	1111.75
534.18	1090.69
534.35	990.05
534.52	1011.11
534.69	1076.65
534.86	1067.28
535.03	1102.39
535.20	1069.62
535.37	1212.40
535.54	1196.01
535.71	1306.02
535.88	1404.32
536.05	1495.60
536.22	1572.84
536.38	1678.16
536.55	1933.28
536.72	2167.34
536.89	2291.38
537.06	2513.74
537.23	2864.82
537.40	3096.53
537.57	3318.88
537.74	3501.44
537.91	3599.74
538.08	3684.00
538.25	3669.96
538.42	3899.33
538.59	3810.39
538.75	4051.47
538.92	4138.07
539.09	4547.66
539.26	5217.05
539.43	5799.85
539.60	6443.49
539.77	7253.32
539.94	8234.00
540.11	8875.31
540.28	9858.34
540.44	11014.56
540.61	11990.56
540.78	13706.18
540.95	16533.54
541.12	19864.13
541.29	22267.86
541.46	23503.66
541.62	23353.87
541.79	22113.38
541.96	20695.02
542.13	19002.81
542.30	17640.62
542.47	16725.47
542.63	15707.34
542.80	15365.62
542.97	15194.76
543.14	15073.05
543.31	15044.96
543.48	15482.64
543.64	15543.50
543.81	15604.35
543.98	15592.65
544.15	15854.79
544.32	15487.32
544.48	15913.30
544.65	15365.62
544.82	15339.87
544.99	15206.46
545.16	15587.97
545.32	16774.62
545.49	27421.72
545.66	50230.24
545.83	56940.55
546.00	51023.68
546.16	36299.37
546.33	27094.04
546.50	20032.65
546.67	15922.66
546.83	14249.18
547.00	13518.93
547.17	12716.13
547.34	12147.38
547.50	11545.86
547.67	11276.70
547.84	11026.26
548.00	10478.58
548.17	10111.11
548.34	9881.74
548.51	9423.00
548.67	8875.31
548.84	8376.78
549.01	8023.36
549.18	7803.35
549.34	7475.67
549.51	7335.24
549.68	7054.37
549.84	6581.59
550.01	6396.68
550.18	6104.12
550.34	5720.27
550.51	5324.72
550.68	5315.36
550.84	5022.79
551.01	4718.52
551.18	4468.08
551.34	4304.25
551.51	4100.62
551.68	3913.38
551.84	3889.97
552.01	3684.00
552.18	3433.57
552.34	3346.97
552.51	3208.87
552.68	3068.44
552.84	3054.40
553.01	3005.25
553.18	2867.16
553.34	2644.81
553.51	2597.99
553.67	2640.12
553.84	2541.82
554.01	2289.04
554.17	2282.02
554.34	2038.61
554.51	1902.86
554.67	1860.73
554.84	1689.87
555.00	1629.01
555.17	1497.94
555.33	1380.92
555.50	1420.71
555.67	1345.81
555.83	1268.57
556.00	1263.89
556.16	1355.17
556.33	1184.31
556.50	1200.69
556.66	1165.59
556.83	1048.56
556.99	1036.86
557.16	1055.58
557.32	1020.47
557.49	1034.52
557.65	945.58
557.82	816.85
557.98	940.90
558.15	922.17
558.32	835.57
558.48	933.87
558.65	835.57
558.81	856.64
558.98	788.76
559.14	791.10
559.31	760.67
559.47	770.04
559.64	709.18
559.80	678.76
559.97	751.31
560.13	706.84
560.30	648.33
560.46	720.88
560.63	737.27
560.79	704.50
560.96	667.05
561.12	688.12
561.29	648.33
561.45	770.04
561.61	727.91
561.78	702.16
561.94	765.36
562.11	699.82
562.27	709.18
562.44	613.22
562.60	641.31
562.77	683.44
562.93	713.86
563.10	746.63
563.26	706.84
563.42	653.01
563.59	552.37
563.75	596.84
563.92	699.82
564.08	624.92
564.24	695.14
564.41	582.79
564.57	540.66
564.74	634.29
564.90	627.26
565.07	580.45
565.23	601.52
565.39	568.75
565.56	580.45
565.72	498.53
565.88	491.51
566.05	456.40
566.21	496.19
566.38	545.34
566.54	507.90
566.70	578.11
566.87	533.64
567.03	594.50
567.19	545.34
567.36	528.96
567.52	613.22
567.68	587.47
567.85	531.30
568.01	538.32
568.17	573.43
568.34	482.15
568.50	568.75
568.66	608.54
568.83	641.31
568.99	575.77
569.15	599.18
569.32	482.15
569.48	596.84
569.64	521.94
569.81	482.15
569.97	493.85
570.13	484.49
570.30	500.87
570.46	451.72
570.62	374.49
570.78	402.57
570.95	332.36
571.11	512.58
571.27	440.02
571.43	482.15
571.60	416.62
571.76	332.36
571.92	454.06
572.09	411.93
572.25	430.66
572.41	411.93
572.57	428.32
572.74	489.17
572.90	472.79
573.06	470.45
573.22	472.79
573.38	526.62
573.55	514.92
573.71	547.69
573.87	514.92
574.03	498.53
574.20	498.53
574.36	599.18
574.52	557.05
574.68	533.64
574.84	552.37
575.01	526.62
575.17	528.96
575.33	606.20
575.49	744.29
575.65	774.72
575.82	739.61
575.98	901.11
576.14	791.10
576.30	1900.52
576.46	6031.56
576.62	10569.86
576.79	11421.81
576.95	7953.14
577.11	5090.67
577.27	3655.92
577.43	2511.39
577.59	1607.95
577.75	1289.64
577.92	1210.06
578.08	1196.01
578.24	1160.91
578.40	2008.18
578.56	5425.36
578.72	9334.06
578.88	9762.37
579.04	7421.84
579.21	5104.71
579.37	3843.16
579.53	2923.33
579.69	2935.03
579.85	3531.87
580.01	4100.62
580.17	3964.87
580.33	3435.91
580.49	2869.50
580.65	2546.50
580.82	2298.41
580.98	2361.60
581.14	2476.29
581.30	2616.72
581.46	2684.59
581.62	2895.24
581.78	3136.32
581.94	3232.28
582.10	3478.04
582.26	3705.07
582.42	3864.22
582.58	3901.67
582.74	4007.00
582.90	3936.78
583.06	4166.15
583.22	4058.49
583.38	3932.10
583.54	3918.06
583.70	4049.13
583.86	3803.37
584.02	3740.18
584.18	3789.33
584.34	3634.85
584.50	3714.43
584.66	3630.17
584.82	3503.78
584.98	3517.83
585.14	3599.74
585.30	3426.54
585.46	3405.48
585.62	3311.86
585.78	3337.60
585.94	3431.23
586.10	3379.73
586.26	3534.21
586.42	4119.34
586.58	4657.67
586.74	5764.74
586.90	7052.03
587.06	7868.88
587.22	7426.52
587.38	6682.23
587.54	5930.92
587.70	4973.64
587.86	4266.80
588.02	3578.68
588.18	3307.18
588.34	2871.84
588.49	2703.32
588.65	2504.37
588.81	2314.79
588.97	2265.64
589.13	2293.72
589.29	2246.91
589.45	2094.78
589.61	2321.81
589.77	2223.51
589.93	2289.04
590.08	2235.21
590.24	2382.67
590.40	2553.52
590.56	2541.82
590.72	2520.76
590.88	2560.55
591.04	2871.84
591.20	2867.16
591.35	2937.37
591.51	3087.17
591.67	3171.43
591.83	3290.79
591.99	3632.51
592.15	4053.81
592.31	4173.18
592.46	4709.16
592.62	5111.73
592.78	5313.02
592.94	5636.01
593.10	5551.75
593.26	5256.84
593.41	4882.36
593.57	4290.20
593.73	3857.20
593.89	3365.69
594.05	3028.65
594.20	2644.81
594.36	2485.65
594.52	2335.85
594.68	2209.47
594.84	2260.96
594.99	2190.74
595.15	2054.99
595.31	2097.12
595.47	2087.76
595.62	2003.50
595.78	1996.48
595.94	2050.31
596.10	2045.63
596.25	1975.41
596.41	2026.90
596.57	2019.88
596.73	2012.86
596.88	1895.83
597.04	2015.20
597.20	1977.75
597.36	2080.74
597.51	2076.06
597.67	2244.57
597.83	2165.00
597.99	2401.39
598.14	2504.37
598.30	2637.78
598.46	2803.96
598.61	2855.45
598.77	3042.70
598.93	3103.55
599.09	3145.68
599.24	3325.90
599.40	3332.92
599.56	3281.43
599.71	3138.66
599.87	3014.61
600.03	2661.19
600.18	2532.46
600.34	2406.07
600.50	2267.98
600.65	2113.50
600.81	2003.50
600.97	1893.49
601.12	1792.85
601.28	1671.14
601.44	1650.08
601.59	1682.85
601.75	1586.88
601.91	1479.22
602.06	1418.36
602.22	1406.66
602.37	1413.68
602.53	1397.30
602.69	1409.00
602.84	1378.58
603.00	1299.00
603.16	1371.55
603.31	1376.24
603.47	1411.34
603.62	1366.87
603.78	1488.58
603.94	1479.22
604.09	1441.77
604.25	1528.37
604.40	1455.81
604.56	1509.65
604.71	1570.50
604.87	1490.92
605.03	1645.40
605.18	1643.06
605.34	1678.16
605.49	1657.10
605.65	1741.36
