SpectraSuite Data File
++++++++++++++++++++++++++++++++++++
Date: Fri Oct 04 11:42:12 GMT-05:00 2013
User: price-jones
Dark Spectrum Present: No
Reference Spectrum Present: No
Number of Sampled Component Spectra: 1
Spectrometers: USB2+H05261
Integration Time (usec): 100000 (USB2+H05261)
Spectra Averaged: 1 (USB2+H05261)
Boxcar Smoothing: 0 (USB2+H05261)
Correct for Electrical Dark: No (USB2+H05261)
Strobe/Lamp Enabled: No (USB2+H05261)
Correct for Detector Non-linearity: No (USB2+H05261)
Correct for Stray Light: No (USB2+H05261)
Number of Pixels in Processed Spectrum: 2048
>>>>>Begin Processed Spectral Data<<<<<
365.73	35.11
365.92	35.11
366.12	35.11
366.32	0.00
366.52	0.00
366.72	0.00
366.91	0.00
367.11	7.02
367.31	0.00
367.51	0.00
367.70	0.00
367.90	0.00
368.10	0.00
368.30	0.00
368.49	0.00
368.69	0.00
368.89	0.00
369.09	0.00
369.28	16.38
369.48	0.00
369.68	0.00
369.87	11.70
370.07	0.00
370.27	0.00
370.47	86.60
370.66	0.00
370.86	67.88
371.06	72.56
371.25	170.86
371.45	93.62
371.65	42.13
371.84	105.32
372.04	51.49
372.24	163.84
372.44	67.88
372.63	173.20
372.83	128.73
373.03	102.98
373.22	79.58
373.42	124.05
373.62	39.79
373.81	124.05
374.01	114.69
374.21	173.20
374.40	163.84
374.60	191.92
374.79	95.96
374.99	152.13
375.19	105.32
375.38	119.37
375.58	112.35
375.78	170.86
375.97	86.60
376.17	180.22
376.37	63.19
376.56	21.06
376.76	149.79
376.95	163.84
377.15	81.92
377.35	84.26
377.54	173.20
377.74	91.28
377.93	124.05
378.13	84.26
378.33	180.22
378.52	149.79
378.72	133.41
378.91	205.97
379.11	152.13
379.31	110.01
379.50	65.54
379.70	147.45
379.89	177.88
380.09	58.51
380.28	100.64
380.48	117.03
380.68	105.32
380.87	39.79
381.07	138.09
381.26	79.58
381.46	131.07
381.65	114.69
381.85	67.88
382.04	98.30
382.24	86.60
382.43	131.07
382.63	49.15
382.83	56.17
383.02	133.41
383.22	131.07
383.41	46.81
383.61	88.94
383.80	135.75
384.00	135.75
384.19	77.24
384.39	67.88
384.58	58.51
384.78	131.07
384.97	81.92
385.17	65.54
385.36	110.01
385.56	138.09
385.75	86.60
385.95	88.94
386.14	110.01
386.34	121.71
386.53	93.62
386.72	84.26
386.92	184.90
387.11	142.77
387.31	191.92
387.50	117.03
387.70	42.13
387.89	156.82
388.09	102.98
388.28	102.98
388.48	42.13
388.67	100.64
388.86	121.71
389.06	131.07
389.25	105.32
389.45	110.01
389.64	72.56
389.84	175.54
390.03	128.73
390.22	112.35
390.42	35.11
390.61	114.69
390.81	77.24
391.00	102.98
391.19	177.88
391.39	86.60
391.58	142.77
391.78	140.43
391.97	124.05
392.16	72.56
392.36	102.98
392.55	102.98
392.75	102.98
392.94	135.75
393.13	126.39
393.33	51.49
393.52	102.98
393.71	154.48
393.91	114.69
394.10	88.94
394.29	107.66
394.49	56.17
394.68	175.54
394.88	142.77
395.07	100.64
395.26	112.35
395.46	84.26
395.65	98.30
395.84	74.90
396.04	79.58
396.23	98.30
396.42	117.03
396.62	133.41
396.81	177.88
397.00	95.96
397.19	58.51
397.39	121.71
397.58	117.03
397.77	86.60
397.97	72.56
398.16	98.30
398.35	126.39
398.55	91.28
398.74	131.07
398.93	138.09
399.12	51.49
399.32	191.92
399.51	51.49
399.70	121.71
399.90	121.71
400.09	210.65
400.28	107.66
400.47	91.28
400.67	107.66
400.86	147.45
401.05	145.11
401.24	84.26
401.44	117.03
401.63	177.88
401.82	145.11
402.01	79.58
402.21	124.05
402.40	133.41
402.59	95.96
402.78	60.85
402.97	84.26
403.17	117.03
403.36	105.32
403.55	191.92
403.74	159.16
403.93	353.42
404.13	683.44
404.32	580.45
404.51	545.34
404.70	402.57
404.89	257.46
405.09	168.52
405.28	107.66
405.47	114.69
405.66	119.37
405.85	154.48
406.05	152.13
406.24	126.39
406.43	121.71
406.62	110.01
406.81	142.77
407.00	180.22
407.20	198.95
407.39	217.67
407.58	142.77
407.77	196.60
407.96	187.24
408.15	154.48
408.34	93.62
408.54	65.54
408.73	163.84
408.92	58.51
409.11	182.56
409.30	205.97
409.49	131.07
409.68	145.11
409.87	159.16
410.07	152.13
410.26	107.66
410.45	105.32
410.64	107.66
410.83	117.03
411.02	77.24
411.21	100.64
411.40	182.56
411.59	177.88
411.78	119.37
411.98	138.09
412.17	135.75
412.36	110.01
412.55	147.45
412.74	114.69
412.93	175.54
413.12	128.73
413.31	175.54
413.50	102.98
413.69	264.48
413.88	198.95
414.07	95.96
414.26	142.77
414.45	124.05
414.64	208.31
414.83	187.24
415.02	152.13
415.22	124.05
415.41	175.54
415.60	133.41
415.79	98.30
415.98	124.05
416.17	212.99
416.36	220.01
416.55	161.50
416.74	114.69
416.93	128.73
417.12	168.52
417.31	140.43
417.50	86.60
417.69	177.88
417.88	126.39
418.07	128.73
418.26	156.82
418.45	142.77
418.64	161.50
418.83	184.90
419.02	67.88
419.21	149.79
419.39	138.09
419.58	149.79
419.77	110.01
419.96	149.79
420.15	124.05
420.34	93.62
420.53	133.41
420.72	208.31
420.91	124.05
421.10	147.45
421.29	135.75
421.48	128.73
421.67	208.31
421.86	131.07
422.05	180.22
422.24	114.69
422.43	140.43
422.61	119.37
422.80	182.56
422.99	203.63
423.18	170.86
423.37	161.50
423.56	95.96
423.75	231.71
423.94	180.22
424.13	147.45
424.32	189.58
424.50	152.13
424.69	163.84
424.88	133.41
425.07	117.03
425.26	154.48
425.45	168.52
425.64	138.09
425.83	187.24
426.01	227.03
426.20	156.82
426.39	107.66
426.58	124.05
426.77	201.29
426.96	163.84
427.15	88.94
427.33	114.69
427.52	133.41
427.71	215.33
427.90	173.20
428.09	102.98
428.28	74.90
428.46	173.20
428.65	88.94
428.84	180.22
429.03	105.32
429.22	100.64
429.40	191.92
429.59	81.92
429.78	147.45
429.97	177.88
430.16	170.86
430.34	149.79
430.53	102.98
430.72	175.54
430.91	145.11
431.10	110.01
431.28	168.52
431.47	201.29
431.66	166.18
431.85	119.37
432.03	100.64
432.22	222.35
432.41	152.13
432.60	177.88
432.79	145.11
432.97	168.52
433.16	203.63
433.35	147.45
433.54	138.09
433.72	119.37
433.91	133.41
434.10	210.65
434.28	217.67
434.47	252.78
434.66	166.18
434.85	334.70
435.03	566.41
435.22	1666.46
435.41	2642.46
435.59	2492.67
435.78	1743.70
435.97	957.28
436.16	510.24
436.34	182.56
436.53	236.39
436.72	250.44
436.90	224.69
437.09	184.90
437.28	88.94
437.46	147.45
437.65	250.44
437.84	196.60
438.02	180.22
438.21	222.35
438.40	191.92
438.58	107.66
438.77	227.03
438.96	245.76
439.14	224.69
439.33	168.52
439.52	77.24
439.70	180.22
439.89	121.71
440.08	159.16
440.26	210.65
440.45	255.12
440.63	189.58
440.82	266.82
441.01	149.79
441.19	105.32
441.38	135.75
441.57	180.22
441.75	194.26
441.94	245.76
442.12	187.24
442.31	161.50
442.50	168.52
442.68	168.52
442.87	140.43
443.05	107.66
443.24	241.08
443.43	149.79
443.61	215.33
443.80	138.09
443.98	154.48
444.17	187.24
444.35	180.22
444.54	236.39
444.73	180.22
444.91	159.16
445.10	161.50
445.28	173.20
445.47	264.48
445.65	259.80
445.84	177.88
446.02	121.71
446.21	201.29
446.39	166.18
446.58	177.88
446.77	161.50
446.95	175.54
447.14	189.58
447.32	238.73
447.51	212.99
447.69	220.01
447.88	166.18
448.06	173.20
448.25	196.60
448.43	166.18
448.62	133.41
448.80	187.24
448.99	217.67
449.17	170.86
449.36	105.32
449.54	177.88
449.73	175.54
449.91	194.26
450.10	163.84
450.28	257.46
450.46	262.14
450.65	180.22
450.83	170.86
451.02	231.71
451.20	126.39
451.39	210.65
451.57	189.58
451.76	175.54
451.94	189.58
452.13	177.88
452.31	205.97
452.49	161.50
452.68	203.63
452.86	175.54
453.05	231.71
453.23	210.65
453.42	110.01
453.60	210.65
453.78	194.26
453.97	140.43
454.15	215.33
454.34	182.56
454.52	173.20
454.70	135.75
454.89	191.92
455.07	84.26
455.26	184.90
455.44	184.90
455.62	217.67
455.81	105.32
455.99	180.22
456.17	98.30
456.36	170.86
456.54	215.33
456.73	191.92
456.91	161.50
457.09	177.88
457.28	212.99
457.46	126.39
457.64	255.12
457.83	152.13
458.01	166.18
458.19	203.63
458.38	156.82
458.56	203.63
458.74	138.09
458.93	187.24
459.11	212.99
459.29	131.07
459.48	152.13
459.66	173.20
459.84	222.35
460.03	294.91
460.21	271.50
460.39	145.11
460.57	248.10
460.76	212.99
460.94	208.31
461.12	238.73
461.31	238.73
461.49	175.54
461.67	203.63
461.85	161.50
462.04	210.65
462.22	299.59
462.40	170.86
462.59	187.24
462.77	128.73
462.95	117.03
463.13	182.56
463.32	248.10
463.50	220.01
463.68	177.88
463.86	163.84
464.05	152.13
464.23	220.01
464.41	140.43
464.59	142.77
464.78	234.05
464.96	170.86
465.14	145.11
465.32	184.90
465.50	222.35
465.69	191.92
465.87	138.09
466.05	168.52
466.23	156.82
466.41	156.82
466.60	166.18
466.78	177.88
466.96	168.52
467.14	227.03
467.32	278.52
467.51	241.08
467.69	152.13
467.87	128.73
468.05	196.60
468.23	191.92
468.41	152.13
468.60	194.26
468.78	205.97
468.96	149.79
469.14	182.56
469.32	128.73
469.50	163.84
469.69	184.90
469.87	170.86
470.05	208.31
470.23	182.56
470.41	184.90
470.59	154.48
470.77	189.58
470.95	276.18
471.14	163.84
471.32	168.52
471.50	224.69
471.68	145.11
471.86	196.60
472.04	229.37
472.22	241.08
472.40	217.67
472.58	161.50
472.77	210.65
472.95	255.12
473.13	248.10
473.31	201.29
473.49	184.90
473.67	152.13
473.85	252.78
474.03	173.20
474.21	210.65
474.39	222.35
474.57	212.99
474.75	234.05
474.93	102.98
475.12	149.79
475.30	191.92
475.48	168.52
475.66	170.86
475.84	243.42
476.02	145.11
476.20	248.10
476.38	191.92
476.56	241.08
476.74	131.07
476.92	229.37
477.10	128.73
477.28	241.08
477.46	152.13
477.64	257.46
477.82	182.56
478.00	161.50
478.18	262.14
478.36	196.60
478.54	180.22
478.72	191.92
478.90	224.69
479.08	170.86
479.26	196.60
479.44	205.97
479.62	215.33
479.80	189.58
479.98	224.69
480.16	184.90
480.34	205.97
480.52	222.35
480.70	224.69
480.88	201.29
481.06	198.95
481.24	227.03
481.41	259.80
481.59	250.44
481.77	294.91
481.95	238.73
482.13	297.25
482.31	210.65
482.49	262.14
482.67	306.61
482.85	325.33
483.03	304.27
483.21	236.39
483.39	325.33
483.57	220.01
483.74	313.63
483.92	264.48
484.10	402.57
484.28	304.27
484.46	372.15
484.64	376.83
484.82	337.04
485.00	386.19
485.18	397.89
485.35	414.27
485.53	397.89
485.71	454.06
485.89	348.74
486.07	388.53
486.25	493.85
486.43	454.06
486.61	458.74
486.78	411.93
486.96	472.79
487.14	489.17
487.32	407.25
487.50	440.02
487.68	489.17
487.85	444.70
488.03	468.11
488.21	447.04
488.39	393.21
488.57	409.59
488.75	400.23
488.92	692.80
489.10	449.38
489.28	475.13
489.46	458.74
489.64	428.32
489.81	390.87
489.99	414.27
490.17	351.08
490.35	428.32
490.53	313.63
490.70	376.83
490.88	374.49
491.06	440.02
491.24	423.64
491.41	463.43
491.59	374.49
491.77	355.76
491.95	322.99
492.13	315.97
492.30	461.09
492.48	358.10
492.66	365.12
492.84	430.66
493.01	362.78
493.19	301.93
493.37	304.27
493.54	409.59
493.72	458.74
493.90	351.08
494.08	269.16
494.25	437.68
494.43	362.78
494.61	337.04
494.79	262.14
494.96	379.17
495.14	386.19
495.32	346.40
495.49	271.50
495.67	341.72
495.85	322.99
496.02	322.99
496.20	374.49
496.38	287.89
496.55	397.89
496.73	341.72
496.91	304.27
497.09	301.93
497.26	327.68
497.44	250.44
497.62	341.72
497.79	341.72
497.97	341.72
498.14	290.23
498.32	292.57
498.50	266.82
498.67	278.52
498.85	351.08
499.03	348.74
499.20	325.33
499.38	297.25
499.56	287.89
499.73	315.97
499.91	294.91
500.08	266.82
500.26	245.76
500.44	273.84
500.61	330.02
500.79	301.93
500.97	264.48
501.14	322.99
501.32	252.78
501.49	266.82
501.67	269.16
501.84	257.46
502.02	262.14
502.20	337.04
502.37	327.68
502.55	238.73
502.72	241.08
502.90	241.08
503.07	311.29
503.25	264.48
503.43	220.01
503.60	271.50
503.78	217.67
503.95	191.92
504.13	262.14
504.30	262.14
504.48	201.29
504.65	285.55
504.83	315.97
505.01	264.48
505.18	241.08
505.36	294.91
505.53	236.39
505.71	285.55
505.88	255.12
506.06	250.44
506.23	262.14
506.41	198.95
506.58	304.27
506.76	330.02
506.93	222.35
507.11	208.31
507.28	278.52
507.46	264.48
507.63	280.86
507.81	250.44
507.98	203.63
508.16	250.44
508.33	252.78
508.50	236.39
508.68	287.89
508.85	259.80
509.03	210.65
509.20	262.14
509.38	245.76
509.55	238.73
509.73	292.57
509.90	355.76
510.08	222.35
510.25	245.76
510.42	287.89
510.60	159.16
510.77	278.52
510.95	255.12
511.12	285.55
511.30	264.48
511.47	252.78
511.64	271.50
511.82	234.05
511.99	248.10
512.17	257.46
512.34	259.80
512.51	236.39
512.69	271.50
512.86	294.91
513.04	297.25
513.21	276.18
513.38	255.12
513.56	201.29
513.73	266.82
513.90	208.31
514.08	238.73
514.25	241.08
514.43	238.73
514.60	313.63
514.77	208.31
514.95	236.39
515.12	276.18
515.29	266.82
515.47	290.23
515.64	250.44
515.81	280.86
515.99	271.50
516.16	283.20
516.33	294.91
516.51	259.80
516.68	245.76
516.85	147.45
517.03	212.99
517.20	243.42
517.37	238.73
517.54	283.20
517.72	227.03
517.89	227.03
518.06	177.88
518.24	250.44
518.41	327.68
518.58	292.57
518.75	222.35
518.93	234.05
519.10	243.42
519.27	159.16
519.45	196.60
519.62	231.71
519.79	205.97
519.96	224.69
520.14	210.65
520.31	285.55
520.48	285.55
520.65	276.18
520.83	245.76
521.00	259.80
521.17	229.37
521.34	301.93
521.52	290.23
521.69	238.73
521.86	194.26
522.03	294.91
522.20	269.16
522.38	250.44
522.55	264.48
522.72	196.60
522.89	287.89
523.07	266.82
523.24	245.76
523.41	334.70
523.58	297.25
523.75	332.36
523.92	337.04
524.10	196.60
524.27	201.29
524.44	231.71
524.61	220.01
524.78	292.57
524.96	290.23
525.13	201.29
525.30	325.33
525.47	285.55
525.64	271.50
525.81	257.46
525.98	255.12
526.16	196.60
526.33	271.50
526.50	187.24
526.67	290.23
526.84	248.10
527.01	241.08
527.18	231.71
527.36	280.86
527.53	227.03
527.70	257.46
527.87	306.61
528.04	301.93
528.21	271.50
528.38	360.44
528.55	334.70
528.72	245.76
528.89	365.12
529.07	252.78
529.24	311.29
529.41	287.89
529.58	241.08
529.75	304.27
529.92	320.65
530.09	236.39
530.26	262.14
530.43	294.91
530.60	332.36
530.77	311.29
530.94	290.23
531.11	313.63
531.28	278.52
531.46	222.35
531.63	297.25
531.80	311.29
531.97	283.20
532.14	278.52
532.31	341.72
532.48	365.12
532.65	362.78
532.82	374.49
532.99	344.06
533.16	404.91
533.33	407.25
533.50	327.68
533.67	301.93
533.84	414.27
534.01	311.29
534.18	299.59
534.35	311.29
534.52	393.21
534.69	372.15
534.86	337.04
535.03	299.59
535.20	353.42
535.37	341.72
535.54	337.04
535.71	334.70
535.88	407.25
536.05	409.59
536.22	369.80
536.38	365.12
536.55	409.59
536.72	447.04
536.89	414.27
537.06	486.83
537.23	477.47
537.40	456.40
537.57	533.64
537.74	629.60
537.91	519.60
538.08	580.45
538.25	566.41
538.42	554.71
538.59	690.46
538.75	650.67
538.92	660.03
539.09	660.03
539.26	669.39
539.43	765.36
539.60	788.76
539.77	997.07
539.94	1025.15
540.11	980.68
540.28	1139.84
540.44	1256.87
540.61	1336.45
540.78	1481.56
540.95	1607.95
541.12	1858.39
541.29	2097.12
541.46	2172.02
541.62	2136.91
541.79	2172.02
541.96	1987.11
542.13	1884.13
542.30	1865.41
542.47	1736.68
542.63	1675.82
542.80	1586.88
542.97	1734.34
543.14	1617.31
543.31	1720.29
543.48	1701.57
543.64	1816.26
543.81	1760.08
543.98	1696.89
544.15	1785.83
544.32	1760.08
544.48	1657.10
544.65	1661.78
544.82	1631.35
544.99	1708.59
545.16	1621.99
545.32	1811.57
545.49	3117.59
545.66	4844.91
545.83	5439.40
546.00	4603.83
546.16	3330.58
546.33	2326.49
546.50	1916.90
546.67	1568.16
546.83	1462.83
547.00	1238.14
547.17	1336.45
547.34	1310.70
547.50	1261.55
547.67	1144.52
547.84	1104.73
548.00	1142.18
548.17	1081.33
548.34	1086.01
548.51	1004.09
548.67	1050.90
548.84	931.53
549.01	931.53
549.18	894.08
549.34	1008.77
549.51	983.02
549.68	833.23
549.84	819.19
550.01	779.40
550.18	849.61
550.34	800.46
550.51	748.97
550.68	774.72
550.84	655.35
551.01	648.33
551.18	608.54
551.34	594.50
551.51	596.84
551.68	592.16
551.84	585.13
552.01	547.69
552.18	561.73
552.34	484.49
552.51	545.34
552.68	554.71
552.84	416.62
553.01	514.92
553.18	479.81
553.34	442.36
553.51	500.87
553.67	461.09
553.84	517.26
554.01	400.23
554.17	451.72
554.34	374.49
554.51	437.68
554.67	353.42
554.84	454.06
555.00	381.51
555.17	320.65
555.33	367.46
555.50	315.97
555.67	463.43
555.83	341.72
556.00	348.74
556.16	463.43
556.33	407.25
556.50	346.40
556.66	379.17
556.83	322.99
556.99	351.08
557.16	355.76
557.32	353.42
557.49	344.06
557.65	308.95
557.82	325.33
557.98	330.02
558.15	301.93
558.32	257.46
558.48	210.65
558.65	259.80
558.81	332.36
558.98	313.63
559.14	266.82
559.31	271.50
559.47	297.25
559.64	252.78
559.80	327.68
559.97	285.55
560.13	311.29
560.30	287.89
560.46	266.82
560.63	285.55
560.79	234.05
560.96	248.10
561.12	255.12
561.29	283.20
561.45	322.99
561.61	264.48
561.78	430.66
561.94	259.80
562.11	283.20
562.27	306.61
562.44	297.25
562.60	297.25
562.77	224.69
562.93	330.02
563.10	257.46
563.26	255.12
563.42	320.65
563.59	234.05
563.75	313.63
563.92	346.40
564.08	308.95
564.24	266.82
564.41	285.55
564.57	299.59
564.74	234.05
564.90	271.50
565.07	285.55
565.23	355.76
565.39	259.80
565.56	297.25
565.72	290.23
565.88	269.16
566.05	205.97
566.21	266.82
566.38	304.27
566.54	229.37
566.70	304.27
566.87	322.99
567.03	168.52
567.19	332.36
567.36	245.76
567.52	227.03
567.68	238.73
567.85	248.10
568.01	198.95
568.17	198.95
568.34	229.37
568.50	376.83
568.66	257.46
568.83	397.89
568.99	297.25
569.15	332.36
569.32	205.97
569.48	297.25
569.64	227.03
569.81	311.29
569.97	320.65
570.13	299.59
570.30	191.92
570.46	198.95
570.62	191.92
570.78	166.18
570.95	215.33
571.11	292.57
571.27	276.18
571.43	201.29
571.60	259.80
571.76	327.68
571.92	269.16
572.09	163.84
572.25	184.90
572.41	245.76
572.57	229.37
572.74	273.84
572.90	180.22
573.06	299.59
573.22	224.69
573.38	236.39
573.55	287.89
573.71	292.57
573.87	222.35
574.03	222.35
574.20	266.82
574.36	308.95
574.52	210.65
574.68	276.18
574.84	259.80
575.01	304.27
575.17	269.16
575.33	222.35
575.49	290.23
575.65	257.46
575.82	348.74
575.98	322.99
576.14	250.44
576.30	449.38
576.46	830.89
576.62	1144.52
576.79	1221.76
576.95	875.36
577.11	629.60
577.27	557.05
577.43	482.15
577.59	400.23
577.75	372.15
577.92	271.50
578.08	334.70
578.24	306.61
578.40	524.28
578.56	837.91
578.72	1004.09
578.88	1067.28
579.04	807.48
579.21	664.71
579.37	596.84
579.53	435.34
579.69	454.06
579.85	517.26
580.01	599.18
580.17	512.58
580.33	505.56
580.49	479.81
580.65	447.04
580.82	435.34
580.98	402.57
581.14	465.77
581.30	421.30
581.46	557.05
581.62	491.51
581.78	512.58
581.94	601.52
582.10	517.26
582.26	517.26
582.42	603.86
582.58	627.26
582.74	587.47
582.90	538.32
583.06	636.63
583.22	580.45
583.38	587.47
583.54	685.78
583.70	653.01
583.86	631.94
584.02	533.64
584.18	552.37
584.34	521.94
584.50	571.09
584.66	498.53
584.82	543.00
584.98	589.82
585.14	526.62
585.30	596.84
585.46	521.94
585.62	468.11
585.78	622.58
585.94	493.85
586.10	566.41
586.26	500.87
586.42	599.18
586.58	711.52
586.74	809.83
586.90	854.30
587.06	873.02
587.22	929.19
587.38	739.61
587.54	702.16
587.70	674.07
587.86	638.97
588.02	538.32
588.18	463.43
588.34	512.58
588.49	393.21
588.65	362.78
588.81	395.55
588.97	372.15
589.13	313.63
589.29	376.83
589.45	433.00
589.61	470.45
589.77	416.62
589.93	355.76
590.08	428.32
590.24	346.40
590.40	348.74
590.56	486.83
590.72	442.36
590.88	383.85
591.04	477.47
591.20	428.32
591.35	500.87
591.51	470.45
591.67	489.17
591.83	538.32
591.99	582.79
592.15	486.83
592.31	603.86
592.46	662.37
592.62	669.39
592.78	608.54
592.94	643.65
593.10	704.50
593.26	636.63
593.41	702.16
593.57	587.47
593.73	470.45
593.89	433.00
594.05	451.72
594.20	372.15
594.36	425.98
594.52	421.30
594.68	337.04
594.84	468.11
594.99	400.23
595.15	372.15
595.31	425.98
595.47	409.59
595.62	365.12
595.78	322.99
595.94	395.55
596.10	381.51
596.25	395.55
596.41	397.89
596.57	327.68
596.73	287.89
596.88	400.23
597.04	379.17
597.20	318.31
597.36	414.27
597.51	327.68
597.67	351.08
597.83	379.17
597.99	449.38
598.14	479.81
598.30	465.77
598.46	430.66
598.61	503.22
598.77	411.93
598.93	454.06
599.09	470.45
599.24	517.26
599.40	418.96
599.56	447.04
599.71	458.74
599.87	430.66
600.03	376.83
600.18	409.59
600.34	428.32
600.50	440.02
600.65	365.12
600.81	339.38
600.97	297.25
601.12	379.17
601.28	327.68
601.44	351.08
601.59	325.33
601.75	372.15
601.91	337.04
602.06	304.27
602.22	355.76
602.37	339.38
602.53	271.50
602.69	325.33
602.84	264.48
603.00	283.20
603.16	362.78
603.31	337.04
603.47	353.42
603.62	238.73
603.78	311.29
603.94	390.87
604.09	369.80
604.25	404.91
604.40	308.95
604.56	297.25
604.71	308.95
604.87	245.76
605.03	304.27
605.18	330.02
605.34	442.36
605.49	311.29
605.65	287.89
605.80	341.72
605.96	315.97
606.12	313.63
606.27	407.25
606.43	400.23
606.58	468.11
606.74	433.00
606.89	360.44
607.05	440.02
607.20	409.59
607.36	414.27
607.51	486.83
607.67	463.43
607.82	484.49
607.98	510.24
608.13	468.11
608.29	568.75
608.44	631.94
608.60	571.09
608.75	690.46
608.91	725.57
609.06	746.63
609.22	837.91
609.37	819.19
609.53	973.66
609.68	1069.62
609.84	1146.86
609.99	1406.66
610.15	1561.14
610.30	1830.30
610.46	2305.43
610.61	2825.03
610.76	3550.59
