SpectraSuite Data File
++++++++++++++++++++++++++++++++++++
Date: Fri Oct 04 11:42:16 GMT-05:00 2013
User: price-jones
Dark Spectrum Present: No
Reference Spectrum Present: No
Number of Sampled Component Spectra: 1
Spectrometers: USB2+H05261
Integration Time (usec): 100000 (USB2+H05261)
Spectra Averaged: 1 (USB2+H05261)
Boxcar Smoothing: 0 (USB2+H05261)
Correct for Electrical Dark: No (USB2+H05261)
Strobe/Lamp Enabled: No (USB2+H05261)
Correct for Detector Non-linearity: No (USB2+H05261)
Correct for Stray Light: No (USB2+H05261)
Number of Pixels in Processed Spectrum: 2048
>>>>>Begin Processed Spectral Data<<<<<
365.73	44.47
365.92	44.47
366.12	44.47
366.32	0.00
366.52	0.00
366.72	0.00
366.91	0.00
367.11	0.00
367.31	0.00
367.51	0.00
367.70	0.00
367.90	0.00
368.10	0.00
368.30	0.00
368.49	0.00
368.69	0.00
368.89	0.00
369.09	0.00
369.28	0.00
369.48	0.00
369.68	0.00
369.87	23.41
370.07	0.00
370.27	0.00
370.47	84.26
370.66	180.22
370.86	217.67
371.06	234.05
371.25	290.23
371.45	222.35
371.65	220.01
371.84	184.90
372.04	220.01
372.24	250.44
372.44	234.05
372.63	220.01
372.83	278.52
373.03	212.99
373.22	210.65
373.42	257.46
373.62	198.95
373.81	243.42
374.01	257.46
374.21	287.89
374.40	269.16
374.60	217.67
374.79	236.39
374.99	369.80
375.19	306.61
375.38	339.38
375.58	203.63
375.78	222.35
375.97	266.82
376.17	308.95
376.37	245.76
376.56	337.04
376.76	271.50
376.95	255.12
377.15	339.38
377.35	404.91
377.54	367.46
377.74	369.80
377.93	348.74
378.13	308.95
378.33	355.76
378.52	287.89
378.72	315.97
378.91	280.86
379.11	257.46
379.31	285.55
379.50	315.97
379.70	287.89
379.89	330.02
380.09	257.46
380.28	304.27
380.48	227.03
380.68	341.72
380.87	337.04
381.07	264.48
381.26	287.89
381.46	318.31
381.65	264.48
381.85	294.91
382.04	215.33
382.24	243.42
382.43	210.65
382.63	292.57
382.83	245.76
383.02	292.57
383.22	294.91
383.41	264.48
383.61	259.80
383.80	280.86
384.00	301.93
384.19	301.93
384.39	327.68
384.58	341.72
384.78	294.91
384.97	294.91
385.17	355.76
385.36	362.78
385.56	386.19
385.75	332.36
385.95	353.42
386.14	360.44
386.34	259.80
386.53	301.93
386.72	276.18
386.92	411.93
387.11	353.42
387.31	252.78
387.50	299.59
387.70	278.52
387.89	322.99
388.09	381.51
388.28	285.55
388.48	325.33
388.67	440.02
388.86	308.95
389.06	376.83
389.25	395.55
389.45	367.46
389.64	416.62
389.84	456.40
390.03	400.23
390.22	423.64
390.42	383.85
390.61	393.21
390.81	521.94
391.00	451.72
391.19	430.66
391.39	421.30
391.58	428.32
391.78	463.43
391.97	367.46
392.16	393.21
392.36	372.15
392.55	304.27
392.75	292.57
392.94	243.42
393.13	205.97
393.33	255.12
393.52	365.12
393.71	330.02
393.91	313.63
394.10	304.27
394.29	433.00
394.49	477.47
394.68	486.83
394.88	433.00
395.07	484.49
395.26	491.51
395.46	430.66
395.65	428.32
395.84	416.62
396.04	442.36
396.23	306.61
396.42	196.60
396.62	271.50
396.81	306.61
397.00	416.62
397.19	433.00
397.39	402.57
397.58	503.22
397.77	538.32
397.97	573.43
398.16	491.51
398.35	582.79
398.55	505.56
398.74	571.09
398.93	671.73
399.12	535.98
399.32	496.19
399.51	592.16
399.70	622.58
399.90	690.46
400.09	521.94
400.28	636.63
400.47	634.29
400.67	613.22
400.86	716.20
401.05	648.33
401.24	732.59
401.44	627.26
401.63	664.71
401.82	688.12
402.01	622.58
402.21	650.67
402.40	653.01
402.59	634.29
402.78	603.86
402.97	603.86
403.17	589.82
403.36	655.35
403.55	671.73
403.74	709.18
403.93	716.20
404.13	699.82
404.32	741.95
404.51	800.46
404.70	748.97
404.89	706.84
405.09	599.18
405.28	634.29
405.47	624.92
405.66	697.48
405.85	620.24
406.05	603.86
406.24	615.56
406.43	629.60
406.62	566.41
406.81	697.48
407.00	669.39
407.20	671.73
407.39	657.69
407.58	664.71
407.77	711.52
407.96	606.20
408.15	727.91
408.34	683.44
408.54	692.80
408.73	739.61
408.92	683.44
409.11	653.01
409.30	690.46
409.49	631.94
409.68	631.94
409.87	617.90
410.07	634.29
410.26	674.07
410.45	676.41
410.64	692.80
410.83	697.48
411.02	753.65
411.21	758.33
411.40	753.65
411.59	702.16
411.78	816.85
411.98	741.95
412.17	739.61
412.36	741.95
412.55	725.57
412.74	727.91
412.93	833.23
413.12	779.40
413.31	821.53
413.50	814.51
413.69	725.57
413.88	767.70
414.07	781.74
414.26	737.27
414.45	767.70
414.64	826.21
414.83	732.59
415.02	847.27
415.22	873.02
415.41	770.04
415.60	819.19
415.79	866.00
415.98	915.15
416.17	887.06
416.36	847.27
416.55	823.87
416.74	791.10
416.93	781.74
417.12	791.10
417.31	814.51
417.50	866.00
417.69	940.90
417.88	795.78
418.07	814.51
418.26	798.12
418.45	828.55
418.64	905.79
418.83	959.62
419.02	725.57
419.21	823.87
419.39	915.15
419.58	809.83
419.77	774.72
419.96	875.36
420.15	819.19
420.34	868.34
420.53	905.79
420.72	898.77
420.91	884.72
421.10	842.59
421.29	880.04
421.48	980.68
421.67	873.02
421.86	901.11
422.05	793.44
422.24	751.31
422.43	835.57
422.61	816.85
422.80	800.46
422.99	816.85
423.18	861.32
423.37	891.74
423.56	847.27
423.75	763.01
423.94	842.59
424.13	842.59
424.32	849.61
424.50	830.89
424.69	891.74
424.88	819.19
425.07	795.78
425.26	784.08
425.45	767.70
425.64	788.76
425.83	779.40
426.01	880.04
426.20	868.34
426.39	716.20
426.58	788.76
426.77	683.44
426.96	741.95
427.15	842.59
427.33	807.48
427.52	772.38
427.71	779.40
427.90	905.79
428.09	854.30
428.28	727.91
428.46	645.99
428.65	716.20
428.84	798.12
429.03	723.23
429.22	777.06
429.40	770.04
429.59	662.37
429.78	716.20
429.97	571.09
430.16	589.82
430.34	655.35
430.53	631.94
430.72	702.16
430.91	814.51
431.10	727.91
431.28	901.11
431.47	964.30
431.66	919.83
431.85	830.89
432.03	861.32
432.22	767.70
432.41	842.59
432.60	833.23
432.79	924.51
432.97	922.17
433.16	947.92
433.35	835.57
433.54	851.96
433.72	793.44
433.91	851.96
434.10	875.36
434.28	870.68
434.47	903.45
434.66	912.81
434.85	983.02
435.03	1046.22
435.22	1270.91
435.41	1668.80
435.59	1769.44
435.78	1507.30
435.97	1315.38
436.16	1107.07
436.34	931.53
436.53	919.83
436.72	952.60
436.90	917.49
437.09	910.47
437.28	985.37
437.46	936.21
437.65	802.80
437.84	926.85
438.02	868.34
438.21	894.08
438.40	833.23
438.58	830.89
438.77	887.06
438.96	947.92
439.14	961.96
439.33	1022.81
439.52	983.02
439.70	933.87
439.89	1004.09
440.08	968.98
440.26	924.51
440.45	945.58
440.63	1053.24
440.82	1116.44
441.01	1097.71
441.19	1128.14
441.38	1076.65
441.57	1041.54
441.75	1146.86
441.94	1167.93
442.12	1083.67
442.31	1102.39
442.50	1081.33
442.68	1165.59
442.87	1174.95
443.05	1053.24
443.24	1132.82
443.43	1095.37
443.61	1188.99
443.80	1188.99
443.98	1057.92
444.17	1083.67
444.35	1144.52
444.54	1188.99
444.73	1151.54
444.91	1116.44
445.10	1078.99
445.28	1013.45
445.47	983.02
445.65	1011.11
445.84	992.39
446.02	1053.24
446.21	1086.01
446.39	1050.90
446.58	1062.60
446.77	1097.71
446.95	1088.35
447.14	1172.61
447.32	1149.20
447.51	1125.80
447.69	1200.69
447.88	1050.90
448.06	1123.46
448.25	1093.03
448.43	1184.31
448.62	1203.04
448.80	1128.14
448.99	1078.99
449.17	1048.56
449.36	1156.22
449.54	1177.29
449.73	1109.41
449.91	1177.29
450.10	1081.33
450.28	1266.23
450.46	1324.74
450.65	1254.53
450.83	1196.01
451.02	1233.46
451.20	1196.01
451.39	1153.88
451.57	1205.38
451.76	1212.40
451.94	1179.63
452.13	1153.88
452.31	1177.29
452.49	1034.52
452.68	1111.75
452.86	1076.65
453.05	1188.99
453.23	1156.22
453.42	1142.18
453.60	1149.20
453.78	1226.44
453.97	1177.29
454.15	1109.41
454.34	1100.05
454.52	1149.20
454.70	1144.52
454.89	1132.82
455.07	1217.08
455.26	1177.29
455.44	1233.46
455.62	1203.04
455.81	1214.74
455.99	1160.91
456.17	1231.12
456.36	1179.63
456.54	1188.99
456.73	1167.93
456.91	1331.76
457.09	1252.19
457.28	1317.72
457.46	1256.87
457.64	1212.40
457.83	1100.05
458.01	1156.22
458.19	1245.16
458.38	1149.20
458.56	1219.42
458.74	1247.51
458.93	1263.89
459.11	1256.87
459.29	1174.95
459.48	1170.27
459.66	1270.91
459.84	1270.91
460.03	1320.06
460.21	1196.01
460.39	1224.10
460.57	1196.01
460.76	1306.02
460.94	1291.98
461.12	1249.85
461.31	1336.45
461.49	1217.08
461.67	1289.64
461.85	1315.38
462.04	1214.74
462.22	1418.36
462.40	1256.87
462.59	1240.48
462.77	1245.16
462.95	1245.16
463.13	1191.33
463.32	1224.10
463.50	1191.33
463.68	1184.31
463.86	1214.74
464.05	1254.53
464.23	1247.51
464.41	1217.08
464.59	1149.20
464.78	1221.76
464.96	1123.46
465.14	1238.14
465.32	1240.48
465.50	1252.19
465.69	1329.42
465.87	1233.46
466.05	1306.02
466.23	1156.22
466.41	1078.99
466.60	1233.46
466.78	1256.87
466.96	1203.04
467.14	1198.35
467.32	1352.83
467.51	1200.69
467.69	1170.27
467.87	1270.91
468.05	1280.27
468.23	1233.46
468.41	1320.06
468.60	1289.64
468.78	1270.91
468.96	1196.01
469.14	1252.19
469.32	1289.64
469.50	1177.29
469.69	1219.42
469.87	1301.34
470.05	1198.35
470.23	1149.20
470.41	1165.59
470.59	1235.80
470.77	1156.22
470.95	1205.38
471.14	1310.70
471.32	1270.91
471.50	1359.85
471.68	1355.17
471.86	1376.24
472.04	1336.45
472.22	1277.93
472.40	1289.64
472.58	1235.80
472.77	1210.06
472.95	1284.95
473.13	1329.42
473.31	1299.00
473.49	1252.19
473.67	1369.21
473.85	1336.45
474.03	1359.85
474.21	1289.64
474.39	1411.34
474.57	1355.17
474.75	1355.17
474.93	1221.76
475.12	1369.21
475.30	1334.11
475.48	1221.76
475.66	1423.05
475.84	1355.17
476.02	1355.17
476.20	1327.08
476.38	1291.98
476.56	1369.21
476.74	1315.38
476.92	1409.00
477.10	1397.30
477.28	1387.94
477.46	1446.45
477.64	1469.86
477.82	1385.60
478.00	1390.28
478.18	1401.98
478.36	1469.86
478.54	1533.05
478.72	1497.94
478.90	1465.18
479.08	1521.35
479.26	1617.31
479.44	1610.29
479.62	1558.80
479.80	1437.09
479.98	1495.60
480.16	1526.03
480.34	1549.43
480.52	1561.14
480.70	1486.24
480.88	1612.63
481.06	1502.62
481.24	1654.76
481.41	1577.52
481.59	1554.12
481.77	1568.16
481.95	1619.65
482.13	1650.08
482.31	1607.95
482.49	1626.67
482.67	1624.33
482.85	1673.48
483.03	1668.80
483.21	1678.16
483.39	1694.55
483.57	1774.13
483.74	1617.31
483.92	1652.42
484.10	1645.40
484.28	1783.49
484.46	1799.87
484.64	1776.47
484.82	1727.32
485.00	1710.93
485.18	1671.14
485.35	1708.59
485.53	1511.99
485.71	1558.80
485.89	1320.06
486.07	1451.13
486.25	1612.63
486.43	1652.42
486.61	1645.40
486.78	1755.40
486.96	1626.67
487.14	1750.72
487.32	1825.62
487.50	1809.23
487.68	1891.15
487.85	1909.88
488.03	1830.30
488.21	1959.03
488.39	1874.77
488.57	1853.70
488.75	1802.21
488.92	2146.27
489.10	1996.48
489.28	2073.71
489.46	2008.18
489.64	2054.99
489.81	1977.75
489.99	2036.27
490.17	1966.05
490.35	2090.10
490.53	2036.27
490.70	2012.86
490.88	1937.96
491.06	2033.93
491.24	2085.42
491.41	1991.80
491.59	1893.49
491.77	1891.15
491.95	1919.24
492.13	1930.94
492.30	2059.67
492.48	2101.80
492.66	2136.91
492.84	2033.93
493.01	2057.33
493.19	2026.90
493.37	2169.68
493.54	2092.44
493.72	2162.66
493.90	2143.93
494.08	2155.63
494.25	2174.36
494.43	2251.60
494.61	2279.68
494.79	2267.98
494.96	2148.61
495.14	2062.01
495.32	2080.74
495.49	2092.44
495.67	2239.89
495.85	2113.50
496.02	2263.30
496.20	2258.62
496.38	2359.26
496.55	2354.58
496.73	2263.30
496.91	2298.41
497.09	2377.98
497.26	2314.79
497.44	2282.02
497.62	2296.07
497.79	2167.34
497.97	2150.95
498.14	2122.87
498.32	2246.91
498.50	2150.95
498.67	2260.96
498.85	2258.62
499.03	2307.77
499.20	2314.79
499.38	2331.17
499.56	2415.43
499.73	2228.19
499.91	2139.25
500.08	2249.25
500.26	2118.18
500.44	2104.14
500.61	2097.12
500.79	2141.59
500.97	2165.00
501.14	2010.52
501.32	2253.94
501.49	2153.29
501.67	2120.53
501.84	2181.38
502.02	2047.97
502.20	2214.15
502.37	2225.85
502.55	2181.38
502.72	2162.66
502.90	2232.87
503.07	2253.94
503.25	2186.06
503.43	2064.35
503.60	2050.31
503.78	2054.99
503.95	1970.73
504.13	2190.74
504.30	2253.94
504.48	2307.77
504.65	2282.02
504.83	2179.04
505.01	2246.91
505.18	2340.54
505.36	2370.96
505.53	2354.58
505.71	2368.62
505.88	2406.07
506.06	2242.23
506.23	2298.41
506.41	2333.51
506.58	2279.68
506.76	2249.25
506.93	2218.83
507.11	2132.23
507.28	2366.28
507.46	2225.85
507.63	2202.44
507.81	2211.81
507.98	2176.70
508.16	2235.21
508.33	2216.49
508.50	2380.32
508.68	2401.39
508.85	2401.39
509.03	2403.73
509.20	2497.35
509.38	2408.41
509.55	2263.30
509.73	2319.47
509.90	2495.01
510.08	2455.22
510.25	2389.69
510.42	2282.02
510.60	2403.73
510.77	2396.71
510.95	2513.74
511.12	2431.82
511.30	2567.57
511.47	2478.63
511.64	2518.42
511.82	2377.98
511.99	2410.75
512.17	2289.04
512.34	2298.41
512.51	2291.38
512.69	2399.05
512.86	2410.75
513.04	2443.52
513.21	2291.38
513.38	2321.81
513.56	2413.09
513.73	2359.26
513.90	2260.96
514.08	2296.07
514.25	2328.83
514.43	2349.90
514.60	2314.79
514.77	2312.45
514.95	2448.20
515.12	2345.22
515.29	2396.71
515.47	2349.90
515.64	2396.71
515.81	2408.41
515.99	2354.58
516.16	2279.68
516.33	2024.56
516.51	1907.54
516.68	1886.47
516.85	1928.60
517.03	2022.22
517.20	2118.18
517.37	2218.83
517.54	2272.66
517.72	2258.62
517.89	2090.10
518.06	1942.64
518.24	2080.74
518.41	2242.23
518.58	2122.87
518.75	2244.57
518.93	2279.68
519.10	2141.59
519.27	2305.43
519.45	2284.36
519.62	2286.70
519.79	2504.37
519.96	2352.24
520.14	2303.09
520.31	2228.19
520.48	2200.10
520.65	2209.47
520.83	2445.86
521.00	2396.71
521.17	2333.51
521.34	2342.88
521.52	2298.41
521.69	2335.85
521.86	2490.33
522.03	2455.22
522.20	2333.51
522.38	2244.57
522.55	2143.93
522.72	2312.45
522.89	2249.25
523.07	2380.32
523.24	2335.85
523.41	2438.84
523.58	2389.69
523.75	2534.80
523.92	2356.92
524.10	2352.24
524.27	2487.99
524.44	2352.24
524.61	2513.74
524.78	2396.71
524.96	2497.35
525.13	2324.15
525.30	2478.63
525.47	2546.50
525.64	2506.71
525.81	2422.45
525.98	2349.90
526.16	2106.48
526.33	2108.82
526.50	2204.78
526.67	2073.71
526.84	2129.89
527.01	2069.03
527.18	2317.13
527.36	2382.67
527.53	2387.35
527.70	2459.90
527.87	2377.98
528.04	2300.75
528.21	2317.13
528.38	2499.69
528.55	2513.74
528.72	2588.63
528.89	2483.31
529.07	2593.31
529.24	2445.86
529.41	2380.32
529.58	2284.36
529.75	2335.85
529.92	2410.75
530.09	2485.65
530.26	2490.33
530.43	2530.12
530.60	2509.05
530.77	2497.35
530.94	2588.63
531.11	2459.90
531.28	2464.58
531.46	2436.50
531.63	2340.54
531.80	2473.95
531.97	2382.67
532.14	2291.38
532.31	2209.47
532.48	2282.02
532.65	2223.51
532.82	2401.39
532.99	2485.65
533.16	2420.11
533.33	2368.62
533.50	2382.67
533.67	2370.96
533.84	2345.22
534.01	2335.85
534.18	2338.20
534.35	2410.75
534.52	2464.58
534.69	2502.03
534.86	2520.76
535.03	2366.28
535.20	2380.32
535.37	2555.86
535.54	2464.58
535.71	2464.58
535.88	2504.37
536.05	2406.07
536.22	2317.13
536.38	2333.51
536.55	2326.49
536.72	2413.09
536.89	2403.73
537.06	2392.03
537.23	2555.86
537.40	2466.92
537.57	2445.86
537.74	2485.65
537.91	2445.86
538.08	2490.33
538.25	2530.12
538.42	2630.76
538.59	2588.63
538.75	2495.01
538.92	2553.52
539.09	2495.01
539.26	2473.95
539.43	2424.80
539.60	2459.90
539.77	2614.38
539.94	2588.63
540.11	2558.21
540.28	2548.84
540.44	2560.55
540.61	2647.15
540.78	2675.23
540.95	2813.32
541.12	3059.08
541.29	3066.10
541.46	3152.70
541.62	3129.30
541.79	3056.74
541.96	2939.71
542.13	3080.14
542.30	3126.96
542.47	2991.20
542.63	2942.05
542.80	2906.95
542.97	2848.43
543.14	2956.10
543.31	2923.33
543.48	2958.44
543.64	2946.73
543.81	3056.74
543.98	3094.19
544.15	2885.88
544.32	2949.08
544.48	2942.05
544.65	2949.08
544.82	3026.31
544.99	2855.45
545.16	2993.55
545.32	2946.73
545.49	3499.10
545.66	4217.65
545.83	4503.19
546.00	4344.03
546.16	3590.38
546.33	3276.75
546.50	2953.76
546.67	2881.20
546.83	2813.32
547.00	2771.19
547.17	2663.53
547.34	2651.83
547.50	2623.74
547.67	2677.57
547.84	2691.62
548.00	2605.02
548.17	2609.70
548.34	2736.09
548.51	2682.25
548.67	2661.19
548.84	2567.57
549.01	2567.57
549.18	2548.84
549.34	2438.84
549.51	2495.01
549.68	2628.42
549.84	2539.48
550.01	2551.18
550.18	2696.30
550.34	2492.67
550.51	2492.67
550.68	2588.63
550.84	2469.27
551.01	2459.90
551.18	2495.01
551.34	2368.62
551.51	2499.69
551.68	2408.41
551.84	2518.42
552.01	2408.41
552.18	2506.71
552.34	2401.39
552.51	2214.15
552.68	2359.26
552.84	2190.74
553.01	2305.43
553.18	2335.85
553.34	2335.85
553.51	2317.13
553.67	2380.32
553.84	2333.51
554.01	2277.34
554.17	2401.39
554.34	2223.51
554.51	2218.83
554.67	2328.83
554.84	2345.22
555.00	2352.24
555.17	2361.60
555.33	2270.32
555.50	2277.34
555.67	2317.13
555.83	2258.62
556.00	2172.02
556.16	2342.88
556.33	2209.47
556.50	2237.55
556.66	2263.30
556.83	2235.21
556.99	2141.59
557.16	2265.64
557.32	2242.23
557.49	2209.47
557.65	2143.93
557.82	2148.61
557.98	2167.34
558.15	2197.76
558.32	2125.21
558.48	2099.46
558.65	2181.38
558.81	2239.89
558.98	2139.25
559.14	2146.27
559.31	2181.38
559.47	2251.60
559.64	2106.48
559.80	2148.61
559.97	2043.29
560.13	2101.80
560.30	2246.91
560.46	2186.06
560.63	2289.04
560.79	2317.13
560.96	2282.02
561.12	2216.49
561.29	2101.80
561.45	1947.33
561.61	2157.97
561.78	2202.44
561.94	2251.60
562.11	2183.72
562.27	2176.70
562.44	2132.23
562.60	2207.13
562.77	2176.70
562.93	2246.91
563.10	2132.23
563.26	2169.68
563.42	2223.51
563.59	2108.82
563.75	2155.63
563.92	2094.78
564.08	2078.40
564.24	2066.69
564.41	2134.57
564.57	2134.57
564.74	2136.91
564.90	1987.11
565.07	2073.71
565.23	2050.31
565.39	2010.52
565.56	2050.31
565.72	2015.20
565.88	1987.11
566.05	1930.94
566.21	2066.69
566.38	2085.42
566.54	2101.80
566.70	2069.03
566.87	2146.27
567.03	2104.14
567.19	2193.08
567.36	2214.15
567.52	2092.44
567.68	2083.08
567.85	1984.77
568.01	2047.97
568.17	1881.79
568.34	1886.47
568.50	1900.52
568.66	1907.54
568.83	1872.43
568.99	1884.13
569.15	1975.41
569.32	1989.46
569.48	1863.07
569.64	1973.07
569.81	1933.28
569.97	1928.60
570.13	1909.88
570.30	1982.43
570.46	1923.92
570.62	1849.02
570.78	1937.96
570.95	1834.98
571.11	1778.81
571.27	1935.62
571.43	1930.94
571.60	1947.33
571.76	1916.90
571.92	1944.99
572.09	1949.67
572.25	1921.58
572.41	2017.54
572.57	1928.60
572.74	2017.54
572.90	1921.58
573.06	1956.69
573.22	1937.96
573.38	1975.41
573.55	1921.58
573.71	1968.39
573.87	1912.22
574.03	1846.68
574.20	1858.39
574.36	1930.94
574.52	1898.17
574.68	1874.77
574.84	1881.79
575.01	1825.62
575.17	1839.66
575.33	1764.76
575.49	1947.33
575.65	1942.64
575.82	1849.02
575.98	1947.33
576.14	1827.96
576.30	1963.71
576.46	2062.01
576.62	2331.17
576.79	2242.23
576.95	2139.25
577.11	2115.84
577.27	2038.61
577.43	1930.94
577.59	2001.16
577.75	1973.07
577.92	1781.15
578.08	1750.72
578.24	1732.00
578.40	1902.86
578.56	2019.88
578.72	2270.32
578.88	2258.62
579.04	2057.33
579.21	2125.21
579.37	2083.08
579.53	2022.22
579.69	2012.86
579.85	2024.56
580.01	2127.55
580.17	1919.24
580.33	1987.11
580.49	1952.01
580.65	1987.11
580.82	1926.26
580.98	1977.75
581.14	1989.46
581.30	1954.35
581.46	2033.93
581.62	2003.50
581.78	1973.07
581.94	1980.09
582.10	1956.69
582.26	1968.39
582.42	2064.35
582.58	2043.29
582.74	2122.87
582.90	2050.31
583.06	2022.22
583.22	2099.46
583.38	2071.37
583.54	2050.31
583.70	2157.97
583.86	2033.93
584.02	2010.52
584.18	2085.42
584.34	2092.44
584.50	2073.71
584.66	1940.30
584.82	2008.18
584.98	2003.50
585.14	2059.67
585.30	1954.35
585.46	1940.30
585.62	1877.11
585.78	1863.07
585.94	1966.05
586.10	1989.46
586.26	1973.07
586.42	1907.54
586.58	1935.62
586.74	2059.67
586.90	2015.20
587.06	2139.25
587.22	2064.35
587.38	1961.37
587.54	1937.96
587.70	1926.26
587.86	1975.41
588.02	1755.40
588.18	1710.93
588.34	1629.01
588.49	1502.62
588.65	1474.54
588.81	1334.11
588.97	1387.94
589.13	1526.03
589.29	1434.75
589.45	1441.77
589.61	1469.86
589.77	1561.14
589.93	1519.01
590.08	1603.27
590.24	1687.53
590.40	1586.88
590.56	1699.23
590.72	1631.35
590.88	1659.44
591.04	1603.27
591.20	1540.07
591.35	1530.71
591.51	1706.25
591.67	1577.52
591.83	1558.80
591.99	1668.80
592.15	1767.10
592.31	1717.95
592.46	1748.38
592.62	1799.87
592.78	1675.82
592.94	1813.92
593.10	1825.62
593.26	1912.22
593.41	1827.96
593.57	1671.14
593.73	1652.42
593.89	1636.03
594.05	1514.33
594.20	1495.60
594.36	1633.69
594.52	1533.05
594.68	1458.15
594.84	1537.73
594.99	1706.25
595.15	1720.29
595.31	1572.84
595.47	1673.48
595.62	1626.67
595.78	1624.33
595.94	1678.16
596.10	1591.56
596.25	1659.44
596.41	1671.14
596.57	1563.48
596.73	1614.97
596.88	1474.54
597.04	1572.84
597.20	1680.50
597.36	1614.97
597.51	1619.65
597.67	1659.44
597.83	1664.12
597.99	1678.16
598.14	1689.87
598.30	1703.91
598.46	1640.72
598.61	1647.74
598.77	1682.85
598.93	1757.74
599.09	1743.70
599.24	1626.67
599.40	1776.47
599.56	1661.78
599.71	1696.89
599.87	1687.53
600.03	1607.95
600.18	1593.90
