SpectraSuite Data File
++++++++++++++++++++++++++++++++++++
Date: Fri Oct 04 11:42:14 GMT-05:00 2013
User: price-jones
Dark Spectrum Present: No
Reference Spectrum Present: No
Number of Sampled Component Spectra: 1
Spectrometers: USB2+H05261
Integration Time (usec): 100000 (USB2+H05261)
Spectra Averaged: 1 (USB2+H05261)
Boxcar Smoothing: 0 (USB2+H05261)
Correct for Electrical Dark: No (USB2+H05261)
Strobe/Lamp Enabled: No (USB2+H05261)
Correct for Detector Non-linearity: No (USB2+H05261)
Correct for Stray Light: No (USB2+H05261)
Number of Pixels in Processed Spectrum: 2048
>>>>>Begin Processed Spectral Data<<<<<
365.73	23.41
365.92	23.41
366.12	23.41
366.32	0.00
366.52	0.00
366.72	0.00
366.91	0.00
367.11	0.00
367.31	0.00
367.51	0.00
367.70	0.00
367.90	0.00
368.10	0.00
368.30	0.00
368.49	0.00
368.69	16.38
368.89	0.00
369.09	0.00
369.28	0.00
369.48	0.00
369.68	0.00
369.87	0.00
370.07	7.02
370.27	7.02
370.47	16.38
370.66	93.62
370.86	112.35
371.06	133.41
371.25	56.17
371.45	126.39
371.65	156.82
371.84	74.90
372.04	156.82
372.24	138.09
372.44	42.13
372.63	98.30
372.83	184.90
373.03	145.11
373.22	222.35
373.42	149.79
373.62	154.48
373.81	159.16
374.01	145.11
374.21	269.16
374.40	166.18
374.60	191.92
374.79	70.22
374.99	187.24
375.19	177.88
375.38	112.35
375.58	138.09
375.78	156.82
375.97	210.65
376.17	250.44
376.37	168.52
376.56	191.92
376.76	224.69
376.95	168.52
377.15	194.26
377.35	245.76
377.54	128.73
377.74	187.24
377.93	168.52
378.13	170.86
378.33	264.48
378.52	224.69
378.72	271.50
378.91	161.50
379.11	168.52
379.31	177.88
379.50	107.66
379.70	198.95
379.89	180.22
380.09	133.41
380.28	161.50
380.48	196.60
380.68	245.76
380.87	142.77
381.07	152.13
381.26	177.88
381.46	117.03
381.65	201.29
381.85	168.52
382.04	161.50
382.24	217.67
382.43	227.03
382.63	154.48
382.83	107.66
383.02	198.95
383.22	138.09
383.41	95.96
383.61	138.09
383.80	117.03
384.00	180.22
384.19	208.31
384.39	182.56
384.58	131.07
384.78	138.09
384.97	102.98
385.17	187.24
385.36	70.22
385.56	140.43
385.75	231.71
385.95	187.24
386.14	196.60
386.34	208.31
386.53	191.92
386.72	145.11
386.92	175.54
387.11	187.24
387.31	114.69
387.50	154.48
387.70	187.24
387.89	187.24
388.09	170.86
388.28	156.82
388.48	180.22
388.67	135.75
388.86	173.20
389.06	177.88
389.25	264.48
389.45	189.58
389.64	182.56
389.84	248.10
390.03	243.42
390.22	133.41
390.42	248.10
390.61	220.01
390.81	212.99
391.00	189.58
391.19	234.05
391.39	278.52
391.58	180.22
391.78	182.56
391.97	212.99
392.16	227.03
392.36	234.05
392.55	215.33
392.75	177.88
392.94	124.05
393.13	93.62
393.33	126.39
393.52	145.11
393.71	231.71
393.91	241.08
394.10	173.20
394.29	198.95
394.49	243.42
394.68	255.12
394.88	191.92
395.07	297.25
395.26	259.80
395.46	276.18
395.65	250.44
395.84	114.69
396.04	266.82
396.23	117.03
396.42	196.60
396.62	149.79
396.81	217.67
397.00	231.71
397.19	238.73
397.39	189.58
397.58	318.31
397.77	299.59
397.97	278.52
398.16	215.33
398.35	290.23
398.55	330.02
398.74	220.01
398.93	360.44
399.12	283.20
399.32	252.78
399.51	337.04
399.70	320.65
399.90	238.73
400.09	269.16
400.28	227.03
400.47	353.42
400.67	315.97
400.86	315.97
401.05	245.76
401.24	283.20
401.44	339.38
401.63	369.80
401.82	299.59
402.01	273.84
402.21	308.95
402.40	255.12
402.59	273.84
402.78	313.63
402.97	229.37
403.17	301.93
403.36	276.18
403.55	330.02
403.74	248.10
403.93	337.04
404.13	383.85
404.32	395.55
404.51	353.42
404.70	372.15
404.89	322.99
405.09	315.97
405.28	245.76
405.47	273.84
405.66	339.38
405.85	339.38
406.05	322.99
406.24	245.76
406.43	245.76
406.62	325.33
406.81	332.36
407.00	276.18
407.20	304.27
407.39	276.18
407.58	308.95
407.77	330.02
407.96	337.04
408.15	318.31
408.34	332.36
408.54	325.33
408.73	325.33
408.92	397.89
409.11	325.33
409.30	308.95
409.49	325.33
409.68	243.42
409.87	280.86
410.07	259.80
410.26	301.93
410.45	318.31
410.64	241.08
410.83	341.72
411.02	332.36
411.21	351.08
411.40	344.06
411.59	341.72
411.78	313.63
411.98	346.40
412.17	339.38
412.36	306.61
412.55	348.74
412.74	315.97
412.93	407.25
413.12	290.23
413.31	346.40
413.50	393.21
413.69	318.31
413.88	325.33
414.07	315.97
414.26	332.36
414.45	243.42
414.64	409.59
414.83	435.34
415.02	339.38
415.22	374.49
415.41	421.30
415.60	365.12
415.79	372.15
415.98	430.66
416.17	418.96
416.36	365.12
416.55	358.10
416.74	362.78
416.93	416.62
417.12	421.30
417.31	308.95
417.50	348.74
417.69	395.55
417.88	339.38
418.07	344.06
418.26	425.98
418.45	402.57
418.64	388.53
418.83	395.55
419.02	283.20
419.21	362.78
419.39	330.02
419.58	339.38
419.77	348.74
419.96	390.87
420.15	369.80
420.34	409.59
420.53	327.68
420.72	339.38
420.91	304.27
421.10	362.78
421.29	393.21
421.48	306.61
421.67	360.44
421.86	287.89
422.05	397.89
422.24	304.27
422.43	346.40
422.61	334.70
422.80	341.72
422.99	407.25
423.18	411.93
423.37	327.68
423.56	346.40
423.75	339.38
423.94	327.68
424.13	344.06
424.32	365.12
424.50	374.49
424.69	337.04
424.88	341.72
425.07	341.72
425.26	278.52
425.45	318.31
425.64	376.83
425.83	397.89
426.01	390.87
426.20	348.74
426.39	344.06
426.58	325.33
426.77	252.78
426.96	346.40
427.15	245.76
427.33	351.08
427.52	388.53
427.71	388.53
427.90	395.55
428.09	266.82
428.28	325.33
428.46	290.23
428.65	423.64
428.84	348.74
429.03	440.02
429.22	236.39
429.40	294.91
429.59	308.95
429.78	409.59
429.97	266.82
430.16	210.65
430.34	280.86
430.53	243.42
430.72	283.20
430.91	390.87
431.10	297.25
431.28	395.55
431.47	376.83
431.66	444.70
431.85	315.97
432.03	383.85
432.22	374.49
432.41	346.40
432.60	437.68
432.79	383.85
432.97	416.62
433.16	348.74
433.35	379.17
433.54	311.29
433.72	325.33
433.91	320.65
434.10	400.23
434.28	409.59
434.47	433.00
434.66	428.32
434.85	322.99
435.03	468.11
435.22	800.46
435.41	1196.01
435.59	1291.98
435.78	1036.86
435.97	716.20
436.16	496.19
436.34	433.00
436.53	404.91
436.72	486.83
436.90	465.77
437.09	447.04
437.28	423.64
437.46	369.80
437.65	374.49
437.84	339.38
438.02	308.95
438.21	351.08
438.40	320.65
438.58	292.57
438.77	383.85
438.96	402.57
439.14	414.27
439.33	404.91
439.52	374.49
439.70	383.85
439.89	407.25
440.08	397.89
440.26	390.87
440.45	369.80
440.63	379.17
440.82	411.93
441.01	447.04
441.19	397.89
441.38	409.59
441.57	402.57
441.75	482.15
441.94	503.22
442.12	383.85
442.31	524.28
442.50	430.66
442.68	449.38
442.87	449.38
443.05	498.53
443.24	449.38
443.43	444.70
443.61	514.92
443.80	454.06
443.98	524.28
444.17	416.62
444.35	489.17
444.54	416.62
444.73	411.93
444.91	500.87
445.10	423.64
445.28	407.25
445.47	414.27
445.65	440.02
445.84	482.15
446.02	397.89
446.21	456.40
446.39	475.13
446.58	454.06
446.77	498.53
446.95	440.02
447.14	388.53
447.32	507.90
447.51	486.83
447.69	463.43
447.88	491.51
448.06	461.09
448.25	400.23
448.43	362.78
448.62	454.06
448.80	449.38
448.99	442.36
449.17	510.24
449.36	449.38
449.54	465.77
449.73	442.36
449.91	524.28
450.10	444.70
450.28	472.79
450.46	510.24
450.65	505.56
450.83	510.24
451.02	386.19
451.20	491.51
451.39	423.64
451.57	458.74
451.76	430.66
451.94	440.02
452.13	503.22
452.31	507.90
452.49	372.15
452.68	430.66
452.86	472.79
453.05	510.24
453.23	437.68
453.42	404.91
453.60	472.79
453.78	463.43
453.97	454.06
454.15	484.49
454.34	479.81
454.52	524.28
454.70	442.36
454.89	479.81
455.07	428.32
455.26	472.79
455.44	510.24
455.62	468.11
455.81	449.38
455.99	463.43
456.17	526.62
456.36	512.58
456.54	397.89
456.73	449.38
456.91	430.66
457.09	416.62
457.28	550.03
457.46	463.43
457.64	465.77
457.83	503.22
458.01	482.15
458.19	475.13
458.38	484.49
458.56	500.87
458.74	503.22
458.93	486.83
459.11	477.47
459.29	550.03
459.48	484.49
459.66	552.37
459.84	484.49
460.03	507.90
460.21	451.72
460.39	608.54
460.57	456.40
460.76	512.58
460.94	447.04
461.12	484.49
461.31	561.73
461.49	514.92
461.67	524.28
461.85	507.90
462.04	500.87
462.22	627.26
462.40	557.05
462.59	524.28
462.77	484.49
462.95	507.90
463.13	521.94
463.32	505.56
463.50	575.77
463.68	444.70
463.86	463.43
464.05	433.00
464.23	496.19
464.41	484.49
464.59	358.10
464.78	447.04
464.96	484.49
465.14	571.09
465.32	561.73
465.50	507.90
465.69	510.24
465.87	435.34
466.05	500.87
466.23	456.40
466.41	390.87
466.60	407.25
466.78	517.26
466.96	578.11
467.14	444.70
467.32	491.51
467.51	447.04
467.69	531.30
467.87	552.37
468.05	454.06
468.23	634.29
468.41	650.67
468.60	510.24
468.78	500.87
468.96	545.34
469.14	528.96
469.32	496.19
469.50	500.87
469.69	458.74
469.87	526.62
470.05	531.30
470.23	514.92
470.41	461.09
470.59	475.13
470.77	575.77
470.95	514.92
471.14	489.17
471.32	533.64
471.50	627.26
471.68	533.64
471.86	517.26
472.04	512.58
472.22	538.32
472.40	472.79
472.58	468.11
472.77	468.11
472.95	498.53
473.13	519.60
473.31	468.11
473.49	475.13
473.67	468.11
473.85	482.15
474.03	454.06
474.21	552.37
474.39	489.17
474.57	638.97
474.75	535.98
474.93	526.62
475.12	526.62
475.30	514.92
475.48	528.96
475.66	477.47
475.84	507.90
476.02	535.98
476.20	472.79
476.38	456.40
476.56	596.84
476.74	622.58
476.92	463.43
477.10	582.79
477.28	557.05
477.46	650.67
477.64	552.37
477.82	486.83
478.00	528.96
478.18	624.92
478.36	540.66
478.54	554.71
478.72	585.13
478.90	653.01
479.08	594.50
479.26	479.81
479.44	599.18
479.62	599.18
479.80	514.92
479.98	524.28
480.16	575.77
480.34	648.33
480.52	634.29
480.70	561.73
480.88	641.31
481.06	664.71
481.24	587.47
481.41	667.05
481.59	627.26
481.77	603.86
481.95	580.45
482.13	631.94
482.31	615.56
482.49	636.63
482.67	662.37
482.85	629.60
483.03	613.22
483.21	685.78
483.39	688.12
483.57	620.24
483.74	716.20
483.92	720.88
484.10	690.46
484.28	704.50
484.46	716.20
484.64	681.10
484.82	634.29
485.00	662.37
485.18	685.78
485.35	624.92
485.53	603.86
485.71	601.52
485.89	535.98
486.07	678.76
486.25	648.33
486.43	732.59
486.61	720.88
486.78	739.61
486.96	645.99
487.14	713.86
487.32	737.27
487.50	720.88
487.68	706.84
487.85	798.12
488.03	732.59
488.21	758.33
488.39	800.46
488.57	784.08
488.75	674.07
488.92	976.00
489.10	800.46
489.28	842.59
489.46	826.21
489.64	737.27
489.81	849.61
489.99	816.85
490.17	847.27
490.35	812.17
490.53	805.14
490.70	744.29
490.88	727.91
491.06	863.66
491.24	748.97
491.41	844.93
491.59	772.38
491.77	767.70
491.95	753.65
492.13	763.01
492.30	674.07
492.48	854.30
492.66	781.74
492.84	795.78
493.01	919.83
493.19	877.70
493.37	755.99
493.54	795.78
493.72	805.14
493.90	805.14
494.08	901.11
494.25	868.34
494.43	770.04
494.61	947.92
494.79	746.63
494.96	884.72
495.14	870.68
495.32	751.31
495.49	753.65
495.67	823.87
495.85	835.57
496.02	809.83
496.20	837.91
496.38	877.70
496.55	851.96
496.73	837.91
496.91	856.64
497.09	858.98
497.26	842.59
497.44	819.19
497.62	873.02
497.79	901.11
497.97	851.96
498.14	758.33
498.32	854.30
498.50	854.30
498.67	828.55
498.85	765.36
499.03	774.72
499.20	873.02
499.38	774.72
499.56	812.17
499.73	814.51
499.91	943.24
500.08	819.19
500.26	816.85
500.44	765.36
500.61	786.42
500.79	814.51
500.97	791.10
501.14	814.51
501.32	734.93
501.49	812.17
501.67	770.04
501.84	858.98
502.02	732.59
502.20	835.57
502.37	779.40
502.55	837.91
502.72	793.44
502.90	896.43
503.07	823.87
503.25	905.79
503.43	739.61
503.60	706.84
503.78	725.57
503.95	711.52
504.13	751.31
504.30	812.17
504.48	912.81
504.65	828.55
504.83	844.93
505.01	887.06
505.18	882.38
505.36	802.80
505.53	851.96
505.71	905.79
505.88	847.27
506.06	786.42
506.23	784.08
506.41	779.40
506.58	882.38
506.76	866.00
506.93	870.68
507.11	851.96
507.28	702.16
507.46	716.20
507.63	805.14
507.81	807.48
507.98	784.08
508.16	861.32
508.33	947.92
508.50	896.43
508.68	861.32
508.85	856.64
509.03	809.83
509.20	842.59
509.38	744.29
509.55	826.21
509.73	875.36
509.90	844.93
510.08	940.90
510.25	894.08
510.42	819.19
510.60	795.78
510.77	903.45
510.95	938.55
511.12	814.51
511.30	849.61
511.47	950.26
511.64	968.98
511.82	844.93
511.99	877.70
512.17	821.53
512.34	819.19
512.51	877.70
512.69	793.44
512.86	765.36
513.04	854.30
513.21	772.38
513.38	791.10
513.56	830.89
513.73	882.38
513.90	840.25
514.08	861.32
514.25	851.96
514.43	880.04
514.60	746.63
514.77	854.30
514.95	882.38
515.12	844.93
515.29	800.46
515.47	851.96
515.64	957.28
515.81	858.98
515.99	821.53
516.16	828.55
516.33	774.72
516.51	779.40
516.68	685.78
516.85	655.35
517.03	755.99
517.20	814.51
517.37	784.08
517.54	938.55
517.72	837.91
517.89	713.86
518.06	716.20
518.24	884.72
518.41	798.12
518.58	866.00
518.75	835.57
518.93	917.49
519.10	837.91
519.27	847.27
519.45	926.85
519.62	830.89
519.79	917.49
519.96	940.90
520.14	837.91
520.31	954.94
520.48	891.74
520.65	866.00
520.83	805.14
521.00	891.74
521.17	903.45
521.34	837.91
521.52	826.21
521.69	842.59
521.86	842.59
522.03	905.79
522.20	875.36
522.38	805.14
522.55	795.78
522.72	807.48
522.89	821.53
523.07	903.45
523.24	866.00
523.41	866.00
523.58	947.92
523.75	873.02
523.92	931.53
524.10	873.02
524.27	889.40
524.44	889.40
524.61	887.06
524.78	830.89
524.96	868.34
525.13	875.36
525.30	933.87
525.47	983.02
525.64	908.13
525.81	936.21
525.98	854.30
526.16	770.04
526.33	786.42
526.50	814.51
526.67	746.63
526.84	880.04
527.01	812.17
527.18	828.55
527.36	854.30
527.53	830.89
527.70	903.45
527.87	814.51
528.04	910.47
528.21	908.13
528.38	933.87
528.55	917.49
528.72	945.58
528.89	931.53
529.07	861.32
529.24	877.70
529.41	889.40
529.58	849.61
529.75	837.91
529.92	1008.77
530.09	873.02
530.26	922.17
530.43	919.83
530.60	905.79
530.77	891.74
530.94	912.81
531.11	954.94
531.28	873.02
531.46	849.61
531.63	905.79
531.80	882.38
531.97	800.46
532.14	873.02
532.31	812.17
532.48	842.59
532.65	877.70
532.82	854.30
532.99	901.11
533.16	917.49
533.33	837.91
533.50	884.72
533.67	858.98
533.84	784.08
534.01	903.45
534.18	844.93
534.35	863.66
534.52	828.55
534.69	959.62
534.86	880.04
535.03	940.90
535.20	943.24
535.37	884.72
535.54	884.72
535.71	940.90
535.88	943.24
536.05	915.15
536.22	912.81
536.38	877.70
536.55	868.34
536.72	849.61
536.89	842.59
537.06	938.55
537.23	847.27
537.40	1067.28
537.57	983.02
537.74	1006.43
537.91	1060.26
538.08	1097.71
538.25	1057.92
538.42	954.94
538.59	1020.47
538.75	959.62
538.92	936.21
539.09	1043.88
539.26	966.64
539.43	1095.37
539.60	1064.94
539.77	1090.69
539.94	1029.84
540.11	1214.74
540.28	1123.46
540.44	1188.99
540.61	1196.01
540.78	1196.01
540.95	1366.87
541.12	1650.08
541.29	1673.48
541.46	1715.61
541.62	1657.10
541.79	1671.14
541.96	1565.82
542.13	1479.22
542.30	1579.86
542.47	1561.14
542.63	1469.86
542.80	1495.60
542.97	1605.61
543.14	1441.77
543.31	1579.86
543.48	1549.43
543.64	1472.20
543.81	1563.48
543.98	1547.09
544.15	1600.93
544.32	1455.81
544.48	1460.49
544.65	1514.33
544.82	1542.41
544.99	1341.13
545.16	1542.41
545.32	1561.14
545.49	2120.53
545.66	2747.79
545.83	3258.03
546.00	2937.37
546.16	2146.27
546.33	1727.32
546.50	1589.22
546.67	1479.22
546.83	1460.49
547.00	1387.94
547.17	1249.85
547.34	1217.08
547.50	1284.95
547.67	1198.35
547.84	1247.51
548.00	1238.14
548.17	1170.27
548.34	1167.93
548.51	1254.53
548.67	1172.61
548.84	1235.80
549.01	1128.14
549.18	1196.01
549.34	1109.41
549.51	1179.63
549.68	1156.22
549.84	1104.73
550.01	1071.97
550.18	1193.67
550.34	1198.35
550.51	1090.69
550.68	1064.94
550.84	1053.24
551.01	919.83
551.18	1004.09
551.34	997.07
551.51	933.87
551.68	1018.13
551.84	950.26
552.01	940.90
552.18	959.62
552.34	961.96
552.51	952.60
552.68	933.87
552.84	896.43
553.01	903.45
553.18	1011.11
553.34	950.26
553.51	924.51
553.67	968.98
553.84	997.07
554.01	851.96
554.17	861.32
554.34	912.81
554.51	858.98
554.67	840.25
554.84	858.98
555.00	950.26
555.17	793.44
555.33	912.81
555.50	844.93
555.67	816.85
555.83	910.47
556.00	774.72
556.16	999.41
556.33	809.83
556.50	774.72
556.66	819.19
556.83	828.55
556.99	784.08
557.16	816.85
557.32	821.53
557.49	819.19
557.65	777.06
557.82	854.30
557.98	842.59
558.15	739.61
558.32	751.31
558.48	779.40
558.65	812.17
558.81	784.08
558.98	844.93
559.14	840.25
559.31	837.91
559.47	805.14
559.64	753.65
559.80	851.96
559.97	765.36
560.13	814.51
560.30	755.99
560.46	798.12
560.63	861.32
560.79	856.64
560.96	851.96
561.12	711.52
561.29	791.10
561.45	748.97
561.61	758.33
561.78	802.80
561.94	786.42
562.11	755.99
562.27	793.44
562.44	730.25
562.60	734.93
562.77	809.83
562.93	880.04
563.10	812.17
563.26	765.36
563.42	842.59
563.59	758.33
563.75	748.97
563.92	772.38
564.08	716.20
564.24	777.06
564.41	889.40
564.57	767.70
564.74	791.10
564.90	774.72
565.07	816.85
565.23	692.80
565.39	739.61
565.56	683.44
565.72	711.52
565.88	772.38
566.05	781.74
566.21	774.72
566.38	737.27
566.54	760.67
566.70	741.95
566.87	781.74
567.03	676.41
567.19	821.53
567.36	791.10
567.52	695.14
567.68	711.52
567.85	697.48
568.01	676.41
568.17	641.31
568.34	734.93
568.50	786.42
568.66	676.41
568.83	779.40
568.99	739.61
569.15	737.27
569.32	725.57
569.48	723.23
569.64	725.57
569.81	683.44
569.97	737.27
570.13	685.78
570.30	720.88
570.46	709.18
570.62	662.37
570.78	657.69
570.95	683.44
571.11	650.67
571.27	716.20
571.43	692.80
571.60	788.76
571.76	744.29
571.92	748.97
572.09	770.04
572.25	709.18
572.41	713.86
572.57	772.38
572.74	683.44
572.90	688.12
573.06	751.31
573.22	664.71
573.38	720.88
573.55	678.76
573.71	746.63
573.87	683.44
574.03	772.38
574.20	702.16
574.36	744.29
574.52	709.18
574.68	718.54
574.84	781.74
575.01	737.27
575.17	755.99
575.33	727.91
575.49	716.20
575.65	636.63
575.82	690.46
575.98	784.08
576.14	734.93
576.30	772.38
576.46	1001.75
576.62	1071.97
576.79	1153.88
576.95	1032.18
577.11	770.04
577.27	823.87
577.43	807.48
577.59	746.63
577.75	788.76
577.92	636.63
578.08	657.69
578.24	716.20
578.40	849.61
578.56	908.13
578.72	1116.44
578.88	1125.80
579.04	1036.86
579.21	894.08
579.37	828.55
579.53	896.43
579.69	823.87
579.85	830.89
580.01	875.36
580.17	746.63
580.33	816.85
580.49	753.65
580.65	683.44
580.82	805.14
580.98	753.65
581.14	795.78
581.30	774.72
581.46	802.80
581.62	849.61
581.78	807.48
581.94	835.57
582.10	828.55
582.26	938.55
582.42	849.61
582.58	903.45
582.74	844.93
582.90	793.44
583.06	882.38
583.22	805.14
583.38	837.91
583.54	931.53
583.70	877.70
583.86	840.25
584.02	919.83
584.18	880.04
584.34	887.06
584.50	777.06
584.66	774.72
584.82	814.51
584.98	826.21
585.14	788.76
585.30	786.42
585.46	809.83
585.62	730.25
585.78	861.32
585.94	805.14
586.10	812.17
586.26	858.98
586.42	922.17
586.58	863.66
586.74	933.87
586.90	964.30
587.06	1001.75
587.22	964.30
587.38	950.26
587.54	868.34
587.70	849.61
587.86	765.36
588.02	716.20
588.18	741.95
588.34	678.76
588.49	638.97
588.65	606.20
588.81	629.60
588.97	585.13
589.13	620.24
589.29	631.94
589.45	587.47
589.61	535.98
589.77	603.86
589.93	716.20
590.08	681.10
590.24	671.73
590.40	601.52
590.56	688.12
590.72	723.23
590.88	685.78
591.04	739.61
591.20	704.50
591.35	730.25
591.51	760.67
591.67	678.76
591.83	713.86
591.99	725.57
592.15	676.41
592.31	688.12
592.46	809.83
592.62	802.80
592.78	814.51
592.94	765.36
593.10	840.25
593.26	779.40
593.41	816.85
593.57	765.36
593.73	657.69
593.89	657.69
594.05	671.73
594.20	610.88
594.36	697.48
594.52	561.73
594.68	585.13
594.84	685.78
594.99	662.37
595.15	645.99
595.31	681.10
595.47	681.10
595.62	645.99
595.78	615.56
595.94	660.03
596.10	758.33
596.25	718.54
596.41	692.80
596.57	653.01
596.73	608.54
596.88	690.46
597.04	667.05
597.20	620.24
597.36	699.82
597.51	669.39
597.67	653.01
597.83	664.71
597.99	634.29
598.14	713.86
598.30	737.27
598.46	704.50
598.61	770.04
598.77	727.91
598.93	662.37
599.09	713.86
599.24	692.80
599.40	793.44
599.56	807.48
599.71	739.61
599.87	765.36
600.03	699.82
600.18	608.54
600.34	777.06
600.50	667.05
600.65	725.57
600.81	660.03
600.97	610.88
601.12	688.12
601.28	739.61
601.44	741.95
601.59	690.46
601.75	667.05
601.91	629.60
602.06	676.41
602.22	681.10
602.37	571.09
602.53	606.20
602.69	662.37
602.84	645.99
603.00	643.65
603.16	699.82
603.31	662.37
603.47	667.05
603.62	571.09
603.78	596.84
603.94	674.07
604.09	629.60
604.25	627.26
604.40	699.82
604.56	589.82
604.71	596.84
604.87	634.29
605.03	734.93
605.18	599.18
605.34	685.78
605.49	695.14
605.65	645.99
605.80	727.91
605.96	653.01
606.12	692.80
606.27	674.07
606.43	596.84
606.58	699.82
606.74	650.67
606.89	699.82
607.05	748.97
607.20	650.67
607.36	744.29
607.51	627.26
607.67	676.41
607.82	718.54
607.98	730.25
608.13	760.67
608.29	737.27
608.44	753.65
608.60	709.18
608.75	823.87
608.91	809.83
609.06	926.85
609.22	814.51
609.37	800.46
609.53	884.72
609.68	943.24
