SpectraSuite Data File
++++++++++++++++++++++++++++++++++++
Date: Fri Oct 04 11:42:04 GMT-05:00 2013
User: price-jones
Dark Spectrum Present: No
Reference Spectrum Present: No
Number of Sampled Component Spectra: 1
Spectrometers: USB2+H05261
Integration Time (usec): 100000 (USB2+H05261)
Spectra Averaged: 1 (USB2+H05261)
Boxcar Smoothing: 0 (USB2+H05261)
Correct for Electrical Dark: No (USB2+H05261)
Strobe/Lamp Enabled: No (USB2+H05261)
Correct for Detector Non-linearity: No (USB2+H05261)
Correct for Stray Light: No (USB2+H05261)
Number of Pixels in Processed Spectrum: 2048
>>>>>Begin Processed Spectral Data<<<<<
365.73	28.09
365.92	28.09
366.12	28.09
366.32	0.00
366.52	0.00
366.72	0.00
366.91	0.00
367.11	0.00
367.31	0.00
367.51	0.00
367.70	0.00
367.90	0.00
368.10	0.00
368.30	0.00
368.49	0.00
368.69	0.00
368.89	0.00
369.09	0.00
369.28	0.00
369.48	0.00
369.68	0.00
369.87	0.00
370.07	0.00
370.27	56.17
370.47	56.17
370.66	11.70
370.86	46.81
371.06	70.22
371.25	44.47
371.45	9.36
371.65	79.58
371.84	102.98
372.04	86.60
372.24	81.92
372.44	102.98
372.63	135.75
372.83	128.73
373.03	88.94
373.22	53.83
373.42	102.98
373.62	93.62
373.81	110.01
374.01	112.35
374.21	124.05
374.40	114.69
374.60	196.60
374.79	102.98
374.99	131.07
375.19	70.22
375.38	135.75
375.58	184.90
375.78	170.86
375.97	117.03
376.17	145.11
376.37	70.22
376.56	135.75
376.76	110.01
376.95	84.26
377.15	133.41
377.35	187.24
377.54	152.13
377.74	72.56
377.93	74.90
378.13	86.60
378.33	119.37
378.52	133.41
378.72	70.22
378.91	102.98
379.11	128.73
379.31	44.47
379.50	70.22
379.70	65.54
379.89	93.62
380.09	98.30
380.28	135.75
380.48	63.19
380.68	112.35
380.87	107.66
381.07	126.39
381.26	191.92
381.46	191.92
381.65	152.13
381.85	159.16
382.04	86.60
382.24	140.43
382.43	135.75
382.63	91.28
382.83	131.07
383.02	98.30
383.22	117.03
383.41	86.60
383.61	110.01
383.80	60.85
384.00	93.62
384.19	91.28
384.39	60.85
384.58	114.69
384.78	159.16
384.97	32.77
385.17	102.98
385.36	100.64
385.56	194.26
385.75	184.90
385.95	142.77
386.14	163.84
386.34	163.84
386.53	60.85
386.72	60.85
386.92	107.66
387.11	88.94
387.31	138.09
387.50	107.66
387.70	114.69
387.89	133.41
388.09	126.39
388.28	124.05
388.48	88.94
388.67	128.73
388.86	98.30
389.06	107.66
389.25	114.69
389.45	67.88
389.64	98.30
389.84	145.11
390.03	166.18
390.22	138.09
390.42	88.94
390.61	56.17
390.81	72.56
391.00	98.30
391.19	149.79
391.39	86.60
391.58	159.16
391.78	187.24
391.97	86.60
392.16	91.28
392.36	177.88
392.55	168.52
392.75	77.24
392.94	102.98
393.13	105.32
393.33	28.09
393.52	63.19
393.71	98.30
393.91	98.30
394.10	156.82
394.29	138.09
394.49	14.04
394.68	124.05
394.88	187.24
395.07	145.11
395.26	175.54
395.46	128.73
395.65	126.39
395.84	126.39
396.04	191.92
396.23	93.62
396.42	100.64
396.62	170.86
396.81	98.30
397.00	100.64
397.19	93.62
397.39	88.94
397.58	133.41
397.77	107.66
397.97	81.92
398.16	147.45
398.35	124.05
398.55	72.56
398.74	117.03
398.93	105.32
399.12	173.20
399.32	102.98
399.51	49.15
399.70	163.84
399.90	93.62
400.09	156.82
400.28	121.71
400.47	112.35
400.67	175.54
400.86	156.82
401.05	138.09
401.24	238.73
401.44	135.75
401.63	135.75
401.82	135.75
402.01	105.32
402.21	135.75
402.40	191.92
402.59	189.58
402.78	128.73
402.97	112.35
403.17	4.68
403.36	95.96
403.55	100.64
403.74	180.22
403.93	170.86
404.13	159.16
404.32	245.76
404.51	208.31
404.70	201.29
404.89	128.73
405.09	189.58
405.28	74.90
405.47	135.75
405.66	119.37
405.85	93.62
406.05	145.11
406.24	161.50
406.43	152.13
406.62	124.05
406.81	215.33
407.00	198.95
407.20	182.56
407.39	72.56
407.58	81.92
407.77	198.95
407.96	128.73
408.15	138.09
408.34	142.77
408.54	39.79
408.73	147.45
408.92	121.71
409.11	210.65
409.30	145.11
409.49	105.32
409.68	163.84
409.87	187.24
410.07	117.03
410.26	117.03
410.45	100.64
410.64	177.88
410.83	119.37
411.02	74.90
411.21	220.01
411.40	163.84
411.59	119.37
411.78	100.64
411.98	149.79
412.17	156.82
412.36	100.64
412.55	156.82
412.74	138.09
412.93	138.09
413.12	154.48
413.31	175.54
413.50	126.39
413.69	25.75
413.88	236.39
414.07	121.71
414.26	138.09
414.45	163.84
414.64	138.09
414.83	77.24
415.02	145.11
415.22	128.73
415.41	161.50
415.60	135.75
415.79	93.62
415.98	215.33
416.17	154.48
416.36	198.95
416.55	173.20
416.74	187.24
416.93	215.33
417.12	189.58
417.31	182.56
417.50	140.43
417.69	229.37
417.88	187.24
418.07	189.58
418.26	149.79
418.45	159.16
418.64	166.18
418.83	180.22
419.02	149.79
419.21	156.82
419.39	131.07
419.58	30.43
419.77	93.62
419.96	189.58
420.15	152.13
420.34	135.75
420.53	187.24
420.72	170.86
420.91	175.54
421.10	124.05
421.29	168.52
421.48	140.43
421.67	175.54
421.86	98.30
422.05	152.13
422.24	156.82
422.43	175.54
422.61	86.60
422.80	112.35
422.99	166.18
423.18	212.99
423.37	156.82
423.56	175.54
423.75	159.16
423.94	187.24
424.13	121.71
424.32	145.11
424.50	170.86
424.69	180.22
424.88	203.63
425.07	156.82
425.26	147.45
425.45	231.71
425.64	205.97
425.83	98.30
426.01	187.24
426.20	152.13
426.39	166.18
426.58	138.09
426.77	140.43
426.96	205.97
427.15	194.26
427.33	177.88
427.52	217.67
427.71	163.84
427.90	175.54
428.09	154.48
428.28	182.56
428.46	110.01
428.65	124.05
428.84	217.67
429.03	234.05
429.22	112.35
429.40	110.01
429.59	100.64
429.78	173.20
429.97	187.24
430.16	105.32
430.34	196.60
430.53	140.43
430.72	220.01
430.91	142.77
431.10	145.11
431.28	119.37
431.47	152.13
431.66	110.01
431.85	250.44
432.03	70.22
432.22	262.14
432.41	152.13
432.60	135.75
432.79	124.05
432.97	145.11
433.16	145.11
433.35	95.96
433.54	196.60
433.72	145.11
433.91	189.58
434.10	133.41
434.28	81.92
434.47	138.09
434.66	210.65
434.85	212.99
435.03	271.50
435.22	610.88
435.41	1083.67
435.59	1027.50
435.78	702.16
435.97	369.80
436.16	351.08
436.34	152.13
436.53	152.13
436.72	152.13
436.90	224.69
437.09	154.48
437.28	121.71
437.46	159.16
437.65	114.69
437.84	105.32
438.02	276.18
438.21	227.03
438.40	142.77
438.58	119.37
438.77	161.50
438.96	241.08
439.14	100.64
439.33	238.73
439.52	133.41
439.70	194.26
439.89	205.97
440.08	159.16
440.26	177.88
440.45	191.92
440.63	133.41
440.82	189.58
441.01	191.92
441.19	140.43
441.38	142.77
441.57	112.35
441.75	229.37
441.94	159.16
442.12	166.18
442.31	194.26
442.50	198.95
442.68	138.09
442.87	245.76
443.05	177.88
443.24	196.60
443.43	224.69
443.61	198.95
443.80	180.22
443.98	205.97
444.17	142.77
444.35	215.33
444.54	170.86
444.73	114.69
444.91	189.58
445.10	131.07
445.28	147.45
445.47	156.82
445.65	194.26
445.84	102.98
446.02	212.99
446.21	210.65
446.39	182.56
446.58	248.10
446.77	208.31
446.95	201.29
447.14	184.90
447.32	159.16
447.51	135.75
447.69	142.77
447.88	140.43
448.06	215.33
448.25	126.39
448.43	161.50
448.62	112.35
448.80	196.60
448.99	220.01
449.17	126.39
449.36	154.48
449.54	168.52
449.73	121.71
449.91	259.80
450.10	168.52
450.28	163.84
450.46	217.67
450.65	189.58
450.83	149.79
451.02	173.20
451.20	145.11
451.39	194.26
451.57	88.94
451.76	117.03
451.94	191.92
452.13	177.88
452.31	149.79
452.49	119.37
452.68	159.16
452.86	184.90
453.05	208.31
453.23	180.22
453.42	142.77
453.60	166.18
453.78	77.24
453.97	154.48
454.15	117.03
454.34	175.54
454.52	147.45
454.70	187.24
454.89	149.79
455.07	205.97
455.26	175.54
455.44	173.20
455.62	91.28
455.81	149.79
455.99	198.95
456.17	166.18
456.36	105.32
456.54	191.92
456.73	187.24
456.91	163.84
457.09	177.88
457.28	138.09
457.46	201.29
457.64	145.11
457.83	131.07
458.01	152.13
458.19	168.52
458.38	100.64
458.56	257.46
458.74	210.65
458.93	191.92
459.11	231.71
459.29	138.09
459.48	156.82
459.66	126.39
459.84	161.50
460.03	234.05
460.21	245.76
460.39	266.82
460.57	217.67
460.76	205.97
460.94	250.44
461.12	191.92
461.31	198.95
461.49	191.92
461.67	250.44
461.85	180.22
462.04	152.13
462.22	636.63
462.40	170.86
462.59	234.05
462.77	121.71
462.95	180.22
463.13	81.92
463.32	294.91
463.50	154.48
463.68	142.77
463.86	147.45
464.05	210.65
464.23	227.03
464.41	191.92
464.59	135.75
464.78	168.52
464.96	229.37
465.14	184.90
465.32	154.48
465.50	189.58
465.69	189.58
465.87	145.11
466.05	212.99
466.23	196.60
466.41	187.24
466.60	112.35
466.78	182.56
466.96	156.82
467.14	138.09
467.32	196.60
467.51	189.58
467.69	166.18
467.87	227.03
468.05	196.60
468.23	198.95
468.41	203.63
468.60	142.77
468.78	182.56
468.96	100.64
469.14	212.99
469.32	117.03
469.50	133.41
469.69	212.99
469.87	142.77
470.05	131.07
470.23	147.45
470.41	203.63
470.59	205.97
470.77	210.65
470.95	189.58
471.14	224.69
471.32	187.24
471.50	191.92
471.68	198.95
471.86	215.33
472.04	163.84
472.22	210.65
472.40	215.33
472.58	208.31
472.77	180.22
472.95	180.22
473.13	227.03
473.31	175.54
473.49	88.94
473.67	166.18
473.85	147.45
474.03	217.67
474.21	133.41
474.39	187.24
474.57	220.01
474.75	182.56
474.93	215.33
475.12	177.88
475.30	133.41
475.48	212.99
475.66	198.95
475.84	147.45
476.02	133.41
476.20	198.95
476.38	205.97
476.56	269.16
476.74	140.43
476.92	220.01
477.10	184.90
477.28	189.58
477.46	205.97
477.64	271.50
477.82	182.56
478.00	215.33
478.18	234.05
478.36	210.65
478.54	131.07
478.72	140.43
478.90	215.33
479.08	234.05
479.26	170.86
479.44	159.16
479.62	203.63
479.80	236.39
479.98	191.92
480.16	161.50
480.34	175.54
480.52	205.97
480.70	222.35
480.88	210.65
481.06	187.24
481.24	196.60
481.41	212.99
481.59	198.95
481.77	234.05
481.95	182.56
482.13	257.46
482.31	273.84
482.49	215.33
482.67	217.67
482.85	294.91
483.03	191.92
483.21	250.44
483.39	224.69
483.57	203.63
483.74	231.71
483.92	262.14
484.10	217.67
484.28	252.78
484.46	292.57
484.64	182.56
484.82	276.18
485.00	266.82
485.18	334.70
485.35	294.91
485.53	276.18
485.71	353.42
485.89	224.69
486.07	259.80
486.25	379.17
486.43	404.91
486.61	308.95
486.78	278.52
486.96	262.14
487.14	285.55
487.32	322.99
487.50	227.03
487.68	383.85
487.85	262.14
488.03	337.04
488.21	273.84
488.39	355.76
488.57	308.95
488.75	337.04
488.92	540.66
489.10	311.29
489.28	313.63
489.46	334.70
489.64	222.35
489.81	266.82
489.99	280.86
490.17	236.39
490.35	367.46
490.53	283.20
490.70	257.46
490.88	280.86
491.06	348.74
491.24	318.31
491.41	334.70
491.59	285.55
491.77	255.12
491.95	262.14
492.13	287.89
492.30	292.57
492.48	273.84
492.66	241.08
492.84	259.80
493.01	276.18
493.19	278.52
493.37	348.74
493.54	318.31
493.72	301.93
493.90	234.05
494.08	283.20
494.25	189.58
494.43	283.20
494.61	231.71
494.79	241.08
494.96	245.76
495.14	262.14
495.32	348.74
495.49	217.67
495.67	301.93
495.85	255.12
496.02	243.42
496.20	271.50
496.38	269.16
496.55	252.78
496.73	250.44
496.91	306.61
497.09	332.36
497.26	301.93
497.44	248.10
497.62	245.76
497.79	285.55
497.97	220.01
498.14	285.55
498.32	294.91
498.50	156.82
498.67	273.84
498.85	241.08
499.03	294.91
499.20	269.16
499.38	255.12
499.56	245.76
499.73	308.95
499.91	259.80
500.08	297.25
500.26	187.24
500.44	243.42
500.61	269.16
500.79	264.48
500.97	257.46
501.14	245.76
501.32	264.48
501.49	271.50
501.67	285.55
501.84	248.10
502.02	217.67
502.20	308.95
502.37	252.78
502.55	255.12
502.72	224.69
502.90	182.56
503.07	248.10
503.25	266.82
503.43	229.37
503.60	217.67
503.78	304.27
503.95	220.01
504.13	229.37
504.30	236.39
504.48	259.80
504.65	259.80
504.83	257.46
505.01	234.05
505.18	257.46
505.36	273.84
505.53	248.10
505.71	222.35
505.88	205.97
506.06	292.57
506.23	234.05
506.41	264.48
506.58	271.50
506.76	208.31
506.93	217.67
507.11	210.65
507.28	210.65
507.46	227.03
507.63	243.42
507.81	203.63
507.98	229.37
508.16	212.99
508.33	191.92
508.50	280.86
508.68	285.55
508.85	294.91
509.03	222.35
509.20	159.16
509.38	252.78
509.55	301.93
509.73	243.42
509.90	266.82
510.08	262.14
510.25	285.55
510.42	212.99
510.60	301.93
510.77	245.76
510.95	250.44
511.12	229.37
511.30	196.60
511.47	292.57
511.64	241.08
511.82	156.82
511.99	278.52
512.17	154.48
512.34	166.18
512.51	168.52
512.69	156.82
512.86	269.16
513.04	266.82
513.21	325.33
513.38	243.42
513.56	168.52
513.73	308.95
513.90	241.08
514.08	266.82
514.25	290.23
514.43	271.50
514.60	245.76
514.77	271.50
514.95	241.08
515.12	262.14
515.29	306.61
515.47	198.95
515.64	196.60
515.81	182.56
515.99	262.14
516.16	217.67
516.33	250.44
516.51	269.16
516.68	220.01
516.85	241.08
517.03	149.79
517.20	217.67
517.37	252.78
517.54	292.57
517.72	227.03
517.89	234.05
518.06	170.86
518.24	252.78
518.41	222.35
518.58	208.31
518.75	196.60
518.93	205.97
519.10	201.29
519.27	287.89
519.45	217.67
519.62	227.03
519.79	292.57
519.96	224.69
520.14	266.82
520.31	273.84
520.48	224.69
520.65	285.55
520.83	255.12
521.00	297.25
521.17	308.95
521.34	248.10
521.52	210.65
521.69	280.86
521.86	224.69
522.03	220.01
522.20	140.43
522.38	234.05
522.55	280.86
522.72	229.37
522.89	215.33
523.07	322.99
523.24	269.16
523.41	222.35
523.58	212.99
523.75	229.37
523.92	217.67
524.10	210.65
524.27	191.92
524.44	208.31
524.61	278.52
524.78	159.16
524.96	255.12
525.13	243.42
525.30	264.48
525.47	255.12
525.64	210.65
525.81	234.05
525.98	301.93
526.16	210.65
526.33	210.65
526.50	182.56
526.67	222.35
526.84	259.80
527.01	222.35
527.18	285.55
527.36	243.42
527.53	308.95
527.70	290.23
527.87	229.37
528.04	306.61
528.21	217.67
528.38	252.78
528.55	269.16
528.72	367.46
528.89	276.18
529.07	248.10
529.24	266.82
529.41	287.89
529.58	198.95
529.75	231.71
529.92	262.14
530.09	290.23
530.26	259.80
530.43	322.99
530.60	229.37
530.77	229.37
530.94	287.89
531.11	294.91
531.28	220.01
531.46	201.29
531.63	212.99
531.80	332.36
531.97	227.03
532.14	285.55
532.31	252.78
532.48	215.33
532.65	187.24
532.82	294.91
532.99	294.91
533.16	238.73
533.33	271.50
533.50	330.02
533.67	306.61
533.84	287.89
534.01	196.60
534.18	205.97
534.35	231.71
534.52	292.57
534.69	311.29
534.86	245.76
535.03	294.91
535.20	234.05
535.37	285.55
535.54	353.42
535.71	227.03
535.88	278.52
536.05	273.84
536.22	208.31
536.38	299.59
536.55	276.18
536.72	365.12
536.89	332.36
537.06	318.31
537.23	374.49
537.40	355.76
537.57	287.89
537.74	386.19
537.91	374.49
538.08	386.19
538.25	376.83
538.42	374.49
538.59	393.21
538.75	414.27
538.92	526.62
539.09	496.19
539.26	402.57
539.43	454.06
539.60	421.30
539.77	613.22
539.94	585.13
540.11	615.56
540.28	685.78
540.44	683.44
540.61	791.10
540.78	760.67
540.95	849.61
541.12	1022.81
541.29	1041.54
541.46	1100.05
541.62	1062.60
541.79	1088.35
541.96	1158.57
542.13	1102.39
542.30	1060.26
542.47	1057.92
542.63	1055.58
542.80	905.79
542.97	1025.15
543.14	849.61
543.31	945.58
543.48	992.39
543.64	1004.09
543.81	1008.77
543.98	936.21
544.15	917.49
544.32	933.87
544.48	994.73
544.65	964.30
544.82	908.13
544.99	823.87
545.16	924.51
545.32	992.39
545.49	1528.37
545.66	2232.87
545.83	2677.57
546.00	2429.48
546.16	1638.38
546.33	1252.19
546.50	990.05
546.67	882.38
546.83	791.10
547.00	727.91
547.17	725.57
547.34	723.23
547.50	702.16
547.67	688.12
547.84	631.94
548.00	662.37
548.17	554.71
548.34	688.12
548.51	713.86
548.67	559.39
548.84	514.92
549.01	620.24
549.18	613.22
549.34	535.98
549.51	571.09
549.68	580.45
549.84	482.15
550.01	491.51
550.18	582.79
550.34	564.07
550.51	449.38
550.68	491.51
550.84	414.27
551.01	400.23
551.18	512.58
551.34	411.93
551.51	407.25
551.68	437.68
551.84	433.00
552.01	425.98
552.18	390.87
552.34	369.80
552.51	362.78
552.68	351.08
552.84	369.80
553.01	402.57
553.18	381.51
553.34	423.64
553.51	341.72
553.67	332.36
553.84	348.74
554.01	360.44
554.17	334.70
554.34	351.08
554.51	400.23
554.67	327.68
554.84	311.29
555.00	358.10
555.17	294.91
555.33	325.33
555.50	231.71
555.67	297.25
555.83	255.12
556.00	297.25
556.16	372.15
556.33	315.97
556.50	285.55
556.66	257.46
556.83	306.61
556.99	351.08
557.16	250.44
557.32	280.86
557.49	299.59
557.65	215.33
557.82	238.73
557.98	334.70
558.15	173.20
558.32	231.71
558.48	212.99
558.65	273.84
558.81	271.50
558.98	294.91
559.14	287.89
559.31	266.82
559.47	285.55
559.64	285.55
559.80	266.82
559.97	273.84
560.13	227.03
560.30	266.82
560.46	220.01
560.63	248.10
560.79	325.33
560.96	315.97
561.12	180.22
561.29	311.29
561.45	299.59
561.61	236.39
561.78	404.91
561.94	224.69
562.11	184.90
562.27	262.14
562.44	191.92
562.60	315.97
562.77	250.44
562.93	257.46
563.10	262.14
563.26	280.86
563.42	250.44
563.59	252.78
563.75	224.69
563.92	229.37
564.08	222.35
564.24	273.84
564.41	280.86
564.57	198.95
564.74	262.14
564.90	250.44
565.07	278.52
565.23	262.14
565.39	220.01
565.56	297.25
565.72	304.27
565.88	290.23
566.05	238.73
566.21	222.35
566.38	290.23
566.54	285.55
566.70	273.84
566.87	196.60
567.03	227.03
567.19	266.82
567.36	220.01
567.52	203.63
567.68	320.65
567.85	250.44
568.01	271.50
568.17	208.31
568.34	161.50
568.50	339.38
568.66	248.10
568.83	290.23
568.99	243.42
569.15	255.12
569.32	203.63
569.48	266.82
569.64	168.52
569.81	215.33
569.97	245.76
570.13	301.93
570.30	224.69
570.46	212.99
570.62	220.01
570.78	262.14
570.95	276.18
571.11	290.23
571.27	315.97
571.43	241.08
571.60	210.65
571.76	266.82
571.92	250.44
572.09	215.33
572.25	304.27
572.41	205.97
572.57	198.95
572.74	241.08
572.90	245.76
573.06	299.59
573.22	259.80
573.38	198.95
573.55	245.76
573.71	248.10
573.87	264.48
574.03	245.76
574.20	198.95
574.36	259.80
574.52	252.78
574.68	217.67
574.84	259.80
575.01	255.12
575.17	229.37
575.33	215.33
575.49	287.89
575.65	325.33
575.82	208.31
575.98	322.99
576.14	271.50
576.30	344.06
576.46	535.98
576.62	615.56
576.79	751.31
576.95	610.88
577.11	433.00
577.27	374.49
577.43	351.08
577.59	280.86
577.75	283.20
577.92	297.25
578.08	243.42
578.24	313.63
578.40	355.76
578.56	507.90
578.72	671.73
578.88	662.37
579.04	573.43
579.21	447.04
579.37	451.72
579.53	327.68
579.69	407.25
579.85	344.06
580.01	411.93
580.17	400.23
580.33	311.29
580.49	346.40
580.65	322.99
580.82	358.10
580.98	369.80
581.14	301.93
581.30	381.51
581.46	351.08
581.62	404.91
581.78	353.42
581.94	320.65
582.10	386.19
582.26	346.40
582.42	358.10
582.58	444.70
582.74	390.87
582.90	514.92
583.06	449.38
583.22	442.36
583.38	461.09
583.54	388.53
583.70	482.15
583.86	409.59
584.02	414.27
584.18	463.43
584.34	351.08
584.50	393.21
584.66	447.04
584.82	369.80
584.98	423.64
585.14	334.70
585.30	454.06
585.46	311.29
585.62	355.76
585.78	334.70
585.94	327.68
586.10	435.34
586.26	313.63
586.42	454.06
586.58	346.40
586.74	486.83
586.90	533.64
587.06	545.34
587.22	571.09
587.38	496.19
587.54	390.87
587.70	397.89
587.86	390.87
588.02	308.95
588.18	451.72
588.34	351.08
588.49	318.31
588.65	290.23
588.81	266.82
588.97	306.61
589.13	252.78
589.29	353.42
589.45	273.84
589.61	257.46
589.77	381.51
589.93	271.50
590.08	250.44
590.24	283.20
590.40	290.23
590.56	332.36
590.72	346.40
590.88	339.38
591.04	327.68
591.20	308.95
591.35	362.78
591.51	301.93
591.67	341.72
591.83	421.30
591.99	444.70
592.15	423.64
592.31	416.62
592.46	470.45
592.62	498.53
592.78	348.74
592.94	386.19
593.10	447.04
593.26	458.74
593.41	442.36
593.57	449.38
593.73	337.04
593.89	372.15
594.05	353.42
594.20	330.02
594.36	315.97
594.52	315.97
594.68	273.84
594.84	313.63
594.99	353.42
595.15	262.14
595.31	283.20
595.47	369.80
595.62	198.95
595.78	297.25
595.94	287.89
596.10	322.99
596.25	369.80
596.41	332.36
596.57	304.27
596.73	252.78
596.88	325.33
597.04	205.97
597.20	280.86
597.36	318.31
597.51	252.78
597.67	301.93
597.83	299.59
597.99	322.99
598.14	318.31
598.30	400.23
598.46	308.95
598.61	294.91
598.77	339.38
598.93	327.68
599.09	292.57
599.24	397.89
599.40	414.27
599.56	348.74
599.71	397.89
599.87	393.21
600.03	313.63
600.18	332.36
600.34	313.63
600.50	304.27
600.65	285.55
600.81	294.91
600.97	322.99
601.12	266.82
601.28	341.72
601.44	292.57
601.59	203.63
601.75	238.73
601.91	313.63
602.06	250.44
602.22	327.68
602.37	266.82
602.53	243.42
602.69	285.55
602.84	215.33
603.00	280.86
603.16	266.82
603.31	241.08
603.47	271.50
603.62	149.79
603.78	294.91
603.94	285.55
604.09	290.23
604.25	355.76
604.40	339.38
604.56	252.78
604.71	252.78
604.87	276.18
605.03	248.10
605.18	311.29
605.34	355.76
605.49	278.52
605.65	290.23
605.80	276.18
605.96	236.39
606.12	231.71
606.27	234.05
606.43	376.83
606.58	304.27
606.74	255.12
606.89	313.63
607.05	379.17
607.20	376.83
607.36	388.53
607.51	322.99
607.67	348.74
607.82	358.10
607.98	393.21
608.13	433.00
608.29	374.49
608.44	376.83
608.60	351.08
608.75	505.56
608.91	440.02
609.06	456.40
609.22	484.49
609.37	465.77
609.53	550.03
609.68	648.33
609.84	662.37
609.99	695.14
610.15	816.85
610.30	971.32
610.46	1200.69
610.61	1526.03
610.76	1870.09
610.92	2265.64
611.07	2438.84
611.23	2518.42
