SpectraSuite Data File
++++++++++++++++++++++++++++++++++++
Date: Fri Oct 04 11:42:30 GMT-05:00 2013
User: price-jones
Dark Spectrum Present: No
Reference Spectrum Present: No
Number of Sampled Component Spectra: 1
Spectrometers: USB2+H05261
Integration Time (usec): 100000 (USB2+H05261)
Spectra Averaged: 1 (USB2+H05261)
Boxcar Smoothing: 0 (USB2+H05261)
Correct for Electrical Dark: No (USB2+H05261)
Strobe/Lamp Enabled: No (USB2+H05261)
Correct for Detector Non-linearity: No (USB2+H05261)
Correct for Stray Light: No (USB2+H05261)
Number of Pixels in Processed Spectrum: 2048
>>>>>Begin Processed Spectral Data<<<<<
365.73	11.70
365.92	11.70
366.12	11.70
366.32	0.00
366.52	0.00
366.72	9.36
366.91	0.00
367.11	0.00
367.31	0.00
367.51	0.00
367.70	0.00
367.90	0.00
368.10	0.00
368.30	0.00
368.49	0.00
368.69	0.00
368.89	0.00
369.09	0.00
369.28	0.00
369.48	0.00
369.68	18.72
369.87	0.00
370.07	18.72
370.27	32.77
370.47	0.00
370.66	46.81
370.86	0.00
371.06	117.03
371.25	72.56
371.45	93.62
371.65	128.73
371.84	70.22
372.04	39.79
372.24	67.88
372.44	121.71
372.63	102.98
372.83	152.13
373.03	112.35
373.22	131.07
373.42	58.51
373.62	147.45
373.81	88.94
374.01	112.35
374.21	135.75
374.40	93.62
374.60	121.71
374.79	81.92
374.99	184.90
375.19	138.09
375.38	161.50
375.58	124.05
375.78	88.94
375.97	117.03
376.17	114.69
376.37	95.96
376.56	110.01
376.76	70.22
376.95	124.05
377.15	168.52
377.35	114.69
377.54	98.30
377.74	107.66
377.93	23.41
378.13	117.03
378.33	161.50
378.52	65.54
378.72	124.05
378.91	138.09
379.11	154.48
379.31	107.66
379.50	42.13
379.70	166.18
379.89	128.73
380.09	145.11
380.28	9.36
380.48	86.60
380.68	100.64
380.87	84.26
381.07	91.28
381.26	110.01
381.46	140.43
381.65	86.60
381.85	95.96
382.04	154.48
382.24	46.81
382.43	65.54
382.63	152.13
382.83	152.13
383.02	112.35
383.22	93.62
383.41	133.41
383.61	63.19
383.80	142.77
384.00	77.24
384.19	154.48
384.39	133.41
384.58	67.88
384.78	67.88
384.97	70.22
385.17	126.39
385.36	128.73
385.56	131.07
385.75	65.54
385.95	117.03
386.14	180.22
386.34	110.01
386.53	173.20
386.72	133.41
386.92	133.41
387.11	128.73
387.31	105.32
387.50	49.15
387.70	142.77
387.89	121.71
388.09	124.05
388.28	170.86
388.48	81.92
388.67	138.09
388.86	51.49
389.06	156.82
389.25	133.41
389.45	100.64
389.64	98.30
389.84	93.62
390.03	117.03
390.22	98.30
390.42	126.39
390.61	110.01
390.81	93.62
391.00	112.35
391.19	112.35
391.39	91.28
391.58	142.77
391.78	110.01
391.97	180.22
392.16	107.66
392.36	98.30
392.55	133.41
392.75	79.58
392.94	119.37
393.13	131.07
393.33	102.98
393.52	88.94
393.71	159.16
393.91	81.92
394.10	131.07
394.29	86.60
394.49	110.01
394.68	149.79
394.88	107.66
395.07	114.69
395.26	131.07
395.46	124.05
395.65	140.43
395.84	105.32
396.04	170.86
396.23	77.24
396.42	98.30
396.62	72.56
396.81	60.85
397.00	131.07
397.19	112.35
397.39	51.49
397.58	110.01
397.77	140.43
397.97	189.58
398.16	110.01
398.35	154.48
398.55	91.28
398.74	60.85
398.93	119.37
399.12	77.24
399.32	117.03
399.51	117.03
399.70	133.41
399.90	74.90
400.09	128.73
400.28	154.48
400.47	114.69
400.67	91.28
400.86	175.54
401.05	72.56
401.24	184.90
401.44	161.50
401.63	86.60
401.82	126.39
402.01	84.26
402.21	65.54
402.40	63.19
402.59	131.07
402.78	105.32
402.97	95.96
403.17	114.69
403.36	102.98
403.55	131.07
403.74	149.79
403.93	194.26
404.13	215.33
404.32	231.71
404.51	285.55
404.70	210.65
404.89	161.50
405.09	234.05
405.28	67.88
405.47	67.88
405.66	147.45
405.85	154.48
406.05	117.03
406.24	102.98
406.43	107.66
406.62	170.86
406.81	156.82
407.00	156.82
407.20	163.84
407.39	142.77
407.58	114.69
407.77	112.35
407.96	210.65
408.15	140.43
408.34	131.07
408.54	128.73
408.73	152.13
408.92	98.30
409.11	86.60
409.30	159.16
409.49	88.94
409.68	79.58
409.87	74.90
410.07	159.16
410.26	126.39
410.45	117.03
410.64	110.01
410.83	227.03
411.02	114.69
411.21	152.13
411.40	161.50
411.59	98.30
411.78	100.64
411.98	168.52
412.17	63.19
412.36	147.45
412.55	145.11
412.74	196.60
412.93	163.84
413.12	135.75
413.31	187.24
413.50	67.88
413.69	140.43
413.88	180.22
414.07	152.13
414.26	145.11
414.45	117.03
414.64	39.79
414.83	182.56
415.02	222.35
415.22	203.63
415.41	182.56
415.60	161.50
415.79	163.84
415.98	180.22
416.17	117.03
416.36	107.66
416.55	180.22
416.74	191.92
416.93	220.01
417.12	133.41
417.31	119.37
417.50	177.88
417.69	194.26
417.88	149.79
418.07	88.94
418.26	121.71
418.45	88.94
418.64	184.90
418.83	175.54
419.02	170.86
419.21	159.16
419.39	198.95
419.58	93.62
419.77	163.84
419.96	177.88
420.15	170.86
420.34	154.48
420.53	161.50
420.72	145.11
420.91	100.64
421.10	114.69
421.29	159.16
421.48	142.77
421.67	110.01
421.86	98.30
422.05	161.50
422.24	227.03
422.43	121.71
422.61	138.09
422.80	128.73
422.99	149.79
423.18	81.92
423.37	149.79
423.56	166.18
423.75	145.11
423.94	114.69
424.13	175.54
424.32	117.03
424.50	180.22
424.69	49.15
424.88	175.54
425.07	86.60
425.26	149.79
425.45	168.52
425.64	203.63
425.83	187.24
426.01	208.31
426.20	81.92
426.39	175.54
426.58	100.64
426.77	135.75
426.96	126.39
427.15	180.22
427.33	124.05
427.52	114.69
427.71	114.69
427.90	145.11
428.09	149.79
428.28	126.39
428.46	93.62
428.65	77.24
428.84	140.43
429.03	194.26
429.22	81.92
429.40	58.51
429.59	102.98
429.78	173.20
429.97	149.79
430.16	119.37
430.34	210.65
430.53	117.03
430.72	112.35
430.91	119.37
431.10	133.41
431.28	168.52
431.47	177.88
431.66	196.60
431.85	175.54
432.03	124.05
432.22	180.22
432.41	102.98
432.60	212.99
432.79	117.03
432.97	133.41
433.16	184.90
433.35	159.16
433.54	184.90
433.72	198.95
433.91	142.77
434.10	234.05
434.28	198.95
434.47	210.65
434.66	147.45
434.85	217.67
435.03	327.68
435.22	554.71
435.41	1046.22
435.59	1114.10
435.78	844.93
435.97	433.00
436.16	325.33
436.34	170.86
436.53	196.60
436.72	229.37
436.90	264.48
437.09	182.56
437.28	175.54
437.46	100.64
437.65	159.16
437.84	205.97
438.02	149.79
438.21	182.56
438.40	194.26
438.58	110.01
438.77	154.48
438.96	147.45
439.14	138.09
439.33	201.29
439.52	159.16
439.70	145.11
439.89	140.43
440.08	182.56
440.26	131.07
440.45	194.26
440.63	222.35
440.82	198.95
441.01	142.77
441.19	177.88
441.38	102.98
441.57	159.16
441.75	173.20
441.94	201.29
442.12	140.43
442.31	208.31
442.50	222.35
442.68	243.42
442.87	154.48
443.05	227.03
443.24	159.16
443.43	196.60
443.61	189.58
443.80	138.09
443.98	191.92
444.17	201.29
444.35	154.48
444.54	163.84
444.73	215.33
444.91	161.50
445.10	112.35
445.28	154.48
445.47	191.92
445.65	140.43
445.84	128.73
446.02	191.92
446.21	156.82
446.39	163.84
446.58	201.29
446.77	166.18
446.95	177.88
447.14	191.92
447.32	257.46
447.51	131.07
447.69	147.45
447.88	154.48
448.06	191.92
448.25	276.18
448.43	117.03
448.62	107.66
448.80	234.05
448.99	177.88
449.17	154.48
449.36	126.39
449.54	156.82
449.73	117.03
449.91	215.33
450.10	149.79
450.28	243.42
450.46	140.43
450.65	70.22
450.83	196.60
451.02	145.11
451.20	184.90
451.39	189.58
451.57	196.60
451.76	142.77
451.94	180.22
452.13	100.64
452.31	177.88
452.49	201.29
452.68	175.54
452.86	212.99
453.05	168.52
453.23	121.71
453.42	205.97
453.60	142.77
453.78	177.88
453.97	152.13
454.15	180.22
454.34	168.52
454.52	100.64
454.70	177.88
454.89	198.95
455.07	161.50
455.26	173.20
455.44	210.65
455.62	124.05
455.81	161.50
455.99	140.43
456.17	133.41
456.36	152.13
456.54	100.64
456.73	161.50
456.91	138.09
457.09	182.56
457.28	142.77
457.46	114.69
457.64	175.54
457.83	220.01
458.01	182.56
458.19	142.77
458.38	203.63
458.56	196.60
458.74	98.30
458.93	201.29
459.11	191.92
459.29	198.95
459.48	210.65
459.66	241.08
459.84	203.63
460.03	257.46
460.21	175.54
460.39	161.50
460.57	238.73
460.76	121.71
460.94	107.66
461.12	238.73
461.31	231.71
461.49	177.88
461.67	100.64
461.85	220.01
462.04	133.41
462.22	299.59
462.40	180.22
462.59	145.11
462.77	203.63
462.95	114.69
463.13	201.29
463.32	159.16
463.50	184.90
463.68	119.37
463.86	189.58
464.05	205.97
464.23	159.16
464.41	168.52
464.59	182.56
464.78	180.22
464.96	152.13
465.14	182.56
465.32	163.84
465.50	175.54
465.69	210.65
465.87	212.99
466.05	138.09
466.23	201.29
466.41	177.88
466.60	208.31
466.78	168.52
466.96	159.16
467.14	142.77
467.32	173.20
467.51	294.91
467.69	205.97
467.87	215.33
468.05	161.50
468.23	234.05
468.41	184.90
468.60	152.13
468.78	159.16
468.96	182.56
469.14	161.50
469.32	102.98
469.50	236.39
469.69	175.54
469.87	147.45
470.05	163.84
470.23	231.71
470.41	180.22
470.59	152.13
470.77	191.92
470.95	198.95
471.14	227.03
471.32	161.50
471.50	177.88
471.68	177.88
471.86	173.20
472.04	234.05
472.22	173.20
472.40	133.41
472.58	98.30
472.77	145.11
472.95	145.11
473.13	266.82
473.31	234.05
473.49	166.18
473.67	166.18
473.85	182.56
474.03	187.24
474.21	154.48
474.39	217.67
474.57	180.22
474.75	180.22
474.93	133.41
475.12	156.82
475.30	140.43
475.48	187.24
475.66	149.79
475.84	112.35
476.02	147.45
476.20	180.22
476.38	163.84
476.56	250.44
476.74	177.88
476.92	163.84
477.10	163.84
477.28	184.90
477.46	84.26
477.64	208.31
477.82	205.97
478.00	229.37
478.18	182.56
478.36	175.54
478.54	182.56
478.72	159.16
478.90	201.29
479.08	163.84
479.26	264.48
479.44	177.88
479.62	205.97
479.80	217.67
479.98	145.11
480.16	163.84
480.34	191.92
480.52	173.20
480.70	210.65
480.88	114.69
481.06	173.20
481.24	187.24
481.41	215.33
481.59	227.03
481.77	198.95
481.95	236.39
482.13	269.16
482.31	238.73
482.49	189.58
482.67	222.35
482.85	205.97
483.03	287.89
483.21	201.29
483.39	163.84
483.57	255.12
483.74	212.99
483.92	255.12
484.10	250.44
484.28	243.42
484.46	280.86
484.64	306.61
484.82	257.46
485.00	236.39
485.18	341.72
485.35	259.80
485.53	301.93
485.71	313.63
485.89	220.01
486.07	229.37
486.25	353.42
486.43	365.12
486.61	327.68
486.78	330.02
486.96	280.86
487.14	271.50
487.32	330.02
487.50	355.76
487.68	325.33
487.85	320.65
488.03	322.99
488.21	313.63
488.39	304.27
488.57	388.53
488.75	269.16
488.92	526.62
489.10	301.93
489.28	386.19
489.46	386.19
489.64	273.84
489.81	290.23
489.99	337.04
490.17	315.97
490.35	376.83
490.53	252.78
490.70	322.99
490.88	348.74
491.06	287.89
491.24	318.31
491.41	306.61
491.59	257.46
491.77	292.57
491.95	301.93
492.13	273.84
492.30	318.31
492.48	299.59
492.66	163.84
492.84	292.57
493.01	264.48
493.19	262.14
493.37	320.65
493.54	320.65
493.72	290.23
493.90	337.04
494.08	330.02
494.25	273.84
494.43	311.29
494.61	330.02
494.79	264.48
494.96	194.26
495.14	304.27
495.32	285.55
495.49	332.36
495.67	262.14
495.85	337.04
496.02	269.16
496.20	299.59
496.38	355.76
496.55	294.91
496.73	332.36
496.91	229.37
497.09	250.44
497.26	262.14
497.44	236.39
497.62	217.67
497.79	273.84
497.97	273.84
498.14	276.18
498.32	236.39
498.50	304.27
498.67	222.35
498.85	224.69
499.03	297.25
499.20	280.86
499.38	156.82
499.56	243.42
499.73	285.55
499.91	327.68
500.08	320.65
500.26	175.54
500.44	234.05
500.61	301.93
500.79	243.42
500.97	234.05
501.14	264.48
501.32	212.99
501.49	292.57
501.67	257.46
501.84	294.91
502.02	262.14
502.20	322.99
502.37	273.84
502.55	159.16
502.72	250.44
502.90	283.20
503.07	205.97
503.25	234.05
503.43	205.97
503.60	201.29
503.78	220.01
503.95	238.73
504.13	241.08
504.30	299.59
504.48	210.65
504.65	243.42
504.83	276.18
505.01	149.79
505.18	262.14
505.36	313.63
505.53	262.14
505.71	142.77
505.88	220.01
506.06	236.39
506.23	271.50
506.41	184.90
506.58	266.82
506.76	311.29
506.93	203.63
507.11	308.95
507.28	248.10
507.46	257.46
507.63	241.08
507.81	196.60
507.98	184.90
508.16	241.08
508.33	332.36
508.50	255.12
508.68	210.65
508.85	269.16
509.03	187.24
509.20	259.80
509.38	189.58
509.55	229.37
509.73	217.67
509.90	220.01
510.08	182.56
510.25	252.78
510.42	262.14
510.60	252.78
510.77	217.67
510.95	262.14
511.12	215.33
511.30	180.22
511.47	320.65
511.64	187.24
511.82	212.99
511.99	187.24
512.17	170.86
512.34	285.55
512.51	220.01
512.69	250.44
512.86	234.05
513.04	227.03
513.21	325.33
513.38	248.10
513.56	243.42
513.73	168.52
513.90	229.37
514.08	229.37
514.25	238.73
514.43	189.58
514.60	220.01
514.77	170.86
514.95	299.59
515.12	198.95
515.29	220.01
515.47	248.10
515.64	294.91
515.81	220.01
515.99	234.05
516.16	299.59
516.33	257.46
516.51	285.55
516.68	205.97
516.85	205.97
517.03	210.65
517.20	208.31
517.37	236.39
517.54	276.18
517.72	210.65
517.89	215.33
518.06	224.69
518.24	292.57
518.41	280.86
518.58	304.27
518.75	304.27
518.93	238.73
519.10	210.65
519.27	173.20
519.45	257.46
519.62	222.35
519.79	184.90
519.96	189.58
520.14	210.65
520.31	278.52
520.48	248.10
520.65	231.71
520.83	278.52
521.00	355.76
521.17	334.70
521.34	243.42
521.52	243.42
521.69	175.54
521.86	191.92
522.03	257.46
522.20	283.20
522.38	194.26
522.55	236.39
522.72	248.10
522.89	241.08
523.07	311.29
523.24	292.57
523.41	187.24
523.58	301.93
523.75	301.93
523.92	255.12
524.10	306.61
524.27	271.50
524.44	280.86
524.61	292.57
524.78	212.99
524.96	217.67
525.13	278.52
525.30	273.84
525.47	372.15
525.64	322.99
525.81	273.84
525.98	264.48
526.16	229.37
526.33	245.76
526.50	241.08
526.67	222.35
526.84	250.44
527.01	215.33
527.18	236.39
527.36	205.97
527.53	220.01
527.70	330.02
527.87	245.76
528.04	318.31
528.21	243.42
528.38	276.18
528.55	194.26
528.72	290.23
528.89	262.14
529.07	222.35
529.24	229.37
529.41	322.99
529.58	248.10
529.75	217.67
529.92	325.33
530.09	351.08
530.26	222.35
530.43	318.31
530.60	273.84
530.77	299.59
530.94	358.10
531.11	388.53
531.28	241.08
531.46	243.42
531.63	294.91
531.80	322.99
531.97	252.78
532.14	287.89
532.31	306.61
532.48	241.08
532.65	250.44
532.82	191.92
532.99	344.06
533.16	301.93
533.33	341.72
533.50	402.57
533.67	362.78
533.84	297.25
534.01	241.08
534.18	276.18
534.35	299.59
534.52	252.78
534.69	376.83
534.86	252.78
535.03	280.86
535.20	308.95
535.37	304.27
535.54	262.14
535.71	266.82
535.88	334.70
536.05	299.59
536.22	311.29
536.38	334.70
536.55	330.02
536.72	351.08
536.89	339.38
537.06	362.78
537.23	376.83
537.40	430.66
537.57	388.53
537.74	414.27
537.91	449.38
538.08	344.06
538.25	435.34
538.42	493.85
538.59	514.92
538.75	425.98
538.92	428.32
539.09	479.81
539.26	465.77
539.43	566.41
539.60	580.45
539.77	596.84
539.94	554.71
540.11	571.09
540.28	765.36
540.44	746.63
540.61	737.27
540.78	833.23
540.95	894.08
541.12	1067.28
541.29	1053.24
541.46	1200.69
541.62	1158.57
541.79	1109.41
541.96	1165.59
542.13	1270.91
542.30	1191.33
542.47	1153.88
542.63	1198.35
542.80	1036.86
542.97	1114.10
543.14	1048.56
543.31	1181.97
543.48	1081.33
543.64	1109.41
543.81	1104.73
543.98	1111.75
544.15	1062.60
544.32	1067.28
544.48	1071.97
544.65	1006.43
544.82	1020.47
544.99	1011.11
545.16	1053.24
545.32	1027.50
545.49	1500.28
545.66	2289.04
545.83	2860.13
546.00	2595.65
546.16	1739.02
546.33	1399.64
546.50	1006.43
546.67	903.45
546.83	807.48
547.00	816.85
547.17	655.35
547.34	643.65
547.50	739.61
547.67	667.05
547.84	645.99
548.00	683.44
548.17	629.60
548.34	575.77
548.51	683.44
548.67	681.10
548.84	727.91
549.01	610.88
549.18	624.92
549.34	589.82
549.51	599.18
549.68	606.20
549.84	589.82
550.01	533.64
550.18	610.88
550.34	573.43
550.51	524.28
550.68	596.84
550.84	496.19
551.01	437.68
551.18	521.94
551.34	458.74
551.51	409.59
551.68	461.09
551.84	414.27
552.01	486.83
552.18	503.22
552.34	383.85
552.51	435.34
552.68	341.72
552.84	372.15
553.01	402.57
553.18	346.40
553.34	390.87
553.51	320.65
553.67	348.74
553.84	416.62
554.01	348.74
554.17	351.08
554.34	369.80
554.51	372.15
554.67	264.48
554.84	313.63
555.00	248.10
555.17	301.93
555.33	360.44
555.50	358.10
555.67	292.57
555.83	287.89
556.00	266.82
556.16	386.19
556.33	355.76
556.50	271.50
556.66	304.27
556.83	198.95
556.99	337.04
557.16	273.84
557.32	369.80
557.49	273.84
557.65	320.65
557.82	243.42
557.98	215.33
558.15	287.89
558.32	243.42
558.48	234.05
558.65	248.10
558.81	308.95
558.98	191.92
559.14	332.36
559.31	257.46
559.47	236.39
559.64	205.97
559.80	262.14
559.97	184.90
560.13	262.14
560.30	198.95
560.46	191.92
560.63	285.55
560.79	255.12
560.96	276.18
561.12	285.55
561.29	283.20
561.45	215.33
561.61	278.52
561.78	262.14
561.94	234.05
562.11	250.44
562.27	248.10
562.44	269.16
562.60	322.99
562.77	292.57
562.93	330.02
563.10	297.25
563.26	325.33
563.42	290.23
563.59	177.88
563.75	320.65
563.92	301.93
564.08	222.35
564.24	297.25
564.41	212.99
564.57	248.10
564.74	287.89
564.90	264.48
565.07	330.02
565.23	231.71
565.39	243.42
565.56	262.14
565.72	266.82
565.88	243.42
566.05	262.14
566.21	250.44
566.38	208.31
566.54	248.10
566.70	294.91
566.87	170.86
567.03	236.39
567.19	262.14
567.36	283.20
567.52	224.69
567.68	248.10
567.85	280.86
568.01	191.92
568.17	287.89
568.34	227.03
568.50	304.27
568.66	220.01
568.83	313.63
568.99	313.63
569.15	271.50
569.32	224.69
569.48	182.56
569.64	224.69
569.81	177.88
569.97	229.37
570.13	283.20
570.30	173.20
570.46	231.71
570.62	278.52
570.78	269.16
570.95	276.18
571.11	262.14
571.27	257.46
571.43	184.90
571.60	308.95
571.76	241.08
571.92	243.42
572.09	280.86
572.25	259.80
572.41	177.88
572.57	177.88
572.74	250.44
572.90	236.39
573.06	229.37
573.22	290.23
573.38	224.69
573.55	266.82
573.71	189.58
573.87	203.63
574.03	212.99
574.20	203.63
574.36	297.25
574.52	133.41
574.68	212.99
574.84	252.78
575.01	327.68
575.17	243.42
575.33	252.78
575.49	266.82
575.65	224.69
575.82	313.63
575.98	308.95
576.14	212.99
576.30	327.68
576.46	517.26
576.62	692.80
576.79	674.07
576.95	603.86
577.11	507.90
577.27	369.80
577.43	292.57
577.59	297.25
577.75	276.18
577.92	280.86
578.08	365.12
578.24	271.50
578.40	271.50
578.56	442.36
578.72	601.52
578.88	702.16
579.04	533.64
579.21	510.24
579.37	423.64
579.53	360.44
579.69	362.78
579.85	355.76
580.01	472.79
580.17	421.30
580.33	407.25
580.49	362.78
580.65	365.12
580.82	358.10
580.98	339.38
581.14	393.21
581.30	353.42
581.46	365.12
581.62	376.83
581.78	402.57
581.94	383.85
582.10	395.55
582.26	374.49
582.42	407.25
582.58	433.00
582.74	376.83
582.90	423.64
583.06	435.34
583.22	418.96
583.38	463.43
583.54	411.93
583.70	430.66
583.86	376.83
584.02	449.38
584.18	505.56
584.34	369.80
584.50	423.64
584.66	418.96
584.82	390.87
584.98	393.21
585.14	346.40
585.30	365.12
585.46	409.59
585.62	416.62
585.78	390.87
585.94	463.43
586.10	330.02
586.26	451.72
586.42	456.40
586.58	458.74
586.74	514.92
586.90	528.96
587.06	500.87
587.22	596.84
587.38	622.58
587.54	552.37
587.70	500.87
587.86	400.23
588.02	458.74
588.18	465.77
588.34	376.83
588.49	341.72
588.65	341.72
588.81	255.12
588.97	299.59
589.13	259.80
589.29	299.59
589.45	379.17
589.61	358.10
589.77	313.63
589.93	318.31
590.08	308.95
590.24	360.44
590.40	299.59
590.56	325.33
590.72	355.76
590.88	320.65
591.04	320.65
591.20	346.40
591.35	369.80
591.51	374.49
591.67	346.40
591.83	248.10
591.99	367.46
592.15	358.10
592.31	416.62
592.46	379.17
592.62	381.51
592.78	479.81
592.94	451.72
593.10	468.11
593.26	423.64
593.41	411.93
593.57	397.89
593.73	285.55
593.89	393.21
594.05	315.97
594.20	276.18
594.36	283.20
594.52	266.82
594.68	306.61
594.84	290.23
594.99	339.38
595.15	330.02
595.31	273.84
595.47	327.68
595.62	259.80
595.78	283.20
595.94	259.80
596.10	304.27
596.25	311.29
596.41	311.29
596.57	299.59
596.73	301.93
596.88	224.69
597.04	388.53
597.20	360.44
597.36	301.93
597.51	299.59
597.67	262.14
597.83	245.76
597.99	327.68
598.14	290.23
598.30	315.97
598.46	271.50
598.61	313.63
598.77	315.97
598.93	283.20
599.09	306.61
599.24	362.78
599.40	435.34
599.56	372.15
599.71	376.83
599.87	358.10
600.03	299.59
600.18	404.91
600.34	355.76
600.50	318.31
600.65	351.08
600.81	337.04
600.97	330.02
601.12	348.74
601.28	337.04
601.44	266.82
601.59	248.10
601.75	262.14
601.91	285.55
602.06	334.70
602.22	365.12
602.37	271.50
602.53	280.86
602.69	250.44
602.84	203.63
603.00	290.23
603.16	205.97
603.31	245.76
603.47	290.23
603.62	234.05
603.78	304.27
603.94	264.48
604.09	297.25
604.25	269.16
604.40	313.63
604.56	290.23
604.71	299.59
604.87	287.89
605.03	229.37
605.18	294.91
605.34	346.40
605.49	276.18
605.65	276.18
605.80	280.86
605.96	348.74
606.12	339.38
606.27	379.17
606.43	330.02
606.58	315.97
606.74	332.36
606.89	353.42
607.05	299.59
607.20	299.59
607.36	280.86
607.51	250.44
607.67	381.51
607.82	348.74
607.98	360.44
608.13	423.64
608.29	360.44
608.44	517.26
608.60	388.53
608.75	435.34
608.91	519.60
609.06	561.73
609.22	545.34
609.37	517.26
609.53	550.03
609.68	655.35
609.84	751.31
609.99	709.18
610.15	814.51
610.30	1160.91
610.46	1310.70
610.61	1591.56
610.76	1933.28
610.92	2277.34
611.07	2523.10
