SpectraSuite Data File
++++++++++++++++++++++++++++++++++++
Date: Fri Oct 04 11:41:53 GMT-05:00 2013
User: price-jones
Dark Spectrum Present: No
Reference Spectrum Present: No
Number of Sampled Component Spectra: 1
Spectrometers: USB2+H05261
Integration Time (usec): 100000 (USB2+H05261)
Spectra Averaged: 1 (USB2+H05261)
Boxcar Smoothing: 0 (USB2+H05261)
Correct for Electrical Dark: No (USB2+H05261)
Strobe/Lamp Enabled: No (USB2+H05261)
Correct for Detector Non-linearity: No (USB2+H05261)
Correct for Stray Light: No (USB2+H05261)
Number of Pixels in Processed Spectrum: 2048
>>>>>Begin Processed Spectral Data<<<<<
365.73	0.00
365.92	0.00
366.12	0.00
366.32	0.00
366.52	0.00
366.72	2.34
366.91	0.00
367.11	0.00
367.31	0.00
367.51	0.00
367.70	0.00
367.90	9.36
368.10	0.00
368.30	0.00
368.49	0.00
368.69	0.00
368.89	0.00
369.09	4.68
369.28	0.00
369.48	0.00
369.68	0.00
369.87	0.00
370.07	0.00
370.27	0.00
370.47	0.00
370.66	2.34
370.86	60.85
371.06	11.70
371.25	72.56
371.45	79.58
371.65	65.54
371.84	70.22
372.04	0.00
372.24	112.35
372.44	72.56
372.63	79.58
372.83	128.73
373.03	102.98
373.22	88.94
373.42	145.11
373.62	126.39
373.81	105.32
374.01	149.79
374.21	79.58
374.40	60.85
374.60	91.28
374.79	124.05
374.99	133.41
375.19	145.11
375.38	126.39
375.58	196.60
375.78	133.41
375.97	152.13
376.17	159.16
376.37	196.60
376.56	163.84
376.76	117.03
376.95	124.05
377.15	135.75
377.35	149.79
377.54	154.48
377.74	86.60
377.93	161.50
378.13	187.24
378.33	184.90
378.52	131.07
378.72	194.26
378.91	152.13
379.11	152.13
379.31	140.43
379.50	142.77
379.70	121.71
379.89	156.82
380.09	135.75
380.28	138.09
380.48	145.11
380.68	81.92
380.87	177.88
381.07	114.69
381.26	159.16
381.46	159.16
381.65	105.32
381.85	140.43
382.04	175.54
382.24	117.03
382.43	98.30
382.63	114.69
382.83	86.60
383.02	149.79
383.22	128.73
383.41	114.69
383.61	152.13
383.80	77.24
384.00	135.75
384.19	86.60
384.39	147.45
384.58	119.37
384.78	107.66
384.97	189.58
385.17	98.30
385.36	84.26
385.56	135.75
385.75	102.98
385.95	152.13
386.14	163.84
386.34	84.26
386.53	131.07
386.72	114.69
386.92	166.18
387.11	131.07
387.31	124.05
387.50	124.05
387.70	110.01
387.89	95.96
388.09	126.39
388.28	149.79
388.48	128.73
388.67	124.05
388.86	161.50
389.06	156.82
389.25	182.56
389.45	110.01
389.64	166.18
389.84	77.24
390.03	203.63
390.22	133.41
390.42	189.58
390.61	98.30
390.81	138.09
391.00	142.77
391.19	88.94
391.39	119.37
391.58	135.75
391.78	140.43
391.97	161.50
392.16	124.05
392.36	194.26
392.55	138.09
392.75	149.79
392.94	124.05
393.13	126.39
393.33	128.73
393.52	65.54
393.71	140.43
393.91	119.37
394.10	93.62
394.29	67.88
394.49	126.39
394.68	131.07
394.88	142.77
395.07	189.58
395.26	166.18
395.46	98.30
395.65	121.71
395.84	182.56
396.04	262.14
396.23	135.75
396.42	107.66
396.62	114.69
396.81	184.90
397.00	131.07
397.19	98.30
397.39	95.96
397.58	98.30
397.77	110.01
397.97	205.97
398.16	180.22
398.35	187.24
398.55	138.09
398.74	189.58
398.93	220.01
399.12	187.24
399.32	140.43
399.51	198.95
399.70	198.95
399.90	184.90
400.09	166.18
400.28	184.90
400.47	128.73
400.67	259.80
400.86	110.01
401.05	135.75
401.24	175.54
401.44	278.52
401.63	138.09
401.82	168.52
402.01	245.76
402.21	119.37
402.40	173.20
402.59	280.86
402.78	276.18
402.97	182.56
403.17	222.35
403.36	236.39
403.55	332.36
403.74	664.71
403.93	2155.63
404.13	5345.78
404.32	8369.76
404.51	8170.81
404.70	5130.45
404.89	1888.81
405.09	582.79
405.28	306.61
405.47	215.33
405.66	198.95
405.85	121.71
406.05	175.54
406.24	227.03
406.43	250.44
406.62	248.10
406.81	346.40
407.00	327.68
407.20	697.48
407.39	1078.99
407.58	1268.57
407.77	929.19
407.96	512.58
408.15	278.52
408.34	191.92
408.54	250.44
408.73	131.07
408.92	163.84
409.11	227.03
409.30	220.01
409.49	196.60
409.68	138.09
409.87	264.48
410.07	175.54
410.26	194.26
410.45	205.97
410.64	248.10
410.83	224.69
411.02	224.69
411.21	266.82
411.40	287.89
411.59	189.58
411.78	163.84
411.98	191.92
412.17	255.12
412.36	236.39
412.55	236.39
412.74	229.37
412.93	330.02
413.12	238.73
413.31	220.01
413.50	287.89
413.69	205.97
413.88	243.42
414.07	191.92
414.26	285.55
414.45	276.18
414.64	255.12
414.83	252.78
415.02	271.50
415.22	294.91
415.41	245.76
415.60	271.50
415.79	191.92
415.98	266.82
416.17	290.23
416.36	236.39
416.55	231.71
416.74	266.82
416.93	283.20
417.12	294.91
417.31	346.40
417.50	311.29
417.69	294.91
417.88	283.20
418.07	243.42
418.26	269.16
418.45	259.80
418.64	287.89
418.83	266.82
419.02	306.61
419.21	301.93
419.39	294.91
419.58	227.03
419.77	294.91
419.96	334.70
420.15	313.63
420.34	262.14
420.53	280.86
420.72	358.10
420.91	355.76
421.10	348.74
421.29	341.72
421.48	332.36
421.67	290.23
421.86	299.59
422.05	241.08
422.24	271.50
422.43	320.65
422.61	238.73
422.80	285.55
422.99	381.51
423.18	280.86
423.37	318.31
423.56	313.63
423.75	341.72
423.94	306.61
424.13	290.23
424.32	248.10
424.50	283.20
424.69	292.57
424.88	262.14
425.07	334.70
425.26	276.18
425.45	271.50
425.64	346.40
425.83	365.12
426.01	372.15
426.20	348.74
426.39	325.33
426.58	341.72
426.77	402.57
426.96	301.93
427.15	372.15
427.33	341.72
427.52	367.46
427.71	365.12
427.90	407.25
428.09	393.21
428.28	397.89
428.46	341.72
428.65	351.08
428.84	397.89
429.03	374.49
429.22	360.44
429.40	402.57
429.59	360.44
429.78	423.64
429.97	372.15
430.16	402.57
430.34	383.85
430.53	365.12
430.72	393.21
430.91	362.78
431.10	337.04
431.28	482.15
431.47	468.11
431.66	414.27
431.85	505.56
432.03	512.58
432.22	470.45
432.41	531.30
432.60	550.03
432.79	486.83
432.97	554.71
433.16	470.45
433.35	627.26
433.54	772.38
433.72	770.04
433.91	791.10
434.10	866.00
434.28	936.21
434.47	1104.73
434.66	1270.91
434.85	1481.56
435.03	3679.32
435.22	13507.23
435.41	33762.23
435.59	42424.55
435.78	28762.84
435.97	13640.64
436.16	5088.32
436.34	1809.23
436.53	1069.62
436.72	791.10
436.90	781.74
437.09	671.73
437.28	681.10
437.46	650.67
437.65	554.71
437.84	557.05
438.02	540.66
438.21	531.30
438.40	526.62
438.58	559.39
438.77	505.56
438.96	585.13
439.14	613.22
439.33	564.07
439.52	517.26
439.70	568.75
439.89	538.32
440.08	535.98
440.26	573.43
440.45	547.69
440.63	526.62
440.82	521.94
441.01	477.47
441.19	517.26
441.38	528.96
441.57	538.32
441.75	519.60
441.94	566.41
442.12	580.45
442.31	599.18
442.50	528.96
442.68	489.17
442.87	545.34
443.05	491.51
443.24	571.09
443.43	617.90
443.61	517.26
443.80	524.28
443.98	489.17
444.17	477.47
444.35	559.39
444.54	552.37
444.73	545.34
444.91	550.03
445.10	557.05
445.28	524.28
445.47	407.25
445.65	484.49
445.84	526.62
446.02	540.66
446.21	521.94
446.39	571.09
446.58	526.62
446.77	505.56
446.95	479.81
447.14	484.49
447.32	575.77
447.51	489.17
447.69	561.73
447.88	578.11
448.06	601.52
448.25	526.62
448.43	442.36
448.62	571.09
448.80	554.71
448.99	617.90
449.17	491.51
449.36	482.15
449.54	545.34
449.73	493.85
449.91	559.39
450.10	540.66
450.28	557.05
450.46	596.84
450.65	521.94
450.83	550.03
451.02	517.26
451.20	531.30
451.39	545.34
451.57	510.24
451.76	503.22
451.94	465.77
452.13	671.73
452.31	461.09
452.49	538.32
452.68	552.37
452.86	585.13
453.05	564.07
453.23	535.98
453.42	528.96
453.60	461.09
453.78	545.34
453.97	479.81
454.15	519.60
454.34	477.47
454.52	496.19
454.70	594.50
454.89	566.41
455.07	557.05
455.26	552.37
455.44	535.98
455.62	617.90
455.81	435.34
455.99	533.64
456.17	454.06
456.36	517.26
456.54	498.53
456.73	505.56
456.91	575.77
457.09	571.09
457.28	510.24
457.46	550.03
457.64	557.05
457.83	423.64
458.01	528.96
458.19	507.90
458.38	510.24
458.56	510.24
458.74	526.62
458.93	449.38
459.11	496.19
459.29	479.81
459.48	437.68
459.66	500.87
459.84	496.19
460.03	554.71
460.21	484.49
460.39	543.00
460.57	493.85
460.76	461.09
460.94	507.90
461.12	512.58
461.31	543.00
461.49	475.13
461.67	486.83
461.85	528.96
462.04	528.96
462.22	990.05
462.40	451.72
462.59	444.70
462.77	479.81
462.95	550.03
463.13	451.72
463.32	543.00
463.50	571.09
463.68	503.22
463.86	475.13
464.05	475.13
464.23	543.00
464.41	519.60
464.59	559.39
464.78	496.19
464.96	486.83
465.14	428.32
465.32	500.87
465.50	528.96
465.69	521.94
465.87	437.68
466.05	543.00
466.23	381.51
466.41	484.49
466.60	437.68
466.78	606.20
466.96	589.82
467.14	526.62
467.32	610.88
467.51	573.43
467.69	505.56
467.87	447.04
468.05	442.36
468.23	540.66
468.41	461.09
468.60	456.40
468.78	479.81
468.96	465.77
469.14	482.15
469.32	360.44
469.50	440.02
469.69	470.45
469.87	409.59
470.05	496.19
470.23	486.83
470.41	493.85
470.59	430.66
470.77	486.83
470.95	498.53
471.14	479.81
471.32	479.81
471.50	482.15
471.68	425.98
471.86	447.04
472.04	449.38
472.22	521.94
472.40	393.21
472.58	402.57
472.77	475.13
472.95	451.72
473.13	496.19
473.31	561.73
473.49	482.15
473.67	444.70
473.85	540.66
474.03	475.13
474.21	524.28
474.39	526.62
474.57	521.94
474.75	514.92
474.93	421.30
475.12	449.38
475.30	400.23
475.48	521.94
475.66	566.41
475.84	456.40
476.02	435.34
476.20	505.56
476.38	465.77
476.56	538.32
476.74	449.38
476.92	484.49
477.10	533.64
477.28	559.39
477.46	512.58
477.64	575.77
477.82	470.45
478.00	484.49
478.18	507.90
478.36	505.56
478.54	552.37
478.72	578.11
478.90	627.26
479.08	571.09
479.26	617.90
479.44	636.63
479.62	627.26
479.80	669.39
479.98	650.67
480.16	727.91
480.34	716.20
480.52	678.76
480.70	732.59
480.88	833.23
481.06	849.61
481.24	873.02
481.41	919.83
481.59	882.38
481.77	1015.79
481.95	1020.47
482.13	1086.01
482.31	1254.53
482.49	1256.87
482.67	1376.24
482.85	1451.13
483.03	1605.61
483.21	1614.97
483.39	1694.55
483.57	1912.22
483.74	1933.28
483.92	1982.43
484.10	2160.31
484.28	2392.03
484.46	2621.40
484.64	2715.02
484.82	2642.46
485.00	2818.00
485.18	2991.20
485.35	3260.37
485.53	3279.09
485.71	3653.58
485.89	3669.96
486.07	3833.80
486.25	3801.03
486.43	3742.52
486.61	3889.97
486.78	3786.99
486.96	3887.63
487.14	3840.82
487.32	3857.20
487.50	3585.70
487.68	3768.26
487.85	3824.44
488.03	3672.30
488.21	3513.14
488.39	3625.49
488.57	3456.97
488.75	3412.50
488.92	3480.38
489.10	3248.66
489.28	3124.62
489.46	2911.63
489.64	2916.31
489.81	3021.63
489.99	2911.63
490.17	2918.65
490.35	2857.79
490.53	2719.70
490.70	2846.09
490.88	2703.32
491.06	3068.44
491.24	3152.70
491.41	3173.77
491.59	3218.24
491.77	2867.16
491.95	2738.43
492.13	2724.38
492.30	2691.62
492.48	2548.84
492.66	2562.89
492.84	2495.01
493.01	2373.30
493.19	2506.71
493.37	2417.77
493.54	2321.81
493.72	2321.81
493.90	2331.17
494.08	2326.49
494.25	2265.64
494.43	2300.75
494.61	2256.28
494.79	2069.03
494.96	2008.18
495.14	2218.83
495.32	2099.46
495.49	1996.48
495.67	2052.65
495.85	1977.75
496.02	1813.92
496.20	1912.22
496.38	1867.75
496.55	1872.43
496.73	1884.13
496.91	1762.42
497.09	1696.89
497.26	1776.47
497.44	1654.76
497.62	1736.68
497.79	1678.16
497.97	1631.35
498.14	1535.39
498.32	1439.43
498.50	1535.39
498.67	1472.20
498.85	1465.18
499.03	1362.19
499.20	1423.05
499.38	1376.24
499.56	1310.70
499.73	1348.15
499.91	1336.45
500.08	1287.29
500.26	1228.78
500.44	1135.16
500.61	1132.82
500.79	1100.05
500.97	926.85
501.14	1006.43
501.32	1048.56
501.49	952.60
501.67	873.02
501.84	990.05
502.02	847.27
502.20	898.77
502.37	880.04
502.55	849.61
502.72	779.40
502.90	828.55
503.07	772.38
503.25	901.11
503.43	697.48
503.60	746.63
503.78	744.29
503.95	664.71
504.13	727.91
504.30	741.95
504.48	622.58
504.65	662.37
504.83	575.77
505.01	571.09
505.18	678.76
505.36	655.35
505.53	580.45
505.71	636.63
505.88	624.92
506.06	622.58
506.23	512.58
506.41	578.11
506.58	571.09
506.76	620.24
506.93	568.75
507.11	566.41
507.28	470.45
507.46	444.70
507.63	496.19
507.81	496.19
507.98	531.30
508.16	484.49
508.33	496.19
508.50	470.45
508.68	592.16
508.85	578.11
509.03	610.88
509.20	519.60
509.38	594.50
509.55	573.43
509.73	582.79
509.90	524.28
510.08	449.38
510.25	489.17
510.42	524.28
510.60	463.43
510.77	451.72
510.95	526.62
511.12	526.62
511.30	470.45
511.47	458.74
511.64	564.07
511.82	449.38
511.99	533.64
512.17	498.53
512.34	376.83
512.51	470.45
512.69	507.90
512.86	479.81
513.04	437.68
513.21	472.79
513.38	496.19
513.56	489.17
513.73	428.32
513.90	395.55
514.08	454.06
514.25	386.19
514.43	397.89
514.60	365.12
514.77	369.80
514.95	386.19
515.12	383.85
515.29	407.25
515.47	362.78
515.64	386.19
515.81	477.47
515.99	435.34
516.16	390.87
516.33	416.62
516.51	428.32
516.68	372.15
516.85	390.87
517.03	447.04
517.20	512.58
517.37	409.59
517.54	484.49
517.72	404.91
517.89	283.20
518.06	437.68
518.24	442.36
518.41	486.83
518.58	456.40
518.75	397.89
518.93	390.87
519.10	369.80
519.27	367.46
519.45	393.21
519.62	416.62
519.79	379.17
519.96	407.25
520.14	449.38
520.31	430.66
520.48	402.57
520.65	414.27
520.83	330.02
521.00	374.49
521.17	355.76
521.34	341.72
521.52	283.20
521.69	383.85
521.86	367.46
522.03	430.66
522.20	315.97
522.38	360.44
522.55	414.27
522.72	397.89
522.89	393.21
523.07	393.21
523.24	435.34
523.41	407.25
523.58	332.36
523.75	423.64
523.92	414.27
524.10	409.59
524.27	397.89
524.44	433.00
524.61	318.31
524.78	376.83
524.96	388.53
525.13	409.59
525.30	409.59
525.47	477.47
525.64	411.93
525.81	470.45
525.98	400.23
526.16	493.85
526.33	397.89
526.50	433.00
526.67	433.00
526.84	444.70
527.01	456.40
527.18	507.90
527.36	500.87
527.53	592.16
527.70	482.15
527.87	470.45
528.04	550.03
528.21	505.56
528.38	545.34
528.55	498.53
528.72	482.15
528.89	540.66
529.07	535.98
529.24	531.30
529.41	505.56
529.58	550.03
529.75	451.72
529.92	592.16
530.09	620.24
530.26	601.52
530.43	608.54
530.60	617.90
530.77	589.82
530.94	587.47
531.11	634.29
531.28	662.37
531.46	613.22
531.63	702.16
531.80	690.46
531.97	849.61
532.14	922.17
532.31	1015.79
532.48	1277.93
532.65	1423.05
532.82	1607.95
532.99	1900.52
533.16	2186.06
533.33	2237.55
533.50	2087.76
533.67	1888.81
533.84	1687.53
534.01	1446.45
534.18	1390.28
534.35	1205.38
534.52	1268.57
534.69	1369.21
534.86	1331.76
535.03	1406.66
535.20	1537.73
535.37	1643.06
535.54	1661.78
535.71	1668.80
535.88	1877.11
536.05	1888.81
536.22	2036.27
536.38	2338.20
536.55	2600.34
536.72	2832.05
536.89	3169.09
537.06	3557.61
537.23	3749.54
537.40	4264.46
537.57	4578.09
537.74	4901.08
537.91	4929.17
538.08	5048.54
538.25	5191.31
538.42	5282.59
538.59	5416.00
538.75	5418.34
538.92	5865.38
539.09	6122.84
539.26	7119.91
539.43	7803.35
539.60	8943.19
539.77	10010.47
539.94	11222.87
540.11	12463.35
540.28	13942.57
540.44	14754.74
540.61	16542.91
540.78	18752.37
540.95	22724.26
541.12	27435.76
541.29	30972.31
541.46	32938.36
541.62	32739.41
541.79	31496.59
541.96	29172.44
542.13	27461.51
542.30	25130.33
542.47	23868.78
542.63	22632.98
542.80	21743.58
542.97	21223.98
543.14	21317.60
543.31	21102.27
543.48	21060.14
543.64	21598.46
543.81	21455.69
543.98	21912.10
544.15	22008.06
544.32	22445.74
544.48	21986.99
544.65	21802.09
544.82	21385.47
544.99	21795.07
545.16	22265.52
545.32	23501.32
545.49	35800.83
545.66	57116.09
545.83	65535.00
546.00	63894.28
546.16	51751.59
546.33	38902.04
546.50	29200.52
546.67	22782.77
546.83	19843.06
547.00	19204.10
547.17	18134.47
547.34	17547.00
547.50	16947.82
547.67	16149.70
547.84	15073.05
548.00	15009.86
548.17	14490.26
548.34	13844.27
548.51	13294.24
548.67	12791.03
548.84	12002.27
549.01	11396.07
549.18	10874.13
549.34	10579.22
549.51	10097.07
549.68	9914.51
549.84	9322.35
550.01	8774.67
550.18	8339.33
550.34	8077.19
550.51	7765.90
550.68	7309.49
550.84	6979.48
551.01	6612.01
551.18	6230.51
551.34	5879.43
551.51	5621.97
551.68	5486.22
551.84	5149.18
552.01	4997.04
552.18	4961.94
552.34	4681.07
552.51	4475.10
552.68	4135.73
552.84	4042.11
553.01	4011.68
553.18	3918.06
553.34	3749.54
553.51	3684.00
553.67	3569.32
553.84	3328.24
554.01	3124.62
554.17	3023.97
554.34	2771.19
554.51	2691.62
554.67	2502.03
554.84	2342.88
555.00	2216.49
555.17	2052.65
555.33	2012.86
555.50	1914.56
555.67	1809.23
555.83	1687.53
556.00	1638.38
556.16	1856.04
556.33	1497.94
556.50	1558.80
556.66	1495.60
556.83	1472.20
556.99	1366.87
557.16	1334.11
557.32	1221.76
557.49	1212.40
557.65	1139.84
557.82	1156.22
557.98	1210.06
558.15	1188.99
558.32	1149.20
558.48	1088.35
558.65	1006.43
558.81	1214.74
558.98	1034.52
559.14	1004.09
559.31	947.92
559.47	929.19
559.64	959.62
559.80	976.00
559.97	1032.18
560.13	922.17
560.30	828.55
560.46	894.08
560.63	889.40
560.79	929.19
560.96	938.55
561.12	936.21
561.29	919.83
561.45	847.27
561.61	931.53
561.78	961.96
561.94	812.17
562.11	858.98
562.27	884.72
562.44	847.27
562.60	926.85
562.77	781.74
562.93	802.80
563.10	781.74
563.26	842.59
563.42	812.17
563.59	774.72
563.75	798.12
563.92	802.80
564.08	739.61
564.24	793.44
564.41	837.91
564.57	777.06
564.74	727.91
564.90	629.60
565.07	788.76
565.23	627.26
565.39	655.35
565.56	709.18
565.72	669.39
565.88	690.46
566.05	692.80
566.21	653.01
566.38	753.65
566.54	660.03
566.70	685.78
566.87	643.65
567.03	741.95
567.19	690.46
567.36	690.46
567.52	751.31
567.68	741.95
567.85	730.25
568.01	702.16
568.17	631.94
568.34	678.76
568.50	763.01
568.66	608.54
568.83	772.38
568.99	660.03
569.15	706.84
569.32	716.20
569.48	624.92
569.64	599.18
569.81	606.20
569.97	592.16
570.13	503.22
570.30	458.74
570.46	629.60
570.62	603.86
570.78	503.22
570.95	468.11
571.11	528.96
571.27	540.66
571.43	491.51
571.60	482.15
571.76	472.79
571.92	538.32
572.09	463.43
572.25	559.39
572.41	517.26
572.57	524.28
572.74	545.34
572.90	550.03
573.06	519.60
573.22	582.79
573.38	528.96
573.55	545.34
573.71	620.24
573.87	636.63
574.03	587.47
574.20	582.79
574.36	704.50
574.52	716.20
574.68	636.63
574.84	734.93
575.01	770.04
575.17	770.04
575.33	800.46
575.49	807.48
575.65	968.98
575.82	1001.75
575.98	1142.18
576.14	1139.84
576.30	2106.48
576.46	6600.31
576.62	13451.06
576.79	17879.35
576.95	12238.66
577.11	7791.64
577.27	5198.33
577.43	3496.76
577.59	2303.09
577.75	1877.11
577.92	1547.09
578.08	1488.58
578.24	1633.69
578.40	2382.67
578.56	6251.57
578.72	12496.12
578.88	15892.24
579.04	11709.70
579.21	7311.83
579.37	5458.13
579.53	4142.75
579.69	3822.09
579.85	4564.04
580.01	5612.60
580.17	5678.14
580.33	4875.34
580.49	3988.27
580.65	3602.08
580.82	3295.47
580.98	3148.02
581.14	3143.34
581.30	3454.63
581.46	3630.17
581.62	3908.69
581.78	4121.68
581.94	4503.19
582.10	4699.80
582.26	4957.25
582.42	5203.01
582.58	5270.89
582.74	5420.68
582.90	5603.24
583.06	5724.95
583.22	5568.13
583.38	5516.64
583.54	5488.56
583.70	5430.04
583.86	5345.78
584.02	5130.45
584.18	5266.21
584.34	5174.92
584.50	5207.69
584.66	5104.71
584.82	4945.55
584.98	4891.72
585.14	4730.22
585.30	4692.77
585.46	4557.02
585.62	4498.51
585.78	4652.98
585.94	4629.58
586.10	4683.41
586.26	5022.79
586.42	5518.98
586.58	6445.84
586.74	7950.80
586.90	9832.59
587.06	10754.76
587.22	11014.56
587.38	10083.03
587.54	8498.49
587.70	6988.84
587.86	5998.79
588.02	5153.86
588.18	4430.63
588.34	3997.64
588.49	3733.15
588.65	3463.99
588.81	3356.33
588.97	3094.19
589.13	3073.12
589.29	3045.04
589.45	2972.48
589.61	3049.72
589.77	3023.97
589.93	3126.96
590.08	3232.28
590.24	3178.45
590.40	3405.48
590.56	3419.52
590.72	3489.74
590.88	3552.93
591.04	3653.58
591.20	3957.85
591.35	4074.87
591.51	4156.79
591.67	4451.70
591.83	4737.24
591.99	4849.59
592.15	5483.88
592.31	5912.19
592.46	6401.37
592.62	6970.12
592.78	7501.42
592.94	7665.25
593.10	7660.57
593.26	7489.71
593.41	6846.07
593.57	6186.04
593.73	5483.88
593.89	4882.36
594.05	4243.39
594.20	3978.91
594.36	3485.06
594.52	3243.98
594.68	3087.17
594.84	2832.05
594.99	2923.33
595.15	2818.00
595.31	2698.64
595.47	2808.64
595.62	2747.79
595.78	2672.89
595.94	2677.57
596.10	2759.49
596.25	2747.79
596.41	2705.66
596.57	2649.49
596.73	2588.63
596.88	2757.15
597.04	2689.28
597.20	2864.82
597.36	2663.53
597.51	2874.18
597.67	3026.31
597.83	3311.86
597.99	3302.50
598.14	3400.80
598.30	3705.07
598.46	3786.99
598.61	4074.87
598.77	4243.39
598.93	4442.34
599.09	4531.28
599.24	4772.35
599.40	4582.77
599.56	4599.15
599.71	4444.68
599.87	4081.89
600.03	3960.19
600.18	3592.72
600.34	3361.01
600.50	3122.27
600.65	2986.52
600.81	2785.24
600.97	2672.89
601.12	2457.56
601.28	2305.43
601.44	2246.91
601.59	2183.72
601.75	2083.08
601.91	2073.71
602.06	1959.03
602.22	2031.58
602.37	1797.53
602.53	1710.93
602.69	1769.44
602.84	1699.23
603.00	1867.75
603.16	1921.58
603.31	1788.17
603.47	1757.74
603.62	1909.88
603.78	1898.17
603.94	1926.26
604.09	2066.69
604.25	2087.76
604.40	2136.91
604.56	2059.67
604.71	2122.87
604.87	2258.62
605.03	2167.34
