SpectraSuite Data File
++++++++++++++++++++++++++++++++++++
Date: Fri Oct 04 11:42:19 GMT-05:00 2013
User: price-jones
Dark Spectrum Present: No
Reference Spectrum Present: No
Number of Sampled Component Spectra: 1
Spectrometers: USB2+H05261
Integration Time (usec): 100000 (USB2+H05261)
Spectra Averaged: 1 (USB2+H05261)
Boxcar Smoothing: 0 (USB2+H05261)
Correct for Electrical Dark: No (USB2+H05261)
Strobe/Lamp Enabled: No (USB2+H05261)
Correct for Detector Non-linearity: No (USB2+H05261)
Correct for Stray Light: No (USB2+H05261)
Number of Pixels in Processed Spectrum: 2048
>>>>>Begin Processed Spectral Data<<<<<
365.73	147.45
365.92	147.45
366.12	147.45
366.32	0.00
366.52	0.00
366.72	4.68
366.91	0.00
367.11	0.00
367.31	0.00
367.51	0.00
367.70	0.00
367.90	0.00
368.10	0.00
368.30	0.00
368.49	0.00
368.69	0.00
368.89	0.00
369.09	0.00
369.28	0.00
369.48	0.00
369.68	0.00
369.87	0.00
370.07	0.00
370.27	21.06
370.47	23.41
370.66	18.72
370.86	35.11
371.06	70.22
371.25	121.71
371.45	91.28
371.65	124.05
371.84	51.49
372.04	53.83
372.24	88.94
372.44	93.62
372.63	154.48
372.83	138.09
373.03	93.62
373.22	67.88
373.42	124.05
373.62	126.39
373.81	177.88
374.01	110.01
374.21	173.20
374.40	79.58
374.60	126.39
374.79	126.39
374.99	119.37
375.19	180.22
375.38	175.54
375.58	128.73
375.78	105.32
375.97	182.56
376.17	161.50
376.37	124.05
376.56	189.58
376.76	74.90
376.95	110.01
377.15	74.90
377.35	95.96
377.54	135.75
377.74	119.37
377.93	91.28
378.13	145.11
378.33	77.24
378.52	121.71
378.72	191.92
378.91	163.84
379.11	131.07
379.31	131.07
379.50	53.83
379.70	184.90
379.89	170.86
380.09	105.32
380.28	98.30
380.48	168.52
380.68	119.37
380.87	138.09
381.07	49.15
381.26	126.39
381.46	227.03
381.65	131.07
381.85	65.54
382.04	184.90
382.24	39.79
382.43	117.03
382.63	126.39
382.83	145.11
383.02	77.24
383.22	161.50
383.41	112.35
383.61	131.07
383.80	145.11
384.00	98.30
384.19	63.19
384.39	117.03
384.58	100.64
384.78	65.54
384.97	107.66
385.17	84.26
385.36	140.43
385.56	166.18
385.75	110.01
385.95	128.73
386.14	210.65
386.34	93.62
386.53	56.17
386.72	149.79
386.92	140.43
387.11	152.13
387.31	119.37
387.50	37.45
387.70	46.81
387.89	86.60
388.09	173.20
388.28	86.60
388.48	126.39
388.67	142.77
388.86	81.92
389.06	93.62
389.25	63.19
389.45	98.30
389.64	159.16
389.84	110.01
390.03	152.13
390.22	126.39
390.42	128.73
390.61	95.96
390.81	138.09
391.00	170.86
391.19	102.98
391.39	81.92
391.58	91.28
391.78	98.30
391.97	173.20
392.16	51.49
392.36	182.56
392.55	175.54
392.75	79.58
392.94	128.73
393.13	105.32
393.33	98.30
393.52	124.05
393.71	152.13
393.91	81.92
394.10	102.98
394.29	177.88
394.49	98.30
394.68	138.09
394.88	198.95
395.07	121.71
395.26	126.39
395.46	152.13
395.65	117.03
395.84	77.24
396.04	224.69
396.23	126.39
396.42	142.77
396.62	58.51
396.81	84.26
397.00	138.09
397.19	131.07
397.39	154.48
397.58	229.37
397.77	124.05
397.97	152.13
398.16	168.52
398.35	154.48
398.55	114.69
398.74	149.79
398.93	175.54
399.12	112.35
399.32	107.66
399.51	142.77
399.70	138.09
399.90	131.07
400.09	159.16
400.28	53.83
400.47	152.13
400.67	173.20
400.86	187.24
401.05	156.82
401.24	138.09
401.44	138.09
401.63	152.13
401.82	196.60
402.01	119.37
402.21	170.86
402.40	140.43
402.59	131.07
402.78	170.86
402.97	23.41
403.17	205.97
403.36	138.09
403.55	243.42
403.74	507.90
403.93	1579.86
404.13	3375.05
404.32	3786.99
404.51	3183.13
404.70	1874.77
404.89	725.57
405.09	304.27
405.28	184.90
405.47	154.48
405.66	149.79
405.85	215.33
406.05	161.50
406.24	77.24
406.43	58.51
406.62	224.69
406.81	184.90
407.00	266.82
407.20	458.74
407.39	624.92
407.58	594.50
407.77	425.98
407.96	257.46
408.15	266.82
408.34	191.92
408.54	142.77
408.73	161.50
408.92	145.11
409.11	128.73
409.30	201.29
409.49	154.48
409.68	159.16
409.87	124.05
410.07	168.52
410.26	110.01
410.45	147.45
410.64	121.71
410.83	138.09
411.02	131.07
411.21	189.58
411.40	177.88
411.59	208.31
411.78	170.86
411.98	168.52
412.17	163.84
412.36	152.13
412.55	201.29
412.74	135.75
412.93	198.95
413.12	86.60
413.31	198.95
413.50	180.22
413.69	159.16
413.88	182.56
414.07	220.01
414.26	140.43
414.45	74.90
414.64	198.95
414.83	182.56
415.02	203.63
415.22	276.18
415.41	173.20
415.60	198.95
415.79	205.97
415.98	152.13
416.17	159.16
416.36	124.05
416.55	208.31
416.74	182.56
416.93	159.16
417.12	234.05
417.31	201.29
417.50	177.88
417.69	262.14
417.88	105.32
418.07	145.11
418.26	147.45
418.45	243.42
418.64	325.33
418.83	273.84
419.02	198.95
419.21	250.44
419.39	269.16
419.58	198.95
419.77	229.37
419.96	287.89
420.15	224.69
420.34	224.69
420.53	166.18
420.72	198.95
420.91	163.84
421.10	236.39
421.29	227.03
421.48	205.97
421.67	280.86
421.86	196.60
422.05	142.77
422.24	266.82
422.43	243.42
422.61	173.20
422.80	187.24
422.99	269.16
423.18	182.56
423.37	266.82
423.56	243.42
423.75	201.29
423.94	147.45
424.13	217.67
424.32	161.50
424.50	220.01
424.69	271.50
424.88	229.37
425.07	294.91
425.26	222.35
425.45	346.40
425.64	252.78
425.83	203.63
426.01	259.80
426.20	264.48
426.39	304.27
426.58	262.14
426.77	203.63
426.96	276.18
427.15	156.82
427.33	194.26
427.52	283.20
427.71	287.89
427.90	271.50
428.09	196.60
428.28	156.82
428.46	264.48
428.65	238.73
428.84	327.68
429.03	264.48
429.22	234.05
429.40	234.05
429.59	212.99
429.78	290.23
429.97	222.35
430.16	337.04
430.34	306.61
430.53	227.03
430.72	217.67
430.91	248.10
431.10	217.67
431.28	290.23
431.47	297.25
431.66	351.08
431.85	299.59
432.03	285.55
432.22	304.27
432.41	348.74
432.60	369.80
432.79	290.23
432.97	264.48
433.16	346.40
433.35	334.70
433.54	358.10
433.72	463.43
433.91	390.87
434.10	526.62
434.28	648.33
434.47	613.22
434.66	720.88
434.85	748.97
435.03	2581.61
435.22	8844.88
435.41	17352.73
435.59	15871.17
435.78	10171.97
435.97	5055.56
436.16	1954.35
436.34	866.00
436.53	521.94
436.72	512.58
436.90	318.31
437.09	365.12
437.28	327.68
437.46	365.12
437.65	334.70
437.84	379.17
438.02	348.74
438.21	313.63
438.40	353.42
438.58	248.10
438.77	266.82
438.96	208.31
439.14	285.55
439.33	348.74
439.52	358.10
439.70	231.71
439.89	327.68
440.08	337.04
440.26	306.61
440.45	337.04
440.63	276.18
440.82	278.52
441.01	318.31
441.19	334.70
441.38	346.40
441.57	332.36
441.75	330.02
441.94	255.12
442.12	266.82
442.31	299.59
442.50	315.97
442.68	269.16
442.87	271.50
443.05	301.93
443.24	386.19
443.43	318.31
443.61	283.20
443.80	362.78
443.98	418.96
444.17	318.31
444.35	330.02
444.54	283.20
444.73	348.74
444.91	285.55
445.10	341.72
445.28	341.72
445.47	327.68
445.65	332.36
445.84	304.27
446.02	339.38
446.21	330.02
446.39	318.31
446.58	362.78
446.77	297.25
446.95	273.84
447.14	285.55
447.32	339.38
447.51	341.72
447.69	285.55
447.88	266.82
448.06	322.99
448.25	318.31
448.43	311.29
448.62	283.20
448.80	318.31
448.99	365.12
449.17	332.36
449.36	271.50
449.54	397.89
449.73	318.31
449.91	330.02
450.10	273.84
450.28	383.85
450.46	416.62
450.65	311.29
450.83	337.04
451.02	278.52
451.20	367.46
451.39	337.04
451.57	353.42
451.76	271.50
451.94	365.12
452.13	379.17
452.31	367.46
452.49	252.78
452.68	320.65
452.86	355.76
453.05	337.04
453.23	278.52
453.42	285.55
453.60	287.89
453.78	234.05
453.97	304.27
454.15	311.29
454.34	283.20
454.52	318.31
454.70	313.63
454.89	299.59
455.07	308.95
455.26	252.78
455.44	327.68
455.62	348.74
455.81	341.72
455.99	318.31
456.17	339.38
456.36	322.99
456.54	365.12
456.73	315.97
456.91	325.33
457.09	315.97
457.28	433.00
457.46	315.97
457.64	304.27
457.83	304.27
458.01	271.50
458.19	294.91
458.38	264.48
458.56	313.63
458.74	386.19
458.93	411.93
459.11	276.18
459.29	334.70
459.48	297.25
459.66	447.04
459.84	297.25
460.03	425.98
460.21	379.17
460.39	301.93
460.57	351.08
460.76	425.98
460.94	372.15
461.12	369.80
461.31	332.36
461.49	330.02
461.67	290.23
461.85	297.25
462.04	262.14
462.22	447.04
462.40	341.72
462.59	400.23
462.77	353.42
462.95	337.04
463.13	304.27
463.32	383.85
463.50	320.65
463.68	365.12
463.86	269.16
464.05	280.86
464.23	320.65
464.41	269.16
464.59	322.99
464.78	386.19
464.96	290.23
465.14	311.29
465.32	264.48
465.50	308.95
465.69	280.86
465.87	245.76
466.05	280.86
466.23	365.12
466.41	344.06
466.60	337.04
466.78	367.46
466.96	449.38
467.14	353.42
467.32	320.65
467.51	423.64
467.69	360.44
467.87	313.63
468.05	287.89
468.23	262.14
468.41	353.42
468.60	250.44
468.78	231.71
468.96	332.36
469.14	318.31
469.32	266.82
469.50	283.20
469.69	428.32
469.87	365.12
470.05	341.72
470.23	313.63
470.41	203.63
470.59	283.20
470.77	355.76
470.95	351.08
471.14	376.83
471.32	292.57
471.50	311.29
471.68	311.29
471.86	330.02
472.04	374.49
472.22	266.82
472.40	301.93
472.58	220.01
472.77	318.31
472.95	327.68
473.13	344.06
473.31	299.59
473.49	259.80
473.67	287.89
473.85	332.36
474.03	264.48
474.21	344.06
474.39	355.76
474.57	332.36
474.75	332.36
474.93	313.63
475.12	292.57
475.30	191.92
475.48	271.50
475.66	301.93
475.84	362.78
476.02	266.82
476.20	306.61
476.38	287.89
476.56	299.59
476.74	358.10
476.92	330.02
477.10	308.95
477.28	404.91
477.46	320.65
477.64	337.04
477.82	280.86
478.00	386.19
478.18	346.40
478.36	348.74
478.54	437.68
478.72	322.99
478.90	360.44
479.08	411.93
479.26	308.95
479.44	348.74
479.62	369.80
479.80	402.57
479.98	454.06
480.16	479.81
480.34	454.06
480.52	332.36
480.70	465.77
480.88	514.92
481.06	447.04
481.24	521.94
481.41	519.60
481.59	568.75
481.77	554.71
481.95	557.05
482.13	664.71
482.31	638.97
482.49	697.48
482.67	741.95
482.85	861.32
483.03	765.36
483.21	887.06
483.39	901.11
483.57	1062.60
483.74	1027.50
483.92	1053.24
484.10	1174.95
484.28	1191.33
484.46	1322.40
484.64	1266.23
484.82	1362.19
485.00	1453.47
485.18	1514.33
485.35	1554.12
485.53	1561.14
485.71	1582.20
485.89	1640.72
486.07	1732.00
486.25	1863.07
486.43	1668.80
486.61	1755.40
486.78	1827.96
486.96	1750.72
487.14	1823.28
487.32	1783.49
487.50	1827.96
487.68	1710.93
487.85	1729.66
488.03	1722.63
488.21	1785.83
488.39	1774.13
488.57	1617.31
488.75	1593.90
488.92	1743.70
489.10	1458.15
489.28	1554.12
489.46	1462.83
489.64	1336.45
489.81	1387.94
489.99	1364.53
490.17	1411.34
490.35	1458.15
490.53	1291.98
490.70	1259.21
490.88	1409.00
491.06	1537.73
491.24	1411.34
491.41	1600.93
491.59	1397.30
491.77	1355.17
491.95	1315.38
492.13	1273.25
492.30	1245.16
492.48	1240.48
492.66	1170.27
492.84	1224.10
493.01	1238.14
493.19	1196.01
493.37	1268.57
493.54	1160.91
493.72	1102.39
493.90	1114.10
494.08	1111.75
494.25	1074.31
494.43	1139.84
494.61	1069.62
494.79	1022.81
494.96	1121.12
495.14	1027.50
495.32	971.32
495.49	985.37
495.67	1015.79
495.85	968.98
496.02	957.28
496.20	1046.22
496.38	1001.75
496.55	887.06
496.73	933.87
496.91	882.38
497.09	898.77
497.26	947.92
497.44	873.02
497.62	816.85
497.79	755.99
497.97	842.59
498.14	816.85
498.32	798.12
498.50	744.29
498.67	732.59
498.85	791.10
499.03	734.93
499.20	723.23
499.38	746.63
499.56	653.01
499.73	770.04
499.91	681.10
500.08	683.44
500.26	657.69
500.44	568.75
500.61	622.58
500.79	589.82
500.97	629.60
501.14	702.16
501.32	505.56
501.49	526.62
501.67	545.34
501.84	545.34
502.02	442.36
502.20	543.00
502.37	479.81
502.55	486.83
502.72	444.70
502.90	472.79
503.07	477.47
503.25	388.53
503.43	451.72
503.60	369.80
503.78	402.57
503.95	430.66
504.13	383.85
504.30	414.27
504.48	475.13
504.65	404.91
504.83	397.89
505.01	339.38
505.18	395.55
505.36	428.32
505.53	372.15
505.71	367.46
505.88	365.12
506.06	444.70
506.23	442.36
506.41	341.72
506.58	404.91
506.76	395.55
506.93	297.25
507.11	362.78
507.28	402.57
507.46	332.36
507.63	397.89
507.81	231.71
507.98	369.80
508.16	337.04
508.33	322.99
508.50	358.10
508.68	308.95
508.85	351.08
509.03	362.78
509.20	465.77
509.38	397.89
509.55	390.87
509.73	393.21
509.90	308.95
510.08	369.80
510.25	433.00
510.42	276.18
510.60	297.25
510.77	337.04
510.95	418.96
511.12	320.65
511.30	346.40
511.47	332.36
511.64	376.83
511.82	351.08
511.99	367.46
512.17	362.78
512.34	365.12
512.51	327.68
512.69	360.44
512.86	351.08
513.04	372.15
513.21	271.50
513.38	292.57
513.56	306.61
513.73	294.91
513.90	308.95
514.08	301.93
514.25	351.08
514.43	330.02
514.60	308.95
514.77	271.50
514.95	294.91
515.12	360.44
515.29	224.69
515.47	236.39
515.64	266.82
515.81	245.76
515.99	313.63
516.16	379.17
516.33	367.46
516.51	332.36
516.68	334.70
516.85	257.46
517.03	294.91
517.20	327.68
517.37	362.78
517.54	339.38
517.72	299.59
517.89	318.31
518.06	238.73
518.24	325.33
518.41	407.25
518.58	308.95
518.75	294.91
518.93	318.31
519.10	257.46
519.27	330.02
519.45	322.99
519.62	301.93
519.79	280.86
519.96	241.08
520.14	332.36
520.31	285.55
520.48	222.35
520.65	362.78
520.83	248.10
521.00	308.95
521.17	388.53
521.34	304.27
521.52	294.91
521.69	259.80
521.86	217.67
522.03	224.69
522.20	266.82
522.38	229.37
522.55	299.59
522.72	283.20
522.89	306.61
523.07	308.95
523.24	299.59
523.41	255.12
523.58	276.18
523.75	198.95
523.92	243.42
524.10	250.44
524.27	299.59
524.44	292.57
524.61	276.18
524.78	327.68
524.96	304.27
525.13	351.08
525.30	348.74
525.47	393.21
525.64	287.89
525.81	252.78
525.98	327.68
526.16	351.08
526.33	325.33
526.50	250.44
526.67	327.68
526.84	311.29
527.01	304.27
527.18	367.46
527.36	418.96
527.53	416.62
527.70	325.33
527.87	355.76
528.04	409.59
528.21	313.63
528.38	376.83
528.55	351.08
528.72	351.08
528.89	390.87
529.07	304.27
529.24	318.31
529.41	381.51
529.58	353.42
529.75	402.57
529.92	470.45
530.09	404.91
530.26	341.72
530.43	393.21
530.60	484.49
530.77	395.55
530.94	444.70
531.11	433.00
531.28	367.46
531.46	416.62
531.63	482.15
531.80	510.24
531.97	575.77
532.14	552.37
532.31	561.73
532.48	657.69
532.65	699.82
532.82	891.74
532.99	919.83
533.16	1128.14
533.33	1135.16
533.50	1043.88
533.67	945.58
533.84	779.40
534.01	823.87
534.18	730.25
534.35	748.97
534.52	779.40
534.69	889.40
534.86	732.59
535.03	847.27
535.20	755.99
535.37	795.78
535.54	856.64
535.71	891.74
535.88	957.28
536.05	1060.26
536.22	1088.35
536.38	1107.07
536.55	1240.48
536.72	1369.21
536.89	1432.41
537.06	1685.19
537.23	1879.45
537.40	1947.33
537.57	2073.71
537.74	2146.27
537.91	2244.57
538.08	2307.77
538.25	2480.97
538.42	2321.81
538.59	2392.03
538.75	2539.48
538.92	2679.91
539.09	3005.25
539.26	3169.09
539.43	3557.61
539.60	4112.32
539.77	4610.86
539.94	5036.83
540.11	5652.39
540.28	5968.37
540.44	6534.78
540.61	7403.11
540.78	8395.50
540.95	10211.76
541.12	12222.28
541.29	13322.33
541.46	13642.98
541.62	13650.00
541.79	12753.58
541.96	12056.10
542.13	11012.22
542.30	10469.22
542.47	10040.90
542.63	9554.07
542.80	9212.35
542.97	8961.91
543.14	9167.88
543.31	9097.66
543.48	9172.56
543.64	9172.56
543.81	9294.27
543.98	9212.35
544.15	9327.03
544.32	9420.66
544.48	9481.51
544.65	9018.08
544.82	9371.50
544.99	9071.92
545.16	9521.30
545.32	9956.64
545.49	19337.51
545.66	33661.58
545.83	37244.94
546.00	30529.95
546.16	21053.12
546.33	15515.41
546.50	11798.64
546.67	9500.23
546.83	8414.23
547.00	8145.06
547.17	7641.85
547.34	7485.03
547.50	6895.22
547.67	6839.05
547.84	6595.63
548.00	6349.87
548.17	6085.39
548.34	5806.87
548.51	5823.25
548.67	5357.49
548.84	5174.92
549.01	4905.76
549.18	4830.87
549.34	4498.51
549.51	4440.00
549.68	4215.30
549.84	4121.68
550.01	3962.53
550.18	3702.73
550.34	3531.87
550.51	3342.28
550.68	3412.50
550.84	3073.12
551.01	2846.09
551.18	2761.83
551.34	2682.25
551.51	2581.61
551.68	2249.25
551.84	2417.77
552.01	2310.11
552.18	2062.01
552.34	2118.18
552.51	2092.44
552.68	1942.64
552.84	1849.02
553.01	1856.04
553.18	1813.92
553.34	1724.97
553.51	1636.03
553.67	1680.50
553.84	1605.61
554.01	1516.67
554.17	1497.94
554.34	1263.89
554.51	1233.46
554.67	1224.10
554.84	1090.69
555.00	1036.86
555.17	1071.97
555.33	1104.73
555.50	915.15
555.67	866.00
555.83	891.74
556.00	866.00
556.16	1025.15
556.33	823.87
556.50	828.55
556.66	772.38
556.83	763.01
556.99	657.69
557.16	674.07
557.32	641.31
557.49	702.16
557.65	645.99
557.82	671.73
557.98	662.37
558.15	634.29
558.32	561.73
558.48	610.88
558.65	617.90
558.81	613.22
558.98	575.77
559.14	550.03
559.31	498.53
559.47	571.09
559.64	547.69
559.80	620.24
559.97	571.09
560.13	547.69
560.30	472.79
560.46	538.32
560.63	507.90
560.79	503.22
560.96	550.03
561.12	498.53
561.29	498.53
561.45	454.06
561.61	528.96
561.78	617.90
561.94	507.90
562.11	482.15
562.27	545.34
562.44	507.90
562.60	491.51
562.77	521.94
562.93	489.17
563.10	454.06
563.26	519.60
563.42	514.92
563.59	437.68
563.75	482.15
563.92	573.43
564.08	416.62
564.24	451.72
564.41	496.19
564.57	372.15
564.74	416.62
564.90	421.30
565.07	440.02
565.23	491.51
565.39	463.43
565.56	409.59
565.72	407.25
565.88	430.66
566.05	428.32
566.21	440.02
566.38	454.06
566.54	433.00
566.70	435.34
566.87	334.70
567.03	418.96
567.19	414.27
567.36	425.98
567.52	482.15
567.68	498.53
567.85	489.17
568.01	437.68
568.17	397.89
568.34	416.62
568.50	491.51
568.66	489.17
568.83	505.56
568.99	407.25
569.15	400.23
569.32	484.49
569.48	416.62
569.64	348.74
569.81	353.42
569.97	276.18
570.13	423.64
570.30	395.55
570.46	362.78
570.62	362.78
570.78	280.86
570.95	360.44
571.11	411.93
571.27	353.42
571.43	365.12
571.60	435.34
571.76	325.33
571.92	388.53
572.09	360.44
572.25	428.32
572.41	360.44
572.57	276.18
572.74	360.44
572.90	395.55
573.06	383.85
573.22	397.89
573.38	477.47
573.55	411.93
573.71	388.53
573.87	430.66
574.03	339.38
574.20	409.59
574.36	477.47
574.52	365.12
574.68	372.15
574.84	498.53
575.01	433.00
575.17	521.94
575.33	510.24
575.49	463.43
575.65	554.71
575.82	526.62
575.98	566.41
576.14	683.44
576.30	1324.74
576.46	4334.67
576.62	6019.86
576.79	6195.40
576.95	4393.19
577.11	3045.04
577.27	2120.53
577.43	1390.28
577.59	976.00
577.75	861.32
577.92	793.44
578.08	751.31
578.24	798.12
578.40	1636.03
578.56	3918.06
578.72	5886.45
578.88	5823.25
579.04	4348.72
579.21	3042.70
579.37	2291.38
579.53	1891.15
579.69	1991.80
579.85	2228.19
580.01	2495.01
580.17	2321.81
580.33	2108.82
580.49	1746.04
580.65	1689.87
580.82	1514.33
580.98	1441.77
581.14	1497.94
581.30	1715.61
581.46	1654.76
581.62	1834.98
581.78	1984.77
581.94	2083.08
582.10	2218.83
582.26	2335.85
582.42	2270.32
582.58	2413.09
582.74	2340.54
582.90	2459.90
583.06	2352.24
583.22	2415.43
583.38	2389.69
583.54	2492.67
583.70	2518.42
583.86	2338.20
584.02	2399.05
584.18	2317.13
584.34	2321.81
584.50	2211.81
584.66	2239.89
584.82	2162.66
584.98	2172.02
585.14	2022.22
585.30	2094.78
585.46	2047.97
585.62	2136.91
585.78	2029.24
585.94	2101.80
586.10	2047.97
586.26	2195.42
586.42	2565.23
586.58	2956.10
586.74	3487.40
586.90	4231.69
587.06	4643.62
587.22	4540.64
587.38	4056.15
587.54	3410.16
587.70	2967.80
587.86	2658.85
588.02	2155.63
588.18	2101.80
588.34	1778.81
588.49	1617.31
588.65	1668.80
588.81	1469.86
588.97	1474.54
589.13	1397.30
589.29	1474.54
589.45	1355.17
589.61	1401.98
589.77	1537.73
589.93	1479.22
590.08	1383.26
590.24	1493.26
590.40	1671.14
590.56	1633.69
590.72	1572.84
590.88	1570.50
591.04	1685.19
591.20	1724.97
591.35	1771.79
591.51	1867.75
591.67	1940.30
591.83	2104.14
591.99	2193.08
592.15	2464.58
592.31	2579.27
592.46	2810.98
592.62	3047.38
592.78	3309.52
592.94	3201.85
593.10	3339.94
593.26	3126.96
593.41	2738.43
593.57	2553.52
593.73	2312.45
593.89	2054.99
594.05	1746.04
594.20	1734.34
594.36	1561.14
594.52	1458.15
594.68	1387.94
594.84	1306.02
594.99	1277.93
595.15	1296.66
595.31	1214.74
595.47	1296.66
595.62	1231.12
595.78	1291.98
595.94	1315.38
596.10	1366.87
596.25	1256.87
596.41	1270.91
596.57	1207.72
596.73	1205.38
596.88	1350.49
597.04	1219.42
597.20	1313.04
597.36	1221.76
597.51	1291.98
597.67	1362.19
597.83	1411.34
597.99	1547.09
598.14	1554.12
598.30	1724.97
598.46	1734.34
598.61	1884.13
598.77	1909.88
598.93	1947.33
599.09	2132.23
599.24	1996.48
599.40	2085.42
599.56	1989.46
599.71	1753.06
599.87	1685.19
600.03	1703.91
600.18	1589.22
600.34	1500.28
600.50	1371.55
600.65	1345.81
600.81	1212.40
600.97	1142.18
601.12	1118.78
601.28	1015.79
601.44	1060.26
601.59	1001.75
601.75	1046.22
601.91	922.17
602.06	863.66
602.22	978.34
602.37	877.70
602.53	784.08
602.69	933.87
602.84	877.70
603.00	802.80
603.16	959.62
603.31	1039.20
603.47	964.30
603.62	891.74
603.78	985.37
603.94	910.47
604.09	952.60
604.25	1041.54
604.40	1060.26
604.56	1008.77
604.71	1137.50
604.87	987.71
605.03	1036.86
605.18	1086.01
605.34	1151.54
605.49	1100.05
605.65	1032.18
605.80	1062.60
605.96	1226.44
606.12	1287.29
606.27	1322.40
606.43	1348.15
606.58	1350.49
606.74	1413.68
