SpectraSuite Data File
++++++++++++++++++++++++++++++++++++
Date: Fri Oct 04 11:42:29 GMT-05:00 2013
User: price-jones
Dark Spectrum Present: No
Reference Spectrum Present: No
Number of Sampled Component Spectra: 1
Spectrometers: USB2+H05261
Integration Time (usec): 100000 (USB2+H05261)
Spectra Averaged: 1 (USB2+H05261)
Boxcar Smoothing: 0 (USB2+H05261)
Correct for Electrical Dark: No (USB2+H05261)
Strobe/Lamp Enabled: No (USB2+H05261)
Correct for Detector Non-linearity: No (USB2+H05261)
Correct for Stray Light: No (USB2+H05261)
Number of Pixels in Processed Spectrum: 2048
>>>>>Begin Processed Spectral Data<<<<<
365.73	49.15
365.92	49.15
366.12	49.15
366.32	4.68
366.52	0.00
366.72	0.00
366.91	0.00
367.11	16.38
367.31	0.00
367.51	0.00
367.70	0.00
367.90	0.00
368.10	0.00
368.30	0.00
368.49	0.00
368.69	0.00
368.89	0.00
369.09	0.00
369.28	0.00
369.48	0.00
369.68	7.02
369.87	0.00
370.07	23.41
370.27	35.11
370.47	0.00
370.66	16.38
370.86	77.24
371.06	84.26
371.25	161.50
371.45	81.92
371.65	112.35
371.84	95.96
372.04	39.79
372.24	70.22
372.44	152.13
372.63	77.24
372.83	91.28
373.03	149.79
373.22	147.45
373.42	117.03
373.62	131.07
373.81	93.62
374.01	208.31
374.21	145.11
374.40	93.62
374.60	124.05
374.79	72.56
374.99	49.15
375.19	119.37
375.38	119.37
375.58	86.60
375.78	163.84
375.97	168.52
376.17	177.88
376.37	91.28
376.56	107.66
376.76	182.56
376.95	131.07
377.15	102.98
377.35	124.05
377.54	135.75
377.74	110.01
377.93	86.60
378.13	107.66
378.33	196.60
378.52	72.56
378.72	124.05
378.91	72.56
379.11	135.75
379.31	124.05
379.50	95.96
379.70	152.13
379.89	145.11
380.09	170.86
380.28	51.49
380.48	53.83
380.68	67.88
380.87	117.03
381.07	98.30
381.26	161.50
381.46	142.77
381.65	121.71
381.85	107.66
382.04	88.94
382.24	56.17
382.43	72.56
382.63	124.05
382.83	88.94
383.02	91.28
383.22	177.88
383.41	121.71
383.61	105.32
383.80	58.51
384.00	65.54
384.19	72.56
384.39	128.73
384.58	21.06
384.78	84.26
384.97	161.50
385.17	58.51
385.36	142.77
385.56	74.90
385.75	65.54
385.95	149.79
386.14	135.75
386.34	32.77
386.53	117.03
386.72	74.90
386.92	140.43
387.11	58.51
387.31	149.79
387.50	112.35
387.70	107.66
387.89	72.56
388.09	86.60
388.28	98.30
388.48	79.58
388.67	133.41
388.86	112.35
389.06	128.73
389.25	102.98
389.45	126.39
389.64	98.30
389.84	152.13
390.03	152.13
390.22	133.41
390.42	145.11
390.61	74.90
390.81	39.79
391.00	126.39
391.19	51.49
391.39	112.35
391.58	60.85
391.78	140.43
391.97	147.45
392.16	77.24
392.36	180.22
392.55	121.71
392.75	124.05
392.94	107.66
393.13	159.16
393.33	95.96
393.52	159.16
393.71	110.01
393.91	119.37
394.10	98.30
394.29	112.35
394.49	102.98
394.68	77.24
394.88	112.35
395.07	114.69
395.26	140.43
395.46	100.64
395.65	121.71
395.84	131.07
396.04	194.26
396.23	117.03
396.42	0.00
396.62	91.28
396.81	60.85
397.00	170.86
397.19	105.32
397.39	133.41
397.58	184.90
397.77	170.86
397.97	159.16
398.16	0.00
398.35	107.66
398.55	79.58
398.74	95.96
398.93	121.71
399.12	88.94
399.32	112.35
399.51	91.28
399.70	84.26
399.90	79.58
400.09	91.28
400.28	170.86
400.47	159.16
400.67	114.69
400.86	145.11
401.05	198.95
401.24	147.45
401.44	102.98
401.63	149.79
401.82	107.66
402.01	60.85
402.21	114.69
402.40	168.52
402.59	131.07
402.78	100.64
402.97	81.92
403.17	56.17
403.36	100.64
403.55	156.82
403.74	170.86
403.93	145.11
404.13	280.86
404.32	243.42
404.51	238.73
404.70	203.63
404.89	133.41
405.09	245.76
405.28	93.62
405.47	91.28
405.66	145.11
405.85	145.11
406.05	65.54
406.24	91.28
406.43	124.05
406.62	184.90
406.81	182.56
407.00	77.24
407.20	140.43
407.39	77.24
407.58	107.66
407.77	133.41
407.96	88.94
408.15	72.56
408.34	77.24
408.54	88.94
408.73	84.26
408.92	126.39
409.11	168.52
409.30	74.90
409.49	126.39
409.68	74.90
409.87	149.79
410.07	128.73
410.26	124.05
410.45	93.62
410.64	9.36
410.83	81.92
411.02	156.82
411.21	133.41
411.40	135.75
411.59	126.39
411.78	119.37
411.98	177.88
412.17	98.30
412.36	147.45
412.55	149.79
412.74	182.56
412.93	95.96
413.12	161.50
413.31	168.52
413.50	128.73
413.69	72.56
413.88	142.77
414.07	175.54
414.26	110.01
414.45	161.50
414.64	107.66
414.83	114.69
415.02	95.96
415.22	187.24
415.41	145.11
415.60	91.28
415.79	184.90
415.98	203.63
416.17	131.07
416.36	154.48
416.55	170.86
416.74	140.43
416.93	124.05
417.12	161.50
417.31	131.07
417.50	112.35
417.69	203.63
417.88	142.77
418.07	177.88
418.26	222.35
418.45	133.41
418.64	149.79
418.83	159.16
419.02	84.26
419.21	152.13
419.39	133.41
419.58	173.20
419.77	145.11
419.96	133.41
420.15	156.82
420.34	154.48
420.53	142.77
420.72	215.33
420.91	88.94
421.10	110.01
421.29	124.05
421.48	163.84
421.67	131.07
421.86	119.37
422.05	154.48
422.24	159.16
422.43	182.56
422.61	175.54
422.80	168.52
422.99	138.09
423.18	149.79
423.37	189.58
423.56	124.05
423.75	105.32
423.94	65.54
424.13	142.77
424.32	156.82
424.50	156.82
424.69	121.71
424.88	147.45
425.07	84.26
425.26	163.84
425.45	124.05
425.64	105.32
425.83	159.16
426.01	128.73
426.20	126.39
426.39	128.73
426.58	95.96
426.77	154.48
426.96	243.42
427.15	102.98
427.33	128.73
427.52	72.56
427.71	140.43
427.90	138.09
428.09	93.62
428.28	98.30
428.46	74.90
428.65	114.69
428.84	159.16
429.03	217.67
429.22	184.90
429.40	166.18
429.59	161.50
429.78	168.52
429.97	184.90
430.16	72.56
430.34	107.66
430.53	110.01
430.72	124.05
430.91	154.48
431.10	140.43
431.28	159.16
431.47	201.29
431.66	135.75
431.85	180.22
432.03	88.94
432.22	128.73
432.41	187.24
432.60	159.16
432.79	93.62
432.97	166.18
433.16	215.33
433.35	156.82
433.54	91.28
433.72	154.48
433.91	180.22
434.10	135.75
434.28	154.48
434.47	187.24
434.66	124.05
434.85	114.69
435.03	304.27
435.22	720.88
435.41	1015.79
435.59	1053.24
435.78	765.36
435.97	411.93
436.16	276.18
436.34	220.01
436.53	241.08
436.72	187.24
436.90	182.56
437.09	161.50
437.28	170.86
437.46	91.28
437.65	182.56
437.84	168.52
438.02	147.45
438.21	107.66
438.40	149.79
438.58	70.22
438.77	161.50
438.96	93.62
439.14	119.37
439.33	131.07
439.52	138.09
439.70	117.03
439.89	276.18
440.08	189.58
440.26	205.97
440.45	191.92
440.63	152.13
440.82	163.84
441.01	182.56
441.19	184.90
441.38	177.88
441.57	102.98
441.75	269.16
441.94	201.29
442.12	140.43
442.31	124.05
442.50	140.43
442.68	184.90
442.87	231.71
443.05	163.84
443.24	250.44
443.43	252.78
443.61	203.63
443.80	147.45
443.98	170.86
444.17	154.48
444.35	163.84
444.54	163.84
444.73	177.88
444.91	194.26
445.10	131.07
445.28	117.03
445.47	142.77
445.65	161.50
445.84	154.48
446.02	93.62
446.21	107.66
446.39	194.26
446.58	128.73
446.77	149.79
446.95	147.45
447.14	243.42
447.32	255.12
447.51	180.22
447.69	182.56
447.88	145.11
448.06	212.99
448.25	208.31
448.43	196.60
448.62	175.54
448.80	198.95
448.99	203.63
449.17	114.69
449.36	102.98
449.54	205.97
449.73	229.37
449.91	184.90
450.10	168.52
450.28	224.69
450.46	191.92
450.65	238.73
450.83	161.50
451.02	177.88
451.20	161.50
451.39	135.75
451.57	163.84
451.76	191.92
451.94	112.35
452.13	187.24
452.31	269.16
452.49	184.90
452.68	142.77
452.86	184.90
453.05	187.24
453.23	177.88
453.42	86.60
453.60	168.52
453.78	152.13
453.97	142.77
454.15	196.60
454.34	135.75
454.52	98.30
454.70	238.73
454.89	159.16
455.07	224.69
455.26	212.99
455.44	184.90
455.62	182.56
455.81	100.64
455.99	170.86
456.17	196.60
456.36	175.54
456.54	231.71
456.73	184.90
456.91	135.75
457.09	147.45
457.28	170.86
457.46	182.56
457.64	170.86
457.83	166.18
458.01	163.84
458.19	177.88
458.38	159.16
458.56	159.16
458.74	180.22
458.93	168.52
459.11	161.50
459.29	191.92
459.48	163.84
459.66	205.97
459.84	124.05
460.03	227.03
460.21	189.58
460.39	166.18
460.57	168.52
460.76	208.31
460.94	177.88
461.12	154.48
461.31	177.88
461.49	212.99
461.67	229.37
461.85	156.82
462.04	170.86
462.22	311.29
462.40	252.78
462.59	194.26
462.77	95.96
462.95	180.22
463.13	168.52
463.32	203.63
463.50	173.20
463.68	112.35
463.86	166.18
464.05	159.16
464.23	222.35
464.41	236.39
464.59	222.35
464.78	212.99
464.96	102.98
465.14	156.82
465.32	184.90
465.50	201.29
465.69	208.31
465.87	196.60
466.05	220.01
466.23	138.09
466.41	180.22
466.60	149.79
466.78	166.18
466.96	156.82
467.14	191.92
467.32	198.95
467.51	182.56
467.69	177.88
467.87	215.33
468.05	208.31
468.23	315.97
468.41	234.05
468.60	194.26
468.78	173.20
468.96	170.86
469.14	184.90
469.32	72.56
469.50	205.97
469.69	95.96
469.87	117.03
470.05	133.41
470.23	133.41
470.41	147.45
470.59	159.16
470.77	175.54
470.95	145.11
471.14	147.45
471.32	124.05
471.50	145.11
471.68	170.86
471.86	227.03
472.04	140.43
472.22	163.84
472.40	133.41
472.58	266.82
472.77	189.58
472.95	208.31
473.13	210.65
473.31	168.52
473.49	170.86
473.67	46.81
473.85	124.05
474.03	110.01
474.21	168.52
474.39	273.84
474.57	215.33
474.75	182.56
474.93	149.79
475.12	133.41
475.30	191.92
475.48	154.48
475.66	175.54
475.84	114.69
476.02	131.07
476.20	154.48
476.38	231.71
476.56	290.23
476.74	51.49
476.92	147.45
477.10	170.86
477.28	259.80
477.46	252.78
477.64	194.26
477.82	227.03
478.00	161.50
478.18	170.86
478.36	215.33
478.54	203.63
478.72	170.86
478.90	198.95
479.08	220.01
479.26	224.69
479.44	173.20
479.62	154.48
479.80	149.79
479.98	117.03
480.16	135.75
480.34	152.13
480.52	159.16
480.70	224.69
480.88	163.84
481.06	175.54
481.24	161.50
481.41	168.52
481.59	161.50
481.77	196.60
481.95	212.99
482.13	252.78
482.31	147.45
482.49	205.97
482.67	248.10
482.85	194.26
483.03	217.67
483.21	285.55
483.39	250.44
483.57	241.08
483.74	344.06
483.92	231.71
484.10	229.37
484.28	241.08
484.46	262.14
484.64	278.52
484.82	222.35
485.00	215.33
485.18	252.78
485.35	257.46
485.53	229.37
485.71	266.82
485.89	308.95
486.07	313.63
486.25	341.72
486.43	332.36
486.61	280.86
486.78	278.52
486.96	285.55
487.14	252.78
487.32	194.26
487.50	313.63
487.68	297.25
487.85	276.18
488.03	276.18
488.21	259.80
488.39	259.80
488.57	355.76
488.75	311.29
488.92	531.30
489.10	315.97
489.28	294.91
489.46	271.50
489.64	362.78
489.81	320.65
489.99	297.25
490.17	299.59
490.35	252.78
490.53	280.86
490.70	234.05
490.88	358.10
491.06	215.33
491.24	264.48
491.41	388.53
491.59	315.97
491.77	337.04
491.95	297.25
492.13	252.78
492.30	264.48
492.48	266.82
492.66	280.86
492.84	330.02
493.01	252.78
493.19	201.29
493.37	339.38
493.54	318.31
493.72	285.55
493.90	271.50
494.08	252.78
494.25	217.67
494.43	322.99
494.61	201.29
494.79	278.52
494.96	262.14
495.14	290.23
495.32	266.82
495.49	252.78
495.67	208.31
495.85	257.46
496.02	299.59
496.20	198.95
496.38	283.20
496.55	236.39
496.73	255.12
496.91	205.97
497.09	311.29
497.26	287.89
497.44	276.18
497.62	308.95
497.79	238.73
497.97	198.95
498.14	278.52
498.32	266.82
498.50	262.14
498.67	241.08
498.85	264.48
499.03	322.99
499.20	283.20
499.38	266.82
499.56	238.73
499.73	311.29
499.91	320.65
500.08	257.46
500.26	231.71
500.44	266.82
500.61	252.78
500.79	220.01
500.97	273.84
501.14	227.03
501.32	257.46
501.49	327.68
501.67	250.44
501.84	212.99
502.02	220.01
502.20	259.80
502.37	198.95
502.55	208.31
502.72	262.14
502.90	234.05
503.07	156.82
503.25	205.97
503.43	203.63
503.60	313.63
503.78	262.14
503.95	220.01
504.13	250.44
504.30	285.55
504.48	243.42
504.65	245.76
504.83	198.95
505.01	252.78
505.18	227.03
505.36	252.78
505.53	196.60
505.71	210.65
505.88	248.10
506.06	287.89
506.23	161.50
506.41	220.01
506.58	294.91
506.76	280.86
506.93	210.65
507.11	294.91
507.28	194.26
507.46	210.65
507.63	203.63
507.81	234.05
507.98	184.90
508.16	285.55
508.33	255.12
508.50	257.46
508.68	304.27
508.85	180.22
509.03	205.97
509.20	189.58
509.38	285.55
509.55	238.73
509.73	227.03
509.90	266.82
510.08	227.03
510.25	264.48
510.42	191.92
510.60	222.35
510.77	184.90
510.95	341.72
511.12	170.86
511.30	191.92
511.47	285.55
511.64	262.14
511.82	222.35
511.99	224.69
512.17	245.76
512.34	236.39
512.51	269.16
512.69	248.10
512.86	243.42
513.04	231.71
513.21	217.67
513.38	191.92
513.56	231.71
513.73	201.29
513.90	210.65
514.08	210.65
514.25	205.97
514.43	271.50
514.60	210.65
514.77	159.16
514.95	259.80
515.12	255.12
515.29	210.65
515.47	264.48
515.64	229.37
515.81	212.99
515.99	248.10
516.16	278.52
516.33	362.78
516.51	224.69
516.68	264.48
516.85	152.13
517.03	189.58
517.20	266.82
517.37	238.73
517.54	278.52
517.72	313.63
517.89	128.73
518.06	196.60
518.24	266.82
518.41	208.31
518.58	196.60
518.75	114.69
518.93	224.69
519.10	236.39
519.27	227.03
519.45	212.99
519.62	177.88
519.79	210.65
519.96	257.46
520.14	266.82
520.31	285.55
520.48	264.48
520.65	163.84
520.83	257.46
521.00	262.14
521.17	191.92
521.34	227.03
521.52	259.80
521.69	222.35
521.86	224.69
522.03	241.08
522.20	248.10
522.38	180.22
522.55	271.50
522.72	203.63
522.89	259.80
523.07	250.44
523.24	210.65
523.41	252.78
523.58	227.03
523.75	191.92
523.92	252.78
524.10	236.39
524.27	250.44
524.44	278.52
524.61	266.82
524.78	196.60
524.96	259.80
525.13	198.95
525.30	231.71
525.47	224.69
525.64	248.10
525.81	217.67
525.98	248.10
526.16	236.39
526.33	215.33
526.50	241.08
526.67	241.08
526.84	269.16
527.01	227.03
527.18	262.14
527.36	287.89
527.53	229.37
527.70	264.48
527.87	243.42
528.04	292.57
528.21	243.42
528.38	304.27
528.55	315.97
528.72	241.08
528.89	283.20
529.07	299.59
529.24	245.76
529.41	315.97
529.58	283.20
529.75	215.33
529.92	278.52
530.09	201.29
530.26	344.06
530.43	248.10
530.60	248.10
530.77	238.73
530.94	215.33
531.11	269.16
531.28	250.44
531.46	201.29
531.63	278.52
531.80	325.33
531.97	220.01
532.14	285.55
532.31	315.97
532.48	273.84
532.65	290.23
532.82	248.10
532.99	330.02
533.16	369.80
533.33	266.82
533.50	320.65
533.67	285.55
533.84	203.63
534.01	273.84
534.18	224.69
534.35	252.78
534.52	257.46
534.69	278.52
534.86	236.39
535.03	294.91
535.20	315.97
535.37	278.52
535.54	276.18
535.71	278.52
535.88	287.89
536.05	306.61
536.22	341.72
536.38	327.68
536.55	257.46
536.72	318.31
536.89	325.33
537.06	355.76
537.23	369.80
537.40	379.17
537.57	374.49
537.74	428.32
537.91	386.19
538.08	280.86
538.25	400.23
538.42	383.85
538.59	386.19
538.75	353.42
538.92	395.55
539.09	477.47
539.26	425.98
539.43	500.87
539.60	449.38
539.77	552.37
539.94	629.60
540.11	575.77
540.28	638.97
540.44	741.95
540.61	688.12
540.78	837.91
540.95	959.62
541.12	1081.33
541.29	1090.69
541.46	1067.28
541.62	1125.80
541.79	1125.80
541.96	1043.88
542.13	1050.90
542.30	1027.50
542.47	1027.50
542.63	917.49
542.80	933.87
542.97	990.05
543.14	912.81
543.31	985.37
543.48	999.41
543.64	1050.90
543.81	966.64
543.98	891.74
544.15	978.34
544.32	983.02
544.48	945.58
544.65	905.79
544.82	896.43
544.99	976.00
545.16	1015.79
545.32	964.30
545.49	1523.69
545.66	2172.02
545.83	2607.36
546.00	2282.02
546.16	1617.31
546.33	1235.80
546.50	1006.43
546.67	926.85
546.83	830.89
547.00	812.17
547.17	727.91
547.34	678.76
547.50	678.76
547.67	622.58
547.84	678.76
548.00	486.83
548.17	610.88
548.34	617.90
548.51	608.54
548.67	592.16
548.84	587.47
549.01	622.58
549.18	510.24
549.34	543.00
549.51	545.34
549.68	550.03
549.84	505.56
550.01	472.79
550.18	573.43
550.34	510.24
550.51	475.13
550.68	484.49
550.84	472.79
551.01	402.57
551.18	383.85
551.34	418.96
551.51	430.66
551.68	430.66
551.84	402.57
552.01	365.12
552.18	386.19
552.34	322.99
552.51	397.89
552.68	376.83
552.84	330.02
553.01	369.80
553.18	327.68
553.34	376.83
553.51	292.57
553.67	280.86
553.84	306.61
554.01	409.59
554.17	320.65
554.34	301.93
554.51	294.91
554.67	327.68
554.84	395.55
555.00	311.29
555.17	208.31
555.33	273.84
555.50	304.27
555.67	280.86
555.83	285.55
556.00	227.03
556.16	447.04
556.33	280.86
556.50	231.71
556.66	262.14
556.83	266.82
556.99	203.63
557.16	248.10
557.32	196.60
557.49	259.80
557.65	252.78
557.82	313.63
557.98	287.89
558.15	285.55
558.32	292.57
558.48	297.25
558.65	318.31
558.81	259.80
558.98	238.73
559.14	273.84
559.31	294.91
559.47	208.31
559.64	241.08
559.80	257.46
559.97	278.52
560.13	287.89
560.30	212.99
560.46	217.67
560.63	271.50
560.79	290.23
560.96	212.99
561.12	294.91
561.29	264.48
561.45	201.29
561.61	283.20
561.78	248.10
561.94	201.29
562.11	245.76
562.27	248.10
562.44	327.68
562.60	290.23
562.77	301.93
562.93	269.16
563.10	271.50
563.26	266.82
563.42	248.10
563.59	184.90
563.75	283.20
563.92	234.05
564.08	248.10
564.24	264.48
564.41	334.70
564.57	241.08
564.74	212.99
564.90	210.65
565.07	222.35
565.23	311.29
565.39	271.50
565.56	273.84
565.72	278.52
565.88	229.37
566.05	262.14
566.21	287.89
566.38	241.08
566.54	283.20
566.70	229.37
566.87	220.01
567.03	189.58
567.19	252.78
567.36	241.08
567.52	266.82
567.68	276.18
567.85	229.37
568.01	177.88
568.17	269.16
568.34	252.78
568.50	278.52
568.66	198.95
568.83	287.89
568.99	215.33
569.15	269.16
569.32	198.95
569.48	194.26
569.64	205.97
569.81	224.69
569.97	217.67
570.13	236.39
570.30	238.73
570.46	278.52
570.62	273.84
570.78	236.39
570.95	220.01
571.11	325.33
571.27	334.70
571.43	184.90
571.60	205.97
571.76	236.39
571.92	271.50
572.09	154.48
572.25	198.95
572.41	234.05
572.57	175.54
572.74	308.95
572.90	250.44
573.06	241.08
573.22	255.12
573.38	220.01
573.55	255.12
573.71	315.97
573.87	236.39
574.03	168.52
574.20	208.31
574.36	205.97
574.52	332.36
574.68	170.86
574.84	168.52
575.01	177.88
575.17	243.42
575.33	250.44
575.49	224.69
575.65	294.91
575.82	205.97
575.98	271.50
576.14	220.01
576.30	351.08
576.46	470.45
576.62	681.10
576.79	692.80
576.95	606.20
577.11	451.72
577.27	381.51
577.43	390.87
577.59	248.10
577.75	217.67
577.92	299.59
578.08	273.84
578.24	252.78
578.40	388.53
578.56	458.74
578.72	704.50
578.88	627.26
579.04	500.87
579.21	440.02
579.37	369.80
579.53	318.31
579.69	383.85
579.85	283.20
580.01	353.42
580.17	386.19
580.33	353.42
580.49	374.49
580.65	325.33
580.82	306.61
580.98	346.40
581.14	344.06
581.30	369.80
581.46	308.95
581.62	437.68
581.78	306.61
581.94	330.02
582.10	383.85
582.26	414.27
582.42	409.59
582.58	351.08
582.74	311.29
582.90	407.25
583.06	402.57
583.22	425.98
583.38	395.55
583.54	440.02
583.70	407.25
583.86	358.10
584.02	341.72
584.18	414.27
584.34	430.66
584.50	383.85
584.66	353.42
584.82	337.04
584.98	444.70
585.14	383.85
585.30	369.80
585.46	369.80
585.62	353.42
585.78	322.99
585.94	411.93
586.10	381.51
586.26	325.33
586.42	433.00
586.58	416.62
586.74	463.43
586.90	561.73
587.06	491.51
587.22	531.30
587.38	543.00
587.54	550.03
587.70	444.70
587.86	416.62
588.02	409.59
588.18	348.74
588.34	299.59
588.49	337.04
588.65	315.97
588.81	294.91
588.97	222.35
589.13	292.57
589.29	271.50
589.45	388.53
589.61	290.23
589.77	301.93
589.93	325.33
590.08	285.55
590.24	292.57
590.40	283.20
590.56	318.31
590.72	292.57
590.88	234.05
591.04	327.68
591.20	304.27
591.35	320.65
591.51	351.08
591.67	383.85
591.83	348.74
591.99	433.00
592.15	355.76
592.31	421.30
592.46	402.57
592.62	409.59
592.78	374.49
592.94	369.80
593.10	451.72
593.26	447.04
593.41	372.15
593.57	428.32
593.73	341.72
593.89	297.25
594.05	301.93
594.20	252.78
594.36	322.99
594.52	255.12
594.68	269.16
594.84	224.69
594.99	285.55
595.15	273.84
595.31	360.44
595.47	355.76
595.62	308.95
595.78	241.08
595.94	337.04
596.10	259.80
596.25	308.95
596.41	252.78
596.57	245.76
596.73	278.52
596.88	224.69
597.04	332.36
597.20	313.63
597.36	259.80
597.51	276.18
597.67	259.80
597.83	278.52
597.99	234.05
598.14	315.97
598.30	332.36
598.46	330.02
598.61	294.91
598.77	383.85
598.93	341.72
599.09	355.76
599.24	318.31
599.40	409.59
599.56	287.89
599.71	290.23
599.87	395.55
600.03	285.55
600.18	322.99
600.34	346.40
600.50	301.93
600.65	304.27
600.81	285.55
600.97	168.52
601.12	297.25
601.28	269.16
601.44	292.57
601.59	201.29
601.75	327.68
601.91	180.22
602.06	215.33
602.22	358.10
602.37	339.38
602.53	259.80
602.69	243.42
602.84	248.10
603.00	278.52
603.16	292.57
603.31	269.16
603.47	248.10
603.62	215.33
603.78	203.63
603.94	236.39
604.09	322.99
604.25	276.18
604.40	264.48
604.56	292.57
604.71	257.46
604.87	301.93
605.03	280.86
605.18	292.57
605.34	318.31
605.49	283.20
605.65	301.93
605.80	252.78
605.96	334.70
606.12	325.33
606.27	306.61
606.43	306.61
606.58	294.91
606.74	358.10
606.89	266.82
607.05	278.52
607.20	299.59
607.36	402.57
607.51	351.08
607.67	297.25
607.82	339.38
607.98	381.51
608.13	423.64
608.29	383.85
608.44	322.99
608.60	468.11
608.75	383.85
608.91	449.38
609.06	500.87
609.22	514.92
609.37	491.51
609.53	655.35
609.68	571.09
609.84	613.22
609.99	720.88
610.15	816.85
610.30	1004.09
610.46	1160.91
610.61	1495.60
610.76	1874.77
610.92	2153.29
611.07	2410.75
611.23	2537.14
611.38	2267.98
611.54	2022.22
