SpectraSuite Data File
++++++++++++++++++++++++++++++++++++
Date: Fri Oct 04 11:41:40 GMT-05:00 2013
User: price-jones
Dark Spectrum Present: No
Reference Spectrum Present: No
Number of Sampled Component Spectra: 1
Spectrometers: USB2+H05261
Integration Time (usec): 100000 (USB2+H05261)
Spectra Averaged: 1 (USB2+H05261)
Boxcar Smoothing: 0 (USB2+H05261)
Correct for Electrical Dark: No (USB2+H05261)
Strobe/Lamp Enabled: No (USB2+H05261)
Correct for Detector Non-linearity: No (USB2+H05261)
Correct for Stray Light: No (USB2+H05261)
Number of Pixels in Processed Spectrum: 2048
>>>>>Begin Processed Spectral Data<<<<<
365.73	88.94
365.92	88.94
366.12	88.94
366.32	0.00
366.52	9.36
366.72	32.77
366.91	0.00
367.11	0.00
367.31	0.00
367.51	0.00
367.70	0.00
367.90	0.00
368.10	0.00
368.30	0.00
368.49	0.00
368.69	0.00
368.89	0.00
369.09	0.00
369.28	0.00
369.48	0.00
369.68	0.00
369.87	0.00
370.07	0.00
370.27	0.00
370.47	28.09
370.66	0.00
370.86	32.77
371.06	107.66
371.25	81.92
371.45	65.54
371.65	95.96
371.84	140.43
372.04	44.47
372.24	46.81
372.44	77.24
372.63	95.96
372.83	173.20
373.03	91.28
373.22	32.77
373.42	4.68
373.62	114.69
373.81	74.90
374.01	166.18
374.21	81.92
374.40	154.48
374.60	126.39
374.79	131.07
374.99	166.18
375.19	102.98
375.38	93.62
375.58	166.18
375.78	105.32
375.97	203.63
376.17	142.77
376.37	39.79
376.56	100.64
376.76	72.56
376.95	114.69
377.15	98.30
377.35	77.24
377.54	105.32
377.74	70.22
377.93	107.66
378.13	145.11
378.33	140.43
378.52	152.13
378.72	114.69
378.91	44.47
379.11	65.54
379.31	79.58
379.50	86.60
379.70	126.39
379.89	142.77
380.09	53.83
380.28	105.32
380.48	114.69
380.68	72.56
380.87	102.98
381.07	114.69
381.26	79.58
381.46	187.24
381.65	117.03
381.85	98.30
382.04	74.90
382.24	77.24
382.43	93.62
382.63	180.22
382.83	79.58
383.02	14.04
383.22	149.79
383.41	95.96
383.61	107.66
383.80	65.54
384.00	138.09
384.19	93.62
384.39	121.71
384.58	84.26
384.78	81.92
384.97	124.05
385.17	117.03
385.36	100.64
385.56	145.11
385.75	74.90
385.95	154.48
386.14	138.09
386.34	58.51
386.53	126.39
386.72	84.26
386.92	180.22
387.11	131.07
387.31	133.41
387.50	124.05
387.70	46.81
387.89	110.01
388.09	65.54
388.28	110.01
388.48	91.28
388.67	124.05
388.86	142.77
389.06	72.56
389.25	91.28
389.45	133.41
389.64	53.83
389.84	107.66
390.03	110.01
390.22	194.26
390.42	100.64
390.61	119.37
390.81	93.62
391.00	102.98
391.19	67.88
391.39	173.20
391.58	124.05
391.78	86.60
391.97	133.41
392.16	67.88
392.36	138.09
392.55	126.39
392.75	152.13
392.94	140.43
393.13	124.05
393.33	51.49
393.52	98.30
393.71	201.29
393.91	70.22
394.10	42.13
394.29	81.92
394.49	102.98
394.68	121.71
394.88	79.58
395.07	110.01
395.26	145.11
395.46	159.16
395.65	140.43
395.84	124.05
396.04	159.16
396.23	98.30
396.42	81.92
396.62	121.71
396.81	117.03
397.00	100.64
397.19	102.98
397.39	107.66
397.58	194.26
397.77	93.62
397.97	84.26
398.16	77.24
398.35	102.98
398.55	98.30
398.74	168.52
398.93	212.99
399.12	98.30
399.32	91.28
399.51	138.09
399.70	124.05
399.90	128.73
400.09	121.71
400.28	86.60
400.47	95.96
400.67	184.90
400.86	88.94
401.05	201.29
401.24	84.26
401.44	138.09
401.63	126.39
401.82	147.45
402.01	72.56
402.21	229.37
402.40	114.69
402.59	133.41
402.78	95.96
402.97	105.32
403.17	147.45
403.36	198.95
403.55	140.43
403.74	191.92
403.93	100.64
404.13	315.97
404.32	248.10
404.51	180.22
404.70	198.95
404.89	98.30
405.09	44.47
405.28	138.09
405.47	117.03
405.66	117.03
405.85	154.48
406.05	79.58
406.24	131.07
406.43	117.03
406.62	117.03
406.81	227.03
407.00	168.52
407.20	119.37
407.39	93.62
407.58	187.24
407.77	191.92
407.96	208.31
408.15	121.71
408.34	128.73
408.54	105.32
408.73	119.37
408.92	163.84
409.11	88.94
409.30	149.79
409.49	163.84
409.68	138.09
409.87	170.86
410.07	81.92
410.26	102.98
410.45	124.05
410.64	149.79
410.83	107.66
411.02	81.92
411.21	112.35
411.40	196.60
411.59	117.03
411.78	67.88
411.98	114.69
412.17	114.69
412.36	170.86
412.55	131.07
412.74	105.32
412.93	163.84
413.12	126.39
413.31	128.73
413.50	161.50
413.69	201.29
413.88	196.60
414.07	112.35
414.26	152.13
414.45	156.82
414.64	133.41
414.83	112.35
415.02	154.48
415.22	145.11
415.41	170.86
415.60	100.64
415.79	170.86
415.98	145.11
416.17	93.62
416.36	175.54
416.55	156.82
416.74	110.01
416.93	168.52
417.12	107.66
417.31	72.56
417.50	156.82
417.69	210.65
417.88	189.58
418.07	84.26
418.26	147.45
418.45	112.35
418.64	198.95
418.83	177.88
419.02	138.09
419.21	147.45
419.39	205.97
419.58	119.37
419.77	42.13
419.96	135.75
420.15	128.73
420.34	145.11
420.53	175.54
420.72	149.79
420.91	133.41
421.10	128.73
421.29	189.58
421.48	208.31
421.67	138.09
421.86	196.60
422.05	72.56
422.24	175.54
422.43	128.73
422.61	187.24
422.80	159.16
422.99	145.11
423.18	79.58
423.37	203.63
423.56	163.84
423.75	159.16
423.94	166.18
424.13	79.58
424.32	191.92
424.50	140.43
424.69	154.48
424.88	220.01
425.07	189.58
425.26	156.82
425.45	163.84
425.64	131.07
425.83	175.54
426.01	149.79
426.20	145.11
426.39	135.75
426.58	154.48
426.77	173.20
426.96	252.78
427.15	140.43
427.33	65.54
427.52	154.48
427.71	196.60
427.90	147.45
428.09	98.30
428.28	184.90
428.46	187.24
428.65	222.35
428.84	222.35
429.03	161.50
429.22	128.73
429.40	184.90
429.59	177.88
429.78	177.88
429.97	107.66
430.16	114.69
430.34	140.43
430.53	142.77
430.72	119.37
430.91	205.97
431.10	107.66
431.28	142.77
431.47	212.99
431.66	152.13
431.85	166.18
432.03	88.94
432.22	269.16
432.41	177.88
432.60	161.50
432.79	112.35
432.97	128.73
433.16	140.43
433.35	210.65
433.54	128.73
433.72	201.29
433.91	194.26
434.10	177.88
434.28	234.05
434.47	245.76
434.66	180.22
434.85	205.97
435.03	241.08
435.22	734.93
435.41	1240.48
435.59	1331.76
435.78	1107.07
435.97	540.66
436.16	308.95
436.34	241.08
436.53	184.90
436.72	215.33
436.90	166.18
437.09	210.65
437.28	149.79
437.46	212.99
437.65	147.45
437.84	152.13
438.02	135.75
438.21	210.65
438.40	191.92
438.58	173.20
438.77	212.99
438.96	217.67
439.14	175.54
439.33	182.56
439.52	189.58
439.70	168.52
439.89	196.60
440.08	163.84
440.26	198.95
440.45	175.54
440.63	231.71
440.82	133.41
441.01	205.97
441.19	177.88
441.38	112.35
441.57	220.01
441.75	196.60
441.94	234.05
442.12	100.64
442.31	95.96
442.50	159.16
442.68	149.79
442.87	138.09
443.05	163.84
443.24	262.14
443.43	227.03
443.61	196.60
443.80	180.22
443.98	191.92
444.17	159.16
444.35	166.18
444.54	196.60
444.73	173.20
444.91	154.48
445.10	161.50
445.28	163.84
445.47	234.05
445.65	180.22
445.84	177.88
446.02	203.63
446.21	175.54
446.39	119.37
446.58	173.20
446.77	149.79
446.95	168.52
447.14	187.24
447.32	159.16
447.51	227.03
447.69	170.86
447.88	191.92
448.06	189.58
448.25	177.88
448.43	140.43
448.62	163.84
448.80	198.95
448.99	140.43
449.17	177.88
449.36	168.52
449.54	131.07
449.73	149.79
449.91	191.92
450.10	238.73
450.28	147.45
450.46	173.20
450.65	191.92
450.83	149.79
451.02	187.24
451.20	102.98
451.39	220.01
451.57	241.08
451.76	128.73
451.94	159.16
452.13	161.50
452.31	184.90
452.49	147.45
452.68	117.03
452.86	231.71
453.05	194.26
453.23	196.60
453.42	212.99
453.60	173.20
453.78	107.66
453.97	208.31
454.15	88.94
454.34	147.45
454.52	187.24
454.70	159.16
454.89	227.03
455.07	81.92
455.26	187.24
455.44	154.48
455.62	114.69
455.81	191.92
455.99	215.33
456.17	194.26
456.36	173.20
456.54	173.20
456.73	210.65
456.91	154.48
457.09	250.44
457.28	180.22
457.46	182.56
457.64	194.26
457.83	175.54
458.01	220.01
458.19	238.73
458.38	110.01
458.56	217.67
458.74	135.75
458.93	149.79
459.11	126.39
459.29	173.20
459.48	234.05
459.66	259.80
459.84	243.42
460.03	180.22
460.21	152.13
460.39	131.07
460.57	198.95
460.76	184.90
460.94	184.90
461.12	196.60
461.31	173.20
461.49	168.52
461.67	147.45
461.85	119.37
462.04	154.48
462.22	322.99
462.40	198.95
462.59	297.25
462.77	208.31
462.95	205.97
463.13	154.48
463.32	205.97
463.50	224.69
463.68	280.86
463.86	149.79
464.05	131.07
464.23	131.07
464.41	131.07
464.59	121.71
464.78	182.56
464.96	149.79
465.14	173.20
465.32	110.01
465.50	243.42
465.69	140.43
465.87	212.99
466.05	250.44
466.23	189.58
466.41	173.20
466.60	168.52
466.78	222.35
466.96	182.56
467.14	170.86
467.32	201.29
467.51	203.63
467.69	161.50
467.87	224.69
468.05	88.94
468.23	177.88
468.41	241.08
468.60	145.11
468.78	203.63
468.96	175.54
469.14	217.67
469.32	161.50
469.50	217.67
469.69	203.63
469.87	140.43
470.05	128.73
470.23	175.54
470.41	159.16
470.59	149.79
470.77	114.69
470.95	189.58
471.14	189.58
471.32	184.90
471.50	266.82
471.68	107.66
471.86	163.84
472.04	163.84
472.22	278.52
472.40	180.22
472.58	163.84
472.77	220.01
472.95	177.88
473.13	243.42
473.31	184.90
473.49	152.13
473.67	107.66
473.85	163.84
474.03	259.80
474.21	231.71
474.39	290.23
474.57	210.65
474.75	154.48
474.93	177.88
475.12	203.63
475.30	245.76
475.48	222.35
475.66	227.03
475.84	25.75
476.02	182.56
476.20	163.84
476.38	100.64
476.56	285.55
476.74	175.54
476.92	149.79
477.10	166.18
477.28	196.60
477.46	149.79
477.64	238.73
477.82	156.82
478.00	201.29
478.18	154.48
478.36	215.33
478.54	161.50
478.72	152.13
478.90	138.09
479.08	187.24
479.26	177.88
479.44	149.79
479.62	173.20
479.80	191.92
479.98	154.48
480.16	252.78
480.34	196.60
480.52	224.69
480.70	189.58
480.88	74.90
481.06	149.79
481.24	222.35
481.41	152.13
481.59	205.97
481.77	212.99
481.95	166.18
482.13	241.08
482.31	252.78
482.49	124.05
482.67	255.12
482.85	189.58
483.03	264.48
483.21	266.82
483.39	290.23
483.57	313.63
483.74	337.04
483.92	252.78
484.10	262.14
484.28	355.76
484.46	360.44
484.64	243.42
484.82	245.76
485.00	245.76
485.18	374.49
485.35	255.12
485.53	304.27
485.71	341.72
485.89	262.14
486.07	339.38
486.25	374.49
486.43	306.61
486.61	397.89
486.78	355.76
486.96	372.15
487.14	341.72
487.32	365.12
487.50	355.76
487.68	346.40
487.85	322.99
488.03	362.78
488.21	393.21
488.39	351.08
488.57	358.10
488.75	290.23
488.92	566.41
489.10	299.59
489.28	379.17
489.46	294.91
489.64	287.89
489.81	325.33
489.99	358.10
490.17	294.91
490.35	322.99
490.53	212.99
490.70	271.50
490.88	287.89
491.06	259.80
491.24	315.97
491.41	372.15
491.59	379.17
491.77	386.19
491.95	283.20
492.13	255.12
492.30	355.76
492.48	318.31
492.66	236.39
492.84	294.91
493.01	285.55
493.19	283.20
493.37	311.29
493.54	348.74
493.72	301.93
493.90	320.65
494.08	266.82
494.25	236.39
494.43	280.86
494.61	292.57
494.79	191.92
494.96	264.48
495.14	313.63
495.32	231.71
495.49	318.31
495.67	294.91
495.85	344.06
496.02	283.20
496.20	325.33
496.38	304.27
496.55	227.03
496.73	271.50
496.91	259.80
497.09	341.72
497.26	318.31
497.44	327.68
497.62	166.18
497.79	285.55
497.97	308.95
498.14	257.46
498.32	311.29
498.50	311.29
498.67	341.72
498.85	341.72
499.03	262.14
499.20	222.35
499.38	292.57
499.56	332.36
499.73	337.04
499.91	278.52
500.08	320.65
500.26	236.39
500.44	250.44
500.61	320.65
500.79	292.57
500.97	255.12
501.14	285.55
501.32	271.50
501.49	245.76
501.67	297.25
501.84	259.80
502.02	320.65
502.20	271.50
502.37	367.46
502.55	294.91
502.72	294.91
502.90	337.04
503.07	248.10
503.25	257.46
503.43	229.37
503.60	203.63
503.78	236.39
503.95	262.14
504.13	175.54
504.30	315.97
504.48	315.97
504.65	320.65
504.83	241.08
505.01	175.54
505.18	238.73
505.36	290.23
505.53	208.31
505.71	238.73
505.88	276.18
506.06	203.63
506.23	252.78
506.41	236.39
506.58	292.57
506.76	248.10
506.93	266.82
507.11	212.99
507.28	271.50
507.46	170.86
507.63	227.03
507.81	238.73
507.98	273.84
508.16	311.29
508.33	292.57
508.50	299.59
508.68	301.93
508.85	187.24
509.03	245.76
509.20	250.44
509.38	212.99
509.55	283.20
509.73	191.92
509.90	280.86
510.08	236.39
510.25	266.82
510.42	257.46
510.60	290.23
510.77	271.50
510.95	311.29
511.12	212.99
511.30	224.69
511.47	273.84
511.64	332.36
511.82	285.55
511.99	255.12
512.17	243.42
512.34	180.22
512.51	215.33
512.69	208.31
512.86	229.37
513.04	229.37
513.21	215.33
513.38	290.23
513.56	276.18
513.73	299.59
513.90	294.91
514.08	210.65
514.25	229.37
514.43	224.69
514.60	248.10
514.77	355.76
514.95	264.48
515.12	224.69
515.29	283.20
515.47	306.61
515.64	280.86
515.81	262.14
515.99	273.84
516.16	280.86
516.33	280.86
516.51	187.24
516.68	238.73
516.85	299.59
517.03	255.12
517.20	299.59
517.37	283.20
517.54	250.44
517.72	241.08
517.89	283.20
518.06	208.31
518.24	322.99
518.41	320.65
518.58	236.39
518.75	220.01
518.93	194.26
519.10	285.55
519.27	280.86
519.45	299.59
519.62	215.33
519.79	264.48
519.96	217.67
520.14	203.63
520.31	280.86
520.48	194.26
520.65	278.52
520.83	278.52
521.00	175.54
521.17	257.46
521.34	299.59
521.52	292.57
521.69	184.90
521.86	196.60
522.03	241.08
522.20	257.46
522.38	224.69
522.55	266.82
522.72	191.92
522.89	264.48
523.07	266.82
523.24	304.27
523.41	210.65
523.58	259.80
523.75	248.10
523.92	231.71
524.10	276.18
524.27	339.38
524.44	255.12
524.61	271.50
524.78	234.05
524.96	257.46
525.13	222.35
525.30	322.99
525.47	301.93
525.64	241.08
525.81	257.46
525.98	257.46
526.16	264.48
526.33	243.42
526.50	166.18
526.67	262.14
526.84	283.20
527.01	229.37
527.18	276.18
527.36	187.24
527.53	266.82
527.70	280.86
527.87	318.31
528.04	308.95
528.21	250.44
528.38	313.63
528.55	311.29
528.72	301.93
528.89	276.18
529.07	301.93
529.24	262.14
529.41	269.16
529.58	259.80
529.75	304.27
529.92	287.89
530.09	248.10
530.26	262.14
530.43	243.42
530.60	285.55
530.77	280.86
530.94	360.44
531.11	264.48
531.28	290.23
531.46	231.71
531.63	297.25
531.80	255.12
531.97	311.29
532.14	229.37
532.31	297.25
532.48	358.10
532.65	297.25
532.82	264.48
532.99	327.68
533.16	301.93
533.33	334.70
533.50	318.31
533.67	346.40
533.84	360.44
534.01	273.84
534.18	313.63
534.35	252.78
534.52	330.02
534.69	332.36
534.86	355.76
535.03	386.19
535.20	299.59
535.37	346.40
535.54	365.12
535.71	283.20
535.88	409.59
536.05	372.15
536.22	351.08
536.38	360.44
536.55	313.63
536.72	327.68
536.89	397.89
537.06	348.74
537.23	418.96
537.40	367.46
537.57	449.38
537.74	423.64
537.91	491.51
538.08	409.59
538.25	440.02
538.42	428.32
538.59	409.59
538.75	498.53
538.92	447.04
539.09	533.64
539.26	493.85
539.43	503.22
539.60	573.43
539.77	641.31
539.94	596.84
540.11	699.82
540.28	800.46
540.44	833.23
540.61	763.01
540.78	891.74
540.95	1102.39
541.12	1212.40
541.29	1306.02
541.46	1502.62
541.62	1394.96
541.79	1399.64
541.96	1409.00
542.13	1350.49
542.30	1310.70
542.47	1355.17
542.63	1104.73
542.80	1149.20
542.97	1221.76
543.14	1109.41
543.31	1196.01
543.48	1207.72
543.64	1245.16
543.81	1188.99
543.98	1156.22
544.15	1191.33
544.32	1151.54
544.48	1238.14
544.65	1170.27
544.82	1139.84
544.99	1090.69
545.16	1151.54
545.32	1256.87
545.49	1818.60
545.66	2782.90
545.83	3513.14
546.00	3105.89
546.16	2165.00
546.33	1598.59
546.50	1254.53
546.67	1008.77
546.83	908.13
547.00	957.28
547.17	807.48
547.34	847.27
547.50	798.12
547.67	889.40
547.84	805.14
548.00	716.20
548.17	737.27
548.34	842.59
548.51	823.87
548.67	788.76
548.84	713.86
549.01	655.35
549.18	676.41
549.34	699.82
549.51	662.37
549.68	702.16
549.84	629.60
550.01	643.65
550.18	601.52
550.34	596.84
550.51	643.65
550.68	517.26
550.84	531.30
551.01	510.24
551.18	521.94
551.34	531.30
551.51	510.24
551.68	543.00
551.84	519.60
552.01	451.72
552.18	379.17
552.34	442.36
552.51	484.49
552.68	461.09
552.84	388.53
553.01	425.98
553.18	428.32
553.34	433.00
553.51	376.83
553.67	402.57
553.84	400.23
554.01	383.85
554.17	374.49
554.34	383.85
554.51	337.04
554.67	386.19
554.84	325.33
555.00	362.78
555.17	297.25
555.33	358.10
555.50	266.82
555.67	388.53
555.83	278.52
556.00	304.27
556.16	418.96
556.33	311.29
556.50	285.55
556.66	313.63
556.83	201.29
556.99	257.46
557.16	224.69
557.32	266.82
557.49	276.18
557.65	266.82
557.82	304.27
557.98	238.73
558.15	250.44
558.32	360.44
558.48	243.42
558.65	313.63
558.81	273.84
558.98	231.71
559.14	271.50
559.31	297.25
559.47	306.61
559.64	344.06
559.80	283.20
559.97	360.44
560.13	248.10
560.30	280.86
560.46	227.03
560.63	346.40
560.79	292.57
560.96	259.80
561.12	241.08
561.29	269.16
561.45	257.46
561.61	220.01
561.78	379.17
561.94	283.20
562.11	266.82
562.27	304.27
562.44	292.57
562.60	297.25
562.77	147.45
562.93	334.70
563.10	273.84
563.26	252.78
563.42	236.39
563.59	224.69
563.75	283.20
563.92	320.65
564.08	229.37
564.24	222.35
564.41	280.86
564.57	259.80
564.74	271.50
564.90	280.86
565.07	283.20
565.23	306.61
565.39	203.63
565.56	269.16
565.72	297.25
565.88	236.39
566.05	245.76
566.21	198.95
566.38	212.99
566.54	194.26
566.70	292.57
566.87	304.27
567.03	301.93
567.19	208.31
567.36	222.35
567.52	220.01
567.68	337.04
567.85	231.71
568.01	255.12
568.17	259.80
568.34	264.48
568.50	173.20
568.66	203.63
568.83	304.27
568.99	224.69
569.15	245.76
569.32	215.33
569.48	210.65
569.64	252.78
569.81	278.52
569.97	306.61
570.13	266.82
570.30	318.31
570.46	212.99
570.62	234.05
570.78	283.20
570.95	196.60
571.11	297.25
571.27	297.25
571.43	220.01
571.60	308.95
571.76	236.39
571.92	278.52
572.09	182.56
572.25	220.01
572.41	175.54
572.57	334.70
572.74	276.18
572.90	243.42
573.06	248.10
573.22	252.78
573.38	337.04
573.55	315.97
573.71	313.63
573.87	250.44
574.03	278.52
574.20	313.63
574.36	292.57
574.52	297.25
574.68	177.88
574.84	241.08
575.01	250.44
575.17	280.86
575.33	236.39
575.49	334.70
575.65	266.82
575.82	252.78
575.98	306.61
576.14	278.52
576.30	313.63
576.46	514.92
576.62	765.36
576.79	891.74
576.95	674.07
577.11	444.70
577.27	341.72
577.43	353.42
577.59	355.76
577.75	330.02
577.92	248.10
578.08	315.97
578.24	269.16
578.40	365.12
578.56	491.51
578.72	793.44
578.88	823.87
579.04	643.65
579.21	538.32
579.37	416.62
579.53	475.13
579.69	449.38
579.85	404.91
580.01	421.30
580.17	505.56
580.33	423.64
580.49	369.80
580.65	372.15
580.82	393.21
580.98	416.62
581.14	362.78
581.30	416.62
581.46	369.80
581.62	402.57
581.78	297.25
581.94	442.36
582.10	404.91
582.26	367.46
582.42	510.24
582.58	458.74
582.74	472.79
582.90	503.22
583.06	444.70
583.22	440.02
583.38	479.81
583.54	447.04
583.70	477.47
583.86	456.40
584.02	489.17
584.18	514.92
584.34	484.49
584.50	369.80
584.66	486.83
584.82	409.59
584.98	482.15
585.14	376.83
585.30	383.85
585.46	437.68
585.62	416.62
585.78	393.21
585.94	451.72
586.10	407.25
586.26	428.32
586.42	524.28
586.58	538.32
586.74	559.39
586.90	526.62
587.06	697.48
587.22	636.63
587.38	489.17
587.54	545.34
587.70	521.94
587.86	557.05
588.02	451.72
588.18	409.59
588.34	416.62
588.49	353.42
588.65	353.42
588.81	339.38
588.97	327.68
589.13	376.83
589.29	322.99
589.45	393.21
589.61	339.38
589.77	353.42
589.93	346.40
590.08	355.76
590.24	313.63
590.40	334.70
590.56	367.46
590.72	390.87
590.88	332.36
591.04	365.12
591.20	301.93
591.35	388.53
591.51	280.86
591.67	365.12
591.83	318.31
591.99	388.53
592.15	348.74
592.31	472.79
592.46	461.09
592.62	503.22
592.78	505.56
592.94	559.39
593.10	636.63
593.26	472.79
593.41	559.39
593.57	510.24
593.73	395.55
593.89	372.15
594.05	388.53
594.20	386.19
594.36	362.78
594.52	290.23
594.68	390.87
594.84	337.04
594.99	348.74
595.15	313.63
595.31	402.57
595.47	306.61
595.62	339.38
595.78	360.44
595.94	346.40
596.10	304.27
596.25	283.20
596.41	344.06
596.57	301.93
596.73	212.99
596.88	322.99
597.04	337.04
597.20	334.70
597.36	325.33
597.51	308.95
597.67	299.59
597.83	313.63
597.99	344.06
598.14	315.97
598.30	360.44
598.46	372.15
598.61	362.78
598.77	355.76
598.93	351.08
599.09	428.32
599.24	379.17
599.40	407.25
599.56	369.80
599.71	372.15
599.87	369.80
600.03	397.89
600.18	313.63
600.34	348.74
600.50	322.99
600.65	269.16
600.81	381.51
600.97	351.08
601.12	315.97
601.28	283.20
601.44	250.44
601.59	334.70
601.75	332.36
601.91	278.52
602.06	245.76
602.22	308.95
602.37	346.40
602.53	278.52
602.69	224.69
602.84	285.55
603.00	346.40
603.16	346.40
603.31	262.14
603.47	292.57
603.62	320.65
603.78	318.31
603.94	287.89
604.09	315.97
604.25	337.04
604.40	320.65
604.56	299.59
604.71	332.36
604.87	294.91
605.03	255.12
605.18	290.23
605.34	290.23
605.49	327.68
605.65	369.80
605.80	280.86
605.96	301.93
606.12	337.04
606.27	346.40
606.43	311.29
606.58	297.25
606.74	353.42
606.89	280.86
607.05	308.95
607.20	334.70
607.36	365.12
607.51	386.19
607.67	404.91
607.82	360.44
607.98	514.92
608.13	425.98
608.29	454.06
608.44	437.68
608.60	437.68
608.75	472.79
608.91	489.17
609.06	533.64
609.22	650.67
609.37	608.54
609.53	608.54
609.68	667.05
609.84	814.51
609.99	896.43
610.15	1071.97
610.30	1296.66
610.46	1528.37
610.61	1827.96
610.76	2303.09
610.92	2913.97
611.07	3028.65
611.23	3279.09
