SpectraSuite Data File
++++++++++++++++++++++++++++++++++++
Date: Fri Oct 04 11:41:45 GMT-05:00 2013
User: price-jones
Dark Spectrum Present: No
Reference Spectrum Present: No
Number of Sampled Component Spectra: 1
Spectrometers: USB2+H05261
Integration Time (usec): 100000 (USB2+H05261)
Spectra Averaged: 1 (USB2+H05261)
Boxcar Smoothing: 0 (USB2+H05261)
Correct for Electrical Dark: No (USB2+H05261)
Strobe/Lamp Enabled: No (USB2+H05261)
Correct for Detector Non-linearity: No (USB2+H05261)
Correct for Stray Light: No (USB2+H05261)
Number of Pixels in Processed Spectrum: 2048
>>>>>Begin Processed Spectral Data<<<<<
365.73	53.83
365.92	53.83
366.12	53.83
366.32	0.00
366.52	0.00
366.72	0.00
366.91	0.00
367.11	0.00
367.31	0.00
367.51	0.00
367.70	0.00
367.90	0.00
368.10	0.00
368.30	0.00
368.49	0.00
368.69	0.00
368.89	0.00
369.09	0.00
369.28	0.00
369.48	0.00
369.68	0.00
369.87	32.77
370.07	0.00
370.27	4.68
370.47	4.68
370.66	67.88
370.86	39.79
371.06	51.49
371.25	70.22
371.45	42.13
371.65	95.96
371.84	102.98
372.04	35.11
372.24	154.48
372.44	81.92
372.63	98.30
372.83	145.11
373.03	74.90
373.22	70.22
373.42	81.92
373.62	95.96
373.81	133.41
374.01	65.54
374.21	166.18
374.40	63.19
374.60	243.42
374.79	98.30
374.99	121.71
375.19	37.45
375.38	161.50
375.58	81.92
375.78	145.11
375.97	121.71
376.17	198.95
376.37	189.58
376.56	159.16
376.76	117.03
376.95	79.58
377.15	102.98
377.35	107.66
377.54	180.22
377.74	117.03
377.93	81.92
378.13	98.30
378.33	140.43
378.52	86.60
378.72	91.28
378.91	168.52
379.11	131.07
379.31	42.13
379.50	58.51
379.70	135.75
379.89	194.26
380.09	81.92
380.28	149.79
380.48	102.98
380.68	159.16
380.87	114.69
381.07	74.90
381.26	102.98
381.46	44.47
381.65	93.62
381.85	166.18
382.04	110.01
382.24	102.98
382.43	142.77
382.63	53.83
382.83	110.01
383.02	67.88
383.22	126.39
383.41	77.24
383.61	112.35
383.80	119.37
384.00	156.82
384.19	72.56
384.39	95.96
384.58	39.79
384.78	149.79
384.97	131.07
385.17	67.88
385.36	105.32
385.56	107.66
385.75	70.22
385.95	84.26
386.14	56.17
386.34	100.64
386.53	107.66
386.72	58.51
386.92	91.28
387.11	95.96
387.31	138.09
387.50	117.03
387.70	37.45
387.89	131.07
388.09	81.92
388.28	77.24
388.48	46.81
388.67	67.88
388.86	0.00
389.06	100.64
389.25	98.30
389.45	119.37
389.64	119.37
389.84	175.54
390.03	124.05
390.22	131.07
390.42	100.64
390.61	156.82
390.81	91.28
391.00	140.43
391.19	140.43
391.39	159.16
391.58	140.43
391.78	91.28
391.97	135.75
392.16	175.54
392.36	191.92
392.55	91.28
392.75	154.48
392.94	138.09
393.13	119.37
393.33	32.77
393.52	124.05
393.71	142.77
393.91	95.96
394.10	65.54
394.29	84.26
394.49	77.24
394.68	166.18
394.88	63.19
395.07	131.07
395.26	105.32
395.46	86.60
395.65	128.73
395.84	107.66
396.04	140.43
396.23	67.88
396.42	60.85
396.62	95.96
396.81	102.98
397.00	84.26
397.19	140.43
397.39	56.17
397.58	86.60
397.77	95.96
397.97	217.67
398.16	124.05
398.35	107.66
398.55	84.26
398.74	102.98
398.93	152.13
399.12	86.60
399.32	114.69
399.51	67.88
399.70	166.18
399.90	131.07
400.09	126.39
400.28	105.32
400.47	152.13
400.67	107.66
400.86	170.86
401.05	159.16
401.24	128.73
401.44	86.60
401.63	166.18
401.82	182.56
402.01	117.03
402.21	110.01
402.40	145.11
402.59	117.03
402.78	124.05
402.97	117.03
403.17	163.84
403.36	189.58
403.55	180.22
403.74	365.12
403.93	1043.88
404.13	2019.88
404.32	2345.22
404.51	1818.60
404.70	1086.01
404.89	519.60
405.09	292.57
405.28	175.54
405.47	133.41
405.66	205.97
405.85	93.62
406.05	107.66
406.24	100.64
406.43	177.88
406.62	224.69
406.81	217.67
407.00	266.82
407.20	334.70
407.39	376.83
407.58	339.38
407.77	241.08
407.96	280.86
408.15	220.01
408.34	210.65
408.54	168.52
408.73	159.16
408.92	126.39
409.11	128.73
409.30	152.13
409.49	112.35
409.68	91.28
409.87	184.90
410.07	100.64
410.26	142.77
410.45	131.07
410.64	168.52
410.83	205.97
411.02	110.01
411.21	156.82
411.40	184.90
411.59	201.29
411.78	161.50
411.98	159.16
412.17	196.60
412.36	182.56
412.55	168.52
412.74	173.20
412.93	168.52
413.12	114.69
413.31	107.66
413.50	159.16
413.69	173.20
413.88	222.35
414.07	135.75
414.26	119.37
414.45	110.01
414.64	154.48
414.83	250.44
415.02	177.88
415.22	159.16
415.41	238.73
415.60	166.18
415.79	142.77
415.98	182.56
416.17	189.58
416.36	163.84
416.55	124.05
416.74	194.26
416.93	152.13
417.12	131.07
417.31	173.20
417.50	140.43
417.69	231.71
417.88	159.16
418.07	173.20
418.26	210.65
418.45	184.90
418.64	194.26
418.83	161.50
419.02	170.86
419.21	196.60
419.39	126.39
419.58	140.43
419.77	152.13
419.96	149.79
420.15	227.03
420.34	184.90
420.53	217.67
420.72	257.46
420.91	159.16
421.10	98.30
421.29	224.69
421.48	191.92
421.67	142.77
421.86	236.39
422.05	196.60
422.24	220.01
422.43	112.35
422.61	194.26
422.80	173.20
422.99	210.65
423.18	170.86
423.37	257.46
423.56	175.54
423.75	163.84
423.94	236.39
424.13	154.48
424.32	72.56
424.50	180.22
424.69	241.08
424.88	243.42
425.07	205.97
425.26	203.63
425.45	184.90
425.64	168.52
425.83	191.92
426.01	210.65
426.20	238.73
426.39	173.20
426.58	198.95
426.77	159.16
426.96	220.01
427.15	135.75
427.33	159.16
427.52	227.03
427.71	189.58
427.90	259.80
428.09	140.43
428.28	227.03
428.46	173.20
428.65	227.03
428.84	264.48
429.03	173.20
429.22	222.35
429.40	220.01
429.59	201.29
429.78	278.52
429.97	210.65
430.16	121.71
430.34	182.56
430.53	182.56
430.72	173.20
430.91	196.60
431.10	187.24
431.28	191.92
431.47	229.37
431.66	222.35
431.85	238.73
432.03	170.86
432.22	255.12
432.41	262.14
432.60	287.89
432.79	196.60
432.97	229.37
433.16	276.18
433.35	341.72
433.54	308.95
433.72	397.89
433.91	290.23
434.10	318.31
434.28	383.85
434.47	278.52
434.66	500.87
434.85	699.82
435.03	1816.26
435.22	6260.93
435.41	9942.60
435.59	8954.89
435.78	5713.25
435.97	2942.05
436.16	1170.27
436.34	510.24
436.53	372.15
436.72	315.97
436.90	287.89
437.09	273.84
437.28	292.57
437.46	308.95
437.65	231.71
437.84	231.71
438.02	262.14
438.21	290.23
438.40	231.71
438.58	257.46
438.77	255.12
438.96	264.48
439.14	212.99
439.33	285.55
439.52	201.29
439.70	227.03
439.89	262.14
440.08	175.54
440.26	201.29
440.45	283.20
440.63	315.97
440.82	262.14
441.01	264.48
441.19	285.55
441.38	255.12
441.57	250.44
441.75	205.97
441.94	280.86
442.12	271.50
442.31	229.37
442.50	290.23
442.68	348.74
442.87	222.35
443.05	227.03
443.24	344.06
443.43	234.05
443.61	217.67
443.80	210.65
443.98	234.05
444.17	229.37
444.35	290.23
444.54	313.63
444.73	278.52
444.91	229.37
445.10	271.50
445.28	238.73
445.47	278.52
445.65	227.03
445.84	280.86
446.02	196.60
446.21	255.12
446.39	210.65
446.58	294.91
446.77	194.26
446.95	203.63
447.14	259.80
447.32	337.04
447.51	245.76
447.69	245.76
447.88	248.10
448.06	285.55
448.25	196.60
448.43	168.52
448.62	231.71
448.80	205.97
448.99	285.55
449.17	229.37
449.36	290.23
449.54	238.73
449.73	290.23
449.91	283.20
450.10	248.10
450.28	250.44
450.46	245.76
450.65	257.46
450.83	287.89
451.02	320.65
451.20	269.16
451.39	154.48
451.57	276.18
451.76	255.12
451.94	205.97
452.13	201.29
452.31	283.20
452.49	269.16
452.68	262.14
452.86	257.46
453.05	252.78
453.23	215.33
453.42	205.97
453.60	210.65
453.78	243.42
453.97	231.71
454.15	210.65
454.34	234.05
454.52	238.73
454.70	262.14
454.89	271.50
455.07	266.82
455.26	210.65
455.44	236.39
455.62	224.69
455.81	269.16
455.99	283.20
456.17	236.39
456.36	276.18
456.54	215.33
456.73	208.31
456.91	318.31
457.09	278.52
457.28	301.93
457.46	280.86
457.64	330.02
457.83	269.16
458.01	280.86
458.19	269.16
458.38	236.39
458.56	264.48
458.74	264.48
458.93	311.29
459.11	341.72
459.29	262.14
459.48	252.78
459.66	220.01
459.84	269.16
460.03	355.76
460.21	269.16
460.39	262.14
460.57	264.48
460.76	250.44
460.94	191.92
461.12	248.10
461.31	264.48
461.49	180.22
461.67	248.10
461.85	276.18
462.04	273.84
462.22	388.53
462.40	294.91
462.59	292.57
462.77	227.03
462.95	248.10
463.13	245.76
463.32	313.63
463.50	320.65
463.68	201.29
463.86	264.48
464.05	173.20
464.23	299.59
464.41	325.33
464.59	320.65
464.78	210.65
464.96	234.05
465.14	203.63
465.32	339.38
465.50	287.89
465.69	234.05
465.87	173.20
466.05	234.05
466.23	248.10
466.41	262.14
466.60	280.86
466.78	285.55
466.96	238.73
467.14	236.39
467.32	210.65
467.51	269.16
467.69	315.97
467.87	227.03
468.05	182.56
468.23	297.25
468.41	313.63
468.60	201.29
468.78	255.12
468.96	205.97
469.14	255.12
469.32	191.92
469.50	238.73
469.69	283.20
469.87	238.73
470.05	208.31
470.23	128.73
470.41	250.44
470.59	243.42
470.77	257.46
470.95	264.48
471.14	306.61
471.32	229.37
471.50	250.44
471.68	322.99
471.86	308.95
472.04	212.99
472.22	245.76
472.40	203.63
472.58	175.54
472.77	273.84
472.95	220.01
473.13	264.48
473.31	287.89
473.49	208.31
473.67	250.44
473.85	266.82
474.03	276.18
474.21	287.89
474.39	252.78
474.57	243.42
474.75	306.61
474.93	255.12
475.12	285.55
475.30	205.97
475.48	248.10
475.66	215.33
475.84	231.71
476.02	224.69
476.20	287.89
476.38	255.12
476.56	290.23
476.74	210.65
476.92	297.25
477.10	262.14
477.28	290.23
477.46	222.35
477.64	290.23
477.82	224.69
478.00	238.73
478.18	208.31
478.36	191.92
478.54	224.69
478.72	299.59
478.90	266.82
479.08	257.46
479.26	245.76
479.44	224.69
479.62	290.23
479.80	332.36
479.98	212.99
480.16	351.08
480.34	355.76
480.52	287.89
480.70	418.96
480.88	341.72
481.06	292.57
481.24	404.91
481.41	470.45
481.59	440.02
481.77	414.27
481.95	428.32
482.13	433.00
482.31	465.77
482.49	486.83
482.67	545.34
482.85	517.26
483.03	550.03
483.21	578.11
483.39	582.79
483.57	634.29
483.74	613.22
483.92	627.26
484.10	690.46
484.28	734.93
484.46	847.27
484.64	814.51
484.82	833.23
485.00	882.38
485.18	842.59
485.35	919.83
485.53	959.62
485.71	943.24
485.89	973.66
486.07	1020.47
486.25	987.71
486.43	1093.03
486.61	1116.44
486.78	1093.03
486.96	1034.52
487.14	1011.11
487.32	992.39
487.50	1074.31
487.68	1039.20
487.85	1137.50
488.03	1041.54
488.21	997.07
488.39	976.00
488.57	1006.43
488.75	945.58
488.92	1102.39
489.10	940.90
489.28	945.58
489.46	978.34
489.64	828.55
489.81	894.08
489.99	849.61
490.17	828.55
490.35	823.87
490.53	858.98
490.70	835.57
490.88	854.30
491.06	973.66
491.24	887.06
491.41	983.02
491.59	770.04
491.77	800.46
491.95	800.46
492.13	807.48
492.30	805.14
492.48	720.88
492.66	758.33
492.84	716.20
493.01	760.67
493.19	734.93
493.37	800.46
493.54	655.35
493.72	650.67
493.90	664.71
494.08	681.10
494.25	732.59
494.43	674.07
494.61	624.92
494.79	603.86
494.96	688.12
495.14	697.48
495.32	561.73
495.49	730.25
495.67	697.48
495.85	589.82
496.02	711.52
496.20	610.88
496.38	657.69
496.55	627.26
496.73	662.37
496.91	608.54
497.09	554.71
497.26	603.86
497.44	641.31
497.62	578.11
497.79	535.98
497.97	561.73
498.14	535.98
498.32	468.11
498.50	559.39
498.67	428.32
498.85	535.98
499.03	510.24
499.20	503.22
499.38	470.45
499.56	507.90
499.73	489.17
499.91	475.13
500.08	545.34
500.26	365.12
500.44	425.98
500.61	390.87
500.79	322.99
500.97	411.93
501.14	435.34
501.32	482.15
501.49	463.43
501.67	444.70
501.84	334.70
502.02	397.89
502.20	416.62
502.37	395.55
502.55	404.91
502.72	358.10
502.90	386.19
503.07	358.10
503.25	353.42
503.43	325.33
503.60	383.85
503.78	348.74
503.95	334.70
504.13	266.82
504.30	337.04
504.48	311.29
504.65	283.20
504.83	271.50
505.01	304.27
505.18	383.85
505.36	325.33
505.53	306.61
505.71	320.65
505.88	294.91
506.06	276.18
506.23	297.25
506.41	269.16
506.58	278.52
506.76	337.04
506.93	308.95
507.11	224.69
507.28	227.03
507.46	315.97
507.63	236.39
507.81	271.50
507.98	280.86
508.16	308.95
508.33	241.08
508.50	287.89
508.68	332.36
508.85	423.64
509.03	262.14
509.20	229.37
509.38	327.68
509.55	369.80
509.73	264.48
509.90	353.42
510.08	330.02
510.25	224.69
510.42	227.03
510.60	290.23
510.77	208.31
510.95	308.95
511.12	245.76
511.30	229.37
511.47	322.99
511.64	341.72
511.82	313.63
511.99	245.76
512.17	280.86
512.34	227.03
512.51	245.76
512.69	210.65
512.86	318.31
513.04	339.38
513.21	257.46
513.38	276.18
513.56	245.76
513.73	264.48
513.90	308.95
514.08	320.65
514.25	250.44
514.43	184.90
514.60	290.23
514.77	212.99
514.95	248.10
515.12	264.48
515.29	255.12
515.47	339.38
515.64	234.05
515.81	271.50
515.99	374.49
516.16	360.44
516.33	259.80
516.51	297.25
516.68	297.25
516.85	262.14
517.03	308.95
517.20	301.93
517.37	294.91
517.54	339.38
517.72	266.82
517.89	278.52
518.06	262.14
518.24	388.53
518.41	287.89
518.58	301.93
518.75	273.84
518.93	322.99
519.10	280.86
519.27	269.16
519.45	304.27
519.62	201.29
519.79	236.39
519.96	264.48
520.14	217.67
520.31	269.16
520.48	252.78
520.65	259.80
520.83	294.91
521.00	330.02
521.17	285.55
521.34	210.65
521.52	243.42
521.69	264.48
521.86	259.80
522.03	315.97
522.20	271.50
522.38	245.76
522.55	255.12
522.72	334.70
522.89	278.52
523.07	341.72
523.24	285.55
523.41	280.86
523.58	339.38
523.75	280.86
523.92	283.20
524.10	311.29
524.27	383.85
524.44	311.29
524.61	327.68
524.78	269.16
524.96	269.16
525.13	290.23
525.30	304.27
525.47	250.44
525.64	266.82
525.81	238.73
525.98	299.59
526.16	248.10
526.33	290.23
526.50	227.03
526.67	224.69
526.84	266.82
527.01	306.61
527.18	294.91
527.36	283.20
527.53	318.31
527.70	294.91
527.87	290.23
528.04	393.21
528.21	280.86
528.38	383.85
528.55	196.60
528.72	322.99
528.89	252.78
529.07	262.14
529.24	222.35
529.41	318.31
529.58	341.72
529.75	327.68
529.92	294.91
530.09	306.61
530.26	400.23
530.43	390.87
530.60	362.78
530.77	285.55
530.94	388.53
531.11	334.70
531.28	360.44
531.46	376.83
531.63	346.40
531.80	402.57
531.97	395.55
532.14	388.53
532.31	456.40
532.48	545.34
532.65	613.22
532.82	657.69
532.99	610.88
533.16	664.71
533.33	674.07
533.50	645.99
533.67	533.64
533.84	496.19
534.01	512.58
534.18	493.85
534.35	442.36
534.52	465.77
534.69	540.66
534.86	463.43
535.03	479.81
535.20	524.28
535.37	547.69
535.54	601.52
535.71	645.99
535.88	660.03
536.05	610.88
536.22	720.88
536.38	706.84
536.55	798.12
536.72	847.27
536.89	875.36
537.06	992.39
537.23	1048.56
537.40	1181.97
537.57	1158.57
537.74	1306.02
537.91	1294.32
538.08	1399.64
538.25	1401.98
538.42	1336.45
538.59	1369.21
538.75	1486.24
538.92	1514.33
539.09	1687.53
539.26	1806.89
539.43	2118.18
539.60	2277.34
539.77	2724.38
539.94	2827.37
540.11	3023.97
540.28	3433.57
540.44	3627.83
540.61	4037.42
540.78	4727.88
540.95	5535.37
541.12	6333.49
541.29	7234.60
541.46	7227.57
541.62	7419.50
541.79	7016.93
541.96	6621.38
542.13	5879.43
542.30	5605.58
542.47	5282.59
542.63	5195.99
542.80	5132.79
542.97	4924.49
543.14	4884.70
543.31	5032.15
543.48	4992.36
543.64	5064.92
543.81	5132.79
543.98	5081.30
544.15	5008.75
544.32	5266.21
544.48	5104.71
544.65	4968.96
544.82	4983.00
544.99	5039.17
545.16	5146.84
545.32	5591.54
545.49	11597.35
545.66	17605.51
545.83	18270.22
546.00	15405.41
546.16	10885.83
546.33	7882.92
546.50	6050.28
546.67	4978.32
546.83	4500.85
547.00	4306.59
547.17	4086.58
547.34	3819.75
547.50	3676.98
547.67	3742.52
547.84	3499.10
548.00	3389.10
548.17	3185.47
548.34	3110.57
548.51	3059.08
548.67	2984.18
548.84	2827.37
549.01	2693.96
549.18	2443.52
549.34	2427.14
549.51	2502.03
549.68	2296.07
549.84	2319.47
550.01	2085.42
550.18	2232.87
550.34	1996.48
550.51	1975.41
550.68	1879.45
550.84	1671.14
551.01	1661.78
551.18	1521.35
551.34	1427.73
551.51	1554.12
551.68	1460.49
551.84	1334.11
552.01	1371.55
552.18	1273.25
552.34	1219.42
552.51	1224.10
552.68	1231.12
552.84	1076.65
553.01	1062.60
553.18	1107.07
553.34	1001.75
553.51	976.00
553.67	990.05
553.84	929.19
554.01	903.45
554.17	889.40
554.34	809.83
554.51	767.70
554.67	669.39
554.84	704.50
555.00	755.99
555.17	711.52
555.33	683.44
555.50	657.69
555.67	610.88
555.83	643.65
556.00	521.94
556.16	695.14
556.33	620.24
556.50	531.30
556.66	505.56
556.83	521.94
556.99	540.66
557.16	545.34
557.32	538.32
557.49	451.72
557.65	369.80
557.82	407.25
557.98	423.64
558.15	484.49
558.32	510.24
558.48	430.66
558.65	428.32
558.81	496.19
558.98	353.42
559.14	383.85
559.31	383.85
559.47	442.36
559.64	411.93
559.80	411.93
559.97	414.27
560.13	414.27
560.30	386.19
560.46	376.83
560.63	358.10
560.79	416.62
560.96	346.40
561.12	348.74
561.29	437.68
561.45	393.21
561.61	423.64
561.78	535.98
561.94	447.04
562.11	414.27
562.27	372.15
562.44	388.53
562.60	285.55
562.77	428.32
562.93	486.83
563.10	456.40
563.26	322.99
563.42	407.25
563.59	362.78
563.75	404.91
563.92	435.34
564.08	292.57
564.24	393.21
564.41	332.36
564.57	287.89
564.74	341.72
564.90	400.23
565.07	404.91
565.23	315.97
565.39	285.55
565.56	297.25
565.72	327.68
565.88	299.59
566.05	304.27
566.21	351.08
566.38	337.04
566.54	337.04
566.70	386.19
566.87	308.95
567.03	304.27
567.19	318.31
567.36	379.17
567.52	294.91
567.68	348.74
567.85	381.51
568.01	332.36
568.17	372.15
568.34	372.15
568.50	311.29
568.66	374.49
568.83	400.23
568.99	276.18
569.15	322.99
569.32	315.97
569.48	278.52
569.64	313.63
569.81	269.16
569.97	315.97
570.13	341.72
570.30	339.38
570.46	360.44
570.62	341.72
570.78	304.27
570.95	280.86
571.11	285.55
571.27	355.76
571.43	299.59
571.60	292.57
571.76	358.10
571.92	362.78
572.09	341.72
572.25	360.44
572.41	245.76
572.57	332.36
572.74	322.99
572.90	332.36
573.06	311.29
573.22	311.29
573.38	313.63
573.55	400.23
573.71	402.57
573.87	337.04
574.03	337.04
574.20	306.61
574.36	330.02
574.52	273.84
574.68	287.89
574.84	341.72
575.01	301.93
575.17	379.17
575.33	346.40
575.49	346.40
575.65	451.72
575.82	362.78
575.98	498.53
576.14	505.56
576.30	1069.62
576.46	2497.35
576.62	3293.13
576.79	3166.74
576.95	2462.24
577.11	1605.61
577.27	1104.73
577.43	791.10
577.59	660.03
577.75	547.69
577.92	538.32
578.08	526.62
578.24	582.79
578.40	1001.75
578.56	2406.07
578.72	3059.08
578.88	3150.36
579.04	2354.58
579.21	1603.27
579.37	1210.06
579.53	1006.43
579.69	1188.99
579.85	1324.74
580.01	1364.53
580.17	1266.23
580.33	1163.25
580.49	1018.13
580.65	908.13
580.82	912.81
580.98	938.55
581.14	896.43
581.30	1001.75
581.46	990.05
581.62	1086.01
581.78	1149.20
581.94	1093.03
582.10	1287.29
582.26	1275.59
582.42	1324.74
582.58	1329.42
582.74	1324.74
582.90	1469.86
583.06	1460.49
583.22	1490.92
583.38	1329.42
583.54	1259.21
583.70	1322.40
583.86	1345.81
584.02	1355.17
584.18	1277.93
584.34	1343.47
584.50	1268.57
584.66	1231.12
584.82	1191.33
584.98	1174.95
585.14	1224.10
585.30	1167.93
585.46	1226.44
585.62	1064.94
585.78	1086.01
585.94	1184.31
586.10	1191.33
586.26	1275.59
586.42	1425.39
586.58	1619.65
586.74	1961.37
586.90	2277.34
587.06	2317.13
587.22	2354.58
587.38	2062.01
587.54	1907.54
587.70	1696.89
587.86	1448.79
588.02	1226.44
588.18	1109.41
588.34	1076.65
588.49	961.96
588.65	910.47
588.81	849.61
588.97	936.21
589.13	821.53
589.29	868.34
589.45	863.66
589.61	819.19
589.77	844.93
589.93	795.78
590.08	950.26
590.24	856.64
590.40	919.83
590.56	947.92
590.72	954.94
590.88	889.40
591.04	971.32
591.20	985.37
591.35	1048.56
591.51	1104.73
591.67	1130.48
591.83	1219.42
591.99	1196.01
592.15	1404.32
592.31	1481.56
592.46	1605.61
592.62	1753.06
592.78	1781.15
592.94	1776.47
593.10	1781.15
593.26	1661.78
593.41	1533.05
593.57	1380.92
593.73	1254.53
593.89	1165.59
594.05	1097.71
594.20	978.34
594.36	891.74
594.52	889.40
594.68	770.04
594.84	798.12
594.99	823.87
595.15	798.12
595.31	681.10
595.47	830.89
595.62	763.01
595.78	786.42
595.94	734.93
596.10	788.76
596.25	702.16
596.41	777.06
596.57	774.72
596.73	767.70
596.88	770.04
597.04	816.85
597.20	671.73
597.36	755.99
597.51	763.01
597.67	807.48
597.83	795.78
597.99	851.96
598.14	1020.47
598.30	1043.88
598.46	1076.65
598.61	1050.90
598.77	1074.31
598.93	1034.52
599.09	1095.37
599.24	1128.14
599.40	1179.63
599.56	1067.28
599.71	1135.16
599.87	973.66
600.03	966.64
600.18	905.79
600.34	837.91
600.50	837.91
600.65	809.83
600.81	805.14
600.97	732.59
601.12	699.82
601.28	594.50
601.44	641.31
601.59	662.37
601.75	690.46
601.91	557.05
602.06	622.58
602.22	706.84
602.37	573.43
602.53	503.22
602.69	599.18
602.84	603.86
603.00	599.18
603.16	613.22
603.31	554.71
603.47	594.50
603.62	568.75
603.78	617.90
603.94	603.86
604.09	606.20
604.25	641.31
604.40	638.97
604.56	477.47
604.71	643.65
604.87	638.97
605.03	730.25
605.18	641.31
605.34	662.37
605.49	655.35
605.65	610.88
605.80	713.86
605.96	648.33
606.12	653.01
606.27	732.59
606.43	770.04
606.58	823.87
606.74	856.64
606.89	849.61
607.05	901.11
607.20	971.32
607.36	985.37
607.51	1039.20
607.67	1125.80
607.82	1149.20
607.98	1149.20
608.13	1245.16
608.29	1441.77
608.44	1486.24
608.60	1551.78
608.75	1755.40
608.91	1907.54
