SpectraSuite Data File
++++++++++++++++++++++++++++++++++++
Date: Fri Oct 04 11:42:21 GMT-05:00 2013
User: price-jones
Dark Spectrum Present: No
Reference Spectrum Present: No
Number of Sampled Component Spectra: 1
Spectrometers: USB2+H05261
Integration Time (usec): 100000 (USB2+H05261)
Spectra Averaged: 1 (USB2+H05261)
Boxcar Smoothing: 0 (USB2+H05261)
Correct for Electrical Dark: No (USB2+H05261)
Strobe/Lamp Enabled: No (USB2+H05261)
Correct for Detector Non-linearity: No (USB2+H05261)
Correct for Stray Light: No (USB2+H05261)
Number of Pixels in Processed Spectrum: 2048
>>>>>Begin Processed Spectral Data<<<<<
365.73	56.17
365.92	56.17
366.12	56.17
366.32	0.00
366.52	0.00
366.72	0.00
366.91	0.00
367.11	0.00
367.31	0.00
367.51	0.00
367.70	0.00
367.90	0.00
368.10	0.00
368.30	0.00
368.49	0.00
368.69	0.00
368.89	0.00
369.09	0.00
369.28	0.00
369.48	0.00
369.68	4.68
369.87	0.00
370.07	0.00
370.27	49.15
370.47	9.36
370.66	23.41
370.86	133.41
371.06	124.05
371.25	161.50
371.45	67.88
371.65	114.69
371.84	98.30
372.04	88.94
372.24	21.06
372.44	88.94
372.63	114.69
372.83	86.60
373.03	121.71
373.22	65.54
373.42	84.26
373.62	140.43
373.81	77.24
374.01	91.28
374.21	117.03
374.40	117.03
374.60	212.99
374.79	95.96
374.99	114.69
375.19	149.79
375.38	180.22
375.58	114.69
375.78	205.97
375.97	86.60
376.17	177.88
376.37	110.01
376.56	86.60
376.76	79.58
376.95	147.45
377.15	126.39
377.35	91.28
377.54	128.73
377.74	70.22
377.93	35.11
378.13	95.96
378.33	105.32
378.52	117.03
378.72	166.18
378.91	105.32
379.11	105.32
379.31	70.22
379.50	128.73
379.70	201.29
379.89	177.88
380.09	112.35
380.28	79.58
380.48	126.39
380.68	88.94
380.87	128.73
381.07	166.18
381.26	117.03
381.46	135.75
381.65	105.32
381.85	154.48
382.04	39.79
382.24	100.64
382.43	112.35
382.63	67.88
382.83	32.77
383.02	161.50
383.22	138.09
383.41	91.28
383.61	133.41
383.80	163.84
384.00	91.28
384.19	42.13
384.39	149.79
384.58	117.03
384.78	168.52
384.97	65.54
385.17	154.48
385.36	163.84
385.56	140.43
385.75	128.73
385.95	205.97
386.14	110.01
386.34	182.56
386.53	138.09
386.72	98.30
386.92	114.69
387.11	107.66
387.31	93.62
387.50	67.88
387.70	67.88
387.89	156.82
388.09	180.22
388.28	110.01
388.48	98.30
388.67	88.94
388.86	227.03
389.06	124.05
389.25	81.92
389.45	58.51
389.64	84.26
389.84	107.66
390.03	142.77
390.22	91.28
390.42	110.01
390.61	79.58
390.81	49.15
391.00	70.22
391.19	189.58
391.39	98.30
391.58	147.45
391.78	128.73
391.97	131.07
392.16	126.39
392.36	147.45
392.55	149.79
392.75	173.20
392.94	44.47
393.13	74.90
393.33	102.98
393.52	53.83
393.71	196.60
393.91	84.26
394.10	126.39
394.29	79.58
394.49	88.94
394.68	81.92
394.88	84.26
395.07	133.41
395.26	86.60
395.46	95.96
395.65	198.95
395.84	147.45
396.04	196.60
396.23	100.64
396.42	173.20
396.62	100.64
396.81	121.71
397.00	133.41
397.19	159.16
397.39	166.18
397.58	161.50
397.77	105.32
397.97	128.73
398.16	128.73
398.35	86.60
398.55	121.71
398.74	93.62
398.93	102.98
399.12	133.41
399.32	128.73
399.51	107.66
399.70	170.86
399.90	102.98
400.09	110.01
400.28	117.03
400.47	145.11
400.67	175.54
400.86	49.15
401.05	159.16
401.24	168.52
401.44	138.09
401.63	74.90
401.82	105.32
402.01	86.60
402.21	145.11
402.40	128.73
402.59	119.37
402.78	74.90
402.97	114.69
403.17	88.94
403.36	110.01
403.55	147.45
403.74	133.41
403.93	173.20
404.13	241.08
404.32	217.67
404.51	184.90
404.70	191.92
404.89	159.16
405.09	147.45
405.28	126.39
405.47	114.69
405.66	110.01
405.85	182.56
406.05	170.86
406.24	121.71
406.43	124.05
406.62	187.24
406.81	168.52
407.00	170.86
407.20	229.37
407.39	205.97
407.58	140.43
407.77	184.90
407.96	107.66
408.15	107.66
408.34	140.43
408.54	91.28
408.73	100.64
408.92	102.98
409.11	147.45
409.30	152.13
409.49	100.64
409.68	114.69
409.87	135.75
410.07	140.43
410.26	112.35
410.45	42.13
410.64	161.50
410.83	138.09
411.02	117.03
411.21	142.77
411.40	133.41
411.59	194.26
411.78	114.69
411.98	105.32
412.17	173.20
412.36	117.03
412.55	98.30
412.74	140.43
412.93	135.75
413.12	112.35
413.31	93.62
413.50	145.11
413.69	154.48
413.88	177.88
414.07	63.19
414.26	173.20
414.45	105.32
414.64	161.50
414.83	138.09
415.02	217.67
415.22	159.16
415.41	126.39
415.60	126.39
415.79	105.32
415.98	124.05
416.17	168.52
416.36	159.16
416.55	187.24
416.74	166.18
416.93	145.11
417.12	205.97
417.31	65.54
417.50	135.75
417.69	177.88
417.88	135.75
418.07	145.11
418.26	180.22
418.45	121.71
418.64	205.97
418.83	198.95
419.02	170.86
419.21	177.88
419.39	154.48
419.58	152.13
419.77	100.64
419.96	217.67
420.15	194.26
420.34	110.01
420.53	138.09
420.72	145.11
420.91	110.01
421.10	126.39
421.29	126.39
421.48	173.20
421.67	114.69
421.86	187.24
422.05	102.98
422.24	159.16
422.43	72.56
422.61	142.77
422.80	124.05
422.99	182.56
423.18	114.69
423.37	138.09
423.56	81.92
423.75	105.32
423.94	147.45
424.13	107.66
424.32	152.13
424.50	117.03
424.69	191.92
424.88	187.24
425.07	173.20
425.26	133.41
425.45	196.60
425.64	142.77
425.83	147.45
426.01	145.11
426.20	149.79
426.39	140.43
426.58	159.16
426.77	102.98
426.96	220.01
427.15	187.24
427.33	117.03
427.52	177.88
427.71	131.07
427.90	210.65
428.09	161.50
428.28	138.09
428.46	152.13
428.65	147.45
428.84	229.37
429.03	194.26
429.22	114.69
429.40	114.69
429.59	91.28
429.78	201.29
429.97	140.43
430.16	117.03
430.34	112.35
430.53	114.69
430.72	124.05
430.91	175.54
431.10	142.77
431.28	177.88
431.47	156.82
431.66	114.69
431.85	138.09
432.03	156.82
432.22	156.82
432.41	156.82
432.60	124.05
432.79	145.11
432.97	126.39
433.16	236.39
433.35	117.03
433.54	149.79
433.72	208.31
433.91	107.66
434.10	149.79
434.28	222.35
434.47	119.37
434.66	175.54
434.85	156.82
435.03	337.04
435.22	695.14
435.41	1261.55
435.59	1277.93
435.78	985.37
435.97	573.43
436.16	304.27
436.34	227.03
436.53	126.39
436.72	152.13
436.90	163.84
437.09	147.45
437.28	189.58
437.46	196.60
437.65	149.79
437.84	126.39
438.02	156.82
438.21	81.92
438.40	128.73
438.58	93.62
438.77	133.41
438.96	107.66
439.14	198.95
439.33	212.99
439.52	182.56
439.70	170.86
439.89	110.01
440.08	180.22
440.26	180.22
440.45	180.22
440.63	224.69
440.82	222.35
441.01	138.09
441.19	131.07
441.38	215.33
441.57	173.20
441.75	126.39
441.94	147.45
442.12	159.16
442.31	154.48
442.50	215.33
442.68	217.67
442.87	140.43
443.05	98.30
443.24	149.79
443.43	198.95
443.61	91.28
443.80	222.35
443.98	147.45
444.17	142.77
444.35	149.79
444.54	145.11
444.73	100.64
444.91	203.63
445.10	142.77
445.28	170.86
445.47	93.62
445.65	126.39
445.84	152.13
446.02	124.05
446.21	196.60
446.39	196.60
446.58	154.48
446.77	208.31
446.95	117.03
447.14	194.26
447.32	142.77
447.51	198.95
447.69	177.88
447.88	91.28
448.06	222.35
448.25	222.35
448.43	117.03
448.62	142.77
448.80	154.48
448.99	140.43
449.17	138.09
449.36	154.48
449.54	227.03
449.73	117.03
449.91	264.48
450.10	182.56
450.28	208.31
450.46	231.71
450.65	264.48
450.83	152.13
451.02	119.37
451.20	177.88
451.39	140.43
451.57	224.69
451.76	205.97
451.94	205.97
452.13	238.73
452.31	191.92
452.49	262.14
452.68	194.26
452.86	201.29
453.05	243.42
453.23	177.88
453.42	107.66
453.60	142.77
453.78	187.24
453.97	124.05
454.15	128.73
454.34	117.03
454.52	234.05
454.70	196.60
454.89	135.75
455.07	184.90
455.26	161.50
455.44	124.05
455.62	187.24
455.81	191.92
455.99	222.35
456.17	161.50
456.36	163.84
456.54	166.18
456.73	98.30
456.91	168.52
457.09	159.16
457.28	177.88
457.46	159.16
457.64	168.52
457.83	187.24
458.01	140.43
458.19	236.39
458.38	187.24
458.56	189.58
458.74	184.90
458.93	117.03
459.11	121.71
459.29	107.66
459.48	175.54
459.66	175.54
459.84	166.18
460.03	252.78
460.21	196.60
460.39	182.56
460.57	166.18
460.76	255.12
460.94	135.75
461.12	224.69
461.31	203.63
461.49	154.48
461.67	203.63
461.85	140.43
462.04	212.99
462.22	304.27
462.40	238.73
462.59	152.13
462.77	170.86
462.95	173.20
463.13	133.41
463.32	208.31
463.50	217.67
463.68	191.92
463.86	222.35
464.05	238.73
464.23	194.26
464.41	173.20
464.59	114.69
464.78	154.48
464.96	119.37
465.14	138.09
465.32	154.48
465.50	175.54
465.69	187.24
465.87	145.11
466.05	198.95
466.23	159.16
466.41	161.50
466.60	100.64
466.78	229.37
466.96	180.22
467.14	170.86
467.32	234.05
467.51	271.50
467.69	170.86
467.87	238.73
468.05	166.18
468.23	201.29
468.41	227.03
468.60	196.60
468.78	173.20
468.96	208.31
469.14	180.22
469.32	102.98
469.50	126.39
469.69	168.52
469.87	191.92
470.05	203.63
470.23	161.50
470.41	217.67
470.59	168.52
470.77	152.13
470.95	168.52
471.14	196.60
471.32	175.54
471.50	187.24
471.68	156.82
471.86	227.03
472.04	210.65
472.22	189.58
472.40	133.41
472.58	135.75
472.77	159.16
472.95	191.92
473.13	334.70
473.31	161.50
473.49	198.95
473.67	191.92
473.85	231.71
474.03	189.58
474.21	168.52
474.39	182.56
474.57	292.57
474.75	243.42
474.93	166.18
475.12	184.90
475.30	159.16
475.48	166.18
475.66	175.54
475.84	161.50
476.02	168.52
476.20	147.45
476.38	191.92
476.56	238.73
476.74	201.29
476.92	212.99
477.10	245.76
477.28	257.46
477.46	241.08
477.64	241.08
477.82	161.50
478.00	163.84
478.18	173.20
478.36	203.63
478.54	191.92
478.72	184.90
478.90	224.69
479.08	166.18
479.26	180.22
479.44	182.56
479.62	248.10
479.80	170.86
479.98	222.35
480.16	257.46
480.34	234.05
480.52	264.48
480.70	215.33
480.88	234.05
481.06	304.27
481.24	198.95
481.41	194.26
481.59	117.03
481.77	210.65
481.95	227.03
482.13	283.20
482.31	257.46
482.49	205.97
482.67	224.69
482.85	201.29
483.03	266.82
483.21	231.71
483.39	238.73
483.57	292.57
483.74	320.65
483.92	320.65
484.10	297.25
484.28	241.08
484.46	395.55
484.64	294.91
484.82	322.99
485.00	257.46
485.18	276.18
485.35	290.23
485.53	306.61
485.71	362.78
485.89	365.12
486.07	297.25
486.25	376.83
486.43	318.31
486.61	393.21
486.78	393.21
486.96	313.63
487.14	290.23
487.32	358.10
487.50	313.63
487.68	229.37
487.85	365.12
488.03	271.50
488.21	379.17
488.39	341.72
488.57	318.31
488.75	287.89
488.92	550.03
489.10	353.42
489.28	334.70
489.46	322.99
489.64	290.23
489.81	330.02
489.99	297.25
490.17	327.68
490.35	325.33
490.53	308.95
490.70	332.36
490.88	318.31
491.06	332.36
491.24	299.59
491.41	299.59
491.59	348.74
491.77	264.48
491.95	276.18
492.13	243.42
492.30	241.08
492.48	315.97
492.66	287.89
492.84	248.10
493.01	322.99
493.19	222.35
493.37	299.59
493.54	220.01
493.72	285.55
493.90	341.72
494.08	264.48
494.25	259.80
494.43	276.18
494.61	292.57
494.79	297.25
494.96	344.06
495.14	346.40
495.32	318.31
495.49	264.48
495.67	301.93
495.85	351.08
496.02	337.04
496.20	334.70
496.38	252.78
496.55	269.16
496.73	187.24
496.91	248.10
497.09	215.33
497.26	278.52
497.44	234.05
497.62	227.03
497.79	315.97
497.97	308.95
498.14	315.97
498.32	241.08
498.50	217.67
498.67	255.12
498.85	311.29
499.03	285.55
499.20	243.42
499.38	269.16
499.56	285.55
499.73	292.57
499.91	205.97
500.08	304.27
500.26	287.89
500.44	245.76
500.61	252.78
500.79	252.78
500.97	229.37
501.14	362.78
501.32	262.14
501.49	245.76
501.67	262.14
501.84	224.69
502.02	227.03
502.20	304.27
502.37	271.50
502.55	236.39
502.72	191.92
502.90	308.95
503.07	234.05
503.25	273.84
503.43	210.65
503.60	198.95
503.78	285.55
503.95	245.76
504.13	241.08
504.30	266.82
504.48	283.20
504.65	271.50
504.83	238.73
505.01	222.35
505.18	266.82
505.36	271.50
505.53	262.14
505.71	271.50
505.88	325.33
506.06	220.01
506.23	264.48
506.41	212.99
506.58	182.56
506.76	236.39
506.93	264.48
507.11	243.42
507.28	229.37
507.46	168.52
507.63	250.44
507.81	173.20
507.98	205.97
508.16	147.45
508.33	194.26
508.50	217.67
508.68	287.89
508.85	304.27
509.03	264.48
509.20	304.27
509.38	205.97
509.55	276.18
509.73	301.93
509.90	273.84
510.08	264.48
510.25	278.52
510.42	170.86
510.60	189.58
510.77	255.12
510.95	252.78
511.12	205.97
511.30	212.99
511.47	245.76
511.64	257.46
511.82	250.44
511.99	252.78
512.17	215.33
512.34	227.03
512.51	278.52
512.69	245.76
512.86	245.76
513.04	231.71
513.21	332.36
513.38	299.59
513.56	248.10
513.73	231.71
513.90	170.86
514.08	198.95
514.25	227.03
514.43	208.31
514.60	149.79
514.77	264.48
514.95	210.65
515.12	203.63
515.29	257.46
515.47	210.65
515.64	227.03
515.81	290.23
515.99	283.20
516.16	245.76
516.33	224.69
516.51	234.05
516.68	212.99
516.85	152.13
517.03	217.67
517.20	248.10
517.37	259.80
517.54	327.68
517.72	241.08
517.89	250.44
518.06	252.78
518.24	266.82
518.41	318.31
518.58	299.59
518.75	224.69
518.93	330.02
519.10	231.71
519.27	229.37
519.45	250.44
519.62	198.95
519.79	285.55
519.96	222.35
520.14	184.90
520.31	273.84
520.48	252.78
520.65	201.29
520.83	243.42
521.00	189.58
521.17	217.67
521.34	306.61
521.52	332.36
521.69	264.48
521.86	212.99
522.03	273.84
522.20	187.24
522.38	198.95
522.55	238.73
522.72	238.73
522.89	269.16
523.07	315.97
523.24	266.82
523.41	259.80
523.58	297.25
523.75	252.78
523.92	278.52
524.10	264.48
524.27	248.10
524.44	224.69
524.61	273.84
524.78	227.03
524.96	194.26
525.13	212.99
525.30	278.52
525.47	243.42
525.64	327.68
525.81	285.55
525.98	236.39
526.16	255.12
526.33	215.33
526.50	294.91
526.67	159.16
526.84	205.97
527.01	229.37
527.18	224.69
527.36	245.76
527.53	222.35
527.70	301.93
527.87	273.84
528.04	320.65
528.21	229.37
528.38	320.65
528.55	290.23
528.72	318.31
528.89	351.08
529.07	205.97
529.24	203.63
529.41	362.78
529.58	243.42
529.75	215.33
529.92	271.50
530.09	271.50
530.26	285.55
530.43	222.35
530.60	245.76
530.77	210.65
530.94	318.31
531.11	194.26
531.28	166.18
531.46	229.37
531.63	234.05
531.80	315.97
531.97	191.92
532.14	278.52
532.31	280.86
532.48	318.31
532.65	330.02
532.82	325.33
532.99	301.93
533.16	308.95
533.33	351.08
533.50	379.17
533.67	325.33
533.84	327.68
534.01	341.72
534.18	276.18
534.35	252.78
534.52	367.46
534.69	344.06
534.86	299.59
535.03	294.91
535.20	283.20
535.37	355.76
535.54	320.65
535.71	325.33
535.88	292.57
536.05	327.68
536.22	393.21
536.38	220.01
536.55	390.87
536.72	383.85
536.89	360.44
537.06	414.27
537.23	351.08
537.40	418.96
537.57	383.85
537.74	390.87
537.91	496.19
538.08	400.23
538.25	468.11
538.42	390.87
538.59	428.32
538.75	404.91
538.92	543.00
539.09	482.15
539.26	489.17
539.43	648.33
539.60	599.18
539.77	624.92
539.94	674.07
540.11	758.33
540.28	699.82
540.44	863.66
540.61	739.61
540.78	985.37
540.95	990.05
541.12	1317.72
541.29	1387.94
541.46	1423.05
541.62	1437.09
541.79	1387.94
541.96	1324.74
542.13	1219.42
542.30	1212.40
542.47	1266.23
542.63	1196.01
542.80	1263.89
542.97	1231.12
543.14	1184.31
543.31	1186.65
543.48	1219.42
543.64	1242.82
543.81	1259.21
543.98	1214.74
544.15	1214.74
544.32	1231.12
544.48	1177.29
544.65	1128.14
544.82	1184.31
544.99	1121.12
545.16	1074.31
545.32	1132.82
545.49	1741.36
545.66	2825.03
545.83	3372.71
546.00	3045.04
546.16	2050.31
546.33	1549.43
546.50	1184.31
546.67	1111.75
546.83	1011.11
547.00	980.68
547.17	919.83
547.34	835.57
547.50	779.40
547.67	760.67
547.84	737.27
548.00	844.93
548.17	807.48
548.34	786.42
548.51	706.84
548.67	723.23
548.84	734.93
549.01	706.84
549.18	755.99
549.34	599.18
549.51	601.52
549.68	662.37
549.84	566.41
550.01	526.62
550.18	617.90
550.34	552.37
550.51	564.07
550.68	533.64
550.84	505.56
551.01	479.81
551.18	477.47
551.34	486.83
551.51	379.17
551.68	414.27
551.84	461.09
552.01	463.43
552.18	433.00
552.34	383.85
552.51	425.98
552.68	416.62
552.84	404.91
553.01	346.40
553.18	433.00
553.34	409.59
553.51	400.23
553.67	395.55
553.84	395.55
554.01	411.93
554.17	390.87
554.34	351.08
554.51	334.70
554.67	332.36
554.84	311.29
555.00	362.78
555.17	320.65
555.33	290.23
555.50	365.12
555.67	330.02
555.83	243.42
556.00	304.27
556.16	397.89
556.33	290.23
556.50	294.91
556.66	294.91
556.83	252.78
556.99	334.70
557.16	320.65
557.32	245.76
557.49	290.23
557.65	243.42
557.82	175.54
557.98	273.84
558.15	269.16
558.32	355.76
558.48	297.25
558.65	210.65
558.81	294.91
558.98	266.82
559.14	273.84
559.31	285.55
559.47	339.38
559.64	257.46
559.80	318.31
559.97	285.55
560.13	227.03
560.30	280.86
560.46	287.89
560.63	198.95
560.79	283.20
560.96	259.80
561.12	215.33
561.29	262.14
561.45	269.16
561.61	245.76
561.78	400.23
561.94	264.48
562.11	273.84
562.27	273.84
562.44	255.12
562.60	276.18
562.77	177.88
562.93	372.15
563.10	285.55
563.26	301.93
563.42	299.59
563.59	313.63
563.75	241.08
563.92	325.33
564.08	208.31
564.24	278.52
564.41	208.31
564.57	245.76
564.74	297.25
564.90	304.27
565.07	280.86
565.23	299.59
565.39	217.67
565.56	248.10
565.72	212.99
565.88	276.18
566.05	212.99
566.21	250.44
566.38	252.78
566.54	259.80
566.70	234.05
566.87	266.82
567.03	182.56
567.19	245.76
567.36	327.68
567.52	252.78
567.68	227.03
567.85	322.99
568.01	243.42
568.17	290.23
568.34	222.35
568.50	177.88
568.66	257.46
568.83	339.38
568.99	259.80
569.15	306.61
569.32	278.52
569.48	234.05
569.64	222.35
569.81	245.76
569.97	191.92
570.13	318.31
570.30	217.67
570.46	222.35
570.62	194.26
570.78	320.65
570.95	266.82
571.11	227.03
571.27	222.35
571.43	231.71
571.60	259.80
571.76	292.57
571.92	241.08
572.09	250.44
572.25	231.71
572.41	262.14
572.57	311.29
572.74	290.23
572.90	334.70
573.06	187.24
573.22	243.42
573.38	252.78
573.55	315.97
573.71	283.20
573.87	250.44
574.03	212.99
574.20	154.48
574.36	280.86
574.52	212.99
574.68	248.10
574.84	208.31
575.01	189.58
575.17	292.57
575.33	257.46
575.49	255.12
575.65	292.57
575.82	241.08
575.98	315.97
576.14	266.82
576.30	383.85
576.46	552.37
576.62	763.01
576.79	805.14
576.95	636.63
577.11	411.93
577.27	435.34
577.43	346.40
577.59	355.76
577.75	376.83
577.92	196.60
578.08	290.23
578.24	189.58
578.40	358.10
578.56	514.92
578.72	753.65
578.88	788.76
579.04	645.99
579.21	519.60
579.37	372.15
579.53	411.93
579.69	458.74
579.85	421.30
580.01	557.05
580.17	482.15
580.33	418.96
580.49	390.87
580.65	411.93
580.82	341.72
580.98	283.20
581.14	449.38
581.30	411.93
581.46	376.83
581.62	334.70
581.78	337.04
581.94	402.57
582.10	463.43
582.26	454.06
582.42	456.40
582.58	472.79
582.74	454.06
582.90	507.90
583.06	433.00
583.22	489.17
583.38	423.64
583.54	402.57
583.70	505.56
583.86	505.56
584.02	491.51
584.18	533.64
584.34	423.64
584.50	393.21
584.66	416.62
584.82	414.27
584.98	383.85
585.14	428.32
585.30	393.21
585.46	411.93
585.62	362.78
585.78	369.80
585.94	369.80
586.10	470.45
586.26	421.30
586.42	416.62
586.58	486.83
586.74	512.58
586.90	660.03
587.06	653.01
587.22	636.63
587.38	596.84
587.54	561.73
587.70	519.60
587.86	498.53
588.02	400.23
588.18	411.93
588.34	423.64
588.49	327.68
588.65	313.63
588.81	376.83
588.97	337.04
589.13	341.72
589.29	344.06
589.45	315.97
589.61	292.57
589.77	367.46
589.93	369.80
590.08	299.59
590.24	341.72
590.40	330.02
590.56	390.87
590.72	313.63
590.88	320.65
591.04	341.72
591.20	344.06
591.35	442.36
591.51	458.74
591.67	395.55
591.83	393.21
591.99	440.02
592.15	454.06
592.31	498.53
592.46	514.92
592.62	479.81
592.78	498.53
592.94	538.32
593.10	456.40
593.26	491.51
593.41	524.28
593.57	505.56
593.73	425.98
593.89	341.72
594.05	320.65
594.20	339.38
594.36	283.20
594.52	292.57
594.68	280.86
594.84	341.72
594.99	318.31
595.15	301.93
595.31	241.08
595.47	395.55
595.62	290.23
595.78	266.82
595.94	292.57
596.10	318.31
596.25	306.61
596.41	358.10
596.57	280.86
596.73	290.23
596.88	311.29
597.04	287.89
597.20	346.40
597.36	311.29
597.51	374.49
597.67	334.70
597.83	285.55
597.99	390.87
598.14	433.00
598.30	308.95
598.46	348.74
598.61	341.72
598.77	369.80
598.93	360.44
599.09	360.44
599.24	393.21
599.40	444.70
599.56	320.65
599.71	416.62
599.87	423.64
600.03	334.70
600.18	362.78
600.34	381.51
600.50	290.23
600.65	290.23
600.81	379.17
600.97	327.68
601.12	280.86
601.28	308.95
601.44	327.68
601.59	292.57
601.75	276.18
601.91	280.86
602.06	257.46
602.22	386.19
602.37	330.02
602.53	236.39
602.69	313.63
602.84	306.61
603.00	285.55
603.16	311.29
603.31	259.80
603.47	243.42
603.62	252.78
603.78	355.76
603.94	259.80
604.09	266.82
604.25	308.95
604.40	311.29
604.56	320.65
604.71	271.50
604.87	266.82
605.03	334.70
605.18	365.12
605.34	280.86
605.49	318.31
605.65	250.44
605.80	285.55
605.96	297.25
606.12	341.72
606.27	337.04
606.43	292.57
606.58	325.33
606.74	369.80
606.89	294.91
607.05	423.64
607.20	337.04
607.36	369.80
607.51	402.57
607.67	304.27
607.82	332.36
607.98	433.00
608.13	423.64
608.29	369.80
608.44	482.15
608.60	531.30
608.75	538.32
608.91	545.34
609.06	587.47
609.22	620.24
609.37	559.39
609.53	603.86
609.68	727.91
609.84	699.82
609.99	866.00
610.15	987.71
610.30	1210.06
610.46	1418.36
610.61	1837.32
610.76	2204.78
610.92	2708.00
