SpectraSuite Data File
++++++++++++++++++++++++++++++++++++
Date: Fri Oct 04 11:41:50 GMT-05:00 2013
User: price-jones
Dark Spectrum Present: No
Reference Spectrum Present: No
Number of Sampled Component Spectra: 1
Spectrometers: USB2+H05261
Integration Time (usec): 100000 (USB2+H05261)
Spectra Averaged: 1 (USB2+H05261)
Boxcar Smoothing: 0 (USB2+H05261)
Correct for Electrical Dark: No (USB2+H05261)
Strobe/Lamp Enabled: No (USB2+H05261)
Correct for Detector Non-linearity: No (USB2+H05261)
Correct for Stray Light: No (USB2+H05261)
Number of Pixels in Processed Spectrum: 2048
>>>>>Begin Processed Spectral Data<<<<<
365.73	72.56
365.92	72.56
366.12	72.56
366.32	0.00
366.52	4.68
366.72	0.00
366.91	0.00
367.11	0.00
367.31	0.00
367.51	0.00
367.70	0.00
367.90	0.00
368.10	0.00
368.30	49.15
368.49	0.00
368.69	0.00
368.89	0.00
369.09	0.00
369.28	0.00
369.48	0.00
369.68	0.00
369.87	0.00
370.07	0.00
370.27	16.38
370.47	11.70
370.66	86.60
370.86	44.47
371.06	81.92
371.25	112.35
371.45	65.54
371.65	131.07
371.84	159.16
372.04	102.98
372.24	124.05
372.44	100.64
372.63	126.39
372.83	161.50
373.03	114.69
373.22	131.07
373.42	149.79
373.62	133.41
373.81	149.79
374.01	180.22
374.21	140.43
374.40	124.05
374.60	93.62
374.79	131.07
374.99	117.03
375.19	189.58
375.38	133.41
375.58	142.77
375.78	161.50
375.97	147.45
376.17	102.98
376.37	147.45
376.56	110.01
376.76	161.50
376.95	39.79
377.15	163.84
377.35	161.50
377.54	177.88
377.74	217.67
377.93	79.58
378.13	53.83
378.33	95.96
378.52	95.96
378.72	198.95
378.91	231.71
379.11	140.43
379.31	168.52
379.50	117.03
379.70	88.94
379.89	147.45
380.09	135.75
380.28	147.45
380.48	91.28
380.68	154.48
380.87	110.01
381.07	140.43
381.26	159.16
381.46	156.82
381.65	187.24
381.85	63.19
382.04	147.45
382.24	142.77
382.43	138.09
382.63	128.73
382.83	30.43
383.02	156.82
383.22	117.03
383.41	156.82
383.61	98.30
383.80	138.09
384.00	126.39
384.19	42.13
384.39	119.37
384.58	140.43
384.78	163.84
384.97	184.90
385.17	131.07
385.36	114.69
385.56	166.18
385.75	74.90
385.95	77.24
386.14	70.22
386.34	140.43
386.53	128.73
386.72	44.47
386.92	128.73
387.11	105.32
387.31	105.32
387.50	65.54
387.70	107.66
387.89	147.45
388.09	72.56
388.28	159.16
388.48	102.98
388.67	138.09
388.86	156.82
389.06	100.64
389.25	152.13
389.45	102.98
389.64	135.75
389.84	170.86
390.03	124.05
390.22	84.26
390.42	168.52
390.61	138.09
390.81	86.60
391.00	187.24
391.19	124.05
391.39	93.62
391.58	168.52
391.78	102.98
391.97	117.03
392.16	93.62
392.36	189.58
392.55	222.35
392.75	147.45
392.94	138.09
393.13	140.43
393.33	79.58
393.52	128.73
393.71	140.43
393.91	110.01
394.10	142.77
394.29	98.30
394.49	107.66
394.68	173.20
394.88	135.75
395.07	182.56
395.26	128.73
395.46	128.73
395.65	154.48
395.84	187.24
396.04	140.43
396.23	46.81
396.42	159.16
396.62	175.54
396.81	203.63
397.00	124.05
397.19	131.07
397.39	98.30
397.58	166.18
397.77	121.71
397.97	98.30
398.16	93.62
398.35	124.05
398.55	88.94
398.74	133.41
398.93	177.88
399.12	140.43
399.32	161.50
399.51	189.58
399.70	215.33
399.90	208.31
400.09	203.63
400.28	147.45
400.47	77.24
400.67	180.22
400.86	156.82
401.05	201.29
401.24	229.37
401.44	110.01
401.63	182.56
401.82	128.73
402.01	168.52
402.21	117.03
402.40	180.22
402.59	102.98
402.78	227.03
402.97	208.31
403.17	241.08
403.36	285.55
403.55	301.93
403.74	718.54
403.93	2167.34
404.13	5107.05
404.32	7534.18
404.51	6452.86
404.70	3864.22
404.89	1556.46
405.09	491.51
405.28	292.57
405.47	208.31
405.66	227.03
405.85	198.95
406.05	257.46
406.24	212.99
406.43	194.26
406.62	203.63
406.81	257.46
407.00	367.46
407.20	610.88
407.39	938.55
407.58	1001.75
407.77	671.73
407.96	430.66
408.15	217.67
408.34	217.67
408.54	224.69
408.73	208.31
408.92	238.73
409.11	212.99
409.30	173.20
409.49	196.60
409.68	138.09
409.87	191.92
410.07	222.35
410.26	168.52
410.45	217.67
410.64	257.46
410.83	142.77
411.02	152.13
411.21	236.39
411.40	205.97
411.59	159.16
411.78	201.29
411.98	210.65
412.17	131.07
412.36	220.01
412.55	222.35
412.74	215.33
412.93	201.29
413.12	205.97
413.31	236.39
413.50	182.56
413.69	194.26
413.88	191.92
414.07	203.63
414.26	184.90
414.45	170.86
414.64	264.48
414.83	285.55
415.02	210.65
415.22	212.99
415.41	203.63
415.60	212.99
415.79	203.63
415.98	264.48
416.17	203.63
416.36	269.16
416.55	285.55
416.74	330.02
416.93	257.46
417.12	287.89
417.31	194.26
417.50	222.35
417.69	238.73
417.88	255.12
418.07	194.26
418.26	264.48
418.45	285.55
418.64	278.52
418.83	320.65
419.02	208.31
419.21	315.97
419.39	212.99
419.58	248.10
419.77	229.37
419.96	259.80
420.15	257.46
420.34	245.76
420.53	322.99
420.72	339.38
420.91	250.44
421.10	234.05
421.29	348.74
421.48	346.40
421.67	252.78
421.86	285.55
422.05	205.97
422.24	168.52
422.43	304.27
422.61	238.73
422.80	346.40
422.99	301.93
423.18	341.72
423.37	285.55
423.56	245.76
423.75	271.50
423.94	264.48
424.13	325.33
424.32	278.52
424.50	294.91
424.69	224.69
424.88	292.57
425.07	264.48
425.26	337.04
425.45	299.59
425.64	276.18
425.83	315.97
426.01	337.04
426.20	297.25
426.39	337.04
426.58	313.63
426.77	276.18
426.96	355.76
427.15	374.49
427.33	327.68
427.52	292.57
427.71	294.91
427.90	315.97
428.09	292.57
428.28	313.63
428.46	346.40
428.65	348.74
428.84	301.93
429.03	313.63
429.22	353.42
429.40	360.44
429.59	341.72
429.78	381.51
429.97	292.57
430.16	411.93
430.34	327.68
430.53	360.44
430.72	374.49
430.91	372.15
431.10	393.21
431.28	348.74
431.47	479.81
431.66	463.43
431.85	397.89
432.03	414.27
432.22	477.47
432.41	475.13
432.60	418.96
432.79	433.00
432.97	505.56
433.16	582.79
433.35	601.52
433.54	606.20
433.72	734.93
433.91	608.54
434.10	643.65
434.28	966.64
434.47	1067.28
434.66	1006.43
434.85	1306.02
435.03	3485.06
435.22	13095.30
435.41	31459.14
435.59	34293.53
435.78	22089.98
435.97	11267.34
436.16	4444.68
436.34	1493.26
436.53	868.34
436.72	763.01
436.90	674.07
437.09	624.92
437.28	552.37
437.46	552.37
437.65	559.39
437.84	496.19
438.02	524.28
438.21	521.94
438.40	433.00
438.58	491.51
438.77	463.43
438.96	463.43
439.14	395.55
439.33	402.57
439.52	425.98
439.70	418.96
439.89	458.74
440.08	491.51
440.26	566.41
440.45	500.87
440.63	482.15
440.82	458.74
441.01	451.72
441.19	500.87
441.38	613.22
441.57	498.53
441.75	519.60
441.94	428.32
442.12	538.32
442.31	512.58
442.50	514.92
442.68	472.79
442.87	444.70
443.05	444.70
443.24	559.39
443.43	505.56
443.61	418.96
443.80	496.19
443.98	451.72
444.17	498.53
444.35	500.87
444.54	507.90
444.73	470.45
444.91	437.68
445.10	540.66
445.28	482.15
445.47	400.23
445.65	491.51
445.84	447.04
446.02	505.56
446.21	454.06
446.39	463.43
446.58	421.30
446.77	484.49
446.95	461.09
447.14	437.68
447.32	484.49
447.51	456.40
447.69	472.79
447.88	458.74
448.06	440.02
448.25	482.15
448.43	440.02
448.62	503.22
448.80	433.00
448.99	411.93
449.17	491.51
449.36	418.96
449.54	454.06
449.73	444.70
449.91	521.94
450.10	440.02
450.28	421.30
450.46	491.51
450.65	447.04
450.83	489.17
451.02	461.09
451.20	503.22
451.39	503.22
451.57	395.55
451.76	421.30
451.94	423.64
452.13	531.30
452.31	500.87
452.49	526.62
452.68	372.15
452.86	484.49
453.05	557.05
453.23	444.70
453.42	512.58
453.60	447.04
453.78	463.43
453.97	458.74
454.15	421.30
454.34	444.70
454.52	395.55
454.70	526.62
454.89	496.19
455.07	428.32
455.26	475.13
455.44	458.74
455.62	454.06
455.81	475.13
455.99	440.02
456.17	461.09
456.36	472.79
456.54	489.17
456.73	433.00
456.91	454.06
457.09	496.19
457.28	524.28
457.46	423.64
457.64	589.82
457.83	524.28
458.01	496.19
458.19	444.70
458.38	428.32
458.56	433.00
458.74	416.62
458.93	454.06
459.11	409.59
459.29	435.34
459.48	503.22
459.66	440.02
459.84	435.34
460.03	454.06
460.21	472.79
460.39	390.87
460.57	407.25
460.76	437.68
460.94	376.83
461.12	479.81
461.31	458.74
461.49	491.51
461.67	411.93
461.85	393.21
462.04	456.40
462.22	912.81
462.40	484.49
462.59	489.17
462.77	470.45
462.95	477.47
463.13	383.85
463.32	404.91
463.50	465.77
463.68	463.43
463.86	484.49
464.05	519.60
464.23	491.51
464.41	533.64
464.59	404.91
464.78	447.04
464.96	503.22
465.14	397.89
465.32	397.89
465.50	418.96
465.69	437.68
465.87	440.02
466.05	428.32
466.23	407.25
466.41	505.56
466.60	475.13
466.78	547.69
466.96	475.13
467.14	547.69
467.32	496.19
467.51	472.79
467.69	442.36
467.87	489.17
468.05	503.22
468.23	475.13
468.41	456.40
468.60	372.15
468.78	390.87
468.96	423.64
469.14	402.57
469.32	397.89
469.50	397.89
469.69	454.06
469.87	524.28
470.05	339.38
470.23	437.68
470.41	423.64
470.59	451.72
470.77	440.02
470.95	409.59
471.14	451.72
471.32	308.95
471.50	477.47
471.68	414.27
471.86	449.38
472.04	374.49
472.22	425.98
472.40	393.21
472.58	348.74
472.77	301.93
472.95	414.27
473.13	505.56
473.31	479.81
473.49	376.83
473.67	454.06
473.85	435.34
474.03	489.17
474.21	423.64
474.39	458.74
474.57	472.79
474.75	395.55
474.93	372.15
475.12	383.85
475.30	402.57
475.48	428.32
475.66	423.64
475.84	479.81
476.02	416.62
476.20	479.81
476.38	463.43
476.56	435.34
476.74	411.93
476.92	535.98
477.10	482.15
477.28	493.85
477.46	521.94
477.64	486.83
477.82	444.70
478.00	428.32
478.18	461.09
478.36	423.64
478.54	510.24
478.72	547.69
478.90	507.90
479.08	486.83
479.26	531.30
479.44	552.37
479.62	575.77
479.80	561.73
479.98	561.73
480.16	571.09
480.34	603.86
480.52	610.88
480.70	653.01
480.88	744.29
481.06	674.07
481.24	758.33
481.41	809.83
481.59	910.47
481.77	882.38
481.95	971.32
482.13	947.92
482.31	1057.92
482.49	1097.71
482.67	1170.27
482.85	1186.65
483.03	1324.74
483.21	1437.09
483.39	1526.03
483.57	1577.52
483.74	1727.32
483.92	1895.83
484.10	1858.39
484.28	2057.33
484.46	2225.85
484.64	2279.68
484.82	2326.49
485.00	2555.86
485.18	2619.06
485.35	2684.59
485.53	2874.18
485.71	3115.25
485.89	3117.59
486.07	3131.64
486.25	3265.05
486.43	3173.77
486.61	3248.66
486.78	3295.47
486.96	3332.92
487.14	3222.92
487.32	3234.62
487.50	3218.24
487.68	3323.56
487.85	3215.90
488.03	3075.46
488.21	3229.94
488.39	3019.29
488.57	2956.10
488.75	2705.66
488.92	3091.85
489.10	2736.09
489.28	2710.34
489.46	2719.70
489.64	2630.76
489.81	2469.27
489.99	2576.93
490.17	2567.57
490.35	2469.27
490.53	2345.22
490.70	2370.96
490.88	2373.30
491.06	2530.12
491.24	2789.92
491.41	2888.22
491.59	2506.71
491.77	2417.77
491.95	2272.66
492.13	2179.04
492.30	2223.51
492.48	2134.57
492.66	2202.44
492.84	2193.08
493.01	2057.33
493.19	2085.42
493.37	2050.31
493.54	2022.22
493.72	1970.73
493.90	2033.93
494.08	2015.20
494.25	2085.42
494.43	1919.24
494.61	1900.52
494.79	1774.13
494.96	1748.38
495.14	1783.49
495.32	1813.92
495.49	1748.38
495.67	1753.06
495.85	1713.27
496.02	1584.54
496.20	1736.68
496.38	1636.03
496.55	1528.37
496.73	1591.56
496.91	1598.59
497.09	1493.26
497.26	1441.77
497.44	1420.71
497.62	1465.18
497.79	1458.15
497.97	1390.28
498.14	1413.68
498.32	1313.04
498.50	1341.13
498.67	1247.51
498.85	1153.88
499.03	1172.61
499.20	1242.82
499.38	1104.73
499.56	1146.86
499.73	1104.73
499.91	1076.65
500.08	1121.12
500.26	1095.37
500.44	905.79
500.61	990.05
500.79	929.19
500.97	943.24
501.14	812.17
501.32	835.57
501.49	884.72
501.67	847.27
501.84	826.21
502.02	805.14
502.20	809.83
502.37	795.78
502.55	751.31
502.72	732.59
502.90	732.59
503.07	702.16
503.25	671.73
503.43	671.73
503.60	669.39
503.78	557.05
503.95	589.82
504.13	463.43
504.30	645.99
504.48	599.18
504.65	681.10
504.83	603.86
505.01	538.32
505.18	547.69
505.36	571.09
505.53	550.03
505.71	547.69
505.88	575.77
506.06	596.84
506.23	589.82
506.41	533.64
506.58	454.06
506.76	463.43
506.93	437.68
507.11	498.53
507.28	531.30
507.46	461.09
507.63	479.81
507.81	433.00
507.98	421.30
508.16	468.11
508.33	538.32
508.50	493.85
508.68	477.47
508.85	498.53
509.03	489.17
509.20	510.24
509.38	519.60
509.55	477.47
509.73	484.49
509.90	491.51
510.08	475.13
510.25	425.98
510.42	433.00
510.60	416.62
510.77	430.66
510.95	449.38
511.12	468.11
511.30	454.06
511.47	430.66
511.64	433.00
511.82	526.62
511.99	451.72
512.17	322.99
512.34	440.02
512.51	383.85
512.69	451.72
512.86	514.92
513.04	447.04
513.21	444.70
513.38	383.85
513.56	374.49
513.73	400.23
513.90	353.42
514.08	318.31
514.25	381.51
514.43	367.46
514.60	456.40
514.77	386.19
514.95	369.80
515.12	311.29
515.29	358.10
515.47	404.91
515.64	456.40
515.81	362.78
515.99	367.46
516.16	416.62
516.33	372.15
516.51	393.21
516.68	369.80
516.85	355.76
517.03	351.08
517.20	440.02
517.37	416.62
517.54	372.15
517.72	454.06
517.89	348.74
518.06	248.10
518.24	383.85
518.41	381.51
518.58	421.30
518.75	339.38
518.93	414.27
519.10	294.91
519.27	355.76
519.45	402.57
519.62	348.74
519.79	355.76
519.96	332.36
520.14	428.32
520.31	301.93
520.48	365.12
520.65	311.29
520.83	315.97
521.00	421.30
521.17	463.43
521.34	360.44
521.52	393.21
521.69	367.46
521.86	257.46
522.03	325.33
522.20	367.46
522.38	351.08
522.55	334.70
522.72	365.12
522.89	381.51
523.07	428.32
523.24	383.85
523.41	463.43
523.58	327.68
523.75	393.21
523.92	337.04
524.10	379.17
524.27	351.08
524.44	400.23
524.61	402.57
524.78	390.87
524.96	383.85
525.13	423.64
525.30	418.96
525.47	404.91
525.64	381.51
525.81	381.51
525.98	390.87
526.16	341.72
526.33	313.63
526.50	339.38
526.67	397.89
526.84	360.44
527.01	407.25
527.18	486.83
527.36	505.56
527.53	489.17
527.70	465.77
527.87	465.77
528.04	526.62
528.21	458.74
528.38	552.37
528.55	411.93
528.72	496.19
528.89	524.28
529.07	470.45
529.24	538.32
529.41	493.85
529.58	472.79
529.75	479.81
529.92	547.69
530.09	486.83
530.26	484.49
530.43	589.82
530.60	517.26
530.77	557.05
530.94	606.20
531.11	601.52
531.28	601.52
531.46	631.94
531.63	641.31
531.80	692.80
531.97	702.16
532.14	798.12
532.31	990.05
532.48	1130.48
532.65	1259.21
532.82	1479.22
532.99	1717.95
533.16	2045.63
533.33	2040.95
533.50	1820.94
533.67	1519.01
533.84	1397.30
534.01	1268.57
534.18	1186.65
534.35	1188.99
534.52	1137.50
534.69	1200.69
534.86	1231.12
535.03	1139.84
535.20	1355.17
535.37	1315.38
535.54	1397.30
535.71	1530.71
535.88	1502.62
536.05	1673.48
536.22	1842.00
536.38	2036.27
536.55	2165.00
536.72	2387.35
536.89	2534.80
537.06	2850.77
537.23	3178.45
537.40	3557.61
537.57	3950.82
537.74	4086.58
537.91	4201.26
538.08	4383.82
538.25	4362.76
538.42	4451.70
538.59	4578.09
538.75	4704.48
538.92	4894.06
539.09	5289.61
539.26	5989.43
539.43	6869.47
539.60	7655.89
539.77	8678.71
539.94	9535.34
540.11	10525.39
540.28	11543.52
540.44	13104.66
540.61	14104.07
540.78	15948.41
540.95	19555.18
541.12	23400.68
541.29	26539.33
541.46	27641.73
541.62	27098.72
541.79	26354.43
541.96	24573.28
542.13	22565.10
542.30	20683.31
542.47	19838.38
542.63	18820.25
542.80	18230.43
542.97	18080.64
543.14	17680.41
543.31	17909.78
543.48	17734.24
543.64	18195.32
543.81	18115.75
543.98	18670.45
544.15	18274.90
544.32	18525.34
544.48	19012.17
544.65	18417.68
544.82	18420.02
544.99	18771.10
545.16	18885.78
545.32	19716.67
545.49	31917.89
545.66	55697.73
545.83	62447.83
546.00	58651.48
546.16	44835.30
546.33	33263.69
546.50	24748.82
546.67	19264.95
546.83	16741.85
547.00	15903.94
547.17	15393.70
547.34	14593.24
547.50	14057.26
547.67	13811.50
547.84	12872.95
548.00	12816.77
548.17	12056.10
548.34	11473.31
548.51	11103.50
548.67	10707.95
548.84	9989.41
549.01	9446.40
549.18	9050.85
549.34	8737.22
549.51	8496.14
549.68	8339.33
549.84	7805.69
550.01	7473.33
550.18	7110.55
550.34	7014.59
550.51	6293.70
550.68	6298.38
550.84	6040.92
551.01	5640.69
551.18	5413.66
551.34	5013.43
551.51	5071.94
551.68	4676.39
551.84	4610.86
552.01	4301.90
552.18	4184.88
552.34	3904.01
552.51	3887.63
552.68	3583.36
552.84	3283.77
553.01	3456.97
553.18	3405.48
553.34	3267.39
553.51	3091.85
553.67	2913.97
553.84	2871.84
554.01	2750.13
554.17	2532.46
554.34	2417.77
554.51	2132.23
554.67	2094.78
554.84	1940.30
555.00	1944.99
555.17	1870.09
555.33	1673.48
555.50	1694.55
555.67	1638.38
555.83	1444.11
556.00	1416.02
556.16	1565.82
556.33	1418.36
556.50	1313.04
556.66	1263.89
556.83	1196.01
556.99	1200.69
557.16	1207.72
557.32	1149.20
557.49	1109.41
557.65	1011.11
557.82	1032.18
557.98	1062.60
558.15	1034.52
558.32	915.15
558.48	873.02
558.65	1008.77
558.81	889.40
558.98	830.89
559.14	851.96
559.31	903.45
559.47	814.51
559.64	868.34
559.80	945.58
559.97	737.27
560.13	868.34
560.30	725.57
560.46	805.14
560.63	765.36
560.79	842.59
560.96	774.72
561.12	730.25
561.29	861.32
561.45	765.36
561.61	788.76
561.78	875.36
561.94	791.10
562.11	748.97
562.27	922.17
562.44	737.27
562.60	826.21
562.77	770.04
562.93	774.72
563.10	737.27
563.26	770.04
563.42	737.27
563.59	730.25
563.75	594.50
563.92	692.80
564.08	683.44
564.24	660.03
564.41	755.99
564.57	631.94
564.74	589.82
564.90	657.69
565.07	660.03
565.23	571.09
565.39	517.26
565.56	571.09
565.72	587.47
565.88	655.35
566.05	676.41
566.21	578.11
566.38	601.52
566.54	629.60
566.70	627.26
566.87	599.18
567.03	645.99
567.19	615.56
567.36	669.39
567.52	667.05
567.68	688.12
567.85	582.79
568.01	660.03
568.17	617.90
568.34	627.26
568.50	674.07
568.66	620.24
568.83	662.37
568.99	716.20
569.15	594.50
569.32	531.30
569.48	535.98
569.64	559.39
569.81	543.00
569.97	510.24
570.13	512.58
570.30	561.73
570.46	524.28
570.62	407.25
570.78	540.66
570.95	362.78
571.11	456.40
571.27	496.19
571.43	526.62
571.60	512.58
571.76	416.62
571.92	510.24
572.09	425.98
572.25	463.43
572.41	477.47
572.57	416.62
572.74	503.22
572.90	496.19
573.06	526.62
573.22	531.30
573.38	489.17
573.55	519.60
573.71	552.37
573.87	491.51
574.03	589.82
574.20	465.77
574.36	552.37
574.52	573.43
574.68	528.96
574.84	547.69
575.01	676.41
575.17	685.78
575.33	723.23
575.49	734.93
575.65	781.74
575.82	835.57
575.98	968.98
576.14	1050.90
576.30	2069.03
576.46	6047.94
576.62	12004.61
576.79	13799.80
576.95	9905.15
577.11	5996.45
577.27	4346.37
577.43	2909.29
577.59	1956.69
577.75	1504.96
577.92	1357.51
578.08	1366.87
578.24	1401.98
578.40	2272.66
578.56	6087.73
578.72	11002.86
578.88	12411.86
579.04	9195.96
579.21	6193.06
579.37	4526.60
579.53	3475.70
579.69	3346.97
579.85	4074.87
580.01	4905.76
580.17	4702.14
580.33	4042.11
580.49	3426.54
580.65	3023.97
580.82	2883.54
580.98	2700.98
581.14	2665.87
581.30	2923.33
581.46	3145.68
581.62	3321.22
581.78	3506.12
581.94	3889.97
582.10	3990.61
582.26	4327.65
582.42	4524.26
582.58	4458.72
582.74	4702.14
582.90	4566.39
583.06	4568.73
583.22	4692.77
583.38	4755.97
583.54	4624.90
583.70	4671.71
583.86	4437.66
584.02	4461.06
584.18	4423.61
584.34	4315.95
584.50	4266.80
584.66	4315.95
584.82	4219.99
584.98	4074.87
585.14	4135.73
585.30	4004.66
585.46	3948.48
585.62	3847.84
585.78	3908.69
585.94	3810.39
586.10	4093.60
586.26	4320.63
586.42	4629.58
586.58	5746.02
586.74	7035.65
586.90	8365.07
587.06	9207.67
587.22	9366.82
587.38	8339.33
587.54	7117.57
587.70	6167.31
587.86	4980.66
588.02	4294.88
588.18	3941.46
588.34	3482.72
588.49	3162.06
588.65	2942.05
588.81	2846.09
588.97	2700.98
589.13	2609.70
589.29	2642.46
589.45	2656.51
589.61	2588.63
589.77	2555.86
589.93	2579.27
590.08	2616.72
590.24	2745.45
590.40	2930.35
590.56	3002.91
590.72	3171.43
590.88	3096.53
591.04	3077.80
591.20	3295.47
591.35	3501.44
591.51	3665.28
591.67	3826.78
591.83	3880.61
591.99	4119.34
592.15	4725.54
592.31	4999.38
592.46	5373.87
592.62	6148.59
592.78	6574.56
592.94	6565.20
593.10	6595.63
593.26	6265.61
593.41	5837.30
593.57	5135.14
593.73	4519.57
593.89	3894.65
594.05	3499.10
594.20	3173.77
594.36	2995.89
594.52	2808.64
594.68	2747.79
594.84	2583.95
594.99	2509.05
595.15	2387.35
595.31	2216.49
595.47	2356.92
595.62	2324.15
595.78	2392.03
595.94	2267.98
596.10	2413.09
596.25	2326.49
596.41	2347.56
596.57	2396.71
596.73	2366.28
596.88	2331.17
597.04	2420.11
597.20	2415.43
597.36	2448.20
597.51	2455.22
597.67	2630.76
597.83	2719.70
597.99	2775.88
598.14	2995.89
598.30	3199.51
598.46	3236.96
598.61	3576.34
598.77	3641.87
598.93	3686.34
599.09	3946.14
599.24	4025.72
599.40	3976.57
599.56	3873.59
599.71	3566.98
599.87	3459.31
600.03	3201.85
600.18	3143.34
600.34	2885.88
600.50	2661.19
600.65	2476.29
600.81	2359.26
600.97	2195.42
601.12	2120.53
601.28	1933.28
601.44	1895.83
601.59	1802.21
601.75	1827.96
601.91	1713.27
602.06	1638.38
602.22	1713.27
602.37	1605.61
602.53	1479.22
602.69	1565.82
602.84	1572.84
603.00	1621.99
603.16	1570.50
603.31	1607.95
603.47	1643.06
603.62	1654.76
603.78	1788.17
603.94	1652.42
604.09	1708.59
604.25	1685.19
604.40	1806.89
604.56	1872.43
604.71	1783.49
604.87	1820.94
605.03	1834.98
605.18	1802.21
