SpectraSuite Data File
++++++++++++++++++++++++++++++++++++
Date: Fri Oct 04 11:41:58 GMT-05:00 2013
User: price-jones
Dark Spectrum Present: No
Reference Spectrum Present: No
Number of Sampled Component Spectra: 1
Spectrometers: USB2+H05261
Integration Time (usec): 100000 (USB2+H05261)
Spectra Averaged: 1 (USB2+H05261)
Boxcar Smoothing: 0 (USB2+H05261)
Correct for Electrical Dark: No (USB2+H05261)
Strobe/Lamp Enabled: No (USB2+H05261)
Correct for Detector Non-linearity: No (USB2+H05261)
Correct for Stray Light: No (USB2+H05261)
Number of Pixels in Processed Spectrum: 2048
>>>>>Begin Processed Spectral Data<<<<<
365.73	23.41
365.92	23.41
366.12	23.41
366.32	0.00
366.52	0.00
366.72	0.00
366.91	0.00
367.11	0.00
367.31	0.00
367.51	0.00
367.70	0.00
367.90	0.00
368.10	0.00
368.30	0.00
368.49	0.00
368.69	0.00
368.89	0.00
369.09	0.00
369.28	0.00
369.48	0.00
369.68	42.13
369.87	2.34
370.07	16.38
370.27	49.15
370.47	16.38
370.66	32.77
370.86	98.30
371.06	140.43
371.25	49.15
371.45	135.75
371.65	86.60
371.84	63.19
372.04	67.88
372.24	46.81
372.44	84.26
372.63	161.50
372.83	156.82
373.03	98.30
373.22	140.43
373.42	142.77
373.62	105.32
373.81	154.48
374.01	102.98
374.21	149.79
374.40	131.07
374.60	102.98
374.79	138.09
374.99	107.66
375.19	81.92
375.38	117.03
375.58	142.77
375.78	107.66
375.97	91.28
376.17	168.52
376.37	152.13
376.56	154.48
376.76	131.07
376.95	91.28
377.15	102.98
377.35	140.43
377.54	180.22
377.74	121.71
377.93	79.58
378.13	163.84
378.33	177.88
378.52	168.52
378.72	117.03
378.91	168.52
379.11	187.24
379.31	84.26
379.50	37.45
379.70	145.11
379.89	163.84
380.09	152.13
380.28	128.73
380.48	142.77
380.68	98.30
380.87	107.66
381.07	187.24
381.26	124.05
381.46	135.75
381.65	117.03
381.85	119.37
382.04	149.79
382.24	107.66
382.43	93.62
382.63	91.28
382.83	102.98
383.02	224.69
383.22	140.43
383.41	161.50
383.61	201.29
383.80	201.29
384.00	100.64
384.19	140.43
384.39	112.35
384.58	81.92
384.78	128.73
384.97	114.69
385.17	138.09
385.36	152.13
385.56	180.22
385.75	149.79
385.95	77.24
386.14	175.54
386.34	112.35
386.53	145.11
386.72	166.18
386.92	147.45
387.11	182.56
387.31	70.22
387.50	74.90
387.70	152.13
387.89	51.49
388.09	60.85
388.28	53.83
388.48	84.26
388.67	184.90
388.86	77.24
389.06	121.71
389.25	88.94
389.45	117.03
389.64	212.99
389.84	112.35
390.03	121.71
390.22	152.13
390.42	126.39
390.61	81.92
390.81	163.84
391.00	163.84
391.19	194.26
391.39	198.95
391.58	112.35
391.78	126.39
391.97	184.90
392.16	138.09
392.36	161.50
392.55	217.67
392.75	177.88
392.94	152.13
393.13	170.86
393.33	140.43
393.52	58.51
393.71	133.41
393.91	149.79
394.10	98.30
394.29	70.22
394.49	147.45
394.68	126.39
394.88	198.95
395.07	205.97
395.26	170.86
395.46	53.83
395.65	110.01
395.84	133.41
396.04	189.58
396.23	74.90
396.42	161.50
396.62	159.16
396.81	114.69
397.00	70.22
397.19	58.51
397.39	173.20
397.58	149.79
397.77	117.03
397.97	177.88
398.16	177.88
398.35	173.20
398.55	182.56
398.74	86.60
398.93	177.88
399.12	100.64
399.32	163.84
399.51	145.11
399.70	126.39
399.90	159.16
400.09	241.08
400.28	180.22
400.47	126.39
400.67	180.22
400.86	131.07
401.05	163.84
401.24	184.90
401.44	154.48
401.63	217.67
401.82	175.54
402.01	147.45
402.21	175.54
402.40	194.26
402.59	161.50
402.78	217.67
402.97	212.99
403.17	201.29
403.36	255.12
403.55	283.20
403.74	622.58
403.93	2099.46
404.13	5203.01
404.32	7520.14
404.51	6534.78
404.70	3906.35
404.89	1483.90
405.09	575.77
405.28	280.86
405.47	215.33
405.66	156.82
405.85	212.99
406.05	161.50
406.24	212.99
406.43	187.24
406.62	175.54
406.81	229.37
407.00	404.91
407.20	681.10
407.39	1004.09
407.58	1078.99
407.77	732.59
407.96	456.40
408.15	280.86
408.34	173.20
408.54	142.77
408.73	191.92
408.92	149.79
409.11	212.99
409.30	273.84
409.49	140.43
409.68	194.26
409.87	229.37
410.07	196.60
410.26	229.37
410.45	189.58
410.64	208.31
410.83	259.80
411.02	210.65
411.21	161.50
411.40	173.20
411.59	175.54
411.78	198.95
411.98	194.26
412.17	220.01
412.36	168.52
412.55	133.41
412.74	180.22
412.93	259.80
413.12	217.67
413.31	224.69
413.50	259.80
413.69	273.84
413.88	257.46
414.07	170.86
414.26	203.63
414.45	283.20
414.64	177.88
414.83	220.01
415.02	238.73
415.22	241.08
415.41	259.80
415.60	250.44
415.79	273.84
415.98	194.26
416.17	215.33
416.36	241.08
416.55	297.25
416.74	224.69
416.93	220.01
417.12	252.78
417.31	205.97
417.50	257.46
417.69	334.70
417.88	234.05
418.07	201.29
418.26	266.82
418.45	208.31
418.64	313.63
418.83	297.25
419.02	252.78
419.21	332.36
419.39	313.63
419.58	175.54
419.77	290.23
419.96	252.78
420.15	306.61
420.34	264.48
420.53	217.67
420.72	283.20
420.91	234.05
421.10	276.18
421.29	264.48
421.48	304.27
421.67	341.72
421.86	241.08
422.05	294.91
422.24	255.12
422.43	259.80
422.61	381.51
422.80	294.91
422.99	243.42
423.18	220.01
423.37	271.50
423.56	311.29
423.75	346.40
423.94	304.27
424.13	241.08
424.32	301.93
424.50	238.73
424.69	362.78
424.88	322.99
425.07	292.57
425.26	362.78
425.45	262.14
425.64	348.74
425.83	318.31
426.01	393.21
426.20	369.80
426.39	264.48
426.58	344.06
426.77	383.85
426.96	344.06
427.15	327.68
427.33	372.15
427.52	416.62
427.71	381.51
427.90	358.10
428.09	315.97
428.28	358.10
428.46	362.78
428.65	365.12
428.84	348.74
429.03	498.53
429.22	313.63
429.40	353.42
429.59	341.72
429.78	369.80
429.97	332.36
430.16	351.08
430.34	276.18
430.53	269.16
430.72	358.10
430.91	402.57
431.10	355.76
431.28	390.87
431.47	414.27
431.66	430.66
431.85	383.85
432.03	376.83
432.22	444.70
432.41	407.25
432.60	458.74
432.79	430.66
432.97	456.40
433.16	498.53
433.35	573.43
433.54	550.03
433.72	650.67
433.91	706.84
434.10	786.42
434.28	917.49
434.47	1018.13
434.66	1034.52
434.85	1380.92
435.03	3393.78
435.22	12926.78
435.41	30190.57
435.59	34721.85
435.78	22911.50
435.97	11365.64
436.16	4369.78
436.34	1479.22
436.53	938.55
436.72	737.27
436.90	596.84
437.09	500.87
437.28	550.03
437.46	547.69
437.65	543.00
437.84	442.36
438.02	547.69
438.21	561.73
438.40	493.85
438.58	543.00
438.77	454.06
438.96	454.06
439.14	372.15
439.33	554.71
439.52	564.07
439.70	507.90
439.89	440.02
440.08	505.56
440.26	442.36
440.45	418.96
440.63	538.32
440.82	493.85
441.01	461.09
441.19	425.98
441.38	479.81
441.57	442.36
441.75	451.72
441.94	575.77
442.12	411.93
442.31	456.40
442.50	458.74
442.68	475.13
442.87	498.53
443.05	421.30
443.24	458.74
443.43	528.96
443.61	514.92
443.80	571.09
443.98	440.02
444.17	477.47
444.35	465.77
444.54	437.68
444.73	512.58
444.91	458.74
445.10	425.98
445.28	456.40
445.47	433.00
445.65	507.90
445.84	397.89
446.02	447.04
446.21	411.93
446.39	465.77
446.58	468.11
446.77	472.79
446.95	463.43
447.14	454.06
447.32	425.98
447.51	447.04
447.69	564.07
447.88	472.79
448.06	484.49
448.25	461.09
448.43	484.49
448.62	454.06
448.80	458.74
448.99	454.06
449.17	428.32
449.36	451.72
449.54	496.19
449.73	458.74
449.91	493.85
450.10	442.36
450.28	573.43
450.46	564.07
450.65	524.28
450.83	498.53
451.02	538.32
451.20	496.19
451.39	472.79
451.57	442.36
451.76	414.27
451.94	493.85
452.13	545.34
452.31	468.11
452.49	416.62
452.68	428.32
452.86	454.06
453.05	500.87
453.23	416.62
453.42	404.91
453.60	430.66
453.78	444.70
453.97	440.02
454.15	444.70
454.34	475.13
454.52	465.77
454.70	526.62
454.89	449.38
455.07	437.68
455.26	407.25
455.44	416.62
455.62	468.11
455.81	463.43
455.99	451.72
456.17	496.19
456.36	449.38
456.54	442.36
456.73	416.62
456.91	552.37
457.09	500.87
457.28	528.96
457.46	517.26
457.64	425.98
457.83	433.00
458.01	482.15
458.19	524.28
458.38	475.13
458.56	454.06
458.74	386.19
458.93	313.63
459.11	388.53
459.29	383.85
459.48	475.13
459.66	507.90
459.84	456.40
460.03	514.92
460.21	430.66
460.39	486.83
460.57	435.34
460.76	437.68
460.94	402.57
461.12	498.53
461.31	477.47
461.49	475.13
461.67	428.32
461.85	440.02
462.04	416.62
462.22	943.24
462.40	479.81
462.59	496.19
462.77	510.24
462.95	503.22
463.13	449.38
463.32	528.96
463.50	559.39
463.68	624.92
463.86	484.49
464.05	482.15
464.23	468.11
464.41	484.49
464.59	489.17
464.78	470.45
464.96	423.64
465.14	512.58
465.32	465.77
465.50	491.51
465.69	404.91
465.87	475.13
466.05	435.34
466.23	514.92
466.41	454.06
466.60	470.45
466.78	498.53
466.96	517.26
467.14	498.53
467.32	493.85
467.51	449.38
467.69	489.17
467.87	383.85
468.05	442.36
468.23	423.64
468.41	458.74
468.60	423.64
468.78	397.89
468.96	437.68
469.14	449.38
469.32	360.44
469.50	369.80
469.69	376.83
469.87	397.89
470.05	411.93
470.23	374.49
470.41	374.49
470.59	409.59
470.77	430.66
470.95	374.49
471.14	442.36
471.32	433.00
471.50	430.66
471.68	477.47
471.86	430.66
472.04	404.91
472.22	379.17
472.40	442.36
472.58	461.09
472.77	447.04
472.95	472.79
473.13	428.32
473.31	486.83
473.49	374.49
473.67	472.79
473.85	381.51
474.03	440.02
474.21	484.49
474.39	414.27
474.57	393.21
474.75	407.25
474.93	477.47
475.12	496.19
475.30	461.09
475.48	456.40
475.66	383.85
475.84	414.27
476.02	383.85
476.20	411.93
476.38	449.38
476.56	470.45
476.74	418.96
476.92	407.25
477.10	416.62
477.28	447.04
477.46	388.53
477.64	437.68
477.82	491.51
478.00	489.17
478.18	472.79
478.36	507.90
478.54	543.00
478.72	498.53
478.90	514.92
479.08	507.90
479.26	566.41
479.44	557.05
479.62	561.73
479.80	615.56
479.98	589.82
480.16	566.41
480.34	655.35
480.52	596.84
480.70	615.56
480.88	709.18
481.06	781.74
481.24	830.89
481.41	830.89
481.59	807.48
481.77	933.87
481.95	910.47
482.13	999.41
482.31	1067.28
482.49	1078.99
482.67	1245.16
482.85	1284.95
483.03	1334.11
483.21	1472.20
483.39	1540.07
483.57	1645.40
483.74	1746.04
483.92	1907.54
484.10	1935.62
484.28	1928.60
484.46	2146.27
484.64	2232.87
484.82	2214.15
485.00	2502.03
485.18	2630.76
485.35	2743.11
485.53	2979.50
485.71	2925.67
485.89	3112.91
486.07	3211.22
486.25	3302.50
486.43	3300.16
486.61	3290.79
486.78	3267.39
486.96	3253.34
487.14	3269.73
487.32	3183.13
487.50	3276.75
487.68	3286.11
487.85	3187.81
488.03	3164.40
488.21	3061.42
488.39	3000.57
488.57	2991.20
488.75	2860.13
488.92	3087.17
489.10	2827.37
489.28	2698.64
489.46	2602.68
489.64	2483.31
489.81	2572.25
489.99	2553.52
490.17	2502.03
490.35	2445.86
490.53	2403.73
490.70	2476.29
490.88	2471.61
491.06	2574.59
491.24	2665.87
491.41	2792.26
491.59	2572.25
491.77	2452.88
491.95	2363.94
492.13	2382.67
492.30	2286.70
492.48	2190.74
492.66	2115.84
492.84	2193.08
493.01	2097.12
493.19	1982.43
493.37	2118.18
493.54	1909.88
493.72	2038.61
493.90	1966.05
494.08	2008.18
494.25	1928.60
494.43	1933.28
494.61	1865.41
494.79	1739.02
494.96	1762.42
495.14	1769.44
495.32	1774.13
495.49	1799.87
495.67	1724.97
495.85	1638.38
496.02	1694.55
496.20	1661.78
496.38	1593.90
496.55	1481.56
496.73	1624.33
496.91	1462.83
497.09	1584.54
497.26	1455.81
497.44	1523.69
497.62	1490.92
497.79	1397.30
497.97	1397.30
498.14	1362.19
498.32	1329.42
498.50	1327.08
498.67	1280.27
498.85	1235.80
499.03	1153.88
499.20	1212.40
499.38	1153.88
499.56	1125.80
499.73	1247.51
499.91	1137.50
500.08	1050.90
500.26	1053.24
500.44	987.71
500.61	952.60
500.79	997.07
500.97	957.28
501.14	917.49
501.32	851.96
501.49	912.81
501.67	732.59
501.84	772.38
502.02	781.74
502.20	828.55
502.37	837.91
502.55	748.97
502.72	692.80
502.90	753.65
503.07	702.16
503.25	704.50
503.43	638.97
503.60	620.24
503.78	610.88
503.95	617.90
504.13	648.33
504.30	706.84
504.48	723.23
504.65	599.18
504.83	627.26
505.01	617.90
505.18	566.41
505.36	561.73
505.53	477.47
505.71	486.83
505.88	470.45
506.06	524.28
506.23	510.24
506.41	468.11
506.58	498.53
506.76	505.56
506.93	496.19
507.11	491.51
507.28	458.74
507.46	447.04
507.63	521.94
507.81	472.79
507.98	512.58
508.16	482.15
508.33	409.59
508.50	472.79
508.68	540.66
508.85	461.09
509.03	482.15
509.20	531.30
509.38	606.20
509.55	498.53
509.73	449.38
509.90	489.17
510.08	477.47
510.25	493.85
510.42	437.68
510.60	395.55
510.77	444.70
510.95	447.04
511.12	428.32
511.30	440.02
511.47	414.27
511.64	451.72
511.82	444.70
511.99	423.64
512.17	414.27
512.34	437.68
512.51	437.68
512.69	428.32
512.86	468.11
513.04	376.83
513.21	468.11
513.38	386.19
513.56	496.19
513.73	411.93
513.90	388.53
514.08	451.72
514.25	395.55
514.43	404.91
514.60	341.72
514.77	390.87
514.95	409.59
515.12	433.00
515.29	430.66
515.47	390.87
515.64	374.49
515.81	360.44
515.99	449.38
516.16	395.55
516.33	449.38
516.51	451.72
516.68	433.00
516.85	416.62
517.03	397.89
517.20	292.57
517.37	353.42
517.54	367.46
517.72	297.25
517.89	308.95
518.06	383.85
518.24	430.66
518.41	402.57
518.58	423.64
518.75	346.40
518.93	386.19
519.10	383.85
519.27	390.87
519.45	327.68
519.62	395.55
519.79	416.62
519.96	306.61
520.14	390.87
520.31	353.42
520.48	360.44
520.65	376.83
520.83	395.55
521.00	421.30
521.17	351.08
521.34	315.97
521.52	430.66
521.69	393.21
521.86	355.76
522.03	416.62
522.20	351.08
522.38	308.95
522.55	360.44
522.72	362.78
522.89	421.30
523.07	416.62
523.24	365.12
523.41	339.38
523.58	395.55
523.75	332.36
523.92	386.19
524.10	332.36
524.27	388.53
524.44	358.10
524.61	444.70
524.78	355.76
524.96	390.87
525.13	402.57
525.30	423.64
525.47	416.62
525.64	447.04
525.81	465.77
525.98	390.87
526.16	477.47
526.33	423.64
526.50	442.36
526.67	369.80
526.84	411.93
527.01	475.13
527.18	444.70
527.36	470.45
527.53	393.21
527.70	461.09
527.87	447.04
528.04	517.26
528.21	510.24
528.38	440.02
528.55	437.68
528.72	454.06
528.89	510.24
529.07	425.98
529.24	491.51
529.41	498.53
529.58	561.73
529.75	486.83
529.92	540.66
530.09	411.93
530.26	550.03
530.43	468.11
530.60	517.26
530.77	533.64
530.94	514.92
531.11	629.60
531.28	582.79
531.46	713.86
531.63	603.86
531.80	765.36
531.97	751.31
532.14	849.61
532.31	1022.81
532.48	1123.46
532.65	1266.23
532.82	1451.13
532.99	1729.66
533.16	2003.50
533.33	1973.07
533.50	1905.20
533.67	1610.29
533.84	1511.99
534.01	1310.70
534.18	1160.91
534.35	1093.03
534.52	1163.25
534.69	1233.46
534.86	1128.14
535.03	1245.16
535.20	1242.82
535.37	1315.38
535.54	1542.41
535.71	1453.47
535.88	1572.84
536.05	1689.87
536.22	1872.43
536.38	1994.14
536.55	2169.68
536.72	2590.97
536.89	2710.34
537.06	3061.42
537.23	3412.50
537.40	3688.68
537.57	3803.37
537.74	4046.79
537.91	4205.94
538.08	4369.78
538.25	4505.53
538.42	4493.83
538.59	4641.28
538.75	4582.77
538.92	5053.22
539.09	5455.79
539.26	5989.43
539.43	6932.67
539.60	7812.71
539.77	8713.81
539.94	10038.56
540.11	11323.51
540.28	12046.74
540.44	12875.29
540.61	14260.88
540.78	16334.60
540.95	19924.98
541.12	23931.98
541.29	27225.11
541.46	28393.04
541.62	28196.43
541.79	27014.46
541.96	24961.81
542.13	23101.09
542.30	21308.24
542.47	20086.48
542.63	19030.90
542.80	18530.02
542.97	18155.54
543.14	18024.47
543.31	18436.40
543.48	18127.45
543.64	18771.10
543.81	18728.97
543.98	18799.18
544.15	18576.83
544.32	18977.06
544.48	19201.76
544.65	18562.79
544.82	18726.63
544.99	18457.46
545.16	19185.37
545.32	19889.87
545.49	31480.21
545.66	55297.50
545.83	62550.82
546.00	58623.40
546.16	44800.19
546.33	33043.68
546.50	24978.20
546.67	19400.70
546.83	17095.27
547.00	16702.06
547.17	15503.71
547.34	15300.08
547.50	14335.78
547.67	13804.48
547.84	13331.69
548.00	12702.09
548.17	12273.77
548.34	11967.16
548.51	11541.18
548.67	11012.22
548.84	10239.84
549.01	9771.74
549.18	9254.48
549.34	9186.60
549.51	8807.44
549.68	8301.88
549.84	8004.63
550.01	7683.98
550.18	7396.09
550.34	7049.69
550.51	6787.55
550.68	6403.71
550.84	6005.81
551.01	5734.31
551.18	5296.63
551.34	5114.07
551.51	5004.07
551.68	4891.72
551.84	4674.05
552.01	4447.02
552.18	4133.39
552.34	4023.38
552.51	3901.67
552.68	3695.71
552.84	3559.95
553.01	3393.78
553.18	3452.29
553.34	3218.24
553.51	3248.66
553.67	2988.86
553.84	3054.40
554.01	2708.00
554.17	2623.74
554.34	2445.86
554.51	2375.64
554.67	2085.42
554.84	1991.80
555.00	2003.50
555.17	1774.13
555.33	1813.92
555.50	1746.04
555.67	1666.46
555.83	1544.75
556.00	1551.78
556.16	1523.69
556.33	1350.49
556.50	1301.34
556.66	1336.45
556.83	1212.40
556.99	1242.82
557.16	1217.08
557.32	1160.91
557.49	1203.04
557.65	1076.65
557.82	1088.35
557.98	1151.54
558.15	966.64
558.32	964.30
558.48	905.79
558.65	978.34
558.81	980.68
558.98	908.13
559.14	933.87
559.31	882.38
559.47	966.64
559.64	894.08
559.80	926.85
559.97	882.38
560.13	861.32
560.30	807.48
560.46	753.65
560.63	823.87
560.79	767.70
560.96	840.25
561.12	802.80
561.29	844.93
561.45	751.31
561.61	830.89
561.78	910.47
561.94	758.33
562.11	854.30
562.27	781.74
562.44	737.27
562.60	812.17
562.77	772.38
562.93	835.57
563.10	800.46
563.26	753.65
563.42	758.33
563.59	716.20
563.75	641.31
563.92	739.61
564.08	711.52
564.24	746.63
564.41	720.88
564.57	702.16
564.74	767.70
564.90	624.92
565.07	760.67
565.23	758.33
565.39	599.18
565.56	519.60
565.72	690.46
565.88	648.33
566.05	624.92
566.21	580.45
566.38	664.71
566.54	594.50
566.70	629.60
566.87	587.47
567.03	624.92
567.19	713.86
567.36	599.18
567.52	681.10
567.68	676.41
567.85	575.77
568.01	657.69
568.17	599.18
568.34	695.14
568.50	685.78
568.66	657.69
568.83	688.12
568.99	624.92
569.15	676.41
569.32	596.84
569.48	589.82
569.64	557.05
569.81	561.73
569.97	463.43
570.13	589.82
570.30	514.92
570.46	472.79
570.62	589.82
570.78	451.72
570.95	437.68
571.11	514.92
571.27	491.51
571.43	514.92
571.60	421.30
571.76	538.32
571.92	505.56
572.09	451.72
572.25	496.19
572.41	505.56
572.57	500.87
572.74	571.09
572.90	482.15
573.06	578.11
573.22	578.11
573.38	540.66
573.55	561.73
573.71	613.22
573.87	582.79
574.03	559.39
574.20	524.28
574.36	603.86
574.52	589.82
574.68	664.71
574.84	650.67
575.01	641.31
575.17	681.10
575.33	725.57
575.49	788.76
575.65	844.93
575.82	807.48
575.98	957.28
576.14	1055.58
576.30	2045.63
576.46	6366.26
576.62	12308.88
576.79	13935.55
576.95	9881.74
577.11	6558.18
577.27	4648.30
577.43	2977.16
577.59	2143.93
577.75	1722.63
577.92	1406.66
578.08	1336.45
578.24	1495.60
578.40	2197.76
578.56	6047.94
578.72	11014.56
578.88	12444.63
579.04	9518.96
579.21	6312.42
579.37	4688.09
579.53	3726.13
579.69	3499.10
579.85	4245.73
580.01	4990.02
580.17	4746.61
580.33	4205.94
580.49	3700.39
580.65	3173.77
580.82	2918.65
580.98	2860.13
581.14	2829.71
581.30	2967.80
581.46	3290.79
581.62	3400.80
581.78	3604.42
581.94	3847.84
582.10	4311.27
582.26	4355.74
582.42	4723.20
582.58	4629.58
582.74	4667.03
582.90	4880.02
583.06	4983.00
583.22	4903.42
583.38	4748.95
583.54	4674.05
583.70	4709.16
583.86	4777.03
584.02	4472.76
584.18	4608.51
584.34	4688.09
584.50	4507.87
584.66	4386.16
584.82	4210.62
584.98	4166.15
585.14	4098.28
585.30	3953.16
585.46	4126.36
585.62	3997.64
585.78	3838.48
585.94	4051.47
586.10	4121.68
586.26	4435.32
586.42	4910.44
586.58	5619.63
586.74	7009.90
586.90	8549.98
587.06	9687.48
587.22	9558.75
587.38	8470.40
587.54	7433.54
587.70	6291.36
587.86	5067.26
588.02	4332.33
588.18	3967.21
588.34	3536.55
588.49	3208.87
588.65	3162.06
588.81	2890.56
588.97	2836.73
589.13	2745.45
589.29	2635.44
589.45	2614.38
589.61	2693.96
589.77	2654.17
589.93	2743.11
590.08	2736.09
590.24	2942.05
590.40	2906.95
590.56	3019.29
590.72	2981.84
590.88	3063.76
591.04	3274.41
591.20	3246.32
591.35	3559.95
591.51	3644.21
591.67	3896.99
591.83	4056.15
591.99	4416.59
592.15	4692.77
592.31	5172.58
592.46	5682.82
592.62	6132.20
592.78	6534.78
592.94	6705.63
593.10	6630.74
593.26	6399.02
593.41	5919.21
593.57	5172.58
593.73	4706.82
593.89	4238.71
594.05	3716.77
594.20	3206.53
594.36	3108.23
594.52	2862.48
594.68	2705.66
594.84	2581.61
594.99	2551.18
595.15	2464.58
595.31	2448.20
595.47	2471.61
595.62	2452.88
595.78	2342.88
595.94	2298.41
596.10	2375.64
596.25	2448.20
596.41	2352.24
596.57	2382.67
596.73	2307.77
596.88	2307.77
597.04	2436.50
597.20	2427.14
597.36	2443.52
597.51	2523.10
597.67	2656.51
597.83	2708.00
597.99	2890.56
598.14	3038.02
598.30	3232.28
598.46	3368.03
598.61	3588.04
598.77	3740.18
598.93	3948.48
599.09	3939.12
599.24	4149.77
599.40	3960.19
599.56	4009.34
599.71	3794.01
599.87	3475.70
600.03	3318.88
600.18	3045.04
600.34	2970.14
600.50	2698.64
600.65	2537.14
600.81	2485.65
600.97	2277.34
601.12	2174.36
601.28	2078.40
601.44	2017.54
601.59	1863.07
601.75	1933.28
601.91	1891.15
602.06	1806.89
602.22	1813.92
602.37	1687.53
602.53	1624.33
602.69	1645.40
602.84	1624.33
603.00	1568.16
603.16	1717.95
603.31	1722.63
603.47	1666.46
603.62	1565.82
603.78	1790.51
603.94	1762.42
604.09	1724.97
604.25	1785.83
604.40	1916.90
604.56	1928.60
604.71	1919.24
604.87	1966.05
605.03	1975.41
605.18	1991.80
