SpectraSuite Data File
++++++++++++++++++++++++++++++++++++
Date: Fri Oct 04 11:42:17 GMT-05:00 2013
User: price-jones
Dark Spectrum Present: No
Reference Spectrum Present: No
Number of Sampled Component Spectra: 1
Spectrometers: USB2+H05261
Integration Time (usec): 100000 (USB2+H05261)
Spectra Averaged: 1 (USB2+H05261)
Boxcar Smoothing: 0 (USB2+H05261)
Correct for Electrical Dark: No (USB2+H05261)
Strobe/Lamp Enabled: No (USB2+H05261)
Correct for Detector Non-linearity: No (USB2+H05261)
Correct for Stray Light: No (USB2+H05261)
Number of Pixels in Processed Spectrum: 2048
>>>>>Begin Processed Spectral Data<<<<<
365.73	9.36
365.92	9.36
366.12	9.36
366.32	0.00
366.52	0.00
366.72	0.00
366.91	0.00
367.11	0.00
367.31	0.00
367.51	0.00
367.70	0.00
367.90	0.00
368.10	0.00
368.30	0.00
368.49	0.00
368.69	4.68
368.89	0.00
369.09	0.00
369.28	0.00
369.48	0.00
369.68	0.00
369.87	0.00
370.07	0.00
370.27	0.00
370.47	81.92
370.66	266.82
370.86	248.10
371.06	308.95
371.25	311.29
371.45	259.80
371.65	271.50
371.84	159.16
372.04	220.01
372.24	322.99
372.44	285.55
372.63	304.27
372.83	320.65
373.03	269.16
373.22	189.58
373.42	325.33
373.62	294.91
373.81	374.49
374.01	276.18
374.21	264.48
374.40	257.46
374.60	327.68
374.79	292.57
374.99	297.25
375.19	416.62
375.38	379.17
375.58	337.04
375.78	358.10
375.97	332.36
376.17	386.19
376.37	360.44
376.56	458.74
376.76	348.74
376.95	421.30
377.15	479.81
377.35	376.83
377.54	465.77
377.74	430.66
377.93	428.32
378.13	444.70
378.33	428.32
378.52	372.15
378.72	325.33
378.91	381.51
379.11	365.12
379.31	313.63
379.50	425.98
379.70	320.65
379.89	379.17
380.09	470.45
380.28	390.87
380.48	435.34
380.68	360.44
380.87	393.21
381.07	369.80
381.26	425.98
381.46	299.59
381.65	327.68
381.85	229.37
382.04	332.36
382.24	311.29
382.43	322.99
382.63	222.35
382.83	308.95
383.02	236.39
383.22	327.68
383.41	346.40
383.61	325.33
383.80	297.25
384.00	409.59
384.19	337.04
384.39	465.77
384.58	505.56
384.78	444.70
384.97	444.70
385.17	367.46
385.36	322.99
385.56	353.42
385.75	341.72
385.95	372.15
386.14	376.83
386.34	463.43
386.53	386.19
386.72	362.78
386.92	353.42
387.11	400.23
387.31	369.80
387.50	437.68
387.70	318.31
387.89	409.59
388.09	393.21
388.28	315.97
388.48	397.89
388.67	393.21
388.86	500.87
389.06	486.83
389.25	458.74
389.45	433.00
389.64	461.09
389.84	468.11
390.03	444.70
390.22	491.51
390.42	521.94
390.61	482.15
390.81	493.85
391.00	524.28
391.19	554.71
391.39	589.82
391.58	465.77
391.78	449.38
391.97	521.94
392.16	500.87
392.36	484.49
392.55	369.80
392.75	220.01
392.94	276.18
393.13	301.93
393.33	280.86
393.52	425.98
393.71	423.64
393.91	482.15
394.10	447.04
394.29	468.11
394.49	507.90
394.68	566.41
394.88	550.03
395.07	662.37
395.26	545.34
395.46	545.34
395.65	496.19
395.84	472.79
396.04	521.94
396.23	358.10
396.42	292.57
396.62	280.86
396.81	409.59
397.00	411.93
397.19	489.17
397.39	603.86
397.58	594.50
397.77	648.33
397.97	667.05
398.16	711.52
398.35	674.07
398.55	643.65
398.74	674.07
398.93	746.63
399.12	727.91
399.32	688.12
399.51	655.35
399.70	791.10
399.90	660.03
400.09	678.76
400.28	821.53
400.47	823.87
400.67	791.10
400.86	823.87
401.05	812.17
401.24	770.04
401.44	898.77
401.63	793.44
401.82	844.93
402.01	786.42
402.21	884.72
402.40	873.02
402.59	793.44
402.78	737.27
402.97	746.63
403.17	781.74
403.36	753.65
403.55	819.19
403.74	882.38
403.93	814.51
404.13	957.28
404.32	866.00
404.51	868.34
404.70	889.40
404.89	866.00
405.09	844.93
405.28	784.08
405.47	765.36
405.66	788.76
405.85	732.59
406.05	720.88
406.24	777.06
406.43	821.53
406.62	830.89
406.81	943.24
407.00	812.17
407.20	802.80
407.39	786.42
407.58	821.53
407.77	915.15
407.96	924.51
408.15	983.02
408.34	791.10
408.54	863.66
408.73	924.51
408.92	882.38
409.11	940.90
409.30	926.85
409.49	763.01
409.68	704.50
409.87	849.61
410.07	812.17
410.26	777.06
410.45	903.45
410.64	901.11
410.83	983.02
411.02	940.90
411.21	922.17
411.40	978.34
411.59	943.24
411.78	1011.11
411.98	964.30
412.17	910.47
412.36	917.49
412.55	908.13
412.74	896.43
412.93	926.85
413.12	931.53
413.31	1050.90
413.50	992.39
413.69	938.55
413.88	1011.11
414.07	933.87
414.26	1022.81
414.45	1027.50
414.64	943.24
414.83	976.00
415.02	1006.43
415.22	1020.47
415.41	1020.47
415.60	1078.99
415.79	1095.37
415.98	1156.22
416.17	1104.73
416.36	1074.31
416.55	997.07
416.74	978.34
416.93	1025.15
417.12	1008.77
417.31	980.68
417.50	1064.94
417.69	1114.10
417.88	1050.90
418.07	997.07
418.26	999.41
418.45	1069.62
418.64	1088.35
418.83	1097.71
419.02	1123.46
419.21	1093.03
419.39	973.66
419.58	1015.79
419.77	990.05
419.96	1086.01
420.15	1163.25
420.34	1128.14
420.53	1067.28
420.72	1200.69
420.91	1130.48
421.10	1153.88
421.29	1158.57
421.48	1193.67
421.67	1078.99
421.86	1050.90
422.05	1046.22
422.24	957.28
422.43	968.98
422.61	1050.90
422.80	1095.37
422.99	1036.86
423.18	1076.65
423.37	1060.26
423.56	1001.75
423.75	1083.67
423.94	1083.67
424.13	1027.50
424.32	968.98
424.50	1025.15
424.69	1043.88
424.88	1034.52
425.07	1088.35
425.26	1027.50
425.45	1039.20
425.64	1006.43
425.83	1043.88
426.01	1076.65
426.20	1088.35
426.39	968.98
426.58	997.07
426.77	938.55
426.96	917.49
427.15	903.45
427.33	968.98
427.52	947.92
427.71	1020.47
427.90	964.30
428.09	947.92
428.28	1015.79
428.46	966.64
428.65	1057.92
428.84	1006.43
429.03	971.32
429.22	912.81
429.40	947.92
429.59	826.21
429.78	833.23
429.97	816.85
430.16	732.59
430.34	823.87
430.53	772.38
430.72	748.97
430.91	844.93
431.10	887.06
431.28	1116.44
431.47	1233.46
431.66	1207.72
431.85	1029.84
432.03	1090.69
432.22	1032.18
432.41	990.05
432.60	1146.86
432.79	1219.42
432.97	1125.80
433.16	1121.12
433.35	1011.11
433.54	964.30
433.72	1006.43
433.91	924.51
434.10	1015.79
434.28	1081.33
434.47	1186.65
434.66	1153.88
434.85	1156.22
435.03	1217.08
435.22	1654.76
435.41	1984.77
435.59	2026.90
435.78	1771.79
435.97	1495.60
436.16	1291.98
436.34	1196.01
436.53	1217.08
436.72	1242.82
436.90	1188.99
437.09	1280.27
437.28	1221.76
437.46	1238.14
437.65	1151.54
437.84	1076.65
438.02	1020.47
438.21	1132.82
438.40	1139.84
438.58	1111.75
438.77	1245.16
438.96	1210.06
439.14	1233.46
439.33	1296.66
439.52	1240.48
439.70	1268.57
439.89	1144.52
440.08	1205.38
440.26	1181.97
440.45	1266.23
440.63	1156.22
440.82	1289.64
441.01	1320.06
441.19	1355.17
441.38	1362.19
441.57	1376.24
441.75	1430.07
441.94	1343.47
442.12	1343.47
442.31	1331.76
442.50	1364.53
442.68	1336.45
442.87	1387.94
443.05	1355.17
443.24	1329.42
443.43	1479.22
443.61	1420.71
443.80	1460.49
443.98	1359.85
444.17	1364.53
444.35	1434.75
444.54	1420.71
444.73	1430.07
444.91	1451.13
445.10	1413.68
445.28	1348.15
445.47	1170.27
445.65	1256.87
445.84	1352.83
446.02	1380.92
446.21	1338.79
446.39	1430.07
446.58	1390.28
446.77	1416.02
446.95	1320.06
447.14	1446.45
447.32	1568.16
447.51	1451.13
447.69	1441.77
447.88	1348.15
448.06	1427.73
448.25	1409.00
448.43	1434.75
448.62	1352.83
448.80	1427.73
448.99	1416.02
449.17	1390.28
449.36	1479.22
449.54	1437.09
449.73	1490.92
449.91	1526.03
450.10	1434.75
450.28	1582.20
450.46	1575.18
450.65	1607.95
450.83	1514.33
451.02	1526.03
451.20	1526.03
451.39	1509.65
451.57	1458.15
451.76	1373.89
451.94	1385.60
452.13	1458.15
452.31	1432.41
452.49	1341.13
452.68	1261.55
452.86	1369.21
453.05	1357.51
453.23	1437.09
453.42	1507.30
453.60	1420.71
453.78	1432.41
453.97	1434.75
454.15	1467.52
454.34	1437.09
454.52	1523.69
454.70	1481.56
454.89	1357.51
455.07	1523.69
455.26	1486.24
455.44	1486.24
455.62	1493.26
455.81	1544.75
455.99	1579.86
456.17	1465.18
456.36	1600.93
456.54	1441.77
456.73	1441.77
456.91	1598.59
457.09	1558.80
457.28	1589.22
457.46	1547.09
457.64	1542.41
457.83	1565.82
458.01	1416.02
458.19	1469.86
458.38	1612.63
458.56	1589.22
458.74	1514.33
458.93	1591.56
459.11	1514.33
459.29	1479.22
459.48	1593.90
459.66	1528.37
459.84	1444.11
460.03	1614.97
460.21	1514.33
460.39	1577.52
460.57	1687.53
460.76	1544.75
460.94	1533.05
461.12	1626.67
461.31	1593.90
461.49	1549.43
461.67	1547.09
461.85	1750.72
462.04	1610.29
462.22	1795.19
462.40	1460.49
462.59	1652.42
462.77	1556.46
462.95	1680.50
463.13	1577.52
463.32	1631.35
463.50	1600.93
463.68	1544.75
463.86	1638.38
464.05	1664.12
464.23	1565.82
464.41	1533.05
464.59	1549.43
464.78	1568.16
464.96	1643.06
465.14	1497.94
465.32	1490.92
465.50	1563.48
465.69	1610.29
465.87	1437.09
466.05	1509.65
466.23	1446.45
466.41	1540.07
466.60	1507.30
466.78	1465.18
466.96	1497.94
467.14	1500.28
467.32	1540.07
467.51	1626.67
467.69	1511.99
467.87	1519.01
468.05	1610.29
468.23	1582.20
468.41	1647.74
468.60	1556.46
468.78	1568.16
468.96	1577.52
469.14	1586.88
469.32	1565.82
469.50	1474.54
469.69	1582.20
469.87	1516.67
470.05	1572.84
470.23	1380.92
470.41	1441.77
470.59	1526.03
470.77	1547.09
470.95	1607.95
471.14	1600.93
471.32	1568.16
471.50	1692.21
471.68	1589.22
471.86	1687.53
472.04	1703.91
472.22	1631.35
472.40	1474.54
472.58	1521.35
472.77	1507.30
472.95	1631.35
473.13	1687.53
473.31	1687.53
473.49	1579.86
473.67	1598.59
473.85	1647.74
474.03	1682.85
474.21	1715.61
474.39	1624.33
474.57	1778.81
474.75	1741.36
474.93	1746.04
475.12	1682.85
475.30	1570.50
475.48	1699.23
475.66	1783.49
475.84	1650.08
476.02	1652.42
476.20	1687.53
476.38	1699.23
476.56	1696.89
476.74	1666.46
476.92	1769.44
477.10	1842.00
477.28	1795.19
477.46	1884.13
477.64	1790.51
477.82	1942.64
478.00	1858.39
478.18	1851.36
478.36	1799.87
478.54	1778.81
478.72	1837.32
478.90	1860.73
479.08	1937.96
479.26	1905.20
479.44	1830.30
479.62	1905.20
479.80	1881.79
479.98	1825.62
480.16	1809.23
480.34	2012.86
480.52	1961.37
480.70	1940.30
480.88	1919.24
481.06	2047.97
481.24	2050.31
481.41	2017.54
481.59	1973.07
481.77	2029.24
481.95	1961.37
482.13	2101.80
482.31	2043.29
482.49	2022.22
482.67	2078.40
482.85	2132.23
483.03	2045.63
483.21	2106.48
483.39	2242.23
483.57	2172.02
483.74	2143.93
483.92	2090.10
484.10	2146.27
484.28	2139.25
484.46	2148.61
484.64	2150.95
484.82	2263.30
485.00	2122.87
485.18	2125.21
485.35	2097.12
485.53	1935.62
485.71	1837.32
485.89	1764.76
486.07	1746.04
486.25	2078.40
486.43	2085.42
486.61	2225.85
486.78	2066.69
486.96	2225.85
487.14	2211.81
487.32	2204.78
487.50	2331.17
487.68	2422.45
487.85	2368.62
488.03	2340.54
488.21	2265.64
488.39	2284.36
488.57	2352.24
488.75	2282.02
488.92	2586.29
489.10	2438.84
489.28	2576.93
489.46	2626.08
489.64	2546.50
489.81	2541.82
489.99	2516.08
490.17	2511.39
490.35	2574.59
490.53	2506.71
490.70	2373.30
490.88	2560.55
491.06	2656.51
491.24	2546.50
491.41	2614.38
491.59	2363.94
491.77	2380.32
491.95	2420.11
492.13	2497.35
492.30	2572.25
492.48	2635.44
492.66	2768.85
492.84	2719.70
493.01	2703.32
493.19	2647.15
493.37	2612.04
493.54	2567.57
493.72	2675.23
493.90	2703.32
494.08	2698.64
494.25	2850.77
494.43	2953.76
494.61	2808.64
494.79	2761.83
494.96	2796.94
495.14	2766.51
495.32	2661.19
495.49	2703.32
495.67	2757.15
495.85	2867.16
496.02	2862.48
496.20	2939.71
496.38	2932.69
496.55	2836.73
496.73	3023.97
496.91	3021.63
497.09	2963.12
497.26	2960.78
497.44	2911.63
497.62	2904.60
497.79	2862.48
497.97	2586.29
498.14	2686.94
498.32	2733.75
498.50	2949.08
498.67	2928.01
498.85	2855.45
499.03	2902.26
499.20	2981.84
499.38	2958.44
499.56	3012.27
499.73	2925.67
499.91	2855.45
500.08	2827.37
500.26	2752.47
500.44	2780.56
500.61	2857.79
500.79	2661.19
500.97	2787.58
501.14	2773.53
501.32	2775.88
501.49	2635.44
501.67	2750.13
501.84	2825.03
502.02	2818.00
502.20	2846.09
502.37	2918.65
502.55	2869.50
502.72	2956.10
502.90	2995.89
503.07	2963.12
503.25	2843.75
503.43	2705.66
503.60	2717.36
503.78	2572.25
503.95	2635.44
504.13	2799.28
504.30	2857.79
504.48	2813.32
504.65	2801.62
504.83	2836.73
505.01	2846.09
505.18	2970.14
505.36	3030.99
505.53	2958.44
505.71	2939.71
505.88	2911.63
506.06	2883.54
506.23	2916.31
506.41	2951.42
506.58	2853.11
506.76	2839.07
506.93	2860.13
507.11	2857.79
507.28	2843.75
507.46	2967.80
507.63	2738.43
507.81	2832.05
507.98	2810.98
508.16	2967.80
508.33	2834.39
508.50	2890.56
508.68	3030.99
508.85	3035.67
509.03	2993.55
509.20	3080.14
509.38	2970.14
509.55	2991.20
509.73	3049.72
509.90	3038.02
510.08	3089.51
510.25	2946.73
510.42	2974.82
510.60	2949.08
510.77	3012.27
510.95	3105.89
511.12	3112.91
511.30	3204.19
511.47	3091.85
511.64	3234.62
511.82	3141.00
511.99	3038.02
512.17	2953.76
512.34	3059.08
512.51	2881.20
512.69	3103.55
512.86	3096.53
513.04	2998.23
513.21	2899.92
513.38	2850.77
513.56	2897.58
513.73	2853.11
513.90	2808.64
514.08	2857.79
514.25	2913.97
514.43	3000.57
514.60	3021.63
514.77	2960.78
514.95	3126.96
515.12	2920.99
515.29	2984.18
515.47	3052.06
515.64	3059.08
515.81	3075.46
515.99	3028.65
516.16	2883.54
516.33	2677.57
516.51	2616.72
516.68	2539.48
516.85	2361.60
517.03	2523.10
517.20	2665.87
517.37	2916.31
517.54	2942.05
517.72	2979.50
517.89	2775.88
518.06	2544.16
518.24	2672.89
518.41	2794.60
518.58	2780.56
518.75	3005.25
518.93	2864.82
519.10	2796.94
519.27	2829.71
519.45	2972.48
519.62	3091.85
519.79	3061.42
519.96	3054.40
520.14	2960.78
520.31	2925.67
520.48	2796.94
520.65	2895.24
520.83	2998.23
521.00	3096.53
521.17	3082.49
521.34	2974.82
521.52	3068.44
521.69	2986.52
521.86	3049.72
522.03	3117.59
522.20	3098.87
522.38	2935.03
522.55	2916.31
522.72	2998.23
522.89	3052.06
523.07	2998.23
523.24	2974.82
523.41	3091.85
523.58	3183.13
523.75	3183.13
523.92	3215.90
524.10	3138.66
524.27	3105.89
524.44	3218.24
524.61	3173.77
524.78	3108.23
524.96	3084.83
525.13	3084.83
525.30	3129.30
525.47	3286.11
525.64	3274.41
525.81	3159.72
525.98	2981.84
526.16	2923.33
526.33	2621.40
526.50	2719.70
526.67	2663.53
526.84	2747.79
527.01	2799.28
527.18	2818.00
527.36	3059.08
527.53	3108.23
527.70	3108.23
527.87	3110.57
528.04	3131.64
528.21	3117.59
528.38	3325.90
528.55	3225.26
528.72	3499.10
528.89	3349.31
529.07	3208.87
529.24	3080.14
529.41	3098.87
529.58	3080.14
529.75	3045.04
529.92	3094.19
530.09	3194.83
530.26	3131.64
530.43	3150.36
530.60	3274.41
530.77	3262.71
530.94	3248.66
531.11	3063.76
531.28	3019.29
531.46	3117.59
531.63	3119.93
531.80	3056.74
531.97	3028.65
532.14	3033.33
532.31	2963.12
532.48	2761.83
532.65	2881.20
532.82	2902.26
532.99	3026.31
533.16	3108.23
533.33	3258.03
533.50	3141.00
533.67	2965.46
533.84	2904.60
534.01	3005.25
534.18	3038.02
534.35	3129.30
534.52	2920.99
534.69	3297.81
534.86	3089.51
535.03	3206.53
535.20	3155.04
535.37	3162.06
535.54	3262.71
535.71	3229.94
535.88	3211.22
536.05	3297.81
536.22	3141.00
536.38	3162.06
536.55	3063.76
536.72	3141.00
536.89	3002.91
537.06	3208.87
537.23	3211.22
537.40	3098.87
537.57	3192.49
537.74	3173.77
537.91	3269.73
538.08	3272.07
538.25	3187.81
538.42	3227.60
538.59	3215.90
538.75	3218.24
538.92	3122.27
539.09	3150.36
539.26	3314.20
539.43	3056.74
539.60	3185.47
539.77	3183.13
539.94	3286.11
540.11	3159.72
540.28	3171.43
540.44	3211.22
540.61	3368.03
540.78	3316.54
540.95	3508.46
541.12	3588.04
541.29	3705.07
541.46	3730.81
541.62	3873.59
541.79	3756.56
541.96	3707.41
542.13	3541.23
542.30	3602.08
542.47	3522.51
542.63	3562.30
542.80	3494.42
542.97	3529.53
543.14	3606.77
543.31	3531.87
543.48	3506.12
543.64	3723.79
543.81	3686.34
543.98	3719.11
544.15	3527.19
544.32	3529.53
544.48	3466.33
544.65	3513.14
544.82	3630.17
544.99	3630.17
545.16	3588.04
545.32	3599.74
545.49	4107.64
545.66	4690.43
545.83	5397.28
546.00	4936.19
546.16	4198.92
546.33	3786.99
546.50	3557.61
546.67	3492.08
546.83	3368.03
547.00	3431.23
547.17	3330.58
547.34	3417.18
547.50	3253.34
547.67	3159.72
547.84	3253.34
548.00	3344.63
548.17	3382.07
548.34	3258.03
548.51	3262.71
548.67	3318.88
548.84	3316.54
549.01	3314.20
549.18	3286.11
549.34	3288.45
549.51	3143.34
549.68	3157.38
549.84	3192.49
550.01	3103.55
550.18	3243.98
550.34	3213.56
550.51	3159.72
550.68	3208.87
550.84	3082.49
551.01	3035.67
551.18	3059.08
551.34	3040.36
551.51	3225.26
551.68	3091.85
551.84	3082.49
552.01	3073.12
552.18	3150.36
552.34	3052.06
552.51	2986.52
552.68	2965.46
552.84	3033.33
553.01	2937.37
553.18	3049.72
553.34	3005.25
553.51	3012.27
553.67	3026.31
553.84	3087.17
554.01	3000.57
554.17	2956.10
554.34	3122.27
554.51	2988.86
554.67	2930.35
554.84	3091.85
555.00	3009.93
555.17	2949.08
555.33	2920.99
555.50	2920.99
555.67	2874.18
555.83	2862.48
556.00	2942.05
556.16	2904.60
556.33	2925.67
556.50	2822.69
556.66	2909.29
556.83	2785.24
556.99	2757.15
557.16	2771.19
557.32	2843.75
557.49	2916.31
557.65	2855.45
557.82	2705.66
557.98	2726.72
558.15	2796.94
558.32	2726.72
558.48	2700.98
558.65	2668.21
558.81	2684.59
558.98	2738.43
559.14	2773.53
559.31	2799.28
559.47	2785.24
559.64	2750.13
559.80	2722.04
559.97	2712.68
560.13	2766.51
560.30	2750.13
560.46	2724.38
560.63	2789.92
560.79	2951.42
560.96	2787.58
561.12	2588.63
561.29	2818.00
561.45	2705.66
561.61	2691.62
561.78	2820.35
561.94	2698.64
562.11	2766.51
562.27	2696.30
562.44	2661.19
562.60	2750.13
562.77	2818.00
562.93	2715.02
563.10	2895.24
563.26	2733.75
563.42	2656.51
563.59	2738.43
563.75	2651.83
563.92	2820.35
564.08	2581.61
564.24	2635.44
564.41	2705.66
564.57	2750.13
564.74	2710.34
564.90	2759.49
565.07	2689.28
565.23	2677.57
565.39	2616.72
565.56	2586.29
565.72	2623.74
565.88	2635.44
566.05	2616.72
566.21	2647.15
566.38	2700.98
566.54	2731.41
566.70	2635.44
566.87	2700.98
567.03	2689.28
567.19	2679.91
567.36	2731.41
567.52	2628.42
567.68	2661.19
567.85	2499.69
568.01	2579.27
568.17	2509.05
568.34	2396.71
568.50	2619.06
568.66	2382.67
568.83	2665.87
568.99	2480.97
569.15	2471.61
569.32	2588.63
569.48	2455.22
569.64	2490.33
569.81	2513.74
569.97	2462.24
570.13	2490.33
570.30	2413.09
570.46	2438.84
570.62	2303.09
570.78	2370.96
570.95	2359.26
571.11	2471.61
571.27	2434.16
571.43	2473.95
571.60	2387.35
571.76	2422.45
571.92	2621.40
572.09	2490.33
572.25	2567.57
572.41	2530.12
572.57	2504.37
572.74	2574.59
572.90	2518.42
573.06	2523.10
573.22	2597.99
573.38	2635.44
573.55	2499.69
573.71	2511.39
573.87	2443.52
574.03	2422.45
574.20	2436.50
574.36	2490.33
574.52	2387.35
574.68	2490.33
574.84	2340.54
575.01	2551.18
575.17	2356.92
575.33	2410.75
575.49	2413.09
575.65	2377.98
575.82	2385.01
575.98	2487.99
576.14	2497.35
576.30	2487.99
576.46	2626.08
576.62	2846.09
576.79	2899.92
576.95	2703.32
577.11	2633.10
577.27	2523.10
577.43	2485.65
577.59	2335.85
577.75	2558.21
577.92	2373.30
578.08	2331.17
578.24	2298.41
578.40	2340.54
578.56	2558.21
578.72	2729.06
578.88	2801.62
579.04	2679.91
579.21	2612.04
579.37	2539.48
579.53	2513.74
579.69	2483.31
579.85	2590.97
580.01	2640.12
580.17	2532.46
580.33	2546.50
580.49	2502.03
580.65	2511.39
580.82	2450.54
580.98	2436.50
581.14	2471.61
581.30	2516.08
581.46	2579.27
581.62	2586.29
581.78	2502.03
581.94	2518.42
582.10	2476.29
582.26	2502.03
582.42	2518.42
582.58	2691.62
582.74	2534.80
582.90	2590.97
583.06	2551.18
583.22	2607.36
583.38	2588.63
583.54	2466.92
583.70	2586.29
583.86	2590.97
584.02	2562.89
584.18	2626.08
584.34	2560.55
584.50	2600.34
584.66	2541.82
584.82	2518.42
584.98	2495.01
585.14	2345.22
585.30	2310.11
585.46	2347.56
585.62	2324.15
585.78	2410.75
585.94	2328.83
586.10	2331.17
586.26	2368.62
586.42	2513.74
586.58	2420.11
586.74	2509.05
586.90	2539.48
587.06	2483.31
587.22	2541.82
587.38	2469.27
587.54	2420.11
587.70	2422.45
587.86	2436.50
588.02	2104.14
588.18	2104.14
588.34	2087.76
588.49	1973.07
588.65	1820.94
588.81	1746.04
588.97	1856.04
589.13	1806.89
589.29	1799.87
589.45	1832.64
589.61	1949.67
589.77	1937.96
589.93	1956.69
590.08	1998.82
590.24	2062.01
590.40	2246.91
590.56	2010.52
590.72	2080.74
590.88	1952.01
591.04	2008.18
591.20	2097.12
591.35	2045.63
591.51	2001.16
591.67	1898.17
591.83	1947.33
591.99	1980.09
592.15	2001.16
592.31	2038.61
592.46	2253.94
592.62	2237.55
592.78	2270.32
592.94	2246.91
593.10	2237.55
593.26	2272.66
593.41	2392.03
593.57	2204.78
593.73	2003.50
593.89	2153.29
594.05	1940.30
594.20	1902.86
594.36	1902.86
594.52	1930.94
594.68	1912.22
594.84	2054.99
594.99	2122.87
595.15	2010.52
595.31	2188.40
595.47	2071.37
595.62	2083.08
595.78	2076.06
595.94	2122.87
596.10	2120.53
596.25	1933.28
596.41	1966.05
596.57	1996.48
596.73	2001.16
596.88	1994.14
597.04	2176.70
597.20	1947.33
597.36	2022.22
597.51	2019.88
597.67	1940.30
597.83	2033.93
597.99	2190.74
598.14	2139.25
598.30	2167.34
598.46	2127.55
598.61	2139.25
598.77	2017.54
598.93	2174.36
599.09	2167.34
599.24	2157.97
