SpectraSuite Data File
++++++++++++++++++++++++++++++++++++
Date: Fri Oct 04 11:41:43 GMT-05:00 2013
User: price-jones
Dark Spectrum Present: No
Reference Spectrum Present: No
Number of Sampled Component Spectra: 1
Spectrometers: USB2+H05261
Integration Time (usec): 100000 (USB2+H05261)
Spectra Averaged: 1 (USB2+H05261)
Boxcar Smoothing: 0 (USB2+H05261)
Correct for Electrical Dark: No (USB2+H05261)
Strobe/Lamp Enabled: No (USB2+H05261)
Correct for Detector Non-linearity: No (USB2+H05261)
Correct for Stray Light: No (USB2+H05261)
Number of Pixels in Processed Spectrum: 2048
>>>>>Begin Processed Spectral Data<<<<<
365.73	30.43
365.92	30.43
366.12	30.43
366.32	0.00
366.52	0.00
366.72	0.00
366.91	0.00
367.11	0.00
367.31	0.00
367.51	0.00
367.70	0.00
367.90	37.45
368.10	0.00
368.30	0.00
368.49	0.00
368.69	0.00
368.89	0.00
369.09	0.00
369.28	0.00
369.48	0.00
369.68	0.00
369.87	4.68
370.07	67.88
370.27	53.83
370.47	21.06
370.66	11.70
370.86	32.77
371.06	131.07
371.25	102.98
371.45	67.88
371.65	128.73
371.84	74.90
372.04	77.24
372.24	102.98
372.44	65.54
372.63	98.30
372.83	215.33
373.03	154.48
373.22	67.88
373.42	128.73
373.62	220.01
373.81	142.77
374.01	154.48
374.21	173.20
374.40	187.24
374.60	198.95
374.79	98.30
374.99	170.86
375.19	138.09
375.38	140.43
375.58	58.51
375.78	184.90
375.97	154.48
376.17	205.97
376.37	142.77
376.56	138.09
376.76	163.84
376.95	170.86
377.15	154.48
377.35	112.35
377.54	119.37
377.74	194.26
377.93	119.37
378.13	212.99
378.33	131.07
378.52	74.90
378.72	88.94
378.91	149.79
379.11	126.39
379.31	196.60
379.50	159.16
379.70	140.43
379.89	95.96
380.09	135.75
380.28	166.18
380.48	98.30
380.68	117.03
380.87	142.77
381.07	187.24
381.26	147.45
381.46	84.26
381.65	79.58
381.85	149.79
382.04	110.01
382.24	133.41
382.43	84.26
382.63	70.22
382.83	46.81
383.02	95.96
383.22	224.69
383.41	154.48
383.61	208.31
383.80	227.03
384.00	124.05
384.19	138.09
384.39	170.86
384.58	65.54
384.78	138.09
384.97	128.73
385.17	147.45
385.36	189.58
385.56	128.73
385.75	93.62
385.95	147.45
386.14	58.51
386.34	126.39
386.53	98.30
386.72	124.05
386.92	229.37
387.11	138.09
387.31	168.52
387.50	93.62
387.70	117.03
387.89	145.11
388.09	98.30
388.28	124.05
388.48	100.64
388.67	173.20
388.86	84.26
389.06	95.96
389.25	182.56
389.45	138.09
389.64	145.11
389.84	191.92
390.03	142.77
390.22	163.84
390.42	135.75
390.61	107.66
390.81	147.45
391.00	121.71
391.19	138.09
391.39	93.62
391.58	126.39
391.78	147.45
391.97	191.92
392.16	65.54
392.36	159.16
392.55	170.86
392.75	79.58
392.94	126.39
393.13	142.77
393.33	140.43
393.52	95.96
393.71	133.41
393.91	84.26
394.10	95.96
394.29	63.19
394.49	135.75
394.68	170.86
394.88	149.79
395.07	166.18
395.26	84.26
395.46	208.31
395.65	126.39
395.84	145.11
396.04	142.77
396.23	196.60
396.42	147.45
396.62	81.92
396.81	173.20
397.00	107.66
397.19	145.11
397.39	229.37
397.58	105.32
397.77	152.13
397.97	147.45
398.16	175.54
398.35	152.13
398.55	161.50
398.74	182.56
398.93	156.82
399.12	180.22
399.32	187.24
399.51	161.50
399.70	198.95
399.90	163.84
400.09	212.99
400.28	180.22
400.47	170.86
400.67	184.90
400.86	135.75
401.05	248.10
401.24	182.56
401.44	194.26
401.63	215.33
401.82	203.63
402.01	159.16
402.21	222.35
402.40	201.29
402.59	273.84
402.78	243.42
402.97	311.29
403.17	280.86
403.36	285.55
403.55	458.74
403.74	807.48
403.93	2349.90
404.13	5998.79
404.32	10427.09
404.51	11520.12
404.70	7506.10
404.89	2712.68
405.09	802.80
405.28	346.40
405.47	327.68
405.66	217.67
405.85	255.12
406.05	294.91
406.24	196.60
406.43	271.50
406.62	264.48
406.81	322.99
407.00	379.17
407.20	760.67
407.39	1277.93
407.58	1596.25
407.77	1371.55
407.96	624.92
408.15	339.38
408.34	271.50
408.54	292.57
408.73	152.13
408.92	222.35
409.11	229.37
409.30	201.29
409.49	287.89
409.68	205.97
409.87	173.20
410.07	285.55
410.26	262.14
410.45	248.10
410.64	241.08
410.83	262.14
411.02	224.69
411.21	304.27
411.40	234.05
411.59	287.89
411.78	217.67
411.98	215.33
412.17	257.46
412.36	227.03
412.55	327.68
412.74	245.76
412.93	264.48
413.12	273.84
413.31	297.25
413.50	182.56
413.69	243.42
413.88	318.31
414.07	238.73
414.26	229.37
414.45	311.29
414.64	320.65
414.83	285.55
415.02	304.27
415.22	301.93
415.41	337.04
415.60	266.82
415.79	311.29
415.98	351.08
416.17	358.10
416.36	362.78
416.55	304.27
416.74	297.25
416.93	360.44
417.12	315.97
417.31	269.16
417.50	236.39
417.69	414.27
417.88	290.23
418.07	332.36
418.26	306.61
418.45	360.44
418.64	358.10
418.83	299.59
419.02	348.74
419.21	322.99
419.39	374.49
419.58	280.86
419.77	339.38
419.96	325.33
420.15	388.53
420.34	367.46
420.53	322.99
420.72	374.49
420.91	386.19
421.10	348.74
421.29	330.02
421.48	388.53
421.67	332.36
421.86	337.04
422.05	313.63
422.24	362.78
422.43	440.02
422.61	374.49
422.80	390.87
422.99	334.70
423.18	304.27
423.37	400.23
423.56	414.27
423.75	397.89
423.94	505.56
424.13	381.51
424.32	425.98
424.50	451.72
424.69	369.80
424.88	435.34
425.07	444.70
425.26	367.46
425.45	374.49
425.64	358.10
425.83	421.30
426.01	430.66
426.20	451.72
426.39	395.55
426.58	416.62
426.77	444.70
426.96	397.89
427.15	416.62
427.33	447.04
427.52	374.49
427.71	489.17
427.90	423.64
428.09	437.68
428.28	442.36
428.46	458.74
428.65	493.85
428.84	425.98
429.03	498.53
429.22	468.11
429.40	451.72
429.59	475.13
429.78	538.32
429.97	465.77
430.16	423.64
430.34	475.13
430.53	472.79
430.72	543.00
430.91	531.30
431.10	411.93
431.28	519.60
431.47	538.32
431.66	575.77
431.85	594.50
432.03	550.03
432.22	564.07
432.41	519.60
432.60	573.43
432.79	678.76
432.97	648.33
433.16	599.18
433.35	748.97
433.54	840.25
433.72	964.30
433.91	870.68
434.10	985.37
434.28	1172.61
434.47	1425.39
434.66	1633.69
434.85	1874.77
435.03	4262.12
435.22	15040.28
435.41	38408.19
435.59	54033.61
435.78	44971.05
435.97	19117.50
436.16	6813.30
436.34	2183.72
436.53	1310.70
436.72	1022.81
436.90	849.61
437.09	880.04
437.28	727.91
437.46	669.39
437.65	795.78
437.84	685.78
438.02	674.07
438.21	664.71
438.40	655.35
438.58	601.52
438.77	676.41
438.96	704.50
439.14	645.99
439.33	643.65
439.52	648.33
439.70	599.18
439.89	648.33
440.08	531.30
440.26	505.56
440.45	660.03
440.63	636.63
440.82	662.37
441.01	627.26
441.19	634.29
441.38	624.92
441.57	634.29
441.75	802.80
441.94	547.69
442.12	650.67
442.31	589.82
442.50	643.65
442.68	648.33
442.87	645.99
443.05	664.71
443.24	631.94
443.43	653.01
443.61	671.73
443.80	683.44
443.98	547.69
444.17	615.56
444.35	631.94
444.54	608.54
444.73	610.88
444.91	641.31
445.10	617.90
445.28	655.35
445.47	589.82
445.65	631.94
445.84	599.18
446.02	620.24
446.21	613.22
446.39	638.97
446.58	645.99
446.77	653.01
446.95	681.10
447.14	526.62
447.32	716.20
447.51	699.82
447.69	627.26
447.88	627.26
448.06	713.86
448.25	606.20
448.43	629.60
448.62	533.64
448.80	620.24
448.99	606.20
449.17	580.45
449.36	624.92
449.54	613.22
449.73	636.63
449.91	655.35
450.10	662.37
450.28	650.67
450.46	674.07
450.65	660.03
450.83	641.31
451.02	629.60
451.20	643.65
451.39	610.88
451.57	557.05
451.76	561.73
451.94	545.34
452.13	671.73
452.31	608.54
452.49	660.03
452.68	601.52
452.86	540.66
453.05	643.65
453.23	669.39
453.42	580.45
453.60	660.03
453.78	685.78
453.97	564.07
454.15	554.71
454.34	610.88
454.52	624.92
454.70	615.56
454.89	643.65
455.07	615.56
455.26	627.26
455.44	582.79
455.62	638.97
455.81	601.52
455.99	573.43
456.17	599.18
456.36	589.82
456.54	571.09
456.73	571.09
456.91	636.63
457.09	662.37
457.28	606.20
457.46	608.54
457.64	631.94
457.83	589.82
458.01	566.41
458.19	543.00
458.38	566.41
458.56	657.69
458.74	638.97
458.93	692.80
459.11	587.47
459.29	613.22
459.48	545.34
459.66	566.41
459.84	681.10
460.03	713.86
460.21	627.26
460.39	629.60
460.57	617.90
460.76	624.92
460.94	592.16
461.12	610.88
461.31	617.90
461.49	575.77
461.67	594.50
461.85	610.88
462.04	636.63
462.22	748.97
462.40	603.86
462.59	641.31
462.77	514.92
462.95	554.71
463.13	587.47
463.32	636.63
463.50	599.18
463.68	596.84
463.86	587.47
464.05	564.07
464.23	617.90
464.41	608.54
464.59	620.24
464.78	702.16
464.96	667.05
465.14	571.09
465.32	636.63
465.50	594.50
465.69	610.88
465.87	543.00
466.05	580.45
466.23	564.07
466.41	601.52
466.60	695.14
466.78	690.46
466.96	629.60
467.14	573.43
467.32	645.99
467.51	674.07
467.69	566.41
467.87	543.00
468.05	519.60
468.23	641.31
468.41	610.88
468.60	486.83
468.78	543.00
468.96	564.07
469.14	528.96
469.32	526.62
469.50	500.87
469.69	589.82
469.87	587.47
470.05	510.24
470.23	533.64
470.41	566.41
470.59	510.24
470.77	493.85
470.95	533.64
471.14	578.11
471.32	629.60
471.50	622.58
471.68	638.97
471.86	641.31
472.04	533.64
472.22	566.41
472.40	557.05
472.58	636.63
472.77	578.11
472.95	566.41
473.13	610.88
473.31	524.28
473.49	622.58
473.67	528.96
473.85	545.34
474.03	573.43
474.21	676.41
474.39	587.47
474.57	648.33
474.75	517.26
474.93	578.11
475.12	606.20
475.30	594.50
475.48	514.92
475.66	566.41
475.84	573.43
476.02	550.03
476.20	543.00
476.38	662.37
476.56	533.64
476.74	582.79
476.92	559.39
477.10	615.56
477.28	634.29
477.46	664.71
477.64	622.58
477.82	547.69
478.00	613.22
478.18	615.56
478.36	674.07
478.54	751.31
478.72	662.37
478.90	657.69
479.08	704.50
479.26	678.76
479.44	723.23
479.62	758.33
479.80	781.74
479.98	774.72
480.16	856.64
480.34	854.30
480.52	753.65
480.70	910.47
480.88	1020.47
481.06	999.41
481.24	1043.88
481.41	1018.13
481.59	1160.91
481.77	1294.32
481.95	1313.04
482.13	1446.45
482.31	1430.07
482.49	1551.78
482.67	1605.61
482.85	1788.17
483.03	1863.07
483.21	2129.89
483.39	2321.81
483.57	2347.56
483.74	2523.10
483.92	2682.25
484.10	2710.34
484.28	2925.67
484.46	3007.59
484.64	3295.47
484.82	3365.69
485.00	3700.39
485.18	3887.63
485.35	4016.36
485.53	4320.63
485.71	4440.00
485.89	4521.92
486.07	4762.99
486.25	4919.81
486.43	4903.42
486.61	4891.72
486.78	5015.77
486.96	4753.63
487.14	5057.90
487.32	4863.63
487.50	4819.16
487.68	4903.42
487.85	4699.80
488.03	4678.73
488.21	4645.96
488.39	4568.73
488.57	4463.40
488.75	4229.35
488.92	4358.08
489.10	4074.87
489.28	3962.53
489.46	3929.76
489.64	3695.71
489.81	3791.67
489.99	3733.15
490.17	3632.51
490.35	3730.81
490.53	3630.17
490.70	3545.91
490.88	3641.87
491.06	3747.20
491.24	3981.25
491.41	4311.27
491.59	4067.85
491.77	3674.64
491.95	3613.79
492.13	3431.23
492.30	3396.12
492.48	3180.79
492.66	3049.72
492.84	3108.23
493.01	3047.38
493.19	2995.89
493.37	3213.56
493.54	3103.55
493.72	3059.08
493.90	2855.45
494.08	2883.54
494.25	2801.62
494.43	2848.43
494.61	2888.22
494.79	2799.28
494.96	2633.10
495.14	2572.25
495.32	2586.29
495.49	2560.55
495.67	2597.99
495.85	2471.61
496.02	2553.52
496.20	2424.80
496.38	2368.62
496.55	2230.53
496.73	2307.77
496.91	2349.90
497.09	2099.46
497.26	2094.78
497.44	2059.67
497.62	2008.18
497.79	2076.06
497.97	1970.73
498.14	1860.73
498.32	1959.03
498.50	1863.07
498.67	1797.53
498.85	1806.89
499.03	1750.72
499.20	1652.42
499.38	1603.27
499.56	1598.59
499.73	1755.40
499.91	1598.59
500.08	1558.80
500.26	1399.64
500.44	1455.81
500.61	1369.21
500.79	1294.32
500.97	1308.36
501.14	1310.70
501.32	1289.64
501.49	1240.48
501.67	1137.50
501.84	1167.93
502.02	1093.03
502.20	1191.33
502.37	1011.11
502.55	1043.88
502.72	936.21
502.90	980.68
503.07	1013.45
503.25	908.13
503.43	891.74
503.60	826.21
503.78	837.91
503.95	858.98
504.13	870.68
504.30	868.34
504.48	849.61
504.65	723.23
504.83	819.19
505.01	777.06
505.18	744.29
505.36	711.52
505.53	678.76
505.71	716.20
505.88	748.97
506.06	699.82
506.23	706.84
506.41	638.97
506.58	683.44
506.76	671.73
506.93	662.37
507.11	594.50
507.28	603.86
507.46	627.26
507.63	634.29
507.81	627.26
507.98	582.79
508.16	631.94
508.33	578.11
508.50	657.69
508.68	580.45
508.85	683.44
509.03	704.50
509.20	648.33
509.38	702.16
509.55	681.10
509.73	653.01
509.90	587.47
510.08	587.47
510.25	582.79
510.42	519.60
510.60	606.20
510.77	606.20
510.95	650.67
511.12	470.45
511.30	575.77
511.47	550.03
511.64	568.75
511.82	580.45
511.99	500.87
512.17	547.69
512.34	524.28
512.51	559.39
512.69	543.00
512.86	545.34
513.04	493.85
513.21	486.83
513.38	503.22
513.56	517.26
513.73	521.94
513.90	454.06
514.08	447.04
514.25	496.19
514.43	533.64
514.60	491.51
514.77	472.79
514.95	435.34
515.12	484.49
515.29	437.68
515.47	531.30
515.64	484.49
515.81	470.45
515.99	472.79
516.16	552.37
516.33	599.18
516.51	486.83
516.68	465.77
516.85	472.79
517.03	491.51
517.20	465.77
517.37	435.34
517.54	547.69
517.72	444.70
517.89	355.76
518.06	395.55
518.24	393.21
518.41	503.22
518.58	468.11
518.75	388.53
518.93	407.25
519.10	402.57
519.27	430.66
519.45	498.53
519.62	428.32
519.79	477.47
519.96	437.68
520.14	468.11
520.31	456.40
520.48	414.27
520.65	397.89
520.83	404.91
521.00	395.55
521.17	433.00
521.34	451.72
521.52	400.23
521.69	395.55
521.86	400.23
522.03	400.23
522.20	512.58
522.38	414.27
522.55	440.02
522.72	365.12
522.89	507.90
523.07	435.34
523.24	472.79
523.41	479.81
523.58	435.34
523.75	404.91
523.92	407.25
524.10	416.62
524.27	411.93
524.44	428.32
524.61	521.94
524.78	470.45
524.96	470.45
525.13	461.09
525.30	484.49
525.47	540.66
525.64	458.74
525.81	535.98
525.98	472.79
526.16	451.72
526.33	430.66
526.50	484.49
526.67	500.87
526.84	500.87
527.01	538.32
527.18	552.37
527.36	524.28
527.53	592.16
527.70	711.52
527.87	634.29
528.04	648.33
528.21	507.90
528.38	479.81
528.55	571.09
528.72	575.77
528.89	627.26
529.07	528.96
529.24	524.28
529.41	543.00
529.58	674.07
529.75	550.03
529.92	681.10
530.09	594.50
530.26	688.12
530.43	603.86
530.60	631.94
530.77	779.40
530.94	755.99
531.11	744.29
531.28	723.23
531.46	791.10
531.63	844.93
531.80	931.53
531.97	1015.79
532.14	1121.12
532.31	1266.23
532.48	1511.99
532.65	1720.29
532.82	1963.71
532.99	2279.68
533.16	2656.51
533.33	2892.90
533.50	2813.32
533.67	2260.96
533.84	1916.90
534.01	1774.13
534.18	1687.53
534.35	1657.10
534.52	1528.37
534.69	1659.44
534.86	1696.89
535.03	1605.61
535.20	1858.39
535.37	2038.61
535.54	2127.55
535.71	2160.31
535.88	2258.62
536.05	2562.89
536.22	2593.31
536.38	2853.11
536.55	3190.15
536.72	3604.42
536.89	3833.80
537.06	4318.29
537.23	4931.51
537.40	5266.21
537.57	5729.63
537.74	5923.90
537.91	6485.62
538.08	6499.67
538.25	6717.34
538.42	6551.16
538.59	6759.47
538.75	7028.63
538.92	7199.49
539.09	8042.08
539.26	9050.85
539.43	10083.03
539.60	11705.02
539.77	13095.30
539.94	14841.34
540.11	16437.58
540.28	18218.73
540.44	19779.87
540.61	21376.11
540.78	24683.29
540.95	29626.50
541.12	35807.86
541.29	41074.06
541.46	43782.06
541.62	43524.60
541.79	41638.13
541.96	37762.20
542.13	35463.80
542.30	33448.60
542.47	31386.58
542.63	29745.87
542.80	28355.59
542.97	27976.42
543.14	27981.10
543.31	27976.42
543.48	27522.36
543.64	28229.20
543.81	28657.52
543.98	28318.14
544.15	28919.66
544.32	29516.50
544.48	29160.73
544.65	28624.75
544.82	28526.45
544.99	28229.20
545.16	28889.23
545.32	30176.53
545.49	43227.35
545.66	61668.44
545.83	65535.00
546.00	65535.00
546.16	64182.17
546.33	48608.25
546.50	37434.53
546.67	29460.32
546.83	26125.06
547.00	24884.58
547.17	23819.63
547.34	23065.98
547.50	22029.12
547.67	21177.17
547.84	20011.58
548.00	19623.05
548.17	18764.07
548.34	17923.82
548.51	17261.45
548.67	16610.78
548.84	15850.11
549.01	14836.66
549.18	14284.29
549.34	13729.58
549.51	13212.32
549.68	12711.45
549.84	12163.76
550.01	11665.23
550.18	10906.90
550.34	10759.44
550.51	10104.09
550.68	9650.03
550.84	9036.81
551.01	8744.24
551.18	7988.25
551.34	7592.70
551.51	7459.29
551.68	7152.68
551.84	6787.55
552.01	6502.01
552.18	6244.55
552.34	6167.31
552.51	5706.23
552.68	5572.82
552.84	5298.97
553.01	5053.22
553.18	5050.88
553.34	4898.74
553.51	4788.74
553.67	4524.26
553.84	4442.34
554.01	4102.96
554.17	3794.01
554.34	3644.21
554.51	3267.39
554.67	3304.84
554.84	3007.59
555.00	2787.58
555.17	2572.25
555.33	2581.61
555.50	2401.39
555.67	2375.64
555.83	2087.76
556.00	2275.00
556.16	2183.72
556.33	2019.88
556.50	1921.58
556.66	1909.88
556.83	1767.10
556.99	1741.36
557.16	1713.27
557.32	1668.80
557.49	1598.59
557.65	1490.92
557.82	1474.54
557.98	1430.07
558.15	1357.51
558.32	1378.58
558.48	1434.75
558.65	1240.48
558.81	1282.61
558.98	1275.59
559.14	1254.53
559.31	1193.67
559.47	1158.57
559.64	1172.61
559.80	1203.04
559.97	1123.46
560.13	1071.97
560.30	1048.56
560.46	983.02
560.63	1062.60
560.79	1137.50
560.96	1116.44
561.12	1135.16
561.29	1130.48
561.45	1083.67
561.61	1153.88
561.78	1179.63
561.94	1198.35
562.11	983.02
562.27	1020.47
562.44	1074.31
562.60	1001.75
562.77	1036.86
562.93	1069.62
563.10	997.07
563.26	1025.15
563.42	992.39
563.59	952.60
563.75	929.19
563.92	957.28
564.08	821.53
564.24	940.90
564.41	950.26
564.57	877.70
564.74	844.93
564.90	877.70
565.07	851.96
565.23	861.32
565.39	826.21
565.56	877.70
565.72	781.74
565.88	758.33
566.05	814.51
566.21	772.38
566.38	866.00
566.54	833.23
566.70	828.55
566.87	842.59
567.03	851.96
567.19	901.11
567.36	901.11
567.52	816.85
567.68	910.47
567.85	802.80
568.01	875.36
568.17	870.68
568.34	840.25
568.50	997.07
568.66	849.61
568.83	898.77
568.99	957.28
569.15	816.85
569.32	772.38
569.48	770.04
569.64	784.08
569.81	706.84
569.97	706.84
570.13	753.65
570.30	655.35
570.46	578.11
570.62	634.29
570.78	631.94
570.95	596.84
571.11	634.29
571.27	585.13
571.43	582.79
571.60	566.41
571.76	648.33
571.92	634.29
572.09	594.50
572.25	664.71
572.41	613.22
572.57	669.39
572.74	624.92
572.90	655.35
573.06	629.60
573.22	685.78
573.38	699.82
573.55	688.12
573.71	737.27
573.87	737.27
574.03	620.24
574.20	744.29
574.36	830.89
574.52	812.17
574.68	851.96
574.84	786.42
575.01	800.46
575.17	926.85
575.33	1025.15
575.49	1029.84
575.65	1172.61
575.82	1132.82
575.98	1303.68
576.14	1451.13
576.30	2555.86
576.46	7854.84
576.62	16339.28
576.79	25057.78
576.95	17303.58
577.11	10017.49
577.27	6614.35
577.43	4229.35
577.59	2743.11
577.75	2223.51
577.92	2104.14
578.08	2031.58
578.24	2090.10
578.40	2963.12
578.56	7353.96
578.72	14850.70
578.88	22827.24
579.04	16549.93
579.21	9446.40
579.37	6621.38
579.53	5228.76
579.69	4774.69
579.85	5902.83
580.01	7550.57
580.17	7796.32
580.33	6619.04
580.49	5270.89
580.65	4613.20
580.82	4215.30
580.98	3953.16
581.14	4128.70
581.30	4318.29
581.46	4660.01
581.62	4973.64
581.78	5444.09
581.94	6001.13
582.10	6293.70
582.26	6441.15
582.42	6911.60
582.58	6939.69
582.74	7140.97
582.90	7073.10
583.06	7059.06
583.22	7344.60
583.38	7279.07
583.54	7162.04
583.70	7197.15
583.86	7213.53
584.02	6829.68
584.18	6885.86
584.34	6759.47
584.50	6717.34
584.66	6583.93
584.82	6422.43
584.98	6459.88
585.14	6207.10
585.30	6029.22
585.46	6029.22
585.62	6040.92
585.78	5973.05
585.94	6003.47
586.10	6069.01
586.26	6469.24
586.42	7265.02
586.58	8212.94
586.74	10106.43
586.90	12659.96
587.06	14637.71
587.22	14967.73
587.38	13287.22
587.54	11342.24
587.70	9392.57
587.86	7812.71
588.02	6516.05
588.18	5907.51
588.34	5114.07
588.49	4718.52
588.65	4432.97
588.81	4372.12
588.97	4100.62
589.13	3946.14
589.29	3922.74
589.45	3939.12
589.61	3852.52
589.77	3920.40
589.93	3857.20
590.08	4074.87
590.24	4236.37
590.40	4278.50
590.56	4437.66
590.72	4634.26
590.88	4622.56
591.04	4758.31
591.20	4901.08
591.35	5249.82
591.51	5502.60
591.67	5781.12
591.83	5961.34
591.99	6443.49
592.15	6977.14
592.31	7808.03
592.46	8496.14
592.62	9607.90
592.78	9823.23
592.94	10274.95
593.10	10164.95
593.26	9729.61
593.41	9039.15
593.57	8292.52
593.73	7192.47
593.89	6349.87
594.05	5687.50
594.20	4950.23
594.36	4608.51
594.52	4154.45
594.68	4072.53
594.84	3733.15
594.99	3819.75
595.15	3630.17
595.31	3676.98
595.47	3543.57
595.62	3597.40
595.78	3506.12
595.94	3562.30
596.10	3508.46
596.25	3613.79
596.41	3595.06
596.57	3424.20
596.73	3571.66
596.88	3391.44
597.04	3571.66
597.20	3541.23
597.36	3616.13
597.51	3761.24
597.67	3861.88
597.83	3896.99
597.99	4334.67
598.14	4428.29
598.30	4706.82
598.46	5015.77
598.61	5298.97
598.77	5778.78
598.93	5860.70
599.09	5973.05
599.24	6307.74
599.40	6122.84
599.56	5991.77
599.71	5771.76
599.87	5444.09
600.03	5111.73
600.18	4634.26
600.34	4493.83
600.50	4182.54
600.65	3875.93
600.81	3667.62
600.97	3412.50
601.12	3229.94
601.28	3171.43
601.44	2899.92
601.59	2700.98
601.75	2759.49
601.91	2619.06
602.06	2424.80
602.22	2417.77
602.37	2303.09
602.53	2319.47
602.69	2312.45
602.84	2244.57
603.00	2235.21
603.16	2289.04
603.31	2347.56
603.47	2452.88
603.62	2532.46
603.78	2518.42
603.94	2715.02
604.09	2708.00
604.25	2738.43
