SpectraSuite Data File
++++++++++++++++++++++++++++++++++++
Date: Fri Oct 04 11:42:26 GMT-05:00 2013
User: price-jones
Dark Spectrum Present: No
Reference Spectrum Present: No
Number of Sampled Component Spectra: 1
Spectrometers: USB2+H05261
Integration Time (usec): 100000 (USB2+H05261)
Spectra Averaged: 1 (USB2+H05261)
Boxcar Smoothing: 0 (USB2+H05261)
Correct for Electrical Dark: No (USB2+H05261)
Strobe/Lamp Enabled: No (USB2+H05261)
Correct for Detector Non-linearity: No (USB2+H05261)
Correct for Stray Light: No (USB2+H05261)
Number of Pixels in Processed Spectrum: 2048
>>>>>Begin Processed Spectral Data<<<<<
365.73	51.49
365.92	51.49
366.12	51.49
366.32	0.00
366.52	0.00
366.72	0.00
366.91	0.00
367.11	0.00
367.31	0.00
367.51	0.00
367.70	0.00
367.90	0.00
368.10	0.00
368.30	0.00
368.49	0.00
368.69	28.09
368.89	0.00
369.09	0.00
369.28	0.00
369.48	0.00
369.68	0.00
369.87	9.36
370.07	7.02
370.27	4.68
370.47	0.00
370.66	0.00
370.86	32.77
371.06	107.66
371.25	154.48
371.45	74.90
371.65	51.49
371.84	74.90
372.04	58.51
372.24	81.92
372.44	42.13
372.63	42.13
372.83	133.41
373.03	124.05
373.22	77.24
373.42	86.60
373.62	152.13
373.81	138.09
374.01	170.86
374.21	110.01
374.40	121.71
374.60	145.11
374.79	110.01
374.99	138.09
375.19	67.88
375.38	72.56
375.58	140.43
375.78	133.41
375.97	102.98
376.17	135.75
376.37	107.66
376.56	156.82
376.76	124.05
376.95	84.26
377.15	88.94
377.35	147.45
377.54	145.11
377.74	91.28
377.93	140.43
378.13	152.13
378.33	112.35
378.52	65.54
378.72	65.54
378.91	102.98
379.11	88.94
379.31	105.32
379.50	112.35
379.70	163.84
379.89	102.98
380.09	88.94
380.28	128.73
380.48	184.90
380.68	100.64
380.87	86.60
381.07	112.35
381.26	53.83
381.46	133.41
381.65	133.41
381.85	28.09
382.04	98.30
382.24	161.50
382.43	95.96
382.63	86.60
382.83	49.15
383.02	149.79
383.22	93.62
383.41	32.77
383.61	67.88
383.80	126.39
384.00	126.39
384.19	56.17
384.39	102.98
384.58	147.45
384.78	154.48
384.97	60.85
385.17	121.71
385.36	88.94
385.56	133.41
385.75	56.17
385.95	147.45
386.14	140.43
386.34	121.71
386.53	102.98
386.72	112.35
386.92	124.05
387.11	91.28
387.31	86.60
387.50	142.77
387.70	95.96
387.89	35.11
388.09	56.17
388.28	131.07
388.48	119.37
388.67	63.19
388.86	91.28
389.06	98.30
389.25	138.09
389.45	131.07
389.64	191.92
389.84	124.05
390.03	86.60
390.22	110.01
390.42	133.41
390.61	84.26
390.81	79.58
391.00	67.88
391.19	117.03
391.39	142.77
391.58	86.60
391.78	91.28
391.97	131.07
392.16	63.19
392.36	121.71
392.55	93.62
392.75	189.58
392.94	72.56
393.13	170.86
393.33	93.62
393.52	142.77
393.71	152.13
393.91	67.88
394.10	95.96
394.29	98.30
394.49	84.26
394.68	121.71
394.88	140.43
395.07	81.92
395.26	100.64
395.46	159.16
395.65	67.88
395.84	37.45
396.04	241.08
396.23	114.69
396.42	142.77
396.62	142.77
396.81	114.69
397.00	142.77
397.19	105.32
397.39	114.69
397.58	168.52
397.77	142.77
397.97	79.58
398.16	105.32
398.35	131.07
398.55	105.32
398.74	100.64
398.93	79.58
399.12	117.03
399.32	67.88
399.51	88.94
399.70	32.77
399.90	126.39
400.09	79.58
400.28	128.73
400.47	88.94
400.67	100.64
400.86	177.88
401.05	112.35
401.24	191.92
401.44	93.62
401.63	112.35
401.82	152.13
402.01	102.98
402.21	175.54
402.40	161.50
402.59	121.71
402.78	112.35
402.97	74.90
403.17	177.88
403.36	133.41
403.55	142.77
403.74	318.31
403.93	669.39
404.13	1394.96
404.32	2033.93
404.51	1809.23
404.70	1203.04
404.89	543.00
405.09	234.05
405.28	168.52
405.47	131.07
405.66	117.03
405.85	105.32
406.05	166.18
406.24	117.03
406.43	154.48
406.62	147.45
406.81	184.90
407.00	147.45
407.20	248.10
407.39	348.74
407.58	428.32
407.77	238.73
407.96	182.56
408.15	189.58
408.34	88.94
408.54	217.67
408.73	208.31
408.92	135.75
409.11	170.86
409.30	128.73
409.49	88.94
409.68	163.84
409.87	170.86
410.07	147.45
410.26	163.84
410.45	173.20
410.64	145.11
410.83	124.05
411.02	98.30
411.21	145.11
411.40	187.24
411.59	131.07
411.78	140.43
411.98	121.71
412.17	114.69
412.36	105.32
412.55	180.22
412.74	210.65
412.93	182.56
413.12	128.73
413.31	147.45
413.50	149.79
413.69	39.79
413.88	177.88
414.07	114.69
414.26	248.10
414.45	107.66
414.64	140.43
414.83	201.29
415.02	88.94
415.22	210.65
415.41	166.18
415.60	133.41
415.79	124.05
415.98	175.54
416.17	173.20
416.36	189.58
416.55	217.67
416.74	107.66
416.93	257.46
417.12	159.16
417.31	182.56
417.50	152.13
417.69	201.29
417.88	189.58
418.07	180.22
418.26	175.54
418.45	105.32
418.64	269.16
418.83	126.39
419.02	180.22
419.21	128.73
419.39	191.92
419.58	184.90
419.77	201.29
419.96	154.48
420.15	156.82
420.34	191.92
420.53	187.24
420.72	255.12
420.91	196.60
421.10	156.82
421.29	161.50
421.48	194.26
421.67	184.90
421.86	203.63
422.05	149.79
422.24	156.82
422.43	184.90
422.61	173.20
422.80	170.86
422.99	128.73
423.18	224.69
423.37	189.58
423.56	138.09
423.75	119.37
423.94	212.99
424.13	126.39
424.32	177.88
424.50	194.26
424.69	184.90
424.88	161.50
425.07	180.22
425.26	201.29
425.45	128.73
425.64	189.58
425.83	215.33
426.01	203.63
426.20	173.20
426.39	280.86
426.58	173.20
426.77	250.44
426.96	156.82
427.15	156.82
427.33	117.03
427.52	208.31
427.71	154.48
427.90	236.39
428.09	180.22
428.28	198.95
428.46	231.71
428.65	142.77
428.84	257.46
429.03	248.10
429.22	177.88
429.40	208.31
429.59	93.62
429.78	243.42
429.97	140.43
430.16	194.26
430.34	145.11
430.53	152.13
430.72	191.92
430.91	142.77
431.10	212.99
431.28	177.88
431.47	231.71
431.66	224.69
431.85	222.35
432.03	224.69
432.22	217.67
432.41	180.22
432.60	243.42
432.79	238.73
432.97	250.44
433.16	334.70
433.35	212.99
433.54	285.55
433.72	215.33
433.91	262.14
434.10	348.74
434.28	311.29
434.47	372.15
434.66	388.53
434.85	402.57
435.03	966.64
435.22	3045.04
435.41	7047.35
435.59	8568.70
435.78	5767.08
435.97	2925.67
436.16	1174.95
436.34	505.56
436.53	348.74
436.72	322.99
436.90	227.03
437.09	259.80
437.28	212.99
437.46	227.03
437.65	222.35
437.84	208.31
438.02	222.35
438.21	287.89
438.40	271.50
438.58	234.05
438.77	306.61
438.96	283.20
439.14	198.95
439.33	248.10
439.52	222.35
439.70	175.54
439.89	290.23
440.08	243.42
440.26	201.29
440.45	238.73
440.63	201.29
440.82	259.80
441.01	266.82
441.19	259.80
441.38	236.39
441.57	198.95
441.75	248.10
441.94	280.86
442.12	259.80
442.31	264.48
442.50	220.01
442.68	290.23
442.87	245.76
443.05	224.69
443.24	191.92
443.43	236.39
443.61	243.42
443.80	257.46
443.98	222.35
444.17	306.61
444.35	280.86
444.54	236.39
444.73	217.67
444.91	283.20
445.10	234.05
445.28	180.22
445.47	217.67
445.65	227.03
445.84	245.76
446.02	318.31
446.21	264.48
446.39	259.80
446.58	292.57
446.77	196.60
446.95	194.26
447.14	245.76
447.32	318.31
447.51	156.82
447.69	255.12
447.88	297.25
448.06	271.50
448.25	217.67
448.43	243.42
448.62	217.67
448.80	245.76
448.99	255.12
449.17	187.24
449.36	215.33
449.54	257.46
449.73	238.73
449.91	273.84
450.10	224.69
450.28	322.99
450.46	308.95
450.65	283.20
450.83	337.04
451.02	220.01
451.20	278.52
451.39	224.69
451.57	266.82
451.76	243.42
451.94	215.33
452.13	327.68
452.31	280.86
452.49	208.31
452.68	266.82
452.86	304.27
453.05	259.80
453.23	271.50
453.42	255.12
453.60	234.05
453.78	241.08
453.97	283.20
454.15	217.67
454.34	264.48
454.52	203.63
454.70	278.52
454.89	241.08
455.07	234.05
455.26	212.99
455.44	306.61
455.62	299.59
455.81	360.44
455.99	313.63
456.17	252.78
456.36	215.33
456.54	212.99
456.73	215.33
456.91	287.89
457.09	315.97
457.28	334.70
457.46	241.08
457.64	278.52
457.83	271.50
458.01	203.63
458.19	287.89
458.38	229.37
458.56	236.39
458.74	166.18
458.93	264.48
459.11	110.01
459.29	290.23
459.48	229.37
459.66	327.68
459.84	348.74
460.03	287.89
460.21	280.86
460.39	245.76
460.57	273.84
460.76	245.76
460.94	170.86
461.12	259.80
461.31	301.93
461.49	222.35
461.67	168.52
461.85	273.84
462.04	266.82
462.22	428.32
462.40	362.78
462.59	166.18
462.77	191.92
462.95	245.76
463.13	238.73
463.32	236.39
463.50	292.57
463.68	245.76
463.86	252.78
464.05	248.10
464.23	372.15
464.41	294.91
464.59	285.55
464.78	255.12
464.96	231.71
465.14	241.08
465.32	205.97
465.50	280.86
465.69	236.39
465.87	241.08
466.05	322.99
466.23	248.10
466.41	238.73
466.60	287.89
466.78	245.76
466.96	243.42
467.14	271.50
467.32	227.03
467.51	259.80
467.69	318.31
467.87	269.16
468.05	238.73
468.23	337.04
468.41	297.25
468.60	220.01
468.78	283.20
468.96	175.54
469.14	217.67
469.32	182.56
469.50	184.90
469.69	163.84
469.87	273.84
470.05	266.82
470.23	257.46
470.41	224.69
470.59	220.01
470.77	210.65
470.95	177.88
471.14	308.95
471.32	252.78
471.50	227.03
471.68	248.10
471.86	262.14
472.04	217.67
472.22	217.67
472.40	222.35
472.58	229.37
472.77	215.33
472.95	231.71
473.13	294.91
473.31	252.78
473.49	187.24
473.67	234.05
473.85	241.08
474.03	252.78
474.21	205.97
474.39	313.63
474.57	241.08
474.75	257.46
474.93	215.33
475.12	257.46
475.30	227.03
475.48	252.78
475.66	170.86
475.84	330.02
476.02	313.63
476.20	182.56
476.38	234.05
476.56	362.78
476.74	250.44
476.92	325.33
477.10	234.05
477.28	264.48
477.46	208.31
477.64	383.85
477.82	285.55
478.00	203.63
478.18	236.39
478.36	205.97
478.54	203.63
478.72	262.14
478.90	212.99
479.08	276.18
479.26	259.80
479.44	222.35
479.62	304.27
479.80	315.97
479.98	287.89
480.16	259.80
480.34	269.16
480.52	264.48
480.70	299.59
480.88	313.63
481.06	341.72
481.24	355.76
481.41	330.02
481.59	332.36
481.77	355.76
481.95	379.17
482.13	430.66
482.31	386.19
482.49	393.21
482.67	472.79
482.85	482.15
483.03	507.90
483.21	503.22
483.39	526.62
483.57	547.69
483.74	643.65
483.92	699.82
484.10	634.29
484.28	695.14
484.46	812.17
484.64	760.67
484.82	814.51
485.00	870.68
485.18	971.32
485.35	964.30
485.53	971.32
485.71	1057.92
485.89	1006.43
486.07	957.28
486.25	1121.12
486.43	1139.84
486.61	1142.18
486.78	1118.78
486.96	1111.75
487.14	1128.14
487.32	1132.82
487.50	1196.01
487.68	1149.20
487.85	1142.18
488.03	1102.39
488.21	1135.16
488.39	1167.93
488.57	1207.72
488.75	1151.54
488.92	1437.09
489.10	1200.69
489.28	1177.29
489.46	1153.88
489.64	1132.82
489.81	1088.35
489.99	1048.56
490.17	1196.01
490.35	1139.84
490.53	1123.46
490.70	910.47
490.88	1039.20
491.06	1050.90
491.24	1174.95
491.41	1275.59
491.59	1102.39
491.77	971.32
491.95	940.90
492.13	940.90
492.30	959.62
492.48	959.62
492.66	943.24
492.84	950.26
493.01	842.59
493.19	868.34
493.37	999.41
493.54	954.94
493.72	901.11
493.90	957.28
494.08	896.43
494.25	905.79
494.43	840.25
494.61	798.12
494.79	856.64
494.96	777.06
495.14	814.51
495.32	779.40
495.49	737.27
495.67	711.52
495.85	788.76
496.02	777.06
496.20	823.87
496.38	709.18
496.55	718.54
496.73	779.40
496.91	753.65
497.09	627.26
497.26	688.12
497.44	704.50
497.62	748.97
497.79	772.38
497.97	774.72
498.14	725.57
498.32	608.54
498.50	650.67
498.67	592.16
498.85	545.34
499.03	622.58
499.20	587.47
499.38	479.81
499.56	461.09
499.73	477.47
499.91	456.40
500.08	433.00
500.26	498.53
500.44	468.11
500.61	425.98
500.79	433.00
500.97	397.89
501.14	397.89
501.32	360.44
501.49	379.17
501.67	327.68
501.84	379.17
502.02	318.31
502.20	299.59
502.37	404.91
502.55	255.12
502.72	433.00
502.90	395.55
503.07	353.42
503.25	332.36
503.43	290.23
503.60	325.33
503.78	390.87
503.95	290.23
504.13	264.48
504.30	318.31
504.48	313.63
504.65	280.86
504.83	304.27
505.01	273.84
505.18	266.82
505.36	292.57
505.53	374.49
505.71	266.82
505.88	299.59
506.06	255.12
506.23	339.38
506.41	315.97
506.58	299.59
506.76	264.48
506.93	224.69
507.11	313.63
507.28	273.84
507.46	252.78
507.63	220.01
507.81	264.48
507.98	208.31
508.16	259.80
508.33	334.70
508.50	255.12
508.68	290.23
508.85	318.31
509.03	320.65
509.20	290.23
509.38	292.57
509.55	285.55
509.73	224.69
509.90	238.73
510.08	337.04
510.25	297.25
510.42	250.44
510.60	264.48
510.77	315.97
510.95	322.99
511.12	322.99
511.30	299.59
511.47	243.42
511.64	278.52
511.82	346.40
511.99	250.44
512.17	318.31
512.34	241.08
512.51	304.27
512.69	297.25
512.86	360.44
513.04	311.29
513.21	372.15
513.38	236.39
513.56	264.48
513.73	360.44
513.90	285.55
514.08	184.90
514.25	245.76
514.43	360.44
514.60	210.65
514.77	308.95
514.95	287.89
515.12	201.29
515.29	259.80
515.47	337.04
515.64	252.78
515.81	264.48
515.99	287.89
516.16	308.95
516.33	245.76
516.51	271.50
516.68	245.76
516.85	238.73
517.03	271.50
517.20	287.89
517.37	252.78
517.54	271.50
517.72	248.10
517.89	252.78
518.06	248.10
518.24	337.04
518.41	217.67
518.58	290.23
518.75	208.31
518.93	224.69
519.10	257.46
519.27	255.12
519.45	327.68
519.62	273.84
519.79	318.31
519.96	313.63
520.14	252.78
520.31	290.23
520.48	294.91
520.65	269.16
520.83	271.50
521.00	227.03
521.17	304.27
521.34	241.08
521.52	257.46
521.69	311.29
521.86	252.78
522.03	273.84
522.20	355.76
522.38	227.03
522.55	215.33
522.72	243.42
522.89	266.82
523.07	266.82
523.24	229.37
523.41	252.78
523.58	266.82
523.75	252.78
523.92	180.22
524.10	196.60
524.27	292.57
524.44	241.08
524.61	292.57
524.78	290.23
524.96	262.14
525.13	273.84
525.30	266.82
525.47	393.21
525.64	294.91
525.81	308.95
525.98	318.31
526.16	285.55
526.33	231.71
526.50	236.39
526.67	238.73
526.84	304.27
527.01	330.02
527.18	301.93
527.36	266.82
527.53	262.14
527.70	341.72
527.87	283.20
528.04	271.50
528.21	243.42
528.38	273.84
528.55	273.84
528.72	339.38
528.89	299.59
529.07	351.08
529.24	271.50
529.41	262.14
529.58	236.39
529.75	252.78
529.92	245.76
530.09	241.08
530.26	348.74
530.43	318.31
530.60	278.52
530.77	236.39
530.94	374.49
531.11	320.65
531.28	339.38
531.46	285.55
531.63	332.36
531.80	294.91
531.97	332.36
532.14	266.82
532.31	360.44
532.48	390.87
532.65	444.70
532.82	449.38
532.99	528.96
533.16	538.32
533.33	606.20
533.50	564.07
533.67	496.19
533.84	486.83
534.01	437.68
534.18	444.70
534.35	433.00
534.52	437.68
534.69	454.06
534.86	404.91
535.03	470.45
535.20	418.96
535.37	547.69
535.54	535.98
535.71	491.51
535.88	606.20
536.05	512.58
536.22	524.28
536.38	538.32
536.55	676.41
536.72	650.67
536.89	688.12
537.06	730.25
537.23	777.06
537.40	826.21
537.57	795.78
537.74	976.00
537.91	1067.28
538.08	1090.69
538.25	1303.68
538.42	1378.58
538.59	1413.68
538.75	1479.22
538.92	1427.73
539.09	1453.47
539.26	1568.16
539.43	1722.63
539.60	1827.96
539.77	2015.20
539.94	2253.94
540.11	2394.37
540.28	2457.56
540.44	2513.74
540.61	2750.13
540.78	2888.22
540.95	3382.07
541.12	3995.29
541.29	4510.21
541.46	5238.12
541.62	5771.76
541.79	6616.69
541.96	7405.46
542.13	7915.69
542.30	7988.25
542.47	7967.18
542.63	8039.74
542.80	7735.47
542.97	7878.24
543.14	8060.80
543.31	8205.92
543.48	8147.40
543.64	8079.53
543.81	7969.52
543.98	8009.31
544.15	7550.57
544.32	7424.18
544.48	7005.22
544.65	6747.76
544.82	6724.36
544.99	6235.19
545.16	6069.01
545.32	6003.47
545.49	8477.42
545.66	14398.98
545.83	19859.45
546.00	17706.15
546.16	11236.91
546.33	7644.19
546.50	5394.93
546.67	4011.68
546.83	3201.85
547.00	2857.79
547.17	2768.85
547.34	2509.05
547.50	2406.07
547.67	2485.65
547.84	2354.58
548.00	2469.27
548.17	2527.78
548.34	2516.08
548.51	2583.95
548.67	2640.12
548.84	2626.08
549.01	2640.12
549.18	2708.00
549.34	2729.06
549.51	2544.16
549.68	2317.13
549.84	2251.60
550.01	2125.21
550.18	2015.20
550.34	2045.63
550.51	2015.20
550.68	1849.02
550.84	1781.15
551.01	1743.70
551.18	1739.02
551.34	1778.81
551.51	1666.46
551.68	1713.27
551.84	1771.79
552.01	1645.40
552.18	1652.42
552.34	1593.90
552.51	1572.84
552.68	1554.12
552.84	1514.33
553.01	1380.92
553.18	1362.19
553.34	1224.10
553.51	1086.01
553.67	1081.33
553.84	1025.15
554.01	922.17
554.17	870.68
554.34	730.25
554.51	711.52
554.67	720.88
554.84	587.47
555.00	589.82
555.17	531.30
555.33	500.87
555.50	535.98
555.67	496.19
555.83	503.22
556.00	442.36
556.16	648.33
556.33	425.98
556.50	456.40
556.66	519.60
556.83	369.80
556.99	388.53
557.16	409.59
557.32	390.87
557.49	402.57
557.65	430.66
557.82	372.15
557.98	449.38
558.15	346.40
558.32	386.19
558.48	327.68
558.65	322.99
558.81	369.80
558.98	330.02
559.14	390.87
559.31	365.12
559.47	348.74
559.64	346.40
559.80	346.40
559.97	353.42
560.13	355.76
560.30	397.89
560.46	402.57
560.63	379.17
560.79	330.02
560.96	381.51
561.12	308.95
561.29	344.06
561.45	304.27
561.61	348.74
561.78	491.51
561.94	362.78
562.11	400.23
562.27	346.40
562.44	313.63
562.60	325.33
562.77	332.36
562.93	379.17
563.10	395.55
563.26	264.48
563.42	271.50
563.59	318.31
563.75	351.08
563.92	299.59
564.08	355.76
564.24	365.12
564.41	425.98
564.57	404.91
564.74	285.55
564.90	327.68
565.07	308.95
565.23	283.20
565.39	325.33
565.56	297.25
565.72	224.69
565.88	248.10
566.05	306.61
566.21	304.27
566.38	278.52
566.54	271.50
566.70	266.82
566.87	278.52
567.03	205.97
567.19	257.46
567.36	383.85
567.52	327.68
567.68	327.68
567.85	320.65
568.01	292.57
568.17	238.73
568.34	271.50
568.50	325.33
568.66	330.02
568.83	304.27
568.99	266.82
569.15	304.27
569.32	287.89
569.48	376.83
569.64	294.91
569.81	360.44
569.97	229.37
570.13	273.84
570.30	259.80
570.46	276.18
570.62	306.61
570.78	290.23
570.95	259.80
571.11	346.40
571.27	290.23
571.43	271.50
571.60	322.99
571.76	334.70
571.92	243.42
572.09	313.63
572.25	311.29
572.41	376.83
572.57	444.70
572.74	461.09
572.90	332.36
573.06	437.68
573.22	262.14
573.38	355.76
573.55	369.80
573.71	294.91
573.87	325.33
574.03	304.27
574.20	308.95
574.36	327.68
574.52	325.33
574.68	400.23
574.84	372.15
575.01	358.10
575.17	388.53
575.33	402.57
575.49	458.74
575.65	400.23
575.82	461.09
575.98	484.49
576.14	442.36
576.30	734.93
576.46	1727.32
576.62	2874.18
576.79	3375.05
576.95	2649.49
577.11	1685.19
577.27	1217.08
577.43	887.06
577.59	643.65
577.75	582.79
577.92	564.07
578.08	477.47
578.24	505.56
578.40	741.95
578.56	1661.78
578.72	2700.98
578.88	3281.43
579.04	2492.67
579.21	1790.51
579.37	1533.05
579.53	1317.72
579.69	1327.08
579.85	1479.22
580.01	1732.00
580.17	1680.50
580.33	1577.52
580.49	1348.15
580.65	1231.12
580.82	1139.84
580.98	1069.62
581.14	1071.97
581.30	1074.31
581.46	1165.59
581.62	1158.57
581.78	1235.80
581.94	1380.92
582.10	1261.55
582.26	1420.71
582.42	1460.49
582.58	1409.00
582.74	1533.05
582.90	1577.52
583.06	1785.83
583.22	1842.00
583.38	1849.02
583.54	1834.98
583.70	1774.13
583.86	1830.30
584.02	1710.93
584.18	1781.15
584.34	1692.21
584.50	1624.33
584.66	1526.03
584.82	1437.09
584.98	1474.54
585.14	1465.18
585.30	1448.79
585.46	1404.32
585.62	1334.11
585.78	1320.06
585.94	1423.05
586.10	1409.00
586.26	1472.20
586.42	1645.40
586.58	1813.92
586.74	2092.44
586.90	2534.80
587.06	2654.17
587.22	2834.39
587.38	2597.99
587.54	2490.33
587.70	2230.53
587.86	2069.03
588.02	1853.70
588.18	1610.29
588.34	1479.22
588.49	1315.38
588.65	1256.87
588.81	1357.51
588.97	1224.10
589.13	1179.63
589.29	1156.22
589.45	1226.44
589.61	1287.29
589.77	1214.74
589.93	1174.95
590.08	1125.80
590.24	1184.31
590.40	1191.33
590.56	1107.07
590.72	1128.14
590.88	1100.05
591.04	1163.25
591.20	1102.39
591.35	1137.50
591.51	1146.86
591.67	1095.37
591.83	1198.35
591.99	1177.29
592.15	1315.38
592.31	1341.13
592.46	1535.39
592.62	1636.03
592.78	1650.08
592.94	1746.04
593.10	1750.72
593.26	1614.97
593.41	1556.46
593.57	1334.11
593.73	1128.14
593.89	1102.39
594.05	959.62
594.20	842.59
594.36	840.25
594.52	753.65
594.68	760.67
594.84	767.70
594.99	690.46
595.15	688.12
595.31	751.31
595.47	685.78
595.62	580.45
595.78	650.67
595.94	624.92
596.10	645.99
596.25	711.52
596.41	622.58
596.57	676.41
596.73	622.58
596.88	601.52
597.04	634.29
597.20	725.57
597.36	643.65
597.51	559.39
597.67	723.23
597.83	688.12
597.99	751.31
598.14	788.76
598.30	828.55
598.46	844.93
598.61	945.58
598.77	917.49
598.93	1022.81
599.09	1032.18
599.24	1149.20
599.40	1053.24
599.56	1083.67
599.71	1053.24
599.87	1020.47
600.03	877.70
600.18	835.57
600.34	725.57
600.50	755.99
600.65	692.80
600.81	709.18
600.97	671.73
601.12	564.07
601.28	634.29
601.44	622.58
601.59	578.11
601.75	615.56
601.91	566.41
602.06	517.26
602.22	599.18
602.37	489.17
602.53	433.00
602.69	578.11
602.84	545.34
603.00	505.56
603.16	484.49
603.31	552.37
603.47	573.43
603.62	514.92
603.78	489.17
603.94	526.62
604.09	561.73
604.25	578.11
604.40	568.75
604.56	582.79
604.71	557.05
604.87	596.84
605.03	608.54
605.18	636.63
605.34	688.12
605.49	636.63
605.65	547.69
605.80	629.60
605.96	662.37
606.12	627.26
606.27	617.90
606.43	741.95
606.58	727.91
606.74	683.44
606.89	835.57
607.05	833.23
607.20	840.25
607.36	814.51
607.51	922.17
607.67	940.90
607.82	966.64
607.98	1093.03
608.13	1153.88
608.29	1221.76
608.44	1322.40
608.60	1481.56
