SpectraSuite Data File
++++++++++++++++++++++++++++++++++++
Date: Fri Oct 04 11:42:20 GMT-05:00 2013
User: price-jones
Dark Spectrum Present: No
Reference Spectrum Present: No
Number of Sampled Component Spectra: 1
Spectrometers: USB2+H05261
Integration Time (usec): 100000 (USB2+H05261)
Spectra Averaged: 1 (USB2+H05261)
Boxcar Smoothing: 0 (USB2+H05261)
Correct for Electrical Dark: No (USB2+H05261)
Strobe/Lamp Enabled: No (USB2+H05261)
Correct for Detector Non-linearity: No (USB2+H05261)
Correct for Stray Light: No (USB2+H05261)
Number of Pixels in Processed Spectrum: 2048
>>>>>Begin Processed Spectral Data<<<<<
365.73	86.60
365.92	86.60
366.12	86.60
366.32	0.00
366.52	0.00
366.72	0.00
366.91	0.00
367.11	0.00
367.31	0.00
367.51	0.00
367.70	30.43
367.90	0.00
368.10	0.00
368.30	0.00
368.49	0.00
368.69	0.00
368.89	0.00
369.09	0.00
369.28	0.00
369.48	0.00
369.68	0.00
369.87	2.34
370.07	0.00
370.27	0.00
370.47	35.11
370.66	70.22
370.86	65.54
371.06	70.22
371.25	91.28
371.45	70.22
371.65	102.98
371.84	126.39
372.04	95.96
372.24	93.62
372.44	0.00
372.63	91.28
372.83	191.92
373.03	93.62
373.22	81.92
373.42	95.96
373.62	65.54
373.81	91.28
374.01	140.43
374.21	159.16
374.40	102.98
374.60	203.63
374.79	56.17
374.99	163.84
375.19	145.11
375.38	152.13
375.58	154.48
375.78	180.22
375.97	196.60
376.17	133.41
376.37	93.62
376.56	91.28
376.76	74.90
376.95	128.73
377.15	173.20
377.35	114.69
377.54	133.41
377.74	124.05
377.93	131.07
378.13	102.98
378.33	166.18
378.52	140.43
378.72	196.60
378.91	51.49
379.11	135.75
379.31	131.07
379.50	121.71
379.70	154.48
379.89	107.66
380.09	79.58
380.28	138.09
380.48	135.75
380.68	147.45
380.87	138.09
381.07	16.38
381.26	102.98
381.46	49.15
381.65	138.09
381.85	102.98
382.04	93.62
382.24	67.88
382.43	114.69
382.63	58.51
382.83	147.45
383.02	119.37
383.22	152.13
383.41	79.58
383.61	98.30
383.80	112.35
384.00	86.60
384.19	98.30
384.39	117.03
384.58	81.92
384.78	107.66
384.97	88.94
385.17	170.86
385.36	77.24
385.56	198.95
385.75	70.22
385.95	56.17
386.14	159.16
386.34	140.43
386.53	81.92
386.72	124.05
386.92	110.01
387.11	180.22
387.31	102.98
387.50	110.01
387.70	102.98
387.89	145.11
388.09	128.73
388.28	93.62
388.48	152.13
388.67	135.75
388.86	88.94
389.06	121.71
389.25	117.03
389.45	163.84
389.64	126.39
389.84	117.03
390.03	135.75
390.22	86.60
390.42	84.26
390.61	149.79
390.81	95.96
391.00	119.37
391.19	102.98
391.39	110.01
391.58	117.03
391.78	58.51
391.97	110.01
392.16	42.13
392.36	105.32
392.55	152.13
392.75	14.04
392.94	70.22
393.13	140.43
393.33	100.64
393.52	180.22
393.71	107.66
393.91	159.16
394.10	93.62
394.29	180.22
394.49	152.13
394.68	128.73
394.88	154.48
395.07	131.07
395.26	140.43
395.46	126.39
395.65	131.07
395.84	145.11
396.04	156.82
396.23	175.54
396.42	156.82
396.62	156.82
396.81	152.13
397.00	133.41
397.19	140.43
397.39	135.75
397.58	114.69
397.77	93.62
397.97	42.13
398.16	149.79
398.35	100.64
398.55	100.64
398.74	145.11
398.93	114.69
399.12	84.26
399.32	177.88
399.51	25.75
399.70	119.37
399.90	79.58
400.09	163.84
400.28	196.60
400.47	117.03
400.67	88.94
400.86	95.96
401.05	70.22
401.24	161.50
401.44	126.39
401.63	156.82
401.82	173.20
402.01	175.54
402.21	222.35
402.40	170.86
402.59	198.95
402.78	227.03
402.97	131.07
403.17	119.37
403.36	156.82
403.55	234.05
403.74	493.85
403.93	1647.74
404.13	3623.15
404.32	4379.14
404.51	3641.87
404.70	2195.42
404.89	887.06
405.09	318.31
405.28	234.05
405.47	175.54
405.66	278.52
405.85	138.09
406.05	159.16
406.24	194.26
406.43	175.54
406.62	142.77
406.81	262.14
407.00	292.57
407.20	423.64
407.39	720.88
407.58	669.39
407.77	540.66
407.96	278.52
408.15	189.58
408.34	194.26
408.54	135.75
408.73	196.60
408.92	177.88
409.11	107.66
409.30	159.16
409.49	100.64
409.68	205.97
409.87	114.69
410.07	147.45
410.26	154.48
410.45	114.69
410.64	102.98
410.83	135.75
411.02	194.26
411.21	170.86
411.40	145.11
411.59	117.03
411.78	163.84
411.98	175.54
412.17	74.90
412.36	168.52
412.55	161.50
412.74	173.20
412.93	201.29
413.12	217.67
413.31	229.37
413.50	264.48
413.69	145.11
413.88	198.95
414.07	259.80
414.26	170.86
414.45	166.18
414.64	201.29
414.83	273.84
415.02	156.82
415.22	173.20
415.41	266.82
415.60	250.44
415.79	156.82
415.98	248.10
416.17	208.31
416.36	269.16
416.55	231.71
416.74	161.50
416.93	297.25
417.12	166.18
417.31	255.12
417.50	159.16
417.69	308.95
417.88	248.10
418.07	168.52
418.26	259.80
418.45	161.50
418.64	266.82
418.83	231.71
419.02	187.24
419.21	191.92
419.39	236.39
419.58	205.97
419.77	227.03
419.96	177.88
420.15	210.65
420.34	168.52
420.53	163.84
420.72	250.44
420.91	203.63
421.10	182.56
421.29	266.82
421.48	238.73
421.67	159.16
421.86	194.26
422.05	205.97
422.24	245.76
422.43	210.65
422.61	227.03
422.80	250.44
422.99	285.55
423.18	187.24
423.37	252.78
423.56	208.31
423.75	217.67
423.94	182.56
424.13	224.69
424.32	208.31
424.50	189.58
424.69	217.67
424.88	250.44
425.07	180.22
425.26	180.22
425.45	248.10
425.64	327.68
425.83	208.31
426.01	271.50
426.20	198.95
426.39	224.69
426.58	241.08
426.77	182.56
426.96	294.91
427.15	220.01
427.33	308.95
427.52	276.18
427.71	287.89
427.90	306.61
428.09	262.14
428.28	236.39
428.46	198.95
428.65	217.67
428.84	311.29
429.03	332.36
429.22	220.01
429.40	231.71
429.59	234.05
429.78	367.46
429.97	266.82
430.16	222.35
430.34	287.89
430.53	299.59
430.72	229.37
430.91	278.52
431.10	264.48
431.28	292.57
431.47	315.97
431.66	306.61
431.85	315.97
432.03	339.38
432.22	381.51
432.41	360.44
432.60	332.36
432.79	327.68
432.97	320.65
433.16	308.95
433.35	320.65
433.54	430.66
433.72	465.77
433.91	418.96
434.10	489.17
434.28	702.16
434.47	725.57
434.66	683.44
434.85	903.45
435.03	2782.90
435.22	9778.76
435.41	19934.34
435.59	18380.23
435.78	11815.02
435.97	5919.21
436.16	2228.19
436.34	922.17
436.53	599.18
436.72	484.49
436.90	376.83
437.09	470.45
437.28	334.70
437.46	355.76
437.65	311.29
437.84	346.40
438.02	311.29
438.21	313.63
438.40	322.99
438.58	325.33
438.77	355.76
438.96	252.78
439.14	374.49
439.33	346.40
439.52	330.02
439.70	386.19
439.89	320.65
440.08	327.68
440.26	283.20
440.45	259.80
440.63	367.46
440.82	376.83
441.01	358.10
441.19	376.83
441.38	334.70
441.57	376.83
441.75	304.27
441.94	358.10
442.12	402.57
442.31	348.74
442.50	362.78
442.68	325.33
442.87	367.46
443.05	358.10
443.24	346.40
443.43	402.57
443.61	402.57
443.80	311.29
443.98	330.02
444.17	283.20
444.35	353.42
444.54	369.80
444.73	292.57
444.91	437.68
445.10	372.15
445.28	299.59
445.47	255.12
445.65	311.29
445.84	327.68
446.02	388.53
446.21	400.23
446.39	355.76
446.58	318.31
446.77	381.51
446.95	315.97
447.14	353.42
447.32	388.53
447.51	236.39
447.69	367.46
447.88	362.78
448.06	369.80
448.25	322.99
448.43	337.04
448.62	299.59
448.80	322.99
448.99	334.70
449.17	330.02
449.36	257.46
449.54	355.76
449.73	383.85
449.91	337.04
450.10	337.04
450.28	402.57
450.46	346.40
450.65	390.87
450.83	306.61
451.02	374.49
451.20	283.20
451.39	301.93
451.57	386.19
451.76	304.27
451.94	299.59
452.13	334.70
452.31	353.42
452.49	334.70
452.68	318.31
452.86	325.33
453.05	376.83
453.23	297.25
453.42	376.83
453.60	299.59
453.78	344.06
453.97	322.99
454.15	252.78
454.34	339.38
454.52	339.38
454.70	407.25
454.89	397.89
455.07	351.08
455.26	362.78
455.44	346.40
455.62	280.86
455.81	308.95
455.99	379.17
456.17	304.27
456.36	315.97
456.54	365.12
456.73	353.42
456.91	255.12
457.09	404.91
457.28	330.02
457.46	308.95
457.64	393.21
457.83	339.38
458.01	264.48
458.19	330.02
458.38	306.61
458.56	315.97
458.74	297.25
458.93	355.76
459.11	334.70
459.29	334.70
459.48	332.36
459.66	369.80
459.84	369.80
460.03	360.44
460.21	418.96
460.39	330.02
460.57	360.44
460.76	339.38
460.94	360.44
461.12	489.17
461.31	428.32
461.49	355.76
461.67	315.97
461.85	400.23
462.04	341.72
462.22	498.53
462.40	341.72
462.59	351.08
462.77	337.04
462.95	325.33
463.13	304.27
463.32	294.91
463.50	299.59
463.68	355.76
463.86	388.53
464.05	400.23
464.23	404.91
464.41	337.04
464.59	346.40
464.78	318.31
464.96	348.74
465.14	353.42
465.32	348.74
465.50	348.74
465.69	346.40
465.87	294.91
466.05	276.18
466.23	346.40
466.41	294.91
466.60	334.70
466.78	322.99
466.96	390.87
467.14	369.80
467.32	325.33
467.51	257.46
467.69	322.99
467.87	390.87
468.05	273.84
468.23	341.72
468.41	379.17
468.60	348.74
468.78	308.95
468.96	320.65
469.14	344.06
469.32	259.80
469.50	297.25
469.69	308.95
469.87	269.16
470.05	337.04
470.23	348.74
470.41	280.86
470.59	327.68
470.77	407.25
470.95	418.96
471.14	353.42
471.32	351.08
471.50	330.02
471.68	376.83
471.86	379.17
472.04	337.04
472.22	327.68
472.40	203.63
472.58	318.31
472.77	325.33
472.95	344.06
473.13	330.02
473.31	332.36
473.49	327.68
473.67	311.29
473.85	379.17
474.03	367.46
474.21	269.16
474.39	287.89
474.57	390.87
474.75	337.04
474.93	332.36
475.12	304.27
475.30	304.27
475.48	374.49
475.66	325.33
475.84	355.76
476.02	271.50
476.20	379.17
476.38	297.25
476.56	376.83
476.74	339.38
476.92	353.42
477.10	388.53
477.28	353.42
477.46	337.04
477.64	388.53
477.82	367.46
478.00	339.38
478.18	362.78
478.36	353.42
478.54	283.20
478.72	341.72
478.90	388.53
479.08	332.36
479.26	500.87
479.44	458.74
479.62	393.21
479.80	449.38
479.98	428.32
480.16	388.53
480.34	486.83
480.52	383.85
480.70	517.26
480.88	491.51
481.06	428.32
481.24	545.34
481.41	608.54
481.59	655.35
481.77	631.94
481.95	519.60
482.13	744.29
482.31	695.14
482.49	744.29
482.67	746.63
482.85	828.55
483.03	894.08
483.21	947.92
483.39	957.28
483.57	1097.71
483.74	1263.89
483.92	1097.71
484.10	1231.12
484.28	1256.87
484.46	1380.92
484.64	1373.89
484.82	1547.09
485.00	1542.41
485.18	1708.59
485.35	1701.57
485.53	1748.38
485.71	1846.68
485.89	2019.88
486.07	1987.11
486.25	2047.97
486.43	2101.80
486.61	2012.86
486.78	2026.90
486.96	1844.34
487.14	2043.29
487.32	1987.11
487.50	2005.84
487.68	1996.48
487.85	2031.58
488.03	1930.94
488.21	1872.43
488.39	1825.62
488.57	1886.47
488.75	1795.19
488.92	2017.54
489.10	1661.78
489.28	1626.67
489.46	1661.78
489.64	1572.84
489.81	1521.35
489.99	1638.38
490.17	1598.59
490.35	1610.29
490.53	1528.37
490.70	1558.80
490.88	1490.92
491.06	1668.80
491.24	1790.51
491.41	1687.53
491.59	1638.38
491.77	1502.62
491.95	1453.47
492.13	1488.58
492.30	1432.41
492.48	1385.60
492.66	1371.55
492.84	1425.39
493.01	1378.58
493.19	1219.42
493.37	1369.21
493.54	1193.67
493.72	1308.36
493.90	1254.53
494.08	1261.55
494.25	1221.76
494.43	1137.50
494.61	1165.59
494.79	1144.52
494.96	1214.74
495.14	1203.04
495.32	1071.97
495.49	1088.35
495.67	1153.88
495.85	1109.41
496.02	1027.50
496.20	1107.07
496.38	1107.07
496.55	976.00
496.73	1001.75
496.91	992.39
497.09	919.83
497.26	1032.18
497.44	940.90
497.62	884.72
497.79	901.11
497.97	954.94
498.14	858.98
498.32	936.21
498.50	851.96
498.67	807.48
498.85	802.80
499.03	847.27
499.20	863.66
499.38	779.40
499.56	793.44
499.73	814.51
499.91	732.59
500.08	648.33
500.26	690.46
500.44	720.88
500.61	685.78
500.79	594.50
500.97	674.07
501.14	615.56
501.32	688.12
501.49	608.54
501.67	631.94
501.84	629.60
502.02	507.90
502.20	578.11
502.37	617.90
502.55	589.82
502.72	538.32
502.90	578.11
503.07	477.47
503.25	482.15
503.43	433.00
503.60	440.02
503.78	423.64
503.95	423.64
504.13	493.85
504.30	461.09
504.48	451.72
504.65	482.15
504.83	505.56
505.01	411.93
505.18	425.98
505.36	475.13
505.53	447.04
505.71	407.25
505.88	468.11
506.06	440.02
506.23	407.25
506.41	428.32
506.58	388.53
506.76	374.49
506.93	383.85
507.11	402.57
507.28	376.83
507.46	404.91
507.63	320.65
507.81	369.80
507.98	414.27
508.16	372.15
508.33	430.66
508.50	449.38
508.68	292.57
508.85	430.66
509.03	456.40
509.20	393.21
509.38	397.89
509.55	414.27
509.73	433.00
509.90	416.62
510.08	393.21
510.25	369.80
510.42	365.12
510.60	402.57
510.77	379.17
510.95	360.44
511.12	358.10
511.30	351.08
511.47	383.85
511.64	383.85
511.82	327.68
511.99	351.08
512.17	360.44
512.34	341.72
512.51	346.40
512.69	306.61
512.86	355.76
513.04	276.18
513.21	351.08
513.38	393.21
513.56	318.31
513.73	248.10
513.90	313.63
514.08	388.53
514.25	327.68
514.43	348.74
514.60	386.19
514.77	311.29
514.95	243.42
515.12	369.80
515.29	304.27
515.47	280.86
515.64	397.89
515.81	353.42
515.99	311.29
516.16	325.33
516.33	365.12
516.51	271.50
516.68	344.06
516.85	266.82
517.03	322.99
517.20	330.02
517.37	344.06
517.54	353.42
517.72	269.16
517.89	318.31
518.06	339.38
518.24	393.21
518.41	395.55
518.58	308.95
518.75	332.36
518.93	276.18
519.10	250.44
519.27	301.93
519.45	262.14
519.62	400.23
519.79	311.29
519.96	308.95
520.14	351.08
520.31	315.97
520.48	322.99
520.65	248.10
520.83	376.83
521.00	369.80
521.17	304.27
521.34	311.29
521.52	353.42
521.69	376.83
521.86	383.85
522.03	330.02
522.20	346.40
522.38	266.82
522.55	292.57
522.72	383.85
522.89	311.29
523.07	362.78
523.24	259.80
523.41	320.65
523.58	318.31
523.75	355.76
523.92	266.82
524.10	304.27
524.27	278.52
524.44	308.95
524.61	369.80
524.78	325.33
524.96	365.12
525.13	322.99
525.30	280.86
525.47	339.38
525.64	376.83
525.81	372.15
525.98	337.04
526.16	339.38
526.33	308.95
526.50	341.72
526.67	355.76
526.84	322.99
527.01	297.25
527.18	322.99
527.36	395.55
527.53	353.42
527.70	430.66
527.87	397.89
528.04	456.40
528.21	308.95
528.38	411.93
528.55	407.25
528.72	304.27
528.89	437.68
529.07	341.72
529.24	407.25
529.41	388.53
529.58	393.21
529.75	369.80
529.92	337.04
530.09	425.98
530.26	409.59
530.43	543.00
530.60	433.00
530.77	437.68
530.94	463.43
531.11	454.06
531.28	454.06
531.46	543.00
531.63	437.68
531.80	510.24
531.97	538.32
532.14	564.07
532.31	601.52
532.48	812.17
532.65	866.00
532.82	807.48
532.99	1135.16
533.16	1245.16
533.33	1163.25
533.50	1186.65
533.67	968.98
533.84	966.64
534.01	873.02
534.18	851.96
534.35	718.54
534.52	734.93
534.69	760.67
534.86	812.17
535.03	861.32
535.20	812.17
535.37	1006.43
535.54	915.15
535.71	1015.79
535.88	1036.86
536.05	1104.73
536.22	1146.86
536.38	1371.55
536.55	1423.05
536.72	1610.29
536.89	1685.19
537.06	1928.60
537.23	2176.70
537.40	2230.53
537.57	2354.58
537.74	2387.35
537.91	2525.44
538.08	2579.27
538.25	2722.04
538.42	2736.09
538.59	2740.77
538.75	2876.52
538.92	3026.31
539.09	3466.33
539.26	3695.71
539.43	4208.28
539.60	4699.80
539.77	5317.70
539.94	5790.49
540.11	6487.96
540.28	6834.36
540.44	7686.32
540.61	8311.24
540.78	9785.78
540.95	11712.04
541.12	13844.27
541.29	15353.91
541.46	15932.03
541.62	15791.59
541.79	15084.75
541.96	13996.40
542.13	12725.49
542.30	12105.25
542.47	11602.04
542.63	10862.43
542.80	10602.63
542.97	10532.41
543.14	10499.64
543.31	10324.10
543.48	10363.89
543.64	10794.55
543.81	10693.91
543.98	10576.88
544.15	10714.97
544.32	10771.15
544.48	10736.04
544.65	10389.64
544.82	10794.55
544.99	10867.11
545.16	10942.00
545.32	11758.85
545.49	21404.20
545.66	37755.18
545.83	43316.29
546.00	36374.27
546.16	24812.02
546.33	18359.16
546.50	13813.84
546.67	11033.29
546.83	9942.60
547.00	9247.46
547.17	9008.72
547.34	8421.25
547.50	8124.00
547.67	7826.75
547.84	7389.07
548.00	7258.00
548.17	7152.68
548.34	6691.59
548.51	6525.41
548.67	6263.27
548.84	5898.15
549.01	5778.78
549.18	5359.83
549.34	5093.01
549.51	4992.36
549.68	4873.00
549.84	4709.16
550.01	4393.19
550.18	4262.12
550.34	4091.26
550.51	3758.90
550.68	3826.78
550.84	3578.68
551.01	3351.65
551.18	3180.79
551.34	3038.02
551.51	2946.73
551.68	2710.34
551.84	2647.15
552.01	2658.85
552.18	2485.65
552.34	2413.09
552.51	2237.55
552.68	2209.47
552.84	2165.00
553.01	2083.08
553.18	1944.99
553.34	1996.48
553.51	1872.43
553.67	1888.81
553.84	1774.13
554.01	1724.97
554.17	1530.71
554.34	1479.22
554.51	1423.05
554.67	1341.13
554.84	1188.99
555.00	1210.06
555.17	1153.88
555.33	1191.33
555.50	1043.88
555.67	1053.24
555.83	992.39
556.00	980.68
556.16	1123.46
556.33	819.19
556.50	875.36
556.66	837.91
556.83	891.74
556.99	821.53
557.16	812.17
557.32	744.29
557.49	718.54
557.65	779.40
557.82	667.05
557.98	685.78
558.15	636.63
558.32	741.95
558.48	594.50
558.65	706.84
558.81	734.93
558.98	610.88
559.14	655.35
559.31	620.24
559.47	592.16
559.64	550.03
559.80	627.26
559.97	613.22
560.13	568.75
560.30	543.00
560.46	613.22
560.63	603.86
560.79	543.00
560.96	599.18
561.12	601.52
561.29	566.41
561.45	585.13
561.61	547.69
561.78	683.44
561.94	606.20
562.11	533.64
562.27	594.50
562.44	589.82
562.60	603.86
562.77	505.56
562.93	573.43
563.10	517.26
563.26	472.79
563.42	521.94
563.59	440.02
563.75	496.19
563.92	521.94
564.08	585.13
564.24	552.37
564.41	641.31
564.57	470.45
564.74	482.15
564.90	580.45
565.07	489.17
565.23	547.69
565.39	500.87
565.56	433.00
565.72	416.62
565.88	498.53
566.05	470.45
566.21	456.40
566.38	475.13
566.54	423.64
566.70	461.09
566.87	503.22
567.03	454.06
567.19	526.62
567.36	472.79
567.52	484.49
567.68	475.13
567.85	540.66
568.01	449.38
568.17	458.74
568.34	463.43
568.50	463.43
568.66	444.70
568.83	538.32
568.99	493.85
569.15	507.90
569.32	528.96
569.48	482.15
569.64	430.66
569.81	430.66
569.97	451.72
570.13	561.73
570.30	362.78
570.46	353.42
570.62	339.38
570.78	416.62
570.95	388.53
571.11	416.62
571.27	428.32
571.43	322.99
571.60	393.21
571.76	339.38
571.92	383.85
572.09	414.27
572.25	372.15
572.41	383.85
572.57	358.10
572.74	425.98
572.90	411.93
573.06	390.87
573.22	393.21
573.38	440.02
573.55	425.98
573.71	468.11
573.87	397.89
574.03	362.78
574.20	433.00
574.36	428.32
574.52	409.59
574.68	411.93
574.84	442.36
575.01	437.68
575.17	512.58
575.33	458.74
575.49	528.96
575.65	636.63
575.82	622.58
575.98	552.37
576.14	713.86
576.30	1453.47
576.46	4589.79
576.62	7005.22
576.79	7307.15
576.95	5083.64
577.11	3471.01
577.27	2546.50
577.43	1617.31
577.59	1186.65
577.75	938.55
577.92	779.40
578.08	875.36
578.24	887.06
578.40	1703.91
578.56	4620.22
578.72	6822.66
578.88	6707.98
579.04	5029.81
579.21	3473.36
579.37	2740.77
579.53	2099.46
579.69	2136.91
579.85	2621.40
580.01	2796.94
580.17	2597.99
580.33	2338.20
580.49	1877.11
580.65	1804.55
580.82	1715.61
580.98	1661.78
581.14	1680.50
581.30	1813.92
581.46	1935.62
581.62	2113.50
581.78	2097.12
581.94	2399.05
582.10	2333.51
582.26	2555.86
582.42	2630.76
582.58	2715.02
582.74	2782.90
582.90	2862.48
583.06	2862.48
583.22	2825.03
583.38	2787.58
583.54	2750.13
583.70	2883.54
583.86	2717.36
584.02	2698.64
584.18	2724.38
584.34	2630.76
584.50	2513.74
584.66	2586.29
584.82	2567.57
584.98	2370.96
585.14	2380.32
585.30	2331.17
585.46	2321.81
585.62	2300.75
585.78	2328.83
585.94	2382.67
586.10	2487.99
586.26	2544.16
586.42	2911.63
586.58	3459.31
586.74	4131.05
586.90	5046.20
587.06	5369.19
587.22	5050.88
587.38	4627.24
587.54	3918.06
587.70	3445.27
587.86	2920.99
588.02	2417.77
588.18	2232.87
588.34	2066.69
588.49	1809.23
588.65	1689.87
588.81	1811.57
588.97	1708.59
589.13	1598.59
589.29	1689.87
589.45	1596.25
589.61	1469.86
589.77	1472.20
589.93	1572.84
590.08	1661.78
590.24	1624.33
590.40	1795.19
590.56	1734.34
590.72	1856.04
590.88	1837.32
591.04	1884.13
591.20	2001.16
591.35	2094.78
591.51	2097.12
591.67	2155.63
591.83	2445.86
591.99	2628.42
592.15	2708.00
592.31	2965.46
592.46	3349.31
592.62	3658.26
592.78	3742.52
592.94	3784.65
593.10	3590.38
593.26	3641.87
593.41	3199.51
593.57	3000.57
593.73	2672.89
593.89	2392.03
594.05	2153.29
594.20	2026.90
594.36	1774.13
594.52	1633.69
594.68	1563.48
594.84	1619.65
594.99	1537.73
595.15	1425.39
595.31	1481.56
595.47	1465.18
595.62	1486.24
595.78	1376.24
595.94	1420.71
596.10	1511.99
596.25	1357.51
596.41	1350.49
596.57	1406.66
596.73	1369.21
596.88	1392.62
597.04	1420.71
597.20	1423.05
597.36	1490.92
597.51	1603.27
597.67	1554.12
597.83	1614.97
597.99	1792.85
598.14	1717.95
598.30	1867.75
598.46	1928.60
598.61	2087.76
598.77	2183.72
598.93	2146.27
599.09	2303.09
599.24	2260.96
599.40	2244.57
599.56	2333.51
599.71	2134.57
599.87	2099.46
600.03	1858.39
600.18	1797.53
600.34	1753.06
600.50	1504.96
600.65	1495.60
600.81	1432.41
600.97	1277.93
601.12	1282.61
601.28	1214.74
601.44	1107.07
601.59	1144.52
601.75	1160.91
601.91	1163.25
602.06	1046.22
602.22	1203.04
602.37	961.96
602.53	1027.50
602.69	959.62
602.84	983.02
603.00	922.17
603.16	987.71
603.31	1039.20
603.47	994.73
603.62	1046.22
603.78	1090.69
603.94	1118.78
604.09	1093.03
604.25	1116.44
604.40	1064.94
604.56	1111.75
604.71	1210.06
604.87	1151.54
605.03	1135.16
605.18	1212.40
605.34	1231.12
605.49	1256.87
605.65	1233.46
605.80	1371.55
605.96	1364.53
606.12	1409.00
606.27	1430.07
606.43	1469.86
