SpectraSuite Data File
++++++++++++++++++++++++++++++++++++
Date: Fri Oct 04 11:42:14 GMT-05:00 2013
User: price-jones
Dark Spectrum Present: No
Reference Spectrum Present: No
Number of Sampled Component Spectra: 1
Spectrometers: USB2+H05261
Integration Time (usec): 100000 (USB2+H05261)
Spectra Averaged: 1 (USB2+H05261)
Boxcar Smoothing: 0 (USB2+H05261)
Correct for Electrical Dark: No (USB2+H05261)
Strobe/Lamp Enabled: No (USB2+H05261)
Correct for Detector Non-linearity: No (USB2+H05261)
Correct for Stray Light: No (USB2+H05261)
Number of Pixels in Processed Spectrum: 2048
>>>>>Begin Processed Spectral Data<<<<<
365.73	46.81
365.92	46.81
366.12	46.81
366.32	0.00
366.52	0.00
366.72	0.00
366.91	0.00
367.11	0.00
367.31	0.00
367.51	0.00
367.70	0.00
367.90	0.00
368.10	0.00
368.30	0.00
368.49	0.00
368.69	0.00
368.89	0.00
369.09	0.00
369.28	0.00
369.48	4.68
369.68	0.00
369.87	44.47
370.07	0.00
370.27	0.00
370.47	0.00
370.66	121.71
370.86	110.01
371.06	98.30
371.25	227.03
371.45	126.39
371.65	147.45
371.84	184.90
372.04	98.30
372.24	203.63
372.44	180.22
372.63	217.67
372.83	149.79
373.03	243.42
373.22	170.86
373.42	238.73
373.62	175.54
373.81	189.58
374.01	241.08
374.21	194.26
374.40	255.12
374.60	196.60
374.79	227.03
374.99	250.44
375.19	166.18
375.38	236.39
375.58	222.35
375.78	198.95
375.97	159.16
376.17	231.71
376.37	184.90
376.56	220.01
376.76	236.39
376.95	180.22
377.15	177.88
377.35	271.50
377.54	311.29
377.74	163.84
377.93	245.76
378.13	266.82
378.33	245.76
378.52	255.12
378.72	114.69
378.91	229.37
379.11	194.26
379.31	131.07
379.50	138.09
379.70	182.56
379.89	245.76
380.09	194.26
380.28	212.99
380.48	194.26
380.68	163.84
380.87	208.31
381.07	203.63
381.26	191.92
381.46	159.16
381.65	215.33
381.85	147.45
382.04	175.54
382.24	133.41
382.43	156.82
382.63	170.86
382.83	212.99
383.02	154.48
383.22	205.97
383.41	196.60
383.61	168.52
383.80	175.54
384.00	187.24
384.19	243.42
384.39	252.78
384.58	119.37
384.78	208.31
384.97	231.71
385.17	177.88
385.36	102.98
385.56	283.20
385.75	154.48
385.95	245.76
386.14	238.73
386.34	224.69
386.53	161.50
386.72	224.69
386.92	271.50
387.11	269.16
387.31	229.37
387.50	128.73
387.70	112.35
387.89	229.37
388.09	236.39
388.28	184.90
388.48	205.97
388.67	189.58
388.86	255.12
389.06	189.58
389.25	184.90
389.45	182.56
389.64	304.27
389.84	217.67
390.03	241.08
390.22	238.73
390.42	285.55
390.61	264.48
390.81	156.82
391.00	212.99
391.19	271.50
391.39	262.14
391.58	255.12
391.78	337.04
391.97	266.82
392.16	306.61
392.36	311.29
392.55	203.63
392.75	173.20
392.94	222.35
393.13	208.31
393.33	212.99
393.52	222.35
393.71	271.50
393.91	285.55
394.10	229.37
394.29	220.01
394.49	250.44
394.68	266.82
394.88	271.50
395.07	283.20
395.26	177.88
395.46	278.52
395.65	278.52
395.84	229.37
396.04	266.82
396.23	194.26
396.42	152.13
396.62	182.56
396.81	208.31
397.00	166.18
397.19	241.08
397.39	238.73
397.58	402.57
397.77	297.25
397.97	220.01
398.16	304.27
398.35	390.87
398.55	322.99
398.74	306.61
398.93	344.06
399.12	248.10
399.32	339.38
399.51	365.12
399.70	308.95
399.90	327.68
400.09	425.98
400.28	348.74
400.47	266.82
400.67	437.68
400.86	376.83
401.05	362.78
401.24	372.15
401.44	390.87
401.63	388.53
401.82	339.38
402.01	327.68
402.21	376.83
402.40	444.70
402.59	379.17
402.78	351.08
402.97	423.64
403.17	383.85
403.36	376.83
403.55	430.66
403.74	360.44
403.93	390.87
404.13	440.02
404.32	510.24
404.51	524.28
404.70	442.36
404.89	311.29
405.09	475.13
405.28	367.46
405.47	318.31
405.66	332.36
405.85	346.40
406.05	315.97
406.24	318.31
406.43	376.83
406.62	367.46
406.81	351.08
407.00	355.76
407.20	418.96
407.39	355.76
407.58	348.74
407.77	353.42
407.96	395.55
408.15	395.55
408.34	428.32
408.54	440.02
408.73	337.04
408.92	376.83
409.11	393.21
409.30	346.40
409.49	360.44
409.68	344.06
409.87	393.21
410.07	379.17
410.26	383.85
410.45	402.57
410.64	437.68
410.83	435.34
411.02	451.72
411.21	491.51
411.40	440.02
411.59	355.76
411.78	390.87
411.98	425.98
412.17	404.91
412.36	423.64
412.55	355.76
412.74	344.06
412.93	470.45
413.12	376.83
413.31	444.70
413.50	372.15
413.69	475.13
413.88	416.62
414.07	442.36
414.26	409.59
414.45	407.25
414.64	449.38
414.83	416.62
415.02	379.17
415.22	456.40
415.41	411.93
415.60	451.72
415.79	454.06
415.98	498.53
416.17	458.74
416.36	437.68
416.55	461.09
416.74	409.59
416.93	456.40
417.12	470.45
417.31	414.27
417.50	454.06
417.69	468.11
417.88	489.17
418.07	444.70
418.26	507.90
418.45	433.00
418.64	409.59
418.83	507.90
419.02	496.19
419.21	433.00
419.39	510.24
419.58	435.34
419.77	540.66
419.96	507.90
420.15	514.92
420.34	369.80
420.53	531.30
420.72	505.56
420.91	512.58
421.10	409.59
421.29	449.38
421.48	510.24
421.67	442.36
421.86	493.85
422.05	531.30
422.24	449.38
422.43	454.06
422.61	437.68
422.80	461.09
422.99	493.85
423.18	458.74
423.37	461.09
423.56	547.69
423.75	470.45
423.94	442.36
424.13	507.90
424.32	463.43
424.50	500.87
424.69	468.11
424.88	498.53
425.07	337.04
425.26	414.27
425.45	489.17
425.64	463.43
425.83	444.70
426.01	482.15
426.20	451.72
426.39	428.32
426.58	447.04
426.77	444.70
426.96	358.10
427.15	369.80
427.33	409.59
427.52	421.30
427.71	463.43
427.90	521.94
428.09	409.59
428.28	425.98
428.46	393.21
428.65	479.81
428.84	465.77
429.03	496.19
429.22	421.30
429.40	269.16
429.59	322.99
429.78	367.46
429.97	339.38
430.16	341.72
430.34	374.49
430.53	339.38
430.72	327.68
430.91	393.21
431.10	451.72
431.28	503.22
431.47	528.96
431.66	512.58
431.85	470.45
432.03	411.93
432.22	498.53
432.41	430.66
432.60	543.00
432.79	470.45
432.97	566.41
433.16	454.06
433.35	414.27
433.54	447.04
433.72	470.45
433.91	526.62
434.10	526.62
434.28	458.74
434.47	528.96
434.66	552.37
434.85	512.58
435.03	655.35
435.22	908.13
435.41	1350.49
435.59	1273.25
435.78	1149.20
435.97	830.89
436.16	699.82
436.34	498.53
436.53	613.22
436.72	547.69
436.90	500.87
437.09	465.77
437.28	552.37
437.46	482.15
437.65	535.98
437.84	545.34
438.02	447.04
438.21	512.58
438.40	458.74
438.58	564.07
438.77	587.47
438.96	486.83
439.14	559.39
439.33	564.07
439.52	491.51
439.70	454.06
439.89	599.18
440.08	489.17
440.26	493.85
440.45	540.66
440.63	489.17
440.82	500.87
441.01	493.85
441.19	550.03
441.38	489.17
441.57	578.11
441.75	657.69
441.94	699.82
442.12	571.09
442.31	543.00
442.50	526.62
442.68	489.17
442.87	524.28
443.05	606.20
443.24	620.24
443.43	622.58
443.61	645.99
443.80	589.82
443.98	610.88
444.17	603.86
444.35	575.77
444.54	587.47
444.73	582.79
444.91	655.35
445.10	482.15
445.28	475.13
445.47	599.18
445.65	606.20
445.84	540.66
446.02	554.71
446.21	557.05
446.39	613.22
446.58	547.69
446.77	662.37
446.95	571.09
447.14	613.22
447.32	592.16
447.51	540.66
447.69	589.82
447.88	638.97
448.06	622.58
448.25	566.41
448.43	585.13
448.62	589.82
448.80	634.29
448.99	704.50
449.17	575.77
449.36	528.96
449.54	629.60
449.73	664.71
449.91	716.20
450.10	524.28
450.28	674.07
450.46	713.86
450.65	655.35
450.83	589.82
451.02	641.31
451.20	594.50
451.39	657.69
451.57	662.37
451.76	613.22
451.94	702.16
452.13	624.92
452.31	692.80
452.49	564.07
452.68	510.24
452.86	535.98
453.05	629.60
453.23	521.94
453.42	678.76
453.60	613.22
453.78	561.73
453.97	559.39
454.15	587.47
454.34	596.84
454.52	641.31
454.70	634.29
454.89	596.84
455.07	603.86
455.26	690.46
455.44	615.56
455.62	692.80
455.81	650.67
455.99	634.29
456.17	716.20
456.36	603.86
456.54	634.29
456.73	660.03
456.91	631.94
457.09	683.44
457.28	671.73
457.46	634.29
457.64	681.10
457.83	622.58
458.01	582.79
458.19	620.24
458.38	692.80
458.56	730.25
458.74	592.16
458.93	610.88
459.11	671.73
459.29	688.12
459.48	648.33
459.66	627.26
459.84	636.63
460.03	793.44
460.21	678.76
460.39	737.27
460.57	720.88
460.76	720.88
460.94	741.95
461.12	655.35
461.31	662.37
461.49	702.16
461.67	650.67
461.85	704.50
462.04	657.69
462.22	805.14
462.40	559.39
462.59	688.12
462.77	695.14
462.95	594.50
463.13	648.33
463.32	760.67
463.50	601.52
463.68	697.48
463.86	638.97
464.05	653.01
464.23	545.34
464.41	617.90
464.59	578.11
464.78	582.79
464.96	645.99
465.14	657.69
465.32	578.11
465.50	702.16
465.69	730.25
465.87	564.07
466.05	582.79
466.23	468.11
466.41	526.62
466.60	627.26
466.78	648.33
466.96	645.99
467.14	667.05
467.32	760.67
467.51	725.57
467.69	667.05
467.87	713.86
468.05	657.69
468.23	744.29
468.41	643.65
468.60	613.22
468.78	594.50
468.96	608.54
469.14	638.97
469.32	704.50
469.50	589.82
469.69	674.07
469.87	601.52
470.05	655.35
470.23	528.96
470.41	697.48
470.59	620.24
470.77	655.35
470.95	622.58
471.14	662.37
471.32	620.24
471.50	650.67
471.68	653.01
471.86	690.46
472.04	709.18
472.22	748.97
472.40	631.94
472.58	657.69
472.77	662.37
472.95	718.54
473.13	702.16
473.31	805.14
473.49	650.67
473.67	662.37
473.85	669.39
474.03	655.35
474.21	716.20
474.39	779.40
474.57	725.57
474.75	676.41
474.93	634.29
475.12	627.26
475.30	676.41
475.48	746.63
475.66	725.57
475.84	695.14
476.02	685.78
476.20	648.33
476.38	657.69
476.56	770.04
476.74	674.07
476.92	685.78
477.10	725.57
477.28	781.74
477.46	734.93
477.64	767.70
477.82	734.93
478.00	763.01
478.18	802.80
478.36	695.14
478.54	767.70
478.72	732.59
478.90	711.52
479.08	800.46
479.26	727.91
479.44	842.59
479.62	849.61
479.80	837.91
479.98	699.82
480.16	777.06
480.34	800.46
480.52	793.44
480.70	823.87
480.88	779.40
481.06	746.63
481.24	819.19
481.41	905.79
481.59	889.40
481.77	812.17
481.95	823.87
482.13	896.43
482.31	751.31
482.49	884.72
482.67	933.87
482.85	940.90
483.03	924.51
483.21	840.25
483.39	889.40
483.57	870.68
483.74	940.90
483.92	922.17
484.10	793.44
484.28	891.74
484.46	917.49
484.64	999.41
484.82	959.62
485.00	891.74
485.18	931.53
485.35	854.30
485.53	844.93
485.71	816.85
485.89	758.33
486.07	819.19
486.25	903.45
486.43	940.90
486.61	877.70
486.78	966.64
486.96	947.92
487.14	821.53
487.32	978.34
487.50	1043.88
487.68	959.62
487.85	1076.65
488.03	1057.92
488.21	1001.75
488.39	1156.22
488.57	931.53
488.75	912.81
488.92	1261.55
489.10	976.00
489.28	1078.99
489.46	1022.81
489.64	1046.22
489.81	1100.05
489.99	1088.35
490.17	1046.22
490.35	1130.48
490.53	1025.15
490.70	978.34
490.88	1074.31
491.06	1015.79
491.24	1050.90
491.41	1095.37
491.59	1111.75
491.77	1006.43
491.95	1069.62
492.13	1029.84
492.30	1041.54
492.48	1039.20
492.66	1151.54
492.84	1022.81
493.01	1093.03
493.19	1128.14
493.37	1071.97
493.54	1074.31
493.72	983.02
493.90	1160.91
494.08	1128.14
494.25	1132.82
494.43	1167.93
494.61	1039.20
494.79	1156.22
494.96	1165.59
495.14	1069.62
495.32	1076.65
495.49	1076.65
495.67	1160.91
495.85	1167.93
496.02	1118.78
496.20	1186.65
496.38	1177.29
496.55	1029.84
496.73	1205.38
496.91	1170.27
497.09	1296.66
497.26	1200.69
497.44	1151.54
497.62	1233.46
497.79	1083.67
497.97	1137.50
498.14	1114.10
498.32	1036.86
498.50	1118.78
498.67	1167.93
498.85	1254.53
499.03	1179.63
499.20	1240.48
499.38	1186.65
499.56	1090.69
499.73	1172.61
499.91	1165.59
500.08	1081.33
500.26	1048.56
500.44	1181.97
500.61	1130.48
500.79	1088.35
500.97	1118.78
501.14	1090.69
501.32	1104.73
501.49	1111.75
501.67	1064.94
501.84	1125.80
502.02	1078.99
502.20	1132.82
502.37	1076.65
502.55	1064.94
502.72	1095.37
502.90	1146.86
503.07	1088.35
503.25	1125.80
503.43	1011.11
503.60	999.41
503.78	1057.92
503.95	971.32
504.13	1128.14
504.30	1114.10
504.48	1238.14
504.65	1090.69
504.83	1149.20
505.01	1160.91
505.18	1071.97
505.36	1193.67
505.53	1046.22
505.71	1226.44
505.88	1256.87
506.06	1233.46
506.23	1165.59
506.41	1123.46
506.58	1097.71
506.76	1090.69
506.93	1109.41
507.11	1109.41
507.28	1153.88
507.46	1090.69
507.63	1128.14
507.81	1076.65
507.98	1083.67
508.16	1174.95
508.33	1046.22
508.50	1100.05
508.68	1210.06
508.85	1177.29
509.03	1165.59
509.20	1170.27
509.38	1177.29
509.55	1181.97
509.73	1184.31
509.90	1160.91
510.08	1111.75
510.25	1097.71
510.42	1177.29
510.60	1191.33
510.77	1137.50
510.95	1235.80
511.12	1191.33
511.30	1207.72
511.47	1249.85
511.64	1214.74
511.82	1153.88
511.99	1128.14
512.17	1167.93
512.34	1144.52
512.51	1118.78
512.69	1144.52
512.86	1165.59
513.04	1240.48
513.21	1233.46
513.38	1177.29
513.56	1086.01
513.73	1020.47
513.90	1064.94
514.08	1111.75
514.25	1018.13
514.43	1118.78
514.60	1078.99
514.77	1177.29
514.95	1116.44
515.12	1146.86
515.29	1149.20
515.47	1165.59
515.64	1200.69
515.81	1228.78
515.99	1191.33
516.16	1114.10
516.33	983.02
516.51	1107.07
516.68	983.02
516.85	997.07
517.03	1046.22
517.20	1118.78
517.37	1090.69
517.54	1086.01
517.72	1128.14
517.89	994.73
518.06	924.51
518.24	1025.15
518.41	1235.80
518.58	1095.37
518.75	1060.26
518.93	1107.07
519.10	1022.81
519.27	1078.99
519.45	1163.25
519.62	1235.80
519.79	1144.52
519.96	1100.05
520.14	1198.35
520.31	1118.78
520.48	1093.03
520.65	1153.88
520.83	1170.27
521.00	1233.46
521.17	1210.06
521.34	1240.48
521.52	1188.99
521.69	1240.48
521.86	1277.93
522.03	1221.76
522.20	1165.59
522.38	1100.05
522.55	1163.25
522.72	1104.73
522.89	1146.86
523.07	1160.91
523.24	1207.72
523.41	1167.93
523.58	1172.61
523.75	1270.91
523.92	1188.99
524.10	1259.21
524.27	1245.16
524.44	1191.33
524.61	1228.78
524.78	1191.33
524.96	1123.46
525.13	1224.10
525.30	1294.32
525.47	1198.35
525.64	1226.44
525.81	1179.63
525.98	1132.82
526.16	1034.52
526.33	1064.94
526.50	983.02
526.67	994.73
526.84	1067.28
527.01	1020.47
527.18	1116.44
527.36	1097.71
527.53	1081.33
527.70	1233.46
527.87	1174.95
528.04	1200.69
528.21	1156.22
528.38	1348.15
528.55	1280.27
528.72	1249.85
528.89	1355.17
529.07	1231.12
529.24	1114.10
529.41	1188.99
529.58	1156.22
529.75	1137.50
529.92	1200.69
530.09	1219.42
530.26	1210.06
530.43	1233.46
530.60	1245.16
530.77	1191.33
530.94	1217.08
531.11	1191.33
531.28	1221.76
531.46	1188.99
531.63	1224.10
531.80	1235.80
531.97	1109.41
532.14	1142.18
532.31	1249.85
532.48	1153.88
532.65	1153.88
532.82	1174.95
532.99	1207.72
533.16	1221.76
533.33	1198.35
533.50	1186.65
533.67	1193.67
533.84	1156.22
534.01	1256.87
534.18	1170.27
534.35	1273.25
534.52	1165.59
534.69	1273.25
534.86	1074.31
535.03	1247.51
535.20	1146.86
535.37	1366.87
535.54	1263.89
535.71	1252.19
535.88	1146.86
536.05	1221.76
536.22	1284.95
536.38	1249.85
536.55	1188.99
536.72	1214.74
536.89	1282.61
537.06	1282.61
537.23	1247.51
537.40	1299.00
537.57	1261.55
537.74	1324.74
537.91	1315.38
538.08	1315.38
538.25	1315.38
538.42	1280.27
538.59	1240.48
538.75	1287.29
538.92	1409.00
539.09	1430.07
539.26	1294.32
539.43	1430.07
539.60	1437.09
539.77	1409.00
539.94	1467.52
540.11	1444.11
540.28	1439.43
540.44	1507.30
540.61	1488.58
540.78	1631.35
540.95	1715.61
541.12	1888.81
541.29	1942.64
541.46	2090.10
541.62	1961.37
541.79	1959.03
541.96	1907.54
542.13	1949.67
542.30	1811.57
542.47	1930.94
542.63	1767.10
542.80	1736.68
542.97	1823.28
543.14	1905.20
543.31	1788.17
543.48	1820.94
543.64	1858.39
543.81	1863.07
543.98	1839.66
544.15	1753.06
544.32	1802.21
544.48	1727.32
544.65	1797.53
544.82	1762.42
544.99	1771.79
545.16	1675.82
545.32	1912.22
545.49	2221.17
545.66	3009.93
545.83	3435.91
546.00	3075.46
546.16	2539.48
546.33	2076.06
546.50	1947.33
546.67	1689.87
546.83	1708.59
547.00	1526.03
547.17	1511.99
547.34	1495.60
547.50	1486.24
547.67	1486.24
547.84	1448.79
548.00	1483.90
548.17	1591.56
548.34	1493.26
548.51	1547.09
548.67	1638.38
548.84	1481.56
549.01	1497.94
549.18	1394.96
549.34	1430.07
549.51	1373.89
549.68	1458.15
549.84	1357.51
550.01	1315.38
550.18	1411.34
550.34	1455.81
550.51	1343.47
550.68	1364.53
550.84	1219.42
551.01	1308.36
551.18	1275.59
551.34	1369.21
551.51	1359.85
551.68	1355.17
551.84	1252.19
552.01	1280.27
552.18	1315.38
552.34	1282.61
552.51	1144.52
552.68	1203.04
552.84	1212.40
553.01	1191.33
553.18	1266.23
553.34	1212.40
553.51	1186.65
553.67	1231.12
553.84	1284.95
554.01	1233.46
554.17	1135.16
554.34	1153.88
554.51	1104.73
554.67	1170.27
554.84	1139.84
555.00	1135.16
555.17	1224.10
555.33	1249.85
555.50	1067.28
555.67	1158.57
555.83	1095.37
556.00	1151.54
556.16	1306.02
556.33	1153.88
556.50	1167.93
556.66	1081.33
556.83	1100.05
556.99	1100.05
557.16	994.73
557.32	1015.79
557.49	1128.14
557.65	1186.65
557.82	1149.20
557.98	1078.99
558.15	1116.44
558.32	1022.81
558.48	1027.50
558.65	1130.48
558.81	1097.71
558.98	1032.18
559.14	1053.24
559.31	1093.03
559.47	1111.75
559.64	1039.20
559.80	1027.50
559.97	1109.41
560.13	1097.71
560.30	1013.45
560.46	1064.94
560.63	1132.82
560.79	1111.75
560.96	1090.69
561.12	1043.88
561.29	1036.86
561.45	971.32
561.61	1006.43
561.78	1111.75
561.94	1076.65
562.11	1060.26
562.27	1055.58
562.44	1013.45
562.60	1067.28
562.77	1060.26
562.93	1160.91
563.10	1153.88
563.26	1076.65
563.42	1062.60
563.59	1114.10
563.75	1022.81
563.92	1032.18
564.08	1015.79
564.24	1116.44
564.41	1104.73
564.57	1036.86
564.74	1078.99
564.90	1048.56
565.07	1008.77
565.23	1107.07
565.39	1036.86
565.56	954.94
565.72	1004.09
565.88	990.05
566.05	1064.94
566.21	931.53
566.38	1090.69
566.54	1078.99
566.70	1050.90
566.87	929.19
567.03	1043.88
567.19	985.37
567.36	1036.86
567.52	980.68
567.68	990.05
567.85	1053.24
568.01	983.02
568.17	950.26
568.34	954.94
568.50	976.00
568.66	866.00
568.83	994.73
568.99	964.30
569.15	880.04
569.32	976.00
569.48	971.32
569.64	983.02
569.81	992.39
569.97	980.68
570.13	1020.47
570.30	936.21
570.46	1057.92
570.62	978.34
570.78	952.60
570.95	929.19
571.11	999.41
571.27	971.32
571.43	976.00
571.60	910.47
571.76	1032.18
571.92	1008.77
572.09	983.02
572.25	971.32
572.41	978.34
572.57	891.74
572.74	1039.20
572.90	940.90
573.06	976.00
573.22	1048.56
573.38	971.32
573.55	945.58
573.71	947.92
573.87	905.79
574.03	940.90
574.20	781.74
574.36	912.81
574.52	924.51
574.68	905.79
574.84	875.36
575.01	940.90
575.17	856.64
575.33	931.53
575.49	961.96
575.65	983.02
575.82	905.79
575.98	959.62
576.14	873.02
576.30	1015.79
576.46	1104.73
576.62	1275.59
576.79	1350.49
576.95	1296.66
577.11	1142.18
577.27	1029.84
577.43	1069.62
577.59	1015.79
577.75	980.68
577.92	999.41
578.08	994.73
578.24	936.21
578.40	992.39
578.56	1310.70
578.72	1355.17
578.88	1294.32
579.04	1327.08
579.21	1174.95
579.37	1027.50
579.53	1015.79
579.69	1018.13
579.85	1111.75
580.01	1139.84
580.17	1111.75
580.33	1022.81
580.49	1102.39
580.65	1062.60
580.82	1032.18
580.98	1043.88
581.14	1107.07
581.30	1083.67
581.46	1027.50
581.62	987.71
581.78	1041.54
581.94	1027.50
582.10	1083.67
582.26	1062.60
582.42	1086.01
582.58	1160.91
582.74	1076.65
582.90	1160.91
583.06	1160.91
583.22	1153.88
583.38	1069.62
583.54	994.73
583.70	1172.61
583.86	1139.84
584.02	1100.05
584.18	1177.29
584.34	1097.71
584.50	1118.78
584.66	1015.79
584.82	1006.43
584.98	1121.12
585.14	1004.09
585.30	1114.10
585.46	1011.11
585.62	987.71
585.78	1027.50
585.94	1004.09
586.10	1039.20
586.26	985.37
586.42	1064.94
586.58	1207.72
586.74	1095.37
586.90	1165.59
587.06	1151.54
587.22	1114.10
587.38	1130.48
587.54	1090.69
587.70	1100.05
587.86	1022.81
588.02	1011.11
588.18	950.26
588.34	849.61
588.49	732.59
588.65	816.85
588.81	835.57
588.97	739.61
589.13	887.06
589.29	781.74
589.45	826.21
589.61	699.82
589.77	807.48
589.93	847.27
590.08	938.55
590.24	894.08
590.40	915.15
590.56	856.64
590.72	863.66
590.88	880.04
591.04	915.15
591.20	844.93
591.35	866.00
591.51	842.59
591.67	851.96
591.83	847.27
591.99	961.96
592.15	957.28
592.31	973.66
592.46	954.94
592.62	1032.18
592.78	997.07
592.94	1067.28
593.10	1004.09
593.26	1034.52
593.41	922.17
593.57	973.66
593.73	976.00
593.89	901.11
594.05	830.89
594.20	760.67
594.36	821.53
594.52	809.83
594.68	779.40
594.84	882.38
594.99	873.02
595.15	854.30
595.31	950.26
595.47	858.98
595.62	917.49
595.78	903.45
595.94	971.32
596.10	950.26
596.25	856.64
596.41	835.57
596.57	823.87
596.73	821.53
596.88	842.59
597.04	851.96
597.20	842.59
597.36	905.79
597.51	772.38
597.67	849.61
597.83	947.92
597.99	873.02
598.14	910.47
598.30	898.77
598.46	945.58
598.61	905.79
598.77	894.08
598.93	908.13
599.09	924.51
599.24	940.90
599.40	999.41
599.56	931.53
599.71	1015.79
599.87	945.58
600.03	933.87
600.18	950.26
600.34	903.45
600.50	950.26
600.65	882.38
600.81	863.66
600.97	854.30
601.12	854.30
601.28	933.87
601.44	847.27
601.59	870.68
601.75	842.59
601.91	833.23
602.06	919.83
602.22	889.40
602.37	901.11
602.53	835.57
602.69	915.15
602.84	858.98
603.00	828.55
603.16	791.10
603.31	976.00
603.47	866.00
603.62	786.42
603.78	889.40
603.94	844.93
604.09	891.74
604.25	912.81
604.40	891.74
604.56	844.93
604.71	901.11
604.87	873.02
