SpectraSuite Data File
++++++++++++++++++++++++++++++++++++
Date: Fri Oct 04 11:42:17 GMT-05:00 2013
User: price-jones
Dark Spectrum Present: No
Reference Spectrum Present: No
Number of Sampled Component Spectra: 1
Spectrometers: USB2+H05261
Integration Time (usec): 100000 (USB2+H05261)
Spectra Averaged: 1 (USB2+H05261)
Boxcar Smoothing: 0 (USB2+H05261)
Correct for Electrical Dark: No (USB2+H05261)
Strobe/Lamp Enabled: No (USB2+H05261)
Correct for Detector Non-linearity: No (USB2+H05261)
Correct for Stray Light: No (USB2+H05261)
Number of Pixels in Processed Spectrum: 2048
>>>>>Begin Processed Spectral Data<<<<<
365.73	21.06
365.92	21.06
366.12	21.06
366.32	0.00
366.52	0.00
366.72	53.83
366.91	0.00
367.11	0.00
367.31	0.00
367.51	0.00
367.70	0.00
367.90	0.00
368.10	0.00
368.30	0.00
368.49	0.00
368.69	0.00
368.89	4.68
369.09	0.00
369.28	0.00
369.48	0.00
369.68	0.00
369.87	0.00
370.07	0.00
370.27	23.41
370.47	35.11
370.66	334.70
370.86	383.85
371.06	334.70
371.25	376.83
371.45	376.83
371.65	381.51
371.84	348.74
372.04	423.64
372.24	374.49
372.44	416.62
372.63	395.55
372.83	416.62
373.03	400.23
373.22	388.53
373.42	308.95
373.62	425.98
373.81	444.70
374.01	500.87
374.21	444.70
374.40	383.85
374.60	367.46
374.79	386.19
374.99	430.66
375.19	470.45
375.38	454.06
375.58	458.74
375.78	482.15
375.97	482.15
376.17	503.22
376.37	440.02
376.56	463.43
376.76	430.66
376.95	533.64
377.15	552.37
377.35	631.94
377.54	561.73
377.74	603.86
377.93	596.84
378.13	568.75
378.33	582.79
378.52	566.41
378.72	535.98
378.91	430.66
379.11	543.00
379.31	484.49
379.50	484.49
379.70	524.28
379.89	559.39
380.09	507.90
380.28	571.09
380.48	615.56
380.68	449.38
380.87	545.34
381.07	491.51
381.26	521.94
381.46	444.70
381.65	421.30
381.85	395.55
382.04	414.27
382.24	397.89
382.43	365.12
382.63	346.40
382.83	423.64
383.02	433.00
383.22	388.53
383.41	437.68
383.61	376.83
383.80	447.04
384.00	573.43
384.19	580.45
384.39	653.01
384.58	580.45
384.78	519.60
384.97	608.54
385.17	564.07
385.36	421.30
385.56	489.17
385.75	519.60
385.95	545.34
386.14	622.58
386.34	606.20
386.53	538.32
386.72	503.22
386.92	573.43
387.11	603.86
387.31	578.11
387.50	599.18
387.70	596.84
387.89	554.71
388.09	566.41
388.28	622.58
388.48	617.90
388.67	620.24
388.86	636.63
389.06	601.52
389.25	716.20
389.45	727.91
389.64	636.63
389.84	765.36
390.03	674.07
390.22	638.97
390.42	741.95
390.61	699.82
390.81	770.04
391.00	755.99
391.19	814.51
391.39	833.23
391.58	706.84
391.78	697.48
391.97	645.99
392.16	751.31
392.36	613.22
392.55	557.05
392.75	400.23
392.94	362.78
393.13	355.76
393.33	386.19
393.52	489.17
393.71	571.09
393.91	613.22
394.10	615.56
394.29	751.31
394.49	767.70
394.68	889.40
394.88	795.78
395.07	847.27
395.26	791.10
395.46	868.34
395.65	779.40
395.84	718.54
396.04	631.94
396.23	458.74
396.42	465.77
396.62	428.32
396.81	557.05
397.00	564.07
397.19	699.82
397.39	821.53
397.58	844.93
397.77	847.27
397.97	931.53
398.16	983.02
398.35	1057.92
398.55	1083.67
398.74	1095.37
398.93	1088.35
399.12	1069.62
399.32	1041.54
399.51	1078.99
399.70	1132.82
399.90	1158.57
400.09	1053.24
400.28	1083.67
400.47	1167.93
400.67	1228.78
400.86	1221.76
401.05	1196.01
401.24	1235.80
401.44	1167.93
401.63	1198.35
401.82	1254.53
402.01	1343.47
402.21	1165.59
402.40	1207.72
402.59	1188.99
402.78	1170.27
402.97	1121.12
403.17	1111.75
403.36	1287.29
403.55	1228.78
403.74	1284.95
403.93	1282.61
404.13	1268.57
404.32	1291.98
404.51	1221.76
404.70	1280.27
404.89	1184.31
405.09	1256.87
405.28	1170.27
405.47	1130.48
405.66	1266.23
405.85	1095.37
406.05	1090.69
406.24	1149.20
406.43	1252.19
406.62	1289.64
406.81	1301.34
407.00	1123.46
407.20	1172.61
407.39	1219.42
407.58	1247.51
407.77	1196.01
407.96	1256.87
408.15	1207.72
408.34	1317.72
408.54	1383.26
408.73	1467.52
408.92	1357.51
409.11	1331.76
409.30	1357.51
409.49	1177.29
409.68	1172.61
409.87	1149.20
410.07	1196.01
410.26	1245.16
410.45	1193.67
410.64	1303.68
410.83	1334.11
411.02	1462.83
411.21	1404.32
411.40	1448.79
411.59	1465.18
411.78	1507.30
411.98	1364.53
412.17	1378.58
412.36	1439.43
412.55	1409.00
412.74	1343.47
412.93	1369.21
413.12	1343.47
413.31	1465.18
413.50	1495.60
413.69	1479.22
413.88	1409.00
414.07	1352.83
414.26	1544.75
414.45	1441.77
414.64	1397.30
414.83	1589.22
415.02	1533.05
415.22	1514.33
415.41	1530.71
415.60	1504.96
415.79	1563.48
415.98	1701.57
416.17	1710.93
416.36	1504.96
416.55	1497.94
416.74	1579.86
416.93	1502.62
417.12	1462.83
417.31	1500.28
417.50	1427.73
417.69	1664.12
417.88	1474.54
418.07	1462.83
418.26	1544.75
418.45	1556.46
418.64	1577.52
418.83	1579.86
419.02	1650.08
419.21	1575.18
419.39	1511.99
419.58	1476.88
419.77	1497.94
419.96	1610.29
420.15	1607.95
420.34	1589.22
420.53	1734.34
420.72	1788.17
420.91	1767.10
421.10	1706.25
421.29	1671.14
421.48	1633.69
421.67	1727.32
421.86	1715.61
422.05	1509.65
422.24	1511.99
422.43	1483.90
422.61	1519.01
422.80	1607.95
422.99	1596.25
423.18	1610.29
423.37	1570.50
423.56	1591.56
423.75	1624.33
423.94	1596.25
424.13	1540.07
424.32	1577.52
424.50	1563.48
424.69	1509.65
424.88	1603.27
425.07	1528.37
425.26	1577.52
425.45	1439.43
425.64	1504.96
425.83	1420.71
426.01	1540.07
426.20	1432.41
426.39	1593.90
426.58	1535.39
426.77	1383.26
426.96	1416.02
427.15	1380.92
427.33	1490.92
427.52	1584.54
427.71	1526.03
427.90	1561.14
428.09	1561.14
428.28	1533.05
428.46	1425.39
428.65	1479.22
428.84	1526.03
429.03	1533.05
429.22	1338.79
429.40	1317.72
429.59	1287.29
429.78	1266.23
429.97	1125.80
430.16	1116.44
430.34	1123.46
430.53	1149.20
430.72	1144.52
430.91	1289.64
431.10	1460.49
431.28	1596.25
431.47	1724.97
431.66	1860.73
431.85	1685.19
432.03	1549.43
432.22	1593.90
432.41	1533.05
432.60	1614.97
432.79	1703.91
432.97	1811.57
433.16	1746.04
433.35	1577.52
433.54	1413.68
433.72	1493.26
433.91	1540.07
434.10	1511.99
434.28	1692.21
434.47	1739.02
434.66	1818.60
434.85	1652.42
435.03	1825.62
435.22	2197.76
435.41	2595.65
435.59	2541.82
435.78	2422.45
435.97	2012.86
436.16	1984.77
436.34	1856.04
436.53	1783.49
436.72	1717.95
436.90	1748.38
437.09	1818.60
437.28	1741.36
437.46	1746.04
437.65	1750.72
437.84	1743.70
438.02	1568.16
438.21	1572.84
438.40	1507.30
438.58	1699.23
438.77	1724.97
438.96	1666.46
439.14	1888.81
439.33	1884.13
439.52	1937.96
439.70	1877.11
439.89	1877.11
440.08	1834.98
440.26	1888.81
440.45	1799.87
440.63	1930.94
440.82	1937.96
441.01	1895.83
441.19	1895.83
441.38	2022.22
441.57	2064.35
441.75	2073.71
441.94	2256.28
442.12	2017.54
442.31	2080.74
442.50	2057.33
442.68	2083.08
442.87	1987.11
443.05	2017.54
443.24	2122.87
443.43	2172.02
443.61	2080.74
443.80	2251.60
443.98	2026.90
444.17	2043.29
444.35	2134.57
444.54	2085.42
444.73	2125.21
444.91	2113.50
445.10	1975.41
445.28	1980.09
445.47	1872.43
445.65	1994.14
445.84	1998.82
446.02	1928.60
446.21	2069.03
446.39	2059.67
446.58	2080.74
446.77	2132.23
446.95	2122.87
447.14	2232.87
447.32	2237.55
447.51	2211.81
447.69	2155.63
447.88	2260.96
448.06	2211.81
448.25	2036.27
448.43	2064.35
448.62	2125.21
448.80	2139.25
448.99	2129.89
449.17	2157.97
449.36	2188.40
449.54	2251.60
449.73	2214.15
449.91	2209.47
450.10	2314.79
450.28	2275.00
450.46	2408.41
450.65	2307.77
450.83	2263.30
451.02	2251.60
451.20	2265.64
451.39	2363.94
451.57	2200.10
451.76	2221.17
451.94	2165.00
452.13	2265.64
452.31	2146.27
452.49	2033.93
452.68	2099.46
452.86	2024.56
453.05	2106.48
453.23	2134.57
453.42	2150.95
453.60	2062.01
453.78	2167.34
453.97	2181.38
454.15	2195.42
454.34	2249.25
454.52	2202.44
454.70	2186.06
454.89	2148.61
455.07	2153.29
455.26	2218.83
455.44	2277.34
455.62	2270.32
455.81	2483.31
455.99	2303.09
456.17	2146.27
456.36	2300.75
456.54	2270.32
456.73	2361.60
456.91	2462.24
457.09	2408.41
457.28	2436.50
457.46	2335.85
457.64	2408.41
457.83	2387.35
458.01	2157.97
458.19	2279.68
458.38	2300.75
458.56	2394.37
458.74	2436.50
458.93	2258.62
459.11	2260.96
459.29	2331.17
459.48	2349.90
459.66	2246.91
459.84	2331.17
460.03	2466.92
460.21	2312.45
460.39	2366.28
460.57	2462.24
460.76	2455.22
460.94	2394.37
461.12	2429.48
461.31	2338.20
461.49	2373.30
461.67	2363.94
461.85	2410.75
462.04	2476.29
462.22	2518.42
462.40	2345.22
462.59	2567.57
462.77	2434.16
462.95	2492.67
463.13	2462.24
463.32	2413.09
463.50	2326.49
463.68	2319.47
463.86	2340.54
464.05	2457.56
464.23	2389.69
464.41	2286.70
464.59	2282.02
464.78	2317.13
464.96	2321.81
465.14	2172.02
465.32	2424.80
465.50	2389.69
465.69	2387.35
465.87	2377.98
466.05	2396.71
466.23	2312.45
466.41	2256.28
466.60	2251.60
466.78	2146.27
466.96	2394.37
467.14	2296.07
467.32	2473.95
467.51	2307.77
467.69	2214.15
467.87	2328.83
468.05	2427.14
468.23	2375.64
468.41	2303.09
468.60	2375.64
468.78	2342.88
468.96	2354.58
469.14	2445.86
469.32	2326.49
469.50	2279.68
469.69	2232.87
469.87	2246.91
470.05	2356.92
470.23	2307.77
470.41	2328.83
470.59	2356.92
470.77	2352.24
470.95	2373.30
471.14	2396.71
471.32	2338.20
471.50	2558.21
471.68	2548.84
471.86	2609.70
472.04	2534.80
472.22	2621.40
472.40	2361.60
472.58	2401.39
472.77	2396.71
472.95	2445.86
473.13	2443.52
473.31	2480.97
473.49	2342.88
473.67	2492.67
473.85	2485.65
474.03	2555.86
474.21	2567.57
474.39	2537.14
474.57	2654.17
474.75	2682.25
474.93	2619.06
475.12	2567.57
475.30	2609.70
475.48	2455.22
475.66	2602.68
475.84	2555.86
476.02	2504.37
476.20	2452.88
476.38	2623.74
476.56	2607.36
476.74	2560.55
476.92	2647.15
477.10	2506.71
477.28	2860.13
477.46	2764.17
477.64	2724.38
477.82	2658.85
478.00	2890.56
478.18	2832.05
478.36	2750.13
478.54	2693.96
478.72	2761.83
478.90	2710.34
479.08	2885.88
479.26	2916.31
479.44	2974.82
479.62	2906.95
479.80	2939.71
479.98	2860.13
480.16	2895.24
480.34	2883.54
480.52	2958.44
480.70	2995.89
480.88	3080.14
481.06	3019.29
481.24	3197.17
481.41	3094.19
481.59	3138.66
481.77	3255.69
481.95	3101.21
482.13	3150.36
482.31	3115.25
482.49	3258.03
482.67	3148.02
482.85	3141.00
483.03	3213.56
483.21	3314.20
483.39	3339.94
483.57	3159.72
483.74	3194.83
483.92	3321.22
484.10	3197.17
484.28	3269.73
484.46	3342.28
484.64	3407.82
484.82	3391.44
485.00	3328.24
485.18	3098.87
485.35	3218.24
485.53	3068.44
485.71	2719.70
485.89	2686.94
486.07	2710.34
486.25	2965.46
486.43	3119.93
486.61	3227.60
486.78	3239.30
486.96	3309.52
487.14	3304.84
487.32	3463.99
487.50	3564.64
487.68	3595.06
487.85	3576.34
488.03	3669.96
488.21	3618.47
488.39	3559.95
488.57	3454.63
488.75	3393.78
488.92	3920.40
489.10	3630.17
489.28	3719.11
489.46	3885.29
489.64	3765.92
489.81	4016.36
489.99	3824.44
490.17	3915.72
490.35	4035.08
490.53	3840.82
490.70	3946.14
490.88	3775.28
491.06	3936.78
491.24	3974.23
491.41	3920.40
491.59	3590.38
491.77	3686.34
491.95	3803.37
492.13	3847.84
492.30	3908.69
492.48	4028.06
492.66	4208.28
492.84	4039.76
493.01	4044.45
493.19	4044.45
493.37	3913.38
493.54	4044.45
493.72	3995.29
493.90	4212.96
494.08	4219.99
494.25	4238.71
494.43	4304.25
494.61	4383.82
494.79	4475.10
494.96	4334.67
495.14	4341.69
495.32	4035.08
495.49	4030.40
495.67	4175.52
495.85	4215.30
496.02	4671.71
496.20	4475.10
496.38	4285.52
496.55	4421.27
496.73	4444.68
496.91	4367.44
497.09	4603.83
497.26	4550.00
497.44	4477.44
497.62	4264.46
497.79	4337.01
497.97	4079.55
498.14	4140.41
498.32	4245.73
498.50	4313.61
498.67	4397.87
498.85	4620.22
499.03	4479.79
499.20	4454.04
499.38	4512.55
499.56	4578.09
499.73	4381.48
499.91	4381.48
500.08	4386.16
500.26	4269.14
500.44	4269.14
500.61	4404.89
500.79	4315.95
500.97	4311.27
501.14	4255.09
501.32	4301.90
501.49	4217.65
501.67	4140.41
501.84	4285.52
502.02	4421.27
502.20	4355.74
502.37	4318.29
502.55	4238.71
502.72	4468.08
502.90	4489.15
503.07	4334.67
503.25	4257.43
503.43	4124.02
503.60	4119.34
503.78	3943.80
503.95	3988.27
504.13	4315.95
504.30	4381.48
504.48	4358.08
504.65	4358.08
504.83	4514.89
505.01	4528.94
505.18	4409.57
505.36	4643.62
505.53	4517.23
505.71	4669.37
505.88	4704.48
506.06	4470.42
506.23	4477.44
506.41	4421.27
506.58	4449.36
506.76	4479.79
506.93	4386.16
507.11	4528.94
507.28	4545.32
507.46	4325.31
507.63	4442.34
507.81	4259.78
507.98	4402.55
508.16	4386.16
508.33	4500.85
508.50	4732.56
508.68	4734.90
508.85	4702.14
509.03	4648.30
509.20	4807.46
509.38	4599.15
509.55	4491.49
509.73	4374.46
509.90	4568.73
510.08	4784.06
510.25	4610.86
510.42	4730.22
510.60	4580.43
510.77	4669.37
510.95	4781.71
511.12	4809.80
511.30	4788.74
511.47	4870.65
511.64	4837.89
511.82	4835.55
511.99	4692.77
512.17	4652.98
512.34	4395.53
512.51	4645.96
512.69	4613.20
512.86	4795.76
513.04	4692.77
513.21	4732.56
513.38	4620.22
513.56	4592.13
513.73	4634.26
513.90	4592.13
514.08	4547.66
514.25	4578.09
514.43	4695.11
514.60	4557.02
514.77	4547.66
514.95	4727.88
515.12	4500.85
515.29	4685.75
515.47	4788.74
515.64	4788.74
515.81	4620.22
515.99	4613.20
516.16	4489.15
516.33	4124.02
516.51	3971.89
516.68	3770.60
516.85	3705.07
517.03	3817.41
517.20	4203.60
517.37	4454.04
517.54	4561.70
517.72	4690.43
517.89	4154.45
518.06	4004.66
518.24	4060.83
518.41	4222.33
518.58	4348.72
518.75	4475.10
518.93	4447.02
519.10	4491.49
519.27	4470.42
519.45	4571.07
519.62	4660.01
519.79	4692.77
519.96	4493.83
520.14	4739.58
520.31	4594.47
520.48	4489.15
520.65	4599.15
520.83	4744.27
521.00	4788.74
521.17	4922.15
521.34	4601.49
521.52	4802.78
521.69	4802.78
521.86	4835.55
522.03	4926.83
522.20	4580.43
522.38	4320.63
522.55	4484.47
522.72	4550.00
522.89	4484.47
523.07	4744.27
523.24	4627.24
523.41	4676.39
523.58	4812.14
523.75	4844.91
523.92	4945.55
524.10	4875.34
524.27	4901.08
524.44	4765.33
524.61	4990.02
524.78	4739.58
524.96	4830.87
525.13	4842.57
525.30	4819.16
525.47	4896.40
525.64	4957.25
525.81	4863.63
525.98	4648.30
526.16	4344.03
526.33	4142.75
526.50	4154.45
526.67	4093.60
526.84	4163.81
527.01	4344.03
527.18	4355.74
527.36	4575.75
527.53	4772.35
527.70	4858.95
527.87	4662.35
528.04	4695.11
528.21	4594.47
528.38	5006.41
528.55	4889.38
528.72	5039.17
528.89	5102.37
529.07	5039.17
529.24	4844.91
529.41	4868.31
529.58	4732.56
529.75	4603.83
529.92	4814.48
530.09	4774.69
530.26	4975.98
530.43	4992.36
530.60	4901.08
530.77	4983.00
530.94	4985.34
531.11	4952.57
531.28	4770.01
531.46	4816.82
531.63	4865.97
531.80	4929.17
531.97	4933.85
532.14	4629.58
532.31	4610.86
532.48	4542.98
532.65	4257.43
532.82	4554.68
532.99	4669.37
533.16	4870.65
533.33	4994.70
533.50	4940.87
533.67	4812.14
533.84	4734.90
534.01	4739.58
534.18	4662.35
534.35	4887.04
534.52	4762.99
534.69	4875.34
534.86	4713.84
535.03	4898.74
535.20	4856.61
535.37	4891.72
535.54	5184.29
535.71	5076.62
535.88	5046.20
536.05	4919.81
536.22	4786.40
536.38	4793.42
536.55	4608.51
536.72	4643.62
536.89	4617.88
537.06	4671.71
537.23	5004.07
537.40	4891.72
537.57	4905.76
537.74	4997.04
537.91	4835.55
538.08	4990.02
538.25	4896.40
538.42	4901.08
538.59	4987.68
538.75	4828.53
538.92	4840.23
539.09	4762.99
539.26	4760.65
539.43	4727.88
539.60	4695.11
539.77	4798.10
539.94	4873.00
540.11	4774.69
540.28	4802.78
540.44	4842.57
540.61	4734.90
540.78	4873.00
540.95	5074.28
541.12	5273.23
541.29	5439.40
541.46	5401.96
541.62	5287.27
541.79	5193.65
541.96	5167.90
542.13	5167.90
542.30	5184.29
542.47	5100.03
542.63	5174.92
542.80	4950.23
542.97	4917.47
543.14	4945.55
543.31	5163.22
543.48	5107.05
543.64	5158.54
543.81	5270.89
543.98	5376.21
544.15	5233.44
544.32	5132.79
544.48	5025.13
544.65	5135.14
544.82	5313.02
544.99	5158.54
545.16	5160.88
545.32	5142.16
545.49	5678.14
545.66	6363.92
545.83	6700.95
546.00	6370.94
546.16	5703.89
546.33	5355.15
546.50	5233.44
546.67	5114.07
546.83	5083.64
547.00	5107.05
547.17	4936.19
547.34	4781.71
547.50	4765.33
547.67	4791.08
547.84	4734.90
548.00	4954.91
548.17	5060.24
548.34	4922.15
548.51	4999.38
548.67	5069.60
548.84	4964.28
549.01	4985.34
549.18	4800.44
549.34	4821.50
549.51	4814.48
549.68	4674.05
549.84	4762.99
550.01	4660.01
550.18	4891.72
550.34	4816.82
550.51	4702.14
550.68	4837.89
550.84	4781.71
551.01	4578.09
551.18	4697.46
551.34	4678.73
551.51	4770.01
551.68	4840.23
551.84	4627.24
552.01	4702.14
552.18	4732.56
552.34	4512.55
552.51	4440.00
552.68	4482.13
552.84	4503.19
553.01	4585.11
553.18	4788.74
553.34	4573.41
553.51	4730.22
553.67	4856.61
553.84	4655.33
554.01	4603.83
554.17	4578.09
554.34	4449.36
554.51	4585.11
554.67	4730.22
554.84	4662.35
555.00	4561.70
555.17	4503.19
555.33	4547.66
555.50	4416.59
555.67	4500.85
555.83	4538.30
556.00	4484.47
556.16	4573.41
556.33	4241.05
556.50	4449.36
556.66	4360.42
556.83	4454.04
556.99	4489.15
557.16	4367.44
557.32	4308.93
557.49	4507.87
557.65	4493.83
557.82	4526.60
557.98	4447.02
558.15	4231.69
558.32	4273.82
558.48	4149.77
558.65	4184.88
558.81	4245.73
558.98	4234.03
559.14	4262.12
559.31	4245.73
559.47	4390.84
559.64	4175.52
559.80	4159.13
559.97	4093.60
560.13	4278.50
560.30	4461.06
560.46	4521.92
560.63	4369.78
560.79	4587.45
560.96	4423.61
561.12	4358.08
561.29	4187.22
561.45	4081.89
561.61	4311.27
561.78	4301.90
561.94	4290.20
562.11	4259.78
562.27	4395.53
562.44	4259.78
562.60	4358.08
562.77	4482.13
562.93	4292.54
563.10	4292.54
563.26	4358.08
563.42	4393.19
563.59	4189.56
563.75	4224.67
563.92	4191.90
564.08	4320.63
564.24	4360.42
564.41	4365.10
564.57	4191.90
564.74	4287.86
564.90	4297.22
565.07	4152.11
565.23	4159.13
565.39	4168.49
565.56	4117.00
565.72	3889.97
565.88	3913.38
566.05	4039.76
566.21	4079.55
566.38	4081.89
566.54	4105.30
566.70	4238.71
566.87	4245.73
567.03	4161.47
567.19	4205.94
567.36	4238.71
567.52	4184.88
567.68	4011.68
567.85	4114.66
568.01	4046.79
568.17	3932.10
568.34	3927.42
568.50	3892.31
568.66	3817.41
568.83	3824.44
568.99	3801.03
569.15	4042.11
569.32	3955.51
569.48	3955.51
569.64	3843.16
569.81	3698.05
569.97	3777.62
570.13	3875.93
570.30	3815.07
570.46	3838.48
570.62	3648.90
570.78	3885.29
570.95	3733.15
571.11	3864.22
571.27	3871.25
571.43	3861.88
571.60	3801.03
571.76	3899.33
571.92	3906.35
572.09	4025.72
572.25	3852.52
572.41	3932.10
572.57	3808.05
572.74	3866.56
572.90	3941.46
573.06	4023.38
573.22	3904.01
573.38	3915.72
573.55	3892.31
573.71	3960.19
573.87	3887.63
574.03	3859.54
574.20	3761.24
574.36	3819.75
574.52	3655.92
574.68	3829.12
574.84	3815.07
575.01	3688.68
575.17	3733.15
575.33	3742.52
575.49	3808.05
575.65	3637.19
575.82	3744.86
575.98	3798.69
576.14	3777.62
576.30	3763.58
576.46	3927.42
576.62	4051.47
576.79	4114.66
576.95	3978.91
577.11	3913.38
577.27	3826.78
577.43	3960.19
577.59	3831.46
577.75	3726.13
577.92	3510.80
578.08	3578.68
578.24	3627.83
578.40	3693.37
578.56	4002.32
578.72	4088.92
578.88	4107.64
579.04	3990.61
579.21	3941.46
579.37	3927.42
579.53	3747.20
579.69	3871.25
579.85	3845.50
580.01	3889.97
580.17	3896.99
580.33	3925.08
580.49	3669.96
580.65	3918.06
580.82	3922.74
580.98	3889.97
581.14	3948.48
581.30	3829.12
581.46	3833.80
581.62	3819.75
581.78	3901.67
581.94	3880.61
582.10	4056.15
582.26	3969.55
582.42	3941.46
582.58	3957.85
582.74	3873.59
582.90	3882.95
583.06	3974.23
583.22	3988.27
583.38	4065.51
583.54	3955.51
583.70	3953.16
583.86	3985.93
584.02	3819.75
584.18	3911.04
584.34	3836.14
584.50	3887.63
584.66	3908.69
584.82	3698.05
584.98	3749.54
585.14	3712.09
585.30	3679.32
585.46	3669.96
585.62	3524.85
585.78	3691.02
585.94	3742.52
586.10	3726.13
586.26	3758.90
586.42	3861.88
586.58	3728.47
586.74	3765.92
586.90	3763.58
587.06	3737.84
587.22	3700.39
587.38	3716.77
587.54	3609.11
587.70	3562.30
587.86	3337.60
588.02	3346.97
588.18	3220.58
588.34	3253.34
588.49	2773.53
588.65	2869.50
588.81	2686.94
588.97	2703.32
589.13	2590.97
589.29	2635.44
589.45	2857.79
589.61	2836.73
589.77	2885.88
589.93	2984.18
590.08	2986.52
590.24	3009.93
590.40	3166.74
590.56	3157.38
590.72	3091.85
590.88	3173.77
591.04	3166.74
591.20	3082.49
591.35	3176.11
591.51	3136.32
591.67	2960.78
591.83	3049.72
591.99	3061.42
592.15	3236.96
592.31	3126.96
592.46	3251.00
592.62	3208.87
592.78	3304.84
592.94	3234.62
593.10	3335.26
593.26	3332.92
593.41	3375.05
593.57	3274.41
593.73	3155.04
593.89	3164.40
594.05	3000.57
594.20	2951.42
594.36	2916.31
594.52	2871.84
594.68	2892.90
594.84	2988.86
594.99	3009.93
595.15	3199.51
595.31	3234.62
595.47	3143.34
595.62	3180.79
595.78	3075.46
595.94	3379.73
596.10	3372.71
596.25	3222.92
596.41	3089.51
596.57	3122.27
596.73	3098.87
596.88	3080.14
597.04	3077.80
597.20	3112.91
597.36	3091.85
597.51	3117.59
597.67	3141.00
597.83	3239.30
597.99	3035.67
