SpectraSuite Data File
++++++++++++++++++++++++++++++++++++
Date: Fri Oct 04 11:41:41 GMT-05:00 2013
User: price-jones
Dark Spectrum Present: No
Reference Spectrum Present: No
Number of Sampled Component Spectra: 1
Spectrometers: USB2+H05261
Integration Time (usec): 100000 (USB2+H05261)
Spectra Averaged: 1 (USB2+H05261)
Boxcar Smoothing: 0 (USB2+H05261)
Correct for Electrical Dark: No (USB2+H05261)
Strobe/Lamp Enabled: No (USB2+H05261)
Correct for Detector Non-linearity: No (USB2+H05261)
Correct for Stray Light: No (USB2+H05261)
Number of Pixels in Processed Spectrum: 2048
>>>>>Begin Processed Spectral Data<<<<<
365.73	86.60
365.92	86.60
366.12	86.60
366.32	0.00
366.52	0.00
366.72	2.34
366.91	0.00
367.11	0.00
367.31	0.00
367.51	0.00
367.70	0.00
367.90	0.00
368.10	0.00
368.30	0.00
368.49	0.00
368.69	0.00
368.89	0.00
369.09	0.00
369.28	18.72
369.48	4.68
369.68	21.06
369.87	0.00
370.07	0.00
370.27	79.58
370.47	14.04
370.66	9.36
370.86	0.00
371.06	58.51
371.25	86.60
371.45	79.58
371.65	156.82
371.84	93.62
372.04	79.58
372.24	105.32
372.44	84.26
372.63	107.66
372.83	180.22
373.03	119.37
373.22	53.83
373.42	126.39
373.62	67.88
373.81	70.22
374.01	121.71
374.21	152.13
374.40	124.05
374.60	203.63
374.79	135.75
374.99	133.41
375.19	119.37
375.38	161.50
375.58	126.39
375.78	77.24
375.97	84.26
376.17	173.20
376.37	105.32
376.56	124.05
376.76	182.56
376.95	98.30
377.15	224.69
377.35	135.75
377.54	121.71
377.74	194.26
377.93	177.88
378.13	180.22
378.33	117.03
378.52	46.81
378.72	142.77
378.91	259.80
379.11	112.35
379.31	112.35
379.50	102.98
379.70	117.03
379.89	154.48
380.09	98.30
380.28	135.75
380.48	93.62
380.68	58.51
380.87	131.07
381.07	149.79
381.26	126.39
381.46	154.48
381.65	175.54
381.85	126.39
382.04	107.66
382.24	205.97
382.43	117.03
382.63	79.58
382.83	51.49
383.02	191.92
383.22	159.16
383.41	93.62
383.61	161.50
383.80	159.16
384.00	53.83
384.19	65.54
384.39	91.28
384.58	126.39
384.78	168.52
384.97	102.98
385.17	138.09
385.36	119.37
385.56	152.13
385.75	135.75
385.95	149.79
386.14	168.52
386.34	74.90
386.53	138.09
386.72	110.01
386.92	95.96
387.11	189.58
387.31	140.43
387.50	74.90
387.70	58.51
387.89	117.03
388.09	72.56
388.28	138.09
388.48	138.09
388.67	173.20
388.86	145.11
389.06	149.79
389.25	133.41
389.45	88.94
389.64	114.69
389.84	135.75
390.03	93.62
390.22	131.07
390.42	124.05
390.61	93.62
390.81	74.90
391.00	133.41
391.19	159.16
391.39	124.05
391.58	100.64
391.78	112.35
391.97	84.26
392.16	128.73
392.36	166.18
392.55	110.01
392.75	161.50
392.94	74.90
393.13	128.73
393.33	112.35
393.52	126.39
393.71	124.05
393.91	102.98
394.10	114.69
394.29	114.69
394.49	128.73
394.68	124.05
394.88	121.71
395.07	180.22
395.26	184.90
395.46	100.64
395.65	126.39
395.84	140.43
396.04	128.73
396.23	84.26
396.42	126.39
396.62	135.75
396.81	145.11
397.00	86.60
397.19	74.90
397.39	145.11
397.58	187.24
397.77	93.62
397.97	133.41
398.16	95.96
398.35	191.92
398.55	117.03
398.74	166.18
398.93	126.39
399.12	184.90
399.32	241.08
399.51	161.50
399.70	198.95
399.90	187.24
400.09	152.13
400.28	107.66
400.47	112.35
400.67	201.29
400.86	152.13
401.05	142.77
401.24	222.35
401.44	135.75
401.63	173.20
401.82	182.56
402.01	161.50
402.21	184.90
402.40	191.92
402.59	138.09
402.78	210.65
402.97	220.01
403.17	161.50
403.36	161.50
403.55	290.23
403.74	664.71
403.93	1975.41
404.13	4884.70
404.32	6825.00
404.51	5863.04
404.70	3709.75
404.89	1399.64
405.09	533.64
405.28	241.08
405.47	208.31
405.66	271.50
405.85	210.65
406.05	212.99
406.24	184.90
406.43	154.48
406.62	203.63
406.81	250.44
407.00	390.87
407.20	517.26
407.39	915.15
407.58	968.98
407.77	667.05
407.96	470.45
408.15	264.48
408.34	220.01
408.54	110.01
408.73	222.35
408.92	217.67
409.11	198.95
409.30	222.35
409.49	212.99
409.68	166.18
409.87	220.01
410.07	201.29
410.26	177.88
410.45	227.03
410.64	128.73
410.83	205.97
411.02	182.56
411.21	210.65
411.40	229.37
411.59	234.05
411.78	175.54
411.98	252.78
412.17	241.08
412.36	182.56
412.55	159.16
412.74	224.69
412.93	280.86
413.12	231.71
413.31	231.71
413.50	234.05
413.69	224.69
413.88	292.57
414.07	231.71
414.26	234.05
414.45	182.56
414.64	227.03
414.83	271.50
415.02	191.92
415.22	156.82
415.41	283.20
415.60	194.26
415.79	227.03
415.98	238.73
416.17	278.52
416.36	224.69
416.55	203.63
416.74	252.78
416.93	290.23
417.12	248.10
417.31	196.60
417.50	196.60
417.69	374.49
417.88	231.71
418.07	196.60
418.26	315.97
418.45	287.89
418.64	292.57
418.83	269.16
419.02	276.18
419.21	278.52
419.39	301.93
419.58	205.97
419.77	248.10
419.96	250.44
420.15	234.05
420.34	252.78
420.53	290.23
420.72	273.84
420.91	229.37
421.10	234.05
421.29	259.80
421.48	285.55
421.67	250.44
421.86	299.59
422.05	278.52
422.24	205.97
422.43	306.61
422.61	227.03
422.80	273.84
422.99	250.44
423.18	285.55
423.37	273.84
423.56	304.27
423.75	325.33
423.94	236.39
424.13	292.57
424.32	241.08
424.50	248.10
424.69	362.78
424.88	280.86
425.07	252.78
425.26	308.95
425.45	299.59
425.64	285.55
425.83	276.18
426.01	383.85
426.20	306.61
426.39	276.18
426.58	287.89
426.77	290.23
426.96	414.27
427.15	344.06
427.33	320.65
427.52	283.20
427.71	304.27
427.90	374.49
428.09	297.25
428.28	395.55
428.46	365.12
428.65	423.64
428.84	351.08
429.03	297.25
429.22	264.48
429.40	294.91
429.59	344.06
429.78	334.70
429.97	297.25
430.16	299.59
430.34	353.42
430.53	376.83
430.72	346.40
430.91	381.51
431.10	381.51
431.28	397.89
431.47	430.66
431.66	388.53
431.85	395.55
432.03	409.59
432.22	475.13
432.41	425.98
432.60	418.96
432.79	526.62
432.97	496.19
433.16	442.36
433.35	538.32
433.54	589.82
433.72	568.75
433.91	650.67
434.10	610.88
434.28	826.21
434.47	945.58
434.66	1057.92
434.85	1289.64
435.03	3234.62
435.22	12336.96
435.41	29376.06
435.59	31566.81
435.78	19908.60
435.97	10061.96
436.16	3946.14
436.34	1401.98
436.53	877.70
436.72	720.88
436.90	559.39
437.09	631.94
437.28	543.00
437.46	458.74
437.65	458.74
437.84	493.85
438.02	416.62
438.21	510.24
438.40	456.40
438.58	514.92
438.77	409.59
438.96	416.62
439.14	468.11
439.33	486.83
439.52	397.89
439.70	414.27
439.89	444.70
440.08	430.66
440.26	444.70
440.45	519.60
440.63	510.24
440.82	477.47
441.01	479.81
441.19	479.81
441.38	416.62
441.57	442.36
441.75	449.38
441.94	531.30
442.12	496.19
442.31	421.30
442.50	458.74
442.68	447.04
442.87	423.64
443.05	414.27
443.24	444.70
443.43	505.56
443.61	498.53
443.80	461.09
443.98	435.34
444.17	388.53
444.35	430.66
444.54	468.11
444.73	433.00
444.91	409.59
445.10	400.23
445.28	496.19
445.47	400.23
445.65	425.98
445.84	421.30
446.02	482.15
446.21	390.87
446.39	414.27
446.58	440.02
446.77	461.09
446.95	475.13
447.14	393.21
447.32	468.11
447.51	477.47
447.69	402.57
447.88	416.62
448.06	451.72
448.25	465.77
448.43	407.25
448.62	444.70
448.80	390.87
448.99	512.58
449.17	369.80
449.36	475.13
449.54	500.87
449.73	388.53
449.91	468.11
450.10	339.38
450.28	430.66
450.46	472.79
450.65	437.68
450.83	503.22
451.02	442.36
451.20	425.98
451.39	447.04
451.57	416.62
451.76	395.55
451.94	482.15
452.13	430.66
452.31	454.06
452.49	451.72
452.68	418.96
452.86	458.74
453.05	500.87
453.23	454.06
453.42	430.66
453.60	416.62
453.78	418.96
453.97	393.21
454.15	425.98
454.34	449.38
454.52	433.00
454.70	407.25
454.89	430.66
455.07	470.45
455.26	489.17
455.44	489.17
455.62	428.32
455.81	514.92
455.99	400.23
456.17	344.06
456.36	519.60
456.54	491.51
456.73	435.34
456.91	430.66
457.09	458.74
457.28	421.30
457.46	447.04
457.64	458.74
457.83	386.19
458.01	461.09
458.19	411.93
458.38	376.83
458.56	365.12
458.74	468.11
458.93	442.36
459.11	390.87
459.29	393.21
459.48	428.32
459.66	383.85
459.84	475.13
460.03	458.74
460.21	486.83
460.39	409.59
460.57	411.93
460.76	547.69
460.94	411.93
461.12	456.40
461.31	411.93
461.49	414.27
461.67	395.55
461.85	402.57
462.04	397.89
462.22	571.09
462.40	351.08
462.59	428.32
462.77	411.93
462.95	400.23
463.13	409.59
463.32	428.32
463.50	447.04
463.68	484.49
463.86	374.49
464.05	400.23
464.23	437.68
464.41	500.87
464.59	440.02
464.78	404.91
464.96	496.19
465.14	395.55
465.32	344.06
465.50	416.62
465.69	437.68
465.87	470.45
466.05	369.80
466.23	367.46
466.41	440.02
466.60	503.22
466.78	395.55
466.96	477.47
467.14	428.32
467.32	489.17
467.51	402.57
467.69	451.72
467.87	449.38
468.05	404.91
468.23	442.36
468.41	416.62
468.60	437.68
468.78	383.85
468.96	472.79
469.14	365.12
469.32	409.59
469.50	337.04
469.69	402.57
469.87	433.00
470.05	372.15
470.23	435.34
470.41	353.42
470.59	418.96
470.77	435.34
470.95	346.40
471.14	486.83
471.32	458.74
471.50	386.19
471.68	465.77
471.86	374.49
472.04	353.42
472.22	437.68
472.40	383.85
472.58	407.25
472.77	376.83
472.95	400.23
473.13	472.79
473.31	510.24
473.49	390.87
473.67	407.25
473.85	468.11
474.03	479.81
474.21	416.62
474.39	388.53
474.57	404.91
474.75	404.91
474.93	442.36
475.12	341.72
475.30	360.44
475.48	374.49
475.66	437.68
475.84	411.93
476.02	318.31
476.20	430.66
476.38	395.55
476.56	449.38
476.74	388.53
476.92	407.25
477.10	470.45
477.28	503.22
477.46	456.40
477.64	428.32
477.82	430.66
478.00	461.09
478.18	463.43
478.36	521.94
478.54	533.64
478.72	580.45
478.90	550.03
479.08	550.03
479.26	472.79
479.44	491.51
479.62	578.11
479.80	655.35
479.98	573.43
480.16	564.07
480.34	566.41
480.52	599.18
480.70	650.67
480.88	676.41
481.06	559.39
481.24	763.01
481.41	744.29
481.59	819.19
481.77	856.64
481.95	936.21
482.13	966.64
482.31	978.34
482.49	1029.84
482.67	1123.46
482.85	1139.84
483.03	1224.10
483.21	1423.05
483.39	1533.05
483.57	1535.39
483.74	1577.52
483.92	1713.27
484.10	1703.91
484.28	1909.88
484.46	2010.52
484.64	2139.25
484.82	2101.80
485.00	2251.60
485.18	2427.14
485.35	2527.78
485.53	2747.79
485.71	2738.43
485.89	2906.95
486.07	2850.77
486.25	3000.57
486.43	2904.60
486.61	2953.76
486.78	3087.17
486.96	3014.61
487.14	2991.20
487.32	2937.37
487.50	2928.01
487.68	3007.59
487.85	2874.18
488.03	2890.56
488.21	2867.16
488.39	2651.83
488.57	2616.72
488.75	2715.02
488.92	2796.94
489.10	2523.10
489.28	2588.63
489.46	2499.69
489.64	2377.98
489.81	2424.80
489.99	2272.66
490.17	2211.81
490.35	2303.09
490.53	2242.23
490.70	2237.55
490.88	2263.30
491.06	2424.80
491.24	2541.82
491.41	2586.29
491.59	2387.35
491.77	2284.36
491.95	2094.78
492.13	2160.31
492.30	2148.61
492.48	1921.58
492.66	1935.62
492.84	1989.46
493.01	1996.48
493.19	1900.52
493.37	1996.48
493.54	1940.30
493.72	1895.83
493.90	1736.68
494.08	1792.85
494.25	1839.66
494.43	1806.89
494.61	1722.63
494.79	1671.14
494.96	1600.93
495.14	1680.50
495.32	1563.48
495.49	1617.31
495.67	1586.88
495.85	1558.80
496.02	1570.50
496.20	1535.39
496.38	1467.52
496.55	1448.79
496.73	1444.11
496.91	1383.26
497.09	1469.86
497.26	1413.68
497.44	1343.47
497.62	1322.40
497.79	1268.57
497.97	1256.87
498.14	1317.72
498.32	1203.04
498.50	1170.27
498.67	1214.74
498.85	1128.14
499.03	1086.01
499.20	1153.88
499.38	1055.58
499.56	1025.15
499.73	1074.31
499.91	1053.24
500.08	1064.94
500.26	992.39
500.44	964.30
500.61	835.57
500.79	866.00
500.97	870.68
501.14	903.45
501.32	821.53
501.49	877.70
501.67	826.21
501.84	777.06
502.02	763.01
502.20	779.40
502.37	645.99
502.55	669.39
502.72	669.39
502.90	648.33
503.07	720.88
503.25	601.52
503.43	545.34
503.60	606.20
503.78	664.71
503.95	634.29
504.13	552.37
504.30	709.18
504.48	596.84
504.65	596.84
504.83	547.69
505.01	582.79
505.18	510.24
505.36	470.45
505.53	528.96
505.71	486.83
505.88	486.83
506.06	533.64
506.23	435.34
506.41	496.19
506.58	442.36
506.76	465.77
506.93	379.17
507.11	547.69
507.28	416.62
507.46	421.30
507.63	461.09
507.81	463.43
507.98	421.30
508.16	447.04
508.33	482.15
508.50	470.45
508.68	554.71
508.85	510.24
509.03	477.47
509.20	547.69
509.38	554.71
509.55	505.56
509.73	430.66
509.90	409.59
510.08	428.32
510.25	409.59
510.42	444.70
510.60	360.44
510.77	454.06
510.95	449.38
511.12	372.15
511.30	407.25
511.47	449.38
511.64	458.74
511.82	416.62
511.99	430.66
512.17	404.91
512.34	369.80
512.51	393.21
512.69	475.13
512.86	477.47
513.04	411.93
513.21	526.62
513.38	395.55
513.56	348.74
513.73	397.89
513.90	337.04
514.08	383.85
514.25	428.32
514.43	397.89
514.60	358.10
514.77	433.00
514.95	451.72
515.12	360.44
515.29	376.83
515.47	374.49
515.64	381.51
515.81	390.87
515.99	379.17
516.16	369.80
516.33	362.78
516.51	355.76
516.68	376.83
516.85	351.08
517.03	306.61
517.20	421.30
517.37	351.08
517.54	365.12
517.72	374.49
517.89	388.53
518.06	299.59
518.24	395.55
518.41	482.15
518.58	376.83
518.75	411.93
518.93	311.29
519.10	393.21
519.27	330.02
519.45	367.46
519.62	390.87
519.79	390.87
519.96	386.19
520.14	369.80
520.31	390.87
520.48	315.97
520.65	339.38
520.83	351.08
521.00	374.49
521.17	332.36
521.34	334.70
521.52	334.70
521.69	320.65
521.86	332.36
522.03	416.62
522.20	383.85
522.38	374.49
522.55	315.97
522.72	407.25
522.89	362.78
523.07	304.27
523.24	304.27
523.41	327.68
523.58	388.53
523.75	292.57
523.92	313.63
524.10	339.38
524.27	395.55
524.44	362.78
524.61	421.30
524.78	278.52
524.96	369.80
525.13	404.91
525.30	369.80
525.47	465.77
525.64	500.87
525.81	344.06
525.98	400.23
526.16	367.46
526.33	311.29
526.50	388.53
526.67	404.91
526.84	409.59
527.01	447.04
527.18	421.30
527.36	447.04
527.53	500.87
527.70	533.64
527.87	475.13
528.04	477.47
528.21	418.96
528.38	425.98
528.55	461.09
528.72	435.34
528.89	505.56
529.07	440.02
529.24	456.40
529.41	510.24
529.58	505.56
529.75	479.81
529.92	543.00
530.09	482.15
530.26	566.41
530.43	505.56
530.60	540.66
530.77	535.98
530.94	503.22
531.11	561.73
531.28	573.43
531.46	545.34
531.63	561.73
531.80	578.11
531.97	720.88
532.14	730.25
532.31	891.74
532.48	1013.45
532.65	1191.33
532.82	1322.40
532.99	1629.01
533.16	1769.44
533.33	1867.75
533.50	1636.03
533.67	1423.05
533.84	1228.78
534.01	1174.95
534.18	1018.13
534.35	1078.99
534.52	1011.11
534.69	1069.62
534.86	1095.37
535.03	1144.52
535.20	1303.68
535.37	1226.44
535.54	1270.91
535.71	1369.21
535.88	1502.62
536.05	1495.60
536.22	1746.04
536.38	1741.36
536.55	2012.86
536.72	2237.55
536.89	2413.09
537.06	2602.68
537.23	2951.42
537.40	3286.11
537.57	3576.34
537.74	3688.68
537.91	3950.82
538.08	3932.10
538.25	4065.51
538.42	4051.47
538.59	4091.26
538.75	4320.63
538.92	4341.69
539.09	4823.84
539.26	5490.90
539.43	6059.65
539.60	6839.05
539.77	7880.58
539.94	8634.24
540.11	9607.90
540.28	10640.08
540.44	11566.93
540.61	12744.22
540.78	14370.89
540.95	17649.98
541.12	20896.30
541.29	23768.14
541.46	25057.78
541.62	24788.61
541.79	23950.70
541.96	21832.52
542.13	20517.14
542.30	19168.99
542.47	18230.43
542.63	17319.96
542.80	16592.06
542.97	16025.65
543.14	16217.57
543.31	15882.88
543.48	16051.39
543.64	16526.52
543.81	16444.60
543.98	16521.84
544.15	16891.65
544.32	16901.01
544.48	16968.88
544.65	16540.57
544.82	16620.14
544.99	16306.51
545.16	16964.20
545.32	17537.63
545.49	28755.82
545.66	51784.35
545.83	59395.77
546.00	54286.39
546.16	39044.82
546.33	29165.42
546.50	21790.39
546.67	16786.32
546.83	14834.32
547.00	14469.19
547.17	13851.29
547.34	13298.92
547.50	12624.85
547.67	12236.32
547.84	11592.67
548.00	11262.66
548.17	10972.43
548.34	10520.71
548.51	10209.42
548.67	9689.82
548.84	9146.81
549.01	8709.13
549.18	8252.73
549.34	7903.99
549.51	7625.47
549.68	7325.88
549.84	7033.31
550.01	6689.25
550.18	6626.06
550.34	6207.10
550.51	5961.34
550.68	5884.11
550.84	5172.58
551.01	5022.79
551.18	4762.99
551.34	4503.19
551.51	4231.69
551.68	4149.77
551.84	4051.47
552.01	3871.25
552.18	3749.54
552.34	3548.25
552.51	3379.73
552.68	3286.11
552.84	3089.51
553.01	3187.81
553.18	3108.23
553.34	2930.35
553.51	2832.05
553.67	2614.38
553.84	2677.57
554.01	2387.35
554.17	2338.20
554.34	2085.42
554.51	2038.61
554.67	1870.09
554.84	1865.41
555.00	1685.19
555.17	1650.08
555.33	1500.28
555.50	1530.71
555.67	1406.66
555.83	1303.68
556.00	1357.51
556.16	1490.92
556.33	1240.48
556.50	1207.72
556.66	1245.16
556.83	1228.78
556.99	1104.73
557.16	1109.41
557.32	1128.14
557.49	1008.77
557.65	997.07
557.82	968.98
557.98	1067.28
558.15	912.81
558.32	882.38
558.48	809.83
558.65	924.51
558.81	858.98
558.98	819.19
559.14	873.02
559.31	833.23
559.47	798.12
559.64	814.51
559.80	760.67
559.97	734.93
560.13	746.63
560.30	774.72
560.46	767.70
560.63	734.93
560.79	791.10
560.96	774.72
561.12	737.27
561.29	753.65
561.45	725.57
561.61	767.70
561.78	791.10
561.94	753.65
562.11	730.25
562.27	751.31
562.44	706.84
562.60	723.23
562.77	718.54
562.93	720.88
563.10	744.29
563.26	643.65
563.42	702.16
563.59	634.29
563.75	678.76
563.92	739.61
564.08	662.37
564.24	575.77
564.41	653.01
564.57	617.90
564.74	617.90
564.90	599.18
565.07	681.10
565.23	578.11
565.39	566.41
565.56	599.18
565.72	514.92
565.88	512.58
566.05	599.18
566.21	514.92
566.38	592.16
566.54	528.96
566.70	596.84
566.87	596.84
567.03	531.30
567.19	634.29
567.36	627.26
567.52	559.39
567.68	582.79
567.85	653.01
568.01	599.18
568.17	554.71
568.34	617.90
568.50	627.26
568.66	573.43
568.83	681.10
568.99	566.41
569.15	589.82
569.32	582.79
569.48	521.94
569.64	437.68
569.81	571.09
569.97	484.49
570.13	498.53
570.30	447.04
570.46	503.22
570.62	423.64
570.78	493.85
570.95	421.30
571.11	496.19
571.27	402.57
571.43	376.83
571.60	454.06
571.76	393.21
571.92	521.94
572.09	454.06
572.25	484.49
572.41	454.06
572.57	379.17
572.74	416.62
572.90	489.17
573.06	442.36
573.22	524.28
573.38	472.79
573.55	451.72
573.71	491.51
573.87	491.51
574.03	533.64
574.20	514.92
574.36	552.37
574.52	507.90
574.68	550.03
574.84	638.97
575.01	557.05
575.17	645.99
575.33	580.45
575.49	664.71
575.65	725.57
575.82	816.85
575.98	898.77
576.14	978.34
576.30	1874.77
576.46	5980.07
576.62	11293.08
576.79	11943.75
576.95	8248.05
577.11	5589.20
577.27	3995.29
577.43	2565.23
577.59	1741.36
577.75	1355.17
577.92	1270.91
578.08	1193.67
578.24	1212.40
578.40	2017.54
578.56	5678.14
578.72	9813.87
578.88	10609.65
579.04	7974.21
579.21	5121.09
579.37	4046.79
579.53	3075.46
579.69	3005.25
579.85	3665.28
580.01	4393.19
580.17	4077.21
580.33	3604.42
580.49	3110.57
580.65	2799.28
580.82	2462.24
580.98	2450.54
581.14	2462.24
581.30	2684.59
581.46	2871.84
581.62	3124.62
581.78	3288.45
581.94	3492.08
582.10	3592.72
582.26	3817.41
582.42	3995.29
582.58	4028.06
582.74	4109.98
582.90	4117.00
583.06	4147.43
583.22	4210.62
583.38	4177.86
583.54	4332.33
583.70	4194.24
583.86	4100.62
584.02	4086.58
584.18	4100.62
584.34	3927.42
584.50	3995.29
584.66	3948.48
584.82	3749.54
584.98	3644.21
585.14	3590.38
585.30	3517.83
585.46	3478.04
585.62	3473.36
585.78	3515.48
585.94	3398.46
586.10	3627.83
586.26	3801.03
586.42	4196.58
586.58	5114.07
586.74	6022.20
586.90	7445.24
587.06	8121.66
587.22	8156.77
587.38	7180.76
587.54	6251.57
587.70	5259.18
587.86	4402.55
588.02	3892.31
588.18	3353.99
588.34	2960.78
588.49	2810.98
588.65	2689.28
588.81	2619.06
588.97	2431.82
589.13	2317.13
589.29	2368.62
589.45	2256.28
589.61	2363.94
589.77	2319.47
589.93	2396.71
590.08	2296.07
590.24	2502.03
590.40	2473.95
590.56	2476.29
590.72	2665.87
590.88	2731.41
591.04	2862.48
591.20	2965.46
591.35	3063.76
591.51	3187.81
591.67	3358.67
591.83	3538.89
591.99	3684.00
592.15	4201.26
592.31	4454.04
592.46	4828.53
592.62	5167.90
592.78	5729.63
592.94	5708.57
593.10	5856.02
593.26	5474.51
593.41	5022.79
593.57	4479.79
593.73	4114.66
593.89	3606.77
594.05	3094.19
594.20	2869.50
594.36	2686.94
594.52	2497.35
594.68	2363.94
594.84	2214.15
594.99	2190.74
595.15	2141.59
595.31	2062.01
595.47	2179.04
595.62	2097.12
595.78	2141.59
595.94	2062.01
596.10	2136.91
596.25	2097.12
596.41	2176.70
596.57	2054.99
596.73	2015.20
596.88	2242.23
597.04	2078.40
597.20	2150.95
597.36	2113.50
597.51	2211.81
597.67	2242.23
597.83	2387.35
597.99	2422.45
598.14	2712.68
598.30	2691.62
598.46	3040.36
598.61	3178.45
598.77	3246.32
598.93	3449.95
599.09	3358.67
599.24	3386.76
599.40	3435.91
599.56	3346.97
599.71	3295.47
599.87	3197.17
600.03	2977.16
600.18	2705.66
600.34	2499.69
600.50	2279.68
600.65	2211.81
600.81	2216.49
600.97	2012.86
601.12	1802.21
601.28	1743.70
601.44	1696.89
601.59	1565.82
601.75	1537.73
601.91	1446.45
602.06	1401.98
602.22	1516.67
602.37	1376.24
602.53	1479.22
602.69	1387.94
602.84	1315.38
603.00	1371.55
603.16	1366.87
603.31	1446.45
603.47	1488.58
603.62	1423.05
603.78	1458.15
603.94	1579.86
604.09	1495.60
604.25	1577.52
604.40	1565.82
604.56	1685.19
604.71	1652.42
604.87	1689.87
605.03	1652.42
605.18	1774.13
605.34	1724.97
