SpectraSuite Data File
++++++++++++++++++++++++++++++++++++
Date: Fri Oct 04 11:41:48 GMT-05:00 2013
User: price-jones
Dark Spectrum Present: No
Reference Spectrum Present: No
Number of Sampled Component Spectra: 1
Spectrometers: USB2+H05261
Integration Time (usec): 100000 (USB2+H05261)
Spectra Averaged: 1 (USB2+H05261)
Boxcar Smoothing: 0 (USB2+H05261)
Correct for Electrical Dark: No (USB2+H05261)
Strobe/Lamp Enabled: No (USB2+H05261)
Correct for Detector Non-linearity: No (USB2+H05261)
Correct for Stray Light: No (USB2+H05261)
Number of Pixels in Processed Spectrum: 2048
>>>>>Begin Processed Spectral Data<<<<<
365.73	25.75
365.92	25.75
366.12	25.75
366.32	0.00
366.52	0.00
366.72	4.68
366.91	0.00
367.11	0.00
367.31	0.00
367.51	0.00
367.70	0.00
367.90	0.00
368.10	0.00
368.30	0.00
368.49	0.00
368.69	14.04
368.89	0.00
369.09	0.00
369.28	0.00
369.48	0.00
369.68	0.00
369.87	0.00
370.07	0.00
370.27	35.11
370.47	0.00
370.66	4.68
370.86	63.19
371.06	140.43
371.25	133.41
371.45	32.77
371.65	30.43
371.84	86.60
372.04	86.60
372.24	86.60
372.44	58.51
372.63	93.62
372.83	126.39
373.03	159.16
373.22	149.79
373.42	152.13
373.62	138.09
373.81	198.95
374.01	182.56
374.21	135.75
374.40	100.64
374.60	124.05
374.79	128.73
374.99	79.58
375.19	161.50
375.38	170.86
375.58	135.75
375.78	95.96
375.97	149.79
376.17	140.43
376.37	163.84
376.56	131.07
376.76	163.84
376.95	86.60
377.15	88.94
377.35	138.09
377.54	189.58
377.74	37.45
377.93	117.03
378.13	166.18
378.33	154.48
378.52	74.90
378.72	138.09
378.91	124.05
379.11	154.48
379.31	121.71
379.50	105.32
379.70	84.26
379.89	152.13
380.09	124.05
380.28	142.77
380.48	145.11
380.68	51.49
380.87	180.22
381.07	149.79
381.26	74.90
381.46	42.13
381.65	72.56
381.85	100.64
382.04	105.32
382.24	117.03
382.43	119.37
382.63	154.48
382.83	100.64
383.02	95.96
383.22	81.92
383.41	70.22
383.61	152.13
383.80	156.82
384.00	77.24
384.19	138.09
384.39	138.09
384.58	124.05
384.78	152.13
384.97	46.81
385.17	154.48
385.36	91.28
385.56	114.69
385.75	112.35
385.95	98.30
386.14	95.96
386.34	95.96
386.53	126.39
386.72	107.66
386.92	177.88
387.11	107.66
387.31	184.90
387.50	72.56
387.70	105.32
387.89	74.90
388.09	163.84
388.28	72.56
388.48	126.39
388.67	149.79
388.86	135.75
389.06	149.79
389.25	79.58
389.45	88.94
389.64	86.60
389.84	117.03
390.03	173.20
390.22	138.09
390.42	149.79
390.61	70.22
390.81	86.60
391.00	23.41
391.19	166.18
391.39	138.09
391.58	168.52
391.78	81.92
391.97	93.62
392.16	95.96
392.36	201.29
392.55	135.75
392.75	227.03
392.94	166.18
393.13	119.37
393.33	102.98
393.52	170.86
393.71	182.56
393.91	124.05
394.10	98.30
394.29	107.66
394.49	175.54
394.68	177.88
394.88	98.30
395.07	170.86
395.26	124.05
395.46	128.73
395.65	159.16
395.84	166.18
396.04	208.31
396.23	138.09
396.42	182.56
396.62	173.20
396.81	128.73
397.00	67.88
397.19	35.11
397.39	138.09
397.58	133.41
397.77	107.66
397.97	131.07
398.16	124.05
398.35	161.50
398.55	121.71
398.74	72.56
398.93	114.69
399.12	154.48
399.32	154.48
399.51	168.52
399.70	166.18
399.90	105.32
400.09	161.50
400.28	93.62
400.47	161.50
400.67	191.92
400.86	152.13
401.05	161.50
401.24	166.18
401.44	255.12
401.63	107.66
401.82	203.63
402.01	133.41
402.21	252.78
402.40	191.92
402.59	208.31
402.78	231.71
402.97	205.97
403.17	285.55
403.36	262.14
403.55	301.93
403.74	685.78
403.93	2015.20
404.13	5294.29
404.32	7578.65
404.51	6654.14
404.70	4070.19
404.89	1568.16
405.09	599.18
405.28	269.16
405.47	262.14
405.66	177.88
405.85	224.69
406.05	234.05
406.24	163.84
406.43	191.92
406.62	142.77
406.81	252.78
407.00	334.70
407.20	617.90
407.39	1022.81
407.58	1055.58
407.77	786.42
407.96	430.66
408.15	259.80
408.34	262.14
408.54	210.65
408.73	297.25
408.92	191.92
409.11	173.20
409.30	248.10
409.49	138.09
409.68	182.56
409.87	168.52
410.07	177.88
410.26	212.99
410.45	180.22
410.64	163.84
410.83	170.86
411.02	231.71
411.21	278.52
411.40	217.67
411.59	189.58
411.78	201.29
411.98	238.73
412.17	175.54
412.36	182.56
412.55	224.69
412.74	257.46
412.93	198.95
413.12	212.99
413.31	252.78
413.50	245.76
413.69	224.69
413.88	313.63
414.07	280.86
414.26	238.73
414.45	229.37
414.64	238.73
414.83	184.90
415.02	238.73
415.22	231.71
415.41	264.48
415.60	175.54
415.79	220.01
415.98	269.16
416.17	330.02
416.36	259.80
416.55	262.14
416.74	187.24
416.93	285.55
417.12	217.67
417.31	208.31
417.50	290.23
417.69	320.65
417.88	276.18
418.07	290.23
418.26	177.88
418.45	259.80
418.64	337.04
418.83	278.52
419.02	299.59
419.21	283.20
419.39	191.92
419.58	269.16
419.77	248.10
419.96	341.72
420.15	269.16
420.34	175.54
420.53	271.50
420.72	280.86
420.91	330.02
421.10	259.80
421.29	322.99
421.48	276.18
421.67	278.52
421.86	276.18
422.05	318.31
422.24	294.91
422.43	280.86
422.61	271.50
422.80	320.65
422.99	313.63
423.18	269.16
423.37	285.55
423.56	351.08
423.75	353.42
423.94	271.50
424.13	294.91
424.32	337.04
424.50	297.25
424.69	304.27
424.88	393.21
425.07	245.76
425.26	374.49
425.45	280.86
425.64	330.02
425.83	276.18
426.01	278.52
426.20	304.27
426.39	327.68
426.58	262.14
426.77	285.55
426.96	449.38
427.15	341.72
427.33	304.27
427.52	234.05
427.71	332.36
427.90	374.49
428.09	355.76
428.28	332.36
428.46	337.04
428.65	348.74
428.84	327.68
429.03	402.57
429.22	294.91
429.40	346.40
429.59	374.49
429.78	468.11
429.97	388.53
430.16	383.85
430.34	407.25
430.53	388.53
430.72	402.57
430.91	332.36
431.10	358.10
431.28	440.02
431.47	388.53
431.66	400.23
431.85	381.51
432.03	435.34
432.22	489.17
432.41	468.11
432.60	468.11
432.79	486.83
432.97	486.83
433.16	468.11
433.35	603.86
433.54	620.24
433.72	585.13
433.91	643.65
434.10	720.88
434.28	873.02
434.47	959.62
434.66	978.34
434.85	1385.60
435.03	3473.36
435.22	12912.74
435.41	31208.70
435.59	35386.56
435.78	22939.59
435.97	11424.15
436.16	4404.89
436.34	1526.03
436.53	961.96
436.72	711.52
436.90	608.54
437.09	638.97
437.28	589.82
437.46	507.90
437.65	594.50
437.84	496.19
438.02	561.73
438.21	540.66
438.40	447.04
438.58	512.58
438.77	482.15
438.96	351.08
439.14	500.87
439.33	486.83
439.52	425.98
439.70	538.32
439.89	489.17
440.08	526.62
440.26	461.09
440.45	435.34
440.63	482.15
440.82	503.22
441.01	444.70
441.19	498.53
441.38	475.13
441.57	430.66
441.75	451.72
441.94	493.85
442.12	479.81
442.31	479.81
442.50	517.26
442.68	458.74
442.87	514.92
443.05	498.53
443.24	463.43
443.43	489.17
443.61	566.41
443.80	433.00
443.98	512.58
444.17	491.51
444.35	500.87
444.54	461.09
444.73	423.64
444.91	521.94
445.10	543.00
445.28	418.96
445.47	472.79
445.65	505.56
445.84	383.85
446.02	411.93
446.21	461.09
446.39	491.51
446.58	414.27
446.77	376.83
446.95	479.81
447.14	479.81
447.32	514.92
447.51	496.19
447.69	543.00
447.88	421.30
448.06	482.15
448.25	489.17
448.43	498.53
448.62	484.49
448.80	463.43
448.99	456.40
449.17	552.37
449.36	477.47
449.54	454.06
449.73	404.91
449.91	533.64
450.10	531.30
450.28	540.66
450.46	521.94
450.65	524.28
450.83	433.00
451.02	503.22
451.20	540.66
451.39	521.94
451.57	402.57
451.76	493.85
451.94	444.70
452.13	507.90
452.31	526.62
452.49	517.26
452.68	519.60
452.86	421.30
453.05	491.51
453.23	461.09
453.42	486.83
453.60	493.85
453.78	404.91
453.97	454.06
454.15	348.74
454.34	409.59
454.52	514.92
454.70	489.17
454.89	451.72
455.07	456.40
455.26	500.87
455.44	486.83
455.62	468.11
455.81	477.47
455.99	521.94
456.17	444.70
456.36	491.51
456.54	470.45
456.73	489.17
456.91	458.74
457.09	388.53
457.28	507.90
457.46	376.83
457.64	449.38
457.83	428.32
458.01	390.87
458.19	404.91
458.38	454.06
458.56	400.23
458.74	428.32
458.93	442.36
459.11	409.59
459.29	482.15
459.48	386.19
459.66	440.02
459.84	411.93
460.03	543.00
460.21	456.40
460.39	519.60
460.57	451.72
460.76	383.85
460.94	395.55
461.12	491.51
461.31	500.87
461.49	479.81
461.67	451.72
461.85	472.79
462.04	425.98
462.22	919.83
462.40	489.17
462.59	353.42
462.77	397.89
462.95	395.55
463.13	465.77
463.32	463.43
463.50	442.36
463.68	472.79
463.86	472.79
464.05	430.66
464.23	493.85
464.41	489.17
464.59	524.28
464.78	538.32
464.96	433.00
465.14	381.51
465.32	510.24
465.50	470.45
465.69	479.81
465.87	447.04
466.05	524.28
466.23	430.66
466.41	454.06
466.60	479.81
466.78	465.77
466.96	533.64
467.14	475.13
467.32	507.90
467.51	498.53
467.69	449.38
467.87	435.34
468.05	411.93
468.23	397.89
468.41	379.17
468.60	489.17
468.78	393.21
468.96	468.11
469.14	449.38
469.32	435.34
469.50	334.70
469.69	395.55
469.87	372.15
470.05	428.32
470.23	486.83
470.41	360.44
470.59	402.57
470.77	416.62
470.95	341.72
471.14	430.66
471.32	437.68
471.50	468.11
471.68	447.04
471.86	442.36
472.04	491.51
472.22	461.09
472.40	421.30
472.58	454.06
472.77	535.98
472.95	414.27
473.13	517.26
473.31	470.45
473.49	395.55
473.67	414.27
473.85	503.22
474.03	416.62
474.21	442.36
474.39	484.49
474.57	475.13
474.75	372.15
474.93	472.79
475.12	407.25
475.30	470.45
475.48	528.96
475.66	442.36
475.84	437.68
476.02	482.15
476.20	404.91
476.38	447.04
476.56	543.00
476.74	505.56
476.92	421.30
477.10	435.34
477.28	472.79
477.46	435.34
477.64	461.09
477.82	514.92
478.00	468.11
478.18	617.90
478.36	475.13
478.54	484.49
478.72	468.11
478.90	564.07
479.08	500.87
479.26	519.60
479.44	636.63
479.62	608.54
479.80	566.41
479.98	643.65
480.16	610.88
480.34	727.91
480.52	660.03
480.70	643.65
480.88	660.03
481.06	788.76
481.24	730.25
481.41	786.42
481.59	861.32
481.77	908.13
481.95	896.43
482.13	1027.50
482.31	1039.20
482.49	1174.95
482.67	1217.08
482.85	1310.70
483.03	1331.76
483.21	1486.24
483.39	1458.15
483.57	1624.33
483.74	1785.83
483.92	1661.78
484.10	1895.83
484.28	2129.89
484.46	2134.57
484.64	2267.98
484.82	2347.56
485.00	2377.98
485.18	2576.93
485.35	2731.41
485.53	2876.52
485.71	3054.40
485.89	2993.55
486.07	3061.42
486.25	3087.17
486.43	3325.90
486.61	3220.58
486.78	3309.52
486.96	3199.51
487.14	3279.09
487.32	3187.81
487.50	3115.25
487.68	3145.68
487.85	3204.19
488.03	3211.22
488.21	3138.66
488.39	3021.63
488.57	2869.50
488.75	2785.24
488.92	3002.91
489.10	2733.75
489.28	2693.96
489.46	2665.87
489.64	2499.69
489.81	2609.70
489.99	2516.08
490.17	2471.61
490.35	2490.33
490.53	2429.48
490.70	2499.69
490.88	2462.24
491.06	2672.89
491.24	2796.94
491.41	2766.51
491.59	2654.17
491.77	2499.69
491.95	2277.34
492.13	2258.62
492.30	2392.03
492.48	2204.78
492.66	2190.74
492.84	2181.38
493.01	2216.49
493.19	2024.56
493.37	2113.50
493.54	2017.54
493.72	1886.47
493.90	1935.62
494.08	1998.82
494.25	1912.22
494.43	1900.52
494.61	1790.51
494.79	1933.28
494.96	1774.13
495.14	1804.55
495.32	1802.21
495.49	1678.16
495.67	1647.74
495.85	1673.48
496.02	1657.10
496.20	1638.38
496.38	1633.69
496.55	1537.73
496.73	1544.75
496.91	1526.03
497.09	1516.67
497.26	1460.49
497.44	1530.71
497.62	1364.53
497.79	1313.04
497.97	1270.91
498.14	1385.60
498.32	1397.30
498.50	1245.16
498.67	1263.89
498.85	1139.84
499.03	1277.93
499.20	1146.86
499.38	1177.29
499.56	1067.28
499.73	1191.33
499.91	1093.03
500.08	1064.94
500.26	1043.88
500.44	954.94
500.61	987.71
500.79	868.34
500.97	917.49
501.14	943.24
501.32	814.51
501.49	835.57
501.67	884.72
501.84	777.06
502.02	751.31
502.20	770.04
502.37	809.83
502.55	697.48
502.72	725.57
502.90	795.78
503.07	704.50
503.25	660.03
503.43	615.56
503.60	688.12
503.78	739.61
503.95	608.54
504.13	606.20
504.30	620.24
504.48	641.31
504.65	620.24
504.83	610.88
505.01	547.69
505.18	606.20
505.36	610.88
505.53	575.77
505.71	479.81
505.88	507.90
506.06	540.66
506.23	521.94
506.41	561.73
506.58	500.87
506.76	404.91
506.93	496.19
507.11	451.72
507.28	456.40
507.46	416.62
507.63	559.39
507.81	510.24
507.98	437.68
508.16	454.06
508.33	475.13
508.50	521.94
508.68	573.43
508.85	533.64
509.03	482.15
509.20	458.74
509.38	543.00
509.55	582.79
509.73	468.11
509.90	454.06
510.08	440.02
510.25	477.47
510.42	404.91
510.60	400.23
510.77	421.30
510.95	425.98
511.12	416.62
511.30	447.04
511.47	416.62
511.64	440.02
511.82	440.02
511.99	397.89
512.17	454.06
512.34	482.15
512.51	411.93
512.69	449.38
512.86	454.06
513.04	444.70
513.21	395.55
513.38	400.23
513.56	365.12
513.73	475.13
513.90	332.36
514.08	393.21
514.25	418.96
514.43	440.02
514.60	381.51
514.77	386.19
514.95	337.04
515.12	327.68
515.29	315.97
515.47	430.66
515.64	447.04
515.81	402.57
515.99	451.72
516.16	428.32
516.33	430.66
516.51	421.30
516.68	344.06
516.85	372.15
517.03	482.15
517.20	358.10
517.37	407.25
517.54	418.96
517.72	369.80
517.89	393.21
518.06	341.72
518.24	421.30
518.41	454.06
518.58	390.87
518.75	367.46
518.93	351.08
519.10	397.89
519.27	325.33
519.45	320.65
519.62	425.98
519.79	386.19
519.96	367.46
520.14	381.51
520.31	416.62
520.48	322.99
520.65	376.83
520.83	381.51
521.00	409.59
521.17	351.08
521.34	369.80
521.52	393.21
521.69	351.08
521.86	358.10
522.03	430.66
522.20	339.38
522.38	365.12
522.55	299.59
522.72	322.99
522.89	400.23
523.07	437.68
523.24	322.99
523.41	397.89
523.58	334.70
523.75	414.27
523.92	344.06
524.10	337.04
524.27	367.46
524.44	355.76
524.61	369.80
524.78	400.23
524.96	428.32
525.13	416.62
525.30	369.80
525.47	379.17
525.64	425.98
525.81	425.98
525.98	344.06
526.16	388.53
526.33	383.85
526.50	404.91
526.67	390.87
526.84	416.62
527.01	440.02
527.18	468.11
527.36	519.60
527.53	444.70
527.70	435.34
527.87	390.87
528.04	554.71
528.21	397.89
528.38	463.43
528.55	440.02
528.72	547.69
528.89	500.87
529.07	486.83
529.24	430.66
529.41	521.94
529.58	475.13
529.75	545.34
529.92	519.60
530.09	566.41
530.26	653.01
530.43	557.05
530.60	557.05
530.77	524.28
530.94	575.77
531.11	547.69
531.28	559.39
531.46	592.16
531.63	690.46
531.80	610.88
531.97	681.10
532.14	798.12
532.31	898.77
532.48	1111.75
532.65	1268.57
532.82	1423.05
532.99	1610.29
533.16	1849.02
533.33	1977.75
533.50	1886.47
533.67	1575.18
533.84	1282.61
534.01	1240.48
534.18	1086.01
534.35	1083.67
534.52	1203.04
534.69	1212.40
534.86	1212.40
535.03	1221.76
535.20	1263.89
535.37	1324.74
535.54	1479.22
535.71	1458.15
535.88	1654.76
536.05	1703.91
536.22	1797.53
536.38	1949.67
536.55	2092.44
536.72	2354.58
536.89	2574.59
537.06	2970.14
537.23	3300.16
537.40	3538.89
537.57	3843.16
537.74	4081.89
537.91	4297.22
538.08	4414.25
538.25	4416.59
538.42	4575.75
538.59	4540.64
538.75	4723.20
538.92	4992.36
539.09	5373.87
539.26	5977.73
539.43	6843.73
539.60	7705.04
539.77	8638.92
539.94	9886.42
540.11	10794.55
540.28	11719.06
540.44	13121.04
540.61	14197.69
540.78	16374.39
540.95	19632.41
541.12	23531.75
541.29	26953.61
541.46	28058.34
541.62	27784.50
541.79	26476.14
541.96	24664.57
542.13	22890.44
542.30	21502.50
542.47	20079.46
542.63	18963.02
542.80	18340.44
542.97	18326.39
543.14	18153.20
543.31	18225.75
543.48	18066.60
543.64	18310.01
543.81	18548.75
543.98	18635.35
544.15	18813.23
544.32	19037.92
544.48	18850.67
544.65	18799.18
544.82	18317.03
544.99	18396.61
545.16	18892.80
545.32	19758.80
545.49	31044.87
545.66	55281.11
545.83	62382.30
546.00	58012.52
546.16	43934.20
546.33	32100.45
546.50	23868.78
546.67	19005.15
546.83	17008.67
547.00	16154.38
547.17	15520.09
547.34	14494.94
547.50	13991.72
547.67	13692.13
547.84	13158.49
548.00	12512.50
548.17	12187.17
548.34	11419.47
548.51	11548.20
548.67	10719.65
548.84	10113.45
549.01	9565.77
549.18	9284.91
549.34	9046.17
549.51	8585.08
549.68	8344.01
549.84	7913.35
550.01	7669.94
550.18	7150.34
550.34	6864.79
550.51	6384.98
550.68	6274.98
550.84	5954.32
551.01	5607.92
551.18	5315.36
551.34	4964.28
551.51	4884.70
551.68	4751.29
551.84	4599.15
552.01	4222.33
552.18	4161.47
552.34	4014.02
552.51	3920.40
552.68	3726.13
552.84	3445.27
553.01	3517.83
553.18	3236.96
553.34	3150.36
553.51	3002.91
553.67	3091.85
553.84	2942.05
554.01	2801.62
554.17	2576.93
554.34	2335.85
554.51	2193.08
554.67	2118.18
554.84	1933.28
555.00	1879.45
555.17	1741.36
555.33	1757.74
555.50	1689.87
555.67	1579.86
555.83	1521.35
556.00	1420.71
556.16	1549.43
556.33	1432.41
556.50	1306.02
556.66	1277.93
556.83	1214.74
556.99	1242.82
557.16	1214.74
557.32	1252.19
557.49	1076.65
557.65	1104.73
557.82	1011.11
557.98	1013.45
558.15	1043.88
558.32	990.05
558.48	968.98
558.65	919.83
558.81	926.85
558.98	966.64
559.14	938.55
559.31	943.24
559.47	912.81
559.64	877.70
559.80	823.87
559.97	795.78
560.13	814.51
560.30	809.83
560.46	807.48
560.63	683.44
560.79	779.40
560.96	812.17
561.12	795.78
561.29	723.23
561.45	791.10
561.61	898.77
561.78	842.59
561.94	887.06
562.11	734.93
562.27	734.93
562.44	695.14
562.60	788.76
562.77	781.74
562.93	730.25
563.10	758.33
563.26	741.95
563.42	774.72
563.59	753.65
563.75	697.48
563.92	802.80
564.08	667.05
564.24	755.99
564.41	734.93
564.57	648.33
564.74	641.31
564.90	681.10
565.07	744.29
565.23	664.71
565.39	608.54
565.56	650.67
565.72	620.24
565.88	580.45
566.05	634.29
566.21	561.73
566.38	589.82
566.54	648.33
566.70	650.67
566.87	655.35
567.03	587.47
567.19	620.24
567.36	685.78
567.52	655.35
567.68	650.67
567.85	636.63
568.01	638.97
568.17	594.50
568.34	695.14
568.50	645.99
568.66	685.78
568.83	697.48
568.99	667.05
569.15	631.94
569.32	596.84
569.48	547.69
569.64	606.20
569.81	500.87
569.97	517.26
570.13	535.98
570.30	486.83
570.46	482.15
570.62	545.34
570.78	512.58
570.95	411.93
571.11	543.00
571.27	517.26
571.43	433.00
571.60	505.56
571.76	505.56
571.92	496.19
572.09	521.94
572.25	561.73
572.41	510.24
572.57	512.58
572.74	512.58
572.90	543.00
573.06	496.19
573.22	470.45
573.38	484.49
573.55	521.94
573.71	571.09
573.87	540.66
574.03	540.66
574.20	587.47
574.36	538.32
574.52	573.43
574.68	631.94
574.84	580.45
575.01	603.86
575.17	587.47
575.33	631.94
575.49	800.46
575.65	833.23
575.82	873.02
575.98	1004.09
576.14	1029.84
576.30	2141.59
576.46	6354.55
576.62	12402.50
576.79	13334.03
576.95	9509.60
577.11	6043.26
577.27	4383.82
577.43	2981.84
577.59	1839.66
577.75	1556.46
577.92	1366.87
578.08	1446.45
578.24	1355.17
578.40	2197.76
578.56	5982.41
578.72	11309.47
578.88	12641.23
579.04	9254.48
579.21	6317.11
579.37	4631.92
579.53	3634.85
579.69	3438.25
579.85	4191.90
580.01	4786.40
580.17	4697.46
580.33	3974.23
580.49	3571.66
580.65	3082.49
580.82	2843.75
580.98	2771.19
581.14	2796.94
581.30	2967.80
581.46	3145.68
581.62	3391.44
581.78	3550.59
581.94	4018.70
582.10	4044.45
582.26	4325.31
582.42	4451.70
582.58	4702.14
582.74	4819.16
582.90	4704.48
583.06	4779.37
583.22	4550.00
583.38	4678.73
583.54	4674.05
583.70	4837.89
583.86	4592.13
584.02	4669.37
584.18	4503.19
584.34	4423.61
584.50	4374.46
584.66	4257.43
584.82	4234.03
584.98	4173.18
585.14	4088.92
585.30	4016.36
585.46	4142.75
585.62	3901.67
585.78	3934.44
585.94	3981.25
586.10	4077.21
586.26	4297.22
586.42	4805.12
586.58	5701.54
586.74	6972.46
586.90	8299.54
587.06	9179.58
587.22	8713.81
587.38	8023.36
587.54	7229.91
587.70	5968.37
587.86	5193.65
588.02	4297.22
588.18	3742.52
588.34	3531.87
588.49	3239.30
588.65	2923.33
588.81	2810.98
588.97	2644.81
589.13	2705.66
589.29	2665.87
589.45	2621.40
589.61	2590.97
589.77	2637.78
589.93	2614.38
590.08	2708.00
590.24	2876.52
590.40	2881.20
590.56	3021.63
590.72	2995.89
590.88	3108.23
591.04	3335.26
591.20	3438.25
591.35	3473.36
591.51	3726.13
591.67	3915.72
591.83	3939.12
591.99	4500.85
592.15	4592.13
592.31	5022.79
592.46	5518.98
592.62	6085.39
592.78	6392.00
592.94	6623.72
593.10	6520.73
593.26	6307.74
593.41	5820.91
593.57	5219.39
593.73	4631.92
593.89	4053.81
594.05	3581.02
594.20	3267.39
594.36	3061.42
594.52	2810.98
594.68	2612.04
594.84	2558.21
594.99	2495.01
595.15	2490.33
595.31	2352.24
595.47	2429.48
595.62	2260.96
595.78	2263.30
595.94	2363.94
596.10	2483.31
596.25	2335.85
596.41	2382.67
596.57	2352.24
596.73	2340.54
596.88	2305.43
597.04	2307.77
597.20	2511.39
597.36	2581.61
597.51	2438.84
597.67	2527.78
597.83	2675.23
597.99	2862.48
598.14	2935.03
598.30	3218.24
598.46	3328.24
598.61	3566.98
598.77	3770.60
598.93	3871.25
599.09	3859.54
599.24	4098.28
599.40	3960.19
599.56	3770.60
599.71	3667.62
599.87	3501.44
600.03	3295.47
600.18	2981.84
600.34	2991.20
600.50	2677.57
600.65	2612.04
600.81	2303.09
600.97	2260.96
601.12	2157.97
601.28	2118.18
601.44	1952.01
601.59	1935.62
601.75	1809.23
601.91	1657.10
602.06	1607.95
602.22	1685.19
602.37	1572.84
602.53	1549.43
602.69	1549.43
602.84	1533.05
603.00	1596.25
603.16	1577.52
603.31	1678.16
603.47	1666.46
603.62	1682.85
603.78	1689.87
603.94	1767.10
604.09	1823.28
604.25	1891.15
604.40	1849.02
604.56	1746.04
604.71	1935.62
604.87	1893.49
605.03	1980.09
605.18	1977.75
605.34	2017.54
