SpectraSuite Data File
++++++++++++++++++++++++++++++++++++
Date: Fri Oct 04 11:41:42 GMT-05:00 2013
User: price-jones
Dark Spectrum Present: No
Reference Spectrum Present: No
Number of Sampled Component Spectra: 1
Spectrometers: USB2+H05261
Integration Time (usec): 100000 (USB2+H05261)
Spectra Averaged: 1 (USB2+H05261)
Boxcar Smoothing: 0 (USB2+H05261)
Correct for Electrical Dark: No (USB2+H05261)
Strobe/Lamp Enabled: No (USB2+H05261)
Correct for Detector Non-linearity: No (USB2+H05261)
Correct for Stray Light: No (USB2+H05261)
Number of Pixels in Processed Spectrum: 2048
>>>>>Begin Processed Spectral Data<<<<<
365.73	39.79
365.92	39.79
366.12	39.79
366.32	0.00
366.52	0.00
366.72	32.77
366.91	0.00
367.11	2.34
367.31	0.00
367.51	0.00
367.70	0.00
367.90	0.00
368.10	0.00
368.30	0.00
368.49	0.00
368.69	0.00
368.89	0.00
369.09	0.00
369.28	0.00
369.48	0.00
369.68	0.00
369.87	14.04
370.07	0.00
370.27	39.79
370.47	0.00
370.66	0.00
370.86	72.56
371.06	65.54
371.25	126.39
371.45	72.56
371.65	63.19
371.84	121.71
372.04	58.51
372.24	51.49
372.44	114.69
372.63	107.66
372.83	145.11
373.03	107.66
373.22	30.43
373.42	135.75
373.62	79.58
373.81	124.05
374.01	147.45
374.21	135.75
374.40	217.67
374.60	163.84
374.79	119.37
374.99	126.39
375.19	117.03
375.38	72.56
375.58	126.39
375.78	105.32
375.97	135.75
376.17	131.07
376.37	77.24
376.56	166.18
376.76	112.35
376.95	117.03
377.15	133.41
377.35	110.01
377.54	168.52
377.74	93.62
377.93	91.28
378.13	95.96
378.33	198.95
378.52	180.22
378.72	177.88
378.91	126.39
379.11	128.73
379.31	131.07
379.50	114.69
379.70	114.69
379.89	191.92
380.09	196.60
380.28	168.52
380.48	81.92
380.68	119.37
380.87	142.77
381.07	140.43
381.26	138.09
381.46	149.79
381.65	149.79
381.85	70.22
382.04	95.96
382.24	84.26
382.43	121.71
382.63	131.07
382.83	126.39
383.02	168.52
383.22	121.71
383.41	60.85
383.61	81.92
383.80	49.15
384.00	124.05
384.19	105.32
384.39	95.96
384.58	114.69
384.78	107.66
384.97	98.30
385.17	74.90
385.36	142.77
385.56	124.05
385.75	56.17
385.95	84.26
386.14	133.41
386.34	74.90
386.53	245.76
386.72	56.17
386.92	156.82
387.11	53.83
387.31	126.39
387.50	119.37
387.70	105.32
387.89	149.79
388.09	159.16
388.28	105.32
388.48	175.54
388.67	147.45
388.86	107.66
389.06	98.30
389.25	138.09
389.45	91.28
389.64	124.05
389.84	175.54
390.03	119.37
390.22	114.69
390.42	119.37
390.61	133.41
390.81	79.58
391.00	145.11
391.19	201.29
391.39	117.03
391.58	133.41
391.78	161.50
391.97	112.35
392.16	11.70
392.36	161.50
392.55	135.75
392.75	145.11
392.94	124.05
393.13	9.36
393.33	58.51
393.52	126.39
393.71	159.16
393.91	74.90
394.10	128.73
394.29	187.24
394.49	159.16
394.68	121.71
394.88	173.20
395.07	119.37
395.26	110.01
395.46	124.05
395.65	105.32
395.84	145.11
396.04	126.39
396.23	124.05
396.42	159.16
396.62	117.03
396.81	152.13
397.00	95.96
397.19	81.92
397.39	102.98
397.58	173.20
397.77	135.75
397.97	147.45
398.16	124.05
398.35	152.13
398.55	163.84
398.74	156.82
398.93	110.01
399.12	102.98
399.32	203.63
399.51	184.90
399.70	166.18
399.90	114.69
400.09	135.75
400.28	140.43
400.47	177.88
400.67	191.92
400.86	161.50
401.05	140.43
401.24	154.48
401.44	102.98
401.63	175.54
401.82	208.31
402.01	93.62
402.21	95.96
402.40	161.50
402.59	227.03
402.78	114.69
402.97	135.75
403.17	210.65
403.36	250.44
403.55	313.63
403.74	685.78
403.93	1701.57
404.13	3953.16
404.32	5039.17
404.51	4236.37
404.70	2525.44
404.89	950.26
405.09	365.12
405.28	205.97
405.47	147.45
405.66	189.58
405.85	238.73
406.05	140.43
406.24	194.26
406.43	170.86
406.62	203.63
406.81	255.12
407.00	290.23
407.20	543.00
407.39	706.84
407.58	777.06
407.77	538.32
407.96	341.72
408.15	201.29
408.34	224.69
408.54	168.52
408.73	175.54
408.92	175.54
409.11	259.80
409.30	290.23
409.49	138.09
409.68	159.16
409.87	201.29
410.07	180.22
410.26	147.45
410.45	173.20
410.64	191.92
410.83	191.92
411.02	175.54
411.21	131.07
411.40	184.90
411.59	234.05
411.78	264.48
411.98	184.90
412.17	145.11
412.36	217.67
412.55	149.79
412.74	217.67
412.93	224.69
413.12	161.50
413.31	149.79
413.50	152.13
413.69	189.58
413.88	203.63
414.07	191.92
414.26	257.46
414.45	138.09
414.64	257.46
414.83	243.42
415.02	229.37
415.22	217.67
415.41	266.82
415.60	126.39
415.79	187.24
415.98	273.84
416.17	255.12
416.36	224.69
416.55	212.99
416.74	231.71
416.93	250.44
417.12	231.71
417.31	187.24
417.50	210.65
417.69	278.52
417.88	287.89
418.07	250.44
418.26	168.52
418.45	241.08
418.64	203.63
418.83	229.37
419.02	159.16
419.21	238.73
419.39	187.24
419.58	208.31
419.77	201.29
419.96	217.67
420.15	301.93
420.34	212.99
420.53	210.65
420.72	262.14
420.91	252.78
421.10	283.20
421.29	264.48
421.48	238.73
421.67	250.44
421.86	224.69
422.05	290.23
422.24	229.37
422.43	229.37
422.61	234.05
422.80	304.27
422.99	264.48
423.18	227.03
423.37	337.04
423.56	330.02
423.75	259.80
423.94	191.92
424.13	269.16
424.32	245.76
424.50	212.99
424.69	238.73
424.88	411.93
425.07	266.82
425.26	227.03
425.45	269.16
425.64	348.74
425.83	259.80
426.01	315.97
426.20	262.14
426.39	262.14
426.58	224.69
426.77	301.93
426.96	344.06
427.15	308.95
427.33	241.08
427.52	330.02
427.71	210.65
427.90	276.18
428.09	278.52
428.28	287.89
428.46	238.73
428.65	273.84
428.84	273.84
429.03	287.89
429.22	301.93
429.40	241.08
429.59	320.65
429.78	423.64
429.97	250.44
430.16	306.61
430.34	287.89
430.53	266.82
430.72	290.23
430.91	325.33
431.10	266.82
431.28	404.91
431.47	315.97
431.66	372.15
431.85	322.99
432.03	278.52
432.22	348.74
432.41	327.68
432.60	365.12
432.79	327.68
432.97	351.08
433.16	447.04
433.35	400.23
433.54	484.49
433.72	531.30
433.91	489.17
434.10	594.50
434.28	730.25
434.47	774.72
434.66	873.02
434.85	1046.22
435.03	2932.69
435.22	10944.34
435.41	22581.49
435.59	21771.66
435.78	14193.01
435.97	7026.29
436.16	2778.22
436.34	1048.56
436.53	615.56
436.72	592.16
436.90	503.22
437.09	421.30
437.28	395.55
437.46	395.55
437.65	447.04
437.84	435.34
438.02	425.98
438.21	418.96
438.40	318.31
438.58	351.08
438.77	486.83
438.96	360.44
439.14	381.51
439.33	395.55
439.52	440.02
439.70	344.06
439.89	447.04
440.08	435.34
440.26	456.40
440.45	393.21
440.63	397.89
440.82	353.42
441.01	442.36
441.19	299.59
441.38	423.64
441.57	306.61
441.75	397.89
441.94	449.38
442.12	313.63
442.31	355.76
442.50	418.96
442.68	372.15
442.87	369.80
443.05	395.55
443.24	425.98
443.43	470.45
443.61	418.96
443.80	510.24
443.98	353.42
444.17	348.74
444.35	367.46
444.54	304.27
444.73	376.83
444.91	423.64
445.10	374.49
445.28	355.76
445.47	402.57
445.65	395.55
445.84	327.68
446.02	423.64
446.21	313.63
446.39	308.95
446.58	411.93
446.77	411.93
446.95	390.87
447.14	414.27
447.32	362.78
447.51	402.57
447.69	411.93
447.88	376.83
448.06	330.02
448.25	355.76
448.43	369.80
448.62	397.89
448.80	376.83
448.99	341.72
449.17	360.44
449.36	386.19
449.54	404.91
449.73	341.72
449.91	407.25
450.10	318.31
450.28	465.77
450.46	341.72
450.65	379.17
450.83	358.10
451.02	346.40
451.20	411.93
451.39	404.91
451.57	344.06
451.76	390.87
451.94	430.66
452.13	294.91
452.31	437.68
452.49	388.53
452.68	376.83
452.86	388.53
453.05	416.62
453.23	337.04
453.42	351.08
453.60	423.64
453.78	344.06
453.97	397.89
454.15	355.76
454.34	365.12
454.52	290.23
454.70	376.83
454.89	388.53
455.07	362.78
455.26	327.68
455.44	383.85
455.62	351.08
455.81	334.70
455.99	358.10
456.17	414.27
456.36	320.65
456.54	346.40
456.73	365.12
456.91	322.99
457.09	355.76
457.28	404.91
457.46	322.99
457.64	372.15
457.83	393.21
458.01	358.10
458.19	358.10
458.38	367.46
458.56	348.74
458.74	330.02
458.93	344.06
459.11	421.30
459.29	383.85
459.48	346.40
459.66	418.96
459.84	395.55
460.03	496.19
460.21	294.91
460.39	386.19
460.57	393.21
460.76	320.65
460.94	372.15
461.12	332.36
461.31	404.91
461.49	362.78
461.67	318.31
461.85	402.57
462.04	304.27
462.22	535.98
462.40	360.44
462.59	386.19
462.77	369.80
462.95	341.72
463.13	273.84
463.32	365.12
463.50	362.78
463.68	388.53
463.86	346.40
464.05	243.42
464.23	376.83
464.41	435.34
464.59	402.57
464.78	360.44
464.96	278.52
465.14	372.15
465.32	351.08
465.50	351.08
465.69	402.57
465.87	334.70
466.05	315.97
466.23	318.31
466.41	390.87
466.60	381.51
466.78	334.70
466.96	538.32
467.14	395.55
467.32	341.72
467.51	308.95
467.69	376.83
467.87	332.36
468.05	355.76
468.23	299.59
468.41	397.89
468.60	353.42
468.78	400.23
468.96	362.78
469.14	320.65
469.32	294.91
469.50	283.20
469.69	341.72
469.87	341.72
470.05	355.76
470.23	299.59
470.41	327.68
470.59	330.02
470.77	379.17
470.95	395.55
471.14	451.72
471.32	360.44
471.50	374.49
471.68	269.16
471.86	433.00
472.04	266.82
472.22	423.64
472.40	297.25
472.58	304.27
472.77	257.46
472.95	306.61
473.13	344.06
473.31	374.49
473.49	290.23
473.67	355.76
473.85	376.83
474.03	360.44
474.21	327.68
474.39	376.83
474.57	428.32
474.75	341.72
474.93	351.08
475.12	313.63
475.30	353.42
475.48	344.06
475.66	301.93
475.84	322.99
476.02	348.74
476.20	404.91
476.38	365.12
476.56	454.06
476.74	334.70
476.92	294.91
477.10	339.38
477.28	351.08
477.46	299.59
477.64	327.68
477.82	379.17
478.00	402.57
478.18	379.17
478.36	409.59
478.54	290.23
478.72	456.40
478.90	440.02
479.08	433.00
479.26	386.19
479.44	479.81
479.62	440.02
479.80	454.06
479.98	505.56
480.16	470.45
480.34	433.00
480.52	514.92
480.70	552.37
480.88	496.19
481.06	484.49
481.24	624.92
481.41	613.22
481.59	615.56
481.77	720.88
481.95	786.42
482.13	805.14
482.31	809.83
482.49	802.80
482.67	884.72
482.85	1004.09
483.03	1004.09
483.21	1095.37
483.39	1132.82
483.57	1107.07
483.74	1193.67
483.92	1270.91
484.10	1331.76
484.28	1444.11
484.46	1514.33
484.64	1673.48
484.82	1675.82
485.00	1764.76
485.18	1856.04
485.35	1912.22
485.53	2038.61
485.71	2094.78
485.89	2286.70
486.07	2260.96
486.25	2331.17
486.43	2249.25
486.61	2230.53
486.78	2279.68
486.96	2331.17
487.14	2218.83
487.32	2244.57
487.50	2211.81
487.68	2267.98
487.85	2218.83
488.03	2071.37
488.21	2186.06
488.39	2040.95
488.57	2066.69
488.75	1949.67
488.92	2181.38
489.10	1956.69
489.28	1853.70
489.46	1797.53
489.64	1774.13
489.81	1930.94
489.99	1795.19
490.17	1825.62
490.35	1825.62
490.53	1870.09
490.70	1685.19
490.88	1767.10
491.06	1858.39
491.24	1895.83
491.41	1987.11
491.59	1902.86
491.77	1778.81
491.95	1619.65
492.13	1537.73
492.30	1511.99
492.48	1490.92
492.66	1490.92
492.84	1647.74
493.01	1570.50
493.19	1502.62
493.37	1596.25
493.54	1472.20
493.72	1514.33
493.90	1355.17
494.08	1488.58
494.25	1430.07
494.43	1406.66
494.61	1397.30
494.79	1315.38
494.96	1287.29
495.14	1313.04
495.32	1294.32
495.49	1186.65
495.67	1259.21
495.85	1233.46
496.02	1114.10
496.20	1203.04
496.38	1142.18
496.55	1146.86
496.73	1188.99
496.91	1170.27
497.09	1172.61
497.26	1163.25
497.44	1121.12
497.62	1046.22
497.79	1062.60
497.97	1123.46
498.14	1029.84
498.32	891.74
498.50	931.53
498.67	978.34
498.85	929.19
499.03	821.53
499.20	760.67
499.38	847.27
499.56	856.64
499.73	873.02
499.91	812.17
500.08	840.25
500.26	755.99
500.44	758.33
500.61	713.86
500.79	699.82
500.97	669.39
501.14	683.44
501.32	699.82
501.49	678.76
501.67	599.18
501.84	594.50
502.02	622.58
502.20	620.24
502.37	631.94
502.55	629.60
502.72	524.28
502.90	596.84
503.07	514.92
503.25	528.96
503.43	489.17
503.60	489.17
503.78	564.07
503.95	510.24
504.13	531.30
504.30	535.98
504.48	491.51
504.65	493.85
504.83	496.19
505.01	400.23
505.18	456.40
505.36	458.74
505.53	393.21
505.71	470.45
505.88	477.47
506.06	297.25
506.23	395.55
506.41	404.91
506.58	397.89
506.76	461.09
506.93	367.46
507.11	454.06
507.28	379.17
507.46	360.44
507.63	294.91
507.81	292.57
507.98	388.53
508.16	463.43
508.33	355.76
508.50	414.27
508.68	442.36
508.85	430.66
509.03	493.85
509.20	390.87
509.38	409.59
509.55	463.43
509.73	416.62
509.90	447.04
510.08	383.85
510.25	383.85
510.42	351.08
510.60	449.38
510.77	402.57
510.95	374.49
511.12	402.57
511.30	454.06
511.47	348.74
511.64	440.02
511.82	283.20
511.99	379.17
512.17	416.62
512.34	360.44
512.51	388.53
512.69	379.17
512.86	365.12
513.04	372.15
513.21	374.49
513.38	304.27
513.56	374.49
513.73	374.49
513.90	311.29
514.08	341.72
514.25	334.70
514.43	292.57
514.60	397.89
514.77	322.99
514.95	362.78
515.12	344.06
515.29	285.55
515.47	327.68
515.64	332.36
515.81	297.25
515.99	369.80
516.16	428.32
516.33	365.12
516.51	320.65
516.68	241.08
516.85	344.06
517.03	362.78
517.20	322.99
517.37	374.49
517.54	337.04
517.72	374.49
517.89	276.18
518.06	276.18
518.24	322.99
518.41	372.15
518.58	327.68
518.75	330.02
518.93	348.74
519.10	311.29
519.27	322.99
519.45	285.55
519.62	402.57
519.79	266.82
519.96	393.21
520.14	341.72
520.31	351.08
520.48	313.63
520.65	337.04
520.83	304.27
521.00	383.85
521.17	358.10
521.34	322.99
521.52	290.23
521.69	252.78
521.86	360.44
522.03	308.95
522.20	332.36
522.38	362.78
522.55	339.38
522.72	280.86
522.89	400.23
523.07	311.29
523.24	386.19
523.41	358.10
523.58	344.06
523.75	346.40
523.92	311.29
524.10	297.25
524.27	318.31
524.44	365.12
524.61	409.59
524.78	374.49
524.96	365.12
525.13	334.70
525.30	472.79
525.47	348.74
525.64	341.72
525.81	374.49
525.98	217.67
526.16	313.63
526.33	365.12
526.50	315.97
526.67	308.95
526.84	334.70
527.01	353.42
527.18	360.44
527.36	409.59
527.53	395.55
527.70	390.87
527.87	287.89
528.04	381.51
528.21	308.95
528.38	409.59
528.55	393.21
528.72	411.93
528.89	437.68
529.07	454.06
529.24	390.87
529.41	484.49
529.58	465.77
529.75	418.96
529.92	449.38
530.09	437.68
530.26	498.53
530.43	477.47
530.60	404.91
530.77	477.47
530.94	493.85
531.11	489.17
531.28	557.05
531.46	463.43
531.63	526.62
531.80	500.87
531.97	608.54
532.14	592.16
532.31	758.33
532.48	833.23
532.65	894.08
532.82	1083.67
532.99	1212.40
533.16	1420.71
533.33	1240.48
533.50	1252.19
533.67	1057.92
533.84	994.73
534.01	968.98
534.18	891.74
534.35	870.68
534.52	835.57
534.69	917.49
534.86	931.53
535.03	929.19
535.20	945.58
535.37	1069.62
535.54	1032.18
535.71	1086.01
535.88	1238.14
536.05	1294.32
536.22	1364.53
536.38	1364.53
536.55	1509.65
536.72	1757.74
536.89	1921.58
537.06	2057.33
537.23	2228.19
537.40	2504.37
537.57	2574.59
537.74	2752.47
537.91	2874.18
538.08	3000.57
538.25	2878.86
538.42	3030.99
538.59	3150.36
538.75	3206.53
538.92	3363.35
539.09	3798.69
539.26	4117.00
539.43	4723.20
539.60	5305.99
539.77	5865.38
539.94	6567.54
540.11	7279.07
540.28	8032.72
540.44	8734.88
540.61	9413.63
540.78	10998.18
540.95	13277.86
541.12	15641.80
541.29	17757.64
541.46	18352.14
541.62	17958.93
541.79	16992.29
541.96	15999.90
542.13	14815.59
542.30	13961.30
542.47	12910.40
542.63	12479.74
542.80	12060.78
542.97	11939.07
543.14	11889.92
543.31	11564.59
543.48	11910.99
543.64	11873.54
543.81	12196.53
543.98	12397.82
544.15	12255.04
544.32	12306.54
544.48	12383.77
544.65	12135.68
544.82	12116.95
544.99	12013.97
545.16	12351.01
545.32	13118.70
545.49	23807.93
545.66	42174.11
545.83	48523.99
546.00	40889.16
546.16	27721.30
546.33	20767.57
546.50	15328.17
546.67	12276.11
546.83	10963.07
547.00	10328.78
547.17	10066.64
547.34	9558.75
547.50	9380.87
547.67	8933.82
547.84	8470.40
548.00	8318.26
548.17	7948.46
548.34	7571.63
548.51	7321.20
548.67	7063.74
548.84	6743.08
549.01	6429.45
549.18	6122.84
549.34	6024.54
549.51	5818.57
549.68	5509.62
549.84	5203.01
550.01	4945.55
550.18	4863.63
550.34	4748.95
550.51	4517.23
550.68	4271.48
550.84	3964.87
551.01	3658.26
551.18	3597.40
551.34	3424.20
551.51	3166.74
551.68	3192.49
551.84	3108.23
552.01	2899.92
552.18	2843.75
552.34	2630.76
552.51	2588.63
552.68	2502.03
552.84	2342.88
553.01	2363.94
553.18	2375.64
553.34	2073.71
553.51	2125.21
553.67	1998.82
553.84	2101.80
554.01	1806.89
554.17	1778.81
554.34	1603.27
554.51	1511.99
554.67	1490.92
554.84	1387.94
555.00	1336.45
555.17	1299.00
555.33	1212.40
555.50	1144.52
555.67	1083.67
555.83	999.41
556.00	1048.56
556.16	1121.12
556.33	968.98
556.50	901.11
556.66	978.34
556.83	922.17
556.99	952.60
557.16	889.40
557.32	823.87
557.49	741.95
557.65	734.93
557.82	713.86
557.98	697.48
558.15	741.95
558.32	678.76
558.48	732.59
558.65	706.84
558.81	720.88
558.98	746.63
559.14	720.88
559.31	695.14
559.47	620.24
559.64	634.29
559.80	662.37
559.97	564.07
560.13	655.35
560.30	674.07
560.46	519.60
560.63	634.29
560.79	606.20
560.96	599.18
561.12	575.77
561.29	568.75
561.45	622.58
561.61	568.75
561.78	690.46
561.94	662.37
562.11	608.54
562.27	557.05
562.44	573.43
562.60	615.56
562.77	533.64
562.93	662.37
563.10	620.24
563.26	517.26
563.42	585.13
563.59	498.53
563.75	512.58
563.92	528.96
564.08	552.37
564.24	552.37
564.41	575.77
564.57	550.03
564.74	559.39
564.90	496.19
565.07	451.72
565.23	578.11
565.39	449.38
565.56	486.83
565.72	568.75
565.88	482.15
566.05	475.13
566.21	519.60
566.38	484.49
566.54	482.15
566.70	484.49
566.87	381.51
567.03	512.58
567.19	510.24
567.36	456.40
567.52	491.51
567.68	454.06
567.85	470.45
568.01	517.26
568.17	517.26
568.34	568.75
568.50	514.92
568.66	421.30
568.83	650.67
568.99	451.72
569.15	451.72
569.32	472.79
569.48	510.24
569.64	376.83
569.81	449.38
569.97	437.68
570.13	484.49
570.30	353.42
570.46	402.57
570.62	346.40
570.78	379.17
570.95	409.59
571.11	425.98
571.27	407.25
571.43	414.27
571.60	404.91
571.76	337.04
571.92	411.93
572.09	428.32
572.25	440.02
572.41	437.68
572.57	451.72
572.74	447.04
572.90	395.55
573.06	400.23
573.22	376.83
573.38	372.15
573.55	393.21
573.71	437.68
573.87	411.93
574.03	414.27
574.20	390.87
574.36	411.93
574.52	491.51
574.68	486.83
574.84	519.60
575.01	528.96
575.17	500.87
575.33	465.77
575.49	568.75
575.65	685.78
575.82	655.35
575.98	763.01
576.14	795.78
576.30	1549.43
576.46	5050.88
576.62	7623.12
576.79	8306.56
576.95	6054.97
577.11	4093.60
577.27	2810.98
577.43	1937.96
577.59	1348.15
577.75	1121.12
577.92	952.60
578.08	884.72
578.24	994.73
578.40	1764.76
578.56	4648.30
578.72	7480.35
578.88	7754.19
579.04	5554.09
579.21	3981.25
579.37	2937.37
579.53	2373.30
579.69	2359.26
579.85	2848.43
580.01	3253.34
580.17	2991.20
580.33	2548.84
580.49	2251.60
580.65	2059.67
580.82	1935.62
580.98	1802.21
581.14	1933.28
581.30	2062.01
581.46	2134.57
581.62	2258.62
581.78	2352.24
581.94	2562.89
582.10	2832.05
582.26	2689.28
582.42	2932.69
582.58	3126.96
582.74	3101.21
582.90	3098.87
583.06	3033.33
583.22	3096.53
583.38	3080.14
583.54	3082.49
583.70	3183.13
583.86	3166.74
584.02	3052.06
584.18	3035.67
584.34	2928.01
584.50	2860.13
584.66	2808.64
584.82	2808.64
584.98	2719.70
585.14	2719.70
585.30	2794.60
585.46	2619.06
585.62	2630.76
585.78	2670.55
585.94	2703.32
586.10	2843.75
586.26	2853.11
586.42	3325.90
586.58	3772.94
586.74	4725.54
586.90	5652.39
587.06	6008.16
587.22	5834.96
587.38	5294.29
587.54	4526.60
587.70	3922.74
587.86	3351.65
588.02	2787.58
588.18	2586.29
588.34	2183.72
588.49	2139.25
588.65	1991.80
588.81	2017.54
588.97	1769.44
589.13	1830.30
589.29	1739.02
589.45	1795.19
589.61	1767.10
589.77	1757.74
589.93	1760.08
590.08	1734.34
590.24	2003.50
590.40	1914.56
590.56	1991.80
590.72	1980.09
590.88	2083.08
591.04	2253.94
591.20	2160.31
591.35	2317.13
591.51	2356.92
591.67	2579.27
591.83	2665.87
591.99	2888.22
592.15	3049.72
592.31	3424.20
592.46	3669.96
592.62	4131.05
592.78	4255.09
592.94	4271.48
593.10	4325.31
593.26	4039.76
593.41	3698.05
593.57	3356.33
593.73	2923.33
593.89	2623.74
594.05	2312.45
594.20	2153.29
594.36	2059.67
594.52	1849.02
594.68	1827.96
594.84	1732.00
594.99	1687.53
595.15	1631.35
595.31	1526.03
595.47	1678.16
595.62	1530.71
595.78	1542.41
595.94	1633.69
596.10	1675.82
596.25	1682.85
596.41	1586.88
596.57	1551.78
596.73	1680.50
596.88	1586.88
597.04	1514.33
597.20	1631.35
597.36	1699.23
597.51	1626.67
597.67	1757.74
597.83	1863.07
597.99	2033.93
598.14	2080.74
598.30	2113.50
598.46	2155.63
598.61	2225.85
598.77	2443.52
598.93	2443.52
599.09	2565.23
599.24	2626.08
599.40	2628.42
599.56	2527.78
599.71	2415.43
599.87	2342.88
600.03	2246.91
600.18	2012.86
600.34	1919.24
600.50	1795.19
600.65	1659.44
600.81	1565.82
600.97	1488.58
601.12	1453.47
601.28	1378.58
601.44	1369.21
601.59	1212.40
601.75	1205.38
601.91	1139.84
602.06	1177.29
602.22	1196.01
602.37	1043.88
602.53	1013.45
602.69	1146.86
602.84	1078.99
603.00	1050.90
603.16	1097.71
603.31	1144.52
603.47	1160.91
603.62	1114.10
603.78	1174.95
603.94	1179.63
604.09	1174.95
604.25	1299.00
604.40	1212.40
604.56	1153.88
604.71	1238.14
604.87	1254.53
605.03	1334.11
605.18	1355.17
605.34	1352.83
605.49	1460.49
605.65	1334.11
605.80	1404.32
605.96	1401.98
