SpectraSuite Data File
++++++++++++++++++++++++++++++++++++
Date: Fri Oct 04 11:41:51 GMT-05:00 2013
User: price-jones
Dark Spectrum Present: No
Reference Spectrum Present: No
Number of Sampled Component Spectra: 1
Spectrometers: USB2+H05261
Integration Time (usec): 100000 (USB2+H05261)
Spectra Averaged: 1 (USB2+H05261)
Boxcar Smoothing: 0 (USB2+H05261)
Correct for Electrical Dark: No (USB2+H05261)
Strobe/Lamp Enabled: No (USB2+H05261)
Correct for Detector Non-linearity: No (USB2+H05261)
Correct for Stray Light: No (USB2+H05261)
Number of Pixels in Processed Spectrum: 2048
>>>>>Begin Processed Spectral Data<<<<<
365.73	67.88
365.92	67.88
366.12	67.88
366.32	0.00
366.52	0.00
366.72	0.00
366.91	0.00
367.11	0.00
367.31	0.00
367.51	0.00
367.70	0.00
367.90	0.00
368.10	0.00
368.30	0.00
368.49	0.00
368.69	0.00
368.89	0.00
369.09	0.00
369.28	0.00
369.48	0.00
369.68	0.00
369.87	0.00
370.07	0.00
370.27	32.77
370.47	14.04
370.66	35.11
370.86	28.09
371.06	100.64
371.25	74.90
371.45	102.98
371.65	135.75
371.84	14.04
372.04	60.85
372.24	72.56
372.44	133.41
372.63	114.69
372.83	131.07
373.03	121.71
373.22	114.69
373.42	102.98
373.62	180.22
373.81	117.03
374.01	84.26
374.21	93.62
374.40	32.77
374.60	142.77
374.79	114.69
374.99	107.66
375.19	147.45
375.38	224.69
375.58	70.22
375.78	102.98
375.97	102.98
376.17	135.75
376.37	114.69
376.56	177.88
376.76	161.50
376.95	133.41
377.15	180.22
377.35	117.03
377.54	131.07
377.74	93.62
377.93	86.60
378.13	191.92
378.33	210.65
378.52	117.03
378.72	168.52
378.91	105.32
379.11	140.43
379.31	105.32
379.50	77.24
379.70	142.77
379.89	161.50
380.09	126.39
380.28	88.94
380.48	131.07
380.68	135.75
380.87	102.98
381.07	220.01
381.26	124.05
381.46	152.13
381.65	152.13
381.85	184.90
382.04	163.84
382.24	119.37
382.43	107.66
382.63	161.50
382.83	126.39
383.02	180.22
383.22	182.56
383.41	44.47
383.61	117.03
383.80	147.45
384.00	154.48
384.19	74.90
384.39	84.26
384.58	107.66
384.78	124.05
384.97	74.90
385.17	142.77
385.36	126.39
385.56	161.50
385.75	126.39
385.95	51.49
386.14	124.05
386.34	102.98
386.53	65.54
386.72	112.35
386.92	180.22
387.11	119.37
387.31	196.60
387.50	84.26
387.70	77.24
387.89	102.98
388.09	39.79
388.28	184.90
388.48	91.28
388.67	191.92
388.86	121.71
389.06	110.01
389.25	133.41
389.45	128.73
389.64	147.45
389.84	161.50
390.03	182.56
390.22	177.88
390.42	86.60
390.61	208.31
390.81	147.45
391.00	119.37
391.19	135.75
391.39	65.54
391.58	91.28
391.78	133.41
391.97	112.35
392.16	84.26
392.36	163.84
392.55	119.37
392.75	147.45
392.94	154.48
393.13	159.16
393.33	74.90
393.52	91.28
393.71	110.01
393.91	170.86
394.10	112.35
394.29	145.11
394.49	79.58
394.68	70.22
394.88	117.03
395.07	147.45
395.26	149.79
395.46	74.90
395.65	152.13
395.84	105.32
396.04	210.65
396.23	189.58
396.42	140.43
396.62	110.01
396.81	140.43
397.00	126.39
397.19	205.97
397.39	81.92
397.58	149.79
397.77	110.01
397.97	166.18
398.16	236.39
398.35	196.60
398.55	110.01
398.74	119.37
398.93	163.84
399.12	102.98
399.32	201.29
399.51	170.86
399.70	170.86
399.90	131.07
400.09	131.07
400.28	196.60
400.47	81.92
400.67	198.95
400.86	140.43
401.05	175.54
401.24	245.76
401.44	175.54
401.63	236.39
401.82	222.35
402.01	191.92
402.21	117.03
402.40	290.23
402.59	180.22
402.78	198.95
402.97	245.76
403.17	266.82
403.36	229.37
403.55	334.70
403.74	704.50
403.93	2277.34
404.13	5638.35
404.32	8784.03
404.51	8173.15
404.70	5277.91
404.89	1949.67
405.09	561.73
405.28	306.61
405.47	255.12
405.66	205.97
405.85	304.27
406.05	159.16
406.24	156.82
406.43	168.52
406.62	234.05
406.81	283.20
407.00	463.43
407.20	739.61
407.39	1011.11
407.58	1275.59
407.77	968.98
407.96	510.24
408.15	283.20
408.34	203.63
408.54	243.42
408.73	208.31
408.92	161.50
409.11	215.33
409.30	210.65
409.49	156.82
409.68	159.16
409.87	266.82
410.07	215.33
410.26	220.01
410.45	210.65
410.64	112.35
410.83	238.73
411.02	224.69
411.21	231.71
411.40	159.16
411.59	217.67
411.78	252.78
411.98	189.58
412.17	154.48
412.36	231.71
412.55	177.88
412.74	248.10
412.93	313.63
413.12	243.42
413.31	243.42
413.50	257.46
413.69	280.86
413.88	273.84
414.07	257.46
414.26	198.95
414.45	259.80
414.64	271.50
414.83	180.22
415.02	196.60
415.22	259.80
415.41	287.89
415.60	205.97
415.79	280.86
415.98	283.20
416.17	250.44
416.36	248.10
416.55	252.78
416.74	231.71
416.93	339.38
417.12	257.46
417.31	196.60
417.50	301.93
417.69	278.52
417.88	236.39
418.07	372.15
418.26	229.37
418.45	339.38
418.64	283.20
418.83	348.74
419.02	248.10
419.21	287.89
419.39	259.80
419.58	280.86
419.77	266.82
419.96	334.70
420.15	383.85
420.34	236.39
420.53	280.86
420.72	313.63
420.91	393.21
421.10	297.25
421.29	285.55
421.48	318.31
421.67	383.85
421.86	346.40
422.05	278.52
422.24	372.15
422.43	346.40
422.61	276.18
422.80	271.50
422.99	278.52
423.18	334.70
423.37	365.12
423.56	465.77
423.75	283.20
423.94	297.25
424.13	250.44
424.32	313.63
424.50	330.02
424.69	362.78
424.88	341.72
425.07	449.38
425.26	444.70
425.45	379.17
425.64	346.40
425.83	348.74
426.01	341.72
426.20	355.76
426.39	369.80
426.58	330.02
426.77	341.72
426.96	369.80
427.15	386.19
427.33	425.98
427.52	418.96
427.71	463.43
427.90	339.38
428.09	318.31
428.28	325.33
428.46	418.96
428.65	372.15
428.84	484.49
429.03	454.06
429.22	437.68
429.40	418.96
429.59	330.02
429.78	395.55
429.97	355.76
430.16	348.74
430.34	479.81
430.53	332.36
430.72	447.04
430.91	463.43
431.10	421.30
431.28	517.26
431.47	444.70
431.66	362.78
431.85	416.62
432.03	503.22
432.22	550.03
432.41	578.11
432.60	645.99
432.79	559.39
432.97	554.71
433.16	510.24
433.35	620.24
433.54	732.59
433.72	744.29
433.91	765.36
434.10	844.93
434.28	1015.79
434.47	1289.64
434.66	1320.06
434.85	1575.18
435.03	3801.03
435.22	14005.77
435.41	34742.91
435.59	43744.61
435.78	29984.60
435.97	14153.22
436.16	5413.66
436.34	1933.28
436.53	1109.41
436.72	866.00
436.90	667.05
437.09	603.86
437.28	667.05
437.46	650.67
437.65	606.20
437.84	601.52
438.02	580.45
438.21	615.56
438.40	538.32
438.58	568.75
438.77	554.71
438.96	557.05
439.14	580.45
439.33	519.60
439.52	533.64
439.70	540.66
439.89	519.60
440.08	526.62
440.26	496.19
440.45	557.05
440.63	519.60
440.82	498.53
441.01	470.45
441.19	475.13
441.38	505.56
441.57	498.53
441.75	636.63
441.94	535.98
442.12	484.49
442.31	512.58
442.50	535.98
442.68	533.64
442.87	561.73
443.05	575.77
443.24	564.07
443.43	613.22
443.61	543.00
443.80	512.58
443.98	521.94
444.17	514.92
444.35	505.56
444.54	528.96
444.73	561.73
444.91	491.51
445.10	550.03
445.28	514.92
445.47	479.81
445.65	512.58
445.84	547.69
446.02	566.41
446.21	470.45
446.39	479.81
446.58	585.13
446.77	589.82
446.95	535.98
447.14	505.56
447.32	552.37
447.51	512.58
447.69	573.43
447.88	498.53
448.06	547.69
448.25	468.11
448.43	531.30
448.62	470.45
448.80	533.64
448.99	496.19
449.17	573.43
449.36	528.96
449.54	564.07
449.73	543.00
449.91	582.79
450.10	582.79
450.28	575.77
450.46	571.09
450.65	599.18
450.83	599.18
451.02	468.11
451.20	468.11
451.39	550.03
451.57	519.60
451.76	411.93
451.94	538.32
452.13	538.32
452.31	484.49
452.49	533.64
452.68	510.24
452.86	589.82
453.05	617.90
453.23	571.09
453.42	526.62
453.60	482.15
453.78	498.53
453.97	461.09
454.15	484.49
454.34	528.96
454.52	524.28
454.70	589.82
454.89	568.75
455.07	557.05
455.26	500.87
455.44	458.74
455.62	498.53
455.81	589.82
455.99	491.51
456.17	493.85
456.36	484.49
456.54	496.19
456.73	463.43
456.91	479.81
457.09	566.41
457.28	578.11
457.46	496.19
457.64	486.83
457.83	528.96
458.01	458.74
458.19	545.34
458.38	606.20
458.56	505.56
458.74	468.11
458.93	514.92
459.11	493.85
459.29	428.32
459.48	489.17
459.66	505.56
459.84	505.56
460.03	592.16
460.21	531.30
460.39	449.38
460.57	489.17
460.76	568.75
460.94	510.24
461.12	564.07
461.31	606.20
461.49	503.22
461.67	489.17
461.85	540.66
462.04	559.39
462.22	931.53
462.40	573.43
462.59	552.37
462.77	517.26
462.95	510.24
463.13	496.19
463.32	463.43
463.50	524.28
463.68	475.13
463.86	528.96
464.05	493.85
464.23	557.05
464.41	500.87
464.59	566.41
464.78	589.82
464.96	538.32
465.14	528.96
465.32	470.45
465.50	528.96
465.69	521.94
465.87	447.04
466.05	461.09
466.23	390.87
466.41	510.24
466.60	676.41
466.78	554.71
466.96	507.90
467.14	568.75
467.32	477.47
467.51	547.69
467.69	477.47
467.87	528.96
468.05	479.81
468.23	498.53
468.41	465.77
468.60	493.85
468.78	444.70
468.96	533.64
469.14	456.40
469.32	503.22
469.50	409.59
469.69	479.81
469.87	449.38
470.05	447.04
470.23	463.43
470.41	430.66
470.59	428.32
470.77	503.22
470.95	442.36
471.14	512.58
471.32	496.19
471.50	550.03
471.68	428.32
471.86	517.26
472.04	486.83
472.22	458.74
472.40	440.02
472.58	500.87
472.77	454.06
472.95	367.46
473.13	533.64
473.31	498.53
473.49	465.77
473.67	428.32
473.85	594.50
474.03	531.30
474.21	484.49
474.39	503.22
474.57	580.45
474.75	528.96
474.93	500.87
475.12	493.85
475.30	510.24
475.48	461.09
475.66	456.40
475.84	472.79
476.02	454.06
476.20	482.15
476.38	528.96
476.56	528.96
476.74	543.00
476.92	533.64
477.10	496.19
477.28	493.85
477.46	484.49
477.64	575.77
477.82	519.60
478.00	552.37
478.18	535.98
478.36	547.69
478.54	540.66
478.72	575.77
478.90	566.41
479.08	620.24
479.26	613.22
479.44	669.39
479.62	615.56
479.80	617.90
479.98	620.24
480.16	681.10
480.34	760.67
480.52	755.99
480.70	772.38
480.88	746.63
481.06	784.08
481.24	830.89
481.41	903.45
481.59	976.00
481.77	987.71
481.95	1022.81
482.13	1151.54
482.31	1268.57
482.49	1245.16
482.67	1373.89
482.85	1514.33
483.03	1631.35
483.21	1699.23
483.39	1832.64
483.57	1973.07
483.74	2052.65
483.92	2176.70
484.10	2209.47
484.28	2361.60
484.46	2682.25
484.64	2670.55
484.82	2747.79
485.00	2897.58
485.18	3183.13
485.35	3295.47
485.53	3508.46
485.71	3616.13
485.89	3878.27
486.07	3716.77
486.25	4021.04
486.43	3761.24
486.61	3936.78
486.78	3974.23
486.96	3859.54
487.14	3878.27
487.32	3779.97
487.50	3941.46
487.68	3772.94
487.85	3709.75
488.03	3784.65
488.21	3702.73
488.39	3545.91
488.57	3531.87
488.75	3447.61
488.92	3597.40
489.10	3316.54
489.28	3215.90
489.46	3162.06
489.64	3119.93
489.81	2892.90
489.99	2995.89
490.17	2956.10
490.35	3030.99
490.53	3016.95
490.70	2977.16
490.88	2932.69
491.06	2942.05
491.24	3204.19
491.41	3332.92
491.59	3129.30
491.77	2825.03
491.95	2792.26
492.13	2722.04
492.30	2736.09
492.48	2733.75
492.66	2502.03
492.84	2459.90
493.01	2579.27
493.19	2417.77
493.37	2473.95
493.54	2335.85
493.72	2422.45
493.90	2223.51
494.08	2277.34
494.25	2242.23
494.43	2300.75
494.61	2232.87
494.79	2204.78
494.96	2321.81
495.14	2146.27
495.32	2087.76
495.49	2085.42
495.67	2024.56
495.85	1956.69
496.02	2045.63
496.20	1891.15
496.38	1919.24
496.55	1820.94
496.73	1881.79
496.91	1732.00
497.09	1778.81
497.26	1811.57
497.44	1746.04
497.62	1757.74
497.79	1739.02
497.97	1584.54
498.14	1533.05
498.32	1486.24
498.50	1486.24
498.67	1481.56
498.85	1493.26
499.03	1409.00
499.20	1432.41
499.38	1196.01
499.56	1345.81
499.73	1348.15
499.91	1355.17
500.08	1259.21
500.26	1081.33
500.44	1130.48
500.61	1156.22
500.79	1163.25
500.97	983.02
501.14	1090.69
501.32	1015.79
501.49	1027.50
501.67	1013.45
501.84	896.43
502.02	912.81
502.20	954.94
502.37	863.66
502.55	863.66
502.72	873.02
502.90	901.11
503.07	830.89
503.25	732.59
503.43	734.93
503.60	727.91
503.78	784.08
503.95	727.91
504.13	786.42
504.30	695.14
504.48	650.67
504.65	727.91
504.83	648.33
505.01	671.73
505.18	596.84
505.36	634.29
505.53	688.12
505.71	603.86
505.88	608.54
506.06	587.47
506.23	547.69
506.41	620.24
506.58	596.84
506.76	566.41
506.93	573.43
507.11	617.90
507.28	510.24
507.46	461.09
507.63	538.32
507.81	503.22
507.98	451.72
508.16	540.66
508.33	557.05
508.50	636.63
508.68	521.94
508.85	552.37
509.03	533.64
509.20	519.60
509.38	582.79
509.55	526.62
509.73	589.82
509.90	489.17
510.08	566.41
510.25	538.32
510.42	444.70
510.60	482.15
510.77	533.64
510.95	510.24
511.12	444.70
511.30	470.45
511.47	454.06
511.64	540.66
511.82	433.00
511.99	512.58
512.17	486.83
512.34	519.60
512.51	470.45
512.69	454.06
512.86	500.87
513.04	517.26
513.21	545.34
513.38	540.66
513.56	500.87
513.73	463.43
513.90	428.32
514.08	543.00
514.25	589.82
514.43	369.80
514.60	428.32
514.77	374.49
514.95	519.60
515.12	411.93
515.29	388.53
515.47	411.93
515.64	475.13
515.81	421.30
515.99	475.13
516.16	442.36
516.33	475.13
516.51	428.32
516.68	414.27
516.85	400.23
517.03	390.87
517.20	416.62
517.37	454.06
517.54	327.68
517.72	362.78
517.89	365.12
518.06	322.99
518.24	503.22
518.41	362.78
518.58	383.85
518.75	299.59
518.93	447.04
519.10	388.53
519.27	339.38
519.45	484.49
519.62	510.24
519.79	360.44
519.96	388.53
520.14	458.74
520.31	386.19
520.48	440.02
520.65	369.80
520.83	414.27
521.00	388.53
521.17	421.30
521.34	383.85
521.52	444.70
521.69	425.98
521.86	407.25
522.03	514.92
522.20	414.27
522.38	365.12
522.55	393.21
522.72	341.72
522.89	421.30
523.07	388.53
523.24	414.27
523.41	360.44
523.58	486.83
523.75	362.78
523.92	369.80
524.10	430.66
524.27	374.49
524.44	449.38
524.61	400.23
524.78	428.32
524.96	477.47
525.13	430.66
525.30	533.64
525.47	449.38
525.64	528.96
525.81	416.62
525.98	498.53
526.16	451.72
526.33	404.91
526.50	451.72
526.67	526.62
526.84	388.53
527.01	496.19
527.18	440.02
527.36	477.47
527.53	503.22
527.70	615.56
527.87	526.62
528.04	538.32
528.21	526.62
528.38	486.83
528.55	557.05
528.72	517.26
528.89	517.26
529.07	451.72
529.24	557.05
529.41	540.66
529.58	519.60
529.75	566.41
529.92	615.56
530.09	479.81
530.26	631.94
530.43	622.58
530.60	580.45
530.77	592.16
530.94	657.69
531.11	631.94
531.28	641.31
531.46	699.82
531.63	709.18
531.80	763.01
531.97	777.06
532.14	896.43
532.31	1107.07
532.48	1259.21
532.65	1462.83
532.82	1533.05
532.99	1949.67
533.16	2387.35
533.33	2338.20
533.50	2272.66
533.67	1881.79
533.84	1734.34
534.01	1425.39
534.18	1249.85
534.35	1327.08
534.52	1324.74
534.69	1338.79
534.86	1345.81
535.03	1526.03
535.20	1460.49
535.37	1624.33
535.54	1687.53
535.71	1722.63
535.88	1895.83
536.05	1973.07
536.22	2143.93
536.38	2291.38
536.55	2485.65
536.72	2918.65
536.89	3155.04
537.06	3428.88
537.23	3948.48
537.40	4407.23
537.57	4676.39
537.74	4870.65
537.91	5188.97
538.08	5305.99
538.25	5303.65
538.42	5401.96
538.59	5371.53
538.75	5614.95
538.92	5970.71
539.09	6633.08
539.26	7129.27
539.43	8013.99
539.60	9149.15
539.77	10134.52
539.94	11353.94
540.11	12760.60
540.28	14164.92
540.44	15765.85
540.61	17170.17
540.78	19276.65
540.95	23295.35
541.12	28116.86
541.29	32334.50
541.46	33542.22
541.62	33413.49
541.79	32456.21
541.96	29834.81
542.13	27964.72
542.30	26251.45
542.47	24437.53
542.63	22991.08
542.80	22410.63
542.97	21715.49
543.14	21509.52
543.31	21598.46
543.48	21783.37
543.64	22136.79
543.81	22033.80
543.98	22534.68
544.15	23051.94
544.32	23000.44
544.48	22796.82
544.65	22141.47
544.82	22515.95
544.99	22703.20
545.16	22679.79
545.32	23679.20
545.49	36594.28
545.66	57972.73
545.83	65535.00
546.00	64659.64
546.16	52715.89
546.33	39908.47
546.50	30169.51
546.67	23136.20
546.83	20748.85
547.00	19639.44
547.17	18977.06
547.34	18157.88
547.50	17411.25
547.67	16800.37
547.84	15651.16
548.00	15426.47
548.17	14909.21
548.34	14207.05
548.51	13645.32
548.67	13165.51
548.84	12575.70
549.01	11695.66
549.18	11164.36
549.34	10640.08
549.51	10509.01
549.68	10015.15
549.84	9628.96
550.01	8973.61
550.18	8863.61
550.34	8381.46
550.51	8081.87
550.68	7646.53
550.84	7143.32
551.01	6857.77
551.18	6260.93
551.34	6181.35
551.51	5935.60
551.68	5783.46
551.84	5556.43
552.01	5205.35
552.18	5109.39
552.34	4954.91
552.51	4573.41
552.68	4468.08
552.84	4255.09
553.01	4177.86
553.18	3885.29
553.34	3758.90
553.51	3789.33
553.67	3604.42
553.84	3473.36
554.01	3211.22
554.17	3126.96
554.34	2850.77
554.51	2679.91
554.67	2452.88
554.84	2406.07
555.00	2277.34
555.17	2186.06
555.33	2026.90
555.50	2038.61
555.67	1900.52
555.83	1891.15
556.00	1671.14
556.16	1741.36
556.33	1493.26
556.50	1500.28
556.66	1444.11
556.83	1528.37
556.99	1373.89
557.16	1413.68
557.32	1294.32
557.49	1282.61
557.65	1287.29
557.82	1226.44
557.98	1210.06
558.15	1181.97
558.32	1114.10
558.48	1123.46
558.65	1207.72
558.81	1041.54
558.98	1074.31
559.14	1090.69
559.31	1100.05
559.47	1048.56
559.64	1029.84
559.80	980.68
559.97	980.68
560.13	999.41
560.30	917.49
560.46	1029.84
560.63	926.85
560.79	987.71
560.96	915.15
561.12	950.26
561.29	915.15
561.45	915.15
561.61	835.57
561.78	985.37
561.94	966.64
562.11	887.06
562.27	945.58
562.44	861.32
562.60	898.77
562.77	929.19
562.93	987.71
563.10	863.66
563.26	903.45
563.42	781.74
563.59	779.40
563.75	774.72
563.92	863.66
564.08	798.12
564.24	795.78
564.41	840.25
564.57	746.63
564.74	718.54
564.90	765.36
565.07	709.18
565.23	720.88
565.39	669.39
565.56	711.52
565.72	697.48
565.88	664.71
566.05	711.52
566.21	716.20
566.38	774.72
566.54	706.84
566.70	727.91
566.87	835.57
567.03	741.95
567.19	657.69
567.36	748.97
567.52	671.73
567.68	690.46
567.85	704.50
568.01	716.20
568.17	727.91
568.34	732.59
568.50	819.19
568.66	671.73
568.83	840.25
568.99	681.10
569.15	706.84
569.32	613.22
569.48	678.76
569.64	688.12
569.81	638.97
569.97	447.04
570.13	519.60
570.30	526.62
570.46	589.82
570.62	550.03
570.78	507.90
570.95	468.11
571.11	484.49
571.27	533.64
571.43	559.39
571.60	589.82
571.76	484.49
571.92	496.19
572.09	500.87
572.25	585.13
572.41	585.13
572.57	578.11
572.74	580.45
572.90	573.43
573.06	557.05
573.22	585.13
573.38	662.37
573.55	613.22
573.71	603.86
573.87	638.97
574.03	674.07
574.20	650.67
574.36	671.73
574.52	676.41
574.68	681.10
574.84	702.16
575.01	751.31
575.17	819.19
575.33	830.89
575.49	936.21
575.65	992.39
575.82	1036.86
575.98	1057.92
576.14	1139.84
576.30	2118.18
576.46	6415.41
576.62	14129.81
576.79	17944.89
576.95	12723.15
577.11	7754.19
577.27	5479.19
577.43	3559.95
577.59	2251.60
577.75	1790.51
577.92	1652.42
578.08	1626.67
578.24	1643.06
578.40	2511.39
578.56	6506.69
578.72	12987.63
578.88	16266.72
579.04	12025.67
579.21	7550.57
579.37	5715.59
579.53	4273.82
579.69	3999.98
579.85	4725.54
580.01	5762.40
580.17	5708.57
580.33	4917.47
580.49	4184.88
580.65	3765.92
580.82	3300.16
580.98	3311.86
581.14	3178.45
581.30	3382.07
581.46	3765.92
581.62	3999.98
581.78	4409.57
581.94	4802.78
582.10	4936.19
582.26	5207.69
582.42	5331.74
582.58	5413.66
582.74	5643.03
582.90	5671.12
583.06	5586.86
583.22	5671.12
583.38	5692.18
583.54	5767.08
583.70	5624.31
583.86	5549.41
584.02	5500.26
584.18	5397.28
584.34	5254.50
584.50	5102.37
584.66	5205.35
584.82	4985.34
584.98	5036.83
585.14	4997.04
585.30	4861.29
585.46	4753.63
585.62	4751.29
585.78	4503.19
585.94	4779.37
586.10	4858.95
586.26	5132.79
586.42	5687.50
586.58	6768.83
586.74	8208.26
586.90	9858.34
587.06	11061.37
587.22	11049.67
587.38	10162.61
587.54	8748.92
587.70	7400.77
587.86	6113.48
588.02	5071.94
588.18	4582.77
588.34	4098.28
588.49	3784.65
588.65	3510.80
588.81	3379.73
588.97	3304.84
589.13	3185.47
589.29	3087.17
589.45	3021.63
589.61	2946.73
589.77	3131.64
589.93	3138.66
590.08	3260.37
590.24	3353.99
590.40	3471.01
590.56	3524.85
590.72	3634.85
590.88	3676.98
591.04	3836.14
591.20	3988.27
591.35	4243.39
591.51	4236.37
591.67	4397.87
591.83	4645.96
591.99	5149.18
592.15	5455.79
592.31	5944.96
592.46	6607.33
592.62	7211.19
592.78	7653.55
592.94	7999.95
593.10	7894.63
593.26	7726.11
593.41	7082.46
593.57	6422.43
593.73	5493.24
593.89	4980.66
594.05	4437.66
594.20	3990.61
594.36	3576.34
594.52	3419.52
594.68	3229.94
594.84	3138.66
594.99	3000.57
595.15	2836.73
595.31	2789.92
595.47	2864.82
595.62	2820.35
595.78	2871.84
595.94	2839.07
596.10	2850.77
596.25	2846.09
596.41	2899.92
596.57	2787.58
596.73	2855.45
596.88	2789.92
597.04	2693.96
597.20	2916.31
597.36	2883.54
597.51	2848.43
597.67	3075.46
597.83	3204.19
597.99	3370.37
598.14	3634.85
598.30	3770.60
598.46	3859.54
598.61	4121.68
598.77	4355.74
598.93	4542.98
599.09	4755.97
599.24	4901.08
599.40	4765.33
599.56	4711.50
599.71	4451.70
599.87	4124.02
600.03	3981.25
600.18	3758.90
600.34	3405.48
600.50	3199.51
600.65	3056.74
600.81	2855.45
600.97	2778.22
601.12	2441.18
601.28	2417.77
601.44	2389.69
601.59	2221.17
601.75	2174.36
601.91	2076.06
602.06	1996.48
602.22	1984.77
602.37	1867.75
602.53	1818.60
602.69	1863.07
602.84	1905.20
603.00	1863.07
603.16	1919.24
603.31	1930.94
603.47	1909.88
603.62	1973.07
603.78	1994.14
603.94	2026.90
604.09	2150.95
604.25	2148.61
604.40	2195.42
604.56	2052.65
604.71	2239.89
604.87	2078.40
