SpectraSuite Data File
++++++++++++++++++++++++++++++++++++
Date: Fri Oct 04 11:42:15 GMT-05:00 2013
User: price-jones
Dark Spectrum Present: No
Reference Spectrum Present: No
Number of Sampled Component Spectra: 1
Spectrometers: USB2+H05261
Integration Time (usec): 100000 (USB2+H05261)
Spectra Averaged: 1 (USB2+H05261)
Boxcar Smoothing: 0 (USB2+H05261)
Correct for Electrical Dark: No (USB2+H05261)
Strobe/Lamp Enabled: No (USB2+H05261)
Correct for Detector Non-linearity: No (USB2+H05261)
Correct for Stray Light: No (USB2+H05261)
Number of Pixels in Processed Spectrum: 2048
>>>>>Begin Processed Spectral Data<<<<<
365.73	11.70
365.92	11.70
366.12	11.70
366.32	0.00
366.52	0.00
366.72	0.00
366.91	0.00
367.11	0.00
367.31	0.00
367.51	0.00
367.70	0.00
367.90	0.00
368.10	0.00
368.30	0.00
368.49	0.00
368.69	35.11
368.89	0.00
369.09	0.00
369.28	0.00
369.48	14.04
369.68	0.00
369.87	9.36
370.07	18.72
370.27	39.79
370.47	133.41
370.66	250.44
370.86	313.63
371.06	325.33
371.25	341.72
371.45	386.19
371.65	330.02
371.84	248.10
372.04	304.27
372.24	344.06
372.44	351.08
372.63	353.42
372.83	344.06
373.03	346.40
373.22	306.61
373.42	381.51
373.62	348.74
373.81	301.93
374.01	355.76
374.21	330.02
374.40	318.31
374.60	358.10
374.79	383.85
374.99	435.34
375.19	397.89
375.38	498.53
375.58	479.81
375.78	484.49
375.97	514.92
376.17	465.77
376.37	421.30
376.56	451.72
376.76	433.00
376.95	430.66
377.15	425.98
377.35	500.87
377.54	547.69
377.74	533.64
377.93	557.05
378.13	475.13
378.33	512.58
378.52	500.87
378.72	449.38
378.91	477.47
379.11	418.96
379.31	348.74
379.50	430.66
379.70	496.19
379.89	543.00
380.09	491.51
380.28	531.30
380.48	512.58
380.68	477.47
380.87	435.34
381.07	428.32
381.26	482.15
381.46	388.53
381.65	418.96
381.85	425.98
382.04	458.74
382.24	437.68
382.43	388.53
382.63	308.95
382.83	325.33
383.02	308.95
383.22	409.59
383.41	283.20
383.61	351.08
383.80	397.89
384.00	449.38
384.19	379.17
384.39	503.22
384.58	479.81
384.78	465.77
384.97	505.56
385.17	458.74
385.36	404.91
385.56	496.19
385.75	386.19
385.95	489.17
386.14	543.00
386.34	554.71
386.53	500.87
386.72	524.28
386.92	475.13
387.11	421.30
387.31	517.26
387.50	407.25
387.70	519.60
387.89	435.34
388.09	447.04
388.28	496.19
388.48	498.53
388.67	554.71
388.86	587.47
389.06	706.84
389.25	645.99
389.45	594.50
389.64	547.69
389.84	617.90
390.03	671.73
390.22	613.22
390.42	620.24
390.61	615.56
390.81	592.16
391.00	730.25
391.19	732.59
391.39	685.78
391.58	629.60
391.78	657.69
391.97	608.54
392.16	559.39
392.36	444.70
392.55	447.04
392.75	397.89
392.94	299.59
393.13	360.44
393.33	332.36
393.52	397.89
393.71	568.75
393.91	559.39
394.10	634.29
394.29	636.63
394.49	711.52
394.68	629.60
394.88	690.46
395.07	847.27
395.26	695.14
395.46	725.57
395.65	662.37
395.84	561.73
396.04	538.32
396.23	444.70
396.42	353.42
396.62	442.36
396.81	449.38
397.00	566.41
397.19	634.29
397.39	622.58
397.58	814.51
397.77	854.30
397.97	863.66
398.16	830.89
398.35	828.55
398.55	915.15
398.74	915.15
398.93	936.21
399.12	936.21
399.32	891.74
399.51	905.79
399.70	1006.43
399.90	936.21
400.09	1032.18
400.28	971.32
400.47	976.00
400.67	976.00
400.86	1029.84
401.05	1048.56
401.24	1046.22
401.44	1050.90
401.63	992.39
401.82	1018.13
402.01	1097.71
402.21	1046.22
402.40	1053.24
402.59	943.24
402.78	894.08
402.97	936.21
403.17	1062.60
403.36	936.21
403.55	1102.39
403.74	1057.92
403.93	1057.92
404.13	1125.80
404.32	1095.37
404.51	1097.71
404.70	1135.16
404.89	1041.54
405.09	1015.79
405.28	1034.52
405.47	1004.09
405.66	1036.86
405.85	1046.22
406.05	1050.90
406.24	990.05
406.43	1036.86
406.62	1071.97
406.81	1104.73
407.00	1069.62
407.20	999.41
407.39	1050.90
407.58	1057.92
407.77	1142.18
407.96	1043.88
408.15	1165.59
408.34	1043.88
408.54	1165.59
408.73	1146.86
408.92	1177.29
409.11	1083.67
409.30	1055.58
409.49	1034.52
409.68	959.62
409.87	915.15
410.07	971.32
410.26	976.00
410.45	1111.75
410.64	1053.24
410.83	1238.14
411.02	1121.12
411.21	1275.59
411.40	1263.89
411.59	1219.42
411.78	1231.12
411.98	1200.69
412.17	1210.06
412.36	1144.52
412.55	1170.27
412.74	1217.08
412.93	1217.08
413.12	1165.59
413.31	1350.49
413.50	1315.38
413.69	1207.72
413.88	1247.51
414.07	1165.59
414.26	1210.06
414.45	1282.61
414.64	1327.08
414.83	1324.74
415.02	1186.65
415.22	1273.25
415.41	1280.27
415.60	1210.06
415.79	1390.28
415.98	1355.17
416.17	1425.39
416.36	1371.55
416.55	1273.25
416.74	1301.34
416.93	1266.23
417.12	1252.19
417.31	1235.80
417.50	1235.80
417.69	1334.11
417.88	1362.19
418.07	1397.30
418.26	1401.98
418.45	1315.38
418.64	1270.91
418.83	1394.96
419.02	1350.49
419.21	1336.45
419.39	1284.95
419.58	1235.80
419.77	1198.35
419.96	1409.00
420.15	1369.21
420.34	1432.41
420.53	1448.79
420.72	1453.47
420.91	1488.58
421.10	1490.92
421.29	1406.66
421.48	1467.52
421.67	1521.35
421.86	1343.47
422.05	1324.74
422.24	1184.31
422.43	1153.88
422.61	1282.61
422.80	1352.83
422.99	1420.71
423.18	1401.98
423.37	1320.06
423.56	1242.82
423.75	1420.71
423.94	1334.11
424.13	1266.23
424.32	1324.74
424.50	1341.13
424.69	1313.04
424.88	1322.40
425.07	1294.32
425.26	1186.65
425.45	1376.24
425.64	1226.44
425.83	1296.66
426.01	1369.21
426.20	1383.26
426.39	1380.92
426.58	1310.70
426.77	1207.72
426.96	1191.33
427.15	1100.05
427.33	1214.74
427.52	1268.57
427.71	1423.05
427.90	1352.83
428.09	1284.95
428.28	1317.72
428.46	1352.83
428.65	1320.06
428.84	1212.40
429.03	1341.13
429.22	1149.20
429.40	1160.91
429.59	1013.45
429.78	985.37
429.97	1001.75
430.16	1022.81
430.34	947.92
430.53	945.58
430.72	1001.75
430.91	1095.37
431.10	1282.61
431.28	1446.45
431.47	1584.54
431.66	1544.75
431.85	1397.30
432.03	1273.25
432.22	1320.06
432.41	1301.34
432.60	1404.32
432.79	1322.40
432.97	1516.67
433.16	1582.20
433.35	1341.13
433.54	1151.54
433.72	1102.39
433.91	1233.46
434.10	1369.21
434.28	1441.77
434.47	1584.54
434.66	1476.88
434.85	1469.86
435.03	1537.73
435.22	1867.75
435.41	2251.60
435.59	2314.79
435.78	2026.90
435.97	1795.19
436.16	1659.44
436.34	1584.54
436.53	1519.01
436.72	1565.82
436.90	1547.09
437.09	1455.81
437.28	1420.71
437.46	1554.12
437.65	1488.58
437.84	1390.28
438.02	1357.51
438.21	1345.81
438.40	1444.11
438.58	1483.90
438.77	1441.77
438.96	1465.18
439.14	1551.78
439.33	1624.33
439.52	1640.72
439.70	1568.16
439.89	1589.22
440.08	1469.86
440.26	1542.41
440.45	1572.84
440.63	1739.02
440.82	1680.50
441.01	1673.48
441.19	1638.38
441.38	1717.95
441.57	1757.74
441.75	1755.40
441.94	1839.66
442.12	1792.85
442.31	1820.94
442.50	1851.36
442.68	1764.76
442.87	1722.63
443.05	1834.98
443.24	1727.32
443.43	1844.34
443.61	1874.77
443.80	1856.04
443.98	1895.83
444.17	1795.19
444.35	1823.28
444.54	1802.21
444.73	1804.55
444.91	1811.57
445.10	1682.85
445.28	1607.95
445.47	1692.21
445.65	1706.25
445.84	1750.72
446.02	1746.04
446.21	1776.47
446.39	1757.74
446.58	1788.17
446.77	1802.21
446.95	1930.94
447.14	1891.15
447.32	1907.54
447.51	1893.49
447.69	1898.17
447.88	1701.57
448.06	1884.13
448.25	1757.74
448.43	1839.66
448.62	1849.02
448.80	1893.49
448.99	1813.92
449.17	1802.21
449.36	1816.26
449.54	1846.68
449.73	1806.89
449.91	1989.46
450.10	2008.18
450.28	1994.14
450.46	2017.54
450.65	1966.05
450.83	1961.37
451.02	1975.41
451.20	1944.99
451.39	1961.37
451.57	1968.39
451.76	1867.75
451.94	1973.07
452.13	1914.56
452.31	1771.79
452.49	1661.78
452.68	1781.15
452.86	1776.47
453.05	1771.79
453.23	1912.22
453.42	1851.36
453.60	1809.23
453.78	1900.52
453.97	1898.17
454.15	1867.75
454.34	1820.94
454.52	1898.17
454.70	1708.59
454.89	1818.60
455.07	1895.83
455.26	1930.94
455.44	2083.08
455.62	1933.28
455.81	2024.56
455.99	1961.37
456.17	1914.56
456.36	1970.73
456.54	2008.18
456.73	2040.95
456.91	2047.97
457.09	2001.16
457.28	2169.68
457.46	2054.99
457.64	1949.67
457.83	1881.79
458.01	1916.90
458.19	1940.30
458.38	1839.66
458.56	1977.75
458.74	1980.09
458.93	1937.96
459.11	1928.60
459.29	1933.28
459.48	2026.90
459.66	1895.83
459.84	1942.64
460.03	2050.31
460.21	1956.69
460.39	2071.37
460.57	2080.74
460.76	2054.99
460.94	2090.10
461.12	2087.76
461.31	2005.84
461.49	2057.33
461.67	1998.82
461.85	2211.81
462.04	2066.69
462.22	2209.47
462.40	2167.34
462.59	2036.27
462.77	2062.01
462.95	1991.80
463.13	2017.54
463.32	2019.88
463.50	1994.14
463.68	2040.95
463.86	2153.29
464.05	2005.84
464.23	1975.41
464.41	1989.46
464.59	1863.07
464.78	2059.67
464.96	1926.26
465.14	1998.82
465.32	2073.71
465.50	2165.00
465.69	2134.57
465.87	2193.08
466.05	1975.41
466.23	1923.92
466.41	2005.84
466.60	1937.96
466.78	2038.61
466.96	2071.37
467.14	1970.73
467.32	2092.44
467.51	2038.61
467.69	1905.20
467.87	2052.65
468.05	1954.35
468.23	2078.40
468.41	2054.99
468.60	2071.37
468.78	2066.69
468.96	2010.52
469.14	2010.52
469.32	2052.65
469.50	2005.84
469.69	1975.41
469.87	2022.22
470.05	1912.22
470.23	2015.20
470.41	1811.57
470.59	1966.05
470.77	1984.77
470.95	2066.69
471.14	2073.71
471.32	2036.27
471.50	2136.91
471.68	2120.53
471.86	2232.87
472.04	2157.97
472.22	2176.70
472.40	2172.02
472.58	1935.62
472.77	1991.80
472.95	2083.08
473.13	2087.76
473.31	2050.31
473.49	2036.27
473.67	2160.31
473.85	2064.35
474.03	2136.91
474.21	2167.34
474.39	2289.04
474.57	2342.88
474.75	2246.91
474.93	2167.34
475.12	2200.10
475.30	2040.95
475.48	2162.66
475.66	2162.66
475.84	2272.66
476.02	2162.66
476.20	2132.23
476.38	2190.74
476.56	2174.36
476.74	2253.94
476.92	2282.02
477.10	2289.04
477.28	2310.11
477.46	2293.72
477.64	2321.81
477.82	2352.24
478.00	2511.39
478.18	2436.50
478.36	2260.96
478.54	2338.20
478.72	2459.90
478.90	2375.64
479.08	2518.42
479.26	2452.88
479.44	2609.70
479.62	2502.03
479.80	2532.46
479.98	2532.46
480.16	2544.16
480.34	2532.46
480.52	2605.02
480.70	2473.95
480.88	2569.91
481.06	2525.44
481.24	2605.02
481.41	2710.34
481.59	2684.59
481.77	2761.83
481.95	2562.89
482.13	2605.02
482.31	2719.70
482.49	2663.53
482.67	2670.55
482.85	2738.43
483.03	2619.06
483.21	2736.09
483.39	2752.47
483.57	2789.92
483.74	2813.32
483.92	2775.88
484.10	2675.23
484.28	2778.22
484.46	2949.08
484.64	2895.24
484.82	2761.83
485.00	2654.17
485.18	2708.00
485.35	2684.59
485.53	2471.61
485.71	2441.18
485.89	2209.47
486.07	2403.73
486.25	2597.99
486.43	2693.96
486.61	2754.81
486.78	2654.17
486.96	2757.15
487.14	2801.62
487.32	2963.12
487.50	2923.33
487.68	3157.38
487.85	3101.21
488.03	3021.63
488.21	3063.76
488.39	2932.69
488.57	2902.26
488.75	2946.73
488.92	3276.75
489.10	3103.55
489.28	3398.46
489.46	3368.03
489.64	3431.23
489.81	3503.78
489.99	3442.93
490.17	3311.86
490.35	3410.16
490.53	3339.94
490.70	3098.87
490.88	3353.99
491.06	3424.20
491.24	3346.97
491.41	3375.05
491.59	3129.30
491.77	2904.60
491.95	3019.29
492.13	3363.35
492.30	3229.94
492.48	3508.46
492.66	3529.53
492.84	3548.25
493.01	3524.85
493.19	3389.10
493.37	3548.25
493.54	3384.41
493.72	3473.36
493.90	3501.44
494.08	3548.25
494.25	3611.45
494.43	3691.02
494.61	3754.22
494.79	3667.62
494.96	3733.15
495.14	3595.06
495.32	3574.00
495.49	3520.17
495.67	3482.72
495.85	3843.16
496.02	3737.84
496.20	3698.05
496.38	3646.55
496.55	3632.51
496.73	3723.79
496.91	3894.65
497.09	3768.26
497.26	3892.31
497.44	3782.31
497.62	3630.17
497.79	3611.45
497.97	3456.97
498.14	3503.78
498.32	3667.62
498.50	3660.60
498.67	3728.47
498.85	3889.97
499.03	3815.07
499.20	3730.81
499.38	3819.75
499.56	3810.39
499.73	3847.84
499.91	3632.51
500.08	3669.96
500.26	3461.65
500.44	3590.38
500.61	3641.87
500.79	3791.67
500.97	3604.42
501.14	3576.34
501.32	3508.46
501.49	3609.11
501.67	3550.59
501.84	3630.17
502.02	3674.64
502.20	3606.77
502.37	3763.58
502.55	3634.85
502.72	3789.33
502.90	3721.45
503.07	3822.09
503.25	3597.40
503.43	3419.52
503.60	3419.52
503.78	3459.31
503.95	3581.02
504.13	3571.66
504.30	3655.92
504.48	3686.34
504.65	3761.24
504.83	3712.09
505.01	3892.31
505.18	3808.05
505.36	3922.74
505.53	3934.44
505.71	3932.10
505.88	3892.31
506.06	3808.05
506.23	3988.27
506.41	3770.60
506.58	3838.48
506.76	3831.46
506.93	3754.22
507.11	3770.60
507.28	3768.26
507.46	3721.45
507.63	3768.26
507.81	3681.66
507.98	3665.28
508.16	3829.12
508.33	3939.12
508.50	3840.82
508.68	3875.93
508.85	4114.66
509.03	4072.53
509.20	4053.81
509.38	4004.66
509.55	3845.50
509.73	3929.76
509.90	3899.33
510.08	3880.61
510.25	3995.29
510.42	3824.44
510.60	3836.14
510.77	3971.89
510.95	4133.39
511.12	4119.34
511.30	4196.58
511.47	4107.64
511.64	4109.98
511.82	4102.96
511.99	3819.75
512.17	3838.48
512.34	3953.16
512.51	3786.99
512.69	3861.88
512.86	4025.72
513.04	4056.15
513.21	3941.46
513.38	3901.67
513.56	3955.51
513.73	3768.26
513.90	3861.88
514.08	3950.82
514.25	3808.05
514.43	4058.49
514.60	3885.29
514.77	3915.72
514.95	3906.35
515.12	3892.31
515.29	3918.06
515.47	4063.17
515.64	4079.55
515.81	3988.27
515.99	3873.59
516.16	3768.26
516.33	3527.19
516.51	3384.41
516.68	3131.64
516.85	3243.98
517.03	3136.32
517.20	3377.39
517.37	3791.67
517.54	3822.09
517.72	3822.09
517.89	3517.83
518.06	3339.94
518.24	3361.01
518.41	3555.27
518.58	3786.99
518.75	3873.59
518.93	3880.61
519.10	3801.03
519.27	3782.31
519.45	3833.80
519.62	3936.78
519.79	4056.15
519.96	3843.16
520.14	3948.48
520.31	3801.03
520.48	3920.40
520.65	3843.16
520.83	4072.53
521.00	3948.48
521.17	4044.45
521.34	3988.27
521.52	4142.75
521.69	4175.52
521.86	4121.68
522.03	4107.64
522.20	3904.01
522.38	3803.37
522.55	3751.88
522.72	3829.12
522.89	3889.97
523.07	3782.31
523.24	3932.10
523.41	4114.66
523.58	4210.62
523.75	3981.25
523.92	4119.34
524.10	4273.82
524.27	4147.43
524.44	4215.30
524.61	4198.92
524.78	3929.76
524.96	3983.59
525.13	4032.74
525.30	4217.65
525.47	4142.75
525.64	4114.66
525.81	4154.45
525.98	3988.27
526.16	3733.15
526.33	3508.46
526.50	3632.51
526.67	3496.76
526.84	3552.93
527.01	3747.20
527.18	3728.47
527.36	3892.31
527.53	4091.26
527.70	4119.34
527.87	3943.80
528.04	3978.91
528.21	4018.70
528.38	4187.22
528.55	4147.43
528.72	4304.25
528.89	4409.57
529.07	4278.50
529.24	4072.53
529.41	4241.05
529.58	3918.06
529.75	3936.78
529.92	4053.81
530.09	3920.40
530.26	4072.53
530.43	4198.92
530.60	4248.07
530.77	4215.30
530.94	4320.63
531.11	4145.09
531.28	4224.67
531.46	4065.51
531.63	4177.86
531.80	4203.60
531.97	4142.75
532.14	3911.04
532.31	3817.41
532.48	3686.34
532.65	3742.52
532.82	3913.38
532.99	4002.32
533.16	3922.74
533.33	4182.54
533.50	3969.55
533.67	4025.72
533.84	3906.35
534.01	3878.27
534.18	3901.67
534.35	4028.06
534.52	3939.12
534.69	4046.79
534.86	4135.73
535.03	3962.53
535.20	4212.96
535.37	4222.33
535.54	4348.72
535.71	4236.37
535.88	4161.47
536.05	4121.68
536.22	3988.27
536.38	4056.15
536.55	3962.53
536.72	3934.44
536.89	3831.46
537.06	4042.11
537.23	4063.17
537.40	4184.88
537.57	4149.77
537.74	4095.94
537.91	4147.43
538.08	4191.90
538.25	4093.60
538.42	4236.37
538.59	4280.84
538.75	4053.81
538.92	4025.72
539.09	4042.11
539.26	4187.22
539.43	4074.87
539.60	4114.66
539.77	4196.58
539.94	4074.87
540.11	3969.55
540.28	3983.59
540.44	4266.80
540.61	4173.18
540.78	4191.90
540.95	4280.84
541.12	4437.66
541.29	4596.81
541.46	4620.22
541.62	4664.69
541.79	4629.58
541.96	4594.47
542.13	4383.82
542.30	4641.28
542.47	4505.53
542.63	4447.02
542.80	4432.97
542.97	4531.28
543.14	4367.44
543.31	4402.55
543.48	4517.23
543.64	4428.29
543.81	4713.84
543.98	4737.24
544.15	4400.21
544.32	4472.76
544.48	4514.89
544.65	4465.74
544.82	4540.64
544.99	4432.97
545.16	4444.68
545.32	4449.36
545.49	5050.88
545.66	5750.70
545.83	6218.80
546.00	5895.81
546.16	5041.51
546.33	4706.82
546.50	4606.17
546.67	4430.63
546.83	4482.13
547.00	4329.99
547.17	4194.24
547.34	4203.60
547.50	4095.94
547.67	4166.15
547.84	4149.77
548.00	4327.65
548.17	4360.42
548.34	4187.22
548.51	4280.84
548.67	4088.92
548.84	4215.30
549.01	4133.39
549.18	4194.24
549.34	4133.39
549.51	4194.24
549.68	4196.58
549.84	4058.49
550.01	4191.90
550.18	4156.79
550.34	4156.79
550.51	4067.85
550.68	4030.40
550.84	3943.80
551.01	3880.61
551.18	3950.82
551.34	3943.80
551.51	4086.58
551.68	4072.53
551.84	4187.22
552.01	3997.64
552.18	4114.66
552.34	3880.61
552.51	3749.54
552.68	3786.99
552.84	3794.01
553.01	3836.14
553.18	3941.46
553.34	3857.20
553.51	3859.54
553.67	3969.55
553.84	4035.08
554.01	3934.44
554.17	3943.80
554.34	3843.16
554.51	3918.06
554.67	3953.16
554.84	4002.32
555.00	3906.35
555.17	3908.69
555.33	3901.67
555.50	3964.87
555.67	3875.93
555.83	3777.62
556.00	3784.65
556.16	3904.01
556.33	3700.39
556.50	3714.43
556.66	3857.20
556.83	3646.55
556.99	3653.58
557.16	3684.00
557.32	3695.71
557.49	3730.81
557.65	3786.99
557.82	3597.40
557.98	3786.99
558.15	3592.72
558.32	3562.30
558.48	3456.97
558.65	3452.29
558.81	3669.96
558.98	3611.45
559.14	3552.93
559.31	3674.64
559.47	3672.30
559.64	3698.05
559.80	3655.92
559.97	3604.42
560.13	3543.57
560.30	3742.52
560.46	3768.26
560.63	3761.24
560.79	3751.88
560.96	3758.90
561.12	3625.49
561.29	3517.83
561.45	3531.87
561.61	3417.18
561.78	3721.45
561.94	3597.40
562.11	3583.36
562.27	3611.45
562.44	3606.77
562.60	3644.21
562.77	3712.09
562.93	3733.15
563.10	3602.08
563.26	3595.06
563.42	3634.85
563.59	3754.22
563.75	3581.02
563.92	3714.43
564.08	3588.04
564.24	3616.13
564.41	3576.34
564.57	3639.53
564.74	3637.19
564.90	3632.51
565.07	3660.60
565.23	3438.25
565.39	3412.50
565.56	3300.16
565.72	3314.20
565.88	3386.76
566.05	3405.48
566.21	3398.46
566.38	3426.54
566.54	3583.36
566.70	3496.76
566.87	3529.53
567.03	3510.80
567.19	3463.99
567.36	3527.19
567.52	3337.60
567.68	3536.55
567.85	3419.52
568.01	3197.17
568.17	3258.03
568.34	3316.54
568.50	3318.88
568.66	3150.36
568.83	3288.45
568.99	3148.02
569.15	3393.78
569.32	3246.32
569.48	3309.52
569.64	3138.66
569.81	3297.81
569.97	3227.60
570.13	3248.66
570.30	3222.92
570.46	3171.43
570.62	3227.60
570.78	3194.83
570.95	3215.90
571.11	3321.22
571.27	3379.73
571.43	3267.39
571.60	3311.86
571.76	3176.11
571.92	3307.18
572.09	3382.07
572.25	3435.91
572.41	3164.40
572.57	3330.58
572.74	3342.28
572.90	3281.43
573.06	3414.84
573.22	3335.26
573.38	3325.90
573.55	3234.62
573.71	3316.54
573.87	3253.34
574.03	3148.02
574.20	3255.69
574.36	3297.81
574.52	3208.87
574.68	3110.57
574.84	3251.00
575.01	3185.47
575.17	3157.38
575.33	3213.56
575.49	3192.49
575.65	3173.77
575.82	3199.51
575.98	3234.62
576.14	3145.68
576.30	3283.77
576.46	3421.86
576.62	3459.31
576.79	3585.70
576.95	3508.46
577.11	3323.56
577.27	3173.77
577.43	3272.07
577.59	3197.17
577.75	3077.80
577.92	3045.04
578.08	3166.74
578.24	3112.91
578.40	3220.58
578.56	3309.52
578.72	3365.69
578.88	3421.86
579.04	3316.54
579.21	3356.33
579.37	3295.47
579.53	3269.73
579.69	3309.52
579.85	3309.52
580.01	3393.78
580.17	3328.24
580.33	3159.72
580.49	3255.69
580.65	3239.30
580.82	3220.58
580.98	3206.53
581.14	3225.26
581.30	3201.85
581.46	3222.92
581.62	3293.13
581.78	3353.99
581.94	3323.56
582.10	3262.71
582.26	3253.34
582.42	3431.23
582.58	3236.96
582.74	3377.39
582.90	3438.25
583.06	3370.37
583.22	3232.28
583.38	3262.71
583.54	3288.45
583.70	3309.52
583.86	3330.58
584.02	3300.16
584.18	3372.71
584.34	3316.54
584.50	3295.47
584.66	3325.90
584.82	3213.56
584.98	3239.30
585.14	3281.43
585.30	3143.34
585.46	3183.13
585.62	3063.76
585.78	3213.56
585.94	3115.25
586.10	3176.11
586.26	3119.93
586.42	3236.96
586.58	3197.17
586.74	3215.90
586.90	3300.16
587.06	3211.22
587.22	3225.26
587.38	3225.26
587.54	3272.07
587.70	3038.02
587.86	2909.29
588.02	2822.69
588.18	2691.62
588.34	2724.38
588.49	2459.90
588.65	2476.29
588.81	2338.20
588.97	2354.58
589.13	2361.60
589.29	2387.35
589.45	2200.10
589.61	2296.07
589.77	2565.23
589.93	2537.14
590.08	2588.63
590.24	2710.34
590.40	2649.49
590.56	2726.72
590.72	2616.72
590.88	2764.17
591.04	2651.83
591.20	2700.98
591.35	2630.76
591.51	2651.83
591.67	2569.91
591.83	2541.82
591.99	2623.74
592.15	2602.68
592.31	2635.44
592.46	2754.81
592.62	2820.35
592.78	2892.90
592.94	2902.26
593.10	2810.98
593.26	2757.15
593.41	2855.45
593.57	2775.88
593.73	2658.85
593.89	2740.77
594.05	2614.38
594.20	2452.88
594.36	2448.20
594.52	2356.92
594.68	2511.39
594.84	2480.97
594.99	2649.49
595.15	2686.94
595.31	2635.44
595.47	2818.00
595.62	2698.64
595.78	2609.70
595.94	2836.73
596.10	2843.75
596.25	2633.10
596.41	2647.15
596.57	2689.28
596.73	2715.02
596.88	2663.53
597.04	2555.86
597.20	2672.89
597.36	2630.76
597.51	2731.41
597.67	2658.85
597.83	2544.16
597.99	2794.60
598.14	2705.66
