SpectraSuite Data File
++++++++++++++++++++++++++++++++++++
Date: Fri Oct 04 11:42:27 GMT-05:00 2013
User: price-jones
Dark Spectrum Present: No
Reference Spectrum Present: No
Number of Sampled Component Spectra: 1
Spectrometers: USB2+H05261
Integration Time (usec): 100000 (USB2+H05261)
Spectra Averaged: 1 (USB2+H05261)
Boxcar Smoothing: 0 (USB2+H05261)
Correct for Electrical Dark: No (USB2+H05261)
Strobe/Lamp Enabled: No (USB2+H05261)
Correct for Detector Non-linearity: No (USB2+H05261)
Correct for Stray Light: No (USB2+H05261)
Number of Pixels in Processed Spectrum: 2048
>>>>>Begin Processed Spectral Data<<<<<
365.73	86.60
365.92	86.60
366.12	86.60
366.32	32.77
366.52	0.00
366.72	7.02
366.91	0.00
367.11	0.00
367.31	0.00
367.51	0.00
367.70	0.00
367.90	0.00
368.10	0.00
368.30	0.00
368.49	0.00
368.69	16.38
368.89	0.00
369.09	0.00
369.28	0.00
369.48	11.70
369.68	0.00
369.87	0.00
370.07	11.70
370.27	14.04
370.47	7.02
370.66	86.60
370.86	46.81
371.06	91.28
371.25	100.64
371.45	32.77
371.65	95.96
371.84	39.79
372.04	32.77
372.24	138.09
372.44	70.22
372.63	74.90
372.83	117.03
373.03	126.39
373.22	84.26
373.42	91.28
373.62	79.58
373.81	161.50
374.01	133.41
374.21	86.60
374.40	166.18
374.60	124.05
374.79	102.98
374.99	77.24
375.19	142.77
375.38	100.64
375.58	65.54
375.78	131.07
375.97	114.69
376.17	138.09
376.37	95.96
376.56	124.05
376.76	81.92
376.95	124.05
377.15	156.82
377.35	196.60
377.54	119.37
377.74	84.26
377.93	112.35
378.13	119.37
378.33	81.92
378.52	79.58
378.72	166.18
378.91	65.54
379.11	84.26
379.31	84.26
379.50	147.45
379.70	135.75
379.89	74.90
380.09	91.28
380.28	93.62
380.48	110.01
380.68	98.30
380.87	28.09
381.07	72.56
381.26	170.86
381.46	138.09
381.65	67.88
381.85	42.13
382.04	128.73
382.24	121.71
382.43	81.92
382.63	114.69
382.83	91.28
383.02	0.00
383.22	126.39
383.41	114.69
383.61	98.30
383.80	102.98
384.00	100.64
384.19	133.41
384.39	149.79
384.58	175.54
384.78	46.81
384.97	149.79
385.17	93.62
385.36	46.81
385.56	91.28
385.75	60.85
385.95	121.71
386.14	93.62
386.34	145.11
386.53	74.90
386.72	81.92
386.92	95.96
387.11	79.58
387.31	138.09
387.50	131.07
387.70	39.79
387.89	30.43
388.09	46.81
388.28	102.98
388.48	77.24
388.67	70.22
388.86	72.56
389.06	88.94
389.25	175.54
389.45	114.69
389.64	58.51
389.84	182.56
390.03	159.16
390.22	142.77
390.42	60.85
390.61	126.39
390.81	140.43
391.00	163.84
391.19	131.07
391.39	117.03
391.58	170.86
391.78	63.19
391.97	77.24
392.16	175.54
392.36	128.73
392.55	138.09
392.75	117.03
392.94	44.47
393.13	88.94
393.33	135.75
393.52	98.30
393.71	147.45
393.91	107.66
394.10	117.03
394.29	86.60
394.49	67.88
394.68	117.03
394.88	100.64
395.07	173.20
395.26	107.66
395.46	18.72
395.65	161.50
395.84	175.54
396.04	147.45
396.23	145.11
396.42	98.30
396.62	100.64
396.81	159.16
397.00	114.69
397.19	135.75
397.39	100.64
397.58	93.62
397.77	79.58
397.97	102.98
398.16	95.96
398.35	147.45
398.55	86.60
398.74	110.01
398.93	175.54
399.12	161.50
399.32	128.73
399.51	105.32
399.70	163.84
399.90	128.73
400.09	156.82
400.28	163.84
400.47	93.62
400.67	91.28
400.86	88.94
401.05	110.01
401.24	124.05
401.44	161.50
401.63	117.03
401.82	100.64
402.01	63.19
402.21	131.07
402.40	163.84
402.59	112.35
402.78	105.32
402.97	88.94
403.17	147.45
403.36	189.58
403.55	105.32
403.74	98.30
403.93	189.58
404.13	250.44
404.32	203.63
404.51	299.59
404.70	227.03
404.89	126.39
405.09	121.71
405.28	86.60
405.47	98.30
405.66	222.35
405.85	166.18
406.05	119.37
406.24	98.30
406.43	159.16
406.62	161.50
406.81	201.29
407.00	196.60
407.20	114.69
407.39	142.77
407.58	166.18
407.77	173.20
407.96	156.82
408.15	210.65
408.34	133.41
408.54	131.07
408.73	154.48
408.92	86.60
409.11	180.22
409.30	131.07
409.49	117.03
409.68	173.20
409.87	147.45
410.07	119.37
410.26	138.09
410.45	67.88
410.64	102.98
410.83	93.62
411.02	149.79
411.21	126.39
411.40	107.66
411.59	131.07
411.78	147.45
411.98	117.03
412.17	119.37
412.36	201.29
412.55	166.18
412.74	119.37
412.93	170.86
413.12	131.07
413.31	168.52
413.50	128.73
413.69	131.07
413.88	248.10
414.07	114.69
414.26	65.54
414.45	173.20
414.64	142.77
414.83	133.41
415.02	117.03
415.22	168.52
415.41	175.54
415.60	121.71
415.79	133.41
415.98	173.20
416.17	154.48
416.36	138.09
416.55	152.13
416.74	189.58
416.93	161.50
417.12	159.16
417.31	126.39
417.50	170.86
417.69	229.37
417.88	70.22
418.07	126.39
418.26	180.22
418.45	156.82
418.64	201.29
418.83	173.20
419.02	67.88
419.21	121.71
419.39	121.71
419.58	70.22
419.77	88.94
419.96	84.26
420.15	95.96
420.34	210.65
420.53	159.16
420.72	154.48
420.91	98.30
421.10	184.90
421.29	154.48
421.48	154.48
421.67	156.82
421.86	149.79
422.05	149.79
422.24	110.01
422.43	126.39
422.61	107.66
422.80	133.41
422.99	189.58
423.18	124.05
423.37	173.20
423.56	112.35
423.75	161.50
423.94	114.69
424.13	114.69
424.32	100.64
424.50	187.24
424.69	107.66
424.88	196.60
425.07	177.88
425.26	124.05
425.45	159.16
425.64	112.35
425.83	126.39
426.01	107.66
426.20	112.35
426.39	121.71
426.58	88.94
426.77	121.71
426.96	124.05
427.15	124.05
427.33	135.75
427.52	163.84
427.71	168.52
427.90	142.77
428.09	135.75
428.28	128.73
428.46	121.71
428.65	133.41
428.84	140.43
429.03	126.39
429.22	210.65
429.40	149.79
429.59	46.81
429.78	180.22
429.97	182.56
430.16	135.75
430.34	133.41
430.53	140.43
430.72	145.11
430.91	191.92
431.10	102.98
431.28	88.94
431.47	161.50
431.66	166.18
431.85	142.77
432.03	250.44
432.22	201.29
432.41	149.79
432.60	140.43
432.79	210.65
432.97	187.24
433.16	175.54
433.35	168.52
433.54	161.50
433.72	205.97
433.91	191.92
434.10	142.77
434.28	243.42
434.47	154.48
434.66	278.52
434.85	175.54
435.03	285.55
435.22	634.29
435.41	1114.10
435.59	1221.76
435.78	866.00
435.97	444.70
436.16	294.91
436.34	166.18
436.53	128.73
436.72	161.50
436.90	236.39
437.09	201.29
437.28	102.98
437.46	189.58
437.65	177.88
437.84	105.32
438.02	156.82
438.21	177.88
438.40	105.32
438.58	243.42
438.77	135.75
438.96	142.77
439.14	102.98
439.33	131.07
439.52	175.54
439.70	147.45
439.89	184.90
440.08	194.26
440.26	198.95
440.45	180.22
440.63	208.31
440.82	292.57
441.01	201.29
441.19	194.26
441.38	126.39
441.57	159.16
441.75	138.09
441.94	196.60
442.12	210.65
442.31	159.16
442.50	177.88
442.68	177.88
442.87	140.43
443.05	119.37
443.24	177.88
443.43	140.43
443.61	163.84
443.80	236.39
443.98	147.45
444.17	187.24
444.35	145.11
444.54	212.99
444.73	138.09
444.91	156.82
445.10	145.11
445.28	119.37
445.47	98.30
445.65	170.86
445.84	107.66
446.02	105.32
446.21	163.84
446.39	131.07
446.58	161.50
446.77	156.82
446.95	187.24
447.14	187.24
447.32	196.60
447.51	124.05
447.69	241.08
447.88	135.75
448.06	191.92
448.25	102.98
448.43	180.22
448.62	114.69
448.80	208.31
448.99	180.22
449.17	184.90
449.36	163.84
449.54	154.48
449.73	152.13
449.91	201.29
450.10	217.67
450.28	287.89
450.46	224.69
450.65	177.88
450.83	173.20
451.02	25.75
451.20	117.03
451.39	217.67
451.57	121.71
451.76	147.45
451.94	156.82
452.13	147.45
452.31	203.63
452.49	138.09
452.68	91.28
452.86	166.18
453.05	205.97
453.23	191.92
453.42	170.86
453.60	191.92
453.78	133.41
453.97	194.26
454.15	229.37
454.34	177.88
454.52	112.35
454.70	227.03
454.89	212.99
455.07	182.56
455.26	135.75
455.44	154.48
455.62	140.43
455.81	208.31
455.99	163.84
456.17	189.58
456.36	119.37
456.54	250.44
456.73	138.09
456.91	161.50
457.09	140.43
457.28	231.71
457.46	147.45
457.64	180.22
457.83	135.75
458.01	147.45
458.19	220.01
458.38	168.52
458.56	220.01
458.74	140.43
458.93	238.73
459.11	170.86
459.29	163.84
459.48	163.84
459.66	166.18
459.84	245.76
460.03	224.69
460.21	161.50
460.39	91.28
460.57	198.95
460.76	154.48
460.94	98.30
461.12	212.99
461.31	173.20
461.49	196.60
461.67	177.88
461.85	208.31
462.04	163.84
462.22	276.18
462.40	198.95
462.59	177.88
462.77	182.56
462.95	161.50
463.13	163.84
463.32	210.65
463.50	182.56
463.68	245.76
463.86	142.77
464.05	128.73
464.23	140.43
464.41	159.16
464.59	166.18
464.78	124.05
464.96	229.37
465.14	131.07
465.32	159.16
465.50	283.20
465.69	156.82
465.87	107.66
466.05	168.52
466.23	124.05
466.41	205.97
466.60	159.16
466.78	180.22
466.96	227.03
467.14	201.29
467.32	231.71
467.51	159.16
467.69	182.56
467.87	159.16
468.05	124.05
468.23	311.29
468.41	280.86
468.60	210.65
468.78	189.58
468.96	161.50
469.14	110.01
469.32	168.52
469.50	147.45
469.69	168.52
469.87	159.16
470.05	138.09
470.23	149.79
470.41	128.73
470.59	159.16
470.77	175.54
470.95	175.54
471.14	189.58
471.32	161.50
471.50	210.65
471.68	196.60
471.86	245.76
472.04	152.13
472.22	173.20
472.40	173.20
472.58	196.60
472.77	191.92
472.95	81.92
473.13	161.50
473.31	234.05
473.49	145.11
473.67	161.50
473.85	205.97
474.03	250.44
474.21	198.95
474.39	215.33
474.57	191.92
474.75	180.22
474.93	124.05
475.12	215.33
475.30	133.41
475.48	121.71
475.66	177.88
475.84	215.33
476.02	191.92
476.20	231.71
476.38	154.48
476.56	224.69
476.74	126.39
476.92	252.78
477.10	198.95
477.28	234.05
477.46	196.60
477.64	170.86
477.82	126.39
478.00	248.10
478.18	147.45
478.36	212.99
478.54	220.01
478.72	191.92
478.90	241.08
479.08	222.35
479.26	159.16
479.44	212.99
479.62	177.88
479.80	224.69
479.98	166.18
480.16	227.03
480.34	229.37
480.52	194.26
480.70	212.99
480.88	191.92
481.06	124.05
481.24	135.75
481.41	198.95
481.59	196.60
481.77	220.01
481.95	217.67
482.13	266.82
482.31	220.01
482.49	154.48
482.67	243.42
482.85	264.48
483.03	245.76
483.21	203.63
483.39	273.84
483.57	234.05
483.74	205.97
483.92	315.97
484.10	229.37
484.28	292.57
484.46	346.40
484.64	257.46
484.82	252.78
485.00	245.76
485.18	306.61
485.35	386.19
485.53	252.78
485.71	290.23
485.89	229.37
486.07	315.97
486.25	346.40
486.43	386.19
486.61	306.61
486.78	304.27
486.96	348.74
487.14	315.97
487.32	311.29
487.50	259.80
487.68	325.33
487.85	339.38
488.03	332.36
488.21	376.83
488.39	287.89
488.57	313.63
488.75	266.82
488.92	615.56
489.10	402.57
489.28	355.76
489.46	301.93
489.64	287.89
489.81	360.44
489.99	332.36
490.17	301.93
490.35	355.76
490.53	278.52
490.70	250.44
490.88	308.95
491.06	313.63
491.24	332.36
491.41	360.44
491.59	327.68
491.77	257.46
491.95	276.18
492.13	287.89
492.30	341.72
492.48	257.46
492.66	294.91
492.84	280.86
493.01	425.98
493.19	278.52
493.37	294.91
493.54	259.80
493.72	287.89
493.90	269.16
494.08	313.63
494.25	234.05
494.43	280.86
494.61	360.44
494.79	269.16
494.96	325.33
495.14	280.86
495.32	332.36
495.49	315.97
495.67	276.18
495.85	337.04
496.02	224.69
496.20	285.55
496.38	365.12
496.55	306.61
496.73	304.27
496.91	320.65
497.09	248.10
497.26	365.12
497.44	294.91
497.62	287.89
497.79	250.44
497.97	292.57
498.14	306.61
498.32	280.86
498.50	306.61
498.67	283.20
498.85	194.26
499.03	252.78
499.20	241.08
499.38	198.95
499.56	243.42
499.73	311.29
499.91	297.25
500.08	278.52
500.26	308.95
500.44	266.82
500.61	180.22
500.79	297.25
500.97	208.31
501.14	189.58
501.32	257.46
501.49	243.42
501.67	236.39
501.84	222.35
502.02	255.12
502.20	259.80
502.37	248.10
502.55	238.73
502.72	234.05
502.90	245.76
503.07	210.65
503.25	255.12
503.43	231.71
503.60	266.82
503.78	276.18
503.95	222.35
504.13	210.65
504.30	217.67
504.48	294.91
504.65	285.55
504.83	220.01
505.01	306.61
505.18	248.10
505.36	224.69
505.53	287.89
505.71	231.71
505.88	320.65
506.06	241.08
506.23	196.60
506.41	142.77
506.58	269.16
506.76	318.31
506.93	184.90
507.11	294.91
507.28	196.60
507.46	154.48
507.63	203.63
507.81	285.55
507.98	236.39
508.16	161.50
508.33	238.73
508.50	283.20
508.68	243.42
508.85	245.76
509.03	210.65
509.20	210.65
509.38	257.46
509.55	271.50
509.73	255.12
509.90	292.57
510.08	175.54
510.25	301.93
510.42	273.84
510.60	196.60
510.77	280.86
510.95	280.86
511.12	341.72
511.30	145.11
511.47	217.67
511.64	259.80
511.82	229.37
511.99	189.58
512.17	259.80
512.34	215.33
512.51	231.71
512.69	163.84
512.86	245.76
513.04	217.67
513.21	227.03
513.38	243.42
513.56	266.82
513.73	152.13
513.90	222.35
514.08	215.33
514.25	271.50
514.43	245.76
514.60	201.29
514.77	264.48
514.95	210.65
515.12	196.60
515.29	250.44
515.47	215.33
515.64	210.65
515.81	222.35
515.99	280.86
516.16	250.44
516.33	250.44
516.51	187.24
516.68	210.65
516.85	224.69
517.03	210.65
517.20	290.23
517.37	341.72
517.54	210.65
517.72	245.76
517.89	276.18
518.06	205.97
518.24	243.42
518.41	285.55
518.58	135.75
518.75	248.10
518.93	283.20
519.10	208.31
519.27	297.25
519.45	306.61
519.62	299.59
519.79	243.42
519.96	201.29
520.14	320.65
520.31	264.48
520.48	290.23
520.65	234.05
520.83	276.18
521.00	243.42
521.17	241.08
521.34	285.55
521.52	217.67
521.69	229.37
521.86	212.99
522.03	283.20
522.20	259.80
522.38	241.08
522.55	238.73
522.72	255.12
522.89	255.12
523.07	248.10
523.24	259.80
523.41	191.92
523.58	292.57
523.75	266.82
523.92	292.57
524.10	215.33
524.27	220.01
524.44	308.95
524.61	290.23
524.78	278.52
524.96	264.48
525.13	255.12
525.30	245.76
525.47	311.29
525.64	280.86
525.81	330.02
525.98	198.95
526.16	217.67
526.33	255.12
526.50	163.84
526.67	168.52
526.84	290.23
527.01	245.76
527.18	297.25
527.36	238.73
527.53	222.35
527.70	255.12
527.87	292.57
528.04	315.97
528.21	318.31
528.38	252.78
528.55	294.91
528.72	339.38
528.89	311.29
529.07	269.16
529.24	215.33
529.41	231.71
529.58	182.56
529.75	210.65
529.92	285.55
530.09	266.82
530.26	313.63
530.43	215.33
530.60	205.97
530.77	276.18
530.94	330.02
531.11	278.52
531.28	241.08
531.46	159.16
531.63	311.29
531.80	299.59
531.97	313.63
532.14	327.68
532.31	308.95
532.48	299.59
532.65	297.25
532.82	308.95
532.99	379.17
533.16	348.74
533.33	257.46
533.50	231.71
533.67	276.18
533.84	358.10
534.01	273.84
534.18	245.76
534.35	257.46
534.52	273.84
534.69	369.80
534.86	287.89
535.03	278.52
535.20	285.55
535.37	322.99
535.54	315.97
535.71	322.99
535.88	369.80
536.05	318.31
536.22	428.32
536.38	407.25
536.55	339.38
536.72	348.74
536.89	294.91
537.06	292.57
537.23	376.83
537.40	362.78
537.57	360.44
537.74	395.55
537.91	365.12
538.08	367.46
538.25	416.62
538.42	444.70
538.59	416.62
538.75	456.40
538.92	411.93
539.09	531.30
539.26	496.19
539.43	519.60
539.60	585.13
539.77	578.11
539.94	613.22
540.11	674.07
540.28	653.01
540.44	774.72
540.61	718.54
540.78	748.97
540.95	880.04
541.12	1125.80
541.29	1200.69
541.46	1277.93
541.62	1261.55
541.79	1301.34
541.96	1217.08
542.13	1116.44
542.30	1198.35
542.47	1083.67
542.63	1064.94
542.80	1071.97
542.97	1076.65
543.14	1097.71
543.31	1146.86
543.48	1156.22
543.64	997.07
543.81	1088.35
543.98	1081.33
544.15	1029.84
544.32	1067.28
544.48	1111.75
544.65	1015.79
544.82	1041.54
544.99	985.37
545.16	985.37
545.32	1060.26
545.49	1596.25
545.66	2434.16
545.83	2855.45
546.00	2586.29
546.16	1802.21
546.33	1385.60
546.50	1053.24
546.67	938.55
546.83	828.55
547.00	681.10
547.17	725.57
547.34	662.37
547.50	748.97
547.67	739.61
547.84	678.76
548.00	676.41
548.17	716.20
548.34	650.67
548.51	741.95
548.67	624.92
548.84	613.22
549.01	655.35
549.18	634.29
549.34	681.10
549.51	620.24
549.68	566.41
549.84	519.60
550.01	514.92
550.18	631.94
550.34	566.41
550.51	510.24
550.68	589.82
550.84	557.05
551.01	479.81
551.18	493.85
551.34	461.09
551.51	451.72
551.68	543.00
551.84	496.19
552.01	465.77
552.18	369.80
552.34	421.30
552.51	421.30
552.68	421.30
552.84	430.66
553.01	386.19
553.18	402.57
553.34	344.06
553.51	381.51
553.67	402.57
553.84	311.29
554.01	318.31
554.17	313.63
554.34	294.91
554.51	339.38
554.67	334.70
554.84	313.63
555.00	283.20
555.17	318.31
555.33	376.83
555.50	294.91
555.67	355.76
555.83	250.44
556.00	212.99
556.16	456.40
556.33	374.49
556.50	327.68
556.66	344.06
556.83	325.33
556.99	262.14
557.16	287.89
557.32	234.05
557.49	313.63
557.65	196.60
557.82	266.82
557.98	287.89
558.15	194.26
558.32	187.24
558.48	210.65
558.65	320.65
558.81	201.29
558.98	304.27
559.14	290.23
559.31	285.55
559.47	283.20
559.64	278.52
559.80	348.74
559.97	278.52
560.13	304.27
560.30	236.39
560.46	255.12
560.63	241.08
560.79	224.69
560.96	264.48
561.12	259.80
561.29	393.21
561.45	311.29
561.61	346.40
561.78	318.31
561.94	264.48
562.11	196.60
562.27	353.42
562.44	215.33
562.60	271.50
562.77	308.95
562.93	341.72
563.10	215.33
563.26	285.55
563.42	327.68
563.59	266.82
563.75	245.76
563.92	280.86
564.08	236.39
564.24	322.99
564.41	297.25
564.57	224.69
564.74	311.29
564.90	243.42
565.07	273.84
565.23	220.01
565.39	222.35
565.56	276.18
565.72	294.91
565.88	241.08
566.05	243.42
566.21	229.37
566.38	196.60
566.54	304.27
566.70	229.37
566.87	191.92
567.03	224.69
567.19	212.99
567.36	259.80
567.52	196.60
567.68	222.35
567.85	259.80
568.01	259.80
568.17	290.23
568.34	278.52
568.50	290.23
568.66	215.33
568.83	266.82
568.99	243.42
569.15	306.61
569.32	259.80
569.48	294.91
569.64	168.52
569.81	201.29
569.97	245.76
570.13	196.60
570.30	208.31
570.46	269.16
570.62	191.92
570.78	215.33
570.95	180.22
571.11	238.73
571.27	334.70
571.43	175.54
571.60	262.14
571.76	224.69
571.92	266.82
572.09	198.95
572.25	271.50
572.41	273.84
572.57	248.10
572.74	243.42
572.90	285.55
573.06	304.27
573.22	264.48
573.38	306.61
573.55	280.86
573.71	231.71
573.87	304.27
574.03	278.52
574.20	304.27
574.36	313.63
574.52	355.76
574.68	264.48
574.84	311.29
575.01	168.52
575.17	220.01
575.33	255.12
575.49	322.99
575.65	273.84
575.82	285.55
575.98	208.31
576.14	245.76
576.30	362.78
576.46	496.19
576.62	657.69
576.79	711.52
576.95	601.52
577.11	407.25
577.27	421.30
577.43	320.65
577.59	313.63
577.75	351.08
577.92	234.05
578.08	266.82
578.24	273.84
578.40	346.40
578.56	493.85
578.72	631.94
578.88	671.73
579.04	578.11
579.21	482.15
579.37	454.06
579.53	348.74
579.69	351.08
579.85	402.57
580.01	444.70
580.17	395.55
580.33	454.06
580.49	447.04
580.65	421.30
580.82	304.27
580.98	372.15
581.14	304.27
581.30	393.21
581.46	444.70
581.62	388.53
581.78	362.78
581.94	355.76
582.10	388.53
582.26	386.19
582.42	404.91
582.58	402.57
582.74	372.15
582.90	386.19
583.06	505.56
583.22	442.36
583.38	437.68
583.54	367.46
583.70	407.25
583.86	475.13
584.02	440.02
584.18	517.26
584.34	428.32
584.50	390.87
584.66	365.12
584.82	409.59
584.98	451.72
585.14	369.80
585.30	454.06
585.46	444.70
585.62	372.15
585.78	379.17
585.94	510.24
586.10	367.46
586.26	425.98
586.42	454.06
586.58	440.02
586.74	454.06
586.90	528.96
587.06	496.19
587.22	643.65
587.38	554.71
587.54	470.45
587.70	512.58
587.86	430.66
588.02	425.98
588.18	360.44
588.34	360.44
588.49	313.63
588.65	374.49
588.81	369.80
588.97	325.33
589.13	322.99
589.29	306.61
589.45	325.33
589.61	304.27
589.77	344.06
589.93	334.70
590.08	325.33
590.24	339.38
590.40	313.63
590.56	330.02
590.72	379.17
590.88	339.38
591.04	440.02
591.20	287.89
591.35	362.78
591.51	360.44
591.67	290.23
591.83	341.72
591.99	404.91
592.15	386.19
592.31	397.89
592.46	444.70
592.62	552.37
592.78	416.62
592.94	465.77
593.10	435.34
593.26	332.36
593.41	505.56
593.57	409.59
593.73	355.76
593.89	360.44
594.05	348.74
594.20	304.27
594.36	365.12
594.52	332.36
594.68	308.95
594.84	330.02
594.99	369.80
595.15	327.68
595.31	393.21
595.47	327.68
595.62	341.72
595.78	238.73
595.94	262.14
596.10	388.53
596.25	266.82
596.41	273.84
596.57	297.25
596.73	355.76
596.88	283.20
597.04	341.72
597.20	344.06
597.36	292.57
597.51	264.48
597.67	325.33
597.83	344.06
597.99	374.49
598.14	290.23
598.30	334.70
598.46	395.55
598.61	402.57
598.77	360.44
598.93	339.38
599.09	348.74
599.24	372.15
599.40	306.61
599.56	388.53
599.71	327.68
599.87	341.72
600.03	337.04
600.18	327.68
600.34	299.59
600.50	245.76
600.65	241.08
600.81	201.29
600.97	252.78
601.12	332.36
601.28	332.36
601.44	212.99
601.59	220.01
601.75	210.65
601.91	322.99
602.06	243.42
602.22	374.49
602.37	234.05
602.53	311.29
602.69	262.14
602.84	280.86
603.00	262.14
603.16	250.44
603.31	292.57
603.47	285.55
603.62	245.76
603.78	262.14
603.94	322.99
604.09	290.23
604.25	140.43
604.40	320.65
604.56	318.31
604.71	355.76
604.87	271.50
605.03	299.59
605.18	269.16
605.34	271.50
605.49	315.97
605.65	271.50
605.80	236.39
605.96	320.65
606.12	285.55
606.27	304.27
606.43	241.08
606.58	365.12
606.74	337.04
606.89	299.59
607.05	322.99
607.20	315.97
607.36	402.57
607.51	276.18
607.67	332.36
607.82	299.59
607.98	325.33
608.13	397.89
608.29	404.91
608.44	454.06
608.60	322.99
608.75	440.02
608.91	372.15
609.06	505.56
609.22	475.13
609.37	573.43
609.53	606.20
609.68	655.35
609.84	645.99
609.99	802.80
610.15	1018.13
610.30	1093.03
610.46	1343.47
610.61	1664.12
610.76	1954.35
610.92	2319.47
611.07	2590.97
611.23	2658.85
