SpectraSuite Data File
++++++++++++++++++++++++++++++++++++
Date: Fri Oct 04 11:42:06 GMT-05:00 2013
User: price-jones
Dark Spectrum Present: No
Reference Spectrum Present: No
Number of Sampled Component Spectra: 1
Spectrometers: USB2+H05261
Integration Time (usec): 100000 (USB2+H05261)
Spectra Averaged: 1 (USB2+H05261)
Boxcar Smoothing: 0 (USB2+H05261)
Correct for Electrical Dark: No (USB2+H05261)
Strobe/Lamp Enabled: No (USB2+H05261)
Correct for Detector Non-linearity: No (USB2+H05261)
Correct for Stray Light: No (USB2+H05261)
Number of Pixels in Processed Spectrum: 2048
>>>>>Begin Processed Spectral Data<<<<<
365.73	7.02
365.92	7.02
366.12	7.02
366.32	0.00
366.52	0.00
366.72	0.00
366.91	0.00
367.11	0.00
367.31	0.00
367.51	0.00
367.70	0.00
367.90	0.00
368.10	0.00
368.30	23.41
368.49	0.00
368.69	0.00
368.89	0.00
369.09	0.00
369.28	0.00
369.48	0.00
369.68	0.00
369.87	0.00
370.07	79.58
370.27	0.00
370.47	16.38
370.66	58.51
370.86	0.00
371.06	110.01
371.25	102.98
371.45	84.26
371.65	60.85
371.84	0.00
372.04	112.35
372.24	98.30
372.44	25.75
372.63	23.41
372.83	110.01
373.03	147.45
373.22	74.90
373.42	74.90
373.62	74.90
373.81	163.84
374.01	119.37
374.21	203.63
374.40	135.75
374.60	142.77
374.79	117.03
374.99	98.30
375.19	124.05
375.38	145.11
375.58	173.20
375.78	81.92
375.97	133.41
376.17	135.75
376.37	117.03
376.56	177.88
376.76	2.34
376.95	79.58
377.15	161.50
377.35	72.56
377.54	98.30
377.74	84.26
377.93	58.51
378.13	105.32
378.33	128.73
378.52	98.30
378.72	126.39
378.91	154.48
379.11	84.26
379.31	124.05
379.50	147.45
379.70	46.81
379.89	177.88
380.09	138.09
380.28	60.85
380.48	117.03
380.68	107.66
380.87	145.11
381.07	88.94
381.26	117.03
381.46	142.77
381.65	60.85
381.85	88.94
382.04	53.83
382.24	102.98
382.43	67.88
382.63	0.00
382.83	98.30
383.02	156.82
383.22	93.62
383.41	72.56
383.61	102.98
383.80	67.88
384.00	95.96
384.19	49.15
384.39	23.41
384.58	70.22
384.78	81.92
384.97	102.98
385.17	110.01
385.36	121.71
385.56	16.38
385.75	147.45
385.95	135.75
386.14	163.84
386.34	81.92
386.53	114.69
386.72	72.56
386.92	88.94
387.11	159.16
387.31	135.75
387.50	140.43
387.70	77.24
387.89	77.24
388.09	93.62
388.28	124.05
388.48	98.30
388.67	117.03
388.86	149.79
389.06	84.26
389.25	138.09
389.45	128.73
389.64	77.24
389.84	39.79
390.03	145.11
390.22	93.62
390.42	135.75
390.61	65.54
390.81	135.75
391.00	114.69
391.19	119.37
391.39	72.56
391.58	117.03
391.78	159.16
391.97	119.37
392.16	60.85
392.36	79.58
392.55	161.50
392.75	140.43
392.94	131.07
393.13	112.35
393.33	86.60
393.52	79.58
393.71	156.82
393.91	72.56
394.10	79.58
394.29	145.11
394.49	114.69
394.68	128.73
394.88	138.09
395.07	154.48
395.26	128.73
395.46	86.60
395.65	175.54
395.84	86.60
396.04	147.45
396.23	74.90
396.42	124.05
396.62	126.39
396.81	107.66
397.00	128.73
397.19	100.64
397.39	191.92
397.58	124.05
397.77	37.45
397.97	72.56
398.16	124.05
398.35	149.79
398.55	114.69
398.74	107.66
398.93	56.17
399.12	163.84
399.32	79.58
399.51	107.66
399.70	121.71
399.90	95.96
400.09	173.20
400.28	121.71
400.47	102.98
400.67	110.01
400.86	159.16
401.05	163.84
401.24	156.82
401.44	166.18
401.63	107.66
401.82	138.09
402.01	95.96
402.21	112.35
402.40	166.18
402.59	105.32
402.78	100.64
402.97	86.60
403.17	91.28
403.36	128.73
403.55	105.32
403.74	114.69
403.93	152.13
404.13	212.99
404.32	227.03
404.51	208.31
404.70	198.95
404.89	49.15
405.09	74.90
405.28	177.88
405.47	105.32
405.66	142.77
405.85	65.54
406.05	138.09
406.24	102.98
406.43	72.56
406.62	86.60
406.81	201.29
407.00	196.60
407.20	163.84
407.39	173.20
407.58	79.58
407.77	196.60
407.96	224.69
408.15	145.11
408.34	175.54
408.54	86.60
408.73	107.66
408.92	149.79
409.11	173.20
409.30	135.75
409.49	49.15
409.68	105.32
409.87	107.66
410.07	131.07
410.26	63.19
410.45	84.26
410.64	98.30
410.83	149.79
411.02	81.92
411.21	135.75
411.40	98.30
411.59	128.73
411.78	145.11
411.98	135.75
412.17	145.11
412.36	128.73
412.55	138.09
412.74	128.73
412.93	175.54
413.12	105.32
413.31	229.37
413.50	250.44
413.69	156.82
413.88	224.69
414.07	147.45
414.26	74.90
414.45	98.30
414.64	194.26
414.83	133.41
415.02	131.07
415.22	133.41
415.41	208.31
415.60	145.11
415.79	126.39
415.98	98.30
416.17	44.47
416.36	184.90
416.55	135.75
416.74	147.45
416.93	149.79
417.12	166.18
417.31	81.92
417.50	95.96
417.69	149.79
417.88	177.88
418.07	142.77
418.26	140.43
418.45	198.95
418.64	250.44
418.83	114.69
419.02	168.52
419.21	191.92
419.39	189.58
419.58	119.37
419.77	98.30
419.96	110.01
420.15	86.60
420.34	152.13
420.53	177.88
420.72	173.20
420.91	119.37
421.10	140.43
421.29	170.86
421.48	154.48
421.67	159.16
421.86	161.50
422.05	138.09
422.24	114.69
422.43	117.03
422.61	114.69
422.80	243.42
422.99	102.98
423.18	112.35
423.37	88.94
423.56	142.77
423.75	135.75
423.94	152.13
424.13	177.88
424.32	138.09
424.50	133.41
424.69	98.30
424.88	217.67
425.07	140.43
425.26	196.60
425.45	168.52
425.64	117.03
425.83	117.03
426.01	159.16
426.20	161.50
426.39	135.75
426.58	126.39
426.77	95.96
426.96	166.18
427.15	161.50
427.33	201.29
427.52	147.45
427.71	250.44
427.90	114.69
428.09	121.71
428.28	105.32
428.46	147.45
428.65	159.16
428.84	135.75
429.03	196.60
429.22	140.43
429.40	100.64
429.59	119.37
429.78	110.01
429.97	124.05
430.16	128.73
430.34	91.28
430.53	135.75
430.72	135.75
430.91	212.99
431.10	117.03
431.28	152.13
431.47	187.24
431.66	138.09
431.85	142.77
432.03	159.16
432.22	140.43
432.41	236.39
432.60	100.64
432.79	124.05
432.97	170.86
433.16	147.45
433.35	70.22
433.54	145.11
433.72	184.90
433.91	184.90
434.10	201.29
434.28	124.05
434.47	133.41
434.66	173.20
434.85	142.77
435.03	205.97
435.22	475.13
435.41	739.61
435.59	774.72
435.78	526.62
435.97	381.51
436.16	231.71
436.34	198.95
436.53	217.67
436.72	196.60
436.90	177.88
437.09	152.13
437.28	124.05
437.46	100.64
437.65	53.83
437.84	189.58
438.02	191.92
438.21	142.77
438.40	138.09
438.58	161.50
438.77	154.48
438.96	135.75
439.14	114.69
439.33	180.22
439.52	149.79
439.70	152.13
439.89	163.84
440.08	210.65
440.26	131.07
440.45	159.16
440.63	175.54
440.82	95.96
441.01	177.88
441.19	217.67
441.38	161.50
441.57	117.03
441.75	196.60
441.94	184.90
442.12	161.50
442.31	222.35
442.50	189.58
442.68	124.05
442.87	81.92
443.05	110.01
443.24	152.13
443.43	177.88
443.61	77.24
443.80	112.35
443.98	205.97
444.17	180.22
444.35	220.01
444.54	102.98
444.73	229.37
444.91	102.98
445.10	133.41
445.28	100.64
445.47	81.92
445.65	198.95
445.84	142.77
446.02	187.24
446.21	140.43
446.39	180.22
446.58	180.22
446.77	182.56
446.95	194.26
447.14	156.82
447.32	175.54
447.51	184.90
447.69	166.18
447.88	205.97
448.06	173.20
448.25	124.05
448.43	191.92
448.62	215.33
448.80	154.48
448.99	217.67
449.17	117.03
449.36	100.64
449.54	212.99
449.73	201.29
449.91	250.44
450.10	205.97
450.28	205.97
450.46	168.52
450.65	145.11
450.83	191.92
451.02	191.92
451.20	102.98
451.39	138.09
451.57	147.45
451.76	180.22
451.94	194.26
452.13	196.60
452.31	196.60
452.49	161.50
452.68	117.03
452.86	114.69
453.05	297.25
453.23	229.37
453.42	161.50
453.60	177.88
453.78	189.58
453.97	184.90
454.15	166.18
454.34	145.11
454.52	163.84
454.70	140.43
454.89	152.13
455.07	128.73
455.26	222.35
455.44	210.65
455.62	187.24
455.81	152.13
455.99	182.56
456.17	177.88
456.36	133.41
456.54	224.69
456.73	191.92
456.91	175.54
457.09	175.54
457.28	133.41
457.46	203.63
457.64	191.92
457.83	203.63
458.01	161.50
458.19	175.54
458.38	159.16
458.56	126.39
458.74	184.90
458.93	248.10
459.11	119.37
459.29	102.98
459.48	238.73
459.66	128.73
459.84	187.24
460.03	217.67
460.21	180.22
460.39	191.92
460.57	196.60
460.76	163.84
460.94	180.22
461.12	187.24
461.31	227.03
461.49	117.03
461.67	79.58
461.85	95.96
462.04	102.98
462.22	678.76
462.40	264.48
462.59	182.56
462.77	177.88
462.95	189.58
463.13	166.18
463.32	205.97
463.50	145.11
463.68	161.50
463.86	145.11
464.05	180.22
464.23	168.52
464.41	170.86
464.59	187.24
464.78	107.66
464.96	135.75
465.14	194.26
465.32	86.60
465.50	138.09
465.69	189.58
465.87	182.56
466.05	149.79
466.23	140.43
466.41	114.69
466.60	187.24
466.78	241.08
466.96	196.60
467.14	196.60
467.32	124.05
467.51	252.78
467.69	149.79
467.87	201.29
468.05	161.50
468.23	208.31
468.41	191.92
468.60	205.97
468.78	217.67
468.96	184.90
469.14	187.24
469.32	65.54
469.50	135.75
469.69	229.37
469.87	152.13
470.05	163.84
470.23	187.24
470.41	91.28
470.59	152.13
470.77	257.46
470.95	180.22
471.14	173.20
471.32	231.71
471.50	173.20
471.68	201.29
471.86	222.35
472.04	170.86
472.22	243.42
472.40	208.31
472.58	182.56
472.77	135.75
472.95	159.16
473.13	217.67
473.31	149.79
473.49	117.03
473.67	142.77
473.85	217.67
474.03	107.66
474.21	196.60
474.39	215.33
474.57	198.95
474.75	173.20
474.93	145.11
475.12	154.48
475.30	189.58
475.48	194.26
475.66	175.54
475.84	173.20
476.02	145.11
476.20	159.16
476.38	173.20
476.56	259.80
476.74	177.88
476.92	187.24
477.10	198.95
477.28	168.52
477.46	173.20
477.64	196.60
477.82	198.95
478.00	255.12
478.18	180.22
478.36	133.41
478.54	229.37
478.72	191.92
478.90	170.86
479.08	208.31
479.26	241.08
479.44	145.11
479.62	189.58
479.80	194.26
479.98	100.64
480.16	203.63
480.34	212.99
480.52	184.90
480.70	234.05
480.88	196.60
481.06	212.99
481.24	215.33
481.41	220.01
481.59	264.48
481.77	191.92
481.95	191.92
482.13	184.90
482.31	234.05
482.49	215.33
482.67	231.71
482.85	248.10
483.03	196.60
483.21	229.37
483.39	184.90
483.57	259.80
483.74	189.58
483.92	217.67
484.10	229.37
484.28	198.95
484.46	248.10
484.64	215.33
484.82	299.59
485.00	255.12
485.18	238.73
485.35	264.48
485.53	191.92
485.71	252.78
485.89	264.48
486.07	257.46
486.25	320.65
486.43	311.29
486.61	292.57
486.78	330.02
486.96	224.69
487.14	245.76
487.32	250.44
487.50	248.10
487.68	304.27
487.85	322.99
488.03	308.95
488.21	332.36
488.39	297.25
488.57	180.22
488.75	259.80
488.92	552.37
489.10	297.25
489.28	332.36
489.46	252.78
489.64	264.48
489.81	243.42
489.99	285.55
490.17	198.95
490.35	318.31
490.53	308.95
490.70	238.73
490.88	280.86
491.06	210.65
491.24	294.91
491.41	313.63
491.59	280.86
491.77	297.25
491.95	257.46
492.13	220.01
492.30	238.73
492.48	241.08
492.66	318.31
492.84	184.90
493.01	280.86
493.19	248.10
493.37	290.23
493.54	280.86
493.72	299.59
493.90	299.59
494.08	306.61
494.25	278.52
494.43	248.10
494.61	222.35
494.79	217.67
494.96	262.14
495.14	259.80
495.32	294.91
495.49	198.95
495.67	252.78
495.85	222.35
496.02	201.29
496.20	266.82
496.38	304.27
496.55	285.55
496.73	243.42
496.91	257.46
497.09	290.23
497.26	259.80
497.44	227.03
497.62	236.39
497.79	241.08
497.97	290.23
498.14	222.35
498.32	196.60
498.50	283.20
498.67	264.48
498.85	262.14
499.03	280.86
499.20	222.35
499.38	196.60
499.56	311.29
499.73	311.29
499.91	264.48
500.08	322.99
500.26	205.97
500.44	217.67
500.61	241.08
500.79	231.71
500.97	229.37
501.14	297.25
501.32	245.76
501.49	285.55
501.67	210.65
501.84	210.65
502.02	224.69
502.20	304.27
502.37	227.03
502.55	220.01
502.72	231.71
502.90	234.05
503.07	187.24
503.25	231.71
503.43	177.88
503.60	191.92
503.78	189.58
503.95	248.10
504.13	159.16
504.30	255.12
504.48	241.08
504.65	236.39
504.83	264.48
505.01	168.52
505.18	227.03
505.36	227.03
505.53	236.39
505.71	241.08
505.88	201.29
506.06	189.58
506.23	283.20
506.41	262.14
506.58	205.97
506.76	201.29
506.93	241.08
507.11	301.93
507.28	259.80
507.46	227.03
507.63	308.95
507.81	210.65
507.98	208.31
508.16	325.33
508.33	262.14
508.50	238.73
508.68	224.69
508.85	194.26
509.03	203.63
509.20	210.65
509.38	285.55
509.55	257.46
509.73	264.48
509.90	269.16
510.08	198.95
510.25	248.10
510.42	191.92
510.60	250.44
510.77	229.37
510.95	252.78
511.12	276.18
511.30	294.91
511.47	292.57
511.64	243.42
511.82	184.90
511.99	210.65
512.17	231.71
512.34	222.35
512.51	276.18
512.69	222.35
512.86	276.18
513.04	229.37
513.21	220.01
513.38	290.23
513.56	210.65
513.73	236.39
513.90	131.07
514.08	194.26
514.25	257.46
514.43	297.25
514.60	189.58
514.77	318.31
514.95	205.97
515.12	205.97
515.29	278.52
515.47	227.03
515.64	276.18
515.81	280.86
515.99	231.71
516.16	234.05
516.33	191.92
516.51	203.63
516.68	191.92
516.85	229.37
517.03	231.71
517.20	290.23
517.37	271.50
517.54	330.02
517.72	210.65
517.89	236.39
518.06	194.26
518.24	248.10
518.41	250.44
518.58	266.82
518.75	287.89
518.93	257.46
519.10	259.80
519.27	170.86
519.45	163.84
519.62	285.55
519.79	189.58
519.96	196.60
520.14	245.76
520.31	294.91
520.48	182.56
520.65	180.22
520.83	318.31
521.00	290.23
521.17	168.52
521.34	215.33
521.52	145.11
521.69	187.24
521.86	220.01
522.03	276.18
522.20	262.14
522.38	196.60
522.55	224.69
522.72	159.16
522.89	292.57
523.07	234.05
523.24	194.26
523.41	173.20
523.58	252.78
523.75	285.55
523.92	238.73
524.10	306.61
524.27	315.97
524.44	159.16
524.61	283.20
524.78	259.80
524.96	224.69
525.13	292.57
525.30	273.84
525.47	325.33
525.64	198.95
525.81	250.44
525.98	262.14
526.16	238.73
526.33	231.71
526.50	217.67
526.67	278.52
526.84	259.80
527.01	229.37
527.18	313.63
527.36	208.31
527.53	292.57
527.70	255.12
527.87	234.05
528.04	299.59
528.21	196.60
528.38	238.73
528.55	320.65
528.72	215.33
528.89	297.25
529.07	224.69
529.24	222.35
529.41	271.50
529.58	304.27
529.75	236.39
529.92	238.73
530.09	332.36
530.26	318.31
530.43	306.61
530.60	259.80
530.77	320.65
530.94	315.97
531.11	231.71
531.28	189.58
531.46	234.05
531.63	294.91
531.80	269.16
531.97	252.78
532.14	355.76
532.31	236.39
532.48	257.46
532.65	259.80
532.82	266.82
532.99	308.95
533.16	320.65
533.33	273.84
533.50	222.35
533.67	255.12
533.84	301.93
534.01	304.27
534.18	224.69
534.35	327.68
534.52	259.80
534.69	271.50
534.86	159.16
535.03	266.82
535.20	252.78
535.37	191.92
535.54	315.97
535.71	322.99
535.88	297.25
536.05	294.91
536.22	297.25
536.38	332.36
536.55	294.91
536.72	292.57
536.89	327.68
537.06	320.65
537.23	285.55
537.40	315.97
537.57	358.10
537.74	414.27
537.91	409.59
538.08	372.15
538.25	369.80
538.42	358.10
538.59	395.55
538.75	344.06
538.92	400.23
539.09	444.70
539.26	327.68
539.43	442.36
539.60	458.74
539.77	465.77
539.94	510.24
540.11	489.17
540.28	599.18
540.44	636.63
540.61	624.92
540.78	617.90
540.95	648.33
541.12	809.83
541.29	847.27
541.46	985.37
541.62	943.24
541.79	1004.09
541.96	978.34
542.13	1011.11
542.30	1078.99
542.47	936.21
542.63	959.62
542.80	919.83
542.97	898.77
543.14	957.28
543.31	945.58
543.48	882.38
543.64	980.68
543.81	945.58
543.98	889.40
544.15	926.85
544.32	957.28
544.48	877.70
544.65	760.67
544.82	784.08
544.99	887.06
545.16	823.87
545.32	870.68
545.49	1291.98
545.66	1727.32
545.83	2160.31
546.00	1792.85
546.16	1352.83
546.33	1025.15
546.50	844.93
546.67	758.33
546.83	692.80
547.00	624.92
547.17	671.73
547.34	594.50
547.50	535.98
547.67	489.17
547.84	512.58
548.00	547.69
548.17	517.26
548.34	540.66
548.51	550.03
548.67	566.41
548.84	510.24
549.01	437.68
549.18	538.32
549.34	510.24
549.51	428.32
549.68	475.13
549.84	507.90
550.01	451.72
550.18	510.24
550.34	599.18
550.51	449.38
550.68	493.85
550.84	372.15
551.01	400.23
551.18	414.27
551.34	444.70
551.51	344.06
551.68	425.98
551.84	451.72
552.01	411.93
552.18	440.02
552.34	418.96
552.51	337.04
552.68	421.30
552.84	367.46
553.01	400.23
553.18	330.02
553.34	346.40
553.51	348.74
553.67	308.95
553.84	414.27
554.01	306.61
554.17	299.59
554.34	337.04
554.51	294.91
554.67	322.99
554.84	299.59
555.00	278.52
555.17	304.27
555.33	234.05
555.50	287.89
555.67	301.93
555.83	259.80
556.00	243.42
556.16	421.30
556.33	322.99
556.50	276.18
556.66	215.33
556.83	210.65
556.99	227.03
557.16	301.93
557.32	245.76
557.49	374.49
557.65	229.37
557.82	264.48
557.98	245.76
558.15	318.31
558.32	262.14
558.48	273.84
558.65	266.82
558.81	248.10
558.98	220.01
559.14	259.80
559.31	217.67
559.47	262.14
559.64	262.14
559.80	290.23
559.97	227.03
560.13	252.78
560.30	205.97
560.46	278.52
560.63	322.99
560.79	287.89
560.96	262.14
561.12	287.89
561.29	236.39
561.45	292.57
561.61	191.92
561.78	320.65
561.94	231.71
562.11	229.37
562.27	280.86
562.44	227.03
562.60	229.37
562.77	215.33
562.93	271.50
563.10	271.50
563.26	276.18
563.42	299.59
563.59	238.73
563.75	322.99
563.92	271.50
564.08	297.25
564.24	257.46
564.41	311.29
564.57	262.14
564.74	203.63
564.90	234.05
565.07	332.36
565.23	238.73
565.39	220.01
565.56	196.60
565.72	236.39
565.88	273.84
566.05	201.29
566.21	238.73
566.38	278.52
566.54	196.60
566.70	285.55
566.87	248.10
567.03	220.01
567.19	224.69
567.36	234.05
567.52	234.05
567.68	259.80
567.85	334.70
568.01	299.59
568.17	250.44
568.34	259.80
568.50	264.48
568.66	175.54
568.83	306.61
568.99	210.65
569.15	264.48
569.32	255.12
569.48	262.14
569.64	217.67
569.81	175.54
569.97	128.73
570.13	203.63
570.30	196.60
570.46	297.25
570.62	243.42
570.78	217.67
570.95	194.26
571.11	245.76
571.27	278.52
571.43	210.65
571.60	332.36
571.76	191.92
571.92	243.42
572.09	266.82
572.25	252.78
572.41	243.42
572.57	304.27
572.74	322.99
572.90	220.01
573.06	245.76
573.22	285.55
573.38	243.42
573.55	271.50
573.71	241.08
573.87	201.29
574.03	198.95
574.20	215.33
574.36	245.76
574.52	224.69
574.68	210.65
574.84	236.39
575.01	224.69
575.17	217.67
575.33	227.03
575.49	250.44
575.65	273.84
575.82	264.48
575.98	327.68
576.14	311.29
576.30	318.31
576.46	449.38
576.62	528.96
576.79	601.52
576.95	498.53
577.11	435.34
577.27	308.95
577.43	313.63
577.59	365.12
577.75	264.48
577.92	341.72
578.08	266.82
578.24	262.14
578.40	339.38
578.56	463.43
578.72	538.32
578.88	552.37
579.04	524.28
579.21	372.15
579.37	266.82
579.53	376.83
579.69	407.25
579.85	348.74
580.01	360.44
580.17	358.10
580.33	334.70
580.49	311.29
580.65	313.63
580.82	287.89
580.98	301.93
581.14	306.61
581.30	379.17
581.46	411.93
581.62	362.78
581.78	351.08
581.94	360.44
582.10	411.93
582.26	444.70
582.42	355.76
582.58	381.51
582.74	322.99
582.90	339.38
583.06	344.06
583.22	416.62
583.38	379.17
583.54	435.34
583.70	447.04
583.86	430.66
584.02	383.85
584.18	456.40
584.34	430.66
584.50	423.64
584.66	397.89
584.82	355.76
584.98	388.53
585.14	346.40
585.30	365.12
585.46	360.44
585.62	297.25
585.78	379.17
585.94	308.95
586.10	341.72
586.26	381.51
586.42	397.89
586.58	433.00
586.74	496.19
586.90	559.39
587.06	587.47
587.22	482.15
587.38	468.11
587.54	475.13
587.70	437.68
587.86	425.98
588.02	346.40
588.18	330.02
588.34	301.93
588.49	264.48
588.65	266.82
588.81	341.72
588.97	264.48
589.13	278.52
589.29	257.46
589.45	334.70
589.61	334.70
589.77	365.12
589.93	248.10
590.08	276.18
590.24	266.82
590.40	285.55
590.56	315.97
590.72	325.33
590.88	257.46
591.04	332.36
591.20	330.02
591.35	351.08
591.51	276.18
591.67	259.80
591.83	250.44
591.99	395.55
592.15	381.51
592.31	365.12
592.46	367.46
592.62	454.06
592.78	313.63
592.94	409.59
593.10	454.06
593.26	367.46
593.41	346.40
593.57	325.33
593.73	313.63
593.89	358.10
594.05	330.02
594.20	327.68
594.36	231.71
594.52	245.76
594.68	252.78
594.84	287.89
594.99	313.63
595.15	334.70
595.31	290.23
595.47	255.12
595.62	201.29
595.78	238.73
595.94	287.89
596.10	376.83
596.25	287.89
596.41	283.20
596.57	224.69
596.73	264.48
596.88	278.52
597.04	285.55
597.20	220.01
597.36	292.57
597.51	318.31
597.67	318.31
597.83	341.72
597.99	262.14
598.14	278.52
598.30	264.48
598.46	306.61
598.61	318.31
598.77	271.50
598.93	257.46
599.09	306.61
599.24	304.27
599.40	348.74
599.56	283.20
599.71	285.55
599.87	341.72
600.03	306.61
600.18	339.38
600.34	245.76
600.50	322.99
600.65	250.44
600.81	308.95
600.97	227.03
601.12	304.27
601.28	290.23
601.44	245.76
601.59	217.67
601.75	276.18
601.91	238.73
602.06	222.35
602.22	355.76
602.37	294.91
602.53	304.27
602.69	252.78
602.84	280.86
603.00	337.04
603.16	269.16
603.31	231.71
603.47	252.78
603.62	191.92
603.78	255.12
603.94	308.95
604.09	205.97
604.25	252.78
604.40	255.12
604.56	255.12
604.71	231.71
604.87	283.20
605.03	250.44
605.18	292.57
605.34	308.95
605.49	187.24
605.65	269.16
605.80	318.31
605.96	259.80
606.12	306.61
606.27	348.74
606.43	231.71
606.58	315.97
606.74	313.63
606.89	355.76
607.05	393.21
607.20	339.38
607.36	320.65
607.51	360.44
607.67	372.15
607.82	339.38
607.98	308.95
608.13	374.49
608.29	353.42
608.44	395.55
608.60	346.40
608.75	400.23
608.91	351.08
609.06	393.21
609.22	489.17
609.37	393.21
609.53	587.47
609.68	533.64
609.84	559.39
609.99	732.59
610.15	755.99
610.30	880.04
610.46	1046.22
610.61	1294.32
610.76	1547.09
610.92	1905.20
611.07	2010.52
611.23	2078.40
611.38	2010.52
611.54	1823.28
611.69	1406.66
