SpectraSuite Data File
++++++++++++++++++++++++++++++++++++
Date: Fri Oct 04 11:42:06 GMT-05:00 2013
User: price-jones
Dark Spectrum Present: No
Reference Spectrum Present: No
Number of Sampled Component Spectra: 1
Spectrometers: USB2+H05261
Integration Time (usec): 100000 (USB2+H05261)
Spectra Averaged: 1 (USB2+H05261)
Boxcar Smoothing: 0 (USB2+H05261)
Correct for Electrical Dark: No (USB2+H05261)
Strobe/Lamp Enabled: No (USB2+H05261)
Correct for Detector Non-linearity: No (USB2+H05261)
Correct for Stray Light: No (USB2+H05261)
Number of Pixels in Processed Spectrum: 2048
>>>>>Begin Processed Spectral Data<<<<<
365.73	0.00
365.92	0.00
366.12	0.00
366.32	0.00
366.52	0.00
366.72	0.00
366.91	0.00
367.11	0.00
367.31	0.00
367.51	0.00
367.70	0.00
367.90	2.34
368.10	0.00
368.30	0.00
368.49	0.00
368.69	0.00
368.89	0.00
369.09	0.00
369.28	0.00
369.48	25.75
369.68	0.00
369.87	0.00
370.07	11.70
370.27	49.15
370.47	9.36
370.66	2.34
370.86	0.00
371.06	28.09
371.25	77.24
371.45	0.00
371.65	32.77
371.84	49.15
372.04	25.75
372.24	98.30
372.44	44.47
372.63	88.94
372.83	152.13
373.03	77.24
373.22	77.24
373.42	154.48
373.62	145.11
373.81	51.49
374.01	138.09
374.21	124.05
374.40	154.48
374.60	203.63
374.79	126.39
374.99	86.60
375.19	191.92
375.38	98.30
375.58	140.43
375.78	175.54
375.97	121.71
376.17	159.16
376.37	100.64
376.56	142.77
376.76	147.45
376.95	110.01
377.15	133.41
377.35	112.35
377.54	86.60
377.74	100.64
377.93	91.28
378.13	93.62
378.33	124.05
378.52	77.24
378.72	42.13
378.91	128.73
379.11	107.66
379.31	107.66
379.50	84.26
379.70	138.09
379.89	140.43
380.09	35.11
380.28	77.24
380.48	203.63
380.68	133.41
380.87	114.69
381.07	131.07
381.26	138.09
381.46	60.85
381.65	177.88
381.85	72.56
382.04	63.19
382.24	154.48
382.43	42.13
382.63	112.35
382.83	67.88
383.02	117.03
383.22	173.20
383.41	81.92
383.61	131.07
383.80	102.98
384.00	81.92
384.19	86.60
384.39	107.66
384.58	51.49
384.78	86.60
384.97	84.26
385.17	128.73
385.36	100.64
385.56	133.41
385.75	140.43
385.95	98.30
386.14	77.24
386.34	149.79
386.53	124.05
386.72	147.45
386.92	149.79
387.11	46.81
387.31	119.37
387.50	86.60
387.70	72.56
387.89	88.94
388.09	49.15
388.28	117.03
388.48	126.39
388.67	93.62
388.86	121.71
389.06	156.82
389.25	112.35
389.45	140.43
389.64	166.18
389.84	170.86
390.03	100.64
390.22	70.22
390.42	86.60
390.61	77.24
390.81	91.28
391.00	72.56
391.19	138.09
391.39	145.11
391.58	56.17
391.78	51.49
391.97	102.98
392.16	100.64
392.36	117.03
392.55	131.07
392.75	112.35
392.94	100.64
393.13	105.32
393.33	67.88
393.52	149.79
393.71	63.19
393.91	117.03
394.10	145.11
394.29	98.30
394.49	107.66
394.68	114.69
394.88	105.32
395.07	189.58
395.26	170.86
395.46	191.92
395.65	70.22
395.84	152.13
396.04	110.01
396.23	173.20
396.42	84.26
396.62	173.20
396.81	170.86
397.00	100.64
397.19	126.39
397.39	114.69
397.58	147.45
397.77	110.01
397.97	81.92
398.16	124.05
398.35	142.77
398.55	70.22
398.74	105.32
398.93	149.79
399.12	72.56
399.32	156.82
399.51	102.98
399.70	166.18
399.90	198.95
400.09	44.47
400.28	177.88
400.47	74.90
400.67	156.82
400.86	112.35
401.05	220.01
401.24	220.01
401.44	126.39
401.63	166.18
401.82	194.26
402.01	63.19
402.21	51.49
402.40	170.86
402.59	88.94
402.78	159.16
402.97	79.58
403.17	117.03
403.36	170.86
403.55	142.77
403.74	23.41
403.93	126.39
404.13	208.31
404.32	201.29
404.51	224.69
404.70	189.58
404.89	114.69
405.09	161.50
405.28	184.90
405.47	88.94
405.66	107.66
405.85	147.45
406.05	159.16
406.24	32.77
406.43	117.03
406.62	163.84
406.81	135.75
407.00	198.95
407.20	95.96
407.39	112.35
407.58	46.81
407.77	187.24
407.96	145.11
408.15	131.07
408.34	154.48
408.54	170.86
408.73	154.48
408.92	44.47
409.11	182.56
409.30	107.66
409.49	77.24
409.68	63.19
409.87	100.64
410.07	114.69
410.26	102.98
410.45	86.60
410.64	156.82
410.83	63.19
411.02	138.09
411.21	170.86
411.40	161.50
411.59	152.13
411.78	67.88
411.98	81.92
412.17	30.43
412.36	128.73
412.55	138.09
412.74	189.58
412.93	175.54
413.12	124.05
413.31	168.52
413.50	114.69
413.69	70.22
413.88	191.92
414.07	154.48
414.26	81.92
414.45	114.69
414.64	107.66
414.83	208.31
415.02	177.88
415.22	110.01
415.41	168.52
415.60	159.16
415.79	145.11
415.98	140.43
416.17	110.01
416.36	131.07
416.55	117.03
416.74	173.20
416.93	159.16
417.12	95.96
417.31	86.60
417.50	110.01
417.69	189.58
417.88	147.45
418.07	88.94
418.26	187.24
418.45	170.86
418.64	173.20
418.83	175.54
419.02	131.07
419.21	72.56
419.39	140.43
419.58	119.37
419.77	93.62
419.96	119.37
420.15	163.84
420.34	119.37
420.53	133.41
420.72	119.37
420.91	166.18
421.10	126.39
421.29	154.48
421.48	131.07
421.67	138.09
421.86	72.56
422.05	149.79
422.24	58.51
422.43	107.66
422.61	119.37
422.80	121.71
422.99	156.82
423.18	220.01
423.37	173.20
423.56	112.35
423.75	191.92
423.94	133.41
424.13	217.67
424.32	198.95
424.50	100.64
424.69	198.95
424.88	208.31
425.07	147.45
425.26	149.79
425.45	175.54
425.64	124.05
425.83	149.79
426.01	161.50
426.20	180.22
426.39	126.39
426.58	145.11
426.77	131.07
426.96	168.52
427.15	191.92
427.33	138.09
427.52	203.63
427.71	91.28
427.90	95.96
428.09	88.94
428.28	119.37
428.46	182.56
428.65	124.05
428.84	163.84
429.03	212.99
429.22	177.88
429.40	86.60
429.59	138.09
429.78	231.71
429.97	131.07
430.16	177.88
430.34	227.03
430.53	177.88
430.72	117.03
430.91	117.03
431.10	117.03
431.28	184.90
431.47	196.60
431.66	194.26
431.85	142.77
432.03	98.30
432.22	156.82
432.41	161.50
432.60	70.22
432.79	168.52
432.97	133.41
433.16	245.76
433.35	168.52
433.54	124.05
433.72	177.88
433.91	220.01
434.10	180.22
434.28	117.03
434.47	154.48
434.66	114.69
434.85	208.31
435.03	273.84
435.22	601.52
435.41	898.77
435.59	966.64
435.78	730.25
435.97	433.00
436.16	306.61
436.34	156.82
436.53	175.54
436.72	159.16
436.90	142.77
437.09	168.52
437.28	175.54
437.46	159.16
437.65	194.26
437.84	154.48
438.02	133.41
438.21	166.18
438.40	147.45
438.58	149.79
438.77	203.63
438.96	147.45
439.14	152.13
439.33	189.58
439.52	98.30
439.70	159.16
439.89	77.24
440.08	152.13
440.26	159.16
440.45	175.54
440.63	203.63
440.82	159.16
441.01	156.82
441.19	177.88
441.38	142.77
441.57	170.86
441.75	205.97
441.94	187.24
442.12	166.18
442.31	102.98
442.50	217.67
442.68	177.88
442.87	126.39
443.05	124.05
443.24	191.92
443.43	170.86
443.61	133.41
443.80	168.52
443.98	145.11
444.17	107.66
444.35	182.56
444.54	131.07
444.73	163.84
444.91	175.54
445.10	140.43
445.28	220.01
445.47	166.18
445.65	177.88
445.84	191.92
446.02	149.79
446.21	142.77
446.39	145.11
446.58	119.37
446.77	147.45
446.95	126.39
447.14	194.26
447.32	220.01
447.51	182.56
447.69	149.79
447.88	163.84
448.06	241.08
448.25	191.92
448.43	88.94
448.62	140.43
448.80	156.82
448.99	187.24
449.17	173.20
449.36	145.11
449.54	166.18
449.73	170.86
449.91	198.95
450.10	156.82
450.28	210.65
450.46	168.52
450.65	212.99
450.83	161.50
451.02	191.92
451.20	124.05
451.39	203.63
451.57	187.24
451.76	126.39
451.94	224.69
452.13	95.96
452.31	175.54
452.49	128.73
452.68	121.71
452.86	187.24
453.05	208.31
453.23	198.95
453.42	210.65
453.60	154.48
453.78	173.20
453.97	145.11
454.15	142.77
454.34	166.18
454.52	114.69
454.70	173.20
454.89	231.71
455.07	163.84
455.26	112.35
455.44	168.52
455.62	102.98
455.81	131.07
455.99	156.82
456.17	243.42
456.36	180.22
456.54	229.37
456.73	145.11
456.91	152.13
457.09	187.24
457.28	215.33
457.46	161.50
457.64	236.39
457.83	198.95
458.01	170.86
458.19	156.82
458.38	201.29
458.56	140.43
458.74	168.52
458.93	210.65
459.11	124.05
459.29	126.39
459.48	180.22
459.66	170.86
459.84	196.60
460.03	210.65
460.21	166.18
460.39	210.65
460.57	147.45
460.76	227.03
460.94	142.77
461.12	154.48
461.31	159.16
461.49	173.20
461.67	161.50
461.85	168.52
462.04	191.92
462.22	631.94
462.40	259.80
462.59	203.63
462.77	262.14
462.95	152.13
463.13	154.48
463.32	159.16
463.50	133.41
463.68	269.16
463.86	105.32
464.05	156.82
464.23	220.01
464.41	180.22
464.59	212.99
464.78	154.48
464.96	138.09
465.14	166.18
465.32	156.82
465.50	173.20
465.69	203.63
465.87	194.26
466.05	138.09
466.23	168.52
466.41	182.56
466.60	135.75
466.78	145.11
466.96	215.33
467.14	189.58
467.32	245.76
467.51	205.97
467.69	248.10
467.87	189.58
468.05	245.76
468.23	255.12
468.41	168.52
468.60	182.56
468.78	163.84
468.96	154.48
469.14	168.52
469.32	175.54
469.50	278.52
469.69	238.73
469.87	140.43
470.05	152.13
470.23	208.31
470.41	112.35
470.59	156.82
470.77	168.52
470.95	112.35
471.14	234.05
471.32	215.33
471.50	175.54
471.68	182.56
471.86	191.92
472.04	198.95
472.22	152.13
472.40	142.77
472.58	166.18
472.77	154.48
472.95	133.41
473.13	231.71
473.31	257.46
473.49	142.77
473.67	128.73
473.85	208.31
474.03	156.82
474.21	180.22
474.39	208.31
474.57	180.22
474.75	245.76
474.93	191.92
475.12	86.60
475.30	119.37
475.48	189.58
475.66	191.92
475.84	194.26
476.02	156.82
476.20	175.54
476.38	147.45
476.56	175.54
476.74	159.16
476.92	175.54
477.10	198.95
477.28	248.10
477.46	175.54
477.64	177.88
477.82	196.60
478.00	222.35
478.18	205.97
478.36	154.48
478.54	187.24
478.72	210.65
478.90	133.41
479.08	187.24
479.26	243.42
479.44	161.50
479.62	152.13
479.80	102.98
479.98	138.09
480.16	177.88
480.34	182.56
480.52	220.01
480.70	203.63
480.88	212.99
481.06	238.73
481.24	215.33
481.41	135.75
481.59	299.59
481.77	217.67
481.95	222.35
482.13	271.50
482.31	276.18
482.49	250.44
482.67	201.29
482.85	210.65
483.03	269.16
483.21	250.44
483.39	266.82
483.57	262.14
483.74	208.31
483.92	241.08
484.10	224.69
484.28	243.42
484.46	341.72
484.64	252.78
484.82	198.95
485.00	222.35
485.18	212.99
485.35	290.23
485.53	301.93
485.71	285.55
485.89	266.82
486.07	306.61
486.25	372.15
486.43	306.61
486.61	238.73
486.78	327.68
486.96	248.10
487.14	327.68
487.32	290.23
487.50	273.84
487.68	301.93
487.85	248.10
488.03	241.08
488.21	332.36
488.39	250.44
488.57	332.36
488.75	278.52
488.92	552.37
489.10	290.23
489.28	297.25
489.46	255.12
489.64	229.37
489.81	297.25
489.99	327.68
490.17	337.04
490.35	330.02
490.53	259.80
490.70	369.80
490.88	271.50
491.06	367.46
491.24	353.42
491.41	318.31
491.59	358.10
491.77	292.57
491.95	337.04
492.13	259.80
492.30	252.78
492.48	308.95
492.66	313.63
492.84	299.59
493.01	297.25
493.19	313.63
493.37	297.25
493.54	283.20
493.72	252.78
493.90	276.18
494.08	269.16
494.25	283.20
494.43	337.04
494.61	264.48
494.79	243.42
494.96	224.69
495.14	243.42
495.32	257.46
495.49	283.20
495.67	245.76
495.85	255.12
496.02	231.71
496.20	271.50
496.38	231.71
496.55	287.89
496.73	191.92
496.91	252.78
497.09	243.42
497.26	369.80
497.44	248.10
497.62	334.70
497.79	227.03
497.97	266.82
498.14	245.76
498.32	278.52
498.50	297.25
498.67	276.18
498.85	271.50
499.03	234.05
499.20	229.37
499.38	245.76
499.56	318.31
499.73	299.59
499.91	205.97
500.08	217.67
500.26	177.88
500.44	257.46
500.61	208.31
500.79	212.99
500.97	325.33
501.14	311.29
501.32	264.48
501.49	266.82
501.67	271.50
501.84	271.50
502.02	191.92
502.20	180.22
502.37	276.18
502.55	187.24
502.72	285.55
502.90	271.50
503.07	184.90
503.25	285.55
503.43	220.01
503.60	203.63
503.78	196.60
503.95	212.99
504.13	205.97
504.30	334.70
504.48	283.20
504.65	262.14
504.83	304.27
505.01	205.97
505.18	198.95
505.36	184.90
505.53	245.76
505.71	163.84
505.88	241.08
506.06	203.63
506.23	262.14
506.41	250.44
506.58	262.14
506.76	276.18
506.93	234.05
507.11	283.20
507.28	191.92
507.46	262.14
507.63	222.35
507.81	159.16
507.98	241.08
508.16	224.69
508.33	187.24
508.50	280.86
508.68	220.01
508.85	245.76
509.03	208.31
509.20	257.46
509.38	220.01
509.55	273.84
509.73	203.63
509.90	238.73
510.08	208.31
510.25	255.12
510.42	243.42
510.60	220.01
510.77	250.44
510.95	203.63
511.12	154.48
511.30	294.91
511.47	222.35
511.64	297.25
511.82	229.37
511.99	229.37
512.17	196.60
512.34	236.39
512.51	245.76
512.69	241.08
512.86	259.80
513.04	149.79
513.21	229.37
513.38	227.03
513.56	241.08
513.73	243.42
513.90	203.63
514.08	224.69
514.25	299.59
514.43	271.50
514.60	241.08
514.77	208.31
514.95	252.78
515.12	318.31
515.29	273.84
515.47	229.37
515.64	262.14
515.81	255.12
515.99	297.25
516.16	318.31
516.33	294.91
516.51	205.97
516.68	215.33
516.85	238.73
517.03	166.18
517.20	234.05
517.37	194.26
517.54	222.35
517.72	177.88
517.89	194.26
518.06	170.86
518.24	283.20
518.41	273.84
518.58	215.33
518.75	180.22
518.93	238.73
519.10	294.91
519.27	266.82
519.45	234.05
519.62	290.23
519.79	308.95
519.96	175.54
520.14	227.03
520.31	215.33
520.48	236.39
520.65	269.16
520.83	224.69
521.00	220.01
521.17	231.71
521.34	205.97
521.52	224.69
521.69	220.01
521.86	227.03
522.03	252.78
522.20	241.08
522.38	163.84
522.55	205.97
522.72	236.39
522.89	236.39
523.07	278.52
523.24	187.24
523.41	168.52
523.58	271.50
523.75	259.80
523.92	173.20
524.10	238.73
524.27	248.10
524.44	173.20
524.61	201.29
524.78	236.39
524.96	248.10
525.13	262.14
525.30	297.25
525.47	273.84
525.64	276.18
525.81	245.76
525.98	290.23
526.16	308.95
526.33	266.82
526.50	194.26
526.67	187.24
526.84	187.24
527.01	266.82
527.18	229.37
527.36	290.23
527.53	198.95
527.70	262.14
527.87	273.84
528.04	269.16
528.21	248.10
528.38	334.70
528.55	280.86
528.72	257.46
528.89	280.86
529.07	292.57
529.24	236.39
529.41	315.97
529.58	266.82
529.75	273.84
529.92	344.06
530.09	250.44
530.26	177.88
530.43	231.71
530.60	252.78
530.77	243.42
530.94	238.73
531.11	243.42
531.28	241.08
531.46	278.52
531.63	304.27
531.80	238.73
531.97	229.37
532.14	276.18
532.31	234.05
532.48	283.20
532.65	269.16
532.82	266.82
532.99	280.86
533.16	318.31
533.33	301.93
533.50	259.80
533.67	299.59
533.84	278.52
534.01	332.36
534.18	227.03
534.35	358.10
534.52	257.46
534.69	322.99
534.86	234.05
535.03	280.86
535.20	306.61
535.37	322.99
535.54	308.95
535.71	212.99
535.88	386.19
536.05	194.26
536.22	278.52
536.38	262.14
536.55	273.84
536.72	351.08
536.89	358.10
537.06	311.29
537.23	348.74
537.40	367.46
537.57	322.99
537.74	304.27
537.91	400.23
538.08	374.49
538.25	451.72
538.42	404.91
538.59	393.21
538.75	414.27
538.92	409.59
539.09	397.89
539.26	463.43
539.43	517.26
539.60	568.75
539.77	547.69
539.94	580.45
540.11	643.65
540.28	664.71
540.44	678.76
540.61	718.54
540.78	784.08
540.95	917.49
541.12	1011.11
541.29	1039.20
541.46	1139.84
541.62	1055.58
541.79	1233.46
541.96	1090.69
542.13	1116.44
542.30	1137.50
542.47	1121.12
542.63	1064.94
542.80	1039.20
542.97	1118.78
543.14	973.66
543.31	1071.97
543.48	1043.88
543.64	994.73
543.81	1067.28
543.98	997.07
544.15	938.55
544.32	1078.99
544.48	985.37
544.65	966.64
544.82	919.83
544.99	1083.67
545.16	947.92
545.32	997.07
545.49	1666.46
545.66	2396.71
545.83	2785.24
546.00	2387.35
546.16	1764.76
546.33	1357.51
546.50	1048.56
546.67	791.10
546.83	767.70
547.00	725.57
547.17	755.99
547.34	664.71
547.50	751.31
547.67	631.94
547.84	627.26
548.00	638.97
548.17	613.22
548.34	596.84
548.51	650.67
548.67	615.56
548.84	568.75
549.01	564.07
549.18	620.24
549.34	571.09
549.51	559.39
549.68	486.83
549.84	514.92
550.01	573.43
550.18	528.96
550.34	524.28
550.51	418.96
550.68	505.56
550.84	472.79
551.01	470.45
551.18	517.26
551.34	489.17
551.51	442.36
551.68	358.10
551.84	411.93
552.01	402.57
552.18	404.91
552.34	360.44
552.51	292.57
552.68	435.34
552.84	358.10
553.01	416.62
553.18	388.53
553.34	390.87
553.51	301.93
553.67	425.98
553.84	393.21
554.01	315.97
554.17	327.68
554.34	334.70
554.51	320.65
554.67	393.21
554.84	339.38
555.00	355.76
555.17	287.89
555.33	203.63
555.50	276.18
555.67	313.63
555.83	311.29
556.00	313.63
556.16	388.53
556.33	262.14
556.50	269.16
556.66	304.27
556.83	229.37
556.99	159.16
557.16	285.55
557.32	290.23
557.49	255.12
557.65	269.16
557.82	245.76
557.98	196.60
558.15	280.86
558.32	245.76
558.48	203.63
558.65	287.89
558.81	229.37
558.98	262.14
559.14	301.93
559.31	266.82
559.47	283.20
559.64	212.99
559.80	278.52
559.97	208.31
560.13	262.14
560.30	271.50
560.46	264.48
560.63	252.78
560.79	262.14
560.96	229.37
561.12	308.95
561.29	301.93
561.45	304.27
561.61	278.52
561.78	283.20
561.94	236.39
562.11	271.50
562.27	306.61
562.44	145.11
562.60	264.48
562.77	294.91
562.93	320.65
563.10	257.46
563.26	189.58
563.42	264.48
563.59	276.18
563.75	266.82
563.92	299.59
564.08	250.44
564.24	257.46
564.41	257.46
564.57	252.78
564.74	259.80
564.90	191.92
565.07	241.08
565.23	224.69
565.39	208.31
565.56	220.01
565.72	187.24
565.88	173.20
566.05	196.60
566.21	262.14
566.38	236.39
566.54	299.59
566.70	231.71
566.87	220.01
567.03	290.23
567.19	241.08
567.36	245.76
567.52	198.95
567.68	212.99
567.85	257.46
568.01	234.05
568.17	294.91
568.34	196.60
568.50	301.93
568.66	196.60
568.83	278.52
568.99	208.31
569.15	205.97
569.32	184.90
569.48	234.05
569.64	236.39
569.81	217.67
569.97	245.76
570.13	241.08
570.30	290.23
570.46	248.10
570.62	184.90
570.78	283.20
570.95	215.33
571.11	245.76
571.27	259.80
571.43	210.65
571.60	236.39
571.76	250.44
571.92	166.18
572.09	201.29
572.25	229.37
572.41	177.88
572.57	252.78
572.74	231.71
572.90	177.88
573.06	318.31
573.22	210.65
573.38	220.01
573.55	318.31
573.71	266.82
573.87	250.44
574.03	208.31
574.20	215.33
574.36	259.80
574.52	234.05
574.68	180.22
574.84	231.71
575.01	217.67
575.17	224.69
575.33	283.20
575.49	266.82
575.65	320.65
575.82	304.27
575.98	301.93
576.14	229.37
576.30	341.72
576.46	526.62
576.62	634.29
576.79	592.16
576.95	557.05
577.11	386.19
577.27	290.23
577.43	332.36
577.59	330.02
577.75	245.76
577.92	243.42
578.08	262.14
578.24	224.69
578.40	318.31
578.56	425.98
578.72	629.60
578.88	627.26
579.04	543.00
579.21	358.10
579.37	360.44
579.53	362.78
579.69	374.49
579.85	369.80
580.01	456.40
580.17	365.12
580.33	351.08
580.49	339.38
580.65	353.42
580.82	346.40
580.98	276.18
581.14	327.68
581.30	313.63
581.46	365.12
581.62	332.36
581.78	381.51
581.94	365.12
582.10	346.40
582.26	332.36
582.42	374.49
582.58	440.02
582.74	362.78
582.90	400.23
583.06	440.02
583.22	423.64
583.38	346.40
583.54	414.27
583.70	425.98
583.86	393.21
584.02	435.34
584.18	440.02
584.34	423.64
584.50	433.00
584.66	388.53
584.82	365.12
584.98	395.55
585.14	393.21
585.30	374.49
585.46	351.08
585.62	386.19
585.78	395.55
585.94	348.74
586.10	425.98
586.26	367.46
586.42	456.40
586.58	456.40
586.74	535.98
586.90	596.84
587.06	550.03
587.22	568.75
587.38	552.37
587.54	500.87
587.70	367.46
587.86	489.17
588.02	351.08
588.18	372.15
588.34	409.59
588.49	365.12
588.65	390.87
588.81	294.91
588.97	287.89
589.13	264.48
589.29	341.72
589.45	334.70
589.61	266.82
589.77	379.17
589.93	276.18
590.08	379.17
590.24	383.85
590.40	318.31
590.56	287.89
590.72	388.53
590.88	341.72
591.04	346.40
591.20	287.89
591.35	355.76
591.51	292.57
591.67	290.23
591.83	374.49
591.99	390.87
592.15	355.76
592.31	376.83
592.46	358.10
592.62	381.51
592.78	444.70
592.94	425.98
593.10	479.81
593.26	444.70
593.41	383.85
593.57	388.53
593.73	325.33
593.89	325.33
594.05	304.27
594.20	255.12
594.36	273.84
594.52	243.42
594.68	287.89
594.84	259.80
594.99	315.97
595.15	308.95
595.31	276.18
595.47	416.62
595.62	278.52
595.78	308.95
595.94	360.44
596.10	266.82
596.25	292.57
596.41	285.55
596.57	259.80
596.73	250.44
596.88	205.97
597.04	234.05
597.20	210.65
597.36	376.83
597.51	264.48
597.67	290.23
597.83	252.78
597.99	365.12
598.14	355.76
598.30	287.89
598.46	348.74
598.61	344.06
598.77	365.12
598.93	339.38
599.09	330.02
599.24	320.65
599.40	355.76
599.56	332.36
599.71	294.91
599.87	297.25
600.03	266.82
600.18	322.99
600.34	252.78
600.50	238.73
600.65	264.48
600.81	280.86
600.97	308.95
601.12	236.39
601.28	325.33
601.44	212.99
601.59	299.59
601.75	327.68
601.91	266.82
602.06	278.52
602.22	355.76
602.37	250.44
602.53	255.12
602.69	285.55
602.84	241.08
603.00	222.35
603.16	285.55
603.31	257.46
603.47	294.91
603.62	212.99
603.78	238.73
603.94	346.40
604.09	287.89
604.25	351.08
604.40	294.91
604.56	248.10
604.71	327.68
604.87	241.08
605.03	262.14
605.18	313.63
605.34	283.20
605.49	196.60
605.65	173.20
605.80	245.76
605.96	292.57
606.12	294.91
606.27	276.18
606.43	287.89
606.58	294.91
606.74	339.38
606.89	297.25
607.05	428.32
607.20	322.99
607.36	311.29
607.51	337.04
607.67	388.53
607.82	383.85
607.98	437.68
608.13	374.49
608.29	386.19
608.44	409.59
608.60	250.44
608.75	472.79
608.91	437.68
609.06	493.85
609.22	528.96
609.37	538.32
609.53	538.32
609.68	674.07
609.84	723.23
609.99	748.97
610.15	873.02
610.30	1034.52
610.46	1289.64
610.61	1528.37
610.76	1940.30
610.92	2218.83
611.07	2506.71
611.23	2602.68
611.38	2459.90
