SpectraSuite Data File
++++++++++++++++++++++++++++++++++++
Date: Fri Oct 04 11:41:57 GMT-05:00 2013
User: price-jones
Dark Spectrum Present: No
Reference Spectrum Present: No
Number of Sampled Component Spectra: 1
Spectrometers: USB2+H05261
Integration Time (usec): 100000 (USB2+H05261)
Spectra Averaged: 1 (USB2+H05261)
Boxcar Smoothing: 0 (USB2+H05261)
Correct for Electrical Dark: No (USB2+H05261)
Strobe/Lamp Enabled: No (USB2+H05261)
Correct for Detector Non-linearity: No (USB2+H05261)
Correct for Stray Light: No (USB2+H05261)
Number of Pixels in Processed Spectrum: 2048
>>>>>Begin Processed Spectral Data<<<<<
365.73	53.83
365.92	53.83
366.12	53.83
366.32	0.00
366.52	0.00
366.72	2.34
366.91	0.00
367.11	0.00
367.31	0.00
367.51	0.00
367.70	0.00
367.90	0.00
368.10	0.00
368.30	0.00
368.49	0.00
368.69	0.00
368.89	0.00
369.09	0.00
369.28	0.00
369.48	0.00
369.68	0.00
369.87	0.00
370.07	0.00
370.27	11.70
370.47	7.02
370.66	0.00
370.86	0.00
371.06	67.88
371.25	49.15
371.45	95.96
371.65	72.56
371.84	65.54
372.04	25.75
372.24	65.54
372.44	42.13
372.63	107.66
372.83	91.28
373.03	98.30
373.22	95.96
373.42	49.15
373.62	121.71
373.81	74.90
374.01	159.16
374.21	135.75
374.40	9.36
374.60	191.92
374.79	159.16
374.99	168.52
375.19	81.92
375.38	84.26
375.58	102.98
375.78	196.60
375.97	128.73
376.17	224.69
376.37	154.48
376.56	215.33
376.76	140.43
376.95	131.07
377.15	72.56
377.35	95.96
377.54	95.96
377.74	107.66
377.93	114.69
378.13	84.26
378.33	119.37
378.52	81.92
378.72	145.11
378.91	145.11
379.11	77.24
379.31	93.62
379.50	51.49
379.70	175.54
379.89	168.52
380.09	196.60
380.28	133.41
380.48	79.58
380.68	126.39
380.87	49.15
381.07	168.52
381.26	142.77
381.46	156.82
381.65	93.62
381.85	114.69
382.04	102.98
382.24	147.45
382.43	119.37
382.63	138.09
382.83	39.79
383.02	133.41
383.22	126.39
383.41	65.54
383.61	156.82
383.80	95.96
384.00	95.96
384.19	93.62
384.39	63.19
384.58	135.75
384.78	77.24
384.97	42.13
385.17	131.07
385.36	35.11
385.56	177.88
385.75	152.13
385.95	152.13
386.14	98.30
386.34	37.45
386.53	149.79
386.72	58.51
386.92	173.20
387.11	138.09
387.31	135.75
387.50	149.79
387.70	102.98
387.89	110.01
388.09	107.66
388.28	105.32
388.48	60.85
388.67	128.73
388.86	81.92
389.06	51.49
389.25	168.52
389.45	119.37
389.64	124.05
389.84	81.92
390.03	128.73
390.22	159.16
390.42	56.17
390.61	114.69
390.81	112.35
391.00	98.30
391.19	175.54
391.39	98.30
391.58	128.73
391.78	51.49
391.97	107.66
392.16	58.51
392.36	191.92
392.55	107.66
392.75	138.09
392.94	102.98
393.13	128.73
393.33	39.79
393.52	121.71
393.71	95.96
393.91	145.11
394.10	135.75
394.29	74.90
394.49	149.79
394.68	105.32
394.88	161.50
395.07	105.32
395.26	100.64
395.46	79.58
395.65	175.54
395.84	65.54
396.04	187.24
396.23	56.17
396.42	91.28
396.62	135.75
396.81	124.05
397.00	65.54
397.19	112.35
397.39	182.56
397.58	98.30
397.77	37.45
397.97	100.64
398.16	107.66
398.35	140.43
398.55	102.98
398.74	30.43
398.93	105.32
399.12	140.43
399.32	110.01
399.51	84.26
399.70	51.49
399.90	159.16
400.09	180.22
400.28	163.84
400.47	166.18
400.67	187.24
400.86	65.54
401.05	170.86
401.24	210.65
401.44	88.94
401.63	53.83
401.82	154.48
402.01	51.49
402.21	107.66
402.40	86.60
402.59	128.73
402.78	152.13
402.97	88.94
403.17	114.69
403.36	156.82
403.55	177.88
403.74	46.81
403.93	152.13
404.13	245.76
404.32	147.45
404.51	252.78
404.70	229.37
404.89	187.24
405.09	170.86
405.28	128.73
405.47	67.88
405.66	135.75
405.85	182.56
406.05	77.24
406.24	56.17
406.43	189.58
406.62	161.50
406.81	145.11
407.00	182.56
407.20	140.43
407.39	135.75
407.58	119.37
407.77	117.03
407.96	121.71
408.15	182.56
408.34	121.71
408.54	93.62
408.73	163.84
408.92	98.30
409.11	145.11
409.30	166.18
409.49	142.77
409.68	175.54
409.87	159.16
410.07	156.82
410.26	152.13
410.45	184.90
410.64	93.62
410.83	175.54
411.02	119.37
411.21	159.16
411.40	114.69
411.59	81.92
411.78	128.73
411.98	60.85
412.17	135.75
412.36	173.20
412.55	156.82
412.74	196.60
412.93	173.20
413.12	91.28
413.31	154.48
413.50	180.22
413.69	107.66
413.88	159.16
414.07	91.28
414.26	126.39
414.45	105.32
414.64	236.39
414.83	149.79
415.02	149.79
415.22	147.45
415.41	168.52
415.60	46.81
415.79	102.98
415.98	212.99
416.17	79.58
416.36	173.20
416.55	65.54
416.74	110.01
416.93	215.33
417.12	128.73
417.31	145.11
417.50	131.07
417.69	105.32
417.88	149.79
418.07	88.94
418.26	105.32
418.45	135.75
418.64	189.58
418.83	98.30
419.02	124.05
419.21	238.73
419.39	173.20
419.58	177.88
419.77	128.73
419.96	170.86
420.15	243.42
420.34	182.56
420.53	110.01
420.72	173.20
420.91	32.77
421.10	175.54
421.29	117.03
421.48	142.77
421.67	182.56
421.86	161.50
422.05	126.39
422.24	133.41
422.43	91.28
422.61	142.77
422.80	208.31
422.99	166.18
423.18	126.39
423.37	140.43
423.56	135.75
423.75	114.69
423.94	142.77
424.13	112.35
424.32	84.26
424.50	133.41
424.69	152.13
424.88	198.95
425.07	74.90
425.26	238.73
425.45	163.84
425.64	70.22
425.83	163.84
426.01	140.43
426.20	98.30
426.39	201.29
426.58	88.94
426.77	119.37
426.96	126.39
427.15	149.79
427.33	140.43
427.52	152.13
427.71	196.60
427.90	243.42
428.09	175.54
428.28	30.43
428.46	180.22
428.65	107.66
428.84	231.71
429.03	163.84
429.22	102.98
429.40	91.28
429.59	145.11
429.78	184.90
429.97	182.56
430.16	135.75
430.34	131.07
430.53	117.03
430.72	105.32
430.91	126.39
431.10	187.24
431.28	161.50
431.47	124.05
431.66	147.45
431.85	117.03
432.03	77.24
432.22	163.84
432.41	196.60
432.60	203.63
432.79	135.75
432.97	205.97
433.16	51.49
433.35	81.92
433.54	161.50
433.72	198.95
433.91	170.86
434.10	138.09
434.28	135.75
434.47	201.29
434.66	231.71
434.85	105.32
435.03	262.14
435.22	571.09
435.41	940.90
435.59	943.24
435.78	720.88
435.97	444.70
436.16	250.44
436.34	114.69
436.53	217.67
436.72	166.18
436.90	112.35
437.09	189.58
437.28	243.42
437.46	149.79
437.65	182.56
437.84	147.45
438.02	159.16
438.21	98.30
438.40	168.52
438.58	72.56
438.77	135.75
438.96	110.01
439.14	194.26
439.33	95.96
439.52	81.92
439.70	229.37
439.89	175.54
440.08	93.62
440.26	140.43
440.45	229.37
440.63	184.90
440.82	227.03
441.01	198.95
441.19	194.26
441.38	133.41
441.57	173.20
441.75	131.07
441.94	210.65
442.12	236.39
442.31	95.96
442.50	170.86
442.68	163.84
442.87	140.43
443.05	152.13
443.24	100.64
443.43	156.82
443.61	241.08
443.80	175.54
443.98	196.60
444.17	117.03
444.35	208.31
444.54	128.73
444.73	53.83
444.91	142.77
445.10	168.52
445.28	161.50
445.47	180.22
445.65	112.35
445.84	163.84
446.02	147.45
446.21	56.17
446.39	196.60
446.58	159.16
446.77	152.13
446.95	177.88
447.14	191.92
447.32	173.20
447.51	133.41
447.69	156.82
447.88	117.03
448.06	114.69
448.25	152.13
448.43	142.77
448.62	156.82
448.80	231.71
448.99	133.41
449.17	131.07
449.36	166.18
449.54	227.03
449.73	154.48
449.91	222.35
450.10	259.80
450.28	222.35
450.46	163.84
450.65	212.99
450.83	210.65
451.02	161.50
451.20	128.73
451.39	187.24
451.57	140.43
451.76	236.39
451.94	135.75
452.13	166.18
452.31	191.92
452.49	198.95
452.68	133.41
452.86	252.78
453.05	203.63
453.23	187.24
453.42	124.05
453.60	152.13
453.78	198.95
453.97	149.79
454.15	173.20
454.34	112.35
454.52	154.48
454.70	210.65
454.89	154.48
455.07	128.73
455.26	168.52
455.44	189.58
455.62	140.43
455.81	95.96
455.99	175.54
456.17	208.31
456.36	170.86
456.54	154.48
456.73	198.95
456.91	166.18
457.09	236.39
457.28	100.64
457.46	107.66
457.64	184.90
457.83	142.77
458.01	138.09
458.19	175.54
458.38	128.73
458.56	156.82
458.74	145.11
458.93	135.75
459.11	173.20
459.29	191.92
459.48	145.11
459.66	156.82
459.84	243.42
460.03	273.84
460.21	138.09
460.39	212.99
460.57	210.65
460.76	131.07
460.94	187.24
461.12	243.42
461.31	175.54
461.49	191.92
461.67	121.71
461.85	187.24
462.04	234.05
462.22	627.26
462.40	152.13
462.59	135.75
462.77	163.84
462.95	91.28
463.13	280.86
463.32	236.39
463.50	168.52
463.68	201.29
463.86	175.54
464.05	131.07
464.23	231.71
464.41	224.69
464.59	210.65
464.78	173.20
464.96	191.92
465.14	166.18
465.32	177.88
465.50	168.52
465.69	161.50
465.87	145.11
466.05	191.92
466.23	215.33
466.41	154.48
466.60	161.50
466.78	128.73
466.96	180.22
467.14	142.77
467.32	168.52
467.51	236.39
467.69	194.26
467.87	140.43
468.05	147.45
468.23	135.75
468.41	205.97
468.60	243.42
468.78	154.48
468.96	229.37
469.14	156.82
469.32	159.16
469.50	196.60
469.69	124.05
469.87	212.99
470.05	175.54
470.23	180.22
470.41	119.37
470.59	102.98
470.77	187.24
470.95	131.07
471.14	220.01
471.32	112.35
471.50	220.01
471.68	140.43
471.86	152.13
472.04	128.73
472.22	140.43
472.40	145.11
472.58	112.35
472.77	156.82
472.95	203.63
473.13	198.95
473.31	210.65
473.49	152.13
473.67	84.26
473.85	147.45
474.03	145.11
474.21	191.92
474.39	238.73
474.57	212.99
474.75	187.24
474.93	138.09
475.12	175.54
475.30	180.22
475.48	234.05
475.66	163.84
475.84	198.95
476.02	142.77
476.20	114.69
476.38	196.60
476.56	250.44
476.74	189.58
476.92	126.39
477.10	133.41
477.28	163.84
477.46	156.82
477.64	229.37
477.82	173.20
478.00	147.45
478.18	149.79
478.36	187.24
478.54	145.11
478.72	203.63
478.90	145.11
479.08	208.31
479.26	264.48
479.44	236.39
479.62	138.09
479.80	175.54
479.98	208.31
480.16	173.20
480.34	175.54
480.52	117.03
480.70	210.65
480.88	173.20
481.06	198.95
481.24	196.60
481.41	194.26
481.59	205.97
481.77	147.45
481.95	159.16
482.13	224.69
482.31	248.10
482.49	161.50
482.67	191.92
482.85	166.18
483.03	318.31
483.21	290.23
483.39	203.63
483.57	287.89
483.74	210.65
483.92	203.63
484.10	292.57
484.28	231.71
484.46	238.73
484.64	175.54
484.82	212.99
485.00	257.46
485.18	280.86
485.35	290.23
485.53	287.89
485.71	301.93
485.89	308.95
486.07	278.52
486.25	299.59
486.43	325.33
486.61	346.40
486.78	330.02
486.96	271.50
487.14	229.37
487.32	250.44
487.50	337.04
487.68	320.65
487.85	290.23
488.03	346.40
488.21	259.80
488.39	339.38
488.57	285.55
488.75	259.80
488.92	475.13
489.10	266.82
489.28	322.99
489.46	299.59
489.64	287.89
489.81	283.20
489.99	334.70
490.17	271.50
490.35	383.85
490.53	318.31
490.70	203.63
490.88	322.99
491.06	294.91
491.24	280.86
491.41	308.95
491.59	315.97
491.77	262.14
491.95	205.97
492.13	280.86
492.30	330.02
492.48	269.16
492.66	283.20
492.84	355.76
493.01	294.91
493.19	358.10
493.37	245.76
493.54	318.31
493.72	313.63
493.90	280.86
494.08	243.42
494.25	315.97
494.43	290.23
494.61	262.14
494.79	262.14
494.96	266.82
495.14	299.59
495.32	297.25
495.49	322.99
495.67	271.50
495.85	311.29
496.02	280.86
496.20	236.39
496.38	332.36
496.55	266.82
496.73	238.73
496.91	313.63
497.09	234.05
497.26	290.23
497.44	262.14
497.62	311.29
497.79	325.33
497.97	241.08
498.14	269.16
498.32	339.38
498.50	248.10
498.67	222.35
498.85	259.80
499.03	248.10
499.20	297.25
499.38	198.95
499.56	292.57
499.73	271.50
499.91	294.91
500.08	210.65
500.26	217.67
500.44	250.44
500.61	257.46
500.79	234.05
500.97	234.05
501.14	196.60
501.32	184.90
501.49	283.20
501.67	212.99
501.84	266.82
502.02	166.18
502.20	365.12
502.37	248.10
502.55	292.57
502.72	163.84
502.90	266.82
503.07	227.03
503.25	224.69
503.43	220.01
503.60	238.73
503.78	227.03
503.95	154.48
504.13	182.56
504.30	227.03
504.48	271.50
504.65	283.20
504.83	198.95
505.01	301.93
505.18	222.35
505.36	203.63
505.53	217.67
505.71	227.03
505.88	322.99
506.06	229.37
506.23	245.76
506.41	208.31
506.58	285.55
506.76	287.89
506.93	198.95
507.11	243.42
507.28	215.33
507.46	189.58
507.63	203.63
507.81	177.88
507.98	248.10
508.16	203.63
508.33	152.13
508.50	266.82
508.68	229.37
508.85	215.33
509.03	241.08
509.20	250.44
509.38	259.80
509.55	259.80
509.73	299.59
509.90	280.86
510.08	269.16
510.25	208.31
510.42	231.71
510.60	217.67
510.77	283.20
510.95	271.50
511.12	269.16
511.30	280.86
511.47	315.97
511.64	283.20
511.82	241.08
511.99	243.42
512.17	201.29
512.34	220.01
512.51	255.12
512.69	224.69
512.86	273.84
513.04	299.59
513.21	252.78
513.38	203.63
513.56	191.92
513.73	280.86
513.90	301.93
514.08	149.79
514.25	273.84
514.43	212.99
514.60	236.39
514.77	159.16
514.95	245.76
515.12	243.42
515.29	287.89
515.47	252.78
515.64	224.69
515.81	203.63
515.99	238.73
516.16	238.73
516.33	292.57
516.51	217.67
516.68	196.60
516.85	217.67
517.03	175.54
517.20	269.16
517.37	259.80
517.54	264.48
517.72	147.45
517.89	255.12
518.06	135.75
518.24	362.78
518.41	273.84
518.58	224.69
518.75	189.58
518.93	227.03
519.10	234.05
519.27	205.97
519.45	304.27
519.62	325.33
519.79	269.16
519.96	283.20
520.14	273.84
520.31	220.01
520.48	287.89
520.65	170.86
520.83	278.52
521.00	285.55
521.17	301.93
521.34	238.73
521.52	264.48
521.69	184.90
521.86	205.97
522.03	318.31
522.20	269.16
522.38	212.99
522.55	205.97
522.72	266.82
522.89	276.18
523.07	273.84
523.24	259.80
523.41	264.48
523.58	149.79
523.75	280.86
523.92	224.69
524.10	252.78
524.27	252.78
524.44	166.18
524.61	215.33
524.78	229.37
524.96	273.84
525.13	318.31
525.30	220.01
525.47	215.33
525.64	283.20
525.81	318.31
525.98	227.03
526.16	229.37
526.33	163.84
526.50	194.26
526.67	203.63
526.84	191.92
527.01	227.03
527.18	308.95
527.36	259.80
527.53	189.58
527.70	255.12
527.87	210.65
528.04	250.44
528.21	227.03
528.38	330.02
528.55	266.82
528.72	313.63
528.89	269.16
529.07	210.65
529.24	248.10
529.41	341.72
529.58	234.05
529.75	205.97
529.92	276.18
530.09	231.71
530.26	283.20
530.43	215.33
530.60	250.44
530.77	273.84
530.94	311.29
531.11	276.18
531.28	313.63
531.46	177.88
531.63	212.99
531.80	318.31
531.97	236.39
532.14	264.48
532.31	301.93
532.48	301.93
532.65	269.16
532.82	280.86
532.99	269.16
533.16	273.84
533.33	348.74
533.50	299.59
533.67	318.31
533.84	297.25
534.01	290.23
534.18	243.42
534.35	294.91
534.52	241.08
534.69	278.52
534.86	358.10
535.03	327.68
535.20	355.76
535.37	290.23
535.54	355.76
535.71	262.14
535.88	353.42
536.05	217.67
536.22	337.04
536.38	224.69
536.55	262.14
536.72	341.72
536.89	320.65
537.06	255.12
537.23	255.12
537.40	264.48
537.57	416.62
537.74	421.30
537.91	425.98
538.08	442.36
538.25	425.98
538.42	374.49
538.59	428.32
538.75	404.91
538.92	440.02
539.09	440.02
539.26	507.90
539.43	489.17
539.60	510.24
539.77	587.47
539.94	540.66
540.11	662.37
540.28	615.56
540.44	695.14
540.61	758.33
540.78	760.67
540.95	884.72
541.12	973.66
541.29	1015.79
541.46	1128.14
541.62	1228.78
541.79	1135.16
541.96	1078.99
542.13	1048.56
542.30	1125.80
542.47	1158.57
542.63	987.71
542.80	1022.81
542.97	1055.58
543.14	990.05
543.31	1043.88
543.48	1057.92
543.64	1046.22
543.81	1062.60
543.98	1004.09
544.15	983.02
544.32	1022.81
544.48	1015.79
544.65	978.34
544.82	1102.39
544.99	983.02
545.16	980.68
545.32	924.51
545.49	1460.49
545.66	2195.42
545.83	2686.94
546.00	2487.99
546.16	1715.61
546.33	1266.23
546.50	1018.13
546.67	919.83
546.83	748.97
547.00	692.80
547.17	678.76
547.34	685.78
547.50	676.41
547.67	669.39
547.84	627.26
548.00	578.11
548.17	650.67
548.34	594.50
548.51	662.37
548.67	671.73
548.84	592.16
549.01	585.13
549.18	608.54
549.34	561.73
549.51	653.01
549.68	554.71
549.84	517.26
550.01	423.64
550.18	634.29
550.34	566.41
550.51	533.64
550.68	526.62
550.84	531.30
551.01	463.43
551.18	475.13
551.34	463.43
551.51	416.62
551.68	449.38
551.84	458.74
552.01	402.57
552.18	411.93
552.34	374.49
552.51	383.85
552.68	376.83
552.84	386.19
553.01	358.10
553.18	337.04
553.34	341.72
553.51	367.46
553.67	430.66
553.84	308.95
554.01	301.93
554.17	306.61
554.34	360.44
554.51	353.42
554.67	297.25
554.84	318.31
555.00	266.82
555.17	297.25
555.33	369.80
555.50	278.52
555.67	278.52
555.83	337.04
556.00	341.72
556.16	362.78
556.33	374.49
556.50	360.44
556.66	278.52
556.83	344.06
556.99	344.06
557.16	234.05
557.32	234.05
557.49	299.59
557.65	318.31
557.82	212.99
557.98	250.44
558.15	334.70
558.32	290.23
558.48	297.25
558.65	271.50
558.81	313.63
558.98	173.20
559.14	273.84
559.31	187.24
559.47	264.48
559.64	257.46
559.80	201.29
559.97	189.58
560.13	283.20
560.30	290.23
560.46	208.31
560.63	297.25
560.79	264.48
560.96	315.97
561.12	287.89
561.29	252.78
561.45	184.90
561.61	135.75
561.78	311.29
561.94	252.78
562.11	283.20
562.27	252.78
562.44	259.80
562.60	273.84
562.77	184.90
562.93	337.04
563.10	196.60
563.26	248.10
563.42	285.55
563.59	245.76
563.75	222.35
563.92	313.63
564.08	259.80
564.24	248.10
564.41	285.55
564.57	257.46
564.74	280.86
564.90	290.23
565.07	266.82
565.23	217.67
565.39	255.12
565.56	217.67
565.72	250.44
565.88	299.59
566.05	208.31
566.21	290.23
566.38	278.52
566.54	259.80
566.70	301.93
566.87	255.12
567.03	182.56
567.19	255.12
567.36	205.97
567.52	201.29
567.68	257.46
567.85	308.95
568.01	241.08
568.17	271.50
568.34	252.78
568.50	315.97
568.66	191.92
568.83	313.63
568.99	194.26
569.15	301.93
569.32	208.31
569.48	325.33
569.64	236.39
569.81	196.60
569.97	231.71
570.13	248.10
570.30	196.60
570.46	217.67
570.62	142.77
570.78	170.86
570.95	191.92
571.11	212.99
571.27	271.50
571.43	208.31
571.60	177.88
571.76	208.31
571.92	280.86
572.09	266.82
572.25	248.10
572.41	191.92
572.57	180.22
572.74	236.39
572.90	287.89
573.06	236.39
573.22	276.18
573.38	322.99
573.55	313.63
573.71	234.05
573.87	212.99
574.03	114.69
574.20	252.78
574.36	290.23
574.52	170.86
574.68	201.29
574.84	283.20
575.01	264.48
575.17	271.50
575.33	203.63
575.49	227.03
575.65	278.52
575.82	245.76
575.98	346.40
576.14	234.05
576.30	374.49
576.46	519.60
576.62	568.75
576.79	699.82
576.95	554.71
577.11	402.57
577.27	355.76
577.43	395.55
577.59	304.27
577.75	248.10
577.92	259.80
578.08	220.01
578.24	297.25
578.40	376.83
578.56	442.36
578.72	587.47
578.88	643.65
579.04	535.98
579.21	428.32
579.37	407.25
579.53	409.59
579.69	379.17
579.85	311.29
580.01	374.49
580.17	348.74
580.33	402.57
580.49	346.40
580.65	346.40
580.82	348.74
580.98	236.39
581.14	341.72
581.30	344.06
581.46	325.33
581.62	421.30
581.78	386.19
581.94	430.66
582.10	330.02
582.26	367.46
582.42	322.99
582.58	411.93
582.74	411.93
582.90	425.98
583.06	386.19
583.22	397.89
583.38	416.62
583.54	465.77
583.70	496.19
583.86	425.98
584.02	458.74
584.18	486.83
584.34	400.23
584.50	425.98
584.66	414.27
584.82	407.25
584.98	454.06
585.14	346.40
585.30	383.85
585.46	402.57
585.62	341.72
585.78	280.86
585.94	362.78
586.10	409.59
586.26	386.19
586.42	451.72
586.58	400.23
586.74	526.62
586.90	538.32
587.06	634.29
587.22	575.77
587.38	535.98
587.54	512.58
587.70	503.22
587.86	454.06
588.02	435.34
588.18	395.55
588.34	404.91
588.49	290.23
588.65	383.85
588.81	278.52
588.97	241.08
589.13	301.93
589.29	294.91
589.45	318.31
589.61	264.48
589.77	241.08
589.93	341.72
590.08	304.27
590.24	280.86
590.40	313.63
590.56	351.08
590.72	255.12
590.88	255.12
591.04	264.48
591.20	308.95
591.35	313.63
591.51	341.72
591.67	311.29
591.83	313.63
591.99	346.40
592.15	372.15
592.31	395.55
592.46	418.96
592.62	425.98
592.78	493.85
592.94	451.72
593.10	402.57
593.26	418.96
593.41	500.87
593.57	358.10
593.73	334.70
593.89	367.46
594.05	285.55
594.20	395.55
594.36	383.85
594.52	255.12
594.68	294.91
594.84	257.46
594.99	311.29
595.15	271.50
595.31	262.14
595.47	306.61
595.62	322.99
595.78	308.95
595.94	196.60
596.10	369.80
596.25	341.72
596.41	238.73
596.57	304.27
596.73	360.44
596.88	269.16
597.04	320.65
597.20	301.93
597.36	337.04
597.51	362.78
597.67	358.10
597.83	379.17
597.99	367.46
598.14	262.14
598.30	376.83
598.46	278.52
598.61	379.17
598.77	372.15
598.93	383.85
599.09	442.36
599.24	395.55
599.40	386.19
599.56	365.12
599.71	358.10
599.87	297.25
600.03	416.62
600.18	227.03
600.34	325.33
600.50	334.70
600.65	264.48
600.81	327.68
600.97	348.74
601.12	273.84
601.28	313.63
601.44	285.55
601.59	322.99
601.75	243.42
601.91	212.99
602.06	332.36
602.22	344.06
602.37	313.63
602.53	301.93
602.69	306.61
602.84	248.10
603.00	262.14
603.16	278.52
603.31	311.29
603.47	259.80
603.62	184.90
603.78	290.23
603.94	304.27
604.09	320.65
604.25	266.82
604.40	257.46
604.56	287.89
604.71	315.97
604.87	283.20
605.03	236.39
605.18	290.23
605.34	404.91
605.49	344.06
605.65	320.65
605.80	252.78
605.96	210.65
606.12	276.18
606.27	355.76
606.43	294.91
606.58	257.46
606.74	360.44
606.89	280.86
607.05	365.12
607.20	346.40
607.36	381.51
607.51	374.49
607.67	330.02
607.82	311.29
607.98	395.55
608.13	353.42
608.29	355.76
608.44	418.96
608.60	386.19
608.75	435.34
608.91	409.59
609.06	524.28
609.22	486.83
609.37	521.94
609.53	606.20
609.68	627.26
609.84	713.86
609.99	718.54
610.15	849.61
610.30	1027.50
610.46	1233.46
610.61	1563.48
610.76	1839.66
610.92	2328.83
611.07	2375.64
611.23	2665.87
611.38	2415.43
611.54	2071.37
