SpectraSuite Data File
++++++++++++++++++++++++++++++++++++
Date: Fri Oct 04 11:41:47 GMT-05:00 2013
User: price-jones
Dark Spectrum Present: No
Reference Spectrum Present: No
Number of Sampled Component Spectra: 1
Spectrometers: USB2+H05261
Integration Time (usec): 100000 (USB2+H05261)
Spectra Averaged: 1 (USB2+H05261)
Boxcar Smoothing: 0 (USB2+H05261)
Correct for Electrical Dark: No (USB2+H05261)
Strobe/Lamp Enabled: No (USB2+H05261)
Correct for Detector Non-linearity: No (USB2+H05261)
Correct for Stray Light: No (USB2+H05261)
Number of Pixels in Processed Spectrum: 2048
>>>>>Begin Processed Spectral Data<<<<<
365.73	18.72
365.92	18.72
366.12	18.72
366.32	0.00
366.52	0.00
366.72	28.09
366.91	0.00
367.11	0.00
367.31	0.00
367.51	0.00
367.70	0.00
367.90	0.00
368.10	0.00
368.30	0.00
368.49	0.00
368.69	88.94
368.89	0.00
369.09	0.00
369.28	0.00
369.48	0.00
369.68	0.00
369.87	21.06
370.07	0.00
370.27	4.68
370.47	21.06
370.66	0.00
370.86	46.81
371.06	44.47
371.25	124.05
371.45	32.77
371.65	88.94
371.84	53.83
372.04	93.62
372.24	117.03
372.44	81.92
372.63	107.66
372.83	95.96
373.03	114.69
373.22	91.28
373.42	70.22
373.62	100.64
373.81	154.48
374.01	154.48
374.21	156.82
374.40	154.48
374.60	177.88
374.79	88.94
374.99	112.35
375.19	95.96
375.38	110.01
375.58	107.66
375.78	184.90
375.97	142.77
376.17	140.43
376.37	140.43
376.56	98.30
376.76	110.01
376.95	88.94
377.15	91.28
377.35	154.48
377.54	77.24
377.74	138.09
377.93	65.54
378.13	86.60
378.33	124.05
378.52	77.24
378.72	112.35
378.91	152.13
379.11	100.64
379.31	79.58
379.50	110.01
379.70	154.48
379.89	177.88
380.09	163.84
380.28	138.09
380.48	95.96
380.68	102.98
380.87	105.32
381.07	124.05
381.26	140.43
381.46	102.98
381.65	201.29
381.85	140.43
382.04	126.39
382.24	114.69
382.43	51.49
382.63	70.22
382.83	93.62
383.02	128.73
383.22	215.33
383.41	121.71
383.61	86.60
383.80	105.32
384.00	84.26
384.19	49.15
384.39	166.18
384.58	93.62
384.78	70.22
384.97	159.16
385.17	128.73
385.36	117.03
385.56	74.90
385.75	0.00
385.95	79.58
386.14	191.92
386.34	168.52
386.53	152.13
386.72	84.26
386.92	140.43
387.11	145.11
387.31	117.03
387.50	114.69
387.70	74.90
387.89	131.07
388.09	79.58
388.28	133.41
388.48	79.58
388.67	44.47
388.86	147.45
389.06	98.30
389.25	217.67
389.45	145.11
389.64	152.13
389.84	152.13
390.03	110.01
390.22	56.17
390.42	102.98
390.61	30.43
390.81	140.43
391.00	156.82
391.19	145.11
391.39	70.22
391.58	39.79
391.78	119.37
391.97	133.41
392.16	159.16
392.36	170.86
392.55	154.48
392.75	149.79
392.94	105.32
393.13	133.41
393.33	74.90
393.52	39.79
393.71	175.54
393.91	114.69
394.10	145.11
394.29	51.49
394.49	67.88
394.68	23.41
394.88	177.88
395.07	32.77
395.26	173.20
395.46	100.64
395.65	93.62
395.84	208.31
396.04	220.01
396.23	63.19
396.42	152.13
396.62	152.13
396.81	145.11
397.00	126.39
397.19	117.03
397.39	49.15
397.58	147.45
397.77	65.54
397.97	112.35
398.16	84.26
398.35	163.84
398.55	105.32
398.74	81.92
398.93	201.29
399.12	58.51
399.32	95.96
399.51	156.82
399.70	124.05
399.90	184.90
400.09	154.48
400.28	173.20
400.47	161.50
400.67	168.52
400.86	105.32
401.05	121.71
401.24	166.18
401.44	114.69
401.63	166.18
401.82	177.88
402.01	161.50
402.21	177.88
402.40	166.18
402.59	142.77
402.78	117.03
402.97	170.86
403.17	154.48
403.36	159.16
403.55	168.52
403.74	423.64
403.93	1224.10
404.13	2513.74
404.32	2895.24
404.51	2190.74
404.70	1331.76
404.89	594.50
405.09	313.63
405.28	140.43
405.47	152.13
405.66	173.20
405.85	208.31
406.05	196.60
406.24	156.82
406.43	95.96
406.62	208.31
406.81	147.45
407.00	273.84
407.20	301.93
407.39	500.87
407.58	486.83
407.77	372.15
407.96	170.86
408.15	180.22
408.34	152.13
408.54	147.45
408.73	149.79
408.92	117.03
409.11	147.45
409.30	154.48
409.49	147.45
409.68	205.97
409.87	175.54
410.07	117.03
410.26	138.09
410.45	198.95
410.64	131.07
410.83	149.79
411.02	234.05
411.21	156.82
411.40	210.65
411.59	149.79
411.78	201.29
411.98	74.90
412.17	173.20
412.36	210.65
412.55	133.41
412.74	121.71
412.93	220.01
413.12	131.07
413.31	168.52
413.50	138.09
413.69	138.09
413.88	163.84
414.07	128.73
414.26	241.08
414.45	156.82
414.64	170.86
414.83	177.88
415.02	198.95
415.22	227.03
415.41	175.54
415.60	161.50
415.79	126.39
415.98	215.33
416.17	100.64
416.36	212.99
416.55	201.29
416.74	250.44
416.93	241.08
417.12	173.20
417.31	117.03
417.50	128.73
417.69	229.37
417.88	187.24
418.07	156.82
418.26	196.60
418.45	184.90
418.64	287.89
418.83	205.97
419.02	140.43
419.21	201.29
419.39	173.20
419.58	205.97
419.77	198.95
419.96	166.18
420.15	271.50
420.34	212.99
420.53	180.22
420.72	177.88
420.91	173.20
421.10	259.80
421.29	248.10
421.48	173.20
421.67	215.33
421.86	159.16
422.05	156.82
422.24	154.48
422.43	250.44
422.61	175.54
422.80	161.50
422.99	180.22
423.18	194.26
423.37	145.11
423.56	191.92
423.75	241.08
423.94	194.26
424.13	222.35
424.32	250.44
424.50	222.35
424.69	156.82
424.88	238.73
425.07	287.89
425.26	243.42
425.45	198.95
425.64	138.09
425.83	163.84
426.01	224.69
426.20	243.42
426.39	250.44
426.58	198.95
426.77	187.24
426.96	264.48
427.15	255.12
427.33	170.86
427.52	224.69
427.71	252.78
427.90	252.78
428.09	236.39
428.28	175.54
428.46	257.46
428.65	194.26
428.84	255.12
429.03	285.55
429.22	208.31
429.40	194.26
429.59	220.01
429.78	308.95
429.97	308.95
430.16	184.90
430.34	124.05
430.53	184.90
430.72	264.48
430.91	159.16
431.10	205.97
431.28	252.78
431.47	243.42
431.66	259.80
431.85	285.55
432.03	292.57
432.22	306.61
432.41	243.42
432.60	332.36
432.79	208.31
432.97	276.18
433.16	292.57
433.35	287.89
433.54	301.93
433.72	334.70
433.91	379.17
434.10	423.64
434.28	404.91
434.47	475.13
434.66	566.41
434.85	615.56
435.03	2218.83
435.22	7527.16
435.41	12599.10
435.59	11059.03
435.78	7091.82
435.97	3611.45
436.16	1348.15
436.34	594.50
436.53	423.64
436.72	334.70
436.90	341.72
437.09	315.97
437.28	308.95
437.46	285.55
437.65	294.91
437.84	290.23
438.02	301.93
438.21	301.93
438.40	283.20
438.58	285.55
438.77	231.71
438.96	283.20
439.14	290.23
439.33	306.61
439.52	271.50
439.70	238.73
439.89	248.10
440.08	175.54
440.26	243.42
440.45	348.74
440.63	344.06
440.82	266.82
441.01	301.93
441.19	278.52
441.38	234.05
441.57	257.46
441.75	348.74
441.94	330.02
442.12	238.73
442.31	306.61
442.50	248.10
442.68	318.31
442.87	320.65
443.05	259.80
443.24	224.69
443.43	278.52
443.61	299.59
443.80	264.48
443.98	276.18
444.17	222.35
444.35	299.59
444.54	266.82
444.73	231.71
444.91	250.44
445.10	241.08
445.28	238.73
445.47	238.73
445.65	283.20
445.84	318.31
446.02	231.71
446.21	248.10
446.39	231.71
446.58	212.99
446.77	325.33
446.95	259.80
447.14	311.29
447.32	322.99
447.51	168.52
447.69	325.33
447.88	210.65
448.06	369.80
448.25	231.71
448.43	234.05
448.62	337.04
448.80	215.33
448.99	292.57
449.17	208.31
449.36	215.33
449.54	379.17
449.73	243.42
449.91	224.69
450.10	313.63
450.28	332.36
450.46	346.40
450.65	285.55
450.83	287.89
451.02	315.97
451.20	306.61
451.39	278.52
451.57	210.65
451.76	271.50
451.94	299.59
452.13	266.82
452.31	224.69
452.49	241.08
452.68	266.82
452.86	301.93
453.05	318.31
453.23	320.65
453.42	208.31
453.60	196.60
453.78	224.69
453.97	215.33
454.15	229.37
454.34	250.44
454.52	276.18
454.70	330.02
454.89	262.14
455.07	220.01
455.26	259.80
455.44	297.25
455.62	351.08
455.81	341.72
455.99	264.48
456.17	304.27
456.36	313.63
456.54	353.42
456.73	315.97
456.91	229.37
457.09	217.67
457.28	339.38
457.46	194.26
457.64	341.72
457.83	248.10
458.01	252.78
458.19	259.80
458.38	266.82
458.56	362.78
458.74	292.57
458.93	285.55
459.11	290.23
459.29	304.27
459.48	259.80
459.66	344.06
459.84	273.84
460.03	287.89
460.21	271.50
460.39	292.57
460.57	243.42
460.76	241.08
460.94	243.42
461.12	280.86
461.31	360.44
461.49	339.38
461.67	266.82
461.85	187.24
462.04	215.33
462.22	725.57
462.40	325.33
462.59	299.59
462.77	262.14
462.95	189.58
463.13	248.10
463.32	301.93
463.50	212.99
463.68	259.80
463.86	299.59
464.05	252.78
464.23	198.95
464.41	325.33
464.59	220.01
464.78	259.80
464.96	269.16
465.14	229.37
465.32	238.73
465.50	287.89
465.69	229.37
465.87	271.50
466.05	194.26
466.23	208.31
466.41	255.12
466.60	262.14
466.78	257.46
466.96	306.61
467.14	287.89
467.32	306.61
467.51	215.33
467.69	278.52
467.87	332.36
468.05	262.14
468.23	315.97
468.41	220.01
468.60	191.92
468.78	283.20
468.96	292.57
469.14	252.78
469.32	257.46
469.50	250.44
469.69	194.26
469.87	327.68
470.05	259.80
470.23	238.73
470.41	217.67
470.59	290.23
470.77	269.16
470.95	222.35
471.14	227.03
471.32	241.08
471.50	236.39
471.68	238.73
471.86	236.39
472.04	227.03
472.22	299.59
472.40	212.99
472.58	266.82
472.77	166.18
472.95	257.46
473.13	269.16
473.31	266.82
473.49	203.63
473.67	203.63
473.85	301.93
474.03	203.63
474.21	285.55
474.39	290.23
474.57	276.18
474.75	360.44
474.93	273.84
475.12	264.48
475.30	297.25
475.48	276.18
475.66	241.08
475.84	245.76
476.02	241.08
476.20	266.82
476.38	332.36
476.56	327.68
476.74	280.86
476.92	220.01
477.10	313.63
477.28	278.52
477.46	266.82
477.64	201.29
477.82	299.59
478.00	318.31
478.18	299.59
478.36	327.68
478.54	283.20
478.72	273.84
478.90	355.76
479.08	322.99
479.26	243.42
479.44	367.46
479.62	252.78
479.80	393.21
479.98	425.98
480.16	327.68
480.34	379.17
480.52	372.15
480.70	397.89
480.88	353.42
481.06	456.40
481.24	390.87
481.41	430.66
481.59	423.64
481.77	409.59
481.95	430.66
482.13	561.73
482.31	433.00
482.49	472.79
482.67	592.16
482.85	578.11
483.03	620.24
483.21	725.57
483.39	734.93
483.57	688.12
483.74	791.10
483.92	767.70
484.10	777.06
484.28	898.77
484.46	931.53
484.64	912.81
484.82	973.66
485.00	1069.62
485.18	1039.20
485.35	1137.50
485.53	1060.26
485.71	1191.33
485.89	1238.14
486.07	1327.08
486.25	1329.42
486.43	1282.61
486.61	1327.08
486.78	1280.27
486.96	1224.10
487.14	1289.64
487.32	1397.30
487.50	1301.34
487.68	1308.36
487.85	1350.49
488.03	1289.64
488.21	1226.44
488.39	1172.61
488.57	1020.47
488.75	1165.59
488.92	1371.55
489.10	1095.37
489.28	1090.69
489.46	1015.79
489.64	1004.09
489.81	1034.52
489.99	950.26
490.17	1004.09
490.35	1055.58
490.53	957.28
490.70	917.49
490.88	1053.24
491.06	1123.46
491.24	1177.29
491.41	1076.65
491.59	968.98
491.77	1004.09
491.95	952.60
492.13	842.59
492.30	940.90
492.48	945.58
492.66	933.87
492.84	863.66
493.01	938.55
493.19	919.83
493.37	882.38
493.54	861.32
493.72	884.72
493.90	849.61
494.08	887.06
494.25	805.14
494.43	791.10
494.61	791.10
494.79	800.46
494.96	760.67
495.14	798.12
495.32	828.55
495.49	744.29
495.67	699.82
495.85	709.18
496.02	716.20
496.20	720.88
496.38	727.91
496.55	685.78
496.73	615.56
496.91	737.27
497.09	706.84
497.26	702.16
497.44	678.76
497.62	645.99
497.79	601.52
497.97	688.12
498.14	709.18
498.32	580.45
498.50	610.88
498.67	610.88
498.85	601.52
499.03	566.41
499.20	615.56
499.38	528.96
499.56	580.45
499.73	660.03
499.91	550.03
500.08	594.50
500.26	440.02
500.44	496.19
500.61	500.87
500.79	397.89
500.97	526.62
501.14	510.24
501.32	454.06
501.49	409.59
501.67	505.56
501.84	390.87
502.02	482.15
502.20	440.02
502.37	433.00
502.55	395.55
502.72	433.00
502.90	418.96
503.07	365.12
503.25	381.51
503.43	376.83
503.60	315.97
503.78	395.55
503.95	334.70
504.13	308.95
504.30	404.91
504.48	332.36
504.65	372.15
504.83	400.23
505.01	365.12
505.18	315.97
505.36	367.46
505.53	346.40
505.71	327.68
505.88	372.15
506.06	397.89
506.23	320.65
506.41	348.74
506.58	388.53
506.76	339.38
506.93	304.27
507.11	362.78
507.28	332.36
507.46	299.59
507.63	308.95
507.81	287.89
507.98	372.15
508.16	271.50
508.33	337.04
508.50	355.76
508.68	278.52
508.85	308.95
509.03	374.49
509.20	330.02
509.38	229.37
509.55	306.61
509.73	306.61
509.90	332.36
510.08	299.59
510.25	344.06
510.42	294.91
510.60	278.52
510.77	330.02
510.95	297.25
511.12	325.33
511.30	337.04
511.47	299.59
511.64	327.68
511.82	297.25
511.99	306.61
512.17	276.18
512.34	376.83
512.51	297.25
512.69	299.59
512.86	341.72
513.04	294.91
513.21	313.63
513.38	257.46
513.56	236.39
513.73	259.80
513.90	252.78
514.08	276.18
514.25	325.33
514.43	351.08
514.60	250.44
514.77	297.25
514.95	264.48
515.12	294.91
515.29	334.70
515.47	292.57
515.64	283.20
515.81	252.78
515.99	341.72
516.16	252.78
516.33	346.40
516.51	325.33
516.68	264.48
516.85	337.04
517.03	301.93
517.20	297.25
517.37	248.10
517.54	322.99
517.72	301.93
517.89	250.44
518.06	229.37
518.24	276.18
518.41	250.44
518.58	271.50
518.75	308.95
518.93	264.48
519.10	334.70
519.27	245.76
519.45	332.36
519.62	285.55
519.79	280.86
519.96	271.50
520.14	311.29
520.31	367.46
520.48	290.23
520.65	271.50
520.83	311.29
521.00	313.63
521.17	322.99
521.34	271.50
521.52	330.02
521.69	285.55
521.86	248.10
522.03	327.68
522.20	285.55
522.38	287.89
522.55	273.84
522.72	210.65
522.89	308.95
523.07	339.38
523.24	294.91
523.41	339.38
523.58	273.84
523.75	257.46
523.92	220.01
524.10	156.82
524.27	238.73
524.44	262.14
524.61	304.27
524.78	262.14
524.96	269.16
525.13	306.61
525.30	257.46
525.47	234.05
525.64	283.20
525.81	271.50
525.98	315.97
526.16	313.63
526.33	236.39
526.50	259.80
526.67	283.20
526.84	337.04
527.01	294.91
527.18	292.57
527.36	390.87
527.53	397.89
527.70	374.49
527.87	325.33
528.04	332.36
528.21	308.95
528.38	325.33
528.55	369.80
528.72	341.72
528.89	416.62
529.07	360.44
529.24	341.72
529.41	430.66
529.58	332.36
529.75	393.21
529.92	383.85
530.09	362.78
530.26	339.38
530.43	341.72
530.60	344.06
530.77	292.57
530.94	395.55
531.11	320.65
531.28	348.74
531.46	367.46
531.63	472.79
531.80	376.83
531.97	465.77
532.14	496.19
532.31	463.43
532.48	580.45
532.65	615.56
532.82	695.14
532.99	718.54
533.16	791.10
533.33	814.51
533.50	809.83
533.67	681.10
533.84	688.12
534.01	540.66
534.18	613.22
534.35	601.52
534.52	477.47
534.69	638.97
534.86	561.73
535.03	564.07
535.20	601.52
535.37	690.46
535.54	622.58
535.71	746.63
535.88	727.91
536.05	751.31
536.22	828.55
536.38	873.02
536.55	807.48
536.72	1060.26
536.89	1121.12
537.06	1270.91
537.23	1287.29
537.40	1430.07
537.57	1582.20
537.74	1591.56
537.91	1551.78
538.08	1673.48
538.25	1689.87
538.42	1727.32
538.59	1706.25
538.75	1722.63
538.92	1905.20
539.09	2115.84
539.26	2296.07
539.43	2523.10
539.60	2843.75
539.77	3075.46
539.94	3595.06
540.11	3929.76
540.28	4194.24
540.44	4669.37
540.61	5242.80
540.78	5984.75
540.95	6923.30
541.12	8287.84
541.29	9123.41
541.46	9214.69
541.62	9067.24
541.79	8746.58
541.96	8074.85
542.13	7559.93
542.30	7157.36
542.47	6815.64
542.63	6623.72
542.80	6382.64
542.97	6237.53
543.14	6314.77
543.31	6249.23
543.48	6326.47
543.64	6450.52
543.81	6513.71
543.98	6296.04
544.15	6382.64
544.32	6588.61
544.48	6382.64
544.65	6511.37
544.82	6406.05
544.99	6293.70
545.16	6382.64
545.32	7042.67
545.49	14452.81
545.66	22614.26
545.83	24332.21
546.00	19566.88
546.16	13905.12
546.33	10061.96
546.50	7723.77
546.67	6466.90
546.83	5731.97
547.00	5357.49
547.17	5341.10
547.34	5025.13
547.50	4812.14
547.67	4545.32
547.84	4241.05
548.00	4400.21
548.17	4145.09
548.34	3889.97
548.51	3885.29
548.67	3850.18
548.84	3520.17
549.01	3410.16
549.18	3204.19
549.34	3192.49
549.51	3052.06
549.68	2920.99
549.84	2677.57
550.01	2684.59
550.18	2684.59
550.34	2513.74
550.51	2370.96
550.68	2239.89
550.84	2026.90
551.01	2017.54
551.18	1952.01
551.34	1914.56
551.51	1788.17
551.68	1760.08
551.84	1694.55
552.01	1619.65
552.18	1586.88
552.34	1561.14
552.51	1432.41
552.68	1474.54
552.84	1331.76
553.01	1296.66
553.18	1282.61
553.34	1308.36
553.51	1252.19
553.67	1207.72
553.84	1163.25
554.01	1090.69
554.17	983.02
554.34	889.40
554.51	987.71
554.67	863.66
554.84	807.48
555.00	763.01
555.17	737.27
555.33	753.65
555.50	772.38
555.67	585.13
555.83	650.67
556.00	641.31
556.16	723.23
556.33	603.86
556.50	662.37
556.66	528.96
556.83	543.00
556.99	561.73
557.16	510.24
557.32	479.81
557.49	514.92
557.65	440.02
557.82	451.72
557.98	421.30
558.15	540.66
558.32	479.81
558.48	496.19
558.65	458.74
558.81	447.04
558.98	535.98
559.14	489.17
559.31	414.27
559.47	430.66
559.64	411.93
559.80	505.56
559.97	428.32
560.13	442.36
560.30	430.66
560.46	376.83
560.63	500.87
560.79	418.96
560.96	437.68
561.12	355.76
561.29	402.57
561.45	517.26
561.61	475.13
561.78	505.56
561.94	468.11
562.11	477.47
562.27	402.57
562.44	447.04
562.60	433.00
562.77	416.62
562.93	489.17
563.10	451.72
563.26	442.36
563.42	449.38
563.59	440.02
563.75	365.12
563.92	388.53
564.08	390.87
564.24	425.98
564.41	388.53
564.57	416.62
564.74	421.30
564.90	423.64
565.07	348.74
565.23	386.19
565.39	369.80
565.56	372.15
565.72	383.85
565.88	348.74
566.05	351.08
566.21	423.64
566.38	393.21
566.54	280.86
566.70	327.68
566.87	428.32
567.03	365.12
567.19	358.10
567.36	397.89
567.52	449.38
567.68	390.87
567.85	397.89
568.01	388.53
568.17	351.08
568.34	386.19
568.50	353.42
568.66	327.68
568.83	379.17
568.99	344.06
569.15	381.51
569.32	365.12
569.48	311.29
569.64	287.89
569.81	311.29
569.97	339.38
570.13	285.55
570.30	294.91
570.46	297.25
570.62	285.55
570.78	327.68
570.95	367.46
571.11	386.19
571.27	238.73
571.43	257.46
571.60	311.29
571.76	367.46
571.92	325.33
572.09	294.91
572.25	292.57
572.41	318.31
572.57	311.29
572.74	355.76
572.90	257.46
573.06	341.72
573.22	318.31
573.38	351.08
573.55	330.02
573.71	301.93
573.87	285.55
574.03	337.04
574.20	355.76
574.36	400.23
574.52	262.14
574.68	346.40
574.84	320.65
575.01	395.55
575.17	437.68
575.33	383.85
575.49	407.25
575.65	468.11
575.82	528.96
575.98	507.90
576.14	521.94
576.30	1132.82
576.46	3162.06
576.62	4280.84
576.79	3911.04
576.95	2935.03
577.11	2033.93
577.27	1584.54
577.43	1034.52
577.59	772.38
577.75	615.56
577.92	578.11
578.08	606.20
578.24	683.44
578.40	1191.33
578.56	3052.06
578.72	3873.59
578.88	3852.52
579.04	2771.19
579.21	1973.07
579.37	1530.71
579.53	1282.61
579.69	1460.49
579.85	1640.72
580.01	1771.79
580.17	1565.82
580.33	1455.81
580.49	1303.68
580.65	1055.58
580.82	1097.71
580.98	1006.43
581.14	1074.31
581.30	1207.72
581.46	1242.82
581.62	1378.58
581.78	1336.45
581.94	1401.98
582.10	1549.43
582.26	1416.02
582.42	1652.42
582.58	1680.50
582.74	1689.87
582.90	1732.00
583.06	1804.55
583.22	1696.89
583.38	1708.59
583.54	1739.02
583.70	1680.50
583.86	1643.06
584.02	1554.12
584.18	1694.55
584.34	1626.67
584.50	1666.46
584.66	1481.56
584.82	1563.48
584.98	1514.33
585.14	1584.54
585.30	1500.28
585.46	1448.79
585.62	1483.90
585.78	1446.45
585.94	1401.98
586.10	1497.94
586.26	1584.54
586.42	1846.68
586.58	2136.91
586.74	2600.34
586.90	2977.16
587.06	3145.68
587.22	2974.82
587.38	2724.38
587.54	2417.77
587.70	2054.99
587.86	1666.46
588.02	1519.01
588.18	1364.53
588.34	1266.23
588.49	1156.22
588.65	1193.67
588.81	1008.77
588.97	1039.20
589.13	1083.67
589.29	1043.88
589.45	1022.81
589.61	997.07
589.77	1015.79
589.93	959.62
590.08	1039.20
590.24	1118.78
590.40	1165.59
590.56	1064.94
590.72	1174.95
590.88	1156.22
591.04	1205.38
591.20	1226.44
591.35	1369.21
591.51	1390.28
591.67	1378.58
591.83	1427.73
591.99	1610.29
592.15	1816.26
592.31	1849.02
592.46	2031.58
592.62	2289.04
592.78	2256.28
592.94	2408.41
593.10	2134.57
593.26	2033.93
593.41	1984.77
593.57	1757.74
593.73	1467.52
593.89	1409.00
594.05	1261.55
594.20	1160.91
594.36	1093.03
594.52	1053.24
594.68	952.60
594.84	983.02
594.99	1097.71
595.15	891.74
595.31	940.90
595.47	959.62
595.62	945.58
595.78	847.27
595.94	940.90
596.10	968.98
596.25	854.30
596.41	959.62
596.57	954.94
596.73	973.66
596.88	957.28
597.04	926.85
597.20	875.36
597.36	966.64
597.51	957.28
597.67	1008.77
597.83	1004.09
597.99	1067.28
598.14	1142.18
598.30	1153.88
598.46	1228.78
598.61	1310.70
598.77	1406.66
598.93	1373.89
599.09	1420.71
599.24	1425.39
599.40	1441.77
599.56	1329.42
599.71	1343.47
599.87	1158.57
600.03	1163.25
600.18	1153.88
600.34	1064.94
600.50	983.02
600.65	870.68
600.81	905.79
600.97	882.38
601.12	891.74
601.28	798.12
601.44	849.61
601.59	695.14
601.75	844.93
601.91	662.37
602.06	660.03
602.22	737.27
602.37	657.69
602.53	641.31
602.69	676.41
602.84	667.05
603.00	599.18
603.16	688.12
603.31	718.54
603.47	643.65
603.62	674.07
603.78	723.23
603.94	713.86
604.09	683.44
604.25	734.93
604.40	812.17
604.56	744.29
604.71	739.61
604.87	711.52
605.03	788.76
605.18	800.46
605.34	959.62
605.49	807.48
605.65	833.23
605.80	861.32
605.96	840.25
606.12	887.06
606.27	938.55
606.43	889.40
606.58	931.53
606.74	997.07
606.89	1083.67
607.05	1050.90
607.20	1177.29
607.36	1299.00
607.51	1385.60
607.67	1350.49
607.82	1420.71
607.98	1486.24
