SpectraSuite Data File
++++++++++++++++++++++++++++++++++++
Date: Fri Oct 04 11:41:59 GMT-05:00 2013
User: price-jones
Dark Spectrum Present: No
Reference Spectrum Present: No
Number of Sampled Component Spectra: 1
Spectrometers: USB2+H05261
Integration Time (usec): 100000 (USB2+H05261)
Spectra Averaged: 1 (USB2+H05261)
Boxcar Smoothing: 0 (USB2+H05261)
Correct for Electrical Dark: No (USB2+H05261)
Strobe/Lamp Enabled: No (USB2+H05261)
Correct for Detector Non-linearity: No (USB2+H05261)
Correct for Stray Light: No (USB2+H05261)
Number of Pixels in Processed Spectrum: 2048
>>>>>Begin Processed Spectral Data<<<<<
365.73	0.00
365.92	0.00
366.12	0.00
366.32	0.00
366.52	0.00
366.72	0.00
366.91	0.00
367.11	0.00
367.31	7.02
367.51	0.00
367.70	0.00
367.90	0.00
368.10	0.00
368.30	7.02
368.49	0.00
368.69	0.00
368.89	0.00
369.09	0.00
369.28	18.72
369.48	0.00
369.68	0.00
369.87	0.00
370.07	11.70
370.27	21.06
370.47	0.00
370.66	0.00
370.86	28.09
371.06	91.28
371.25	93.62
371.45	49.15
371.65	84.26
371.84	28.09
372.04	0.00
372.24	60.85
372.44	30.43
372.63	112.35
372.83	46.81
373.03	58.51
373.22	70.22
373.42	107.66
373.62	60.85
373.81	147.45
374.01	138.09
374.21	145.11
374.40	180.22
374.60	149.79
374.79	93.62
374.99	187.24
375.19	95.96
375.38	77.24
375.58	107.66
375.78	135.75
375.97	138.09
376.17	107.66
376.37	110.01
376.56	86.60
376.76	133.41
376.95	138.09
377.15	105.32
377.35	140.43
377.54	131.07
377.74	86.60
377.93	112.35
378.13	147.45
378.33	149.79
378.52	37.45
378.72	119.37
378.91	124.05
379.11	119.37
379.31	110.01
379.50	81.92
379.70	128.73
379.89	152.13
380.09	154.48
380.28	149.79
380.48	173.20
380.68	88.94
380.87	140.43
381.07	117.03
381.26	91.28
381.46	77.24
381.65	44.47
381.85	105.32
382.04	88.94
382.24	149.79
382.43	133.41
382.63	79.58
382.83	173.20
383.02	121.71
383.22	152.13
383.41	121.71
383.61	93.62
383.80	88.94
384.00	138.09
384.19	65.54
384.39	159.16
384.58	86.60
384.78	95.96
384.97	102.98
385.17	126.39
385.36	93.62
385.56	140.43
385.75	152.13
385.95	128.73
386.14	187.24
386.34	100.64
386.53	128.73
386.72	114.69
386.92	138.09
387.11	128.73
387.31	114.69
387.50	102.98
387.70	84.26
387.89	56.17
388.09	140.43
388.28	70.22
388.48	112.35
388.67	28.09
388.86	142.77
389.06	126.39
389.25	149.79
389.45	110.01
389.64	147.45
389.84	74.90
390.03	72.56
390.22	79.58
390.42	74.90
390.61	138.09
390.81	88.94
391.00	131.07
391.19	215.33
391.39	128.73
391.58	184.90
391.78	63.19
391.97	79.58
392.16	154.48
392.36	102.98
392.55	100.64
392.75	189.58
392.94	79.58
393.13	114.69
393.33	133.41
393.52	91.28
393.71	63.19
393.91	124.05
394.10	117.03
394.29	147.45
394.49	98.30
394.68	117.03
394.88	140.43
395.07	138.09
395.26	98.30
395.46	152.13
395.65	67.88
395.84	81.92
396.04	198.95
396.23	110.01
396.42	147.45
396.62	46.81
396.81	84.26
397.00	102.98
397.19	74.90
397.39	163.84
397.58	161.50
397.77	44.47
397.97	159.16
398.16	149.79
398.35	140.43
398.55	145.11
398.74	95.96
398.93	140.43
399.12	95.96
399.32	32.77
399.51	133.41
399.70	124.05
399.90	154.48
400.09	81.92
400.28	166.18
400.47	58.51
400.67	184.90
400.86	175.54
401.05	159.16
401.24	28.09
401.44	121.71
401.63	138.09
401.82	124.05
402.01	44.47
402.21	81.92
402.40	114.69
402.59	133.41
402.78	133.41
402.97	131.07
403.17	147.45
403.36	156.82
403.55	114.69
403.74	100.64
403.93	177.88
404.13	241.08
404.32	210.65
404.51	234.05
404.70	159.16
404.89	138.09
405.09	168.52
405.28	126.39
405.47	86.60
405.66	119.37
405.85	67.88
406.05	175.54
406.24	119.37
406.43	159.16
406.62	77.24
406.81	110.01
407.00	203.63
407.20	114.69
407.39	156.82
407.58	117.03
407.77	175.54
407.96	95.96
408.15	67.88
408.34	81.92
408.54	117.03
408.73	126.39
408.92	138.09
409.11	117.03
409.30	203.63
409.49	124.05
409.68	161.50
409.87	133.41
410.07	84.26
410.26	60.85
410.45	166.18
410.64	124.05
410.83	112.35
411.02	133.41
411.21	60.85
411.40	112.35
411.59	121.71
411.78	112.35
411.98	168.52
412.17	102.98
412.36	156.82
412.55	121.71
412.74	142.77
412.93	119.37
413.12	152.13
413.31	138.09
413.50	93.62
413.69	91.28
413.88	105.32
414.07	67.88
414.26	138.09
414.45	138.09
414.64	142.77
414.83	147.45
415.02	231.71
415.22	131.07
415.41	128.73
415.60	142.77
415.79	168.52
415.98	173.20
416.17	173.20
416.36	182.56
416.55	133.41
416.74	147.45
416.93	159.16
417.12	110.01
417.31	117.03
417.50	119.37
417.69	262.14
417.88	182.56
418.07	114.69
418.26	86.60
418.45	149.79
418.64	128.73
418.83	135.75
419.02	149.79
419.21	159.16
419.39	124.05
419.58	147.45
419.77	51.49
419.96	131.07
420.15	205.97
420.34	117.03
420.53	112.35
420.72	147.45
420.91	110.01
421.10	138.09
421.29	161.50
421.48	161.50
421.67	208.31
421.86	189.58
422.05	131.07
422.24	95.96
422.43	149.79
422.61	114.69
422.80	163.84
422.99	140.43
423.18	102.98
423.37	222.35
423.56	168.52
423.75	142.77
423.94	126.39
424.13	152.13
424.32	74.90
424.50	110.01
424.69	117.03
424.88	175.54
425.07	168.52
425.26	128.73
425.45	154.48
425.64	161.50
425.83	119.37
426.01	98.30
426.20	133.41
426.39	124.05
426.58	147.45
426.77	191.92
426.96	166.18
427.15	159.16
427.33	107.66
427.52	98.30
427.71	117.03
427.90	126.39
428.09	126.39
428.28	126.39
428.46	105.32
428.65	175.54
428.84	100.64
429.03	156.82
429.22	156.82
429.40	119.37
429.59	72.56
429.78	145.11
429.97	124.05
430.16	135.75
430.34	161.50
430.53	128.73
430.72	121.71
430.91	212.99
431.10	131.07
431.28	203.63
431.47	142.77
431.66	105.32
431.85	95.96
432.03	147.45
432.22	224.69
432.41	168.52
432.60	203.63
432.79	135.75
432.97	250.44
433.16	152.13
433.35	205.97
433.54	161.50
433.72	166.18
433.91	154.48
434.10	37.45
434.28	147.45
434.47	173.20
434.66	180.22
434.85	196.60
435.03	287.89
435.22	566.41
435.41	943.24
435.59	997.07
435.78	702.16
435.97	367.46
436.16	250.44
436.34	191.92
436.53	196.60
436.72	201.29
436.90	138.09
437.09	175.54
437.28	126.39
437.46	131.07
437.65	168.52
437.84	138.09
438.02	163.84
438.21	175.54
438.40	126.39
438.58	84.26
438.77	133.41
438.96	138.09
439.14	105.32
439.33	189.58
439.52	128.73
439.70	191.92
439.89	159.16
440.08	131.07
440.26	215.33
440.45	283.20
440.63	191.92
440.82	175.54
441.01	145.11
441.19	147.45
441.38	93.62
441.57	184.90
441.75	145.11
441.94	205.97
442.12	133.41
442.31	149.79
442.50	166.18
442.68	177.88
442.87	210.65
443.05	149.79
443.24	161.50
443.43	191.92
443.61	191.92
443.80	149.79
443.98	238.73
444.17	196.60
444.35	91.28
444.54	198.95
444.73	161.50
444.91	229.37
445.10	163.84
445.28	138.09
445.47	170.86
445.65	154.48
445.84	250.44
446.02	170.86
446.21	142.77
446.39	105.32
446.58	138.09
446.77	145.11
446.95	149.79
447.14	170.86
447.32	196.60
447.51	161.50
447.69	95.96
447.88	191.92
448.06	245.76
448.25	217.67
448.43	168.52
448.62	140.43
448.80	124.05
448.99	138.09
449.17	180.22
449.36	163.84
449.54	184.90
449.73	168.52
449.91	208.31
450.10	205.97
450.28	215.33
450.46	191.92
450.65	126.39
450.83	161.50
451.02	184.90
451.20	128.73
451.39	215.33
451.57	212.99
451.76	159.16
451.94	252.78
452.13	231.71
452.31	231.71
452.49	154.48
452.68	138.09
452.86	227.03
453.05	222.35
453.23	208.31
453.42	117.03
453.60	182.56
453.78	205.97
453.97	133.41
454.15	149.79
454.34	191.92
454.52	191.92
454.70	163.84
454.89	154.48
455.07	234.05
455.26	222.35
455.44	154.48
455.62	180.22
455.81	231.71
455.99	243.42
456.17	191.92
456.36	133.41
456.54	177.88
456.73	208.31
456.91	142.77
457.09	215.33
457.28	215.33
457.46	159.16
457.64	124.05
457.83	182.56
458.01	46.81
458.19	175.54
458.38	182.56
458.56	236.39
458.74	133.41
458.93	208.31
459.11	154.48
459.29	77.24
459.48	154.48
459.66	243.42
459.84	262.14
460.03	243.42
460.21	173.20
460.39	210.65
460.57	91.28
460.76	198.95
460.94	161.50
461.12	248.10
461.31	271.50
461.49	159.16
461.67	187.24
461.85	177.88
462.04	173.20
462.22	674.07
462.40	166.18
462.59	170.86
462.77	117.03
462.95	163.84
463.13	205.97
463.32	205.97
463.50	121.71
463.68	203.63
463.86	154.48
464.05	191.92
464.23	149.79
464.41	212.99
464.59	201.29
464.78	156.82
464.96	112.35
465.14	119.37
465.32	135.75
465.50	168.52
465.69	191.92
465.87	170.86
466.05	124.05
466.23	138.09
466.41	168.52
466.60	194.26
466.78	131.07
466.96	210.65
467.14	196.60
467.32	191.92
467.51	170.86
467.69	177.88
467.87	182.56
468.05	128.73
468.23	177.88
468.41	198.95
468.60	166.18
468.78	198.95
468.96	180.22
469.14	138.09
469.32	210.65
469.50	135.75
469.69	212.99
469.87	210.65
470.05	156.82
470.23	166.18
470.41	105.32
470.59	133.41
470.77	177.88
470.95	245.76
471.14	187.24
471.32	135.75
471.50	231.71
471.68	135.75
471.86	177.88
472.04	175.54
472.22	187.24
472.40	217.67
472.58	128.73
472.77	140.43
472.95	243.42
473.13	287.89
473.31	156.82
473.49	124.05
473.67	133.41
473.85	126.39
474.03	163.84
474.21	236.39
474.39	196.60
474.57	250.44
474.75	182.56
474.93	187.24
475.12	210.65
475.30	245.76
475.48	170.86
475.66	156.82
475.84	196.60
476.02	243.42
476.20	201.29
476.38	215.33
476.56	227.03
476.74	163.84
476.92	177.88
477.10	161.50
477.28	208.31
477.46	217.67
477.64	222.35
477.82	114.69
478.00	241.08
478.18	196.60
478.36	205.97
478.54	135.75
478.72	149.79
478.90	177.88
479.08	196.60
479.26	180.22
479.44	117.03
479.62	154.48
479.80	224.69
479.98	243.42
480.16	142.77
480.34	175.54
480.52	191.92
480.70	243.42
480.88	152.13
481.06	154.48
481.24	208.31
481.41	215.33
481.59	259.80
481.77	238.73
481.95	210.65
482.13	241.08
482.31	241.08
482.49	191.92
482.67	264.48
482.85	189.58
483.03	194.26
483.21	175.54
483.39	245.76
483.57	308.95
483.74	255.12
483.92	245.76
484.10	238.73
484.28	222.35
484.46	163.84
484.64	266.82
484.82	266.82
485.00	257.46
485.18	259.80
485.35	248.10
485.53	285.55
485.71	264.48
485.89	266.82
486.07	203.63
486.25	330.02
486.43	351.08
486.61	348.74
486.78	306.61
486.96	250.44
487.14	287.89
487.32	362.78
487.50	273.84
487.68	311.29
487.85	306.61
488.03	297.25
488.21	290.23
488.39	294.91
488.57	341.72
488.75	257.46
488.92	594.50
489.10	287.89
489.28	269.16
489.46	299.59
489.64	290.23
489.81	344.06
489.99	297.25
490.17	210.65
490.35	280.86
490.53	327.68
490.70	285.55
490.88	287.89
491.06	241.08
491.24	257.46
491.41	362.78
491.59	327.68
491.77	255.12
491.95	257.46
492.13	266.82
492.30	255.12
492.48	222.35
492.66	285.55
492.84	255.12
493.01	245.76
493.19	285.55
493.37	374.49
493.54	259.80
493.72	259.80
493.90	224.69
494.08	332.36
494.25	231.71
494.43	285.55
494.61	327.68
494.79	231.71
494.96	255.12
495.14	325.33
495.32	283.20
495.49	241.08
495.67	262.14
495.85	325.33
496.02	196.60
496.20	290.23
496.38	257.46
496.55	264.48
496.73	264.48
496.91	271.50
497.09	283.20
497.26	269.16
497.44	252.78
497.62	243.42
497.79	189.58
497.97	287.89
498.14	332.36
498.32	259.80
498.50	252.78
498.67	313.63
498.85	243.42
499.03	231.71
499.20	297.25
499.38	273.84
499.56	222.35
499.73	299.59
499.91	278.52
500.08	229.37
500.26	229.37
500.44	245.76
500.61	238.73
500.79	184.90
500.97	273.84
501.14	285.55
501.32	252.78
501.49	290.23
501.67	201.29
501.84	266.82
502.02	231.71
502.20	255.12
502.37	252.78
502.55	234.05
502.72	217.67
502.90	189.58
503.07	159.16
503.25	283.20
503.43	224.69
503.60	224.69
503.78	262.14
503.95	220.01
504.13	205.97
504.30	224.69
504.48	252.78
504.65	234.05
504.83	210.65
505.01	231.71
505.18	243.42
505.36	194.26
505.53	252.78
505.71	245.76
505.88	222.35
506.06	273.84
506.23	224.69
506.41	201.29
506.58	264.48
506.76	276.18
506.93	259.80
507.11	234.05
507.28	266.82
507.46	231.71
507.63	301.93
507.81	212.99
507.98	266.82
508.16	287.89
508.33	201.29
508.50	304.27
508.68	278.52
508.85	327.68
509.03	196.60
509.20	292.57
509.38	241.08
509.55	248.10
509.73	262.14
509.90	278.52
510.08	238.73
510.25	245.76
510.42	236.39
510.60	250.44
510.77	215.33
510.95	229.37
511.12	290.23
511.30	224.69
511.47	346.40
511.64	304.27
511.82	236.39
511.99	217.67
512.17	220.01
512.34	271.50
512.51	262.14
512.69	266.82
512.86	208.31
513.04	231.71
513.21	257.46
513.38	224.69
513.56	220.01
513.73	248.10
513.90	271.50
514.08	238.73
514.25	250.44
514.43	320.65
514.60	252.78
514.77	152.13
514.95	250.44
515.12	255.12
515.29	245.76
515.47	280.86
515.64	287.89
515.81	191.92
515.99	283.20
516.16	280.86
516.33	241.08
516.51	161.50
516.68	264.48
516.85	252.78
517.03	231.71
517.20	245.76
517.37	280.86
517.54	180.22
517.72	238.73
517.89	215.33
518.06	220.01
518.24	262.14
518.41	283.20
518.58	266.82
518.75	182.56
518.93	205.97
519.10	273.84
519.27	182.56
519.45	262.14
519.62	248.10
519.79	245.76
519.96	266.82
520.14	231.71
520.31	236.39
520.48	238.73
520.65	315.97
520.83	241.08
521.00	222.35
521.17	264.48
521.34	243.42
521.52	238.73
521.69	215.33
521.86	299.59
522.03	271.50
522.20	236.39
522.38	292.57
522.55	227.03
522.72	330.02
522.89	241.08
523.07	259.80
523.24	264.48
523.41	201.29
523.58	301.93
523.75	147.45
523.92	238.73
524.10	145.11
524.27	264.48
524.44	224.69
524.61	273.84
524.78	208.31
524.96	311.29
525.13	332.36
525.30	339.38
525.47	313.63
525.64	257.46
525.81	348.74
525.98	308.95
526.16	276.18
526.33	149.79
526.50	231.71
526.67	243.42
526.84	278.52
527.01	250.44
527.18	191.92
527.36	201.29
527.53	266.82
527.70	327.68
527.87	224.69
528.04	339.38
528.21	255.12
528.38	283.20
528.55	241.08
528.72	287.89
528.89	308.95
529.07	266.82
529.24	311.29
529.41	273.84
529.58	262.14
529.75	276.18
529.92	250.44
530.09	170.86
530.26	318.31
530.43	306.61
530.60	236.39
530.77	264.48
530.94	220.01
531.11	234.05
531.28	280.86
531.46	250.44
531.63	238.73
531.80	301.93
531.97	215.33
532.14	280.86
532.31	297.25
532.48	290.23
532.65	262.14
532.82	208.31
532.99	367.46
533.16	299.59
533.33	360.44
533.50	386.19
533.67	301.93
533.84	285.55
534.01	273.84
534.18	224.69
534.35	283.20
534.52	283.20
534.69	358.10
534.86	255.12
535.03	374.49
535.20	276.18
535.37	397.89
535.54	248.10
535.71	269.16
535.88	280.86
536.05	252.78
536.22	252.78
536.38	294.91
536.55	301.93
536.72	367.46
536.89	283.20
537.06	330.02
537.23	290.23
537.40	397.89
537.57	376.83
537.74	425.98
537.91	425.98
538.08	390.87
538.25	404.91
538.42	386.19
538.59	388.53
538.75	463.43
538.92	360.44
539.09	411.93
539.26	454.06
539.43	449.38
539.60	475.13
539.77	470.45
539.94	557.05
540.11	526.62
540.28	653.01
540.44	690.46
540.61	692.80
540.78	772.38
540.95	858.98
541.12	997.07
541.29	999.41
541.46	1128.14
541.62	1057.92
541.79	1022.81
541.96	1060.26
542.13	945.58
542.30	994.73
542.47	1006.43
542.63	1001.75
542.80	924.51
542.97	1039.20
543.14	976.00
543.31	997.07
543.48	1078.99
543.64	976.00
543.81	973.66
543.98	1067.28
544.15	903.45
544.32	994.73
544.48	983.02
544.65	980.68
544.82	919.83
544.99	870.68
545.16	933.87
545.32	966.64
545.49	1519.01
545.66	2225.85
545.83	2670.55
546.00	2422.45
546.16	1565.82
546.33	1282.61
546.50	1011.11
546.67	828.55
546.83	690.46
547.00	751.31
547.17	676.41
547.34	676.41
547.50	681.10
547.67	601.52
547.84	636.63
548.00	655.35
548.17	545.34
548.34	624.92
548.51	732.59
548.67	519.60
548.84	587.47
549.01	594.50
549.18	606.20
549.34	528.96
549.51	519.60
549.68	552.37
549.84	512.58
550.01	507.90
550.18	540.66
550.34	510.24
550.51	440.02
550.68	428.32
550.84	442.36
551.01	479.81
551.18	414.27
551.34	404.91
551.51	442.36
551.68	423.64
551.84	400.23
552.01	376.83
552.18	397.89
552.34	475.13
552.51	449.38
552.68	402.57
552.84	376.83
553.01	337.04
553.18	315.97
553.34	367.46
553.51	285.55
553.67	325.33
553.84	339.38
554.01	454.06
554.17	404.91
554.34	346.40
554.51	311.29
554.67	299.59
554.84	341.72
555.00	255.12
555.17	294.91
555.33	322.99
555.50	250.44
555.67	308.95
555.83	231.71
556.00	294.91
556.16	454.06
556.33	315.97
556.50	287.89
556.66	297.25
556.83	243.42
556.99	255.12
557.16	304.27
557.32	308.95
557.49	271.50
557.65	248.10
557.82	292.57
557.98	264.48
558.15	262.14
558.32	236.39
558.48	255.12
558.65	271.50
558.81	339.38
558.98	255.12
559.14	311.29
559.31	215.33
559.47	266.82
559.64	283.20
559.80	332.36
559.97	248.10
560.13	306.61
560.30	220.01
560.46	262.14
560.63	292.57
560.79	283.20
560.96	259.80
561.12	257.46
561.29	245.76
561.45	257.46
561.61	163.84
561.78	320.65
561.94	224.69
562.11	241.08
562.27	201.29
562.44	212.99
562.60	250.44
562.77	205.97
562.93	351.08
563.10	262.14
563.26	161.50
563.42	266.82
563.59	299.59
563.75	224.69
563.92	229.37
564.08	269.16
564.24	313.63
564.41	294.91
564.57	299.59
564.74	257.46
564.90	301.93
565.07	280.86
565.23	355.76
565.39	217.67
565.56	236.39
565.72	205.97
565.88	215.33
566.05	299.59
566.21	271.50
566.38	308.95
566.54	248.10
566.70	227.03
566.87	259.80
567.03	224.69
567.19	322.99
567.36	290.23
567.52	269.16
567.68	217.67
567.85	236.39
568.01	222.35
568.17	217.67
568.34	149.79
568.50	269.16
568.66	299.59
568.83	269.16
568.99	259.80
569.15	383.85
569.32	290.23
569.48	182.56
569.64	304.27
569.81	217.67
569.97	250.44
570.13	259.80
570.30	234.05
570.46	248.10
570.62	203.63
570.78	170.86
570.95	287.89
571.11	306.61
571.27	252.78
571.43	311.29
571.60	308.95
571.76	259.80
571.92	245.76
572.09	212.99
572.25	212.99
572.41	278.52
572.57	255.12
572.74	313.63
572.90	248.10
573.06	304.27
573.22	224.69
573.38	306.61
573.55	198.95
573.71	210.65
573.87	278.52
574.03	220.01
574.20	229.37
574.36	313.63
574.52	250.44
574.68	294.91
574.84	308.95
575.01	205.97
575.17	313.63
575.33	135.75
575.49	318.31
575.65	351.08
575.82	191.92
575.98	290.23
576.14	234.05
576.30	301.93
576.46	465.77
576.62	617.90
576.79	653.01
576.95	657.69
577.11	381.51
577.27	337.04
577.43	362.78
577.59	266.82
577.75	212.99
577.92	348.74
578.08	184.90
578.24	159.16
578.40	344.06
578.56	428.32
578.72	566.41
578.88	627.26
579.04	465.77
579.21	454.06
579.37	395.55
579.53	320.65
579.69	341.72
579.85	428.32
580.01	430.66
580.17	390.87
580.33	376.83
580.49	360.44
580.65	416.62
580.82	337.04
580.98	304.27
581.14	365.12
581.30	390.87
581.46	313.63
581.62	397.89
581.78	299.59
581.94	353.42
582.10	386.19
582.26	428.32
582.42	381.51
582.58	388.53
582.74	423.64
582.90	332.36
583.06	397.89
583.22	367.46
583.38	451.72
583.54	383.85
583.70	414.27
583.86	463.43
584.02	355.76
584.18	435.34
584.34	386.19
584.50	355.76
584.66	437.68
584.82	416.62
584.98	414.27
585.14	421.30
585.30	451.72
585.46	376.83
585.62	367.46
585.78	402.57
585.94	306.61
586.10	381.51
586.26	433.00
586.42	402.57
586.58	451.72
586.74	510.24
586.90	543.00
587.06	561.73
587.22	475.13
587.38	430.66
587.54	465.77
587.70	379.17
587.86	454.06
588.02	416.62
588.18	418.96
588.34	355.76
588.49	238.73
588.65	280.86
588.81	299.59
588.97	301.93
589.13	227.03
589.29	348.74
589.45	362.78
589.61	341.72
589.77	344.06
589.93	315.97
590.08	203.63
590.24	238.73
590.40	278.52
590.56	337.04
590.72	334.70
590.88	283.20
591.04	355.76
591.20	301.93
591.35	327.68
591.51	386.19
591.67	355.76
591.83	306.61
591.99	397.89
592.15	407.25
592.31	379.17
592.46	425.98
592.62	472.79
592.78	484.49
592.94	447.04
593.10	423.64
593.26	447.04
593.41	425.98
593.57	430.66
593.73	423.64
593.89	416.62
594.05	325.33
594.20	290.23
594.36	339.38
594.52	320.65
594.68	276.18
594.84	318.31
594.99	369.80
595.15	224.69
595.31	334.70
595.47	287.89
595.62	299.59
595.78	276.18
595.94	280.86
596.10	304.27
596.25	297.25
596.41	318.31
596.57	212.99
596.73	234.05
596.88	243.42
597.04	280.86
597.20	220.01
597.36	315.97
597.51	341.72
597.67	224.69
597.83	238.73
597.99	301.93
598.14	287.89
598.30	308.95
598.46	273.84
598.61	379.17
598.77	376.83
598.93	341.72
599.09	414.27
599.24	283.20
599.40	402.57
599.56	337.04
599.71	355.76
599.87	248.10
600.03	285.55
600.18	308.95
600.34	304.27
600.50	280.86
600.65	266.82
600.81	325.33
600.97	271.50
601.12	306.61
601.28	337.04
601.44	259.80
601.59	255.12
601.75	271.50
601.91	250.44
602.06	325.33
602.22	381.51
602.37	287.89
602.53	262.14
602.69	325.33
602.84	231.71
603.00	330.02
603.16	287.89
603.31	285.55
603.47	318.31
603.62	273.84
603.78	280.86
603.94	266.82
604.09	212.99
604.25	297.25
604.40	276.18
604.56	290.23
604.71	224.69
604.87	276.18
605.03	334.70
605.18	294.91
605.34	285.55
605.49	325.33
605.65	318.31
605.80	205.97
605.96	304.27
606.12	411.93
606.27	243.42
606.43	276.18
606.58	358.10
606.74	327.68
606.89	287.89
607.05	315.97
607.20	318.31
607.36	294.91
607.51	271.50
607.67	369.80
607.82	304.27
607.98	416.62
608.13	414.27
608.29	358.10
608.44	423.64
608.60	442.36
608.75	465.77
608.91	498.53
609.06	477.47
609.22	437.68
609.37	465.77
609.53	573.43
609.68	636.63
609.84	603.86
609.99	645.99
610.15	863.66
610.30	945.58
610.46	1235.80
610.61	1537.73
610.76	1816.26
610.92	2132.23
611.07	2317.13
611.23	2476.29
611.38	2324.15
