SpectraSuite Data File
++++++++++++++++++++++++++++++++++++
Date: Fri Oct 04 11:41:47 GMT-05:00 2013
User: price-jones
Dark Spectrum Present: No
Reference Spectrum Present: No
Number of Sampled Component Spectra: 1
Spectrometers: USB2+H05261
Integration Time (usec): 100000 (USB2+H05261)
Spectra Averaged: 1 (USB2+H05261)
Boxcar Smoothing: 0 (USB2+H05261)
Correct for Electrical Dark: No (USB2+H05261)
Strobe/Lamp Enabled: No (USB2+H05261)
Correct for Detector Non-linearity: No (USB2+H05261)
Correct for Stray Light: No (USB2+H05261)
Number of Pixels in Processed Spectrum: 2048
>>>>>Begin Processed Spectral Data<<<<<
365.73	25.75
365.92	25.75
366.12	25.75
366.32	0.00
366.52	0.00
366.72	0.00
366.91	0.00
367.11	0.00
367.31	0.00
367.51	0.00
367.70	0.00
367.90	0.00
368.10	0.00
368.30	0.00
368.49	0.00
368.69	0.00
368.89	0.00
369.09	0.00
369.28	0.00
369.48	0.00
369.68	4.68
369.87	65.54
370.07	0.00
370.27	23.41
370.47	44.47
370.66	11.70
370.86	23.41
371.06	98.30
371.25	58.51
371.45	67.88
371.65	105.32
371.84	42.13
372.04	74.90
372.24	51.49
372.44	39.79
372.63	81.92
372.83	152.13
373.03	189.58
373.22	126.39
373.42	81.92
373.62	74.90
373.81	74.90
374.01	81.92
374.21	128.73
374.40	114.69
374.60	77.24
374.79	128.73
374.99	203.63
375.19	161.50
375.38	105.32
375.58	95.96
375.78	154.48
375.97	138.09
376.17	161.50
376.37	72.56
376.56	107.66
376.76	79.58
376.95	168.52
377.15	14.04
377.35	147.45
377.54	107.66
377.74	128.73
377.93	117.03
378.13	86.60
378.33	74.90
378.52	168.52
378.72	100.64
378.91	138.09
379.11	140.43
379.31	105.32
379.50	28.09
379.70	60.85
379.89	177.88
380.09	91.28
380.28	100.64
380.48	105.32
380.68	74.90
380.87	23.41
381.07	93.62
381.26	93.62
381.46	126.39
381.65	205.97
381.85	128.73
382.04	63.19
382.24	74.90
382.43	140.43
382.63	32.77
382.83	138.09
383.02	100.64
383.22	112.35
383.41	131.07
383.61	152.13
383.80	140.43
384.00	91.28
384.19	81.92
384.39	177.88
384.58	7.02
384.78	152.13
384.97	124.05
385.17	163.84
385.36	124.05
385.56	161.50
385.75	107.66
385.95	102.98
386.14	72.56
386.34	121.71
386.53	107.66
386.72	156.82
386.92	163.84
387.11	131.07
387.31	163.84
387.50	53.83
387.70	79.58
387.89	84.26
388.09	70.22
388.28	121.71
388.48	114.69
388.67	124.05
388.86	112.35
389.06	107.66
389.25	60.85
389.45	100.64
389.64	81.92
389.84	128.73
390.03	100.64
390.22	142.77
390.42	93.62
390.61	135.75
390.81	67.88
391.00	65.54
391.19	124.05
391.39	133.41
391.58	152.13
391.78	161.50
391.97	105.32
392.16	77.24
392.36	168.52
392.55	65.54
392.75	121.71
392.94	70.22
393.13	126.39
393.33	74.90
393.52	166.18
393.71	212.99
393.91	124.05
394.10	121.71
394.29	72.56
394.49	131.07
394.68	133.41
394.88	196.60
395.07	110.01
395.26	112.35
395.46	79.58
395.65	191.92
395.84	128.73
396.04	135.75
396.23	44.47
396.42	95.96
396.62	140.43
396.81	128.73
397.00	161.50
397.19	114.69
397.39	135.75
397.58	203.63
397.77	86.60
397.97	124.05
398.16	156.82
398.35	121.71
398.55	98.30
398.74	84.26
398.93	117.03
399.12	147.45
399.32	180.22
399.51	110.01
399.70	107.66
399.90	107.66
400.09	124.05
400.28	152.13
400.47	149.79
400.67	161.50
400.86	107.66
401.05	159.16
401.24	238.73
401.44	128.73
401.63	117.03
401.82	203.63
402.01	133.41
402.21	112.35
402.40	110.01
402.59	133.41
402.78	138.09
402.97	142.77
403.17	138.09
403.36	189.58
403.55	229.37
403.74	521.94
403.93	1383.26
404.13	2801.62
404.32	3045.04
404.51	2495.01
404.70	1467.52
404.89	580.45
405.09	283.20
405.28	198.95
405.47	215.33
405.66	201.29
405.85	168.52
406.05	102.98
406.24	180.22
406.43	159.16
406.62	91.28
406.81	238.73
407.00	252.78
407.20	407.25
407.39	538.32
407.58	496.19
407.77	337.04
407.96	264.48
408.15	124.05
408.34	236.39
408.54	168.52
408.73	126.39
408.92	166.18
409.11	119.37
409.30	126.39
409.49	93.62
409.68	173.20
409.87	140.43
410.07	107.66
410.26	222.35
410.45	124.05
410.64	95.96
410.83	205.97
411.02	98.30
411.21	131.07
411.40	121.71
411.59	166.18
411.78	184.90
411.98	95.96
412.17	142.77
412.36	138.09
412.55	166.18
412.74	231.71
412.93	198.95
413.12	149.79
413.31	184.90
413.50	161.50
413.69	184.90
413.88	250.44
414.07	128.73
414.26	145.11
414.45	159.16
414.64	187.24
414.83	163.84
415.02	269.16
415.22	198.95
415.41	210.65
415.60	152.13
415.79	149.79
415.98	187.24
416.17	203.63
416.36	229.37
416.55	236.39
416.74	241.08
416.93	231.71
417.12	201.29
417.31	229.37
417.50	231.71
417.69	203.63
417.88	198.95
418.07	166.18
418.26	175.54
418.45	220.01
418.64	173.20
418.83	201.29
419.02	184.90
419.21	215.33
419.39	182.56
419.58	180.22
419.77	175.54
419.96	163.84
420.15	201.29
420.34	191.92
420.53	175.54
420.72	236.39
420.91	215.33
421.10	205.97
421.29	243.42
421.48	210.65
421.67	262.14
421.86	198.95
422.05	205.97
422.24	205.97
422.43	198.95
422.61	166.18
422.80	159.16
422.99	224.69
423.18	205.97
423.37	173.20
423.56	212.99
423.75	168.52
423.94	229.37
424.13	257.46
424.32	196.60
424.50	215.33
424.69	161.50
424.88	341.72
425.07	173.20
425.26	203.63
425.45	210.65
425.64	264.48
425.83	262.14
426.01	264.48
426.20	264.48
426.39	276.18
426.58	238.73
426.77	168.52
426.96	248.10
427.15	212.99
427.33	238.73
427.52	236.39
427.71	248.10
427.90	217.67
428.09	236.39
428.28	262.14
428.46	201.29
428.65	250.44
428.84	245.76
429.03	255.12
429.22	224.69
429.40	168.52
429.59	212.99
429.78	184.90
429.97	184.90
430.16	238.73
430.34	236.39
430.53	215.33
430.72	262.14
430.91	243.42
431.10	184.90
431.28	201.29
431.47	306.61
431.66	234.05
431.85	245.76
432.03	271.50
432.22	294.91
432.41	290.23
432.60	262.14
432.79	222.35
432.97	229.37
433.16	285.55
433.35	285.55
433.54	369.80
433.72	372.15
433.91	304.27
434.10	386.19
434.28	533.64
434.47	430.66
434.66	582.79
434.85	718.54
435.03	2366.28
435.22	8107.62
435.41	14015.13
435.59	12233.98
435.78	7971.86
435.97	3964.87
436.16	1570.50
436.34	610.88
436.53	451.72
436.72	458.74
436.90	437.68
437.09	360.44
437.28	196.60
437.46	315.97
437.65	379.17
437.84	292.57
438.02	337.04
438.21	313.63
438.40	273.84
438.58	353.42
438.77	348.74
438.96	325.33
439.14	280.86
439.33	313.63
439.52	278.52
439.70	290.23
439.89	315.97
440.08	304.27
440.26	264.48
440.45	250.44
440.63	311.29
440.82	222.35
441.01	276.18
441.19	308.95
441.38	269.16
441.57	346.40
441.75	327.68
441.94	327.68
442.12	320.65
442.31	287.89
442.50	318.31
442.68	318.31
442.87	322.99
443.05	231.71
443.24	304.27
443.43	327.68
443.61	369.80
443.80	327.68
443.98	290.23
444.17	339.38
444.35	273.84
444.54	294.91
444.73	330.02
444.91	327.68
445.10	294.91
445.28	304.27
445.47	299.59
445.65	224.69
445.84	276.18
446.02	252.78
446.21	278.52
446.39	241.08
446.58	250.44
446.77	229.37
446.95	238.73
447.14	327.68
447.32	294.91
447.51	313.63
447.69	322.99
447.88	280.86
448.06	290.23
448.25	264.48
448.43	262.14
448.62	266.82
448.80	252.78
448.99	297.25
449.17	212.99
449.36	271.50
449.54	327.68
449.73	304.27
449.91	346.40
450.10	257.46
450.28	360.44
450.46	355.76
450.65	292.57
450.83	259.80
451.02	301.93
451.20	341.72
451.39	198.95
451.57	248.10
451.76	297.25
451.94	290.23
452.13	245.76
452.31	262.14
452.49	262.14
452.68	311.29
452.86	320.65
453.05	297.25
453.23	245.76
453.42	283.20
453.60	243.42
453.78	320.65
453.97	201.29
454.15	306.61
454.34	332.36
454.52	269.16
454.70	334.70
454.89	353.42
455.07	231.71
455.26	320.65
455.44	297.25
455.62	285.55
455.81	255.12
455.99	301.93
456.17	330.02
456.36	276.18
456.54	217.67
456.73	269.16
456.91	243.42
457.09	287.89
457.28	299.59
457.46	245.76
457.64	318.31
457.83	222.35
458.01	297.25
458.19	351.08
458.38	245.76
458.56	325.33
458.74	250.44
458.93	292.57
459.11	332.36
459.29	276.18
459.48	280.86
459.66	421.30
459.84	292.57
460.03	416.62
460.21	266.82
460.39	285.55
460.57	299.59
460.76	189.58
460.94	222.35
461.12	379.17
461.31	348.74
461.49	248.10
461.67	299.59
461.85	250.44
462.04	241.08
462.22	805.14
462.40	334.70
462.59	283.20
462.77	234.05
462.95	360.44
463.13	308.95
463.32	252.78
463.50	297.25
463.68	257.46
463.86	241.08
464.05	339.38
464.23	313.63
464.41	215.33
464.59	280.86
464.78	308.95
464.96	304.27
465.14	313.63
465.32	278.52
465.50	262.14
465.69	379.17
465.87	227.03
466.05	278.52
466.23	245.76
466.41	337.04
466.60	266.82
466.78	301.93
466.96	346.40
467.14	252.78
467.32	334.70
467.51	292.57
467.69	278.52
467.87	283.20
468.05	264.48
468.23	276.18
468.41	327.68
468.60	301.93
468.78	245.76
468.96	280.86
469.14	266.82
469.32	187.24
469.50	238.73
469.69	271.50
469.87	285.55
470.05	257.46
470.23	236.39
470.41	241.08
470.59	248.10
470.77	203.63
470.95	255.12
471.14	304.27
471.32	248.10
471.50	285.55
471.68	236.39
471.86	255.12
472.04	299.59
472.22	292.57
472.40	231.71
472.58	231.71
472.77	257.46
472.95	259.80
473.13	297.25
473.31	280.86
473.49	294.91
473.67	238.73
473.85	327.68
474.03	278.52
474.21	287.89
474.39	320.65
474.57	322.99
474.75	266.82
474.93	259.80
475.12	241.08
475.30	292.57
475.48	255.12
475.66	292.57
475.84	283.20
476.02	259.80
476.20	320.65
476.38	290.23
476.56	433.00
476.74	276.18
476.92	243.42
477.10	308.95
477.28	250.44
477.46	266.82
477.64	252.78
477.82	311.29
478.00	313.63
478.18	278.52
478.36	234.05
478.54	337.04
478.72	280.86
478.90	334.70
479.08	325.33
479.26	290.23
479.44	322.99
479.62	344.06
479.80	341.72
479.98	315.97
480.16	287.89
480.34	386.19
480.52	425.98
480.70	414.27
480.88	381.51
481.06	348.74
481.24	430.66
481.41	423.64
481.59	512.58
481.77	521.94
481.95	486.83
482.13	613.22
482.31	435.34
482.49	585.13
482.67	606.20
482.85	655.35
483.03	662.37
483.21	683.44
483.39	716.20
483.57	791.10
483.74	861.32
483.92	772.38
484.10	910.47
484.28	863.66
484.46	1043.88
484.64	1043.88
484.82	1011.11
485.00	1139.84
485.18	1128.14
485.35	1233.46
485.53	1203.04
485.71	1341.13
485.89	1371.55
486.07	1320.06
486.25	1451.13
486.43	1437.09
486.61	1362.19
486.78	1439.43
486.96	1364.53
487.14	1460.49
487.32	1430.07
487.50	1397.30
487.68	1390.28
487.85	1329.42
488.03	1451.13
488.21	1331.76
488.39	1324.74
488.57	1303.68
488.75	1139.84
488.92	1469.86
489.10	1254.53
489.28	1186.65
489.46	1153.88
489.64	1196.01
489.81	1137.50
489.99	1095.37
490.17	1057.92
490.35	1109.41
490.53	1093.03
490.70	1086.01
490.88	1118.78
491.06	1083.67
491.24	1245.16
491.41	1219.42
491.59	1217.08
491.77	1041.54
491.95	1055.58
492.13	1041.54
492.30	1048.56
492.48	1006.43
492.66	1076.65
492.84	959.62
493.01	931.53
493.19	945.58
493.37	992.39
493.54	936.21
493.72	870.68
493.90	926.85
494.08	826.21
494.25	840.25
494.43	858.98
494.61	844.93
494.79	840.25
494.96	830.89
495.14	856.64
495.32	816.85
495.49	833.23
495.67	744.29
495.85	837.91
496.02	763.01
496.20	765.36
496.38	819.19
496.55	664.71
496.73	758.33
496.91	685.78
497.09	800.46
497.26	676.41
497.44	706.84
497.62	713.86
497.79	744.29
497.97	702.16
498.14	709.18
498.32	580.45
498.50	587.47
498.67	662.37
498.85	596.84
499.03	709.18
499.20	599.18
499.38	533.64
499.56	521.94
499.73	653.01
499.91	547.69
500.08	458.74
500.26	496.19
500.44	580.45
500.61	468.11
500.79	463.43
500.97	505.56
501.14	596.84
501.32	503.22
501.49	470.45
501.67	407.25
501.84	409.59
502.02	470.45
502.20	430.66
502.37	447.04
502.55	369.80
502.72	479.81
502.90	395.55
503.07	404.91
503.25	390.87
503.43	402.57
503.60	425.98
503.78	365.12
503.95	409.59
504.13	355.76
504.30	430.66
504.48	395.55
504.65	397.89
504.83	372.15
505.01	369.80
505.18	365.12
505.36	376.83
505.53	330.02
505.71	301.93
505.88	397.89
506.06	327.68
506.23	337.04
506.41	334.70
506.58	414.27
506.76	365.12
506.93	330.02
507.11	304.27
507.28	341.72
507.46	362.78
507.63	278.52
507.81	297.25
507.98	353.42
508.16	325.33
508.33	348.74
508.50	278.52
508.68	348.74
508.85	276.18
509.03	308.95
509.20	348.74
509.38	280.86
509.55	374.49
509.73	325.33
509.90	308.95
510.08	292.57
510.25	369.80
510.42	262.14
510.60	290.23
510.77	315.97
510.95	327.68
511.12	400.23
511.30	393.21
511.47	283.20
511.64	360.44
511.82	315.97
511.99	339.38
512.17	273.84
512.34	220.01
512.51	259.80
512.69	313.63
512.86	337.04
513.04	308.95
513.21	353.42
513.38	320.65
513.56	322.99
513.73	243.42
513.90	266.82
514.08	271.50
514.25	332.36
514.43	346.40
514.60	252.78
514.77	262.14
514.95	283.20
515.12	257.46
515.29	346.40
515.47	269.16
515.64	283.20
515.81	273.84
515.99	308.95
516.16	348.74
516.33	294.91
516.51	322.99
516.68	241.08
516.85	294.91
517.03	243.42
517.20	301.93
517.37	355.76
517.54	271.50
517.72	306.61
517.89	301.93
518.06	159.16
518.24	313.63
518.41	353.42
518.58	262.14
518.75	341.72
518.93	278.52
519.10	205.97
519.27	313.63
519.45	292.57
519.62	269.16
519.79	297.25
519.96	250.44
520.14	168.52
520.31	266.82
520.48	255.12
520.65	337.04
520.83	203.63
521.00	360.44
521.17	297.25
521.34	278.52
521.52	304.27
521.69	290.23
521.86	227.03
522.03	280.86
522.20	362.78
522.38	278.52
522.55	266.82
522.72	346.40
522.89	304.27
523.07	341.72
523.24	313.63
523.41	320.65
523.58	262.14
523.75	313.63
523.92	283.20
524.10	325.33
524.27	292.57
524.44	278.52
524.61	320.65
524.78	294.91
524.96	252.78
525.13	266.82
525.30	362.78
525.47	348.74
525.64	393.21
525.81	320.65
525.98	306.61
526.16	255.12
526.33	283.20
526.50	299.59
526.67	294.91
526.84	271.50
527.01	292.57
527.18	266.82
527.36	332.36
527.53	273.84
527.70	346.40
527.87	287.89
528.04	318.31
528.21	255.12
528.38	376.83
528.55	278.52
528.72	355.76
528.89	339.38
529.07	304.27
529.24	334.70
529.41	301.93
529.58	362.78
529.75	325.33
529.92	301.93
530.09	365.12
530.26	306.61
530.43	369.80
530.60	402.57
530.77	383.85
530.94	390.87
531.11	386.19
531.28	397.89
531.46	390.87
531.63	421.30
531.80	390.87
531.97	433.00
532.14	444.70
532.31	550.03
532.48	528.96
532.65	641.31
532.82	688.12
532.99	826.21
533.16	887.06
533.33	823.87
533.50	830.89
533.67	765.36
533.84	655.35
534.01	622.58
534.18	526.62
534.35	540.66
534.52	622.58
534.69	730.25
534.86	683.44
535.03	624.92
535.20	617.90
535.37	723.23
535.54	669.39
535.71	739.61
535.88	870.68
536.05	746.63
536.22	959.62
536.38	983.02
536.55	1008.77
536.72	1060.26
536.89	1270.91
537.06	1357.51
537.23	1401.98
537.40	1549.43
537.57	1678.16
537.74	1837.32
537.91	1776.47
538.08	1769.44
538.25	1769.44
538.42	1907.54
538.59	1921.58
538.75	2022.22
538.92	2036.27
539.09	2356.92
539.26	2527.78
539.43	2825.03
539.60	3190.15
539.77	3353.99
539.94	3948.48
540.11	4381.48
540.28	4594.47
540.44	5100.03
540.61	5666.44
540.78	6469.24
540.95	7751.85
541.12	9069.58
541.29	9991.75
541.46	10352.19
541.62	10235.16
541.79	9486.19
541.96	8992.34
542.13	8468.06
542.30	7955.48
542.47	7534.18
542.63	7255.66
542.80	6822.66
542.97	6909.26
543.14	6916.28
543.31	6942.03
543.48	7122.25
543.64	7122.25
543.81	7070.76
543.98	6979.48
544.15	7028.63
544.32	7122.25
544.48	6881.18
544.65	7101.19
544.82	7033.31
544.99	7000.54
545.16	7213.53
545.32	7838.45
545.49	15625.42
545.66	25132.67
545.83	26574.44
546.00	21474.42
546.16	15094.11
546.33	11150.31
546.50	8416.57
546.67	6984.16
546.83	6267.95
547.00	5867.72
547.17	5771.76
547.34	5455.79
547.50	5371.53
547.67	5163.22
547.84	4765.33
548.00	4704.48
548.17	4608.51
548.34	4374.46
548.51	4264.46
548.67	4119.34
548.84	3831.46
549.01	3885.29
549.18	3679.32
549.34	3398.46
549.51	3353.99
549.68	3042.70
549.84	3026.31
550.01	2916.31
550.18	2874.18
550.34	2820.35
550.51	2612.04
550.68	2602.68
550.84	2352.24
551.01	2286.70
551.18	2087.76
551.34	1947.33
551.51	1987.11
551.68	1928.60
551.84	1762.42
552.01	1762.42
552.18	1757.74
552.34	1610.29
552.51	1586.88
552.68	1507.30
552.84	1474.54
553.01	1446.45
553.18	1345.81
553.34	1261.55
553.51	1249.85
553.67	1186.65
553.84	1294.32
554.01	1228.78
554.17	1146.86
554.34	1029.84
554.51	968.98
554.67	882.38
554.84	945.58
555.00	940.90
555.17	772.38
555.33	856.64
555.50	805.14
555.67	711.52
555.83	627.26
556.00	683.44
556.16	823.87
556.33	620.24
556.50	500.87
556.66	631.94
556.83	596.84
556.99	601.52
557.16	599.18
557.32	582.79
557.49	547.69
557.65	552.37
557.82	599.18
557.98	533.64
558.15	514.92
558.32	491.51
558.48	538.32
558.65	526.62
558.81	493.85
558.98	454.06
559.14	404.91
559.31	482.15
559.47	468.11
559.64	414.27
559.80	416.62
559.97	465.77
560.13	482.15
560.30	435.34
560.46	425.98
560.63	472.79
560.79	449.38
560.96	470.45
561.12	470.45
561.29	470.45
561.45	404.91
561.61	456.40
561.78	535.98
561.94	421.30
562.11	491.51
562.27	418.96
562.44	407.25
562.60	395.55
562.77	369.80
562.93	554.71
563.10	449.38
563.26	407.25
563.42	411.93
563.59	437.68
563.75	386.19
563.92	390.87
564.08	416.62
564.24	418.96
564.41	493.85
564.57	351.08
564.74	407.25
564.90	409.59
565.07	369.80
565.23	322.99
565.39	322.99
565.56	423.64
565.72	409.59
565.88	386.19
566.05	423.64
566.21	334.70
566.38	383.85
566.54	337.04
566.70	339.38
566.87	414.27
567.03	339.38
567.19	355.76
567.36	430.66
567.52	376.83
567.68	355.76
567.85	435.34
568.01	365.12
568.17	318.31
568.34	383.85
568.50	358.10
568.66	353.42
568.83	390.87
568.99	402.57
569.15	353.42
569.32	355.76
569.48	362.78
569.64	327.68
569.81	379.17
569.97	339.38
570.13	360.44
570.30	339.38
570.46	245.76
570.62	308.95
570.78	299.59
570.95	330.02
571.11	332.36
571.27	390.87
571.43	276.18
571.60	376.83
571.76	332.36
571.92	285.55
572.09	318.31
572.25	313.63
572.41	327.68
572.57	283.20
572.74	297.25
572.90	374.49
573.06	383.85
573.22	315.97
573.38	367.46
573.55	444.70
573.71	402.57
573.87	404.91
574.03	407.25
574.20	313.63
574.36	358.10
574.52	376.83
574.68	393.21
574.84	325.33
575.01	386.19
575.17	402.57
575.33	447.04
575.49	533.64
575.65	395.55
575.82	461.09
575.98	557.05
576.14	540.66
576.30	1287.29
576.46	3332.92
576.62	4706.82
576.79	4337.01
576.95	3279.09
577.11	2174.36
577.27	1633.69
577.43	1210.06
577.59	889.40
577.75	713.86
577.92	648.33
578.08	573.43
578.24	716.20
578.40	1380.92
578.56	3309.52
578.72	4369.78
578.88	4215.30
579.04	3084.83
579.21	2319.47
579.37	1657.10
579.53	1404.32
579.69	1474.54
579.85	1827.96
580.01	1863.07
580.17	1729.66
580.33	1584.54
580.49	1493.26
580.65	1266.23
580.82	1256.87
580.98	1083.67
581.14	1109.41
581.30	1291.98
581.46	1357.51
581.62	1430.07
581.78	1448.79
581.94	1629.01
582.10	1797.53
582.26	1797.53
582.42	1820.94
582.58	1818.60
582.74	1827.96
582.90	1837.32
583.06	1912.22
583.22	1788.17
583.38	1921.58
583.54	1928.60
583.70	1813.92
583.86	1863.07
584.02	1842.00
584.18	1820.94
584.34	1680.50
584.50	1694.55
584.66	1764.76
584.82	1755.40
584.98	1575.18
585.14	1797.53
585.30	1715.61
585.46	1657.10
585.62	1563.48
585.78	1612.63
585.94	1563.48
586.10	1544.75
586.26	1741.36
586.42	2062.01
586.58	2286.70
586.74	2771.19
586.90	3248.66
587.06	3353.99
587.22	3391.44
587.38	2874.18
587.54	2626.08
587.70	2256.28
587.86	1853.70
588.02	1589.22
588.18	1530.71
588.34	1453.47
588.49	1355.17
588.65	1263.89
588.81	1184.31
588.97	1069.62
589.13	1074.31
589.29	1029.84
589.45	1163.25
589.61	1046.22
589.77	1181.97
589.93	1151.54
590.08	1118.78
590.24	1198.35
590.40	1125.80
590.56	1226.44
590.72	1217.08
590.88	1196.01
591.04	1308.36
591.20	1280.27
591.35	1453.47
591.51	1514.33
591.67	1509.65
591.83	1596.25
591.99	1757.74
592.15	1825.62
592.31	1975.41
592.46	2204.78
592.62	2417.77
592.78	2448.20
592.94	2593.31
593.10	2387.35
593.26	2253.94
593.41	2211.81
593.57	2033.93
593.73	1652.42
593.89	1643.06
594.05	1420.71
594.20	1322.40
594.36	1123.46
594.52	1184.31
594.68	1149.20
594.84	1001.75
594.99	1146.86
595.15	964.30
595.31	933.87
595.47	1074.31
595.62	1006.43
595.78	926.85
595.94	1018.13
596.10	1004.09
596.25	999.41
596.41	1032.18
596.57	961.96
596.73	950.26
596.88	1029.84
597.04	1069.62
597.20	952.60
597.36	1048.56
597.51	1046.22
597.67	1090.69
597.83	1142.18
597.99	1196.01
598.14	1219.42
598.30	1418.36
598.46	1439.43
598.61	1380.92
598.77	1474.54
598.93	1547.09
599.09	1516.67
599.24	1542.41
599.40	1643.06
599.56	1341.13
599.71	1385.60
599.87	1291.98
600.03	1235.80
600.18	1284.95
600.34	1163.25
600.50	1067.28
600.65	1041.54
600.81	952.60
600.97	980.68
601.12	905.79
601.28	903.45
601.44	835.57
601.59	851.96
601.75	863.66
601.91	791.10
602.06	760.67
602.22	807.48
602.37	755.99
602.53	681.10
602.69	685.78
602.84	662.37
603.00	739.61
603.16	772.38
603.31	732.59
603.47	767.70
603.62	688.12
603.78	788.76
603.94	807.48
604.09	788.76
604.25	753.65
604.40	844.93
604.56	809.83
604.71	819.19
604.87	748.97
605.03	842.59
605.18	877.70
605.34	870.68
605.49	821.53
605.65	875.36
605.80	870.68
605.96	933.87
606.12	961.96
606.27	1046.22
606.43	1043.88
606.58	1095.37
606.74	1078.99
606.89	1121.12
607.05	1200.69
607.20	1306.02
607.36	1348.15
607.51	1355.17
607.67	1530.71
