SpectraSuite Data File
++++++++++++++++++++++++++++++++++++
Date: Fri Oct 04 11:42:31 GMT-05:00 2013
User: price-jones
Dark Spectrum Present: No
Reference Spectrum Present: No
Number of Sampled Component Spectra: 1
Spectrometers: USB2+H05261
Integration Time (usec): 100000 (USB2+H05261)
Spectra Averaged: 1 (USB2+H05261)
Boxcar Smoothing: 0 (USB2+H05261)
Correct for Electrical Dark: No (USB2+H05261)
Strobe/Lamp Enabled: No (USB2+H05261)
Correct for Detector Non-linearity: No (USB2+H05261)
Correct for Stray Light: No (USB2+H05261)
Number of Pixels in Processed Spectrum: 2048
>>>>>Begin Processed Spectral Data<<<<<
365.73	79.58
365.92	79.58
366.12	79.58
366.32	0.00
366.52	0.00
366.72	28.09
366.91	0.00
367.11	0.00
367.31	0.00
367.51	0.00
367.70	0.00
367.90	0.00
368.10	0.00
368.30	0.00
368.49	0.00
368.69	0.00
368.89	0.00
369.09	0.00
369.28	0.00
369.48	0.00
369.68	0.00
369.87	28.09
370.07	14.04
370.27	2.34
370.47	25.75
370.66	51.49
370.86	0.00
371.06	70.22
371.25	163.84
371.45	7.02
371.65	100.64
371.84	46.81
372.04	0.00
372.24	67.88
372.44	124.05
372.63	37.45
372.83	93.62
373.03	4.68
373.22	126.39
373.42	105.32
373.62	72.56
373.81	173.20
374.01	135.75
374.21	149.79
374.40	152.13
374.60	187.24
374.79	95.96
374.99	84.26
375.19	39.79
375.38	110.01
375.58	74.90
375.78	142.77
375.97	128.73
376.17	112.35
376.37	128.73
376.56	173.20
376.76	124.05
376.95	98.30
377.15	210.65
377.35	161.50
377.54	65.54
377.74	35.11
377.93	84.26
378.13	149.79
378.33	81.92
378.52	100.64
378.72	184.90
378.91	149.79
379.11	105.32
379.31	110.01
379.50	91.28
379.70	112.35
379.89	135.75
380.09	30.43
380.28	65.54
380.48	58.51
380.68	67.88
380.87	28.09
381.07	56.17
381.26	107.66
381.46	105.32
381.65	119.37
381.85	91.28
382.04	93.62
382.24	152.13
382.43	131.07
382.63	105.32
382.83	93.62
383.02	74.90
383.22	91.28
383.41	35.11
383.61	67.88
383.80	145.11
384.00	142.77
384.19	11.70
384.39	63.19
384.58	93.62
384.78	98.30
384.97	166.18
385.17	100.64
385.36	189.58
385.56	51.49
385.75	114.69
385.95	84.26
386.14	74.90
386.34	131.07
386.53	154.48
386.72	100.64
386.92	124.05
387.11	110.01
387.31	154.48
387.50	105.32
387.70	35.11
387.89	84.26
388.09	149.79
388.28	79.58
388.48	93.62
388.67	177.88
388.86	135.75
389.06	88.94
389.25	91.28
389.45	145.11
389.64	95.96
389.84	63.19
390.03	77.24
390.22	81.92
390.42	173.20
390.61	37.45
390.81	131.07
391.00	79.58
391.19	117.03
391.39	135.75
391.58	119.37
391.78	105.32
391.97	124.05
392.16	100.64
392.36	56.17
392.55	140.43
392.75	126.39
392.94	102.98
393.13	84.26
393.33	105.32
393.52	74.90
393.71	168.52
393.91	117.03
394.10	58.51
394.29	159.16
394.49	112.35
394.68	35.11
394.88	126.39
395.07	124.05
395.26	131.07
395.46	112.35
395.65	110.01
395.84	166.18
396.04	110.01
396.23	72.56
396.42	77.24
396.62	142.77
396.81	102.98
397.00	65.54
397.19	131.07
397.39	105.32
397.58	161.50
397.77	131.07
397.97	175.54
398.16	133.41
398.35	126.39
398.55	79.58
398.74	117.03
398.93	119.37
399.12	156.82
399.32	126.39
399.51	154.48
399.70	110.01
399.90	114.69
400.09	70.22
400.28	205.97
400.47	112.35
400.67	95.96
400.86	138.09
401.05	145.11
401.24	105.32
401.44	156.82
401.63	133.41
401.82	149.79
402.01	107.66
402.21	133.41
402.40	65.54
402.59	63.19
402.78	56.17
402.97	93.62
403.17	77.24
403.36	121.71
403.55	105.32
403.74	191.92
403.93	102.98
404.13	304.27
404.32	241.08
404.51	283.20
404.70	184.90
404.89	145.11
405.09	182.56
405.28	86.60
405.47	93.62
405.66	184.90
405.85	110.01
406.05	152.13
406.24	121.71
406.43	126.39
406.62	102.98
406.81	217.67
407.00	189.58
407.20	152.13
407.39	262.14
407.58	140.43
407.77	124.05
407.96	119.37
408.15	98.30
408.34	147.45
408.54	107.66
408.73	163.84
408.92	93.62
409.11	184.90
409.30	119.37
409.49	21.06
409.68	110.01
409.87	53.83
410.07	189.58
410.26	110.01
410.45	234.05
410.64	100.64
410.83	114.69
411.02	135.75
411.21	65.54
411.40	189.58
411.59	107.66
411.78	105.32
411.98	65.54
412.17	138.09
412.36	105.32
412.55	135.75
412.74	140.43
412.93	173.20
413.12	105.32
413.31	140.43
413.50	70.22
413.69	177.88
413.88	121.71
414.07	121.71
414.26	142.77
414.45	131.07
414.64	124.05
414.83	126.39
415.02	110.01
415.22	163.84
415.41	133.41
415.60	110.01
415.79	126.39
415.98	177.88
416.17	180.22
416.36	107.66
416.55	110.01
416.74	184.90
416.93	140.43
417.12	131.07
417.31	189.58
417.50	166.18
417.69	210.65
417.88	102.98
418.07	135.75
418.26	156.82
418.45	81.92
418.64	149.79
418.83	196.60
419.02	135.75
419.21	182.56
419.39	159.16
419.58	93.62
419.77	212.99
419.96	102.98
420.15	142.77
420.34	124.05
420.53	163.84
420.72	154.48
420.91	149.79
421.10	175.54
421.29	124.05
421.48	126.39
421.67	131.07
421.86	110.01
422.05	145.11
422.24	149.79
422.43	119.37
422.61	98.30
422.80	149.79
422.99	138.09
423.18	149.79
423.37	140.43
423.56	266.82
423.75	161.50
423.94	163.84
424.13	117.03
424.32	198.95
424.50	196.60
424.69	91.28
424.88	138.09
425.07	133.41
425.26	117.03
425.45	168.52
425.64	142.77
425.83	161.50
426.01	149.79
426.20	91.28
426.39	121.71
426.58	112.35
426.77	119.37
426.96	133.41
427.15	128.73
427.33	119.37
427.52	198.95
427.71	177.88
427.90	147.45
428.09	149.79
428.28	133.41
428.46	124.05
428.65	166.18
428.84	184.90
429.03	208.31
429.22	163.84
429.40	217.67
429.59	142.77
429.78	203.63
429.97	166.18
430.16	74.90
430.34	88.94
430.53	140.43
430.72	198.95
430.91	187.24
431.10	84.26
431.28	152.13
431.47	140.43
431.66	121.71
431.85	112.35
432.03	156.82
432.22	184.90
432.41	142.77
432.60	168.52
432.79	182.56
432.97	248.10
433.16	194.26
433.35	180.22
433.54	208.31
433.72	212.99
433.91	243.42
434.10	131.07
434.28	121.71
434.47	56.17
434.66	208.31
434.85	152.13
435.03	262.14
435.22	603.86
435.41	1004.09
435.59	1071.97
435.78	875.36
435.97	484.49
436.16	313.63
436.34	175.54
436.53	180.22
436.72	177.88
436.90	154.48
437.09	163.84
437.28	236.39
437.46	107.66
437.65	168.52
437.84	145.11
438.02	166.18
438.21	229.37
438.40	126.39
438.58	217.67
438.77	177.88
438.96	156.82
439.14	135.75
439.33	173.20
439.52	224.69
439.70	217.67
439.89	250.44
440.08	163.84
440.26	170.86
440.45	182.56
440.63	145.11
440.82	161.50
441.01	126.39
441.19	124.05
441.38	145.11
441.57	102.98
441.75	196.60
441.94	227.03
442.12	152.13
442.31	210.65
442.50	159.16
442.68	145.11
442.87	168.52
443.05	138.09
443.24	191.92
443.43	182.56
443.61	152.13
443.80	117.03
443.98	182.56
444.17	117.03
444.35	117.03
444.54	182.56
444.73	93.62
444.91	177.88
445.10	152.13
445.28	189.58
445.47	152.13
445.65	133.41
445.84	159.16
446.02	217.67
446.21	187.24
446.39	154.48
446.58	245.76
446.77	159.16
446.95	252.78
447.14	205.97
447.32	152.13
447.51	159.16
447.69	210.65
447.88	128.73
448.06	220.01
448.25	145.11
448.43	191.92
448.62	163.84
448.80	156.82
448.99	187.24
449.17	161.50
449.36	210.65
449.54	189.58
449.73	110.01
449.91	135.75
450.10	156.82
450.28	278.52
450.46	236.39
450.65	152.13
450.83	184.90
451.02	152.13
451.20	241.08
451.39	145.11
451.57	98.30
451.76	88.94
451.94	205.97
452.13	189.58
452.31	212.99
452.49	147.45
452.68	250.44
452.86	159.16
453.05	234.05
453.23	196.60
453.42	126.39
453.60	208.31
453.78	168.52
453.97	147.45
454.15	175.54
454.34	208.31
454.52	198.95
454.70	166.18
454.89	180.22
455.07	138.09
455.26	133.41
455.44	196.60
455.62	131.07
455.81	191.92
455.99	131.07
456.17	163.84
456.36	180.22
456.54	173.20
456.73	175.54
456.91	208.31
457.09	147.45
457.28	163.84
457.46	156.82
457.64	140.43
457.83	98.30
458.01	170.86
458.19	184.90
458.38	145.11
458.56	222.35
458.74	93.62
458.93	88.94
459.11	163.84
459.29	205.97
459.48	173.20
459.66	210.65
459.84	203.63
460.03	278.52
460.21	198.95
460.39	95.96
460.57	196.60
460.76	184.90
460.94	198.95
461.12	194.26
461.31	231.71
461.49	173.20
461.67	180.22
461.85	220.01
462.04	173.20
462.22	285.55
462.40	222.35
462.59	184.90
462.77	173.20
462.95	198.95
463.13	201.29
463.32	187.24
463.50	227.03
463.68	184.90
463.86	152.13
464.05	163.84
464.23	191.92
464.41	173.20
464.59	154.48
464.78	177.88
464.96	142.77
465.14	156.82
465.32	88.94
465.50	152.13
465.69	205.97
465.87	124.05
466.05	208.31
466.23	140.43
466.41	142.77
466.60	215.33
466.78	198.95
466.96	238.73
467.14	224.69
467.32	102.98
467.51	234.05
467.69	184.90
467.87	252.78
468.05	147.45
468.23	196.60
468.41	208.31
468.60	131.07
468.78	168.52
468.96	196.60
469.14	110.01
469.32	124.05
469.50	128.73
469.69	168.52
469.87	142.77
470.05	110.01
470.23	203.63
470.41	112.35
470.59	163.84
470.77	182.56
470.95	194.26
471.14	278.52
471.32	196.60
471.50	231.71
471.68	128.73
471.86	142.77
472.04	173.20
472.22	168.52
472.40	135.75
472.58	140.43
472.77	133.41
472.95	168.52
473.13	234.05
473.31	184.90
473.49	168.52
473.67	173.20
473.85	227.03
474.03	173.20
474.21	198.95
474.39	217.67
474.57	201.29
474.75	236.39
474.93	170.86
475.12	142.77
475.30	142.77
475.48	191.92
475.66	229.37
475.84	163.84
476.02	177.88
476.20	131.07
476.38	203.63
476.56	243.42
476.74	163.84
476.92	257.46
477.10	217.67
477.28	203.63
477.46	159.16
477.64	255.12
477.82	217.67
478.00	201.29
478.18	166.18
478.36	241.08
478.54	170.86
478.72	220.01
478.90	74.90
479.08	234.05
479.26	203.63
479.44	229.37
479.62	166.18
479.80	138.09
479.98	217.67
480.16	217.67
480.34	294.91
480.52	166.18
480.70	184.90
480.88	184.90
481.06	196.60
481.24	236.39
481.41	290.23
481.59	222.35
481.77	269.16
481.95	220.01
482.13	276.18
482.31	182.56
482.49	138.09
482.67	212.99
482.85	301.93
483.03	245.76
483.21	271.50
483.39	280.86
483.57	294.91
483.74	257.46
483.92	203.63
484.10	283.20
484.28	236.39
484.46	250.44
484.64	191.92
484.82	210.65
485.00	304.27
485.18	334.70
485.35	292.57
485.53	276.18
485.71	294.91
485.89	229.37
486.07	273.84
486.25	376.83
486.43	250.44
486.61	271.50
486.78	224.69
486.96	248.10
487.14	332.36
487.32	322.99
487.50	250.44
487.68	294.91
487.85	313.63
488.03	283.20
488.21	278.52
488.39	287.89
488.57	315.97
488.75	290.23
488.92	486.83
489.10	234.05
489.28	320.65
489.46	287.89
489.64	330.02
489.81	285.55
489.99	365.12
490.17	304.27
490.35	393.21
490.53	259.80
490.70	262.14
490.88	273.84
491.06	252.78
491.24	325.33
491.41	360.44
491.59	273.84
491.77	252.78
491.95	266.82
492.13	224.69
492.30	332.36
492.48	250.44
492.66	271.50
492.84	269.16
493.01	362.78
493.19	227.03
493.37	292.57
493.54	278.52
493.72	311.29
493.90	229.37
494.08	315.97
494.25	304.27
494.43	306.61
494.61	315.97
494.79	262.14
494.96	231.71
495.14	271.50
495.32	210.65
495.49	250.44
495.67	311.29
495.85	337.04
496.02	255.12
496.20	292.57
496.38	287.89
496.55	276.18
496.73	215.33
496.91	259.80
497.09	222.35
497.26	245.76
497.44	264.48
497.62	290.23
497.79	278.52
497.97	327.68
498.14	318.31
498.32	243.42
498.50	308.95
498.67	287.89
498.85	294.91
499.03	292.57
499.20	299.59
499.38	308.95
499.56	205.97
499.73	304.27
499.91	259.80
500.08	311.29
500.26	234.05
500.44	245.76
500.61	236.39
500.79	259.80
500.97	234.05
501.14	227.03
501.32	212.99
501.49	287.89
501.67	257.46
501.84	234.05
502.02	149.79
502.20	245.76
502.37	269.16
502.55	210.65
502.72	222.35
502.90	330.02
503.07	212.99
503.25	271.50
503.43	269.16
503.60	203.63
503.78	168.52
503.95	180.22
504.13	241.08
504.30	259.80
504.48	255.12
504.65	215.33
504.83	304.27
505.01	236.39
505.18	259.80
505.36	294.91
505.53	238.73
505.71	205.97
505.88	245.76
506.06	224.69
506.23	285.55
506.41	252.78
506.58	287.89
506.76	252.78
506.93	182.56
507.11	280.86
507.28	175.54
507.46	294.91
507.63	154.48
507.81	224.69
507.98	271.50
508.16	245.76
508.33	285.55
508.50	271.50
508.68	276.18
508.85	243.42
509.03	234.05
509.20	266.82
509.38	278.52
509.55	135.75
509.73	262.14
509.90	252.78
510.08	278.52
510.25	220.01
510.42	269.16
510.60	290.23
510.77	245.76
510.95	250.44
511.12	175.54
511.30	266.82
511.47	229.37
511.64	280.86
511.82	147.45
511.99	196.60
512.17	252.78
512.34	205.97
512.51	250.44
512.69	175.54
512.86	339.38
513.04	266.82
513.21	255.12
513.38	229.37
513.56	248.10
513.73	257.46
513.90	203.63
514.08	252.78
514.25	325.33
514.43	201.29
514.60	161.50
514.77	189.58
514.95	187.24
515.12	250.44
515.29	215.33
515.47	276.18
515.64	243.42
515.81	231.71
515.99	294.91
516.16	255.12
516.33	229.37
516.51	222.35
516.68	210.65
516.85	149.79
517.03	224.69
517.20	266.82
517.37	304.27
517.54	294.91
517.72	212.99
517.89	217.67
518.06	208.31
518.24	351.08
518.41	266.82
518.58	306.61
518.75	217.67
518.93	128.73
519.10	154.48
519.27	210.65
519.45	201.29
519.62	243.42
519.79	252.78
519.96	280.86
520.14	175.54
520.31	304.27
520.48	245.76
520.65	229.37
520.83	280.86
521.00	292.57
521.17	215.33
521.34	290.23
521.52	243.42
521.69	217.67
521.86	187.24
522.03	201.29
522.20	322.99
522.38	292.57
522.55	346.40
522.72	224.69
522.89	290.23
523.07	313.63
523.24	255.12
523.41	198.95
523.58	266.82
523.75	262.14
523.92	180.22
524.10	341.72
524.27	203.63
524.44	278.52
524.61	334.70
524.78	285.55
524.96	262.14
525.13	264.48
525.30	325.33
525.47	315.97
525.64	311.29
525.81	283.20
525.98	304.27
526.16	224.69
526.33	208.31
526.50	248.10
526.67	215.33
526.84	236.39
527.01	234.05
527.18	259.80
527.36	269.16
527.53	173.20
527.70	238.73
527.87	161.50
528.04	215.33
528.21	269.16
528.38	276.18
528.55	297.25
528.72	273.84
528.89	301.93
529.07	243.42
529.24	276.18
529.41	315.97
529.58	285.55
529.75	241.08
529.92	332.36
530.09	252.78
530.26	205.97
530.43	250.44
530.60	346.40
530.77	217.67
530.94	222.35
531.11	198.95
531.28	224.69
531.46	234.05
531.63	287.89
531.80	252.78
531.97	308.95
532.14	278.52
532.31	325.33
532.48	311.29
532.65	330.02
532.82	220.01
532.99	269.16
533.16	290.23
533.33	301.93
533.50	308.95
533.67	294.91
533.84	250.44
534.01	262.14
534.18	231.71
534.35	252.78
534.52	283.20
534.69	301.93
534.86	311.29
535.03	362.78
535.20	311.29
535.37	322.99
535.54	318.31
535.71	269.16
535.88	306.61
536.05	280.86
536.22	320.65
536.38	252.78
536.55	311.29
536.72	332.36
536.89	311.29
537.06	416.62
537.23	241.08
537.40	369.80
537.57	402.57
537.74	421.30
537.91	449.38
538.08	409.59
538.25	475.13
538.42	428.32
538.59	423.64
538.75	367.46
538.92	383.85
539.09	393.21
539.26	484.49
539.43	442.36
539.60	543.00
539.77	538.32
539.94	620.24
540.11	564.07
540.28	681.10
540.44	664.71
540.61	819.19
540.78	851.96
540.95	816.85
541.12	1053.24
541.29	1088.35
541.46	1174.95
541.62	1228.78
541.79	1165.59
541.96	1156.22
542.13	1170.27
542.30	1275.59
542.47	1191.33
542.63	1067.28
542.80	990.05
542.97	1046.22
543.14	1100.05
543.31	1121.12
543.48	1144.52
543.64	1125.80
543.81	1097.71
543.98	999.41
544.15	1097.71
544.32	1048.56
544.48	1013.45
544.65	1137.50
544.82	994.73
544.99	983.02
545.16	976.00
545.32	1107.07
545.49	1619.65
545.66	2289.04
545.83	2965.46
546.00	2452.88
546.16	1853.70
546.33	1378.58
546.50	1043.88
546.67	802.80
546.83	854.30
547.00	828.55
547.17	709.18
547.34	669.39
547.50	671.73
547.67	655.35
547.84	662.37
548.00	697.48
548.17	655.35
548.34	664.71
548.51	727.91
548.67	676.41
548.84	676.41
549.01	645.99
549.18	615.56
549.34	655.35
549.51	482.15
549.68	500.87
549.84	475.13
550.01	451.72
550.18	599.18
550.34	547.69
550.51	493.85
550.68	535.98
550.84	397.89
551.01	465.77
551.18	491.51
551.34	395.55
551.51	437.68
551.68	449.38
551.84	381.51
552.01	416.62
552.18	491.51
552.34	440.02
552.51	435.34
552.68	376.83
552.84	428.32
553.01	444.70
553.18	449.38
553.34	411.93
553.51	308.95
553.67	409.59
553.84	367.46
554.01	404.91
554.17	362.78
554.34	383.85
554.51	390.87
554.67	201.29
554.84	348.74
555.00	334.70
555.17	273.84
555.33	299.59
555.50	299.59
555.67	320.65
555.83	255.12
556.00	320.65
556.16	404.91
556.33	334.70
556.50	290.23
556.66	285.55
556.83	271.50
556.99	198.95
557.16	257.46
557.32	241.08
557.49	201.29
557.65	196.60
557.82	327.68
557.98	327.68
558.15	241.08
558.32	259.80
558.48	257.46
558.65	264.48
558.81	367.46
558.98	273.84
559.14	271.50
559.31	217.67
559.47	304.27
559.64	224.69
559.80	269.16
559.97	287.89
560.13	182.56
560.30	255.12
560.46	245.76
560.63	327.68
560.79	243.42
560.96	311.29
561.12	201.29
561.29	262.14
561.45	266.82
561.61	271.50
561.78	320.65
561.94	283.20
562.11	311.29
562.27	285.55
562.44	194.26
562.60	276.18
562.77	248.10
562.93	318.31
563.10	283.20
563.26	182.56
563.42	318.31
563.59	292.57
563.75	287.89
563.92	271.50
564.08	196.60
564.24	287.89
564.41	287.89
564.57	266.82
564.74	318.31
564.90	231.71
565.07	248.10
565.23	351.08
565.39	243.42
565.56	318.31
565.72	201.29
565.88	255.12
566.05	257.46
566.21	222.35
566.38	215.33
566.54	250.44
566.70	222.35
566.87	250.44
567.03	236.39
567.19	238.73
567.36	245.76
567.52	203.63
567.68	278.52
567.85	145.11
568.01	238.73
568.17	252.78
568.34	264.48
568.50	194.26
568.66	283.20
568.83	285.55
568.99	182.56
569.15	311.29
569.32	236.39
569.48	269.16
569.64	224.69
569.81	220.01
569.97	231.71
570.13	276.18
570.30	266.82
570.46	262.14
570.62	182.56
570.78	217.67
570.95	220.01
571.11	334.70
571.27	259.80
571.43	201.29
571.60	262.14
571.76	241.08
571.92	304.27
572.09	266.82
572.25	259.80
572.41	229.37
572.57	208.31
572.74	229.37
572.90	222.35
573.06	215.33
573.22	294.91
573.38	315.97
573.55	278.52
573.71	250.44
573.87	250.44
574.03	273.84
574.20	304.27
574.36	196.60
574.52	271.50
574.68	259.80
574.84	203.63
575.01	201.29
575.17	273.84
575.33	180.22
575.49	245.76
575.65	227.03
575.82	290.23
575.98	341.72
576.14	241.08
576.30	280.86
576.46	409.59
576.62	629.60
576.79	702.16
576.95	603.86
577.11	409.59
577.27	318.31
577.43	360.44
577.59	287.89
577.75	313.63
577.92	241.08
578.08	205.97
578.24	255.12
578.40	376.83
578.56	430.66
578.72	603.86
578.88	669.39
579.04	582.79
579.21	477.47
579.37	402.57
579.53	395.55
579.69	409.59
579.85	407.25
580.01	475.13
580.17	390.87
580.33	390.87
580.49	381.51
580.65	318.31
580.82	327.68
580.98	386.19
581.14	454.06
581.30	367.46
581.46	388.53
581.62	418.96
581.78	386.19
581.94	458.74
582.10	386.19
582.26	386.19
582.42	407.25
582.58	428.32
582.74	442.36
582.90	461.09
583.06	440.02
583.22	510.24
583.38	447.04
583.54	372.15
583.70	390.87
583.86	463.43
584.02	322.99
584.18	465.77
584.34	465.77
584.50	409.59
584.66	433.00
584.82	428.32
584.98	418.96
585.14	367.46
585.30	404.91
585.46	386.19
585.62	358.10
585.78	320.65
585.94	416.62
586.10	308.95
586.26	381.51
586.42	451.72
586.58	458.74
586.74	430.66
586.90	578.11
587.06	688.12
587.22	603.86
587.38	545.34
587.54	514.92
587.70	421.30
587.86	367.46
588.02	330.02
588.18	407.25
588.34	355.76
588.49	322.99
588.65	294.91
588.81	313.63
588.97	287.89
589.13	369.80
589.29	351.08
589.45	397.89
589.61	257.46
589.77	386.19
589.93	311.29
590.08	306.61
590.24	365.12
590.40	339.38
590.56	372.15
590.72	334.70
590.88	318.31
591.04	304.27
591.20	369.80
591.35	322.99
591.51	334.70
591.67	294.91
591.83	348.74
591.99	365.12
592.15	404.91
592.31	404.91
592.46	393.21
592.62	447.04
592.78	475.13
592.94	416.62
593.10	475.13
593.26	449.38
593.41	423.64
593.57	346.40
593.73	397.89
593.89	418.96
594.05	397.89
594.20	409.59
594.36	304.27
594.52	290.23
594.68	315.97
594.84	262.14
594.99	348.74
595.15	341.72
595.31	285.55
595.47	404.91
595.62	351.08
595.78	292.57
595.94	283.20
596.10	290.23
596.25	280.86
596.41	327.68
596.57	236.39
596.73	292.57
596.88	149.79
597.04	238.73
597.20	208.31
597.36	369.80
597.51	255.12
597.67	311.29
597.83	348.74
597.99	315.97
598.14	383.85
598.30	337.04
598.46	325.33
598.61	400.23
598.77	273.84
598.93	322.99
599.09	365.12
599.24	322.99
599.40	386.19
599.56	395.55
599.71	397.89
599.87	299.59
600.03	388.53
600.18	299.59
600.34	224.69
600.50	285.55
600.65	379.17
600.81	315.97
600.97	327.68
601.12	294.91
601.28	334.70
601.44	259.80
601.59	262.14
601.75	308.95
601.91	255.12
602.06	301.93
602.22	245.76
602.37	285.55
602.53	259.80
602.69	337.04
602.84	187.24
603.00	299.59
603.16	283.20
603.31	276.18
603.47	257.46
603.62	264.48
603.78	266.82
603.94	313.63
604.09	252.78
604.25	255.12
604.40	304.27
604.56	325.33
604.71	215.33
604.87	278.52
605.03	299.59
605.18	306.61
605.34	245.76
605.49	273.84
605.65	301.93
605.80	294.91
605.96	339.38
606.12	276.18
606.27	259.80
606.43	341.72
606.58	308.95
606.74	304.27
606.89	379.17
607.05	320.65
607.20	327.68
607.36	341.72
607.51	304.27
607.67	402.57
607.82	433.00
607.98	451.72
608.13	390.87
608.29	379.17
608.44	376.83
608.60	339.38
608.75	447.04
608.91	472.79
609.06	500.87
609.22	514.92
609.37	521.94
609.53	552.37
609.68	617.90
609.84	690.46
609.99	772.38
610.15	912.81
610.30	1036.86
610.46	1336.45
610.61	1519.01
610.76	2026.90
610.92	2338.20
611.07	2590.97
611.23	2665.87
