SpectraSuite Data File
++++++++++++++++++++++++++++++++++++
Date: Fri Oct 04 11:42:28 GMT-05:00 2013
User: price-jones
Dark Spectrum Present: No
Reference Spectrum Present: No
Number of Sampled Component Spectra: 1
Spectrometers: USB2+H05261
Integration Time (usec): 100000 (USB2+H05261)
Spectra Averaged: 1 (USB2+H05261)
Boxcar Smoothing: 0 (USB2+H05261)
Correct for Electrical Dark: No (USB2+H05261)
Strobe/Lamp Enabled: No (USB2+H05261)
Correct for Detector Non-linearity: No (USB2+H05261)
Correct for Stray Light: No (USB2+H05261)
Number of Pixels in Processed Spectrum: 2048
>>>>>Begin Processed Spectral Data<<<<<
365.73	60.85
365.92	60.85
366.12	60.85
366.32	0.00
366.52	0.00
366.72	0.00
366.91	0.00
367.11	0.00
367.31	0.00
367.51	0.00
367.70	0.00
367.90	0.00
368.10	0.00
368.30	0.00
368.49	0.00
368.69	0.00
368.89	0.00
369.09	0.00
369.28	0.00
369.48	0.00
369.68	0.00
369.87	0.00
370.07	0.00
370.27	46.81
370.47	0.00
370.66	30.43
370.86	0.00
371.06	70.22
371.25	102.98
371.45	44.47
371.65	138.09
371.84	9.36
372.04	32.77
372.24	170.86
372.44	88.94
372.63	28.09
372.83	147.45
373.03	53.83
373.22	133.41
373.42	56.17
373.62	124.05
373.81	93.62
374.01	138.09
374.21	145.11
374.40	100.64
374.60	91.28
374.79	133.41
374.99	105.32
375.19	53.83
375.38	60.85
375.58	149.79
375.78	184.90
375.97	112.35
376.17	161.50
376.37	112.35
376.56	194.26
376.76	180.22
376.95	63.19
377.15	30.43
377.35	79.58
377.54	98.30
377.74	119.37
377.93	140.43
378.13	58.51
378.33	124.05
378.52	135.75
378.72	79.58
378.91	166.18
379.11	86.60
379.31	119.37
379.50	175.54
379.70	86.60
379.89	121.71
380.09	88.94
380.28	102.98
380.48	30.43
380.68	119.37
380.87	81.92
381.07	142.77
381.26	203.63
381.46	133.41
381.65	107.66
381.85	14.04
382.04	72.56
382.24	102.98
382.43	154.48
382.63	91.28
382.83	70.22
383.02	133.41
383.22	163.84
383.41	0.00
383.61	51.49
383.80	46.81
384.00	105.32
384.19	119.37
384.39	91.28
384.58	65.54
384.78	173.20
384.97	133.41
385.17	77.24
385.36	102.98
385.56	215.33
385.75	107.66
385.95	128.73
386.14	140.43
386.34	84.26
386.53	86.60
386.72	114.69
386.92	93.62
387.11	79.58
387.31	46.81
387.50	138.09
387.70	135.75
387.89	102.98
388.09	35.11
388.28	74.90
388.48	51.49
388.67	63.19
388.86	100.64
389.06	147.45
389.25	107.66
389.45	140.43
389.64	159.16
389.84	175.54
390.03	46.81
390.22	74.90
390.42	18.72
390.61	117.03
390.81	110.01
391.00	84.26
391.19	93.62
391.39	149.79
391.58	86.60
391.78	81.92
391.97	81.92
392.16	84.26
392.36	117.03
392.55	138.09
392.75	110.01
392.94	177.88
393.13	147.45
393.33	56.17
393.52	126.39
393.71	88.94
393.91	98.30
394.10	100.64
394.29	39.79
394.49	86.60
394.68	105.32
394.88	194.26
395.07	93.62
395.26	114.69
395.46	95.96
395.65	112.35
395.84	98.30
396.04	117.03
396.23	84.26
396.42	91.28
396.62	128.73
396.81	74.90
397.00	135.75
397.19	77.24
397.39	67.88
397.58	131.07
397.77	86.60
397.97	79.58
398.16	156.82
398.35	117.03
398.55	65.54
398.74	72.56
398.93	91.28
399.12	79.58
399.32	198.95
399.51	0.00
399.70	180.22
399.90	180.22
400.09	100.64
400.28	138.09
400.47	147.45
400.67	191.92
400.86	119.37
401.05	175.54
401.24	156.82
401.44	114.69
401.63	166.18
401.82	65.54
402.01	107.66
402.21	142.77
402.40	163.84
402.59	117.03
402.78	79.58
402.97	70.22
403.17	93.62
403.36	182.56
403.55	140.43
403.74	224.69
403.93	580.45
404.13	1167.93
404.32	1373.89
404.51	1303.68
404.70	924.51
404.89	304.27
405.09	210.65
405.28	119.37
405.47	163.84
405.66	166.18
405.85	194.26
406.05	102.98
406.24	126.39
406.43	119.37
406.62	88.94
406.81	173.20
407.00	173.20
407.20	266.82
407.39	280.86
407.58	318.31
407.77	269.16
407.96	203.63
408.15	215.33
408.34	170.86
408.54	131.07
408.73	126.39
408.92	145.11
409.11	142.77
409.30	198.95
409.49	154.48
409.68	154.48
409.87	159.16
410.07	126.39
410.26	126.39
410.45	166.18
410.64	65.54
410.83	84.26
411.02	77.24
411.21	170.86
411.40	95.96
411.59	159.16
411.78	135.75
411.98	161.50
412.17	107.66
412.36	163.84
412.55	112.35
412.74	201.29
412.93	215.33
413.12	121.71
413.31	191.92
413.50	131.07
413.69	154.48
413.88	187.24
414.07	86.60
414.26	175.54
414.45	133.41
414.64	128.73
414.83	124.05
415.02	93.62
415.22	154.48
415.41	126.39
415.60	93.62
415.79	133.41
415.98	189.58
416.17	142.77
416.36	201.29
416.55	95.96
416.74	159.16
416.93	142.77
417.12	196.60
417.31	102.98
417.50	105.32
417.69	156.82
417.88	196.60
418.07	98.30
418.26	189.58
418.45	133.41
418.64	238.73
418.83	131.07
419.02	114.69
419.21	126.39
419.39	191.92
419.58	177.88
419.77	161.50
419.96	215.33
420.15	163.84
420.34	121.71
420.53	196.60
420.72	191.92
420.91	128.73
421.10	166.18
421.29	203.63
421.48	142.77
421.67	182.56
421.86	170.86
422.05	147.45
422.24	166.18
422.43	152.13
422.61	138.09
422.80	112.35
422.99	138.09
423.18	173.20
423.37	220.01
423.56	229.37
423.75	170.86
423.94	142.77
424.13	147.45
424.32	175.54
424.50	182.56
424.69	180.22
424.88	198.95
425.07	184.90
425.26	245.76
425.45	234.05
425.64	142.77
425.83	154.48
426.01	191.92
426.20	187.24
426.39	102.98
426.58	224.69
426.77	140.43
426.96	142.77
427.15	168.52
427.33	149.79
427.52	107.66
427.71	152.13
427.90	175.54
428.09	201.29
428.28	161.50
428.46	236.39
428.65	182.56
428.84	212.99
429.03	248.10
429.22	154.48
429.40	119.37
429.59	159.16
429.78	234.05
429.97	152.13
430.16	173.20
430.34	163.84
430.53	236.39
430.72	117.03
430.91	205.97
431.10	220.01
431.28	220.01
431.47	224.69
431.66	215.33
431.85	175.54
432.03	201.29
432.22	252.78
432.41	133.41
432.60	238.73
432.79	191.92
432.97	140.43
433.16	208.31
433.35	243.42
433.54	227.03
433.72	276.18
433.91	175.54
434.10	322.99
434.28	252.78
434.47	257.46
434.66	320.65
434.85	407.25
435.03	926.85
435.22	2775.88
435.41	5275.57
435.59	5769.42
435.78	4002.32
435.97	2026.90
436.16	880.04
436.34	322.99
436.53	285.55
436.72	271.50
436.90	222.35
437.09	196.60
437.28	273.84
437.46	222.35
437.65	229.37
437.84	168.52
438.02	201.29
438.21	266.82
438.40	114.69
438.58	182.56
438.77	229.37
438.96	198.95
439.14	210.65
439.33	177.88
439.52	222.35
439.70	201.29
439.89	196.60
440.08	182.56
440.26	189.58
440.45	259.80
440.63	184.90
440.82	278.52
441.01	198.95
441.19	241.08
441.38	198.95
441.57	163.84
441.75	287.89
441.94	210.65
442.12	234.05
442.31	227.03
442.50	234.05
442.68	189.58
442.87	292.57
443.05	163.84
443.24	248.10
443.43	234.05
443.61	266.82
443.80	238.73
443.98	224.69
444.17	234.05
444.35	262.14
444.54	257.46
444.73	184.90
444.91	231.71
445.10	201.29
445.28	189.58
445.47	184.90
445.65	173.20
445.84	180.22
446.02	208.31
446.21	276.18
446.39	189.58
446.58	234.05
446.77	276.18
446.95	217.67
447.14	278.52
447.32	287.89
447.51	262.14
447.69	217.67
447.88	250.44
448.06	236.39
448.25	257.46
448.43	292.57
448.62	145.11
448.80	283.20
448.99	290.23
449.17	245.76
449.36	299.59
449.54	196.60
449.73	194.26
449.91	238.73
450.10	236.39
450.28	271.50
450.46	252.78
450.65	198.95
450.83	255.12
451.02	250.44
451.20	255.12
451.39	161.50
451.57	212.99
451.76	187.24
451.94	234.05
452.13	262.14
452.31	306.61
452.49	248.10
452.68	250.44
452.86	250.44
453.05	241.08
453.23	259.80
453.42	224.69
453.60	243.42
453.78	250.44
453.97	187.24
454.15	177.88
454.34	156.82
454.52	234.05
454.70	243.42
454.89	248.10
455.07	220.01
455.26	222.35
455.44	292.57
455.62	220.01
455.81	208.31
455.99	224.69
456.17	194.26
456.36	210.65
456.54	252.78
456.73	210.65
456.91	182.56
457.09	238.73
457.28	177.88
457.46	191.92
457.64	287.89
457.83	170.86
458.01	250.44
458.19	285.55
458.38	229.37
458.56	215.33
458.74	243.42
458.93	215.33
459.11	227.03
459.29	212.99
459.48	276.18
459.66	353.42
459.84	259.80
460.03	330.02
460.21	215.33
460.39	224.69
460.57	173.20
460.76	243.42
460.94	241.08
461.12	276.18
461.31	227.03
461.49	119.37
461.67	194.26
461.85	234.05
462.04	224.69
462.22	383.85
462.40	189.58
462.59	269.16
462.77	173.20
462.95	182.56
463.13	95.96
463.32	224.69
463.50	259.80
463.68	229.37
463.86	161.50
464.05	198.95
464.23	250.44
464.41	227.03
464.59	180.22
464.78	266.82
464.96	187.24
465.14	173.20
465.32	238.73
465.50	180.22
465.69	292.57
465.87	203.63
466.05	231.71
466.23	224.69
466.41	255.12
466.60	229.37
466.78	156.82
466.96	234.05
467.14	215.33
467.32	161.50
467.51	203.63
467.69	191.92
467.87	290.23
468.05	255.12
468.23	266.82
468.41	292.57
468.60	243.42
468.78	248.10
468.96	285.55
469.14	208.31
469.32	205.97
469.50	198.95
469.69	231.71
469.87	154.48
470.05	220.01
470.23	248.10
470.41	114.69
470.59	212.99
470.77	191.92
470.95	184.90
471.14	203.63
471.32	273.84
471.50	276.18
471.68	227.03
471.86	212.99
472.04	208.31
472.22	163.84
472.40	180.22
472.58	205.97
472.77	245.76
472.95	250.44
473.13	238.73
473.31	229.37
473.49	234.05
473.67	173.20
473.85	330.02
474.03	224.69
474.21	210.65
474.39	245.76
474.57	257.46
474.75	297.25
474.93	252.78
475.12	184.90
475.30	217.67
475.48	294.91
475.66	227.03
475.84	191.92
476.02	212.99
476.20	266.82
476.38	250.44
476.56	222.35
476.74	215.33
476.92	166.18
477.10	252.78
477.28	126.39
477.46	266.82
477.64	208.31
477.82	297.25
478.00	196.60
478.18	184.90
478.36	222.35
478.54	212.99
478.72	203.63
478.90	229.37
479.08	231.71
479.26	191.92
479.44	264.48
479.62	182.56
479.80	152.13
479.98	191.92
480.16	276.18
480.34	259.80
480.52	339.38
480.70	308.95
480.88	198.95
481.06	210.65
481.24	290.23
481.41	252.78
481.59	304.27
481.77	294.91
481.95	278.52
482.13	341.72
482.31	362.78
482.49	259.80
482.67	428.32
482.85	390.87
483.03	468.11
483.21	421.30
483.39	383.85
483.57	447.04
483.74	435.34
483.92	472.79
484.10	538.32
484.28	557.05
484.46	667.05
484.64	587.47
484.82	634.29
485.00	622.58
485.18	716.20
485.35	807.48
485.53	713.86
485.71	844.93
485.89	755.99
486.07	798.12
486.25	751.31
486.43	833.23
486.61	826.21
486.78	854.30
486.96	802.80
487.14	889.40
487.32	798.12
487.50	828.55
487.68	868.34
487.85	784.08
488.03	908.13
488.21	884.72
488.39	854.30
488.57	819.19
488.75	774.72
488.92	1170.27
489.10	877.70
489.28	854.30
489.46	858.98
489.64	784.08
489.81	823.87
489.99	844.93
490.17	737.27
490.35	786.42
490.53	809.83
490.70	786.42
490.88	807.48
491.06	746.63
491.24	727.91
491.41	795.78
491.59	828.55
491.77	835.57
491.95	718.54
492.13	692.80
492.30	662.37
492.48	699.82
492.66	662.37
492.84	641.31
493.01	681.10
493.19	695.14
493.37	732.59
493.54	718.54
493.72	678.76
493.90	638.97
494.08	608.54
494.25	660.03
494.43	662.37
494.61	568.75
494.79	603.86
494.96	594.50
495.14	589.82
495.32	606.20
495.49	564.07
495.67	535.98
495.85	540.66
496.02	514.92
496.20	606.20
496.38	617.90
496.55	601.52
496.73	601.52
496.91	533.64
497.09	634.29
497.26	587.47
497.44	531.30
497.62	648.33
497.79	486.83
497.97	482.15
498.14	472.79
498.32	575.77
498.50	454.06
498.67	435.34
498.85	486.83
499.03	465.77
499.20	374.49
499.38	423.64
499.56	430.66
499.73	376.83
499.91	414.27
500.08	294.91
500.26	388.53
500.44	372.15
500.61	416.62
500.79	418.96
500.97	348.74
501.14	409.59
501.32	353.42
501.49	332.36
501.67	285.55
501.84	365.12
502.02	245.76
502.20	337.04
502.37	301.93
502.55	292.57
502.72	276.18
502.90	290.23
503.07	276.18
503.25	257.46
503.43	334.70
503.60	276.18
503.78	334.70
503.95	271.50
504.13	220.01
504.30	301.93
504.48	234.05
504.65	358.10
504.83	304.27
505.01	266.82
505.18	320.65
505.36	227.03
505.53	285.55
505.71	245.76
505.88	271.50
506.06	311.29
506.23	243.42
506.41	238.73
506.58	283.20
506.76	241.08
506.93	252.78
507.11	287.89
507.28	229.37
507.46	250.44
507.63	280.86
507.81	262.14
507.98	255.12
508.16	269.16
508.33	238.73
508.50	285.55
508.68	259.80
508.85	294.91
509.03	224.69
509.20	308.95
509.38	212.99
509.55	290.23
509.73	294.91
509.90	229.37
510.08	189.58
510.25	294.91
510.42	262.14
510.60	266.82
510.77	257.46
510.95	217.67
511.12	287.89
511.30	222.35
511.47	245.76
511.64	332.36
511.82	257.46
511.99	271.50
512.17	252.78
512.34	243.42
512.51	215.33
512.69	266.82
512.86	278.52
513.04	203.63
513.21	259.80
513.38	301.93
513.56	290.23
513.73	248.10
513.90	203.63
514.08	280.86
514.25	234.05
514.43	308.95
514.60	278.52
514.77	278.52
514.95	297.25
515.12	224.69
515.29	285.55
515.47	250.44
515.64	280.86
515.81	177.88
515.99	255.12
516.16	278.52
516.33	301.93
516.51	252.78
516.68	248.10
516.85	231.71
517.03	243.42
517.20	243.42
517.37	238.73
517.54	177.88
517.72	205.97
517.89	262.14
518.06	196.60
518.24	285.55
518.41	234.05
518.58	334.70
518.75	273.84
518.93	236.39
519.10	187.24
519.27	264.48
519.45	280.86
519.62	238.73
519.79	315.97
519.96	259.80
520.14	220.01
520.31	264.48
520.48	266.82
520.65	318.31
520.83	224.69
521.00	161.50
521.17	238.73
521.34	198.95
521.52	224.69
521.69	285.55
521.86	264.48
522.03	257.46
522.20	269.16
522.38	287.89
522.55	306.61
522.72	194.26
522.89	243.42
523.07	325.33
523.24	250.44
523.41	161.50
523.58	234.05
523.75	238.73
523.92	236.39
524.10	245.76
524.27	238.73
524.44	236.39
524.61	315.97
524.78	215.33
524.96	224.69
525.13	257.46
525.30	311.29
525.47	299.59
525.64	154.48
525.81	318.31
525.98	238.73
526.16	241.08
526.33	170.86
526.50	250.44
526.67	245.76
526.84	236.39
527.01	271.50
527.18	276.18
527.36	238.73
527.53	255.12
527.70	287.89
527.87	290.23
528.04	301.93
528.21	252.78
528.38	330.02
528.55	248.10
528.72	203.63
528.89	311.29
529.07	292.57
529.24	257.46
529.41	315.97
529.58	210.65
529.75	276.18
529.92	297.25
530.09	196.60
530.26	318.31
530.43	311.29
530.60	257.46
530.77	252.78
530.94	320.65
531.11	334.70
531.28	285.55
531.46	341.72
531.63	376.83
531.80	313.63
531.97	250.44
532.14	297.25
532.31	337.04
532.48	433.00
532.65	297.25
532.82	306.61
532.99	379.17
533.16	493.85
533.33	538.32
533.50	381.51
533.67	353.42
533.84	369.80
534.01	330.02
534.18	285.55
534.35	355.76
534.52	379.17
534.69	388.53
534.86	301.93
535.03	315.97
535.20	369.80
535.37	407.25
535.54	449.38
535.71	461.09
535.88	468.11
536.05	390.87
536.22	454.06
536.38	397.89
536.55	491.51
536.72	592.16
536.89	524.28
537.06	599.18
537.23	559.39
537.40	723.23
537.57	732.59
537.74	788.76
537.91	842.59
538.08	819.19
538.25	987.71
538.42	978.34
538.59	976.00
538.75	1039.20
538.92	1104.73
539.09	1184.31
539.26	1188.99
539.43	1172.61
539.60	1345.81
539.77	1479.22
539.94	1654.76
540.11	1671.14
540.28	1797.53
540.44	1837.32
540.61	2036.27
540.78	2127.55
540.95	2333.51
541.12	2923.33
541.29	3375.05
541.46	3751.88
541.62	4348.72
541.79	4685.75
541.96	5118.75
542.13	5280.25
542.30	5331.74
542.47	5411.32
542.63	5359.83
542.80	5263.86
542.97	5406.64
543.14	5380.89
543.31	5514.30
543.48	5621.97
543.64	5458.13
543.81	5364.51
543.98	5252.16
544.15	5158.54
544.32	4917.47
544.48	4795.76
544.65	4580.43
544.82	4432.97
544.99	4250.41
545.16	4154.45
545.32	4007.00
545.49	6473.92
545.66	10410.70
545.83	12318.24
546.00	10682.20
546.16	6881.18
546.33	4880.02
546.50	3599.74
546.67	2733.75
546.83	2186.06
547.00	2106.48
547.17	2050.31
547.34	1977.75
547.50	1849.02
547.67	1799.87
547.84	1645.40
548.00	1741.36
548.17	1790.51
548.34	1870.09
548.51	1872.43
548.67	2001.16
548.84	1933.28
549.01	1996.48
549.18	1884.13
549.34	1881.79
549.51	1703.91
549.68	1647.74
549.84	1657.10
550.01	1474.54
550.18	1509.65
550.34	1364.53
550.51	1334.11
550.68	1401.98
550.84	1254.53
551.01	1287.29
551.18	1324.74
551.34	1193.67
551.51	1104.73
551.68	1238.14
551.84	1322.40
552.01	1266.23
552.18	1165.59
552.34	1165.59
552.51	1174.95
552.68	1069.62
552.84	1109.41
553.01	1018.13
553.18	966.64
553.34	919.83
553.51	854.30
553.67	851.96
553.84	793.44
554.01	688.12
554.17	601.52
554.34	540.66
554.51	573.43
554.67	543.00
554.84	521.94
555.00	521.94
555.17	435.34
555.33	486.83
555.50	470.45
555.67	475.13
555.83	383.85
556.00	451.72
556.16	528.96
556.33	407.25
556.50	404.91
556.66	386.19
556.83	367.46
556.99	390.87
557.16	397.89
557.32	348.74
557.49	379.17
557.65	285.55
557.82	252.78
557.98	367.46
558.15	292.57
558.32	271.50
558.48	308.95
558.65	301.93
558.81	358.10
558.98	301.93
559.14	362.78
559.31	393.21
559.47	315.97
559.64	250.44
559.80	262.14
559.97	304.27
560.13	351.08
560.30	287.89
560.46	346.40
560.63	320.65
560.79	393.21
560.96	344.06
561.12	280.86
561.29	287.89
561.45	332.36
561.61	259.80
561.78	344.06
561.94	313.63
562.11	297.25
562.27	322.99
562.44	252.78
562.60	322.99
562.77	236.39
562.93	222.35
563.10	299.59
563.26	224.69
563.42	271.50
563.59	266.82
563.75	241.08
563.92	304.27
564.08	315.97
564.24	341.72
564.41	348.74
564.57	325.33
564.74	278.52
564.90	320.65
565.07	315.97
565.23	301.93
565.39	231.71
565.56	299.59
565.72	276.18
565.88	243.42
566.05	299.59
566.21	276.18
566.38	252.78
566.54	257.46
566.70	283.20
566.87	278.52
567.03	248.10
567.19	241.08
567.36	250.44
567.52	306.61
567.68	278.52
567.85	266.82
568.01	245.76
568.17	236.39
568.34	306.61
568.50	245.76
568.66	217.67
568.83	346.40
568.99	273.84
569.15	262.14
569.32	250.44
569.48	299.59
569.64	257.46
569.81	234.05
569.97	266.82
570.13	273.84
570.30	234.05
570.46	292.57
570.62	266.82
570.78	227.03
570.95	201.29
571.11	327.68
571.27	285.55
571.43	170.86
571.60	257.46
571.76	271.50
571.92	285.55
572.09	273.84
572.25	320.65
572.41	341.72
572.57	243.42
572.74	257.46
572.90	285.55
573.06	301.93
573.22	320.65
573.38	369.80
573.55	390.87
573.71	248.10
573.87	255.12
574.03	334.70
574.20	332.36
574.36	234.05
574.52	280.86
574.68	292.57
574.84	397.89
575.01	224.69
575.17	351.08
575.33	299.59
575.49	414.27
575.65	353.42
575.82	355.76
575.98	463.43
576.14	381.51
576.30	622.58
576.46	1416.02
576.62	2050.31
576.79	2202.44
576.95	1767.10
577.11	1172.61
577.27	814.51
577.43	617.90
577.59	496.19
577.75	435.34
577.92	465.77
578.08	477.47
578.24	397.89
578.40	636.63
578.56	1303.68
578.72	1898.17
578.88	2246.91
579.04	1678.16
579.21	1212.40
579.37	1132.82
579.53	882.38
579.69	926.85
579.85	1083.67
580.01	1224.10
580.17	1268.57
580.33	1123.46
580.49	1039.20
580.65	922.17
580.82	741.95
580.98	767.70
581.14	730.25
581.30	924.51
581.46	847.27
581.62	842.59
581.78	887.06
581.94	912.81
582.10	929.19
582.26	1027.50
582.42	1015.79
582.58	1022.81
582.74	1228.78
582.90	1137.50
583.06	1284.95
583.22	1266.23
583.38	1165.59
583.54	1263.89
583.70	1336.45
583.86	1289.64
584.02	1181.97
584.18	1240.48
584.34	1193.67
584.50	1170.27
584.66	1036.86
584.82	931.53
584.98	1015.79
585.14	966.64
585.30	973.66
585.46	912.81
585.62	971.32
585.78	910.47
585.94	973.66
586.10	873.02
586.26	1001.75
586.42	1228.78
586.58	1296.66
586.74	1568.16
586.90	1701.57
587.06	1905.20
587.22	1956.69
587.38	1865.41
587.54	1678.16
587.70	1441.77
587.86	1362.19
588.02	1188.99
588.18	1048.56
588.34	1069.62
588.49	938.55
588.65	933.87
588.81	816.85
588.97	734.93
589.13	896.43
589.29	800.46
589.45	938.55
589.61	880.04
589.77	856.64
589.93	805.14
590.08	826.21
590.24	793.44
590.40	795.78
590.56	898.77
590.72	746.63
590.88	746.63
591.04	772.38
591.20	777.06
591.35	753.65
591.51	793.44
591.67	786.42
591.83	812.17
591.99	861.32
592.15	952.60
592.31	1022.81
592.46	990.05
592.62	1226.44
592.78	1207.72
592.94	1191.33
593.10	1214.74
593.26	1102.39
593.41	1097.71
593.57	973.66
593.73	898.77
593.89	800.46
594.05	704.50
594.20	601.52
594.36	587.47
594.52	557.05
594.68	564.07
594.84	575.77
594.99	531.30
595.15	550.03
595.31	505.56
595.47	631.94
595.62	528.96
595.78	507.90
595.94	479.81
596.10	533.64
596.25	489.17
596.41	540.66
596.57	505.56
596.73	526.62
596.88	517.26
597.04	442.36
597.20	465.77
597.36	557.05
597.51	566.41
597.67	585.13
597.83	585.13
597.99	582.79
598.14	599.18
598.30	587.47
598.46	723.23
598.61	657.69
598.77	657.69
598.93	697.48
599.09	828.55
599.24	802.80
599.40	723.23
599.56	706.84
599.71	732.59
599.87	671.73
600.03	692.80
600.18	627.26
600.34	578.11
600.50	505.56
600.65	559.39
600.81	592.16
600.97	505.56
601.12	447.04
601.28	468.11
601.44	470.45
601.59	454.06
601.75	468.11
601.91	409.59
602.06	458.74
602.22	470.45
602.37	383.85
602.53	383.85
602.69	409.59
602.84	425.98
603.00	360.44
603.16	465.77
603.31	407.25
603.47	362.78
603.62	374.49
603.78	376.83
603.94	383.85
604.09	421.30
604.25	407.25
604.40	468.11
604.56	393.21
604.71	465.77
604.87	428.32
605.03	440.02
605.18	358.10
605.34	430.66
605.49	400.23
605.65	514.92
605.80	418.96
605.96	512.58
606.12	554.71
606.27	482.15
606.43	620.24
606.58	582.79
606.74	528.96
606.89	641.31
607.05	517.26
607.20	608.54
607.36	669.39
607.51	648.33
607.67	671.73
607.82	739.61
607.98	875.36
608.13	835.57
608.29	863.66
608.44	905.79
608.60	851.96
608.75	1142.18
608.91	1203.04
609.06	1289.64
609.22	1425.39
609.37	1551.78
609.53	1746.04
609.68	1907.54
609.84	2174.36
