SpectraSuite Data File
++++++++++++++++++++++++++++++++++++
Date: Fri Oct 04 11:41:39 GMT-05:00 2013
User: price-jones
Dark Spectrum Present: No
Reference Spectrum Present: No
Number of Sampled Component Spectra: 1
Spectrometers: USB2+H05261
Integration Time (usec): 100000 (USB2+H05261)
Spectra Averaged: 1 (USB2+H05261)
Boxcar Smoothing: 0 (USB2+H05261)
Correct for Electrical Dark: No (USB2+H05261)
Strobe/Lamp Enabled: No (USB2+H05261)
Correct for Detector Non-linearity: No (USB2+H05261)
Correct for Stray Light: No (USB2+H05261)
Number of Pixels in Processed Spectrum: 2048
>>>>>Begin Processed Spectral Data<<<<<
365.73	28.09
365.92	28.09
366.12	28.09
366.32	9.36
366.52	0.00
366.72	11.70
366.91	0.00
367.11	0.00
367.31	0.00
367.51	0.00
367.70	0.00
367.90	0.00
368.10	0.00
368.30	0.00
368.49	0.00
368.69	0.00
368.89	0.00
369.09	0.00
369.28	0.00
369.48	14.04
369.68	28.09
369.87	0.00
370.07	0.00
370.27	32.77
370.47	42.13
370.66	212.99
370.86	217.67
371.06	292.57
371.25	346.40
371.45	259.80
371.65	262.14
371.84	252.78
372.04	294.91
372.24	390.87
372.44	330.02
372.63	285.55
372.83	294.91
373.03	271.50
373.22	315.97
373.42	290.23
373.62	287.89
373.81	327.68
374.01	273.84
374.21	362.78
374.40	308.95
374.60	348.74
374.79	353.42
374.99	341.72
375.19	390.87
375.38	402.57
375.58	393.21
375.78	393.21
375.97	407.25
376.17	339.38
376.37	447.04
376.56	433.00
376.76	313.63
376.95	416.62
377.15	400.23
377.35	489.17
377.54	393.21
377.74	531.30
377.93	472.79
378.13	461.09
378.33	496.19
378.52	414.27
378.72	390.87
378.91	337.04
379.11	393.21
379.31	369.80
379.50	374.49
379.70	416.62
379.89	418.96
380.09	395.55
380.28	440.02
380.48	407.25
380.68	428.32
380.87	381.51
381.07	433.00
381.26	409.59
381.46	407.25
381.65	390.87
381.85	358.10
382.04	304.27
382.24	428.32
382.43	299.59
382.63	311.29
382.83	367.46
383.02	276.18
383.22	355.76
383.41	255.12
383.61	320.65
383.80	348.74
384.00	395.55
384.19	428.32
384.39	458.74
384.58	346.40
384.78	463.43
384.97	390.87
385.17	416.62
385.36	440.02
385.56	367.46
385.75	381.51
385.95	454.06
386.14	482.15
386.34	500.87
386.53	451.72
386.72	472.79
386.92	507.90
387.11	430.66
387.31	486.83
387.50	400.23
387.70	400.23
387.89	458.74
388.09	395.55
388.28	365.12
388.48	472.79
388.67	437.68
388.86	489.17
389.06	550.03
389.25	454.06
389.45	489.17
389.64	589.82
389.84	582.79
390.03	533.64
390.22	507.90
390.42	472.79
390.61	566.41
390.81	629.60
391.00	580.45
391.19	580.45
391.39	603.86
391.58	608.54
391.78	524.28
391.97	475.13
392.16	416.62
392.36	407.25
392.55	414.27
392.75	327.68
392.94	250.44
393.13	278.52
393.33	334.70
393.52	461.09
393.71	409.59
393.91	463.43
394.10	538.32
394.29	526.62
394.49	524.28
394.68	688.12
394.88	521.94
395.07	678.76
395.26	592.16
395.46	671.73
395.65	692.80
395.84	540.66
396.04	507.90
396.23	449.38
396.42	369.80
396.62	337.04
396.81	381.51
397.00	475.13
397.19	643.65
397.39	671.73
397.58	753.65
397.77	674.07
397.97	713.86
398.16	816.85
398.35	816.85
398.55	755.99
398.74	788.76
398.93	791.10
399.12	662.37
399.32	739.61
399.51	828.55
399.70	828.55
399.90	891.74
400.09	767.70
400.28	912.81
400.47	875.36
400.67	880.04
400.86	945.58
401.05	875.36
401.24	837.91
401.44	905.79
401.63	938.55
401.82	837.91
402.01	849.61
402.21	875.36
402.40	882.38
402.59	898.77
402.78	805.14
402.97	791.10
403.17	870.68
403.36	933.87
403.55	917.49
403.74	1001.75
403.93	1027.50
404.13	1090.69
404.32	1191.33
404.51	1142.18
404.70	1006.43
404.89	1006.43
405.09	912.81
405.28	931.53
405.47	945.58
405.66	929.19
405.85	957.28
406.05	830.89
406.24	844.93
406.43	870.68
406.62	866.00
406.81	992.39
407.00	917.49
407.20	814.51
407.39	905.79
407.58	968.98
407.77	980.68
407.96	926.85
408.15	971.32
408.34	1022.81
408.54	1053.24
408.73	954.94
408.92	957.28
409.11	954.94
409.30	1008.77
409.49	854.30
409.68	788.76
409.87	851.96
410.07	821.53
410.26	994.73
410.45	875.36
410.64	987.71
410.83	997.07
411.02	1004.09
411.21	997.07
411.40	1027.50
411.59	1114.10
411.78	1081.33
411.98	1078.99
412.17	1151.54
412.36	1116.44
412.55	1015.79
412.74	950.26
412.93	985.37
413.12	1022.81
413.31	1114.10
413.50	1069.62
413.69	1053.24
413.88	1097.71
414.07	1025.15
414.26	1053.24
414.45	1055.58
414.64	1064.94
414.83	1097.71
415.02	1055.58
415.22	1060.26
415.41	1076.65
415.60	1086.01
415.79	1231.12
415.98	1291.98
416.17	1172.61
416.36	1146.86
416.55	1184.31
416.74	1207.72
416.93	1100.05
417.12	1083.67
417.31	1158.57
417.50	1137.50
417.69	1172.61
417.88	1086.01
418.07	1090.69
418.26	1125.80
418.45	1100.05
418.64	1254.53
418.83	1160.91
419.02	1184.31
419.21	1177.29
419.39	1139.84
419.58	1057.92
419.77	1184.31
419.96	1144.52
420.15	1296.66
420.34	1231.12
420.53	1313.04
420.72	1235.80
420.91	1270.91
421.10	1196.01
421.29	1135.16
421.48	1170.27
421.67	1266.23
421.86	1212.40
422.05	1130.48
422.24	968.98
422.43	1015.79
422.61	1149.20
422.80	1256.87
422.99	1207.72
423.18	1146.86
423.37	1109.41
423.56	1090.69
423.75	1207.72
423.94	1184.31
424.13	1170.27
424.32	1102.39
424.50	1181.97
424.69	1132.82
424.88	1184.31
425.07	1160.91
425.26	1107.07
425.45	1172.61
425.64	1111.75
425.83	1203.04
426.01	1179.63
426.20	1142.18
426.39	1118.78
426.58	1142.18
426.77	1081.33
426.96	1128.14
427.15	1107.07
427.33	1076.65
427.52	1156.22
427.71	1212.40
427.90	1095.37
428.09	1111.75
428.28	1088.35
428.46	1055.58
428.65	1088.35
428.84	1071.97
429.03	1088.35
429.22	1062.60
429.40	1008.77
429.59	898.77
429.78	873.02
429.97	884.72
430.16	990.05
430.34	922.17
430.53	819.19
430.72	891.74
430.91	966.64
431.10	1039.20
431.28	1200.69
431.47	1294.32
431.66	1341.13
431.85	1252.19
432.03	1139.84
432.22	1179.63
432.41	1179.63
432.60	1306.02
432.79	1317.72
432.97	1369.21
433.16	1207.72
433.35	1191.33
433.54	1188.99
433.72	1116.44
433.91	990.05
434.10	1207.72
434.28	1310.70
434.47	1277.93
434.66	1228.78
434.85	1217.08
435.03	1425.39
435.22	1980.09
435.41	2668.21
435.59	2679.91
435.78	2275.00
435.97	1764.76
436.16	1617.31
436.34	1479.22
436.53	1418.36
436.72	1387.94
436.90	1210.06
437.09	1256.87
437.28	1329.42
437.46	1284.95
437.65	1275.59
437.84	1282.61
438.02	1231.12
438.21	1196.01
438.40	1240.48
438.58	1226.44
438.77	1310.70
438.96	1270.91
439.14	1313.04
439.33	1418.36
439.52	1364.53
439.70	1371.55
439.89	1348.15
440.08	1249.85
440.26	1249.85
440.45	1392.62
440.63	1521.35
440.82	1462.83
441.01	1441.77
441.19	1432.41
441.38	1434.75
441.57	1490.92
441.75	1561.14
441.94	1528.37
442.12	1526.03
442.31	1547.09
442.50	1469.86
442.68	1633.69
442.87	1516.67
443.05	1509.65
443.24	1551.78
443.43	1598.59
443.61	1596.25
443.80	1535.39
443.98	1439.43
444.17	1490.92
444.35	1605.61
444.54	1530.71
444.73	1563.48
444.91	1490.92
445.10	1554.12
445.28	1427.73
445.47	1390.28
445.65	1411.34
445.84	1483.90
446.02	1467.52
446.21	1425.39
446.39	1486.24
446.58	1481.56
446.77	1575.18
446.95	1554.12
447.14	1593.90
447.32	1572.84
447.51	1514.33
447.69	1596.25
447.88	1544.75
448.06	1614.97
448.25	1647.74
448.43	1640.72
448.62	1565.82
448.80	1572.84
448.99	1657.10
449.17	1507.30
449.36	1540.07
449.54	1586.88
449.73	1652.42
449.91	1746.04
450.10	1678.16
450.28	1806.89
450.46	1685.19
450.65	1703.91
450.83	1706.25
451.02	1650.08
451.20	1640.72
451.39	1636.03
451.57	1549.43
451.76	1640.72
451.94	1575.18
452.13	1495.60
452.31	1540.07
452.49	1526.03
452.68	1490.92
452.86	1523.69
453.05	1572.84
453.23	1598.59
453.42	1570.50
453.60	1621.99
453.78	1640.72
453.97	1633.69
454.15	1713.27
454.34	1647.74
454.52	1593.90
454.70	1647.74
454.89	1579.86
455.07	1579.86
455.26	1638.38
455.44	1696.89
455.62	1750.72
455.81	1727.32
455.99	1722.63
456.17	1685.19
456.36	1685.19
456.54	1715.61
456.73	1727.32
456.91	1708.59
457.09	1820.94
457.28	1652.42
457.46	1755.40
457.64	1757.74
457.83	1715.61
458.01	1558.80
458.19	1598.59
458.38	1668.80
458.56	1729.66
458.74	1657.10
458.93	1757.74
459.11	1666.46
459.29	1661.78
459.48	1713.27
459.66	1706.25
459.84	1636.03
460.03	1870.09
460.21	1820.94
460.39	1729.66
460.57	1785.83
460.76	1732.00
460.94	1671.14
461.12	1776.47
461.31	1729.66
461.49	1767.10
461.67	1701.57
461.85	1739.02
462.04	1727.32
462.22	1923.92
462.40	1804.55
462.59	1809.23
462.77	1767.10
462.95	1753.06
463.13	1727.32
463.32	1774.13
463.50	1717.95
463.68	1666.46
463.86	1694.55
464.05	1720.29
464.23	1661.78
464.41	1680.50
464.59	1708.59
464.78	1736.68
464.96	1636.03
465.14	1666.46
465.32	1675.82
465.50	1816.26
465.69	1680.50
465.87	1694.55
466.05	1806.89
466.23	1612.63
466.41	1687.53
466.60	1664.12
466.78	1685.19
466.96	1680.50
467.14	1682.85
467.32	1750.72
467.51	1888.81
467.69	1710.93
467.87	1659.44
468.05	1797.53
468.23	1764.76
468.41	1668.80
468.60	1715.61
468.78	1638.38
468.96	1802.21
469.14	1767.10
469.32	1788.17
469.50	1734.34
469.69	1729.66
469.87	1685.19
470.05	1654.76
470.23	1661.78
470.41	1703.91
470.59	1664.12
470.77	1584.54
470.95	1701.57
471.14	1694.55
471.32	1664.12
471.50	1909.88
471.68	1806.89
471.86	1891.15
472.04	1853.70
472.22	1825.62
472.40	1692.21
472.58	1788.17
472.77	1748.38
472.95	1785.83
473.13	1870.09
473.31	1891.15
473.49	1781.15
473.67	1809.23
473.85	1919.24
474.03	1930.94
474.21	1933.28
474.39	2003.50
474.57	1881.79
474.75	1858.39
474.93	1940.30
475.12	1834.98
475.30	1872.43
475.48	1872.43
475.66	1959.03
475.84	1860.73
476.02	1912.22
476.20	1844.34
476.38	1846.68
476.56	1996.48
476.74	2008.18
476.92	1912.22
477.10	1994.14
477.28	2045.63
477.46	2008.18
477.64	2033.93
477.82	2071.37
478.00	1954.35
478.18	2045.63
478.36	1940.30
478.54	1919.24
478.72	1980.09
478.90	2101.80
479.08	2080.74
479.26	2064.35
479.44	2094.78
479.62	2143.93
479.80	2108.82
479.98	2214.15
480.16	2195.42
480.34	2333.51
480.52	2141.59
480.70	2354.58
480.88	2251.60
481.06	2204.78
481.24	2146.27
481.41	2284.36
481.59	2370.96
481.77	2303.09
481.95	2270.32
482.13	2291.38
482.31	2251.60
482.49	2242.23
482.67	2277.34
482.85	2380.32
483.03	2377.98
483.21	2263.30
483.39	2490.33
483.57	2340.54
483.74	2354.58
483.92	2422.45
484.10	2312.45
484.28	2506.71
484.46	2569.91
484.64	2466.92
484.82	2366.28
485.00	2410.75
485.18	2417.77
485.35	2312.45
485.53	2232.87
485.71	2113.50
485.89	1984.77
486.07	2153.29
486.25	2333.51
486.43	2448.20
486.61	2340.54
486.78	2403.73
486.96	2478.63
487.14	2504.37
487.32	2476.29
487.50	2588.63
487.68	2719.70
487.85	2668.21
488.03	2478.63
488.21	2637.78
488.39	2565.23
488.57	2661.19
488.75	2448.20
488.92	2864.82
489.10	2726.72
489.28	2895.24
489.46	2874.18
489.64	2883.54
489.81	2995.89
489.99	2899.92
490.17	2925.67
490.35	2974.82
490.53	2881.20
490.70	2745.45
490.88	2759.49
491.06	3028.65
491.24	2925.67
491.41	2874.18
491.59	2764.17
491.77	2682.25
491.95	2850.77
492.13	2745.45
492.30	2836.73
492.48	2874.18
492.66	2986.52
492.84	2953.76
493.01	3045.04
493.19	2923.33
493.37	2925.67
493.54	2958.44
493.72	2897.58
493.90	3073.12
494.08	3096.53
494.25	3215.90
494.43	3007.59
494.61	2986.52
494.79	3173.77
494.96	3227.60
495.14	3166.74
495.32	3075.46
495.49	2881.20
495.67	3045.04
495.85	3054.40
496.02	3169.09
496.20	3258.03
496.38	3183.13
496.55	3150.36
496.73	3304.84
496.91	3267.39
497.09	3229.94
497.26	3236.96
497.44	3239.30
497.62	3169.09
497.79	3087.17
497.97	3000.57
498.14	2953.76
498.32	3180.79
498.50	3178.45
498.67	3075.46
498.85	3248.66
499.03	3178.45
499.20	3353.99
499.38	3141.00
499.56	3258.03
499.73	3251.00
499.91	3211.22
500.08	3110.57
500.26	3019.29
500.44	3103.55
500.61	3122.27
500.79	3171.43
500.97	3185.47
501.14	3094.19
501.32	3054.40
501.49	3047.38
501.67	3014.61
501.84	2977.16
502.02	3045.04
502.20	3124.62
502.37	3169.09
502.55	3225.26
502.72	3148.02
502.90	3330.58
503.07	3115.25
503.25	3197.17
503.43	2944.39
503.60	2909.29
503.78	2888.22
503.95	3054.40
504.13	3038.02
504.30	3215.90
504.48	3077.80
504.65	3208.87
504.83	3138.66
505.01	3222.92
505.18	3185.47
505.36	3208.87
505.53	3183.13
505.71	3293.13
505.88	3421.86
506.06	3290.79
506.23	3272.07
506.41	3183.13
506.58	3372.71
506.76	3351.65
506.93	3192.49
507.11	3213.56
507.28	3141.00
507.46	3061.42
507.63	3194.83
507.81	3150.36
507.98	3164.40
508.16	3248.66
508.33	3208.87
508.50	3199.51
508.68	3377.39
508.85	3487.40
509.03	3316.54
509.20	3440.59
509.38	3332.92
509.55	3255.69
509.73	3199.51
509.90	3342.28
510.08	3314.20
510.25	3262.71
510.42	3241.64
510.60	3258.03
510.77	3321.22
510.95	3440.59
511.12	3389.10
511.30	3480.38
511.47	3552.93
511.64	3548.25
511.82	3428.88
511.99	3288.45
512.17	3276.75
512.34	3365.69
512.51	3389.10
512.69	3375.05
512.86	3330.58
513.04	3428.88
513.21	3365.69
513.38	3262.71
513.56	3255.69
513.73	3267.39
513.90	3262.71
514.08	3346.97
514.25	3398.46
514.43	3255.69
514.60	3225.26
514.77	3449.95
514.95	3255.69
515.12	3286.11
515.29	3332.92
515.47	3349.31
515.64	3449.95
515.81	3466.33
515.99	3351.65
516.16	3159.72
516.33	3021.63
516.51	2892.90
516.68	2745.45
516.85	2771.19
517.03	2822.69
517.20	3112.91
517.37	3122.27
517.54	3323.56
517.72	3164.40
517.89	3080.14
518.06	2803.96
518.24	2883.54
518.41	3070.78
518.58	3166.74
518.75	3192.49
518.93	3318.88
519.10	3190.15
519.27	3171.43
519.45	3314.20
519.62	3361.01
519.79	3492.08
519.96	3342.28
520.14	3431.23
520.31	3351.65
520.48	3368.03
520.65	3372.71
520.83	3356.33
521.00	3407.82
521.17	3438.25
521.34	3368.03
521.52	3337.60
521.69	3503.78
521.86	3424.20
522.03	3454.63
522.20	3286.11
522.38	3241.64
522.55	3321.22
522.72	3365.69
522.89	3262.71
523.07	3351.65
523.24	3393.78
523.41	3517.83
523.58	3473.36
523.75	3480.38
523.92	3452.29
524.10	3435.91
524.27	3471.01
524.44	3550.59
524.61	3414.84
524.78	3405.48
524.96	3478.04
525.13	3356.33
525.30	3428.88
525.47	3538.89
525.64	3597.40
525.81	3531.87
525.98	3370.37
526.16	3087.17
526.33	3009.93
526.50	3075.46
526.67	3030.99
526.84	2965.46
527.01	3145.68
527.18	3201.85
527.36	3290.79
527.53	3384.41
527.70	3499.10
527.87	3396.12
528.04	3339.94
528.21	3368.03
528.38	3391.44
528.55	3557.61
528.72	3585.70
528.89	3648.90
529.07	3454.63
529.24	3454.63
529.41	3456.97
529.58	3365.69
529.75	3323.56
529.92	3335.26
530.09	3379.73
530.26	3522.51
530.43	3534.21
530.60	3620.81
530.77	3508.46
530.94	3707.41
531.11	3676.98
531.28	3627.83
531.46	3559.95
531.63	3604.42
531.80	3625.49
531.97	3461.65
532.14	3492.08
532.31	3234.62
532.48	3251.00
532.65	3232.28
532.82	3286.11
532.99	3496.76
533.16	3534.21
533.33	3459.31
533.50	3536.55
533.67	3431.23
533.84	3449.95
534.01	3510.80
534.18	3421.86
534.35	3318.88
534.52	3375.05
534.69	3576.34
534.86	3506.12
535.03	3550.59
535.20	3576.34
535.37	3562.30
535.54	3566.98
535.71	3524.85
535.88	3646.55
536.05	3574.00
536.22	3487.40
536.38	3403.14
536.55	3377.39
536.72	3323.56
536.89	3375.05
537.06	3300.16
537.23	3576.34
537.40	3590.38
537.57	3552.93
537.74	3627.83
537.91	3658.26
538.08	3791.67
538.25	3679.32
538.42	3637.19
538.59	3681.66
538.75	3506.12
538.92	3510.80
539.09	3520.17
539.26	3620.81
539.43	3581.02
539.60	3590.38
539.77	3805.71
539.94	3772.94
540.11	3829.12
540.28	3737.84
540.44	3684.00
540.61	3815.07
540.78	3941.46
540.95	4135.73
541.12	4472.76
541.29	4610.86
541.46	4601.49
541.62	4580.43
541.79	4674.05
541.96	4311.27
542.13	4397.87
542.30	4339.35
542.47	4381.48
542.63	4287.86
542.80	4320.63
542.97	4229.35
543.14	4187.22
543.31	4231.69
543.48	4231.69
543.64	4294.88
543.81	4458.72
543.98	4477.44
544.15	4339.35
544.32	4238.71
544.48	4201.26
544.65	4334.67
544.82	4301.90
544.99	4365.10
545.16	4227.01
545.32	4170.83
545.49	5233.44
545.66	6361.58
545.83	6736.06
546.00	6434.13
546.16	5284.93
546.33	4805.12
546.50	4512.55
546.67	4273.82
546.83	4014.02
547.00	3969.55
547.17	3955.51
547.34	3798.69
547.50	3953.16
547.67	4084.23
547.84	3974.23
548.00	3815.07
548.17	3939.12
548.34	3850.18
548.51	3873.59
548.67	3932.10
548.84	3686.34
549.01	3801.03
549.18	3777.62
549.34	3824.44
549.51	3674.64
549.68	3714.43
549.84	3698.05
550.01	3754.22
550.18	3681.66
550.34	3817.41
550.51	3735.50
550.68	3590.38
550.84	3468.67
551.01	3583.36
551.18	3445.27
551.34	3524.85
551.51	3499.10
551.68	3599.74
551.84	3639.53
552.01	3541.23
552.18	3475.70
552.34	3417.18
552.51	3356.33
552.68	3300.16
552.84	3410.16
553.01	3562.30
553.18	3421.86
553.34	3473.36
553.51	3218.24
553.67	3421.86
553.84	3499.10
554.01	3297.81
554.17	3424.20
554.34	3389.10
554.51	3379.73
554.67	3424.20
554.84	3435.91
555.00	3316.54
555.17	3356.33
555.33	3316.54
555.50	3286.11
555.67	3421.86
555.83	3234.62
556.00	3211.22
556.16	3323.56
556.33	3115.25
556.50	3251.00
556.66	3192.49
556.83	3187.81
556.99	3042.70
557.16	3262.71
557.32	3276.75
557.49	3197.17
557.65	3204.19
557.82	3087.17
557.98	3166.74
558.15	3178.45
558.32	3056.74
558.48	3068.44
558.65	3082.49
558.81	2958.44
558.98	2988.86
559.14	3152.70
559.31	2986.52
559.47	2988.86
559.64	3068.44
559.80	3108.23
559.97	3028.65
560.13	2984.18
560.30	3115.25
560.46	3262.71
560.63	3225.26
560.79	3173.77
560.96	3337.60
561.12	3157.38
561.29	3143.34
561.45	3108.23
561.61	3091.85
561.78	3077.80
561.94	3098.87
562.11	2995.89
562.27	3070.78
562.44	3014.61
562.60	3276.75
562.77	3089.51
562.93	3218.24
563.10	3201.85
563.26	2977.16
563.42	3016.95
563.59	3021.63
563.75	3110.57
563.92	3061.42
564.08	3049.72
564.24	3007.59
564.41	3126.96
564.57	3038.02
564.74	3073.12
564.90	2956.10
565.07	3103.55
565.23	3054.40
565.39	2860.13
565.56	2906.95
565.72	2832.05
565.88	2977.16
566.05	2913.97
566.21	2991.20
566.38	2888.22
566.54	2984.18
566.70	3023.97
566.87	2984.18
567.03	2963.12
567.19	2923.33
567.36	2986.52
567.52	3087.17
567.68	2958.44
567.85	2841.41
568.01	2820.35
568.17	2810.98
568.34	2722.04
568.50	2850.77
568.66	2773.53
568.83	2820.35
568.99	2906.95
569.15	2874.18
569.32	2869.50
569.48	2684.59
569.64	2696.30
569.81	2808.64
569.97	2885.88
570.13	2911.63
570.30	2672.89
570.46	2822.69
570.62	2698.64
570.78	2670.55
570.95	2623.74
571.11	2752.47
571.27	2815.66
571.43	2834.39
571.60	2677.57
571.76	2822.69
571.92	2806.30
572.09	2911.63
572.25	2750.13
572.41	2825.03
572.57	2832.05
572.74	2913.97
572.90	2825.03
573.06	2829.71
573.22	2700.98
573.38	2836.73
573.55	3000.57
573.71	2773.53
573.87	2810.98
574.03	2834.39
574.20	2703.32
574.36	2733.75
574.52	2778.22
574.68	2799.28
574.84	2710.34
575.01	2761.83
575.17	2719.70
575.33	2644.81
575.49	2892.90
575.65	2843.75
575.82	2724.38
575.98	2590.97
576.14	2867.16
576.30	2981.84
576.46	3199.51
576.62	3356.33
576.79	3398.46
576.95	3243.98
577.11	2902.26
577.27	2789.92
577.43	2843.75
577.59	2815.66
577.75	2808.64
577.92	2621.40
578.08	2640.12
578.24	2700.98
578.40	2750.13
578.56	2988.86
578.72	3180.79
578.88	3234.62
579.04	3005.25
579.21	3061.42
579.37	2906.95
579.53	2925.67
579.69	2862.48
579.85	3035.67
580.01	2942.05
580.17	2974.82
580.33	2796.94
580.49	2855.45
580.65	2888.22
580.82	2839.07
580.98	2820.35
581.14	2841.41
581.30	2923.33
581.46	2862.48
581.62	2822.69
581.78	2867.16
581.94	2963.12
582.10	2860.13
582.26	2942.05
582.42	3021.63
582.58	3033.33
582.74	2981.84
582.90	3063.76
583.06	3038.02
583.22	3091.85
583.38	2972.48
583.54	3143.34
583.70	3038.02
583.86	2981.84
584.02	2885.88
584.18	3075.46
584.34	2860.13
584.50	3059.08
584.66	3045.04
584.82	2867.16
584.98	2890.56
585.14	2818.00
585.30	2757.15
585.46	2719.70
585.62	2729.06
585.78	2686.94
585.94	2808.64
586.10	2794.60
586.26	2810.98
586.42	2764.17
586.58	2942.05
586.74	2958.44
586.90	2979.50
587.06	3096.53
587.22	3080.14
587.38	2862.48
587.54	2937.37
587.70	2668.21
587.86	2654.17
588.02	2523.10
588.18	2483.31
588.34	2321.81
588.49	2143.93
588.65	2057.33
588.81	2146.27
588.97	2008.18
589.13	2122.87
589.29	2003.50
589.45	2078.40
589.61	2012.86
589.77	2155.63
589.93	2214.15
590.08	2296.07
590.24	2317.13
590.40	2347.56
590.56	2380.32
590.72	2389.69
590.88	2326.49
591.04	2317.13
591.20	2408.41
591.35	2434.16
591.51	2380.32
591.67	2289.04
591.83	2307.77
591.99	2394.37
592.15	2408.41
592.31	2490.33
592.46	2516.08
592.62	2565.23
592.78	2605.02
592.94	2609.70
593.10	2656.51
593.26	2691.62
593.41	2630.76
593.57	2555.86
593.73	2469.27
593.89	2354.58
594.05	2352.24
594.20	2157.97
594.36	2232.87
594.52	2174.36
594.68	2127.55
594.84	2277.34
594.99	2431.82
595.15	2300.75
595.31	2387.35
595.47	2286.70
595.62	2359.26
595.78	2354.58
595.94	2450.54
596.10	2373.30
596.25	2438.84
596.41	2331.17
596.57	2256.28
596.73	2265.64
596.88	2366.28
597.04	2410.75
597.20	2317.13
597.36	2223.51
597.51	2265.64
597.67	2282.02
597.83	2352.24
597.99	2516.08
598.14	2363.94
598.30	2487.99
598.46	2466.92
598.61	2415.43
