SpectraSuite Data File
++++++++++++++++++++++++++++++++++++
Date: Fri Oct 04 11:41:46 GMT-05:00 2013
User: price-jones
Dark Spectrum Present: No
Reference Spectrum Present: No
Number of Sampled Component Spectra: 1
Spectrometers: USB2+H05261
Integration Time (usec): 100000 (USB2+H05261)
Spectra Averaged: 1 (USB2+H05261)
Boxcar Smoothing: 0 (USB2+H05261)
Correct for Electrical Dark: No (USB2+H05261)
Strobe/Lamp Enabled: No (USB2+H05261)
Correct for Detector Non-linearity: No (USB2+H05261)
Correct for Stray Light: No (USB2+H05261)
Number of Pixels in Processed Spectrum: 2048
>>>>>Begin Processed Spectral Data<<<<<
365.73	7.02
365.92	7.02
366.12	7.02
366.32	4.68
366.52	0.00
366.72	0.00
366.91	0.00
367.11	0.00
367.31	0.00
367.51	0.00
367.70	0.00
367.90	0.00
368.10	0.00
368.30	0.00
368.49	0.00
368.69	0.00
368.89	0.00
369.09	0.00
369.28	0.00
369.48	0.00
369.68	0.00
369.87	42.13
370.07	2.34
370.27	25.75
370.47	37.45
370.66	37.45
370.86	72.56
371.06	81.92
371.25	131.07
371.45	28.09
371.65	147.45
371.84	60.85
372.04	135.75
372.24	152.13
372.44	131.07
372.63	133.41
372.83	168.52
373.03	154.48
373.22	128.73
373.42	77.24
373.62	110.01
373.81	124.05
374.01	194.26
374.21	135.75
374.40	114.69
374.60	191.92
374.79	93.62
374.99	266.82
375.19	154.48
375.38	180.22
375.58	72.56
375.78	180.22
375.97	227.03
376.17	159.16
376.37	217.67
376.56	159.16
376.76	184.90
376.95	177.88
377.15	194.26
377.35	161.50
377.54	189.58
377.74	126.39
377.93	184.90
378.13	128.73
378.33	196.60
378.52	128.73
378.72	161.50
378.91	154.48
379.11	114.69
379.31	91.28
379.50	110.01
379.70	138.09
379.89	177.88
380.09	208.31
380.28	194.26
380.48	154.48
380.68	70.22
380.87	107.66
381.07	201.29
381.26	112.35
381.46	112.35
381.65	117.03
381.85	114.69
382.04	98.30
382.24	161.50
382.43	152.13
382.63	98.30
382.83	88.94
383.02	154.48
383.22	119.37
383.41	110.01
383.61	88.94
383.80	91.28
384.00	140.43
384.19	168.52
384.39	93.62
384.58	138.09
384.78	119.37
384.97	154.48
385.17	149.79
385.36	117.03
385.56	88.94
385.75	145.11
385.95	152.13
386.14	168.52
386.34	142.77
386.53	180.22
386.72	114.69
386.92	184.90
387.11	156.82
387.31	159.16
387.50	112.35
387.70	88.94
387.89	84.26
388.09	124.05
388.28	135.75
388.48	140.43
388.67	135.75
388.86	140.43
389.06	142.77
389.25	180.22
389.45	128.73
389.64	152.13
389.84	187.24
390.03	252.78
390.22	100.64
390.42	175.54
390.61	138.09
390.81	154.48
391.00	168.52
391.19	170.86
391.39	114.69
391.58	124.05
391.78	227.03
391.97	149.79
392.16	138.09
392.36	147.45
392.55	135.75
392.75	138.09
392.94	161.50
393.13	191.92
393.33	98.30
393.52	142.77
393.71	229.37
393.91	124.05
394.10	110.01
394.29	65.54
394.49	91.28
394.68	100.64
394.88	105.32
395.07	198.95
395.26	166.18
395.46	98.30
395.65	140.43
395.84	177.88
396.04	222.35
396.23	91.28
396.42	32.77
396.62	166.18
396.81	102.98
397.00	117.03
397.19	126.39
397.39	215.33
397.58	198.95
397.77	161.50
397.97	173.20
398.16	107.66
398.35	124.05
398.55	147.45
398.74	133.41
398.93	191.92
399.12	198.95
399.32	156.82
399.51	161.50
399.70	84.26
399.90	168.52
400.09	184.90
400.28	191.92
400.47	189.58
400.67	173.20
400.86	152.13
401.05	180.22
401.24	119.37
401.44	182.56
401.63	156.82
401.82	210.65
402.01	196.60
402.21	156.82
402.40	227.03
402.59	175.54
402.78	201.29
402.97	203.63
403.17	294.91
403.36	339.38
403.55	386.19
403.74	755.99
403.93	2267.98
404.13	5521.32
404.32	9202.99
404.51	8901.06
404.70	5757.72
404.89	2162.66
405.09	575.77
405.28	337.04
405.47	238.73
405.66	243.42
405.85	234.05
406.05	170.86
406.24	205.97
406.43	184.90
406.62	273.84
406.81	241.08
407.00	383.85
407.20	786.42
407.39	1184.31
407.58	1390.28
407.77	1053.24
407.96	526.62
408.15	229.37
408.34	212.99
408.54	264.48
408.73	205.97
408.92	159.16
409.11	133.41
409.30	222.35
409.49	215.33
409.68	161.50
409.87	241.08
410.07	224.69
410.26	159.16
410.45	191.92
410.64	177.88
410.83	138.09
411.02	163.84
411.21	224.69
411.40	241.08
411.59	285.55
411.78	170.86
411.98	208.31
412.17	227.03
412.36	184.90
412.55	224.69
412.74	280.86
412.93	315.97
413.12	210.65
413.31	255.12
413.50	224.69
413.69	182.56
413.88	222.35
414.07	287.89
414.26	315.97
414.45	250.44
414.64	304.27
414.83	283.20
415.02	269.16
415.22	294.91
415.41	236.39
415.60	304.27
415.79	234.05
415.98	257.46
416.17	222.35
416.36	273.84
416.55	257.46
416.74	266.82
416.93	299.59
417.12	229.37
417.31	273.84
417.50	287.89
417.69	318.31
417.88	299.59
418.07	229.37
418.26	285.55
418.45	250.44
418.64	339.38
418.83	346.40
419.02	294.91
419.21	287.89
419.39	262.14
419.58	311.29
419.77	280.86
419.96	409.59
420.15	337.04
420.34	306.61
420.53	285.55
420.72	292.57
420.91	341.72
421.10	355.76
421.29	308.95
421.48	217.67
421.67	374.49
421.86	334.70
422.05	348.74
422.24	330.02
422.43	337.04
422.61	283.20
422.80	259.80
422.99	259.80
423.18	355.76
423.37	369.80
423.56	330.02
423.75	400.23
423.94	339.38
424.13	280.86
424.32	234.05
424.50	339.38
424.69	320.65
424.88	355.76
425.07	409.59
425.26	440.02
425.45	390.87
425.64	425.98
425.83	414.27
426.01	367.46
426.20	341.72
426.39	325.33
426.58	376.83
426.77	320.65
426.96	393.21
427.15	411.93
427.33	451.72
427.52	341.72
427.71	369.80
427.90	437.68
428.09	493.85
428.28	425.98
428.46	390.87
428.65	409.59
428.84	491.51
429.03	397.89
429.22	477.47
429.40	374.49
429.59	421.30
429.78	407.25
429.97	360.44
430.16	409.59
430.34	404.91
430.53	372.15
430.72	402.57
430.91	397.89
431.10	393.21
431.28	479.81
431.47	489.17
431.66	512.58
431.85	526.62
432.03	477.47
432.22	507.90
432.41	505.56
432.60	552.37
432.79	500.87
432.97	638.97
433.16	641.31
433.35	669.39
433.54	711.52
433.72	786.42
433.91	793.44
434.10	858.98
434.28	978.34
434.47	1235.80
434.66	1359.85
434.85	1514.33
435.03	3925.08
435.22	13790.44
435.41	34717.17
435.59	45364.26
435.78	31732.98
435.97	15159.65
436.16	5837.30
436.34	1909.88
436.53	1114.10
436.72	901.11
436.90	798.12
437.09	692.80
437.28	634.29
437.46	629.60
437.65	622.58
437.84	638.97
438.02	685.78
438.21	655.35
438.40	564.07
438.58	613.22
438.77	638.97
438.96	521.94
439.14	620.24
439.33	568.75
439.52	564.07
439.70	545.34
439.89	599.18
440.08	557.05
440.26	521.94
440.45	482.15
440.63	587.47
440.82	631.94
441.01	521.94
441.19	533.64
441.38	528.96
441.57	603.86
441.75	531.30
441.94	557.05
442.12	594.50
442.31	451.72
442.50	458.74
442.68	550.03
442.87	587.47
443.05	561.73
443.24	578.11
443.43	535.98
443.61	489.17
443.80	589.82
443.98	627.26
444.17	573.43
444.35	599.18
444.54	517.26
444.73	472.79
444.91	535.98
445.10	512.58
445.28	524.28
445.47	517.26
445.65	543.00
445.84	491.51
446.02	582.79
446.21	578.11
446.39	573.43
446.58	580.45
446.77	571.09
446.95	458.74
447.14	510.24
447.32	566.41
447.51	606.20
447.69	568.75
447.88	500.87
448.06	521.94
448.25	592.16
448.43	552.37
448.62	526.62
448.80	528.96
448.99	507.90
449.17	507.90
449.36	496.19
449.54	517.26
449.73	486.83
449.91	650.67
450.10	638.97
450.28	636.63
450.46	634.29
450.65	573.43
450.83	564.07
451.02	557.05
451.20	594.50
451.39	517.26
451.57	564.07
451.76	512.58
451.94	475.13
452.13	503.22
452.31	580.45
452.49	543.00
452.68	566.41
452.86	592.16
453.05	524.28
453.23	489.17
453.42	552.37
453.60	500.87
453.78	454.06
453.97	463.43
454.15	496.19
454.34	526.62
454.52	592.16
454.70	517.26
454.89	491.51
455.07	456.40
455.26	503.22
455.44	538.32
455.62	475.13
455.81	533.64
455.99	608.54
456.17	468.11
456.36	622.58
456.54	514.92
456.73	493.85
456.91	496.19
457.09	538.32
457.28	505.56
457.46	428.32
457.64	521.94
457.83	465.77
458.01	496.19
458.19	519.60
458.38	500.87
458.56	496.19
458.74	400.23
458.93	538.32
459.11	624.92
459.29	524.28
459.48	561.73
459.66	564.07
459.84	507.90
460.03	603.86
460.21	543.00
460.39	393.21
460.57	568.75
460.76	524.28
460.94	587.47
461.12	608.54
461.31	526.62
461.49	545.34
461.67	533.64
461.85	500.87
462.04	507.90
462.22	627.26
462.40	503.22
462.59	512.58
462.77	510.24
462.95	538.32
463.13	521.94
463.32	500.87
463.50	454.06
463.68	545.34
463.86	521.94
464.05	528.96
464.23	533.64
464.41	585.13
464.59	557.05
464.78	592.16
464.96	575.77
465.14	540.66
465.32	496.19
465.50	564.07
465.69	564.07
465.87	517.26
466.05	463.43
466.23	554.71
466.41	491.51
466.60	608.54
466.78	624.92
466.96	566.41
467.14	545.34
467.32	514.92
467.51	608.54
467.69	517.26
467.87	433.00
468.05	489.17
468.23	587.47
468.41	461.09
468.60	472.79
468.78	454.06
468.96	514.92
469.14	489.17
469.32	440.02
469.50	428.32
469.69	489.17
469.87	454.06
470.05	447.04
470.23	505.56
470.41	512.58
470.59	449.38
470.77	507.90
470.95	507.90
471.14	491.51
471.32	531.30
471.50	498.53
471.68	442.36
471.86	524.28
472.04	514.92
472.22	564.07
472.40	477.47
472.58	554.71
472.77	517.26
472.95	514.92
473.13	547.69
473.31	564.07
473.49	444.70
473.67	496.19
473.85	479.81
474.03	484.49
474.21	538.32
474.39	468.11
474.57	491.51
474.75	498.53
474.93	503.22
475.12	416.62
475.30	545.34
475.48	491.51
475.66	538.32
475.84	552.37
476.02	470.45
476.20	451.72
476.38	524.28
476.56	620.24
476.74	491.51
476.92	493.85
477.10	475.13
477.28	517.26
477.46	456.40
477.64	568.75
477.82	500.87
478.00	573.43
478.18	615.56
478.36	547.69
478.54	603.86
478.72	622.58
478.90	667.05
479.08	662.37
479.26	582.79
479.44	645.99
479.62	674.07
479.80	634.29
479.98	697.48
480.16	741.95
480.34	774.72
480.52	870.68
480.70	812.17
480.88	809.83
481.06	880.04
481.24	901.11
481.41	1022.81
481.59	1055.58
481.77	1062.60
481.95	1057.92
482.13	1160.91
482.31	1240.48
482.49	1348.15
482.67	1397.30
482.85	1612.63
483.03	1689.87
483.21	1769.44
483.39	1844.34
483.57	1937.96
483.74	2272.66
483.92	2223.51
484.10	2366.28
484.28	2415.43
484.46	2605.02
484.64	2696.30
484.82	2857.79
485.00	2986.52
485.18	3141.00
485.35	3421.86
485.53	3515.48
485.71	3576.34
485.89	4037.42
486.07	4014.02
486.25	4156.79
486.43	4079.55
486.61	4114.66
486.78	4105.30
486.96	3985.93
487.14	4035.08
487.32	4133.39
487.50	3936.78
487.68	3920.40
487.85	3878.27
488.03	3794.01
488.21	3850.18
488.39	3819.75
488.57	3606.77
488.75	3550.59
488.92	3831.46
489.10	3452.29
489.28	3368.03
489.46	3314.20
489.64	3112.91
489.81	3185.47
489.99	3117.59
490.17	3026.31
490.35	3117.59
490.53	2944.39
490.70	3066.10
490.88	3009.93
491.06	3215.90
491.24	3300.16
491.41	3550.59
491.59	3171.43
491.77	3096.53
491.95	2963.12
492.13	2715.02
492.30	2764.17
492.48	2700.98
492.66	2808.64
492.84	2579.27
493.01	2621.40
493.19	2607.36
493.37	2495.01
493.54	2483.31
493.72	2518.42
493.90	2370.96
494.08	2396.71
494.25	2422.45
494.43	2392.03
494.61	2244.57
494.79	2204.78
494.96	2246.91
495.14	2253.94
495.32	2183.72
495.49	2064.35
495.67	2045.63
495.85	2069.03
496.02	1961.37
496.20	2040.95
496.38	1952.01
496.55	1881.79
496.73	2040.95
496.91	1832.64
497.09	1996.48
497.26	1806.89
497.44	1694.55
497.62	1671.14
497.79	1685.19
497.97	1797.53
498.14	1607.95
498.32	1671.14
498.50	1596.25
498.67	1572.84
498.85	1526.03
499.03	1430.07
499.20	1507.30
499.38	1416.02
499.56	1369.21
499.73	1423.05
499.91	1392.62
500.08	1245.16
500.26	1291.98
500.44	1200.69
500.61	1212.40
500.79	1165.59
500.97	1076.65
501.14	1060.26
501.32	957.28
501.49	1011.11
501.67	1008.77
501.84	945.58
502.02	877.70
502.20	980.68
502.37	980.68
502.55	903.45
502.72	840.25
502.90	833.23
503.07	835.57
503.25	842.59
503.43	753.65
503.60	709.18
503.78	779.40
503.95	718.54
504.13	732.59
504.30	753.65
504.48	767.70
504.65	767.70
504.83	667.05
505.01	648.33
505.18	662.37
505.36	664.71
505.53	599.18
505.71	645.99
505.88	601.52
506.06	594.50
506.23	606.20
506.41	620.24
506.58	552.37
506.76	617.90
506.93	589.82
507.11	503.22
507.28	627.26
507.46	507.90
507.63	479.81
507.81	552.37
507.98	552.37
508.16	627.26
508.33	550.03
508.50	575.77
508.68	580.45
508.85	610.88
509.03	526.62
509.20	603.86
509.38	585.13
509.55	580.45
509.73	615.56
509.90	528.96
510.08	573.43
510.25	535.98
510.42	514.92
510.60	592.16
510.77	524.28
510.95	545.34
511.12	484.49
511.30	505.56
511.47	407.25
511.64	468.11
511.82	449.38
511.99	538.32
512.17	531.30
512.34	486.83
512.51	440.02
512.69	440.02
512.86	545.34
513.04	472.79
513.21	507.90
513.38	454.06
513.56	440.02
513.73	442.36
513.90	421.30
514.08	472.79
514.25	477.47
514.43	407.25
514.60	299.59
514.77	479.81
514.95	500.87
515.12	397.89
515.29	425.98
515.47	397.89
515.64	463.43
515.81	435.34
515.99	491.51
516.16	449.38
516.33	470.45
516.51	442.36
516.68	404.91
516.85	320.65
517.03	393.21
517.20	447.04
517.37	454.06
517.54	444.70
517.72	369.80
517.89	327.68
518.06	348.74
518.24	411.93
518.41	435.34
518.58	449.38
518.75	372.15
518.93	334.70
519.10	421.30
519.27	414.27
519.45	421.30
519.62	353.42
519.79	470.45
519.96	360.44
520.14	379.17
520.31	444.70
520.48	430.66
520.65	402.57
520.83	397.89
521.00	472.79
521.17	402.57
521.34	421.30
521.52	409.59
521.69	388.53
521.86	369.80
522.03	428.32
522.20	383.85
522.38	388.53
522.55	440.02
522.72	379.17
522.89	449.38
523.07	454.06
523.24	395.55
523.41	407.25
523.58	433.00
523.75	365.12
523.92	409.59
524.10	437.68
524.27	390.87
524.44	390.87
524.61	383.85
524.78	379.17
524.96	444.70
525.13	449.38
525.30	500.87
525.47	482.15
525.64	486.83
525.81	468.11
525.98	484.49
526.16	416.62
526.33	514.92
526.50	449.38
526.67	503.22
526.84	521.94
527.01	512.58
527.18	447.04
527.36	575.77
527.53	547.69
527.70	571.09
527.87	512.58
528.04	512.58
528.21	458.74
528.38	528.96
528.55	566.41
528.72	582.79
528.89	571.09
529.07	557.05
529.24	505.56
529.41	636.63
529.58	617.90
529.75	557.05
529.92	528.96
530.09	451.72
530.26	491.51
530.43	550.03
530.60	653.01
530.77	669.39
530.94	653.01
531.11	641.31
531.28	653.01
531.46	725.57
531.63	678.76
531.80	739.61
531.97	765.36
532.14	877.70
532.31	1151.54
532.48	1320.06
532.65	1556.46
532.82	1760.08
532.99	2022.22
533.16	2249.25
533.33	2455.22
533.50	2188.40
533.67	2059.67
533.84	1675.82
534.01	1488.58
534.18	1401.98
534.35	1364.53
534.52	1413.68
534.69	1411.34
534.86	1474.54
535.03	1483.90
535.20	1519.01
535.37	1771.79
535.54	1776.47
535.71	1813.92
535.88	1914.56
536.05	2019.88
536.22	2099.46
536.38	2406.07
536.55	2684.59
536.72	2920.99
536.89	3253.34
537.06	3726.13
537.23	4189.56
537.40	4503.19
537.57	4762.99
537.74	5146.84
537.91	5418.34
538.08	5444.09
538.25	5483.88
538.42	5647.71
538.59	5696.86
538.75	5865.38
538.92	6253.91
539.09	6715.00
539.26	7332.90
539.43	8313.58
539.60	9572.79
539.77	10729.02
539.94	12386.12
540.11	13694.47
540.28	14703.25
540.44	16102.89
540.61	17729.56
540.78	20657.57
540.95	24173.05
541.12	29560.97
541.29	33748.18
541.46	35924.88
541.62	35524.65
541.79	34225.65
541.96	31559.78
542.13	29397.13
542.30	27236.81
542.47	25326.94
542.63	24224.54
542.80	23278.97
542.97	22960.66
543.14	22970.02
543.31	23037.89
543.48	22977.04
543.64	23342.16
543.81	23634.73
543.98	23854.74
544.15	23601.96
544.32	24144.97
544.48	23690.90
544.65	23407.70
544.82	23438.12
544.99	23332.80
545.16	23831.33
545.32	25032.03
545.49	36961.74
545.66	58775.53
545.83	65535.00
546.00	65535.00
546.16	54480.65
546.33	41408.76
546.50	31566.81
546.67	24320.51
546.83	21799.75
547.00	20758.21
547.17	19735.40
547.34	19035.58
547.50	17795.09
547.67	17425.29
547.84	16563.97
548.00	16294.81
548.17	15747.12
548.34	14698.56
548.51	14476.21
548.67	13848.95
548.84	12922.10
549.01	12243.34
549.18	11854.81
549.34	11239.25
549.51	10775.83
549.68	10375.59
549.84	9994.09
550.01	9715.56
550.18	9100.00
550.34	8732.54
550.51	8128.68
550.68	7946.12
550.84	7368.01
551.01	7094.16
551.18	6719.68
551.34	6420.09
551.51	6244.55
551.68	6071.35
551.84	5593.88
552.01	5509.62
552.18	5277.91
552.34	4854.27
552.51	4898.74
552.68	4564.04
552.84	4559.36
553.01	4257.43
553.18	4262.12
553.34	4009.34
553.51	3803.37
553.67	3726.13
553.84	3625.49
554.01	3412.50
554.17	3236.96
554.34	2956.10
554.51	2768.85
554.67	2717.36
554.84	2516.08
555.00	2534.80
555.17	2256.28
555.33	2129.89
555.50	2047.97
555.67	1909.88
555.83	1837.32
556.00	1834.98
556.16	1867.75
556.33	1664.12
556.50	1689.87
556.66	1540.07
556.83	1465.18
556.99	1509.65
557.16	1486.24
557.32	1322.40
557.49	1338.79
557.65	1411.34
557.82	1296.66
557.98	1210.06
558.15	1231.12
558.32	1212.40
558.48	1203.04
558.65	1093.03
558.81	1078.99
558.98	1123.46
559.14	1071.97
559.31	959.62
559.47	1142.18
559.64	1062.60
559.80	997.07
559.97	954.94
560.13	936.21
560.30	980.68
560.46	994.73
560.63	938.55
560.79	919.83
560.96	936.21
561.12	983.02
561.29	912.81
561.45	908.13
561.61	926.85
561.78	1097.71
561.94	978.34
562.11	866.00
562.27	980.68
562.44	947.92
562.60	873.02
562.77	887.06
562.93	985.37
563.10	901.11
563.26	915.15
563.42	821.53
563.59	837.91
563.75	744.29
563.92	819.19
564.08	746.63
564.24	812.17
564.41	861.32
564.57	791.10
564.74	758.33
564.90	751.31
565.07	793.44
565.23	851.96
565.39	716.20
565.56	739.61
565.72	678.76
565.88	664.71
566.05	685.78
566.21	683.44
566.38	695.14
566.54	798.12
566.70	741.95
566.87	713.86
567.03	692.80
567.19	748.97
567.36	791.10
567.52	765.36
567.68	732.59
567.85	711.52
568.01	641.31
568.17	718.54
568.34	816.85
568.50	858.98
568.66	788.76
568.83	908.13
568.99	622.58
569.15	788.76
569.32	744.29
569.48	631.94
569.64	557.05
569.81	554.71
569.97	571.09
570.13	631.94
570.30	578.11
570.46	559.39
570.62	545.34
570.78	521.94
570.95	524.28
571.11	587.47
571.27	587.47
571.43	547.69
571.60	601.52
571.76	596.84
571.92	645.99
572.09	559.39
572.25	519.60
572.41	685.78
572.57	512.58
572.74	585.13
572.90	514.92
573.06	571.09
573.22	540.66
573.38	636.63
573.55	610.88
573.71	592.16
573.87	631.94
574.03	657.69
574.20	692.80
574.36	685.78
574.52	610.88
574.68	711.52
574.84	695.14
575.01	779.40
575.17	830.89
575.33	905.79
575.49	976.00
575.65	978.34
575.82	1013.45
575.98	1205.38
576.14	1219.42
576.30	2305.43
576.46	7150.34
576.62	14846.02
576.79	18391.93
576.95	13202.96
577.11	8035.06
577.27	5486.22
577.43	3735.50
577.59	2431.82
577.75	1905.20
577.92	1739.02
578.08	1671.14
578.24	1633.69
578.40	2619.06
578.56	6876.49
578.72	13032.10
578.88	16992.29
579.04	12718.47
579.21	8189.53
579.37	5767.08
579.53	4514.89
579.69	4095.94
579.85	5088.32
580.01	6153.27
580.17	6153.27
580.33	5186.63
580.49	4353.40
580.65	3794.01
580.82	3447.61
580.98	3421.86
581.14	3599.74
581.30	3702.73
581.46	3817.41
581.62	4177.86
581.78	4491.49
581.94	4830.87
582.10	5231.10
582.26	5591.54
582.42	5736.65
582.58	5816.23
582.74	5849.00
582.90	5935.60
583.06	6080.71
583.22	5942.62
583.38	6050.28
583.54	5743.67
583.70	5809.21
583.86	5968.37
584.02	5750.70
584.18	5586.86
584.34	5441.75
584.50	5514.30
584.66	5511.96
584.82	5228.76
584.98	5392.59
585.14	5277.91
585.30	5102.37
585.46	5039.17
585.62	5022.79
585.78	4943.21
585.94	4887.04
586.10	5041.51
586.26	5399.62
586.42	6076.03
586.58	7033.31
586.74	8833.18
586.90	10448.15
587.06	11857.15
587.22	12084.19
587.38	10726.68
587.54	9219.37
587.70	7623.12
587.86	6382.64
588.02	5605.58
588.18	4858.95
588.34	4435.32
588.49	3859.54
588.65	3777.62
588.81	3496.76
588.97	3492.08
589.13	3361.01
589.29	3267.39
589.45	3330.58
589.61	3321.22
589.77	3346.97
589.93	3215.90
590.08	3323.56
590.24	3426.54
590.40	3620.81
590.56	3674.64
590.72	3735.50
590.88	3840.82
591.04	3985.93
591.20	4088.92
591.35	4451.70
591.51	4634.26
591.67	4727.88
591.83	5093.01
591.99	5404.30
592.15	5984.75
592.31	6476.26
592.46	7140.97
592.62	7744.83
592.78	8273.79
592.94	8755.94
593.10	8557.00
593.26	8135.70
593.41	7435.88
593.57	6604.99
593.73	5912.19
593.89	5235.78
594.05	4645.96
594.20	4067.85
594.36	3740.18
594.52	3454.63
594.68	3412.50
594.84	3068.44
594.99	3225.26
595.15	3068.44
595.31	3112.91
595.47	2888.22
595.62	2951.42
595.78	2860.13
595.94	2909.29
596.10	2920.99
596.25	2895.24
596.41	3009.93
596.57	2925.67
596.73	2932.69
596.88	2951.42
597.04	2825.03
597.20	3005.25
597.36	3016.95
597.51	3103.55
597.67	3178.45
597.83	3300.16
597.99	3585.70
598.14	3644.21
598.30	3918.06
598.46	4107.64
598.61	4283.18
598.77	4671.71
598.93	4781.71
599.09	4856.61
599.24	5011.09
599.40	5069.60
599.56	4854.27
599.71	4833.21
599.87	4425.95
600.03	4079.55
600.18	3871.25
600.34	3726.13
600.50	3433.57
600.65	3176.11
600.81	2918.65
600.97	2932.69
601.12	2614.38
601.28	2567.57
601.44	2546.50
601.59	2312.45
601.75	2331.17
601.91	2235.21
602.06	2108.82
602.22	2097.12
602.37	1902.86
602.53	1916.90
602.69	1884.13
602.84	1853.70
603.00	1877.11
603.16	1937.96
603.31	2073.71
603.47	2132.23
603.62	2031.58
603.78	2066.69
603.94	2101.80
604.09	2214.15
604.25	2284.36
604.40	2263.30
604.56	2244.57
604.71	2293.72
