SpectraSuite Data File
++++++++++++++++++++++++++++++++++++
Date: Fri Oct 04 11:42:27 GMT-05:00 2013
User: price-jones
Dark Spectrum Present: No
Reference Spectrum Present: No
Number of Sampled Component Spectra: 1
Spectrometers: USB2+H05261
Integration Time (usec): 100000 (USB2+H05261)
Spectra Averaged: 1 (USB2+H05261)
Boxcar Smoothing: 0 (USB2+H05261)
Correct for Electrical Dark: No (USB2+H05261)
Strobe/Lamp Enabled: No (USB2+H05261)
Correct for Detector Non-linearity: No (USB2+H05261)
Correct for Stray Light: No (USB2+H05261)
Number of Pixels in Processed Spectrum: 2048
>>>>>Begin Processed Spectral Data<<<<<
365.73	46.81
365.92	46.81
366.12	46.81
366.32	30.43
366.52	0.00
366.72	0.00
366.91	0.00
367.11	0.00
367.31	0.00
367.51	0.00
367.70	0.00
367.90	0.00
368.10	0.00
368.30	0.00
368.49	0.00
368.69	0.00
368.89	0.00
369.09	0.00
369.28	0.00
369.48	0.00
369.68	0.00
369.87	0.00
370.07	0.00
370.27	28.09
370.47	32.77
370.66	30.43
370.86	4.68
371.06	35.11
371.25	98.30
371.45	37.45
371.65	126.39
371.84	56.17
372.04	124.05
372.24	70.22
372.44	126.39
372.63	65.54
372.83	124.05
373.03	154.48
373.22	95.96
373.42	81.92
373.62	140.43
373.81	161.50
374.01	142.77
374.21	131.07
374.40	135.75
374.60	105.32
374.79	131.07
374.99	152.13
375.19	126.39
375.38	39.79
375.58	126.39
375.78	117.03
375.97	131.07
376.17	248.10
376.37	117.03
376.56	63.19
376.76	145.11
376.95	95.96
377.15	170.86
377.35	74.90
377.54	154.48
377.74	91.28
377.93	77.24
378.13	98.30
378.33	149.79
378.52	105.32
378.72	154.48
378.91	173.20
379.11	93.62
379.31	114.69
379.50	95.96
379.70	131.07
379.89	107.66
380.09	168.52
380.28	107.66
380.48	84.26
380.68	93.62
380.87	63.19
381.07	175.54
381.26	126.39
381.46	166.18
381.65	133.41
381.85	133.41
382.04	63.19
382.24	102.98
382.43	16.38
382.63	110.01
382.83	35.11
383.02	74.90
383.22	149.79
383.41	86.60
383.61	98.30
383.80	72.56
384.00	131.07
384.19	98.30
384.39	117.03
384.58	79.58
384.78	117.03
384.97	142.77
385.17	135.75
385.36	46.81
385.56	105.32
385.75	58.51
385.95	135.75
386.14	72.56
386.34	49.15
386.53	145.11
386.72	126.39
386.92	119.37
387.11	110.01
387.31	91.28
387.50	128.73
387.70	166.18
387.89	149.79
388.09	74.90
388.28	161.50
388.48	72.56
388.67	168.52
388.86	121.71
389.06	95.96
389.25	128.73
389.45	65.54
389.64	156.82
389.84	128.73
390.03	131.07
390.22	121.71
390.42	72.56
390.61	138.09
390.81	93.62
391.00	114.69
391.19	84.26
391.39	138.09
391.58	131.07
391.78	138.09
391.97	124.05
392.16	46.81
392.36	133.41
392.55	166.18
392.75	88.94
392.94	98.30
393.13	86.60
393.33	49.15
393.52	126.39
393.71	131.07
393.91	107.66
394.10	88.94
394.29	117.03
394.49	135.75
394.68	168.52
394.88	114.69
395.07	198.95
395.26	81.92
395.46	184.90
395.65	107.66
395.84	88.94
396.04	238.73
396.23	105.32
396.42	112.35
396.62	135.75
396.81	135.75
397.00	131.07
397.19	114.69
397.39	105.32
397.58	163.84
397.77	121.71
397.97	107.66
398.16	184.90
398.35	166.18
398.55	88.94
398.74	187.24
398.93	184.90
399.12	159.16
399.32	32.77
399.51	100.64
399.70	119.37
399.90	119.37
400.09	102.98
400.28	119.37
400.47	110.01
400.67	81.92
400.86	128.73
401.05	102.98
401.24	91.28
401.44	205.97
401.63	133.41
401.82	88.94
402.01	74.90
402.21	93.62
402.40	79.58
402.59	67.88
402.78	81.92
402.97	46.81
403.17	168.52
403.36	156.82
403.55	128.73
403.74	154.48
403.93	175.54
404.13	248.10
404.32	222.35
404.51	236.39
404.70	229.37
404.89	161.50
405.09	124.05
405.28	220.01
405.47	114.69
405.66	102.98
405.85	117.03
406.05	65.54
406.24	145.11
406.43	105.32
406.62	168.52
406.81	93.62
407.00	196.60
407.20	107.66
407.39	102.98
407.58	117.03
407.77	220.01
407.96	220.01
408.15	163.84
408.34	147.45
408.54	105.32
408.73	154.48
408.92	208.31
409.11	107.66
409.30	154.48
409.49	126.39
409.68	163.84
409.87	102.98
410.07	110.01
410.26	84.26
410.45	140.43
410.64	98.30
410.83	128.73
411.02	107.66
411.21	114.69
411.40	114.69
411.59	46.81
411.78	156.82
411.98	152.13
412.17	105.32
412.36	152.13
412.55	170.86
412.74	201.29
412.93	142.77
413.12	79.58
413.31	149.79
413.50	145.11
413.69	194.26
413.88	203.63
414.07	152.13
414.26	156.82
414.45	44.47
414.64	100.64
414.83	121.71
415.02	147.45
415.22	117.03
415.41	117.03
415.60	205.97
415.79	105.32
415.98	119.37
416.17	107.66
416.36	184.90
416.55	91.28
416.74	182.56
416.93	191.92
417.12	102.98
417.31	119.37
417.50	131.07
417.69	121.71
417.88	201.29
418.07	84.26
418.26	91.28
418.45	112.35
418.64	154.48
418.83	126.39
419.02	102.98
419.21	175.54
419.39	128.73
419.58	93.62
419.77	196.60
419.96	95.96
420.15	180.22
420.34	161.50
420.53	98.30
420.72	198.95
420.91	156.82
421.10	159.16
421.29	149.79
421.48	163.84
421.67	159.16
421.86	168.52
422.05	159.16
422.24	163.84
422.43	175.54
422.61	86.60
422.80	95.96
422.99	105.32
423.18	112.35
423.37	119.37
423.56	81.92
423.75	98.30
423.94	110.01
424.13	194.26
424.32	70.22
424.50	112.35
424.69	156.82
424.88	152.13
425.07	142.77
425.26	187.24
425.45	173.20
425.64	65.54
425.83	154.48
426.01	138.09
426.20	170.86
426.39	114.69
426.58	107.66
426.77	182.56
426.96	166.18
427.15	159.16
427.33	37.45
427.52	152.13
427.71	142.77
427.90	72.56
428.09	131.07
428.28	88.94
428.46	102.98
428.65	194.26
428.84	74.90
429.03	184.90
429.22	187.24
429.40	117.03
429.59	95.96
429.78	224.69
429.97	95.96
430.16	91.28
430.34	112.35
430.53	135.75
430.72	142.77
430.91	175.54
431.10	81.92
431.28	168.52
431.47	117.03
431.66	107.66
431.85	182.56
432.03	117.03
432.22	217.67
432.41	110.01
432.60	217.67
432.79	86.60
432.97	187.24
433.16	53.83
433.35	142.77
433.54	135.75
433.72	177.88
433.91	100.64
434.10	201.29
434.28	128.73
434.47	198.95
434.66	191.92
434.85	236.39
435.03	229.37
435.22	585.13
435.41	983.02
435.59	1022.81
435.78	830.89
435.97	491.51
436.16	280.86
436.34	194.26
436.53	241.08
436.72	187.24
436.90	56.17
437.09	173.20
437.28	133.41
437.46	95.96
437.65	191.92
437.84	159.16
438.02	133.41
438.21	121.71
438.40	170.86
438.58	191.92
438.77	121.71
438.96	156.82
439.14	168.52
439.33	182.56
439.52	208.31
439.70	152.13
439.89	138.09
440.08	173.20
440.26	140.43
440.45	138.09
440.63	149.79
440.82	177.88
441.01	168.52
441.19	170.86
441.38	133.41
441.57	133.41
441.75	205.97
441.94	159.16
442.12	105.32
442.31	205.97
442.50	182.56
442.68	138.09
442.87	170.86
443.05	168.52
443.24	222.35
443.43	161.50
443.61	131.07
443.80	124.05
443.98	163.84
444.17	93.62
444.35	234.05
444.54	229.37
444.73	131.07
444.91	161.50
445.10	138.09
445.28	201.29
445.47	149.79
445.65	88.94
445.84	154.48
446.02	168.52
446.21	147.45
446.39	145.11
446.58	166.18
446.77	128.73
446.95	191.92
447.14	147.45
447.32	196.60
447.51	110.01
447.69	114.69
447.88	170.86
448.06	294.91
448.25	121.71
448.43	220.01
448.62	166.18
448.80	152.13
448.99	117.03
449.17	173.20
449.36	152.13
449.54	175.54
449.73	222.35
449.91	229.37
450.10	107.66
450.28	191.92
450.46	187.24
450.65	119.37
450.83	217.67
451.02	229.37
451.20	191.92
451.39	159.16
451.57	191.92
451.76	107.66
451.94	145.11
452.13	243.42
452.31	142.77
452.49	154.48
452.68	231.71
452.86	175.54
453.05	222.35
453.23	102.98
453.42	189.58
453.60	119.37
453.78	117.03
453.97	140.43
454.15	222.35
454.34	107.66
454.52	138.09
454.70	231.71
454.89	234.05
455.07	154.48
455.26	149.79
455.44	238.73
455.62	229.37
455.81	177.88
455.99	140.43
456.17	196.60
456.36	117.03
456.54	140.43
456.73	140.43
456.91	149.79
457.09	110.01
457.28	140.43
457.46	208.31
457.64	231.71
457.83	173.20
458.01	177.88
458.19	215.33
458.38	257.46
458.56	175.54
458.74	198.95
458.93	222.35
459.11	189.58
459.29	175.54
459.48	229.37
459.66	140.43
459.84	105.32
460.03	252.78
460.21	175.54
460.39	156.82
460.57	135.75
460.76	220.01
460.94	173.20
461.12	189.58
461.31	220.01
461.49	140.43
461.67	166.18
461.85	72.56
462.04	170.86
462.22	304.27
462.40	245.76
462.59	266.82
462.77	142.77
462.95	168.52
463.13	166.18
463.32	159.16
463.50	189.58
463.68	191.92
463.86	191.92
464.05	203.63
464.23	229.37
464.41	154.48
464.59	110.01
464.78	145.11
464.96	180.22
465.14	208.31
465.32	208.31
465.50	238.73
465.69	212.99
465.87	117.03
466.05	245.76
466.23	159.16
466.41	201.29
466.60	210.65
466.78	205.97
466.96	191.92
467.14	236.39
467.32	217.67
467.51	182.56
467.69	241.08
467.87	159.16
468.05	163.84
468.23	119.37
468.41	201.29
468.60	91.28
468.78	121.71
468.96	285.55
469.14	117.03
469.32	135.75
469.50	138.09
469.69	163.84
469.87	124.05
470.05	203.63
470.23	140.43
470.41	173.20
470.59	135.75
470.77	175.54
470.95	126.39
471.14	205.97
471.32	161.50
471.50	236.39
471.68	142.77
471.86	208.31
472.04	191.92
472.22	231.71
472.40	191.92
472.58	212.99
472.77	184.90
472.95	184.90
473.13	259.80
473.31	187.24
473.49	140.43
473.67	175.54
473.85	177.88
474.03	173.20
474.21	152.13
474.39	208.31
474.57	234.05
474.75	163.84
474.93	145.11
475.12	72.56
475.30	105.32
475.48	170.86
475.66	105.32
475.84	290.23
476.02	184.90
476.20	138.09
476.38	215.33
476.56	262.14
476.74	156.82
476.92	166.18
477.10	191.92
477.28	276.18
477.46	243.42
477.64	201.29
477.82	210.65
478.00	140.43
478.18	189.58
478.36	145.11
478.54	128.73
478.72	196.60
478.90	227.03
479.08	159.16
479.26	210.65
479.44	138.09
479.62	133.41
479.80	152.13
479.98	117.03
480.16	145.11
480.34	161.50
480.52	149.79
480.70	250.44
480.88	224.69
481.06	173.20
481.24	250.44
481.41	217.67
481.59	217.67
481.77	203.63
481.95	269.16
482.13	290.23
482.31	217.67
482.49	212.99
482.67	222.35
482.85	287.89
483.03	234.05
483.21	196.60
483.39	159.16
483.57	236.39
483.74	294.91
483.92	266.82
484.10	217.67
484.28	259.80
484.46	283.20
484.64	308.95
484.82	266.82
485.00	271.50
485.18	273.84
485.35	255.12
485.53	322.99
485.71	297.25
485.89	257.46
486.07	304.27
486.25	365.12
486.43	287.89
486.61	313.63
486.78	344.06
486.96	306.61
487.14	311.29
487.32	365.12
487.50	369.80
487.68	346.40
487.85	264.48
488.03	304.27
488.21	337.04
488.39	306.61
488.57	308.95
488.75	280.86
488.92	498.53
489.10	327.68
489.28	292.57
489.46	280.86
489.64	311.29
489.81	280.86
489.99	287.89
490.17	304.27
490.35	407.25
490.53	301.93
490.70	259.80
490.88	313.63
491.06	369.80
491.24	292.57
491.41	297.25
491.59	278.52
491.77	271.50
491.95	341.72
492.13	262.14
492.30	337.04
492.48	311.29
492.66	304.27
492.84	264.48
493.01	292.57
493.19	313.63
493.37	334.70
493.54	344.06
493.72	304.27
493.90	264.48
494.08	311.29
494.25	269.16
494.43	273.84
494.61	262.14
494.79	266.82
494.96	330.02
495.14	304.27
495.32	285.55
495.49	306.61
495.67	287.89
495.85	315.97
496.02	245.76
496.20	290.23
496.38	243.42
496.55	238.73
496.73	320.65
496.91	255.12
497.09	262.14
497.26	210.65
497.44	269.16
497.62	234.05
497.79	269.16
497.97	304.27
498.14	294.91
498.32	301.93
498.50	266.82
498.67	252.78
498.85	278.52
499.03	241.08
499.20	255.12
499.38	322.99
499.56	285.55
499.73	229.37
499.91	229.37
500.08	262.14
500.26	294.91
500.44	250.44
500.61	203.63
500.79	271.50
500.97	203.63
501.14	180.22
501.32	212.99
501.49	269.16
501.67	245.76
501.84	273.84
502.02	208.31
502.20	255.12
502.37	315.97
502.55	198.95
502.72	224.69
502.90	294.91
503.07	259.80
503.25	175.54
503.43	196.60
503.60	215.33
503.78	250.44
503.95	217.67
504.13	220.01
504.30	180.22
504.48	280.86
504.65	236.39
504.83	259.80
505.01	276.18
505.18	208.31
505.36	227.03
505.53	287.89
505.71	236.39
505.88	306.61
506.06	194.26
506.23	184.90
506.41	210.65
506.58	205.97
506.76	222.35
506.93	177.88
507.11	301.93
507.28	208.31
507.46	184.90
507.63	187.24
507.81	229.37
507.98	299.59
508.16	290.23
508.33	189.58
508.50	287.89
508.68	311.29
508.85	273.84
509.03	245.76
509.20	229.37
509.38	276.18
509.55	257.46
509.73	234.05
509.90	217.67
510.08	227.03
510.25	234.05
510.42	248.10
510.60	128.73
510.77	201.29
510.95	266.82
511.12	227.03
511.30	262.14
511.47	278.52
511.64	273.84
511.82	273.84
511.99	208.31
512.17	208.31
512.34	208.31
512.51	287.89
512.69	220.01
512.86	229.37
513.04	234.05
513.21	250.44
513.38	205.97
513.56	273.84
513.73	280.86
513.90	236.39
514.08	217.67
514.25	210.65
514.43	194.26
514.60	238.73
514.77	163.84
514.95	224.69
515.12	168.52
515.29	301.93
515.47	196.60
515.64	287.89
515.81	259.80
515.99	264.48
516.16	262.14
516.33	266.82
516.51	210.65
516.68	227.03
516.85	203.63
517.03	208.31
517.20	262.14
517.37	266.82
517.54	205.97
517.72	299.59
517.89	145.11
518.06	142.77
518.24	304.27
518.41	315.97
518.58	287.89
518.75	250.44
518.93	208.31
519.10	212.99
519.27	208.31
519.45	252.78
519.62	243.42
519.79	231.71
519.96	191.92
520.14	255.12
520.31	238.73
520.48	196.60
520.65	215.33
520.83	290.23
521.00	287.89
521.17	234.05
521.34	264.48
521.52	341.72
521.69	259.80
521.86	318.31
522.03	269.16
522.20	262.14
522.38	264.48
522.55	271.50
522.72	203.63
522.89	234.05
523.07	231.71
523.24	278.52
523.41	290.23
523.58	191.92
523.75	217.67
523.92	241.08
524.10	238.73
524.27	306.61
524.44	208.31
524.61	273.84
524.78	276.18
524.96	315.97
525.13	297.25
525.30	278.52
525.47	330.02
525.64	318.31
525.81	245.76
525.98	273.84
526.16	262.14
526.33	271.50
526.50	117.03
526.67	222.35
526.84	238.73
527.01	248.10
527.18	227.03
527.36	234.05
527.53	241.08
527.70	227.03
527.87	255.12
528.04	208.31
528.21	269.16
528.38	283.20
528.55	280.86
528.72	194.26
528.89	327.68
529.07	297.25
529.24	217.67
529.41	341.72
529.58	248.10
529.75	248.10
529.92	264.48
530.09	259.80
530.26	271.50
530.43	238.73
530.60	236.39
530.77	266.82
530.94	276.18
531.11	194.26
531.28	205.97
531.46	276.18
531.63	220.01
531.80	287.89
531.97	241.08
532.14	271.50
532.31	236.39
532.48	250.44
532.65	283.20
532.82	287.89
532.99	285.55
533.16	348.74
533.33	313.63
533.50	278.52
533.67	294.91
533.84	313.63
534.01	287.89
534.18	311.29
534.35	334.70
534.52	308.95
534.69	332.36
534.86	297.25
535.03	301.93
535.20	292.57
535.37	344.06
535.54	313.63
535.71	208.31
535.88	297.25
536.05	325.33
536.22	341.72
536.38	294.91
536.55	313.63
536.72	313.63
536.89	283.20
537.06	322.99
537.23	376.83
537.40	337.04
537.57	367.46
537.74	409.59
537.91	348.74
538.08	444.70
538.25	440.02
538.42	451.72
538.59	409.59
538.75	451.72
538.92	425.98
539.09	414.27
539.26	430.66
539.43	538.32
539.60	379.17
539.77	519.60
539.94	603.86
540.11	667.05
540.28	653.01
540.44	727.91
540.61	744.29
540.78	734.93
540.95	868.34
541.12	1032.18
541.29	1111.75
541.46	1139.84
541.62	1200.69
541.79	1181.97
541.96	1186.65
542.13	1151.54
542.30	1139.84
542.47	1097.71
542.63	987.71
542.80	1090.69
542.97	1109.41
543.14	1053.24
543.31	1135.16
543.48	1095.37
543.64	1181.97
543.81	1114.10
543.98	1114.10
544.15	1102.39
544.32	1064.94
544.48	1013.45
544.65	1025.15
544.82	1071.97
544.99	931.53
545.16	1048.56
545.32	1071.97
545.49	1582.20
545.66	2413.09
545.83	2761.83
546.00	2401.39
546.16	1781.15
546.33	1336.45
546.50	1053.24
546.67	915.15
546.83	830.89
547.00	737.27
547.17	720.88
547.34	791.10
547.50	685.78
547.67	734.93
547.84	606.20
548.00	683.44
548.17	554.71
548.34	662.37
548.51	650.67
548.67	617.90
548.84	573.43
549.01	596.84
549.18	568.75
549.34	653.01
549.51	601.52
549.68	535.98
549.84	610.88
550.01	524.28
550.18	610.88
550.34	587.47
550.51	552.37
550.68	526.62
550.84	407.25
551.01	437.68
551.18	470.45
551.34	528.96
551.51	477.47
551.68	475.13
551.84	456.40
552.01	379.17
552.18	447.04
552.34	440.02
552.51	404.91
552.68	353.42
552.84	332.36
553.01	409.59
553.18	372.15
553.34	360.44
553.51	344.06
553.67	322.99
553.84	334.70
554.01	285.55
554.17	362.78
554.34	344.06
554.51	395.55
554.67	301.93
554.84	374.49
555.00	402.57
555.17	367.46
555.33	304.27
555.50	269.16
555.67	292.57
555.83	292.57
556.00	271.50
556.16	440.02
556.33	322.99
556.50	234.05
556.66	287.89
556.83	257.46
556.99	283.20
557.16	294.91
557.32	220.01
557.49	313.63
557.65	201.29
557.82	337.04
557.98	280.86
558.15	198.95
558.32	264.48
558.48	273.84
558.65	236.39
558.81	278.52
558.98	236.39
559.14	369.80
559.31	173.20
559.47	320.65
559.64	257.46
559.80	341.72
559.97	224.69
560.13	217.67
560.30	285.55
560.46	252.78
560.63	273.84
560.79	238.73
560.96	255.12
561.12	210.65
561.29	280.86
561.45	191.92
561.61	283.20
561.78	348.74
561.94	245.76
562.11	220.01
562.27	245.76
562.44	234.05
562.60	283.20
562.77	292.57
562.93	285.55
563.10	243.42
563.26	294.91
563.42	299.59
563.59	245.76
563.75	301.93
563.92	297.25
564.08	205.97
564.24	308.95
564.41	327.68
564.57	187.24
564.74	255.12
564.90	262.14
565.07	252.78
565.23	283.20
565.39	234.05
565.56	252.78
565.72	278.52
565.88	245.76
566.05	285.55
566.21	201.29
566.38	278.52
566.54	311.29
566.70	269.16
566.87	294.91
567.03	196.60
567.19	332.36
567.36	187.24
567.52	330.02
567.68	266.82
567.85	297.25
568.01	271.50
568.17	241.08
568.34	170.86
568.50	299.59
568.66	241.08
568.83	311.29
568.99	273.84
569.15	241.08
569.32	229.37
569.48	283.20
569.64	215.33
569.81	170.86
569.97	271.50
570.13	297.25
570.30	222.35
570.46	187.24
570.62	271.50
570.78	227.03
570.95	173.20
571.11	252.78
571.27	308.95
571.43	170.86
571.60	220.01
571.76	238.73
571.92	278.52
572.09	255.12
572.25	217.67
572.41	191.92
572.57	269.16
572.74	301.93
572.90	191.92
573.06	224.69
573.22	201.29
573.38	266.82
573.55	201.29
573.71	294.91
573.87	264.48
574.03	231.71
574.20	252.78
574.36	278.52
574.52	292.57
574.68	222.35
574.84	278.52
575.01	234.05
575.17	248.10
575.33	299.59
575.49	299.59
575.65	231.71
575.82	236.39
575.98	250.44
576.14	250.44
576.30	301.93
576.46	395.55
576.62	594.50
576.79	706.84
576.95	603.86
577.11	449.38
577.27	388.53
577.43	344.06
577.59	330.02
577.75	292.57
577.92	311.29
578.08	273.84
578.24	173.20
578.40	409.59
578.56	543.00
578.72	648.33
578.88	676.41
579.04	456.40
579.21	500.87
579.37	372.15
579.53	353.42
579.69	358.10
579.85	393.21
580.01	341.72
580.17	362.78
580.33	430.66
580.49	390.87
580.65	337.04
580.82	339.38
580.98	297.25
581.14	341.72
581.30	376.83
581.46	374.49
581.62	304.27
581.78	369.80
581.94	463.43
582.10	315.97
582.26	402.57
582.42	409.59
582.58	395.55
582.74	360.44
582.90	470.45
583.06	447.04
583.22	470.45
583.38	348.74
583.54	400.23
583.70	437.68
583.86	528.96
584.02	367.46
584.18	461.09
584.34	400.23
584.50	500.87
584.66	400.23
584.82	418.96
584.98	376.83
585.14	355.76
585.30	311.29
585.46	365.12
585.62	393.21
585.78	409.59
585.94	379.17
586.10	407.25
586.26	402.57
586.42	428.32
586.58	465.77
586.74	491.51
586.90	535.98
587.06	585.13
587.22	592.16
587.38	601.52
587.54	442.36
587.70	514.92
587.86	407.25
588.02	440.02
588.18	505.56
588.34	348.74
588.49	304.27
588.65	311.29
588.81	433.00
588.97	344.06
589.13	320.65
589.29	355.76
589.45	444.70
589.61	339.38
589.77	372.15
589.93	320.65
590.08	351.08
590.24	313.63
590.40	353.42
590.56	400.23
590.72	355.76
590.88	393.21
591.04	313.63
591.20	318.31
591.35	409.59
591.51	325.33
591.67	369.80
591.83	367.46
591.99	374.49
592.15	411.93
592.31	418.96
592.46	402.57
592.62	470.45
592.78	447.04
592.94	456.40
593.10	404.91
593.26	418.96
593.41	458.74
593.57	430.66
593.73	383.85
593.89	369.80
594.05	301.93
594.20	222.35
594.36	346.40
594.52	266.82
594.68	365.12
594.84	428.32
594.99	311.29
595.15	297.25
595.31	308.95
595.47	365.12
595.62	243.42
595.78	220.01
595.94	344.06
596.10	315.97
596.25	318.31
596.41	285.55
596.57	255.12
596.73	238.73
596.88	306.61
597.04	280.86
597.20	224.69
597.36	306.61
597.51	292.57
597.67	355.76
597.83	346.40
597.99	341.72
598.14	306.61
598.30	376.83
598.46	365.12
598.61	311.29
598.77	322.99
598.93	346.40
599.09	372.15
599.24	358.10
599.40	360.44
599.56	383.85
599.71	330.02
599.87	365.12
600.03	334.70
600.18	308.95
600.34	372.15
600.50	283.20
600.65	273.84
600.81	346.40
600.97	227.03
601.12	264.48
601.28	318.31
601.44	322.99
601.59	215.33
601.75	353.42
601.91	252.78
602.06	320.65
602.22	304.27
602.37	236.39
602.53	322.99
602.69	210.65
602.84	278.52
603.00	262.14
603.16	308.95
603.31	315.97
603.47	285.55
603.62	229.37
603.78	330.02
603.94	297.25
604.09	278.52
604.25	238.73
604.40	266.82
604.56	299.59
604.71	299.59
604.87	222.35
605.03	229.37
605.18	301.93
605.34	283.20
605.49	278.52
605.65	346.40
605.80	191.92
605.96	269.16
606.12	257.46
606.27	379.17
606.43	250.44
606.58	339.38
606.74	337.04
606.89	313.63
607.05	332.36
607.20	346.40
607.36	353.42
607.51	287.89
607.67	255.12
607.82	320.65
607.98	379.17
608.13	447.04
608.29	433.00
608.44	468.11
608.60	404.91
608.75	505.56
608.91	449.38
609.06	486.83
609.22	531.30
609.37	543.00
609.53	585.13
609.68	641.31
609.84	638.97
609.99	716.20
610.15	781.74
610.30	1015.79
610.46	1214.74
610.61	1577.52
610.76	1954.35
610.92	2420.11
611.07	2502.03
611.23	2642.46
