SpectraSuite Data File
++++++++++++++++++++++++++++++++++++
Date: Fri Oct 04 11:41:44 GMT-05:00 2013
User: price-jones
Dark Spectrum Present: No
Reference Spectrum Present: No
Number of Sampled Component Spectra: 1
Spectrometers: USB2+H05261
Integration Time (usec): 100000 (USB2+H05261)
Spectra Averaged: 1 (USB2+H05261)
Boxcar Smoothing: 0 (USB2+H05261)
Correct for Electrical Dark: No (USB2+H05261)
Strobe/Lamp Enabled: No (USB2+H05261)
Correct for Detector Non-linearity: No (USB2+H05261)
Correct for Stray Light: No (USB2+H05261)
Number of Pixels in Processed Spectrum: 2048
>>>>>Begin Processed Spectral Data<<<<<
365.73	0.00
365.92	0.00
366.12	0.00
366.32	0.00
366.52	0.00
366.72	0.00
366.91	0.00
367.11	0.00
367.31	0.00
367.51	0.00
367.70	0.00
367.90	30.43
368.10	0.00
368.30	0.00
368.49	0.00
368.69	0.00
368.89	0.00
369.09	0.00
369.28	0.00
369.48	0.00
369.68	0.00
369.87	0.00
370.07	0.00
370.27	46.81
370.47	21.06
370.66	44.47
370.86	0.00
371.06	140.43
371.25	56.17
371.45	74.90
371.65	154.48
371.84	107.66
372.04	0.00
372.24	105.32
372.44	149.79
372.63	140.43
372.83	98.30
373.03	105.32
373.22	67.88
373.42	131.07
373.62	79.58
373.81	147.45
374.01	124.05
374.21	135.75
374.40	131.07
374.60	203.63
374.79	168.52
374.99	110.01
375.19	49.15
375.38	156.82
375.58	142.77
375.78	117.03
375.97	135.75
376.17	128.73
376.37	107.66
376.56	175.54
376.76	156.82
376.95	107.66
377.15	86.60
377.35	128.73
377.54	95.96
377.74	156.82
377.93	154.48
378.13	156.82
378.33	163.84
378.52	102.98
378.72	133.41
378.91	168.52
379.11	126.39
379.31	93.62
379.50	126.39
379.70	163.84
379.89	170.86
380.09	102.98
380.28	191.92
380.48	182.56
380.68	121.71
380.87	114.69
381.07	133.41
381.26	152.13
381.46	100.64
381.65	135.75
381.85	170.86
382.04	154.48
382.24	175.54
382.43	32.77
382.63	86.60
382.83	53.83
383.02	126.39
383.22	159.16
383.41	128.73
383.61	140.43
383.80	149.79
384.00	86.60
384.19	152.13
384.39	121.71
384.58	126.39
384.78	133.41
384.97	163.84
385.17	138.09
385.36	131.07
385.56	182.56
385.75	70.22
385.95	88.94
386.14	159.16
386.34	77.24
386.53	100.64
386.72	145.11
386.92	159.16
387.11	60.85
387.31	117.03
387.50	79.58
387.70	198.95
387.89	175.54
388.09	58.51
388.28	84.26
388.48	170.86
388.67	138.09
388.86	149.79
389.06	131.07
389.25	138.09
389.45	140.43
389.64	107.66
389.84	154.48
390.03	203.63
390.22	163.84
390.42	201.29
390.61	159.16
390.81	58.51
391.00	138.09
391.19	184.90
391.39	142.77
391.58	217.67
391.78	168.52
391.97	98.30
392.16	177.88
392.36	84.26
392.55	114.69
392.75	107.66
392.94	154.48
393.13	119.37
393.33	100.64
393.52	112.35
393.71	170.86
393.91	187.24
394.10	140.43
394.29	95.96
394.49	84.26
394.68	133.41
394.88	117.03
395.07	166.18
395.26	84.26
395.46	142.77
395.65	91.28
395.84	124.05
396.04	175.54
396.23	88.94
396.42	95.96
396.62	112.35
396.81	102.98
397.00	98.30
397.19	163.84
397.39	142.77
397.58	159.16
397.77	124.05
397.97	88.94
398.16	140.43
398.35	161.50
398.55	124.05
398.74	168.52
398.93	201.29
399.12	98.30
399.32	184.90
399.51	128.73
399.70	142.77
399.90	210.65
400.09	191.92
400.28	152.13
400.47	110.01
400.67	168.52
400.86	166.18
401.05	170.86
401.24	124.05
401.44	210.65
401.63	147.45
401.82	215.33
402.01	182.56
402.21	100.64
402.40	161.50
402.59	208.31
402.78	159.16
402.97	205.97
403.17	222.35
403.36	290.23
403.55	388.53
403.74	608.54
403.93	2113.50
404.13	5366.85
404.32	8131.02
404.51	7590.36
404.70	4554.68
404.89	1713.27
405.09	547.69
405.28	236.39
405.47	224.69
405.66	285.55
405.85	203.63
406.05	191.92
406.24	217.67
406.43	149.79
406.62	215.33
406.81	269.16
407.00	351.08
407.20	641.31
407.39	1006.43
407.58	1156.22
407.77	856.64
407.96	458.74
408.15	276.18
408.34	205.97
408.54	220.01
408.73	170.86
408.92	128.73
409.11	304.27
409.30	196.60
409.49	149.79
409.68	142.77
409.87	168.52
410.07	248.10
410.26	168.52
410.45	154.48
410.64	248.10
410.83	217.67
411.02	166.18
411.21	222.35
411.40	222.35
411.59	262.14
411.78	177.88
411.98	168.52
412.17	166.18
412.36	201.29
412.55	250.44
412.74	222.35
412.93	248.10
413.12	241.08
413.31	255.12
413.50	201.29
413.69	238.73
413.88	255.12
414.07	227.03
414.26	243.42
414.45	234.05
414.64	205.97
414.83	201.29
415.02	257.46
415.22	194.26
415.41	231.71
415.60	222.35
415.79	238.73
415.98	255.12
416.17	229.37
416.36	229.37
416.55	294.91
416.74	259.80
416.93	243.42
417.12	266.82
417.31	280.86
417.50	322.99
417.69	318.31
417.88	264.48
418.07	248.10
418.26	224.69
418.45	259.80
418.64	327.68
418.83	245.76
419.02	276.18
419.21	285.55
419.39	269.16
419.58	222.35
419.77	276.18
419.96	280.86
420.15	304.27
420.34	330.02
420.53	297.25
420.72	283.20
420.91	290.23
421.10	311.29
421.29	311.29
421.48	304.27
421.67	320.65
421.86	280.86
422.05	280.86
422.24	250.44
422.43	299.59
422.61	306.61
422.80	301.93
422.99	351.08
423.18	234.05
423.37	306.61
423.56	386.19
423.75	290.23
423.94	220.01
424.13	320.65
424.32	311.29
424.50	367.46
424.69	362.78
424.88	367.46
425.07	264.48
425.26	311.29
425.45	337.04
425.64	386.19
425.83	264.48
426.01	376.83
426.20	388.53
426.39	341.72
426.58	285.55
426.77	318.31
426.96	358.10
427.15	393.21
427.33	299.59
427.52	400.23
427.71	358.10
427.90	423.64
428.09	374.49
428.28	341.72
428.46	358.10
428.65	325.33
428.84	381.51
429.03	407.25
429.22	318.31
429.40	283.20
429.59	327.68
429.78	437.68
429.97	355.76
430.16	362.78
430.34	447.04
430.53	414.27
430.72	386.19
430.91	454.06
431.10	341.72
431.28	451.72
431.47	477.47
431.66	472.79
431.85	470.45
432.03	416.62
432.22	500.87
432.41	461.09
432.60	496.19
432.79	517.26
432.97	535.98
433.16	552.37
433.35	636.63
433.54	692.80
433.72	725.57
433.91	699.82
434.10	725.57
434.28	919.83
434.47	1100.05
434.66	1268.57
434.85	1394.96
435.03	3494.42
435.22	13062.53
435.41	32074.70
435.59	39718.89
435.78	25951.86
435.97	13226.37
436.16	4997.04
436.34	1626.67
436.53	924.51
436.72	828.55
436.90	667.05
437.09	683.44
437.28	641.31
437.46	594.50
437.65	610.88
437.84	589.82
438.02	547.69
438.21	505.56
438.40	442.36
438.58	554.71
438.77	512.58
438.96	482.15
439.14	519.60
439.33	543.00
439.52	543.00
439.70	543.00
439.89	524.28
440.08	465.77
440.26	447.04
440.45	507.90
440.63	491.51
440.82	559.39
441.01	496.19
441.19	503.22
441.38	526.62
441.57	517.26
441.75	519.60
441.94	552.37
442.12	526.62
442.31	465.77
442.50	512.58
442.68	477.47
442.87	514.92
443.05	524.28
443.24	463.43
443.43	416.62
443.61	526.62
443.80	503.22
443.98	463.43
444.17	461.09
444.35	545.34
444.54	498.53
444.73	533.64
444.91	505.56
445.10	543.00
445.28	519.60
445.47	543.00
445.65	472.79
445.84	484.49
446.02	491.51
446.21	486.83
446.39	489.17
446.58	433.00
446.77	470.45
446.95	437.68
447.14	421.30
447.32	519.60
447.51	517.26
447.69	510.24
447.88	557.05
448.06	496.19
448.25	566.41
448.43	400.23
448.62	498.53
448.80	552.37
448.99	543.00
449.17	514.92
449.36	519.60
449.54	482.15
449.73	477.47
449.91	566.41
450.10	528.96
450.28	587.47
450.46	547.69
450.65	512.58
450.83	538.32
451.02	463.43
451.20	524.28
451.39	519.60
451.57	528.96
451.76	512.58
451.94	470.45
452.13	498.53
452.31	503.22
452.49	514.92
452.68	491.51
452.86	454.06
453.05	524.28
453.23	503.22
453.42	425.98
453.60	479.81
453.78	444.70
453.97	477.47
454.15	484.49
454.34	465.77
454.52	430.66
454.70	510.24
454.89	594.50
455.07	428.32
455.26	493.85
455.44	489.17
455.62	468.11
455.81	458.74
455.99	543.00
456.17	500.87
456.36	449.38
456.54	512.58
456.73	472.79
456.91	517.26
457.09	510.24
457.28	416.62
457.46	440.02
457.64	430.66
457.83	505.56
458.01	479.81
458.19	451.72
458.38	418.96
458.56	486.83
458.74	540.66
458.93	425.98
459.11	524.28
459.29	489.17
459.48	491.51
459.66	489.17
459.84	472.79
460.03	547.69
460.21	535.98
460.39	468.11
460.57	472.79
460.76	397.89
460.94	519.60
461.12	491.51
461.31	554.71
461.49	517.26
461.67	484.49
461.85	507.90
462.04	510.24
462.22	613.22
462.40	500.87
462.59	472.79
462.77	468.11
462.95	477.47
463.13	400.23
463.32	486.83
463.50	465.77
463.68	470.45
463.86	367.46
464.05	510.24
464.23	486.83
464.41	491.51
464.59	503.22
464.78	496.19
464.96	479.81
465.14	402.57
465.32	447.04
465.50	505.56
465.69	465.77
465.87	411.93
466.05	437.68
466.23	372.15
466.41	456.40
466.60	540.66
466.78	507.90
466.96	535.98
467.14	524.28
467.32	472.79
467.51	526.62
467.69	526.62
467.87	498.53
468.05	437.68
468.23	454.06
468.41	498.53
468.60	533.64
468.78	463.43
468.96	423.64
469.14	447.04
469.32	425.98
469.50	381.51
469.69	461.09
469.87	411.93
470.05	411.93
470.23	372.15
470.41	407.25
470.59	430.66
470.77	381.51
470.95	491.51
471.14	465.77
471.32	458.74
471.50	496.19
471.68	404.91
471.86	395.55
472.04	409.59
472.22	414.27
472.40	397.89
472.58	414.27
472.77	449.38
472.95	500.87
473.13	543.00
473.31	519.60
473.49	433.00
473.67	442.36
473.85	402.57
474.03	491.51
474.21	472.79
474.39	547.69
474.57	489.17
474.75	449.38
474.93	440.02
475.12	444.70
475.30	388.53
475.48	409.59
475.66	465.77
475.84	458.74
476.02	421.30
476.20	435.34
476.38	514.92
476.56	587.47
476.74	468.11
476.92	489.17
477.10	454.06
477.28	514.92
477.46	528.96
477.64	550.03
477.82	425.98
478.00	507.90
478.18	482.15
478.36	479.81
478.54	449.38
478.72	489.17
478.90	566.41
479.08	599.18
479.26	592.16
479.44	550.03
479.62	674.07
479.80	669.39
479.98	641.31
480.16	643.65
480.34	648.33
480.52	741.95
480.70	716.20
480.88	786.42
481.06	781.74
481.24	755.99
481.41	863.66
481.59	959.62
481.77	1027.50
481.95	1004.09
482.13	1086.01
482.31	1184.31
482.49	1142.18
482.67	1364.53
482.85	1528.37
483.03	1455.81
483.21	1572.84
483.39	1706.25
483.57	1741.36
483.74	1851.36
483.92	2062.01
484.10	2073.71
484.28	2209.47
484.46	2340.54
484.64	2464.58
484.82	2644.81
485.00	2656.51
485.18	2864.82
485.35	2993.55
485.53	3225.26
485.71	3424.20
485.89	3517.83
486.07	3583.36
486.25	3606.77
486.43	3548.25
486.61	3676.98
486.78	3555.27
486.96	3520.17
487.14	3646.55
487.32	3644.21
487.50	3447.61
487.68	3583.36
487.85	3506.12
488.03	3372.71
488.21	3463.99
488.39	3337.60
488.57	3288.45
488.75	3129.30
488.92	3344.63
489.10	3030.99
489.28	2946.73
489.46	2792.26
489.64	2766.51
489.81	2892.90
489.99	2813.32
490.17	2679.91
490.35	2729.06
490.53	2682.25
490.70	2745.45
490.88	2684.59
491.06	2855.45
491.24	3026.31
491.41	3171.43
491.59	2855.45
491.77	2684.59
491.95	2703.32
492.13	2443.52
492.30	2487.99
492.48	2495.01
492.66	2434.16
492.84	2338.20
493.01	2279.68
493.19	2363.94
493.37	2333.51
493.54	2396.71
493.72	2197.76
493.90	2092.44
494.08	2113.50
494.25	2125.21
494.43	2143.93
494.61	2235.21
494.79	1949.67
494.96	2024.56
495.14	1956.69
495.32	1949.67
495.49	1947.33
495.67	1813.92
495.85	1813.92
496.02	1757.74
496.20	1820.94
496.38	1820.94
496.55	1802.21
496.73	1694.55
496.91	1689.87
497.09	1664.12
497.26	1582.20
497.44	1593.90
497.62	1633.69
497.79	1540.07
497.97	1483.90
498.14	1481.56
498.32	1526.03
498.50	1511.99
498.67	1352.83
498.85	1334.11
499.03	1320.06
499.20	1224.10
499.38	1280.27
499.56	1156.22
499.73	1163.25
499.91	1259.21
500.08	1181.97
500.26	1163.25
500.44	1086.01
500.61	1097.71
500.79	1020.47
500.97	1001.75
501.14	1015.79
501.32	947.92
501.49	1020.47
501.67	847.27
501.84	919.83
502.02	854.30
502.20	828.55
502.37	851.96
502.55	774.72
502.72	781.74
502.90	744.29
503.07	683.44
503.25	720.88
503.43	678.76
503.60	840.25
503.78	739.61
503.95	671.73
504.13	622.58
504.30	683.44
504.48	671.73
504.65	683.44
504.83	575.77
505.01	610.88
505.18	631.94
505.36	608.54
505.53	503.22
505.71	592.16
505.88	599.18
506.06	524.28
506.23	578.11
506.41	571.09
506.58	535.98
506.76	524.28
506.93	472.79
507.11	528.96
507.28	512.58
507.46	503.22
507.63	545.34
507.81	454.06
507.98	472.79
508.16	489.17
508.33	393.21
508.50	521.94
508.68	554.71
508.85	519.60
509.03	514.92
509.20	606.20
509.38	521.94
509.55	580.45
509.73	430.66
509.90	475.13
510.08	484.49
510.25	479.81
510.42	416.62
510.60	451.72
510.77	498.53
510.95	423.64
511.12	440.02
511.30	379.17
511.47	479.81
511.64	510.24
511.82	512.58
511.99	430.66
512.17	365.12
512.34	418.96
512.51	482.15
512.69	407.25
512.86	430.66
513.04	367.46
513.21	505.56
513.38	395.55
513.56	379.17
513.73	383.85
513.90	444.70
514.08	430.66
514.25	500.87
514.43	454.06
514.60	365.12
514.77	407.25
514.95	428.32
515.12	449.38
515.29	388.53
515.47	376.83
515.64	428.32
515.81	393.21
515.99	367.46
516.16	484.49
516.33	493.85
516.51	379.17
516.68	348.74
516.85	376.83
517.03	510.24
517.20	393.21
517.37	367.46
517.54	379.17
517.72	341.72
517.89	351.08
518.06	313.63
518.24	409.59
518.41	332.36
518.58	416.62
518.75	393.21
518.93	409.59
519.10	388.53
519.27	327.68
519.45	360.44
519.62	397.89
519.79	451.72
519.96	369.80
520.14	435.34
520.31	404.91
520.48	299.59
520.65	388.53
520.83	334.70
521.00	365.12
521.17	404.91
521.34	386.19
521.52	433.00
521.69	416.62
521.86	383.85
522.03	421.30
522.20	454.06
522.38	339.38
522.55	388.53
522.72	386.19
522.89	372.15
523.07	451.72
523.24	353.42
523.41	372.15
523.58	306.61
523.75	393.21
523.92	416.62
524.10	418.96
524.27	423.64
524.44	470.45
524.61	425.98
524.78	390.87
524.96	428.32
525.13	402.57
525.30	456.40
525.47	421.30
525.64	411.93
525.81	475.13
525.98	355.76
526.16	416.62
526.33	376.83
526.50	409.59
526.67	433.00
526.84	428.32
527.01	491.51
527.18	559.39
527.36	622.58
527.53	514.92
527.70	547.69
527.87	461.09
528.04	535.98
528.21	465.77
528.38	482.15
528.55	458.74
528.72	472.79
528.89	561.73
529.07	524.28
529.24	440.02
529.41	524.28
529.58	519.60
529.75	557.05
529.92	547.69
530.09	528.96
530.26	585.13
530.43	503.22
530.60	587.47
530.77	578.11
530.94	608.54
531.11	671.73
531.28	657.69
531.46	613.22
531.63	657.69
531.80	730.25
531.97	842.59
532.14	866.00
532.31	1013.45
532.48	1221.76
532.65	1355.17
532.82	1507.30
532.99	1755.40
533.16	2050.31
533.33	2225.85
533.50	1989.46
533.67	1788.17
533.84	1490.92
534.01	1310.70
534.18	1277.93
534.35	1186.65
534.52	1259.21
534.69	1270.91
534.86	1217.08
535.03	1371.55
535.20	1416.02
535.37	1486.24
535.54	1619.65
535.71	1685.19
535.88	1778.81
536.05	1839.66
536.22	1996.48
536.38	2083.08
536.55	2307.77
536.72	2878.86
536.89	2766.51
537.06	3246.32
537.23	3613.79
537.40	3878.27
537.57	4320.63
537.74	4444.68
537.91	4669.37
538.08	4898.74
538.25	4884.70
538.42	4704.48
538.59	4990.02
538.75	5069.60
538.92	5441.75
539.09	5930.92
539.26	6729.04
539.43	7602.06
539.60	8449.33
539.77	9614.92
539.94	10654.12
540.11	11878.22
540.28	13048.49
540.44	14052.58
540.61	15515.41
540.78	17795.09
540.95	21546.97
541.12	26022.08
541.29	29415.85
541.46	31346.79
541.62	30967.63
541.79	29441.60
541.96	27414.69
542.13	26103.99
542.30	23878.15
542.47	22209.34
542.63	21001.63
542.80	20407.13
542.97	20098.18
543.14	20147.33
543.31	19955.41
543.48	20163.72
543.64	20496.07
543.81	20435.22
543.98	20844.81
544.15	20751.19
544.32	21116.31
544.48	20980.56
544.65	20645.87
544.82	20449.26
544.99	20255.00
545.16	20996.95
545.32	21717.83
545.49	33310.50
545.66	56308.61
545.83	64919.44
546.00	61719.93
546.16	49155.93
546.33	36924.29
546.50	27550.45
546.67	21170.15
546.83	18841.31
547.00	17834.88
547.17	17153.79
547.34	16479.71
547.50	15571.58
547.67	15372.64
547.84	14391.95
548.00	13692.13
548.17	13642.98
548.34	13025.08
548.51	12418.88
548.67	11899.28
548.84	11396.07
549.01	10846.04
549.18	10499.64
549.34	9785.78
549.51	9476.83
549.68	9310.65
549.84	8833.18
550.01	8470.40
550.18	8322.94
550.34	7527.16
550.51	7300.13
550.68	6700.95
550.84	6525.41
551.01	6085.39
551.18	5685.16
551.34	5497.92
551.51	5268.55
551.68	5233.44
551.84	5043.85
552.01	4865.97
552.18	4730.22
552.34	4461.06
552.51	4231.69
552.68	4117.00
552.84	3964.87
553.01	3655.92
553.18	3744.86
553.34	3644.21
553.51	3517.83
553.67	3377.39
553.84	3253.34
554.01	3028.65
554.17	2736.09
554.34	2684.59
554.51	2490.33
554.67	2401.39
554.84	2326.49
555.00	2136.91
555.17	2001.16
555.33	1795.19
555.50	1713.27
555.67	1706.25
555.83	1675.82
556.00	1654.76
556.16	1692.21
556.33	1455.81
556.50	1434.75
556.66	1413.68
556.83	1439.43
556.99	1345.81
557.16	1245.16
557.32	1259.21
557.49	1233.46
557.65	1210.06
557.82	1158.57
557.98	1170.27
558.15	1111.75
558.32	1083.67
558.48	947.92
558.65	1004.09
558.81	1004.09
558.98	940.90
559.14	943.24
559.31	854.30
559.47	922.17
559.64	938.55
559.80	952.60
559.97	844.93
560.13	809.83
560.30	807.48
560.46	903.45
560.63	819.19
560.79	861.32
560.96	781.74
561.12	805.14
561.29	889.40
561.45	840.25
561.61	830.89
561.78	1025.15
561.94	858.98
562.11	905.79
562.27	823.87
562.44	840.25
562.60	866.00
562.77	821.53
562.93	882.38
563.10	788.76
563.26	730.25
563.42	833.23
563.59	793.44
563.75	777.06
563.92	765.36
564.08	744.29
564.24	758.33
564.41	854.30
564.57	760.67
564.74	702.16
564.90	650.67
565.07	685.78
565.23	662.37
565.39	627.26
565.56	620.24
565.72	641.31
565.88	650.67
566.05	603.86
566.21	631.94
566.38	645.99
566.54	601.52
566.70	720.88
566.87	594.50
567.03	667.05
567.19	681.10
567.36	667.05
567.52	723.23
567.68	716.20
567.85	699.82
568.01	737.27
568.17	648.33
568.34	638.97
568.50	791.10
568.66	594.50
568.83	734.93
568.99	678.76
569.15	676.41
569.32	566.41
569.48	557.05
569.64	592.16
569.81	596.84
569.97	524.28
570.13	482.15
570.30	571.09
570.46	496.19
570.62	517.26
570.78	376.83
570.95	465.77
571.11	496.19
571.27	475.13
571.43	458.74
571.60	461.09
571.76	479.81
571.92	437.68
572.09	531.30
572.25	543.00
572.41	528.96
572.57	503.22
572.74	566.41
572.90	645.99
573.06	486.83
573.22	571.09
573.38	528.96
573.55	517.26
573.71	533.64
573.87	545.34
574.03	545.34
574.20	500.87
574.36	636.63
574.52	674.07
574.68	634.29
574.84	692.80
575.01	662.37
575.17	697.48
575.33	770.04
575.49	873.02
575.65	929.19
575.82	940.90
575.98	999.41
576.14	1170.27
576.30	2045.63
576.46	6612.01
576.62	13125.72
576.79	15920.32
576.95	11255.64
577.11	7260.34
577.27	5139.82
577.43	3293.13
577.59	2129.89
577.75	1776.47
577.92	1547.09
578.08	1453.47
578.24	1544.75
578.40	2319.47
578.56	6010.50
578.72	11328.19
578.88	14024.49
579.04	10228.14
579.21	6825.00
579.37	5231.10
579.53	3861.88
579.69	3609.11
579.85	4645.96
580.01	5507.28
580.17	5198.33
580.33	4575.75
580.49	3920.40
580.65	3375.05
580.82	3129.30
580.98	2993.55
581.14	2991.20
581.30	3241.64
581.46	3482.72
581.62	3684.00
581.78	3950.82
581.94	4187.22
582.10	4517.23
582.26	4826.18
582.42	4856.61
582.58	5139.82
582.74	4992.36
582.90	5118.75
583.06	5142.16
583.22	5188.97
583.38	5245.14
583.54	5418.34
583.70	5334.08
583.86	5235.78
584.02	5097.69
584.18	4999.38
584.34	4774.69
584.50	4734.90
584.66	4688.09
584.82	4781.71
584.98	4727.88
585.14	4685.75
585.30	4542.98
585.46	4514.89
585.62	4369.78
585.78	4404.89
585.94	4325.31
586.10	4346.37
586.26	4655.33
586.42	5214.71
586.58	6148.59
586.74	7637.17
586.90	9355.12
587.06	10314.74
587.22	10438.79
587.38	9144.47
587.54	7859.52
587.70	6743.08
587.86	5654.73
588.02	4835.55
588.18	4227.01
588.34	3786.99
588.49	3492.08
588.65	3288.45
588.81	3094.19
588.97	3122.27
589.13	3136.32
589.29	2796.94
589.45	2906.95
589.61	2857.79
589.77	2920.99
589.93	3119.93
590.08	3084.83
590.24	3087.17
590.40	3213.56
590.56	3375.05
590.72	3361.01
590.88	3349.31
591.04	3569.32
591.20	3810.39
591.35	3875.93
591.51	4105.30
591.67	4077.21
591.83	4517.23
591.99	4861.29
592.15	5177.26
592.31	5586.86
592.46	6146.25
592.62	6766.49
592.78	7225.23
592.94	7426.52
593.10	7332.90
593.26	7117.57
593.41	6352.21
593.57	5659.42
593.73	5071.94
593.89	4580.43
594.05	4035.08
594.20	3588.04
594.36	3403.14
594.52	3026.31
594.68	2986.52
594.84	2839.07
594.99	2726.72
595.15	2590.97
595.31	2661.19
595.47	2663.53
595.62	2553.52
595.78	2686.94
595.94	2590.97
596.10	2635.44
596.25	2640.12
596.41	2548.84
596.57	2593.31
596.73	2567.57
596.88	2616.72
597.04	2464.58
597.20	2586.29
597.36	2686.94
597.51	2649.49
597.67	2750.13
597.83	2946.73
597.99	3026.31
598.14	3239.30
598.30	3571.66
598.46	3709.75
598.61	3894.65
598.77	3950.82
598.93	4196.58
599.09	4437.66
599.24	4629.58
599.40	4552.34
599.56	4262.12
599.71	4011.68
599.87	3899.33
600.03	3691.02
600.18	3463.99
600.34	3117.59
600.50	2967.80
600.65	2703.32
600.81	2715.02
600.97	2567.57
601.12	2452.88
601.28	2305.43
601.44	2298.41
601.59	2132.23
601.75	2001.16
601.91	1947.33
602.06	1839.66
602.22	1874.77
602.37	1753.06
602.53	1694.55
602.69	1633.69
602.84	1657.10
603.00	1701.57
603.16	1748.38
603.31	1792.85
603.47	1849.02
603.62	1907.54
603.78	1923.92
603.94	1966.05
604.09	1914.56
604.25	1923.92
604.40	1987.11
604.56	2085.42
604.71	2078.40
604.87	2024.56
605.03	2139.25
