SpectraSuite Data File
++++++++++++++++++++++++++++++++++++
Date: Fri Oct 04 11:42:24 GMT-05:00 2013
User: price-jones
Dark Spectrum Present: No
Reference Spectrum Present: No
Number of Sampled Component Spectra: 1
Spectrometers: USB2+H05261
Integration Time (usec): 100000 (USB2+H05261)
Spectra Averaged: 1 (USB2+H05261)
Boxcar Smoothing: 0 (USB2+H05261)
Correct for Electrical Dark: No (USB2+H05261)
Strobe/Lamp Enabled: No (USB2+H05261)
Correct for Detector Non-linearity: No (USB2+H05261)
Correct for Stray Light: No (USB2+H05261)
Number of Pixels in Processed Spectrum: 2048
>>>>>Begin Processed Spectral Data<<<<<
365.73	95.96
365.92	95.96
366.12	95.96
366.32	0.00
366.52	0.00
366.72	0.00
366.91	0.00
367.11	0.00
367.31	0.00
367.51	0.00
367.70	0.00
367.90	0.00
368.10	0.00
368.30	0.00
368.49	0.00
368.69	0.00
368.89	0.00
369.09	0.00
369.28	0.00
369.48	0.00
369.68	0.00
369.87	42.13
370.07	4.68
370.27	16.38
370.47	0.00
370.66	16.38
370.86	51.49
371.06	70.22
371.25	58.51
371.45	23.41
371.65	91.28
371.84	28.09
372.04	46.81
372.24	102.98
372.44	93.62
372.63	102.98
372.83	152.13
373.03	147.45
373.22	117.03
373.42	152.13
373.62	77.24
373.81	161.50
374.01	138.09
374.21	110.01
374.40	84.26
374.60	79.58
374.79	124.05
374.99	91.28
375.19	152.13
375.38	138.09
375.58	145.11
375.78	180.22
375.97	98.30
376.17	135.75
376.37	140.43
376.56	88.94
376.76	133.41
376.95	98.30
377.15	51.49
377.35	152.13
377.54	110.01
377.74	79.58
377.93	105.32
378.13	138.09
378.33	133.41
378.52	98.30
378.72	135.75
378.91	124.05
379.11	56.17
379.31	93.62
379.50	161.50
379.70	84.26
379.89	121.71
380.09	100.64
380.28	0.00
380.48	53.83
380.68	23.41
380.87	28.09
381.07	145.11
381.26	138.09
381.46	119.37
381.65	98.30
381.85	191.92
382.04	149.79
382.24	53.83
382.43	18.72
382.63	102.98
382.83	100.64
383.02	135.75
383.22	42.13
383.41	53.83
383.61	77.24
383.80	131.07
384.00	121.71
384.19	98.30
384.39	72.56
384.58	138.09
384.78	58.51
384.97	84.26
385.17	135.75
385.36	91.28
385.56	98.30
385.75	51.49
385.95	72.56
386.14	112.35
386.34	67.88
386.53	152.13
386.72	77.24
386.92	135.75
387.11	149.79
387.31	147.45
387.50	91.28
387.70	142.77
387.89	100.64
388.09	154.48
388.28	147.45
388.48	142.77
388.67	37.45
388.86	156.82
389.06	140.43
389.25	100.64
389.45	156.82
389.64	175.54
389.84	107.66
390.03	86.60
390.22	114.69
390.42	149.79
390.61	84.26
390.81	88.94
391.00	112.35
391.19	121.71
391.39	133.41
391.58	107.66
391.78	205.97
391.97	124.05
392.16	105.32
392.36	131.07
392.55	140.43
392.75	93.62
392.94	86.60
393.13	138.09
393.33	121.71
393.52	77.24
393.71	126.39
393.91	135.75
394.10	77.24
394.29	114.69
394.49	124.05
394.68	117.03
394.88	222.35
395.07	131.07
395.26	112.35
395.46	117.03
395.65	138.09
395.84	88.94
396.04	175.54
396.23	88.94
396.42	81.92
396.62	98.30
396.81	149.79
397.00	117.03
397.19	131.07
397.39	91.28
397.58	60.85
397.77	126.39
397.97	105.32
398.16	133.41
398.35	182.56
398.55	208.31
398.74	112.35
398.93	74.90
399.12	77.24
399.32	84.26
399.51	131.07
399.70	88.94
399.90	184.90
400.09	159.16
400.28	166.18
400.47	42.13
400.67	126.39
400.86	39.79
401.05	93.62
401.24	145.11
401.44	126.39
401.63	227.03
401.82	81.92
402.01	44.47
402.21	105.32
402.40	163.84
402.59	201.29
402.78	44.47
402.97	114.69
403.17	100.64
403.36	133.41
403.55	128.73
403.74	259.80
403.93	327.68
404.13	566.41
404.32	444.70
404.51	465.77
404.70	334.70
404.89	133.41
405.09	152.13
405.28	95.96
405.47	39.79
405.66	117.03
405.85	166.18
406.05	128.73
406.24	154.48
406.43	182.56
406.62	98.30
406.81	175.54
407.00	191.92
407.20	222.35
407.39	222.35
407.58	135.75
407.77	121.71
407.96	266.82
408.15	119.37
408.34	117.03
408.54	147.45
408.73	56.17
408.92	145.11
409.11	156.82
409.30	98.30
409.49	105.32
409.68	110.01
409.87	156.82
410.07	140.43
410.26	145.11
410.45	135.75
410.64	124.05
410.83	110.01
411.02	112.35
411.21	121.71
411.40	119.37
411.59	58.51
411.78	86.60
411.98	72.56
412.17	124.05
412.36	110.01
412.55	117.03
412.74	133.41
412.93	196.60
413.12	184.90
413.31	198.95
413.50	198.95
413.69	100.64
413.88	173.20
414.07	133.41
414.26	79.58
414.45	133.41
414.64	159.16
414.83	135.75
415.02	131.07
415.22	117.03
415.41	163.84
415.60	112.35
415.79	95.96
415.98	91.28
416.17	42.13
416.36	177.88
416.55	131.07
416.74	238.73
416.93	175.54
417.12	182.56
417.31	105.32
417.50	114.69
417.69	131.07
417.88	152.13
418.07	133.41
418.26	114.69
418.45	152.13
418.64	208.31
418.83	138.09
419.02	110.01
419.21	119.37
419.39	168.52
419.58	201.29
419.77	105.32
419.96	145.11
420.15	147.45
420.34	152.13
420.53	222.35
420.72	114.69
420.91	152.13
421.10	149.79
421.29	138.09
421.48	163.84
421.67	184.90
421.86	124.05
422.05	147.45
422.24	159.16
422.43	184.90
422.61	93.62
422.80	170.86
422.99	121.71
423.18	105.32
423.37	161.50
423.56	159.16
423.75	194.26
423.94	142.77
424.13	152.13
424.32	182.56
424.50	138.09
424.69	110.01
424.88	133.41
425.07	88.94
425.26	156.82
425.45	173.20
425.64	198.95
425.83	142.77
426.01	133.41
426.20	152.13
426.39	250.44
426.58	180.22
426.77	152.13
426.96	142.77
427.15	173.20
427.33	147.45
427.52	205.97
427.71	105.32
427.90	100.64
428.09	191.92
428.28	117.03
428.46	114.69
428.65	117.03
428.84	231.71
429.03	180.22
429.22	93.62
429.40	196.60
429.59	114.69
429.78	212.99
429.97	203.63
430.16	170.86
430.34	138.09
430.53	180.22
430.72	152.13
430.91	205.97
431.10	133.41
431.28	142.77
431.47	161.50
431.66	142.77
431.85	140.43
432.03	126.39
432.22	180.22
432.41	166.18
432.60	257.46
432.79	168.52
432.97	126.39
433.16	184.90
433.35	145.11
433.54	133.41
433.72	161.50
433.91	203.63
434.10	152.13
434.28	252.78
434.47	234.05
434.66	264.48
434.85	187.24
435.03	592.16
435.22	1437.09
435.41	2111.16
435.59	1937.96
435.78	1357.51
435.97	725.57
436.16	407.25
436.34	196.60
436.53	224.69
436.72	177.88
436.90	168.52
437.09	152.13
437.28	88.94
437.46	145.11
437.65	159.16
437.84	198.95
438.02	149.79
438.21	194.26
438.40	182.56
438.58	163.84
438.77	236.39
438.96	161.50
439.14	133.41
439.33	149.79
439.52	168.52
439.70	140.43
439.89	149.79
440.08	149.79
440.26	159.16
440.45	236.39
440.63	182.56
440.82	238.73
441.01	154.48
441.19	147.45
441.38	175.54
441.57	205.97
441.75	156.82
441.94	208.31
442.12	152.13
442.31	187.24
442.50	273.84
442.68	236.39
442.87	203.63
443.05	119.37
443.24	147.45
443.43	222.35
443.61	241.08
443.80	156.82
443.98	205.97
444.17	182.56
444.35	191.92
444.54	126.39
444.73	238.73
444.91	203.63
445.10	121.71
445.28	147.45
445.47	220.01
445.65	191.92
445.84	79.58
446.02	191.92
446.21	215.33
446.39	142.77
446.58	163.84
446.77	119.37
446.95	112.35
447.14	191.92
447.32	191.92
447.51	166.18
447.69	177.88
447.88	170.86
448.06	194.26
448.25	187.24
448.43	159.16
448.62	131.07
448.80	180.22
448.99	208.31
449.17	220.01
449.36	147.45
449.54	245.76
449.73	63.19
449.91	163.84
450.10	189.58
450.28	299.59
450.46	276.18
450.65	173.20
450.83	212.99
451.02	205.97
451.20	147.45
451.39	191.92
451.57	191.92
451.76	227.03
451.94	156.82
452.13	173.20
452.31	222.35
452.49	212.99
452.68	161.50
452.86	220.01
453.05	222.35
453.23	194.26
453.42	145.11
453.60	196.60
453.78	135.75
453.97	145.11
454.15	194.26
454.34	147.45
454.52	152.13
454.70	264.48
454.89	184.90
455.07	227.03
455.26	201.29
455.44	196.60
455.62	220.01
455.81	255.12
455.99	243.42
456.17	138.09
456.36	264.48
456.54	107.66
456.73	140.43
456.91	210.65
457.09	234.05
457.28	180.22
457.46	224.69
457.64	255.12
457.83	182.56
458.01	220.01
458.19	142.77
458.38	156.82
458.56	234.05
458.74	189.58
458.93	212.99
459.11	161.50
459.29	110.01
459.48	198.95
459.66	234.05
459.84	205.97
460.03	266.82
460.21	152.13
460.39	194.26
460.57	243.42
460.76	159.16
460.94	166.18
461.12	222.35
461.31	250.44
461.49	194.26
461.67	140.43
461.85	170.86
462.04	205.97
462.22	332.36
462.40	201.29
462.59	201.29
462.77	173.20
462.95	107.66
463.13	196.60
463.32	196.60
463.50	198.95
463.68	248.10
463.86	210.65
464.05	175.54
464.23	140.43
464.41	161.50
464.59	180.22
464.78	159.16
464.96	175.54
465.14	234.05
465.32	177.88
465.50	210.65
465.69	154.48
465.87	152.13
466.05	285.55
466.23	175.54
466.41	189.58
466.60	145.11
466.78	210.65
466.96	124.05
467.14	215.33
467.32	198.95
467.51	252.78
467.69	236.39
467.87	236.39
468.05	156.82
468.23	203.63
468.41	231.71
468.60	175.54
468.78	201.29
468.96	180.22
469.14	173.20
469.32	156.82
469.50	173.20
469.69	191.92
469.87	184.90
470.05	194.26
470.23	145.11
470.41	208.31
470.59	156.82
470.77	201.29
470.95	152.13
471.14	187.24
471.32	245.76
471.50	194.26
471.68	177.88
471.86	215.33
472.04	135.75
472.22	163.84
472.40	131.07
472.58	117.03
472.77	145.11
472.95	166.18
473.13	191.92
473.31	243.42
473.49	168.52
473.67	163.84
473.85	166.18
474.03	205.97
474.21	117.03
474.39	271.50
474.57	201.29
474.75	170.86
474.93	208.31
475.12	161.50
475.30	138.09
475.48	135.75
475.66	140.43
475.84	124.05
476.02	187.24
476.20	166.18
476.38	191.92
476.56	259.80
476.74	227.03
476.92	229.37
477.10	187.24
477.28	215.33
477.46	208.31
477.64	222.35
477.82	201.29
478.00	184.90
478.18	166.18
478.36	187.24
478.54	149.79
478.72	189.58
478.90	241.08
479.08	189.58
479.26	241.08
479.44	208.31
479.62	191.92
479.80	224.69
479.98	187.24
480.16	227.03
480.34	194.26
480.52	266.82
480.70	170.86
480.88	264.48
481.06	245.76
481.24	229.37
481.41	285.55
481.59	262.14
481.77	236.39
481.95	198.95
482.13	255.12
482.31	196.60
482.49	189.58
482.67	259.80
482.85	311.29
483.03	196.60
483.21	245.76
483.39	224.69
483.57	252.78
483.74	353.42
483.92	304.27
484.10	257.46
484.28	285.55
484.46	379.17
484.64	355.76
484.82	327.68
485.00	278.52
485.18	409.59
485.35	379.17
485.53	301.93
485.71	358.10
485.89	367.46
486.07	344.06
486.25	418.96
486.43	409.59
486.61	365.12
486.78	374.49
486.96	346.40
487.14	379.17
487.32	402.57
487.50	400.23
487.68	444.70
487.85	287.89
488.03	374.49
488.21	482.15
488.39	315.97
488.57	400.23
488.75	320.65
488.92	608.54
489.10	292.57
489.28	425.98
489.46	372.15
489.64	332.36
489.81	355.76
489.99	327.68
490.17	290.23
490.35	386.19
490.53	372.15
490.70	348.74
490.88	369.80
491.06	308.95
491.24	404.91
491.41	404.91
491.59	374.49
491.77	292.57
491.95	344.06
492.13	269.16
492.30	325.33
492.48	325.33
492.66	393.21
492.84	362.78
493.01	280.86
493.19	325.33
493.37	390.87
493.54	395.55
493.72	339.38
493.90	351.08
494.08	367.46
494.25	418.96
494.43	285.55
494.61	238.73
494.79	290.23
494.96	475.13
495.14	339.38
495.32	344.06
495.49	278.52
495.67	285.55
495.85	271.50
496.02	339.38
496.20	390.87
496.38	339.38
496.55	297.25
496.73	358.10
496.91	311.29
497.09	337.04
497.26	299.59
497.44	327.68
497.62	381.51
497.79	348.74
497.97	290.23
498.14	315.97
498.32	250.44
498.50	262.14
498.67	322.99
498.85	351.08
499.03	301.93
499.20	320.65
499.38	257.46
499.56	297.25
499.73	318.31
499.91	301.93
500.08	294.91
500.26	208.31
500.44	306.61
500.61	311.29
500.79	266.82
500.97	285.55
501.14	203.63
501.32	337.04
501.49	280.86
501.67	283.20
501.84	121.71
502.02	273.84
502.20	264.48
502.37	257.46
502.55	262.14
502.72	257.46
502.90	231.71
503.07	280.86
503.25	222.35
503.43	217.67
503.60	257.46
503.78	215.33
503.95	201.29
504.13	229.37
504.30	271.50
504.48	210.65
504.65	231.71
504.83	236.39
505.01	285.55
505.18	306.61
505.36	203.63
505.53	248.10
505.71	212.99
505.88	355.76
506.06	243.42
506.23	215.33
506.41	259.80
506.58	308.95
506.76	259.80
506.93	191.92
507.11	250.44
507.28	222.35
507.46	269.16
507.63	203.63
507.81	187.24
507.98	227.03
508.16	238.73
508.33	250.44
508.50	264.48
508.68	238.73
508.85	231.71
509.03	271.50
509.20	220.01
509.38	271.50
509.55	271.50
509.73	259.80
509.90	227.03
510.08	243.42
510.25	292.57
510.42	259.80
510.60	168.52
510.77	332.36
510.95	299.59
511.12	250.44
511.30	248.10
511.47	250.44
511.64	301.93
511.82	210.65
511.99	220.01
512.17	203.63
512.34	234.05
512.51	198.95
512.69	208.31
512.86	238.73
513.04	205.97
513.21	229.37
513.38	191.92
513.56	166.18
513.73	252.78
513.90	266.82
514.08	231.71
514.25	330.02
514.43	294.91
514.60	229.37
514.77	198.95
514.95	294.91
515.12	245.76
515.29	273.84
515.47	208.31
515.64	234.05
515.81	248.10
515.99	290.23
516.16	337.04
516.33	250.44
516.51	217.67
516.68	187.24
516.85	236.39
517.03	196.60
517.20	210.65
517.37	227.03
517.54	203.63
517.72	212.99
517.89	252.78
518.06	259.80
518.24	299.59
518.41	257.46
518.58	180.22
518.75	220.01
518.93	306.61
519.10	248.10
519.27	304.27
519.45	330.02
519.62	318.31
519.79	234.05
519.96	217.67
520.14	238.73
520.31	222.35
520.48	264.48
520.65	264.48
520.83	262.14
521.00	241.08
521.17	262.14
521.34	201.29
521.52	184.90
521.69	297.25
521.86	252.78
522.03	280.86
522.20	290.23
522.38	203.63
522.55	271.50
522.72	250.44
522.89	294.91
523.07	276.18
523.24	159.16
523.41	201.29
523.58	161.50
523.75	231.71
523.92	180.22
524.10	250.44
524.27	320.65
524.44	257.46
524.61	269.16
524.78	227.03
524.96	266.82
525.13	278.52
525.30	348.74
525.47	241.08
525.64	243.42
525.81	285.55
525.98	243.42
526.16	194.26
526.33	241.08
526.50	191.92
526.67	269.16
526.84	215.33
527.01	241.08
527.18	231.71
527.36	257.46
527.53	283.20
527.70	320.65
527.87	266.82
528.04	308.95
528.21	285.55
528.38	229.37
528.55	332.36
528.72	264.48
528.89	311.29
529.07	222.35
529.24	245.76
529.41	257.46
529.58	306.61
529.75	159.16
529.92	238.73
530.09	308.95
530.26	379.17
530.43	287.89
530.60	273.84
530.77	320.65
530.94	301.93
531.11	241.08
531.28	287.89
531.46	262.14
531.63	311.29
531.80	327.68
531.97	318.31
532.14	327.68
532.31	285.55
532.48	287.89
532.65	250.44
532.82	273.84
532.99	311.29
533.16	292.57
533.33	301.93
533.50	344.06
533.67	376.83
533.84	271.50
534.01	290.23
534.18	294.91
534.35	285.55
534.52	311.29
534.69	306.61
534.86	229.37
535.03	290.23
535.20	283.20
535.37	386.19
535.54	374.49
535.71	344.06
535.88	273.84
536.05	299.59
536.22	437.68
536.38	341.72
536.55	344.06
536.72	425.98
536.89	332.36
537.06	444.70
537.23	327.68
537.40	433.00
537.57	435.34
537.74	543.00
537.91	461.09
538.08	489.17
538.25	498.53
538.42	425.98
538.59	472.79
538.75	528.96
538.92	491.51
539.09	482.15
539.26	564.07
539.43	608.54
539.60	627.26
539.77	683.44
539.94	800.46
540.11	833.23
540.28	842.59
540.44	922.17
540.61	1008.77
540.78	1165.59
540.95	1299.00
541.12	1453.47
541.29	1619.65
541.46	1748.38
541.62	1661.78
541.79	1610.29
541.96	1626.67
542.13	1500.28
542.30	1441.77
542.47	1413.68
542.63	1378.58
542.80	1343.47
542.97	1310.70
543.14	1334.11
543.31	1364.53
543.48	1357.51
543.64	1338.79
543.81	1385.60
543.98	1383.26
544.15	1336.45
544.32	1366.87
544.48	1233.46
544.65	1240.48
544.82	1277.93
544.99	1282.61
545.16	1397.30
545.32	1420.71
545.49	2513.74
545.66	3623.15
545.83	3843.16
546.00	3403.14
546.16	2471.61
546.33	1914.56
546.50	1383.26
546.67	1310.70
546.83	1165.59
547.00	1046.22
547.17	1008.77
547.34	1011.11
547.50	915.15
547.67	971.32
547.84	844.93
548.00	938.55
548.17	910.47
548.34	795.78
548.51	929.19
548.67	779.40
548.84	812.17
549.01	744.29
549.18	723.23
549.34	751.31
549.51	718.54
549.68	676.41
549.84	685.78
550.01	655.35
550.18	748.97
550.34	695.14
550.51	566.41
550.68	620.24
550.84	540.66
551.01	620.24
551.18	482.15
551.34	552.37
551.51	535.98
551.68	503.22
551.84	517.26
552.01	423.64
552.18	388.53
552.34	543.00
552.51	470.45
552.68	407.25
552.84	383.85
553.01	379.17
553.18	463.43
553.34	353.42
553.51	367.46
553.67	440.02
553.84	414.27
554.01	379.17
554.17	358.10
554.34	245.76
554.51	320.65
554.67	360.44
554.84	383.85
555.00	400.23
555.17	369.80
555.33	360.44
555.50	365.12
555.67	220.01
555.83	332.36
556.00	313.63
556.16	484.49
556.33	388.53
556.50	334.70
556.66	306.61
556.83	294.91
556.99	304.27
557.16	278.52
557.32	311.29
557.49	250.44
557.65	283.20
557.82	266.82
557.98	285.55
558.15	222.35
558.32	271.50
558.48	191.92
558.65	276.18
558.81	285.55
558.98	234.05
559.14	306.61
559.31	262.14
559.47	271.50
559.64	315.97
559.80	250.44
559.97	259.80
560.13	259.80
560.30	252.78
560.46	311.29
560.63	301.93
560.79	252.78
560.96	266.82
561.12	250.44
561.29	248.10
561.45	304.27
561.61	266.82
561.78	341.72
561.94	283.20
562.11	266.82
562.27	245.76
562.44	294.91
562.60	217.67
562.77	304.27
562.93	297.25
563.10	217.67
563.26	285.55
563.42	276.18
563.59	259.80
563.75	255.12
563.92	212.99
564.08	229.37
564.24	217.67
564.41	320.65
564.57	189.58
564.74	255.12
564.90	234.05
565.07	280.86
565.23	243.42
565.39	222.35
565.56	287.89
565.72	283.20
565.88	259.80
566.05	283.20
566.21	212.99
566.38	306.61
566.54	252.78
566.70	217.67
566.87	217.67
567.03	248.10
567.19	220.01
567.36	264.48
567.52	262.14
567.68	201.29
567.85	264.48
568.01	266.82
568.17	229.37
568.34	175.54
568.50	259.80
568.66	241.08
568.83	276.18
568.99	280.86
569.15	243.42
569.32	194.26
569.48	234.05
569.64	227.03
569.81	241.08
569.97	201.29
570.13	243.42
570.30	234.05
570.46	250.44
570.62	135.75
570.78	287.89
570.95	191.92
571.11	297.25
571.27	241.08
571.43	252.78
571.60	194.26
571.76	248.10
571.92	229.37
572.09	163.84
572.25	217.67
572.41	255.12
572.57	271.50
572.74	283.20
572.90	250.44
573.06	222.35
573.22	175.54
573.38	217.67
573.55	236.39
573.71	280.86
573.87	252.78
574.03	306.61
574.20	297.25
574.36	259.80
574.52	262.14
574.68	161.50
574.84	313.63
575.01	271.50
575.17	255.12
575.33	308.95
575.49	271.50
575.65	236.39
575.82	278.52
575.98	322.99
576.14	332.36
576.30	400.23
576.46	575.77
576.62	924.51
576.79	835.57
576.95	713.86
577.11	568.75
577.27	369.80
577.43	355.76
577.59	264.48
577.75	304.27
577.92	222.35
578.08	330.02
578.24	217.67
578.40	442.36
578.56	634.29
578.72	798.12
578.88	903.45
579.04	692.80
579.21	510.24
579.37	444.70
579.53	440.02
579.69	524.28
579.85	414.27
580.01	512.58
580.17	477.47
580.33	393.21
580.49	353.42
580.65	447.04
580.82	320.65
580.98	327.68
581.14	416.62
581.30	365.12
581.46	355.76
581.62	411.93
581.78	404.91
581.94	528.96
582.10	433.00
582.26	411.93
582.42	491.51
582.58	425.98
582.74	414.27
582.90	535.98
583.06	610.88
583.22	465.77
583.38	454.06
583.54	482.15
583.70	491.51
583.86	421.30
584.02	535.98
584.18	575.77
584.34	437.68
584.50	491.51
584.66	484.49
584.82	442.36
584.98	447.04
585.14	491.51
585.30	421.30
585.46	397.89
585.62	482.15
585.78	360.44
585.94	428.32
586.10	458.74
586.26	456.40
586.42	512.58
586.58	503.22
586.74	559.39
586.90	741.95
587.06	741.95
587.22	669.39
587.38	631.94
587.54	596.84
587.70	521.94
587.86	566.41
588.02	505.56
588.18	433.00
588.34	400.23
588.49	388.53
588.65	358.10
588.81	259.80
588.97	339.38
589.13	393.21
589.29	341.72
589.45	334.70
589.61	360.44
589.77	320.65
589.93	287.89
590.08	304.27
590.24	358.10
590.40	407.25
590.56	407.25
590.72	311.29
590.88	358.10
591.04	334.70
591.20	337.04
591.35	407.25
591.51	367.46
591.67	318.31
591.83	322.99
591.99	435.34
592.15	465.77
592.31	526.62
592.46	510.24
592.62	479.81
592.78	519.60
592.94	444.70
593.10	503.22
593.26	514.92
593.41	503.22
593.57	505.56
593.73	358.10
593.89	339.38
594.05	423.64
594.20	400.23
594.36	423.64
594.52	266.82
594.68	285.55
594.84	360.44
594.99	365.12
595.15	252.78
595.31	388.53
595.47	358.10
595.62	287.89
595.78	287.89
595.94	292.57
596.10	269.16
596.25	369.80
596.41	330.02
596.57	353.42
596.73	276.18
596.88	313.63
597.04	360.44
597.20	325.33
597.36	313.63
597.51	334.70
597.67	325.33
597.83	311.29
597.99	339.38
598.14	379.17
598.30	402.57
598.46	320.65
598.61	388.53
598.77	400.23
598.93	393.21
599.09	395.55
599.24	465.77
599.40	470.45
599.56	374.49
599.71	416.62
599.87	400.23
600.03	313.63
600.18	437.68
600.34	353.42
600.50	367.46
600.65	346.40
600.81	344.06
600.97	266.82
601.12	283.20
601.28	304.27
601.44	229.37
601.59	337.04
601.75	362.78
601.91	346.40
602.06	271.50
602.22	397.89
602.37	285.55
602.53	269.16
602.69	376.83
602.84	243.42
603.00	257.46
603.16	273.84
603.31	337.04
603.47	320.65
603.62	234.05
603.78	372.15
603.94	334.70
604.09	332.36
604.25	292.57
604.40	215.33
604.56	322.99
604.71	278.52
604.87	269.16
605.03	339.38
605.18	280.86
605.34	386.19
605.49	245.76
605.65	315.97
605.80	266.82
605.96	341.72
606.12	376.83
606.27	362.78
606.43	280.86
606.58	362.78
606.74	369.80
606.89	379.17
607.05	379.17
607.20	376.83
607.36	325.33
607.51	383.85
607.67	388.53
607.82	416.62
607.98	512.58
608.13	458.74
608.29	454.06
608.44	535.98
608.60	418.96
608.75	575.77
608.91	575.77
609.06	634.29
609.22	564.07
609.37	678.76
609.53	786.42
609.68	788.76
609.84	889.40
609.99	950.26
610.15	1109.41
610.30	1334.11
610.46	1631.35
610.61	2160.31
610.76	2539.48
610.92	3150.36
