SpectraSuite Data File
++++++++++++++++++++++++++++++++++++
Date: Fri Oct 04 11:41:40 GMT-05:00 2013
User: price-jones
Dark Spectrum Present: No
Reference Spectrum Present: No
Number of Sampled Component Spectra: 1
Spectrometers: USB2+H05261
Integration Time (usec): 100000 (USB2+H05261)
Spectra Averaged: 1 (USB2+H05261)
Boxcar Smoothing: 0 (USB2+H05261)
Correct for Electrical Dark: No (USB2+H05261)
Strobe/Lamp Enabled: No (USB2+H05261)
Correct for Detector Non-linearity: No (USB2+H05261)
Correct for Stray Light: No (USB2+H05261)
Number of Pixels in Processed Spectrum: 2048
>>>>>Begin Processed Spectral Data<<<<<
365.73	72.56
365.92	72.56
366.12	72.56
366.32	0.00
366.52	0.00
366.72	44.47
366.91	0.00
367.11	0.00
367.31	0.00
367.51	0.00
367.70	0.00
367.90	0.00
368.10	0.00
368.30	0.00
368.49	0.00
368.69	0.00
368.89	0.00
369.09	0.00
369.28	0.00
369.48	0.00
369.68	2.34
369.87	53.83
370.07	4.68
370.27	49.15
370.47	0.00
370.66	0.00
370.86	37.45
371.06	93.62
371.25	124.05
371.45	42.13
371.65	117.03
371.84	25.75
372.04	42.13
372.24	84.26
372.44	37.45
372.63	84.26
372.83	140.43
373.03	2.34
373.22	84.26
373.42	93.62
373.62	70.22
373.81	124.05
374.01	184.90
374.21	117.03
374.40	149.79
374.60	105.32
374.79	131.07
374.99	100.64
375.19	149.79
375.38	100.64
375.58	142.77
375.78	177.88
375.97	159.16
376.17	170.86
376.37	163.84
376.56	161.50
376.76	102.98
376.95	102.98
377.15	161.50
377.35	168.52
377.54	117.03
377.74	74.90
377.93	72.56
378.13	173.20
378.33	100.64
378.52	133.41
378.72	107.66
378.91	131.07
379.11	112.35
379.31	102.98
379.50	110.01
379.70	119.37
379.89	152.13
380.09	95.96
380.28	119.37
380.48	112.35
380.68	93.62
380.87	53.83
381.07	128.73
381.26	112.35
381.46	121.71
381.65	49.15
381.85	105.32
382.04	138.09
382.24	119.37
382.43	177.88
382.63	105.32
382.83	114.69
383.02	217.67
383.22	56.17
383.41	168.52
383.61	98.30
383.80	147.45
384.00	77.24
384.19	110.01
384.39	114.69
384.58	42.13
384.78	117.03
384.97	138.09
385.17	93.62
385.36	95.96
385.56	95.96
385.75	0.00
385.95	79.58
386.14	149.79
386.34	133.41
386.53	60.85
386.72	98.30
386.92	173.20
387.11	105.32
387.31	53.83
387.50	72.56
387.70	107.66
387.89	119.37
388.09	95.96
388.28	74.90
388.48	51.49
388.67	140.43
388.86	119.37
389.06	114.69
389.25	79.58
389.45	135.75
389.64	119.37
389.84	102.98
390.03	77.24
390.22	63.19
390.42	138.09
390.61	105.32
390.81	65.54
391.00	88.94
391.19	140.43
391.39	121.71
391.58	187.24
391.78	63.19
391.97	159.16
392.16	98.30
392.36	184.90
392.55	133.41
392.75	117.03
392.94	77.24
393.13	163.84
393.33	65.54
393.52	217.67
393.71	138.09
393.91	236.39
394.10	119.37
394.29	39.79
394.49	51.49
394.68	107.66
394.88	98.30
395.07	124.05
395.26	35.11
395.46	161.50
395.65	112.35
395.84	84.26
396.04	238.73
396.23	145.11
396.42	79.58
396.62	168.52
396.81	79.58
397.00	133.41
397.19	121.71
397.39	86.60
397.58	201.29
397.77	124.05
397.97	95.96
398.16	72.56
398.35	124.05
398.55	42.13
398.74	91.28
398.93	191.92
399.12	145.11
399.32	95.96
399.51	131.07
399.70	117.03
399.90	107.66
400.09	77.24
400.28	152.13
400.47	159.16
400.67	140.43
400.86	142.77
401.05	166.18
401.24	152.13
401.44	74.90
401.63	156.82
401.82	177.88
402.01	74.90
402.21	142.77
402.40	121.71
402.59	135.75
402.78	140.43
402.97	72.56
403.17	93.62
403.36	170.86
403.55	135.75
403.74	152.13
403.93	182.56
404.13	299.59
404.32	248.10
404.51	227.03
404.70	215.33
404.89	182.56
405.09	212.99
405.28	60.85
405.47	58.51
405.66	126.39
405.85	189.58
406.05	56.17
406.24	135.75
406.43	149.79
406.62	56.17
406.81	149.79
407.00	166.18
407.20	173.20
407.39	201.29
407.58	74.90
407.77	114.69
407.96	215.33
408.15	112.35
408.34	140.43
408.54	126.39
408.73	112.35
408.92	140.43
409.11	147.45
409.30	180.22
409.49	102.98
409.68	53.83
409.87	145.11
410.07	135.75
410.26	95.96
410.45	58.51
410.64	121.71
410.83	203.63
411.02	154.48
411.21	126.39
411.40	135.75
411.59	201.29
411.78	93.62
411.98	102.98
412.17	149.79
412.36	203.63
412.55	102.98
412.74	138.09
412.93	147.45
413.12	133.41
413.31	159.16
413.50	166.18
413.69	182.56
413.88	173.20
414.07	189.58
414.26	156.82
414.45	142.77
414.64	105.32
414.83	236.39
415.02	138.09
415.22	119.37
415.41	145.11
415.60	133.41
415.79	133.41
415.98	217.67
416.17	170.86
416.36	161.50
416.55	93.62
416.74	135.75
416.93	145.11
417.12	70.22
417.31	135.75
417.50	110.01
417.69	220.01
417.88	170.86
418.07	110.01
418.26	180.22
418.45	147.45
418.64	292.57
418.83	152.13
419.02	114.69
419.21	231.71
419.39	166.18
419.58	194.26
419.77	168.52
419.96	203.63
420.15	220.01
420.34	107.66
420.53	133.41
420.72	149.79
420.91	107.66
421.10	259.80
421.29	124.05
421.48	149.79
421.67	222.35
421.86	191.92
422.05	163.84
422.24	191.92
422.43	220.01
422.61	128.73
422.80	191.92
422.99	191.92
423.18	77.24
423.37	166.18
423.56	177.88
423.75	107.66
423.94	140.43
424.13	227.03
424.32	98.30
424.50	156.82
424.69	191.92
424.88	248.10
425.07	131.07
425.26	191.92
425.45	149.79
425.64	210.65
425.83	236.39
426.01	175.54
426.20	152.13
426.39	91.28
426.58	138.09
426.77	121.71
426.96	93.62
427.15	173.20
427.33	152.13
427.52	173.20
427.71	145.11
427.90	201.29
428.09	166.18
428.28	84.26
428.46	114.69
428.65	110.01
428.84	248.10
429.03	208.31
429.22	161.50
429.40	145.11
429.59	147.45
429.78	201.29
429.97	133.41
430.16	196.60
430.34	187.24
430.53	98.30
430.72	81.92
430.91	243.42
431.10	117.03
431.28	175.54
431.47	175.54
431.66	117.03
431.85	102.98
432.03	149.79
432.22	215.33
432.41	196.60
432.60	241.08
432.79	124.05
432.97	156.82
433.16	161.50
433.35	138.09
433.54	102.98
433.72	173.20
433.91	198.95
434.10	196.60
434.28	142.77
434.47	147.45
434.66	177.88
434.85	187.24
435.03	269.16
435.22	748.97
435.41	1146.86
435.59	1179.63
435.78	912.81
435.97	503.22
436.16	325.33
436.34	124.05
436.53	159.16
436.72	128.73
436.90	198.95
437.09	110.01
437.28	159.16
437.46	210.65
437.65	135.75
437.84	194.26
438.02	194.26
438.21	102.98
438.40	177.88
438.58	187.24
438.77	142.77
438.96	128.73
439.14	234.05
439.33	217.67
439.52	126.39
439.70	173.20
439.89	175.54
440.08	161.50
440.26	234.05
440.45	138.09
440.63	98.30
440.82	152.13
441.01	191.92
441.19	236.39
441.38	154.48
441.57	114.69
441.75	236.39
441.94	180.22
442.12	182.56
442.31	198.95
442.50	175.54
442.68	142.77
442.87	135.75
443.05	184.90
443.24	166.18
443.43	217.67
443.61	117.03
443.80	210.65
443.98	166.18
444.17	145.11
444.35	168.52
444.54	173.20
444.73	154.48
444.91	147.45
445.10	243.42
445.28	255.12
445.47	154.48
445.65	128.73
445.84	147.45
446.02	210.65
446.21	145.11
446.39	175.54
446.58	149.79
446.77	173.20
446.95	222.35
447.14	264.48
447.32	273.84
447.51	220.01
447.69	191.92
447.88	170.86
448.06	243.42
448.25	224.69
448.43	168.52
448.62	135.75
448.80	220.01
448.99	231.71
449.17	196.60
449.36	163.84
449.54	166.18
449.73	161.50
449.91	203.63
450.10	241.08
450.28	191.92
450.46	360.44
450.65	278.52
450.83	149.79
451.02	234.05
451.20	152.13
451.39	194.26
451.57	117.03
451.76	163.84
451.94	170.86
452.13	203.63
452.31	255.12
452.49	215.33
452.68	152.13
452.86	147.45
453.05	220.01
453.23	182.56
453.42	224.69
453.60	131.07
453.78	257.46
453.97	220.01
454.15	220.01
454.34	234.05
454.52	124.05
454.70	194.26
454.89	203.63
455.07	121.71
455.26	212.99
455.44	203.63
455.62	145.11
455.81	273.84
455.99	212.99
456.17	191.92
456.36	128.73
456.54	215.33
456.73	187.24
456.91	163.84
457.09	196.60
457.28	236.39
457.46	187.24
457.64	243.42
457.83	187.24
458.01	170.86
458.19	184.90
458.38	135.75
458.56	189.58
458.74	220.01
458.93	198.95
459.11	149.79
459.29	149.79
459.48	184.90
459.66	156.82
459.84	241.08
460.03	273.84
460.21	194.26
460.39	138.09
460.57	161.50
460.76	161.50
460.94	243.42
461.12	255.12
461.31	187.24
461.49	100.64
461.67	180.22
461.85	222.35
462.04	177.88
462.22	353.42
462.40	259.80
462.59	250.44
462.77	234.05
462.95	166.18
463.13	88.94
463.32	175.54
463.50	180.22
463.68	252.78
463.86	182.56
464.05	121.71
464.23	245.76
464.41	203.63
464.59	201.29
464.78	180.22
464.96	142.77
465.14	145.11
465.32	152.13
465.50	156.82
465.69	196.60
465.87	264.48
466.05	269.16
466.23	145.11
466.41	208.31
466.60	227.03
466.78	222.35
466.96	241.08
467.14	205.97
467.32	201.29
467.51	262.14
467.69	135.75
467.87	241.08
468.05	177.88
468.23	210.65
468.41	159.16
468.60	184.90
468.78	175.54
468.96	205.97
469.14	142.77
469.32	142.77
469.50	154.48
469.69	152.13
469.87	191.92
470.05	161.50
470.23	191.92
470.41	170.86
470.59	201.29
470.77	149.79
470.95	166.18
471.14	177.88
471.32	187.24
471.50	257.46
471.68	168.52
471.86	220.01
472.04	196.60
472.22	135.75
472.40	166.18
472.58	177.88
472.77	128.73
472.95	257.46
473.13	156.82
473.31	196.60
473.49	163.84
473.67	175.54
473.85	163.84
474.03	210.65
474.21	81.92
474.39	220.01
474.57	234.05
474.75	168.52
474.93	248.10
475.12	131.07
475.30	203.63
475.48	138.09
475.66	196.60
475.84	166.18
476.02	159.16
476.20	236.39
476.38	159.16
476.56	299.59
476.74	229.37
476.92	196.60
477.10	210.65
477.28	208.31
477.46	203.63
477.64	205.97
477.82	126.39
478.00	182.56
478.18	238.73
478.36	177.88
478.54	159.16
478.72	241.08
478.90	208.31
479.08	264.48
479.26	271.50
479.44	166.18
479.62	191.92
479.80	154.48
479.98	212.99
480.16	196.60
480.34	217.67
480.52	236.39
480.70	229.37
480.88	187.24
481.06	215.33
481.24	212.99
481.41	175.54
481.59	205.97
481.77	241.08
481.95	147.45
482.13	227.03
482.31	229.37
482.49	224.69
482.67	238.73
482.85	262.14
483.03	285.55
483.21	241.08
483.39	212.99
483.57	201.29
483.74	304.27
483.92	217.67
484.10	201.29
484.28	325.33
484.46	381.51
484.64	351.08
484.82	248.10
485.00	292.57
485.18	322.99
485.35	285.55
485.53	257.46
485.71	311.29
485.89	318.31
486.07	315.97
486.25	379.17
486.43	393.21
486.61	318.31
486.78	325.33
486.96	276.18
487.14	339.38
487.32	327.68
487.50	332.36
487.68	351.08
487.85	330.02
488.03	313.63
488.21	339.38
488.39	339.38
488.57	355.76
488.75	308.95
488.92	564.07
489.10	315.97
489.28	358.10
489.46	334.70
489.64	318.31
489.81	297.25
489.99	418.96
490.17	301.93
490.35	421.30
490.53	325.33
490.70	337.04
490.88	386.19
491.06	332.36
491.24	327.68
491.41	360.44
491.59	264.48
491.77	299.59
491.95	353.42
492.13	243.42
492.30	304.27
492.48	341.72
492.66	346.40
492.84	215.33
493.01	330.02
493.19	250.44
493.37	304.27
493.54	259.80
493.72	348.74
493.90	273.84
494.08	252.78
494.25	276.18
494.43	287.89
494.61	248.10
494.79	287.89
494.96	276.18
495.14	292.57
495.32	308.95
495.49	205.97
495.67	259.80
495.85	290.23
496.02	294.91
496.20	266.82
496.38	341.72
496.55	308.95
496.73	315.97
496.91	280.86
497.09	400.23
497.26	266.82
497.44	294.91
497.62	308.95
497.79	234.05
497.97	266.82
498.14	294.91
498.32	278.52
498.50	280.86
498.67	306.61
498.85	337.04
499.03	266.82
499.20	308.95
499.38	311.29
499.56	278.52
499.73	290.23
499.91	273.84
500.08	273.84
500.26	313.63
500.44	177.88
500.61	318.31
500.79	285.55
500.97	276.18
501.14	262.14
501.32	259.80
501.49	271.50
501.67	266.82
501.84	297.25
502.02	255.12
502.20	259.80
502.37	292.57
502.55	245.76
502.72	306.61
502.90	276.18
503.07	262.14
503.25	245.76
503.43	212.99
503.60	266.82
503.78	229.37
503.95	245.76
504.13	269.16
504.30	269.16
504.48	294.91
504.65	248.10
504.83	322.99
505.01	161.50
505.18	201.29
505.36	241.08
505.53	306.61
505.71	229.37
505.88	280.86
506.06	252.78
506.23	311.29
506.41	334.70
506.58	208.31
506.76	248.10
506.93	306.61
507.11	231.71
507.28	278.52
507.46	280.86
507.63	234.05
507.81	264.48
507.98	203.63
508.16	257.46
508.33	330.02
508.50	238.73
508.68	217.67
508.85	236.39
509.03	229.37
509.20	238.73
509.38	264.48
509.55	318.31
509.73	339.38
509.90	308.95
510.08	189.58
510.25	255.12
510.42	297.25
510.60	250.44
510.77	187.24
510.95	266.82
511.12	280.86
511.30	283.20
511.47	236.39
511.64	339.38
511.82	220.01
511.99	264.48
512.17	266.82
512.34	210.65
512.51	189.58
512.69	266.82
512.86	255.12
513.04	278.52
513.21	224.69
513.38	245.76
513.56	325.33
513.73	231.71
513.90	220.01
514.08	205.97
514.25	355.76
514.43	283.20
514.60	290.23
514.77	297.25
514.95	304.27
515.12	264.48
515.29	208.31
515.47	322.99
515.64	222.35
515.81	243.42
515.99	313.63
516.16	255.12
516.33	330.02
516.51	250.44
516.68	276.18
516.85	259.80
517.03	264.48
517.20	344.06
517.37	243.42
517.54	280.86
517.72	334.70
517.89	243.42
518.06	196.60
518.24	262.14
518.41	360.44
518.58	259.80
518.75	236.39
518.93	301.93
519.10	248.10
519.27	220.01
519.45	217.67
519.62	325.33
519.79	297.25
519.96	264.48
520.14	224.69
520.31	234.05
520.48	276.18
520.65	259.80
520.83	273.84
521.00	257.46
521.17	184.90
521.34	290.23
521.52	285.55
521.69	229.37
521.86	243.42
522.03	276.18
522.20	322.99
522.38	280.86
522.55	210.65
522.72	325.33
522.89	222.35
523.07	372.15
523.24	287.89
523.41	367.46
523.58	236.39
523.75	304.27
523.92	341.72
524.10	257.46
524.27	294.91
524.44	252.78
524.61	344.06
524.78	327.68
524.96	264.48
525.13	255.12
525.30	304.27
525.47	344.06
525.64	341.72
525.81	269.16
525.98	215.33
526.16	191.92
526.33	187.24
526.50	208.31
526.67	269.16
526.84	280.86
527.01	287.89
527.18	367.46
527.36	273.84
527.53	224.69
527.70	262.14
527.87	287.89
528.04	278.52
528.21	203.63
528.38	311.29
528.55	322.99
528.72	334.70
528.89	339.38
529.07	325.33
529.24	301.93
529.41	299.59
529.58	271.50
529.75	278.52
529.92	252.78
530.09	264.48
530.26	348.74
530.43	367.46
530.60	430.66
530.77	287.89
530.94	332.36
531.11	339.38
531.28	264.48
531.46	224.69
531.63	322.99
531.80	243.42
531.97	315.97
532.14	278.52
532.31	236.39
532.48	341.72
532.65	271.50
532.82	313.63
532.99	390.87
533.16	355.76
533.33	395.55
533.50	327.68
533.67	313.63
533.84	313.63
534.01	264.48
534.18	344.06
534.35	318.31
534.52	318.31
534.69	416.62
534.86	320.65
535.03	341.72
535.20	273.84
535.37	299.59
535.54	337.04
535.71	332.36
535.88	383.85
536.05	318.31
536.22	257.46
536.38	297.25
536.55	360.44
536.72	341.72
536.89	414.27
537.06	381.51
537.23	440.02
537.40	320.65
537.57	351.08
537.74	479.81
537.91	409.59
538.08	383.85
538.25	428.32
538.42	472.79
538.59	468.11
538.75	404.91
538.92	489.17
539.09	557.05
539.26	557.05
539.43	578.11
539.60	634.29
539.77	641.31
539.94	664.71
540.11	772.38
540.28	746.63
540.44	880.04
540.61	826.21
540.78	940.90
540.95	957.28
541.12	1228.78
541.29	1385.60
541.46	1357.51
541.62	1376.24
541.79	1383.26
541.96	1289.64
542.13	1252.19
542.30	1219.42
542.47	1160.91
542.63	1050.90
542.80	1125.80
542.97	1205.38
543.14	1046.22
543.31	1086.01
543.48	1196.01
543.64	1252.19
543.81	1118.78
543.98	1095.37
544.15	1165.59
544.32	1146.86
544.48	1046.22
544.65	1139.84
544.82	1067.28
544.99	1090.69
545.16	1121.12
545.32	1146.86
545.49	1631.35
545.66	2668.21
545.83	3194.83
546.00	2923.33
546.16	2001.16
546.33	1554.12
546.50	1205.38
546.67	938.55
546.83	938.55
547.00	917.49
547.17	903.45
547.34	884.72
547.50	760.67
547.67	844.93
547.84	791.10
548.00	774.72
548.17	685.78
548.34	758.33
548.51	678.76
548.67	755.99
548.84	620.24
549.01	695.14
549.18	734.93
549.34	716.20
549.51	645.99
549.68	622.58
549.84	655.35
550.01	636.63
550.18	636.63
550.34	564.07
550.51	596.84
550.68	599.18
550.84	559.39
551.01	447.04
551.18	491.51
551.34	458.74
551.51	456.40
551.68	482.15
551.84	411.93
552.01	458.74
552.18	397.89
552.34	526.62
552.51	433.00
552.68	449.38
552.84	449.38
553.01	465.77
553.18	430.66
553.34	463.43
553.51	322.99
553.67	418.96
553.84	416.62
554.01	367.46
554.17	360.44
554.34	301.93
554.51	306.61
554.67	372.15
554.84	327.68
555.00	379.17
555.17	334.70
555.33	311.29
555.50	334.70
555.67	297.25
555.83	313.63
556.00	369.80
556.16	442.36
556.33	276.18
556.50	294.91
556.66	346.40
556.83	322.99
556.99	292.57
557.16	285.55
557.32	276.18
557.49	311.29
557.65	236.39
557.82	290.23
557.98	308.95
558.15	276.18
558.32	257.46
558.48	304.27
558.65	301.93
558.81	409.59
558.98	245.76
559.14	287.89
559.31	397.89
559.47	367.46
559.64	313.63
559.80	311.29
559.97	222.35
560.13	311.29
560.30	311.29
560.46	227.03
560.63	381.51
560.79	386.19
560.96	346.40
561.12	259.80
561.29	306.61
561.45	262.14
561.61	311.29
561.78	355.76
561.94	304.27
562.11	313.63
562.27	379.17
562.44	227.03
562.60	348.74
562.77	231.71
562.93	383.85
563.10	304.27
563.26	334.70
563.42	315.97
563.59	297.25
563.75	280.86
563.92	304.27
564.08	271.50
564.24	297.25
564.41	315.97
564.57	264.48
564.74	173.20
564.90	299.59
565.07	276.18
565.23	332.36
565.39	203.63
565.56	241.08
565.72	187.24
565.88	243.42
566.05	175.54
566.21	255.12
566.38	278.52
566.54	330.02
566.70	217.67
566.87	234.05
567.03	252.78
567.19	264.48
567.36	276.18
567.52	238.73
567.68	245.76
567.85	304.27
568.01	220.01
568.17	299.59
568.34	189.58
568.50	278.52
568.66	266.82
568.83	355.76
568.99	271.50
569.15	294.91
569.32	245.76
569.48	203.63
569.64	201.29
569.81	245.76
569.97	231.71
570.13	224.69
570.30	236.39
570.46	299.59
570.62	243.42
570.78	257.46
570.95	163.84
571.11	269.16
571.27	313.63
571.43	262.14
571.60	273.84
571.76	210.65
571.92	229.37
572.09	241.08
572.25	299.59
572.41	236.39
572.57	238.73
572.74	276.18
572.90	271.50
573.06	205.97
573.22	259.80
573.38	269.16
573.55	248.10
573.71	311.29
573.87	327.68
574.03	250.44
574.20	280.86
574.36	222.35
574.52	184.90
574.68	252.78
574.84	306.61
575.01	168.52
575.17	339.38
575.33	290.23
575.49	299.59
575.65	334.70
575.82	325.33
575.98	344.06
576.14	301.93
576.30	379.17
576.46	496.19
576.62	718.54
576.79	826.21
576.95	685.78
577.11	489.17
577.27	437.68
577.43	311.29
577.59	280.86
577.75	297.25
577.92	273.84
578.08	269.16
578.24	348.74
578.40	341.72
578.56	526.62
578.72	690.46
578.88	779.40
579.04	571.09
579.21	538.32
579.37	355.76
579.53	355.76
579.69	425.98
579.85	381.51
580.01	550.03
580.17	458.74
580.33	339.38
580.49	442.36
580.65	369.80
580.82	339.38
580.98	327.68
581.14	402.57
581.30	393.21
581.46	360.44
581.62	433.00
581.78	456.40
581.94	404.91
582.10	463.43
582.26	409.59
582.42	442.36
582.58	531.30
582.74	454.06
582.90	477.47
583.06	575.77
583.22	482.15
583.38	458.74
583.54	507.90
583.70	463.43
583.86	482.15
584.02	514.92
584.18	500.87
584.34	348.74
584.50	418.96
584.66	461.09
584.82	435.34
584.98	437.68
585.14	449.38
585.30	454.06
585.46	489.17
585.62	428.32
585.78	404.91
585.94	411.93
586.10	430.66
586.26	456.40
586.42	468.11
586.58	496.19
586.74	528.96
586.90	580.45
587.06	638.97
587.22	690.46
587.38	592.16
587.54	512.58
587.70	444.70
587.86	489.17
588.02	388.53
588.18	425.98
588.34	430.66
588.49	358.10
588.65	318.31
588.81	407.25
588.97	402.57
589.13	299.59
589.29	402.57
589.45	358.10
589.61	362.78
589.77	280.86
589.93	355.76
590.08	351.08
590.24	304.27
590.40	339.38
590.56	360.44
590.72	362.78
590.88	355.76
591.04	330.02
591.20	440.02
591.35	395.55
591.51	344.06
591.67	402.57
591.83	379.17
591.99	348.74
592.15	444.70
592.31	416.62
592.46	430.66
592.62	507.90
592.78	514.92
592.94	526.62
593.10	543.00
593.26	496.19
593.41	554.71
593.57	437.68
593.73	418.96
593.89	416.62
594.05	379.17
594.20	311.29
594.36	266.82
594.52	325.33
594.68	400.23
594.84	290.23
594.99	351.08
595.15	313.63
595.31	304.27
595.47	313.63
595.62	330.02
595.78	320.65
595.94	271.50
596.10	313.63
596.25	280.86
596.41	327.68
596.57	330.02
596.73	334.70
596.88	283.20
597.04	252.78
597.20	325.33
597.36	330.02
597.51	266.82
597.67	304.27
597.83	320.65
597.99	374.49
598.14	409.59
598.30	351.08
598.46	369.80
598.61	388.53
598.77	313.63
598.93	374.49
599.09	482.15
599.24	351.08
599.40	454.06
599.56	388.53
599.71	440.02
599.87	400.23
600.03	369.80
600.18	365.12
600.34	367.46
600.50	337.04
600.65	287.89
600.81	334.70
600.97	313.63
601.12	339.38
601.28	325.33
601.44	285.55
601.59	287.89
601.75	332.36
601.91	311.29
602.06	266.82
602.22	416.62
602.37	315.97
602.53	243.42
602.69	290.23
602.84	290.23
603.00	252.78
603.16	313.63
603.31	362.78
603.47	322.99
603.62	269.16
603.78	297.25
603.94	262.14
604.09	257.46
604.25	231.71
604.40	271.50
604.56	341.72
604.71	299.59
604.87	264.48
605.03	241.08
605.18	315.97
605.34	388.53
605.49	318.31
605.65	252.78
605.80	257.46
605.96	346.40
606.12	276.18
606.27	320.65
606.43	297.25
606.58	308.95
606.74	360.44
606.89	379.17
607.05	334.70
607.20	360.44
607.36	304.27
607.51	402.57
607.67	383.85
607.82	327.68
607.98	503.22
608.13	454.06
608.29	423.64
608.44	484.49
608.60	479.81
608.75	456.40
608.91	592.16
609.06	589.82
609.22	594.50
609.37	496.19
609.53	603.86
609.68	737.27
609.84	746.63
609.99	858.98
610.15	1034.52
610.30	1200.69
610.46	1544.75
610.61	1872.43
610.76	2221.17
610.92	2677.57
611.07	3021.63
