SpectraSuite Data File
++++++++++++++++++++++++++++++++++++
Date: Fri Oct 04 11:42:23 GMT-05:00 2013
User: price-jones
Dark Spectrum Present: No
Reference Spectrum Present: No
Number of Sampled Component Spectra: 1
Spectrometers: USB2+H05261
Integration Time (usec): 100000 (USB2+H05261)
Spectra Averaged: 1 (USB2+H05261)
Boxcar Smoothing: 0 (USB2+H05261)
Correct for Electrical Dark: No (USB2+H05261)
Strobe/Lamp Enabled: No (USB2+H05261)
Correct for Detector Non-linearity: No (USB2+H05261)
Correct for Stray Light: No (USB2+H05261)
Number of Pixels in Processed Spectrum: 2048
>>>>>Begin Processed Spectral Data<<<<<
365.73	124.05
365.92	124.05
366.12	124.05
366.32	0.00
366.52	11.70
366.72	28.09
366.91	0.00
367.11	0.00
367.31	0.00
367.51	0.00
367.70	0.00
367.90	0.00
368.10	0.00
368.30	0.00
368.49	0.00
368.69	0.00
368.89	0.00
369.09	0.00
369.28	0.00
369.48	0.00
369.68	0.00
369.87	0.00
370.07	11.70
370.27	58.51
370.47	81.92
370.66	266.82
370.86	269.16
371.06	355.76
371.25	414.27
371.45	301.93
371.65	304.27
371.84	294.91
372.04	322.99
372.24	346.40
372.44	423.64
372.63	327.68
372.83	360.44
373.03	222.35
373.22	348.74
373.42	348.74
373.62	346.40
373.81	388.53
374.01	430.66
374.21	346.40
374.40	341.72
374.60	468.11
374.79	369.80
374.99	440.02
375.19	472.79
375.38	447.04
375.58	447.04
375.78	456.40
375.97	507.90
376.17	505.56
376.37	423.64
376.56	531.30
376.76	468.11
376.95	425.98
377.15	479.81
377.35	470.45
377.54	482.15
377.74	547.69
377.93	463.43
378.13	507.90
378.33	517.26
378.52	414.27
378.72	372.15
378.91	510.24
379.11	449.38
379.31	498.53
379.50	428.32
379.70	510.24
379.89	489.17
380.09	519.60
380.28	491.51
380.48	561.73
380.68	500.87
380.87	395.55
381.07	482.15
381.26	402.57
381.46	503.22
381.65	442.36
381.85	395.55
382.04	416.62
382.24	423.64
382.43	358.10
382.63	339.38
382.83	304.27
383.02	341.72
383.22	418.96
383.41	355.76
383.61	337.04
383.80	416.62
384.00	400.23
384.19	547.69
384.39	461.09
384.58	489.17
384.78	496.19
384.97	564.07
385.17	449.38
385.36	430.66
385.56	447.04
385.75	449.38
385.95	496.19
386.14	507.90
386.34	447.04
386.53	531.30
386.72	491.51
386.92	454.06
387.11	482.15
387.31	498.53
387.50	475.13
387.70	470.45
387.89	486.83
388.09	418.96
388.28	517.26
388.48	533.64
388.67	585.13
388.86	573.43
389.06	592.16
389.25	641.31
389.45	575.77
389.64	613.22
389.84	678.76
390.03	589.82
390.22	594.50
390.42	645.99
390.61	685.78
390.81	683.44
391.00	674.07
391.19	732.59
391.39	599.18
391.58	702.16
391.78	599.18
391.97	540.66
392.16	484.49
392.36	547.69
392.55	510.24
392.75	311.29
392.94	400.23
393.13	374.49
393.33	379.17
393.52	477.47
393.71	559.39
393.91	629.60
394.10	592.16
394.29	596.84
394.49	669.39
394.68	692.80
394.88	772.38
395.07	781.74
395.26	667.05
395.46	737.27
395.65	695.14
395.84	690.46
396.04	622.58
396.23	489.17
396.42	472.79
396.62	400.23
396.81	528.96
397.00	468.11
397.19	650.67
397.39	711.52
397.58	922.17
397.77	819.19
397.97	940.90
398.16	830.89
398.35	917.49
398.55	856.64
398.74	943.24
398.93	1018.13
399.12	978.34
399.32	992.39
399.51	990.05
399.70	1034.52
399.90	994.73
400.09	980.68
400.28	987.71
400.47	1027.50
400.67	978.34
400.86	1111.75
401.05	1069.62
401.24	1093.03
401.44	1291.98
401.63	1172.61
401.82	1142.18
402.01	1125.80
402.21	1095.37
402.40	1118.78
402.59	985.37
402.78	985.37
402.97	940.90
403.17	1036.86
403.36	1116.44
403.55	1233.46
403.74	1270.91
403.93	1158.57
404.13	1132.82
404.32	1083.67
404.51	985.37
404.70	1172.61
404.89	1076.65
405.09	1207.72
405.28	1109.41
405.47	1015.79
405.66	1088.35
405.85	1078.99
406.05	1006.43
406.24	1029.84
406.43	1011.11
406.62	1111.75
406.81	1144.52
407.00	1121.12
407.20	1121.12
407.39	1078.99
407.58	1083.67
407.77	1132.82
407.96	1191.33
408.15	1130.48
408.34	1174.95
408.54	1235.80
408.73	1275.59
408.92	1221.76
409.11	1235.80
409.30	1156.22
409.49	1097.71
409.68	1050.90
409.87	1048.56
410.07	1069.62
410.26	1123.46
410.45	1198.35
410.64	1228.78
410.83	1217.08
411.02	1205.38
411.21	1341.13
411.40	1263.89
411.59	1224.10
411.78	1369.21
411.98	1355.17
412.17	1320.06
412.36	1240.48
412.55	1247.51
412.74	1193.67
412.93	1287.29
413.12	1214.74
413.31	1296.66
413.50	1416.02
413.69	1437.09
413.88	1343.47
414.07	1364.53
414.26	1334.11
414.45	1287.29
414.64	1376.24
414.83	1380.92
415.02	1273.25
415.22	1338.79
415.41	1404.32
415.60	1427.73
415.79	1488.58
415.98	1416.02
416.17	1427.73
416.36	1387.94
416.55	1313.04
416.74	1404.32
416.93	1416.02
417.12	1315.38
417.31	1409.00
417.50	1427.73
417.69	1411.34
417.88	1320.06
418.07	1394.96
418.26	1376.24
418.45	1472.20
418.64	1399.64
418.83	1476.88
419.02	1455.81
419.21	1401.98
419.39	1401.98
419.58	1320.06
419.77	1275.59
419.96	1394.96
420.15	1565.82
420.34	1483.90
420.53	1533.05
420.72	1568.16
420.91	1528.37
421.10	1432.41
421.29	1432.41
421.48	1432.41
421.67	1533.05
421.86	1500.28
422.05	1387.94
422.24	1296.66
422.43	1376.24
422.61	1329.42
422.80	1432.41
422.99	1544.75
423.18	1397.30
423.37	1479.22
423.56	1458.15
423.75	1446.45
423.94	1488.58
424.13	1404.32
424.32	1336.45
424.50	1357.51
424.69	1390.28
424.88	1514.33
425.07	1306.02
425.26	1355.17
425.45	1409.00
425.64	1439.43
425.83	1341.13
426.01	1409.00
426.20	1380.92
426.39	1329.42
426.58	1334.11
426.77	1245.16
426.96	1184.31
427.15	1240.48
427.33	1369.21
427.52	1324.74
427.71	1308.36
427.90	1497.94
428.09	1331.76
428.28	1303.68
428.46	1338.79
428.65	1268.57
428.84	1245.16
429.03	1291.98
429.22	1205.38
429.40	1160.91
429.59	1135.16
429.78	1083.67
429.97	1064.94
430.16	992.39
430.34	1018.13
430.53	936.21
430.72	994.73
430.91	1137.50
431.10	1303.68
431.28	1509.65
431.47	1652.42
431.66	1556.46
431.85	1554.12
432.03	1434.75
432.22	1404.32
432.41	1324.74
432.60	1577.52
432.79	1554.12
432.97	1603.27
433.16	1500.28
433.35	1383.26
433.54	1317.72
433.72	1280.27
433.91	1280.27
434.10	1369.21
434.28	1502.62
434.47	1568.16
434.66	1579.86
434.85	1593.90
435.03	1586.88
435.22	1802.21
435.41	2062.01
435.59	2057.33
435.78	1921.58
435.97	1921.58
436.16	1736.68
436.34	1739.02
436.53	1701.57
436.72	1638.38
436.90	1565.82
437.09	1563.48
437.28	1572.84
437.46	1551.78
437.65	1563.48
437.84	1483.90
438.02	1357.51
438.21	1352.83
438.40	1331.76
438.58	1479.22
438.77	1572.84
438.96	1530.71
439.14	1636.03
439.33	1680.50
439.52	1633.69
439.70	1621.99
439.89	1621.99
440.08	1610.29
440.26	1572.84
440.45	1668.80
440.63	1736.68
440.82	1940.30
441.01	1741.36
441.19	1781.15
441.38	1790.51
441.57	1755.40
441.75	1907.54
441.94	1956.69
442.12	1853.70
442.31	1902.86
442.50	1956.69
442.68	1928.60
442.87	1905.20
443.05	1816.26
443.24	1907.54
443.43	1891.15
443.61	1879.45
443.80	1947.33
443.98	1853.70
444.17	1811.57
444.35	2010.52
444.54	1902.86
444.73	1982.43
444.91	1872.43
445.10	1720.29
445.28	1706.25
445.47	1727.32
445.65	1722.63
445.84	1856.04
446.02	1879.45
446.21	1790.51
446.39	1837.32
446.58	1982.43
446.77	1900.52
446.95	1888.81
447.14	1905.20
447.32	2045.63
447.51	1844.34
447.69	1872.43
447.88	1949.67
448.06	1935.62
448.25	1963.71
448.43	1881.79
448.62	1914.56
448.80	1827.96
448.99	1870.09
449.17	1940.30
449.36	1839.66
449.54	2010.52
449.73	1961.37
449.91	2094.78
450.10	2073.71
450.28	2155.63
450.46	2160.31
450.65	2122.87
450.83	2064.35
451.02	2092.44
451.20	2017.54
451.39	2214.15
451.57	2134.57
451.76	1987.11
451.94	1973.07
452.13	1893.49
452.31	1895.83
452.49	1750.72
452.68	1834.98
452.86	1778.81
453.05	1942.64
453.23	1966.05
453.42	1900.52
453.60	1942.64
453.78	2015.20
453.97	2008.18
454.15	1956.69
454.34	1933.28
454.52	1970.73
454.70	1954.35
454.89	1853.70
455.07	1970.73
455.26	2019.88
455.44	1998.82
455.62	2106.48
455.81	2169.68
455.99	2087.76
456.17	2078.40
456.36	2001.16
456.54	2033.93
456.73	2073.71
456.91	2256.28
457.09	2083.08
457.28	2190.74
457.46	2106.48
457.64	2069.03
457.83	1942.64
458.01	1923.92
458.19	1994.14
458.38	1959.03
458.56	2129.89
458.74	2125.21
458.93	2033.93
459.11	2012.86
459.29	2092.44
459.48	2050.31
459.66	2111.16
459.84	2106.48
460.03	2080.74
460.21	2125.21
460.39	2111.16
460.57	2221.17
460.76	2169.68
460.94	2181.38
461.12	2118.18
461.31	2202.44
461.49	2157.97
461.67	2073.71
461.85	2193.08
462.04	2204.78
462.22	2321.81
462.40	2097.12
462.59	2139.25
462.77	2139.25
462.95	2136.91
463.13	2225.85
463.32	2153.29
463.50	2129.89
463.68	2282.02
463.86	2169.68
464.05	2150.95
464.23	2069.03
464.41	2026.90
464.59	1996.48
464.78	2099.46
464.96	2204.78
465.14	1994.14
465.32	2125.21
465.50	2150.95
465.69	2153.29
465.87	2225.85
466.05	2146.27
466.23	2017.54
466.41	2033.93
466.60	2054.99
466.78	2003.50
466.96	2118.18
467.14	2167.34
467.32	2146.27
467.51	2167.34
467.69	2073.71
467.87	2012.86
468.05	2050.31
468.23	2162.66
468.41	2129.89
468.60	2015.20
468.78	2120.53
468.96	2160.31
469.14	2122.87
469.32	2148.61
469.50	2043.29
469.69	2083.08
469.87	2090.10
470.05	1961.37
470.23	2008.18
470.41	2015.20
470.59	2062.01
470.77	2043.29
470.95	2108.82
471.14	2118.18
471.32	2172.02
471.50	2235.21
471.68	2228.19
471.86	2354.58
472.04	2340.54
472.22	2165.00
472.40	2157.97
472.58	2190.74
472.77	2040.95
472.95	2148.61
473.13	2244.57
473.31	2150.95
473.49	2186.06
473.67	2291.38
473.85	2335.85
474.03	2209.47
474.21	2239.89
474.39	2293.72
474.57	2382.67
474.75	2375.64
474.93	2335.85
475.12	2202.44
475.30	2221.17
475.48	2204.78
475.66	2370.96
475.84	2204.78
476.02	2256.28
476.20	2265.64
476.38	2279.68
476.56	2277.34
476.74	2256.28
476.92	2282.02
477.10	2314.79
477.28	2382.67
477.46	2361.60
477.64	2546.50
477.82	2555.86
478.00	2420.11
478.18	2497.35
478.36	2499.69
478.54	2513.74
478.72	2394.37
478.90	2492.67
479.08	2583.95
479.26	2633.10
479.44	2551.18
479.62	2663.53
479.80	2736.09
479.98	2586.29
480.16	2691.62
480.34	2684.59
480.52	2651.83
480.70	2708.00
480.88	2520.76
481.06	2740.77
481.24	2649.49
481.41	2726.72
481.59	2818.00
481.77	2834.39
481.95	2775.88
482.13	2841.41
482.31	2771.19
482.49	2878.86
482.67	2747.79
482.85	2803.96
483.03	2857.79
483.21	2808.64
483.39	3002.91
483.57	2768.85
483.74	2853.11
483.92	2792.26
484.10	2815.66
484.28	2906.95
484.46	3122.27
484.64	3061.42
484.82	2949.08
485.00	2775.88
485.18	2949.08
485.35	2708.00
485.53	2635.44
485.71	2335.85
485.89	2445.86
486.07	2382.67
486.25	2738.43
486.43	2719.70
486.61	2597.99
486.78	2822.69
486.96	2932.69
487.14	2974.82
487.32	2916.31
487.50	3066.10
487.68	3218.24
487.85	3227.60
488.03	3276.75
488.21	3253.34
488.39	3145.68
488.57	2951.42
488.75	2965.46
488.92	3379.73
489.10	3251.00
489.28	3384.41
489.46	3353.99
489.64	3426.54
489.81	3557.61
489.99	3459.31
490.17	3461.65
490.35	3681.66
490.53	3543.57
490.70	3456.97
490.88	3393.78
491.06	3438.25
491.24	3435.91
491.41	3482.72
491.59	3119.93
491.77	3169.09
491.95	3234.62
492.13	3386.76
492.30	3602.08
492.48	3660.60
492.66	3576.34
492.84	3637.19
493.01	3625.49
493.19	3478.04
493.37	3574.00
493.54	3454.63
493.72	3550.59
493.90	3590.38
494.08	3693.37
494.25	3763.58
494.43	3803.37
494.61	3896.99
494.79	3941.46
494.96	3763.58
495.14	3822.09
495.32	3658.26
495.49	3653.58
495.67	3796.35
495.85	3875.93
496.02	3918.06
496.20	3936.78
496.38	3840.82
496.55	3852.52
496.73	3796.35
496.91	3850.18
497.09	3957.85
497.26	4086.58
497.44	3845.50
497.62	4032.74
497.79	3723.79
497.97	3665.28
498.14	3719.11
498.32	3791.67
498.50	4014.02
498.67	3948.48
498.85	3988.27
499.03	4060.83
499.20	3889.97
499.38	3983.59
499.56	3817.41
499.73	3969.55
499.91	3871.25
500.08	3770.60
500.26	3679.32
500.44	3880.61
500.61	3770.60
500.79	3744.86
500.97	3765.92
501.14	3709.75
501.32	3740.18
501.49	3730.81
501.67	3684.00
501.84	3721.45
502.02	3871.25
502.20	3927.42
502.37	3805.71
502.55	3908.69
502.72	3974.23
502.90	3962.53
503.07	4009.34
503.25	3822.09
503.43	3662.94
503.60	3552.93
503.78	3625.49
503.95	3552.93
504.13	3726.13
504.30	3920.40
504.48	3978.91
504.65	4079.55
504.83	4007.00
505.01	4072.53
505.18	3990.61
505.36	4046.79
505.53	3978.91
505.71	4124.02
505.88	4128.70
506.06	4152.11
506.23	4009.34
506.41	3840.82
506.58	3960.19
506.76	3971.89
506.93	3985.93
507.11	3906.35
507.28	3943.80
507.46	3887.63
507.63	3810.39
507.81	3728.47
507.98	3618.47
508.16	3913.38
508.33	3936.78
508.50	3971.89
508.68	4156.79
508.85	4217.65
509.03	4257.43
509.20	4070.19
509.38	4035.08
509.55	3962.53
509.73	4002.32
509.90	4117.00
510.08	4184.88
510.25	4290.20
510.42	4039.76
510.60	4079.55
510.77	4063.17
510.95	4262.12
511.12	4152.11
511.30	4224.67
511.47	4383.82
511.64	4339.35
511.82	4128.70
511.99	4014.02
512.17	4025.72
512.34	3946.14
512.51	3943.80
512.69	3873.59
512.86	4170.83
513.04	4273.82
513.21	4243.39
513.38	3995.29
513.56	3992.95
513.73	3836.14
513.90	3904.01
514.08	3927.42
514.25	4184.88
514.43	4014.02
514.60	4030.40
514.77	4039.76
514.95	4168.49
515.12	3967.21
515.29	4154.45
515.47	4243.39
515.64	4149.77
515.81	4308.93
515.99	4278.50
516.16	4051.47
516.33	3581.02
516.51	3499.10
516.68	3424.20
516.85	3398.46
517.03	3393.78
517.20	3623.15
517.37	3981.25
517.54	4039.76
517.72	4210.62
517.89	3646.55
518.06	3609.11
518.24	3588.04
518.41	3758.90
518.58	3960.19
518.75	3990.61
518.93	3960.19
519.10	3997.64
519.27	4098.28
519.45	4049.13
519.62	4147.43
519.79	4177.86
519.96	4086.58
520.14	4107.64
520.31	3843.16
520.48	4025.72
520.65	4042.11
520.83	4283.18
521.00	4259.78
521.17	4180.20
521.34	4128.70
521.52	4304.25
521.69	4184.88
521.86	4313.61
522.03	4315.95
522.20	4203.60
522.38	3955.51
522.55	3817.41
522.72	3854.86
522.89	4053.81
523.07	4168.49
523.24	4032.74
523.41	4161.47
523.58	4294.88
523.75	4227.01
523.92	4341.69
524.10	4243.39
524.27	4395.53
524.44	4353.40
524.61	4332.33
524.78	4198.92
524.96	4278.50
525.13	4205.94
525.30	4203.60
525.47	4414.25
525.64	4252.75
525.81	4315.95
525.98	4100.62
526.16	3854.86
526.33	3782.31
526.50	3688.68
526.67	3571.66
526.84	3801.03
527.01	3955.51
527.18	3908.69
527.36	4002.32
527.53	4163.81
527.70	4315.95
527.87	4077.21
528.04	4184.88
528.21	3962.53
528.38	4346.37
528.55	4304.25
528.72	4318.29
528.89	4414.25
529.07	4386.16
529.24	4278.50
529.41	4276.16
529.58	4032.74
529.75	4067.85
529.92	4196.58
530.09	4250.41
530.26	4154.45
530.43	4381.48
530.60	4306.59
530.77	4334.67
530.94	4227.01
531.11	4341.69
531.28	4219.99
531.46	4285.52
531.63	4304.25
531.80	4273.82
531.97	4163.81
532.14	4049.13
532.31	3960.19
532.48	3974.23
532.65	3786.99
532.82	4028.06
532.99	4156.79
533.16	4201.26
533.33	4278.50
533.50	4107.64
533.67	4126.36
533.84	4049.13
534.01	4215.30
534.18	4308.93
534.35	4205.94
534.52	4107.64
534.69	4301.90
534.86	4372.12
535.03	4395.53
535.20	4339.35
535.37	4395.53
535.54	4437.66
535.71	4379.14
535.88	4400.21
536.05	4203.60
536.22	4236.37
536.38	4109.98
536.55	4255.09
536.72	4065.51
536.89	3995.29
537.06	3992.95
537.23	4234.03
537.40	4236.37
537.57	4259.78
537.74	4280.84
537.91	4283.18
538.08	4222.33
538.25	4355.74
538.42	4224.67
538.59	4297.22
538.75	4219.99
538.92	4161.47
539.09	4196.58
539.26	4077.21
539.43	4163.81
539.60	4074.87
539.77	4128.70
539.94	4262.12
540.11	4084.23
540.28	4042.11
540.44	4053.81
540.61	4121.68
540.78	4065.51
540.95	4046.79
541.12	4322.97
541.29	4372.12
541.46	4482.13
541.62	4564.04
541.79	4564.04
541.96	4449.36
542.13	4524.26
542.30	4444.68
542.47	4432.97
542.63	4198.92
542.80	4411.91
542.97	4348.72
543.14	4280.84
543.31	4358.08
543.48	4428.29
543.64	4432.97
543.81	4645.96
543.98	4816.82
544.15	4386.16
544.32	4397.87
544.48	4372.12
544.65	4496.17
544.82	4437.66
544.99	4442.34
545.16	4409.57
545.32	4344.03
545.49	4765.33
545.66	5083.64
545.83	5413.66
546.00	5144.50
546.16	4786.40
546.33	4620.22
546.50	4346.37
546.67	4395.53
546.83	4388.50
547.00	4339.35
547.17	4208.28
547.34	4135.73
547.50	4079.55
547.67	4154.45
547.84	4222.33
548.00	4168.49
548.17	4173.18
548.34	4257.43
548.51	4107.64
548.67	4224.67
548.84	4058.49
549.01	4210.62
549.18	4189.56
549.34	4196.58
549.51	4117.00
549.68	4032.74
549.84	4177.86
550.01	3934.44
550.18	4051.47
550.34	4121.68
550.51	4121.68
550.68	4245.73
550.84	3976.57
551.01	4030.40
551.18	4051.47
551.34	3948.48
551.51	4166.15
551.68	4133.39
551.84	4079.55
552.01	4152.11
552.18	4011.68
552.34	3997.64
552.51	4086.58
552.68	3948.48
552.84	3939.12
553.01	3880.61
553.18	4042.11
553.34	4030.40
553.51	3999.98
553.67	4140.41
553.84	4145.09
554.01	4105.30
554.17	3971.89
554.34	4016.36
554.51	3969.55
554.67	4119.34
554.84	4014.02
555.00	4002.32
555.17	3899.33
555.33	3871.25
555.50	4037.42
555.67	3962.53
555.83	3927.42
556.00	3822.09
556.16	4042.11
556.33	3749.54
556.50	3887.63
556.66	3716.77
556.83	3716.77
556.99	3777.62
557.16	3847.84
557.32	3922.74
557.49	3826.78
557.65	3824.44
557.82	3904.01
557.98	3901.67
558.15	3908.69
558.32	3719.11
558.48	3494.42
558.65	3595.06
558.81	3698.05
558.98	3716.77
559.14	3695.71
559.31	3611.45
559.47	3796.35
559.64	3730.81
559.80	3651.24
559.97	3665.28
560.13	3665.28
560.30	3838.48
560.46	3873.59
560.63	3953.16
560.79	3894.65
560.96	3791.67
561.12	3770.60
561.29	3709.75
561.45	3712.09
561.61	3784.65
561.78	3786.99
561.94	3702.73
562.11	3646.55
562.27	3611.45
562.44	3679.32
562.60	3812.73
562.77	3726.13
562.93	3948.48
563.10	3976.57
563.26	3859.54
563.42	3726.13
563.59	3618.47
563.75	3695.71
563.92	3658.26
564.08	3681.66
564.24	3627.83
564.41	3756.56
564.57	3747.20
564.74	3747.20
564.90	3658.26
565.07	3653.58
565.23	3655.92
565.39	3522.51
565.56	3407.82
565.72	3447.61
565.88	3548.25
566.05	3555.27
566.21	3496.76
566.38	3712.09
566.54	3581.02
566.70	3403.14
566.87	3723.79
567.03	3648.90
567.19	3681.66
567.36	3639.53
567.52	3676.98
567.68	3655.92
567.85	3555.27
568.01	3499.10
568.17	3288.45
568.34	3328.24
568.50	3351.65
568.66	3253.34
568.83	3442.93
568.99	3290.79
569.15	3403.14
569.32	3463.99
569.48	3358.67
569.64	3339.94
569.81	3403.14
569.97	3346.97
570.13	3435.91
570.30	3370.37
570.46	3239.30
570.62	3171.43
570.78	3274.41
570.95	3197.17
571.11	3300.16
571.27	3407.82
571.43	3204.19
571.60	3353.99
571.76	3349.31
571.92	3428.88
572.09	3368.03
572.25	3393.78
572.41	3412.50
572.57	3386.76
572.74	3393.78
572.90	3386.76
573.06	3314.20
573.22	3393.78
573.38	3311.86
573.55	3332.92
573.71	3428.88
573.87	3368.03
574.03	3391.44
574.20	3288.45
574.36	3236.96
574.52	3148.02
574.68	3323.56
574.84	3267.39
575.01	3133.98
575.17	3368.03
575.33	3234.62
575.49	3274.41
575.65	3337.60
575.82	3309.52
575.98	3262.71
576.14	3131.64
576.30	3445.27
576.46	3358.67
576.62	3382.07
576.79	3510.80
576.95	3520.17
577.11	3344.63
577.27	3358.67
577.43	3314.20
577.59	3239.30
577.75	3215.90
577.92	3112.91
578.08	3173.77
578.24	3159.72
578.40	3262.71
578.56	3293.13
578.72	3431.23
578.88	3447.61
579.04	3431.23
579.21	3368.03
579.37	3325.90
579.53	3260.37
579.69	3396.12
579.85	3358.67
580.01	3342.28
580.17	3365.69
580.33	3201.85
580.49	3279.09
580.65	3344.63
580.82	3358.67
580.98	3304.84
581.14	3398.46
581.30	3330.58
581.46	3262.71
581.62	3215.90
581.78	3293.13
581.94	3325.90
582.10	3276.75
582.26	3489.74
582.42	3361.01
582.58	3407.82
582.74	3281.43
582.90	3391.44
583.06	3428.88
583.22	3281.43
583.38	3304.84
583.54	3358.67
583.70	3487.40
583.86	3398.46
584.02	3258.03
584.18	3258.03
584.34	3335.26
584.50	3218.24
584.66	3258.03
584.82	3190.15
584.98	3166.74
585.14	3197.17
585.30	3080.14
585.46	3098.87
585.62	3281.43
585.78	3129.30
585.94	3054.40
586.10	3180.79
586.26	3192.49
586.42	3159.72
586.58	3208.87
586.74	3192.49
586.90	3288.45
587.06	3201.85
587.22	3323.56
587.38	3110.57
587.54	3049.72
587.70	2864.82
587.86	2825.03
588.02	2843.75
588.18	2670.55
588.34	2633.10
588.49	2492.67
588.65	2464.58
588.81	2363.94
588.97	2286.70
589.13	2335.85
589.29	2251.60
589.45	2399.05
589.61	2509.05
589.77	2476.29
589.93	2586.29
590.08	2581.61
590.24	2719.70
590.40	2743.11
590.56	2679.91
590.72	2651.83
590.88	2644.81
591.04	2691.62
591.20	2787.58
591.35	2637.78
591.51	2729.06
591.67	2597.99
591.83	2572.25
591.99	2672.89
592.15	2492.67
592.31	2686.94
592.46	2759.49
592.62	2766.51
592.78	2775.88
592.94	2822.69
593.10	2745.45
593.26	2803.96
593.41	2888.22
593.57	2904.60
593.73	2567.57
593.89	2497.35
594.05	2602.68
594.20	2548.84
594.36	2492.67
594.52	2380.32
594.68	2520.76
594.84	2539.48
594.99	2661.19
595.15	2672.89
595.31	2679.91
595.47	2684.59
595.62	2626.08
595.78	2595.65
595.94	2780.56
596.10	2834.39
596.25	2717.36
596.41	2691.62
596.57	2691.62
596.73	2684.59
596.88	2649.49
597.04	2761.83
597.20	2677.57
597.36	2736.09
597.51	2649.49
597.67	2764.17
597.83	2626.08
597.99	2766.51
