SpectraSuite Data File
++++++++++++++++++++++++++++++++++++
Date: Fri Oct 04 11:42:22 GMT-05:00 2013
User: price-jones
Dark Spectrum Present: No
Reference Spectrum Present: No
Number of Sampled Component Spectra: 1
Spectrometers: USB2+H05261
Integration Time (usec): 100000 (USB2+H05261)
Spectra Averaged: 1 (USB2+H05261)
Boxcar Smoothing: 0 (USB2+H05261)
Correct for Electrical Dark: No (USB2+H05261)
Strobe/Lamp Enabled: No (USB2+H05261)
Correct for Detector Non-linearity: No (USB2+H05261)
Correct for Stray Light: No (USB2+H05261)
Number of Pixels in Processed Spectrum: 2048
>>>>>Begin Processed Spectral Data<<<<<
365.73	46.81
365.92	46.81
366.12	46.81
366.32	0.00
366.52	0.00
366.72	0.00
366.91	0.00
367.11	0.00
367.31	0.00
367.51	0.00
367.70	0.00
367.90	0.00
368.10	0.00
368.30	0.00
368.49	0.00
368.69	0.00
368.89	0.00
369.09	0.00
369.28	0.00
369.48	0.00
369.68	0.00
369.87	0.00
370.07	0.00
370.27	0.00
370.47	42.13
370.66	28.09
370.86	65.54
371.06	28.09
371.25	86.60
371.45	60.85
371.65	173.20
371.84	7.02
372.04	102.98
372.24	56.17
372.44	74.90
372.63	121.71
372.83	81.92
373.03	100.64
373.22	128.73
373.42	189.58
373.62	102.98
373.81	49.15
374.01	102.98
374.21	140.43
374.40	159.16
374.60	124.05
374.79	79.58
374.99	124.05
375.19	79.58
375.38	102.98
375.58	159.16
375.78	117.03
375.97	198.95
376.17	79.58
376.37	117.03
376.56	105.32
376.76	170.86
376.95	91.28
377.15	119.37
377.35	154.48
377.54	159.16
377.74	56.17
377.93	63.19
378.13	145.11
378.33	105.32
378.52	65.54
378.72	156.82
378.91	81.92
379.11	100.64
379.31	110.01
379.50	79.58
379.70	81.92
379.89	117.03
380.09	25.75
380.28	81.92
380.48	95.96
380.68	98.30
380.87	86.60
381.07	86.60
381.26	156.82
381.46	124.05
381.65	126.39
381.85	124.05
382.04	110.01
382.24	173.20
382.43	77.24
382.63	30.43
382.83	100.64
383.02	81.92
383.22	140.43
383.41	35.11
383.61	126.39
383.80	107.66
384.00	21.06
384.19	84.26
384.39	156.82
384.58	133.41
384.78	86.60
384.97	145.11
385.17	110.01
385.36	112.35
385.56	152.13
385.75	11.70
385.95	152.13
386.14	154.48
386.34	79.58
386.53	44.47
386.72	140.43
386.92	154.48
387.11	142.77
387.31	102.98
387.50	86.60
387.70	42.13
387.89	95.96
388.09	93.62
388.28	100.64
388.48	46.81
388.67	168.52
388.86	86.60
389.06	39.79
389.25	147.45
389.45	84.26
389.64	145.11
389.84	180.22
390.03	56.17
390.22	147.45
390.42	105.32
390.61	100.64
390.81	67.88
391.00	149.79
391.19	121.71
391.39	60.85
391.58	37.45
391.78	100.64
391.97	95.96
392.16	95.96
392.36	175.54
392.55	95.96
392.75	166.18
392.94	128.73
393.13	86.60
393.33	138.09
393.52	93.62
393.71	166.18
393.91	133.41
394.10	159.16
394.29	93.62
394.49	138.09
394.68	147.45
394.88	117.03
395.07	100.64
395.26	105.32
395.46	56.17
395.65	131.07
395.84	121.71
396.04	189.58
396.23	170.86
396.42	121.71
396.62	147.45
396.81	110.01
397.00	107.66
397.19	95.96
397.39	110.01
397.58	112.35
397.77	105.32
397.97	126.39
398.16	100.64
398.35	100.64
398.55	126.39
398.74	145.11
398.93	170.86
399.12	42.13
399.32	98.30
399.51	177.88
399.70	107.66
399.90	131.07
400.09	119.37
400.28	126.39
400.47	42.13
400.67	140.43
400.86	152.13
401.05	156.82
401.24	154.48
401.44	173.20
401.63	128.73
401.82	142.77
402.01	74.90
402.21	121.71
402.40	100.64
402.59	91.28
402.78	91.28
402.97	84.26
403.17	95.96
403.36	93.62
403.55	121.71
403.74	105.32
403.93	131.07
404.13	285.55
404.32	215.33
404.51	231.71
404.70	231.71
404.89	107.66
405.09	203.63
405.28	105.32
405.47	67.88
405.66	140.43
405.85	77.24
406.05	105.32
406.24	84.26
406.43	161.50
406.62	173.20
406.81	149.79
407.00	166.18
407.20	170.86
407.39	168.52
407.58	166.18
407.77	159.16
407.96	138.09
408.15	86.60
408.34	152.13
408.54	77.24
408.73	119.37
408.92	79.58
409.11	114.69
409.30	191.92
409.49	88.94
409.68	154.48
409.87	98.30
410.07	142.77
410.26	112.35
410.45	154.48
410.64	173.20
410.83	88.94
411.02	168.52
411.21	173.20
411.40	105.32
411.59	98.30
411.78	133.41
411.98	166.18
412.17	147.45
412.36	77.24
412.55	49.15
412.74	187.24
412.93	248.10
413.12	105.32
413.31	175.54
413.50	173.20
413.69	152.13
413.88	184.90
414.07	119.37
414.26	126.39
414.45	100.64
414.64	152.13
414.83	126.39
415.02	138.09
415.22	112.35
415.41	138.09
415.60	60.85
415.79	147.45
415.98	112.35
416.17	182.56
416.36	60.85
416.55	133.41
416.74	191.92
416.93	177.88
417.12	173.20
417.31	98.30
417.50	93.62
417.69	77.24
417.88	156.82
418.07	191.92
418.26	170.86
418.45	98.30
418.64	131.07
418.83	114.69
419.02	119.37
419.21	67.88
419.39	119.37
419.58	138.09
419.77	149.79
419.96	173.20
420.15	114.69
420.34	119.37
420.53	184.90
420.72	248.10
420.91	114.69
421.10	126.39
421.29	145.11
421.48	110.01
421.67	119.37
421.86	138.09
422.05	98.30
422.24	126.39
422.43	231.71
422.61	180.22
422.80	152.13
422.99	149.79
423.18	168.52
423.37	161.50
423.56	105.32
423.75	191.92
423.94	119.37
424.13	138.09
424.32	145.11
424.50	140.43
424.69	166.18
424.88	53.83
425.07	175.54
425.26	189.58
425.45	163.84
425.64	102.98
425.83	189.58
426.01	86.60
426.20	173.20
426.39	173.20
426.58	154.48
426.77	112.35
426.96	203.63
427.15	154.48
427.33	163.84
427.52	203.63
427.71	138.09
427.90	128.73
428.09	114.69
428.28	56.17
428.46	224.69
428.65	149.79
428.84	112.35
429.03	147.45
429.22	124.05
429.40	131.07
429.59	105.32
429.78	159.16
429.97	81.92
430.16	100.64
430.34	131.07
430.53	121.71
430.72	166.18
430.91	135.75
431.10	107.66
431.28	168.52
431.47	126.39
431.66	149.79
431.85	166.18
432.03	140.43
432.22	191.92
432.41	112.35
432.60	236.39
432.79	149.79
432.97	152.13
433.16	180.22
433.35	133.41
433.54	117.03
433.72	166.18
433.91	147.45
434.10	173.20
434.28	227.03
434.47	245.76
434.66	241.08
434.85	203.63
435.03	304.27
435.22	711.52
435.41	1179.63
435.59	1149.20
435.78	854.30
435.97	465.77
436.16	339.38
436.34	107.66
436.53	135.75
436.72	180.22
436.90	173.20
437.09	252.78
437.28	217.67
437.46	124.05
437.65	154.48
437.84	163.84
438.02	234.05
438.21	170.86
438.40	163.84
438.58	156.82
438.77	163.84
438.96	77.24
439.14	110.01
439.33	180.22
439.52	159.16
439.70	177.88
439.89	231.71
440.08	117.03
440.26	149.79
440.45	222.35
440.63	152.13
440.82	140.43
441.01	215.33
441.19	191.92
441.38	215.33
441.57	124.05
441.75	222.35
441.94	212.99
442.12	156.82
442.31	135.75
442.50	119.37
442.68	245.76
442.87	163.84
443.05	133.41
443.24	184.90
443.43	180.22
443.61	156.82
443.80	175.54
443.98	205.97
444.17	191.92
444.35	220.01
444.54	222.35
444.73	177.88
444.91	102.98
445.10	114.69
445.28	121.71
445.47	220.01
445.65	140.43
445.84	177.88
446.02	72.56
446.21	105.32
446.39	166.18
446.58	147.45
446.77	156.82
446.95	133.41
447.14	191.92
447.32	220.01
447.51	133.41
447.69	201.29
447.88	131.07
448.06	236.39
448.25	166.18
448.43	126.39
448.62	212.99
448.80	145.11
448.99	203.63
449.17	128.73
449.36	217.67
449.54	163.84
449.73	170.86
449.91	147.45
450.10	135.75
450.28	259.80
450.46	194.26
450.65	194.26
450.83	170.86
451.02	142.77
451.20	133.41
451.39	196.60
451.57	191.92
451.76	100.64
451.94	149.79
452.13	184.90
452.31	161.50
452.49	154.48
452.68	131.07
452.86	128.73
453.05	217.67
453.23	163.84
453.42	159.16
453.60	231.71
453.78	189.58
453.97	194.26
454.15	187.24
454.34	182.56
454.52	131.07
454.70	208.31
454.89	149.79
455.07	161.50
455.26	117.03
455.44	184.90
455.62	205.97
455.81	205.97
455.99	173.20
456.17	159.16
456.36	147.45
456.54	147.45
456.73	117.03
456.91	74.90
457.09	189.58
457.28	301.93
457.46	203.63
457.64	201.29
457.83	114.69
458.01	189.58
458.19	182.56
458.38	191.92
458.56	196.60
458.74	175.54
458.93	154.48
459.11	145.11
459.29	138.09
459.48	234.05
459.66	177.88
459.84	187.24
460.03	245.76
460.21	189.58
460.39	159.16
460.57	198.95
460.76	173.20
460.94	145.11
461.12	194.26
461.31	262.14
461.49	198.95
461.67	140.43
461.85	203.63
462.04	189.58
462.22	304.27
462.40	191.92
462.59	180.22
462.77	131.07
462.95	166.18
463.13	212.99
463.32	161.50
463.50	110.01
463.68	196.60
463.86	234.05
464.05	166.18
464.23	161.50
464.41	205.97
464.59	140.43
464.78	168.52
464.96	173.20
465.14	203.63
465.32	121.71
465.50	124.05
465.69	203.63
465.87	102.98
466.05	107.66
466.23	105.32
466.41	159.16
466.60	205.97
466.78	227.03
466.96	217.67
467.14	236.39
467.32	175.54
467.51	175.54
467.69	184.90
467.87	140.43
468.05	119.37
468.23	236.39
468.41	236.39
468.60	110.01
468.78	189.58
468.96	245.76
469.14	217.67
469.32	227.03
469.50	149.79
469.69	117.03
469.87	166.18
470.05	138.09
470.23	168.52
470.41	154.48
470.59	210.65
470.77	138.09
470.95	208.31
471.14	241.08
471.32	210.65
471.50	222.35
471.68	212.99
471.86	198.95
472.04	152.13
472.22	72.56
472.40	138.09
472.58	222.35
472.77	133.41
472.95	147.45
473.13	238.73
473.31	147.45
473.49	121.71
473.67	149.79
473.85	208.31
474.03	133.41
474.21	175.54
474.39	196.60
474.57	224.69
474.75	229.37
474.93	145.11
475.12	112.35
475.30	163.84
475.48	229.37
475.66	224.69
475.84	177.88
476.02	229.37
476.20	215.33
476.38	163.84
476.56	243.42
476.74	88.94
476.92	133.41
477.10	119.37
477.28	205.97
477.46	224.69
477.64	227.03
477.82	126.39
478.00	170.86
478.18	208.31
478.36	231.71
478.54	173.20
478.72	205.97
478.90	182.56
479.08	236.39
479.26	191.92
479.44	119.37
479.62	159.16
479.80	215.33
479.98	252.78
480.16	180.22
480.34	241.08
480.52	114.69
480.70	210.65
480.88	161.50
481.06	292.57
481.24	224.69
481.41	161.50
481.59	224.69
481.77	224.69
481.95	238.73
482.13	222.35
482.31	255.12
482.49	175.54
482.67	159.16
482.85	222.35
483.03	264.48
483.21	245.76
483.39	252.78
483.57	201.29
483.74	257.46
483.92	308.95
484.10	231.71
484.28	367.46
484.46	285.55
484.64	245.76
484.82	367.46
485.00	238.73
485.18	290.23
485.35	301.93
485.53	271.50
485.71	355.76
485.89	339.38
486.07	325.33
486.25	386.19
486.43	297.25
486.61	372.15
486.78	376.83
486.96	313.63
487.14	358.10
487.32	287.89
487.50	308.95
487.68	299.59
487.85	311.29
488.03	334.70
488.21	337.04
488.39	388.53
488.57	332.36
488.75	234.05
488.92	503.22
489.10	322.99
489.28	360.44
489.46	250.44
489.64	290.23
489.81	404.91
489.99	255.12
490.17	355.76
490.35	308.95
490.53	287.89
490.70	283.20
490.88	297.25
491.06	292.57
491.24	318.31
491.41	388.53
491.59	372.15
491.77	245.76
491.95	231.71
492.13	315.97
492.30	306.61
492.48	266.82
492.66	297.25
492.84	292.57
493.01	325.33
493.19	294.91
493.37	243.42
493.54	325.33
493.72	299.59
493.90	252.78
494.08	297.25
494.25	262.14
494.43	313.63
494.61	318.31
494.79	241.08
494.96	262.14
495.14	241.08
495.32	306.61
495.49	308.95
495.67	269.16
495.85	266.82
496.02	224.69
496.20	330.02
496.38	227.03
496.55	238.73
496.73	236.39
496.91	269.16
497.09	351.08
497.26	283.20
497.44	262.14
497.62	276.18
497.79	229.37
497.97	353.42
498.14	257.46
498.32	285.55
498.50	241.08
498.67	231.71
498.85	257.46
499.03	234.05
499.20	287.89
499.38	285.55
499.56	238.73
499.73	156.82
499.91	259.80
500.08	271.50
500.26	297.25
500.44	231.71
500.61	266.82
500.79	241.08
500.97	245.76
501.14	311.29
501.32	173.20
501.49	257.46
501.67	301.93
501.84	222.35
502.02	173.20
502.20	236.39
502.37	269.16
502.55	210.65
502.72	222.35
502.90	283.20
503.07	224.69
503.25	250.44
503.43	259.80
503.60	170.86
503.78	163.84
503.95	255.12
504.13	205.97
504.30	276.18
504.48	285.55
504.65	290.23
504.83	201.29
505.01	168.52
505.18	271.50
505.36	308.95
505.53	241.08
505.71	208.31
505.88	241.08
506.06	198.95
506.23	198.95
506.41	227.03
506.58	287.89
506.76	238.73
506.93	259.80
507.11	266.82
507.28	191.92
507.46	201.29
507.63	196.60
507.81	187.24
507.98	105.32
508.16	231.71
508.33	234.05
508.50	245.76
508.68	236.39
508.85	212.99
509.03	252.78
509.20	262.14
509.38	259.80
509.55	243.42
509.73	166.18
509.90	173.20
510.08	138.09
510.25	250.44
510.42	250.44
510.60	222.35
510.77	287.89
510.95	308.95
511.12	208.31
511.30	304.27
511.47	285.55
511.64	292.57
511.82	175.54
511.99	250.44
512.17	203.63
512.34	177.88
512.51	227.03
512.69	227.03
512.86	236.39
513.04	257.46
513.21	304.27
513.38	173.20
513.56	189.58
513.73	287.89
513.90	212.99
514.08	175.54
514.25	234.05
514.43	173.20
514.60	217.67
514.77	231.71
514.95	292.57
515.12	248.10
515.29	259.80
515.47	175.54
515.64	212.99
515.81	236.39
515.99	222.35
516.16	224.69
516.33	280.86
516.51	170.86
516.68	184.90
516.85	238.73
517.03	241.08
517.20	245.76
517.37	205.97
517.54	191.92
517.72	229.37
517.89	250.44
518.06	119.37
518.24	283.20
518.41	238.73
518.58	255.12
518.75	276.18
518.93	273.84
519.10	234.05
519.27	276.18
519.45	269.16
519.62	257.46
519.79	201.29
519.96	250.44
520.14	299.59
520.31	236.39
520.48	259.80
520.65	325.33
520.83	262.14
521.00	220.01
521.17	294.91
521.34	189.58
521.52	280.86
521.69	175.54
521.86	201.29
522.03	341.72
522.20	255.12
522.38	231.71
522.55	224.69
522.72	194.26
522.89	217.67
523.07	259.80
523.24	294.91
523.41	255.12
523.58	189.58
523.75	215.33
523.92	292.57
524.10	238.73
524.27	264.48
524.44	257.46
524.61	248.10
524.78	238.73
524.96	273.84
525.13	332.36
525.30	304.27
525.47	257.46
525.64	311.29
525.81	217.67
525.98	208.31
526.16	339.38
526.33	231.71
526.50	250.44
526.67	212.99
526.84	227.03
527.01	159.16
527.18	269.16
527.36	243.42
527.53	245.76
527.70	320.65
527.87	269.16
528.04	306.61
528.21	215.33
528.38	297.25
528.55	322.99
528.72	292.57
528.89	273.84
529.07	241.08
529.24	243.42
529.41	318.31
529.58	191.92
529.75	203.63
529.92	283.20
530.09	163.84
530.26	287.89
530.43	208.31
530.60	294.91
530.77	250.44
530.94	276.18
531.11	269.16
531.28	252.78
531.46	227.03
531.63	294.91
531.80	266.82
531.97	322.99
532.14	285.55
532.31	285.55
532.48	250.44
532.65	241.08
532.82	227.03
532.99	259.80
533.16	271.50
533.33	269.16
533.50	264.48
533.67	290.23
533.84	264.48
534.01	320.65
534.18	229.37
534.35	189.58
534.52	257.46
534.69	397.89
534.86	259.80
535.03	320.65
535.20	290.23
535.37	285.55
535.54	330.02
535.71	273.84
535.88	341.72
536.05	325.33
536.22	320.65
536.38	386.19
536.55	428.32
536.72	315.97
536.89	351.08
537.06	339.38
537.23	292.57
537.40	428.32
537.57	407.25
537.74	372.15
537.91	456.40
538.08	472.79
538.25	475.13
538.42	454.06
538.59	458.74
538.75	468.11
538.92	437.68
539.09	500.87
539.26	585.13
539.43	543.00
539.60	636.63
539.77	641.31
539.94	699.82
540.11	704.50
540.28	706.84
540.44	781.74
540.61	800.46
540.78	863.66
540.95	950.26
541.12	1256.87
541.29	1270.91
541.46	1380.92
541.62	1430.07
541.79	1245.16
541.96	1273.25
542.13	1352.83
542.30	1212.40
542.47	1181.97
542.63	1083.67
542.80	1074.31
542.97	1093.03
543.14	1142.18
543.31	1118.78
543.48	1144.52
543.64	1165.59
543.81	1146.86
543.98	1111.75
544.15	1083.67
544.32	1165.59
544.48	1064.94
544.65	1153.88
544.82	1151.54
544.99	1137.50
545.16	1093.03
545.32	1193.67
545.49	1863.07
545.66	2759.49
545.83	3295.47
546.00	2991.20
546.16	2129.89
546.33	1565.82
546.50	1240.48
546.67	1041.54
546.83	835.57
547.00	861.32
547.17	807.48
547.34	840.25
547.50	870.68
547.67	788.76
547.84	777.06
548.00	711.52
548.17	737.27
548.34	678.76
548.51	718.54
548.67	669.39
548.84	629.60
549.01	622.58
549.18	711.52
549.34	608.54
549.51	631.94
549.68	631.94
549.84	550.03
550.01	550.03
550.18	678.76
550.34	517.26
550.51	631.94
550.68	568.75
550.84	472.79
551.01	547.69
551.18	526.62
551.34	489.17
551.51	482.15
551.68	465.77
551.84	440.02
552.01	461.09
552.18	430.66
552.34	367.46
552.51	330.02
552.68	337.04
552.84	411.93
553.01	351.08
553.18	393.21
553.34	358.10
553.51	395.55
553.67	365.12
553.84	346.40
554.01	409.59
554.17	383.85
554.34	322.99
554.51	351.08
554.67	287.89
554.84	355.76
555.00	360.44
555.17	327.68
555.33	360.44
555.50	243.42
555.67	344.06
555.83	315.97
556.00	234.05
556.16	416.62
556.33	229.37
556.50	266.82
556.66	325.33
556.83	245.76
556.99	252.78
557.16	271.50
557.32	264.48
557.49	220.01
557.65	304.27
557.82	234.05
557.98	266.82
558.15	241.08
558.32	229.37
558.48	271.50
558.65	299.59
558.81	320.65
558.98	269.16
559.14	287.89
559.31	220.01
559.47	351.08
559.64	257.46
559.80	262.14
559.97	278.52
560.13	283.20
560.30	248.10
560.46	280.86
560.63	255.12
560.79	306.61
560.96	264.48
561.12	241.08
561.29	292.57
561.45	184.90
561.61	227.03
561.78	311.29
561.94	264.48
562.11	297.25
562.27	205.97
562.44	238.73
562.60	236.39
562.77	266.82
562.93	308.95
563.10	278.52
563.26	224.69
563.42	257.46
563.59	250.44
563.75	313.63
563.92	255.12
564.08	283.20
564.24	248.10
564.41	234.05
564.57	280.86
564.74	243.42
564.90	299.59
565.07	294.91
565.23	212.99
565.39	243.42
565.56	208.31
565.72	180.22
565.88	248.10
566.05	257.46
566.21	224.69
566.38	290.23
566.54	220.01
566.70	243.42
566.87	273.84
567.03	175.54
567.19	299.59
567.36	250.44
567.52	236.39
567.68	332.36
567.85	334.70
568.01	241.08
568.17	205.97
568.34	234.05
568.50	241.08
568.66	229.37
568.83	297.25
568.99	266.82
569.15	320.65
569.32	224.69
569.48	212.99
569.64	191.92
569.81	238.73
569.97	222.35
570.13	248.10
570.30	236.39
570.46	184.90
570.62	231.71
570.78	306.61
570.95	280.86
571.11	215.33
571.27	308.95
571.43	252.78
571.60	259.80
571.76	243.42
571.92	191.92
572.09	280.86
572.25	189.58
572.41	325.33
572.57	224.69
572.74	313.63
572.90	241.08
573.06	196.60
573.22	252.78
573.38	322.99
573.55	304.27
573.71	212.99
573.87	297.25
574.03	205.97
574.20	257.46
574.36	222.35
574.52	229.37
574.68	337.04
574.84	301.93
575.01	299.59
575.17	257.46
575.33	234.05
575.49	201.29
575.65	255.12
575.82	278.52
575.98	264.48
576.14	294.91
576.30	381.51
576.46	573.43
576.62	681.10
576.79	814.51
576.95	681.10
577.11	451.72
577.27	379.17
577.43	418.96
577.59	304.27
577.75	308.95
577.92	245.76
578.08	236.39
578.24	266.82
578.40	383.85
578.56	564.07
578.72	746.63
578.88	758.33
579.04	631.94
579.21	451.72
579.37	447.04
579.53	402.57
579.69	355.76
579.85	440.02
580.01	500.87
580.17	461.09
580.33	414.27
580.49	355.76
580.65	423.64
580.82	365.12
580.98	407.25
581.14	397.89
581.30	376.83
581.46	379.17
581.62	379.17
581.78	402.57
581.94	411.93
582.10	421.30
582.26	407.25
582.42	397.89
582.58	430.66
582.74	454.06
582.90	463.43
583.06	444.70
583.22	383.85
583.38	425.98
583.54	372.15
583.70	538.32
583.86	421.30
584.02	442.36
584.18	514.92
584.34	468.11
584.50	395.55
584.66	365.12
584.82	428.32
584.98	435.34
585.14	423.64
585.30	468.11
585.46	418.96
585.62	390.87
585.78	388.53
585.94	409.59
586.10	475.13
586.26	393.21
586.42	503.22
586.58	470.45
586.74	505.56
586.90	594.50
587.06	660.03
587.22	517.26
587.38	580.45
587.54	468.11
587.70	447.04
587.86	440.02
588.02	477.47
588.18	367.46
588.34	360.44
588.49	327.68
588.65	301.93
588.81	318.31
588.97	418.96
589.13	264.48
589.29	348.74
589.45	360.44
589.61	353.42
589.77	348.74
589.93	369.80
590.08	351.08
590.24	351.08
590.40	325.33
590.56	379.17
590.72	259.80
590.88	358.10
591.04	362.78
591.20	360.44
591.35	411.93
591.51	322.99
591.67	315.97
591.83	360.44
591.99	393.21
592.15	456.40
592.31	489.17
592.46	437.68
592.62	463.43
592.78	538.32
592.94	461.09
593.10	514.92
593.26	472.79
593.41	402.57
593.57	449.38
593.73	423.64
593.89	374.49
594.05	351.08
594.20	390.87
594.36	367.46
594.52	306.61
594.68	273.84
594.84	330.02
594.99	283.20
595.15	315.97
595.31	313.63
595.47	276.18
595.62	320.65
595.78	304.27
595.94	313.63
596.10	290.23
596.25	311.29
596.41	320.65
596.57	304.27
596.73	360.44
596.88	255.12
597.04	299.59
597.20	320.65
597.36	353.42
597.51	388.53
597.67	290.23
597.83	365.12
597.99	325.33
598.14	311.29
598.30	414.27
598.46	390.87
598.61	414.27
598.77	423.64
598.93	414.27
599.09	334.70
599.24	341.72
599.40	433.00
599.56	383.85
599.71	372.15
599.87	311.29
600.03	304.27
600.18	320.65
600.34	304.27
600.50	301.93
600.65	250.44
600.81	372.15
600.97	248.10
601.12	259.80
601.28	264.48
601.44	278.52
601.59	210.65
601.75	334.70
601.91	271.50
602.06	252.78
602.22	379.17
602.37	294.91
602.53	250.44
602.69	334.70
602.84	227.03
603.00	273.84
603.16	332.36
603.31	306.61
603.47	255.12
603.62	269.16
603.78	194.26
603.94	236.39
604.09	301.93
604.25	320.65
604.40	294.91
604.56	280.86
604.71	259.80
604.87	278.52
605.03	278.52
605.18	262.14
605.34	278.52
605.49	339.38
605.65	285.55
605.80	285.55
605.96	332.36
606.12	283.20
606.27	290.23
606.43	301.93
606.58	318.31
606.74	369.80
606.89	376.83
607.05	372.15
607.20	351.08
607.36	407.25
607.51	376.83
607.67	355.76
607.82	362.78
607.98	425.98
608.13	390.87
608.29	470.45
608.44	463.43
608.60	379.17
608.75	409.59
608.91	472.79
609.06	461.09
609.22	564.07
609.37	566.41
609.53	643.65
609.68	690.46
609.84	791.10
609.99	973.66
610.15	983.02
610.30	1214.74
610.46	1540.07
610.61	1811.57
610.76	2228.19
610.92	2656.51
611.07	2960.78
611.23	3162.06
