SpectraSuite Data File
++++++++++++++++++++++++++++++++++++
Date: Fri Oct 04 11:42:05 GMT-05:00 2013
User: price-jones
Dark Spectrum Present: No
Reference Spectrum Present: No
Number of Sampled Component Spectra: 1
Spectrometers: USB2+H05261
Integration Time (usec): 100000 (USB2+H05261)
Spectra Averaged: 1 (USB2+H05261)
Boxcar Smoothing: 0 (USB2+H05261)
Correct for Electrical Dark: No (USB2+H05261)
Strobe/Lamp Enabled: No (USB2+H05261)
Correct for Detector Non-linearity: No (USB2+H05261)
Correct for Stray Light: No (USB2+H05261)
Number of Pixels in Processed Spectrum: 2048
>>>>>Begin Processed Spectral Data<<<<<
365.73	35.11
365.92	35.11
366.12	35.11
366.32	14.04
366.52	32.77
366.72	0.00
366.91	0.00
367.11	0.00
367.31	0.00
367.51	0.00
367.70	0.00
367.90	14.04
368.10	0.00
368.30	0.00
368.49	0.00
368.69	0.00
368.89	0.00
369.09	0.00
369.28	0.00
369.48	0.00
369.68	0.00
369.87	0.00
370.07	0.00
370.27	65.54
370.47	23.41
370.66	0.00
370.86	53.83
371.06	56.17
371.25	135.75
371.45	84.26
371.65	100.64
371.84	35.11
372.04	81.92
372.24	65.54
372.44	100.64
372.63	145.11
372.83	117.03
373.03	114.69
373.22	121.71
373.42	74.90
373.62	91.28
373.81	161.50
374.01	194.26
374.21	168.52
374.40	91.28
374.60	173.20
374.79	126.39
374.99	163.84
375.19	119.37
375.38	182.56
375.58	159.16
375.78	149.79
375.97	142.77
376.17	128.73
376.37	86.60
376.56	95.96
376.76	110.01
376.95	121.71
377.15	173.20
377.35	203.63
377.54	126.39
377.74	70.22
377.93	86.60
378.13	107.66
378.33	86.60
378.52	28.09
378.72	107.66
378.91	77.24
379.11	100.64
379.31	147.45
379.50	100.64
379.70	105.32
379.89	147.45
380.09	60.85
380.28	107.66
380.48	161.50
380.68	9.36
380.87	37.45
381.07	133.41
381.26	189.58
381.46	166.18
381.65	161.50
381.85	121.71
382.04	128.73
382.24	170.86
382.43	140.43
382.63	159.16
382.83	86.60
383.02	114.69
383.22	119.37
383.41	58.51
383.61	152.13
383.80	147.45
384.00	70.22
384.19	117.03
384.39	149.79
384.58	112.35
384.78	65.54
384.97	77.24
385.17	119.37
385.36	161.50
385.56	133.41
385.75	58.51
385.95	107.66
386.14	147.45
386.34	124.05
386.53	107.66
386.72	70.22
386.92	74.90
387.11	49.15
387.31	100.64
387.50	163.84
387.70	126.39
387.89	107.66
388.09	93.62
388.28	86.60
388.48	16.38
388.67	152.13
388.86	67.88
389.06	86.60
389.25	107.66
389.45	154.48
389.64	124.05
389.84	102.98
390.03	159.16
390.22	98.30
390.42	70.22
390.61	107.66
390.81	81.92
391.00	126.39
391.19	95.96
391.39	163.84
391.58	152.13
391.78	91.28
391.97	163.84
392.16	107.66
392.36	189.58
392.55	156.82
392.75	126.39
392.94	189.58
393.13	84.26
393.33	100.64
393.52	110.01
393.71	161.50
393.91	107.66
394.10	140.43
394.29	114.69
394.49	95.96
394.68	133.41
394.88	142.77
395.07	124.05
395.26	133.41
395.46	86.60
395.65	124.05
395.84	107.66
396.04	135.75
396.23	175.54
396.42	126.39
396.62	191.92
396.81	166.18
397.00	147.45
397.19	126.39
397.39	147.45
397.58	175.54
397.77	131.07
397.97	107.66
398.16	131.07
398.35	191.92
398.55	110.01
398.74	72.56
398.93	145.11
399.12	142.77
399.32	77.24
399.51	107.66
399.70	182.56
399.90	184.90
400.09	159.16
400.28	203.63
400.47	135.75
400.67	163.84
400.86	135.75
401.05	159.16
401.24	145.11
401.44	208.31
401.63	170.86
401.82	231.71
402.01	107.66
402.21	177.88
402.40	147.45
402.59	161.50
402.78	182.56
402.97	131.07
403.17	147.45
403.36	191.92
403.55	278.52
403.74	559.39
403.93	1781.15
404.13	3861.88
404.32	4718.52
404.51	3990.61
404.70	2352.24
404.89	816.85
405.09	367.46
405.28	210.65
405.47	191.92
405.66	161.50
405.85	194.26
406.05	149.79
406.24	159.16
406.43	168.52
406.62	147.45
406.81	292.57
407.00	381.51
407.20	545.34
407.39	674.07
407.58	720.88
407.77	550.03
407.96	346.40
408.15	241.08
408.34	250.44
408.54	163.84
408.73	161.50
408.92	210.65
409.11	177.88
409.30	227.03
409.49	93.62
409.68	112.35
409.87	161.50
410.07	222.35
410.26	191.92
410.45	180.22
410.64	163.84
410.83	184.90
411.02	175.54
411.21	222.35
411.40	241.08
411.59	166.18
411.78	117.03
411.98	147.45
412.17	133.41
412.36	182.56
412.55	236.39
412.74	198.95
412.93	198.95
413.12	187.24
413.31	198.95
413.50	194.26
413.69	196.60
413.88	217.67
414.07	238.73
414.26	191.92
414.45	229.37
414.64	252.78
414.83	203.63
415.02	257.46
415.22	308.95
415.41	168.52
415.60	189.58
415.79	180.22
415.98	177.88
416.17	222.35
416.36	175.54
416.55	205.97
416.74	210.65
416.93	264.48
417.12	196.60
417.31	166.18
417.50	180.22
417.69	224.69
417.88	222.35
418.07	187.24
418.26	217.67
418.45	243.42
418.64	227.03
418.83	248.10
419.02	184.90
419.21	175.54
419.39	222.35
419.58	182.56
419.77	177.88
419.96	198.95
420.15	229.37
420.34	224.69
420.53	145.11
420.72	236.39
420.91	210.65
421.10	180.22
421.29	250.44
421.48	215.33
421.67	229.37
421.86	264.48
422.05	276.18
422.24	229.37
422.43	142.77
422.61	189.58
422.80	278.52
422.99	266.82
423.18	201.29
423.37	257.46
423.56	360.44
423.75	264.48
423.94	255.12
424.13	243.42
424.32	210.65
424.50	262.14
424.69	269.16
424.88	290.23
425.07	294.91
425.26	278.52
425.45	245.76
425.64	220.01
425.83	245.76
426.01	334.70
426.20	318.31
426.39	227.03
426.58	205.97
426.77	285.55
426.96	297.25
427.15	297.25
427.33	280.86
427.52	255.12
427.71	355.76
427.90	257.46
428.09	322.99
428.28	257.46
428.46	236.39
428.65	327.68
428.84	322.99
429.03	383.85
429.22	297.25
429.40	252.78
429.59	292.57
429.78	409.59
429.97	292.57
430.16	229.37
430.34	280.86
430.53	262.14
430.72	308.95
430.91	379.17
431.10	255.12
431.28	283.20
431.47	287.89
431.66	322.99
431.85	337.04
432.03	318.31
432.22	351.08
432.41	283.20
432.60	322.99
432.79	318.31
432.97	313.63
433.16	372.15
433.35	400.23
433.54	416.62
433.72	416.62
433.91	477.47
434.10	496.19
434.28	615.56
434.47	725.57
434.66	814.51
434.85	997.07
435.03	2780.56
435.22	10457.51
435.41	21575.06
435.59	20711.40
435.78	12884.65
435.97	6502.01
436.16	2532.46
436.34	898.77
436.53	582.79
436.72	535.98
436.90	440.02
437.09	479.81
437.28	428.32
437.46	437.68
437.65	416.62
437.84	402.57
438.02	404.91
438.21	327.68
438.40	301.93
438.58	334.70
438.77	365.12
438.96	362.78
439.14	365.12
439.33	313.63
439.52	346.40
439.70	348.74
439.89	374.49
440.08	304.27
440.26	435.34
440.45	337.04
440.63	344.06
440.82	341.72
441.01	358.10
441.19	313.63
441.38	351.08
441.57	360.44
441.75	346.40
441.94	327.68
442.12	400.23
442.31	379.17
442.50	404.91
442.68	278.52
442.87	376.83
443.05	386.19
443.24	421.30
443.43	383.85
443.61	400.23
443.80	449.38
443.98	313.63
444.17	360.44
444.35	386.19
444.54	299.59
444.73	339.38
444.91	360.44
445.10	374.49
445.28	346.40
445.47	369.80
445.65	381.51
445.84	255.12
446.02	327.68
446.21	362.78
446.39	292.57
446.58	330.02
446.77	318.31
446.95	297.25
447.14	348.74
447.32	388.53
447.51	292.57
447.69	348.74
447.88	372.15
448.06	423.64
448.25	395.55
448.43	341.72
448.62	273.84
448.80	346.40
448.99	353.42
449.17	418.96
449.36	367.46
449.54	362.78
449.73	285.55
449.91	332.36
450.10	346.40
450.28	421.30
450.46	369.80
450.65	362.78
450.83	421.30
451.02	365.12
451.20	341.72
451.39	393.21
451.57	388.53
451.76	273.84
451.94	299.59
452.13	351.08
452.31	341.72
452.49	285.55
452.68	383.85
452.86	299.59
453.05	421.30
453.23	339.38
453.42	308.95
453.60	322.99
453.78	322.99
453.97	362.78
454.15	327.68
454.34	393.21
454.52	402.57
454.70	348.74
454.89	365.12
455.07	341.72
455.26	411.93
455.44	372.15
455.62	327.68
455.81	367.46
455.99	433.00
456.17	383.85
456.36	341.72
456.54	330.02
456.73	304.27
456.91	376.83
457.09	318.31
457.28	388.53
457.46	367.46
457.64	411.93
457.83	390.87
458.01	327.68
458.19	318.31
458.38	376.83
458.56	414.27
458.74	322.99
458.93	327.68
459.11	278.52
459.29	304.27
459.48	325.33
459.66	353.42
459.84	339.38
460.03	472.79
460.21	358.10
460.39	341.72
460.57	383.85
460.76	418.96
460.94	334.70
461.12	374.49
461.31	423.64
461.49	348.74
461.67	315.97
461.85	428.32
462.04	365.12
462.22	809.83
462.40	327.68
462.59	418.96
462.77	304.27
462.95	367.46
463.13	351.08
463.32	435.34
463.50	355.76
463.68	318.31
463.86	271.50
464.05	257.46
464.23	428.32
464.41	353.42
464.59	355.76
464.78	402.57
464.96	306.61
465.14	365.12
465.32	355.76
465.50	330.02
465.69	315.97
465.87	360.44
466.05	360.44
466.23	255.12
466.41	383.85
466.60	428.32
466.78	379.17
466.96	428.32
467.14	388.53
467.32	383.85
467.51	409.59
467.69	276.18
467.87	353.42
468.05	280.86
468.23	315.97
468.41	358.10
468.60	330.02
468.78	365.12
468.96	388.53
469.14	383.85
469.32	271.50
469.50	315.97
469.69	238.73
469.87	383.85
470.05	320.65
470.23	301.93
470.41	273.84
470.59	252.78
470.77	301.93
470.95	358.10
471.14	311.29
471.32	322.99
471.50	308.95
471.68	283.20
471.86	315.97
472.04	287.89
472.22	351.08
472.40	337.04
472.58	276.18
472.77	374.49
472.95	320.65
473.13	381.51
473.31	318.31
473.49	308.95
473.67	271.50
473.85	327.68
474.03	334.70
474.21	351.08
474.39	313.63
474.57	322.99
474.75	308.95
474.93	381.51
475.12	339.38
475.30	367.46
475.48	358.10
475.66	362.78
475.84	313.63
476.02	367.46
476.20	407.25
476.38	376.83
476.56	330.02
476.74	374.49
476.92	264.48
477.10	313.63
477.28	327.68
477.46	325.33
477.64	341.72
477.82	346.40
478.00	346.40
478.18	386.19
478.36	313.63
478.54	383.85
478.72	414.27
478.90	341.72
479.08	353.42
479.26	435.34
479.44	465.77
479.62	423.64
479.80	423.64
479.98	482.15
480.16	425.98
480.34	543.00
480.52	475.13
480.70	517.26
480.88	514.92
481.06	589.82
481.24	552.37
481.41	636.63
481.59	575.77
481.77	624.92
481.95	669.39
482.13	746.63
482.31	746.63
482.49	734.93
482.67	842.59
482.85	987.71
483.03	929.19
483.21	1020.47
483.39	929.19
483.57	1137.50
483.74	1261.55
483.92	1249.85
484.10	1287.29
484.28	1334.11
484.46	1462.83
484.64	1453.47
484.82	1451.13
485.00	1598.59
485.18	1741.36
485.35	1741.36
485.53	1870.09
485.71	1956.69
485.89	2069.03
486.07	2076.06
486.25	2036.27
486.43	2129.89
486.61	2113.50
486.78	2111.16
486.96	1991.80
487.14	2148.61
487.32	2160.31
487.50	2113.50
487.68	2181.38
487.85	2059.67
488.03	2017.54
488.21	1947.33
488.39	2005.84
488.57	1970.73
488.75	1872.43
488.92	2022.22
489.10	1884.13
489.28	1783.49
489.46	1804.55
489.64	1647.74
489.81	1715.61
489.99	1661.78
490.17	1629.01
490.35	1561.14
490.53	1563.48
490.70	1629.01
490.88	1643.06
491.06	1732.00
491.24	1846.68
491.41	1870.09
491.59	1760.08
491.77	1589.22
491.95	1561.14
492.13	1540.07
492.30	1476.88
492.48	1437.09
492.66	1474.54
492.84	1371.55
493.01	1413.68
493.19	1476.88
493.37	1437.09
493.54	1331.76
493.72	1291.98
493.90	1228.78
494.08	1327.08
494.25	1249.85
494.43	1261.55
494.61	1268.57
494.79	1245.16
494.96	1139.84
495.14	1158.57
495.32	1139.84
495.49	1181.97
495.67	1125.80
495.85	1172.61
496.02	1144.52
496.20	1153.88
496.38	1104.73
496.55	1046.22
496.73	1137.50
496.91	1032.18
497.09	1083.67
497.26	1029.84
497.44	1015.79
497.62	994.73
497.79	950.26
497.97	1011.11
498.14	889.40
498.32	952.60
498.50	877.70
498.67	915.15
498.85	737.27
499.03	840.25
499.20	725.57
499.38	798.12
499.56	784.08
499.73	814.51
499.91	826.21
500.08	767.70
500.26	676.41
500.44	681.10
500.61	664.71
500.79	566.41
500.97	657.69
501.14	653.01
501.32	720.88
501.49	636.63
501.67	561.73
501.84	519.60
502.02	575.77
502.20	631.94
502.37	599.18
502.55	540.66
502.72	566.41
502.90	564.07
503.07	468.11
503.25	559.39
503.43	543.00
503.60	538.32
503.78	447.04
503.95	400.23
504.13	444.70
504.30	500.87
504.48	510.24
504.65	524.28
504.83	475.13
505.01	435.34
505.18	440.02
505.36	468.11
505.53	416.62
505.71	299.59
505.88	409.59
506.06	379.17
506.23	496.19
506.41	355.76
506.58	430.66
506.76	395.55
506.93	360.44
507.11	379.17
507.28	337.04
507.46	372.15
507.63	414.27
507.81	388.53
507.98	348.74
508.16	383.85
508.33	374.49
508.50	444.70
508.68	440.02
508.85	372.15
509.03	386.19
509.20	390.87
509.38	484.49
509.55	395.55
509.73	416.62
509.90	411.93
510.08	390.87
510.25	376.83
510.42	402.57
510.60	358.10
510.77	383.85
510.95	388.53
511.12	325.33
511.30	358.10
511.47	402.57
511.64	414.27
511.82	320.65
511.99	404.91
512.17	376.83
512.34	327.68
512.51	367.46
512.69	325.33
512.86	369.80
513.04	353.42
513.21	379.17
513.38	301.93
513.56	259.80
513.73	369.80
513.90	301.93
514.08	390.87
514.25	393.21
514.43	285.55
514.60	404.91
514.77	351.08
514.95	395.55
515.12	250.44
515.29	376.83
515.47	379.17
515.64	292.57
515.81	299.59
515.99	245.76
516.16	306.61
516.33	390.87
516.51	383.85
516.68	264.48
516.85	320.65
517.03	269.16
517.20	390.87
517.37	330.02
517.54	330.02
517.72	262.14
517.89	245.76
518.06	297.25
518.24	348.74
518.41	365.12
518.58	327.68
518.75	294.91
518.93	283.20
519.10	353.42
519.27	355.76
519.45	322.99
519.62	294.91
519.79	341.72
519.96	365.12
520.14	367.46
520.31	285.55
520.48	344.06
520.65	304.27
520.83	383.85
521.00	327.68
521.17	367.46
521.34	290.23
521.52	360.44
521.69	325.33
521.86	259.80
522.03	351.08
522.20	322.99
522.38	386.19
522.55	386.19
522.72	318.31
522.89	334.70
523.07	372.15
523.24	369.80
523.41	337.04
523.58	304.27
523.75	290.23
523.92	299.59
524.10	362.78
524.27	318.31
524.44	325.33
524.61	315.97
524.78	327.68
524.96	283.20
525.13	351.08
525.30	423.64
525.47	348.74
525.64	283.20
525.81	320.65
525.98	332.36
526.16	280.86
526.33	346.40
526.50	402.57
526.67	306.61
526.84	299.59
527.01	383.85
527.18	454.06
527.36	381.51
527.53	355.76
527.70	351.08
527.87	358.10
528.04	362.78
528.21	346.40
528.38	411.93
528.55	421.30
528.72	390.87
528.89	435.34
529.07	411.93
529.24	341.72
529.41	360.44
529.58	383.85
529.75	379.17
529.92	404.91
530.09	428.32
530.26	507.90
530.43	451.72
530.60	463.43
530.77	489.17
530.94	477.47
531.11	425.98
531.28	484.49
531.46	440.02
531.63	524.28
531.80	489.17
531.97	472.79
532.14	704.50
532.31	683.44
532.48	791.10
532.65	807.48
532.82	980.68
532.99	1188.99
533.16	1233.46
533.33	1245.16
533.50	1207.72
533.67	1043.88
533.84	866.00
534.01	866.00
534.18	781.74
534.35	760.67
534.52	770.04
534.69	812.17
534.86	849.61
535.03	889.40
535.20	915.15
535.37	917.49
535.54	983.02
535.71	952.60
535.88	1088.35
536.05	1170.27
536.22	1188.99
536.38	1268.57
536.55	1404.32
536.72	1577.52
536.89	1685.19
537.06	1930.94
537.23	2083.08
537.40	2317.13
537.57	2401.39
537.74	2621.40
537.91	2724.38
538.08	2773.53
538.25	2740.77
538.42	2825.03
538.59	2743.11
538.75	2883.54
538.92	3101.21
539.09	3330.58
539.26	3815.07
539.43	4297.22
539.60	4706.82
539.77	5355.15
539.94	6160.29
540.11	6499.67
540.28	7309.49
540.44	8025.70
540.61	8720.84
540.78	9909.83
540.95	11899.28
541.12	13926.19
541.29	15697.97
541.46	16746.53
541.62	16325.24
541.79	15555.20
541.96	14403.66
542.13	13385.52
542.30	12222.28
542.47	11740.13
542.63	11311.81
542.80	11026.26
542.97	10717.31
543.14	10703.27
543.31	10719.65
543.48	10792.21
543.64	11073.07
543.81	11157.33
543.98	11122.23
544.15	10988.82
544.32	11075.42
544.48	11300.11
544.65	11070.73
544.82	10897.53
544.99	11059.03
545.16	10974.77
545.32	11885.24
545.49	21422.92
545.66	40065.29
545.83	45303.41
546.00	36683.22
546.16	25500.14
546.33	18869.40
546.50	14195.35
546.67	11178.40
546.83	9813.87
547.00	9420.66
547.17	9217.03
547.34	8741.90
547.50	8414.23
547.67	8088.89
547.84	7681.64
548.00	7569.29
548.17	7236.94
548.34	6808.62
548.51	6745.42
548.67	6415.41
548.84	6160.29
549.01	5856.02
549.18	5455.79
549.34	5369.19
549.51	5128.11
549.68	5015.77
549.84	4610.86
550.01	4554.68
550.18	4456.38
550.34	4329.99
550.51	3845.50
550.68	3882.95
550.84	3513.14
551.01	3363.35
551.18	3173.77
551.34	3117.59
551.51	3014.61
551.68	2862.48
551.84	2843.75
552.01	2726.72
552.18	2609.70
552.34	2387.35
552.51	2265.64
552.68	2249.25
552.84	2251.60
553.01	2127.55
553.18	2017.54
553.34	2008.18
553.51	1954.35
553.67	1874.77
553.84	1921.58
554.01	1811.57
554.17	1530.71
554.34	1528.37
554.51	1399.64
554.67	1362.19
554.84	1315.38
555.00	1116.44
555.17	1160.91
555.33	1214.74
555.50	1029.84
555.67	1048.56
555.83	966.64
556.00	1013.45
556.16	1071.97
556.33	952.60
556.50	957.28
556.66	809.83
556.83	840.25
556.99	880.04
557.16	840.25
557.32	800.46
557.49	730.25
557.65	746.63
557.82	739.61
557.98	755.99
558.15	683.44
558.32	627.26
558.48	692.80
558.65	695.14
558.81	638.97
558.98	610.88
559.14	631.94
559.31	704.50
559.47	676.41
559.64	578.11
559.80	622.58
559.97	571.09
560.13	524.28
560.30	454.06
560.46	585.13
560.63	585.13
560.79	571.09
560.96	615.56
561.12	601.52
561.29	550.03
561.45	559.39
561.61	603.86
561.78	624.92
561.94	610.88
562.11	510.24
562.27	540.66
562.44	566.41
562.60	521.94
562.77	594.50
562.93	524.28
563.10	543.00
563.26	482.15
563.42	552.37
563.59	507.90
563.75	636.63
563.92	587.47
564.08	592.16
564.24	505.56
564.41	517.26
564.57	463.43
564.74	528.96
564.90	421.30
565.07	559.39
565.23	402.57
565.39	458.74
565.56	552.37
565.72	465.77
565.88	447.04
566.05	451.72
566.21	425.98
566.38	463.43
566.54	470.45
566.70	433.00
566.87	423.64
567.03	376.83
567.19	507.90
567.36	475.13
567.52	433.00
567.68	493.85
567.85	477.47
568.01	554.71
568.17	540.66
568.34	484.49
568.50	535.98
568.66	397.89
568.83	578.11
568.99	444.70
569.15	421.30
569.32	428.32
569.48	484.49
569.64	484.49
569.81	428.32
569.97	376.83
570.13	440.02
570.30	411.93
570.46	301.93
570.62	369.80
570.78	416.62
570.95	423.64
571.11	327.68
571.27	411.93
571.43	337.04
571.60	386.19
571.76	376.83
571.92	393.21
572.09	369.80
572.25	402.57
572.41	311.29
572.57	376.83
572.74	390.87
572.90	423.64
573.06	379.17
573.22	404.91
573.38	409.59
573.55	425.98
573.71	442.36
573.87	437.68
574.03	381.51
574.20	379.17
574.36	552.37
574.52	407.25
574.68	475.13
574.84	416.62
575.01	482.15
575.17	550.03
575.33	493.85
575.49	561.73
575.65	627.26
575.82	641.31
575.98	688.12
576.14	793.44
576.30	1563.48
576.46	4755.97
576.62	7229.91
576.79	7363.33
576.95	5219.39
577.11	3562.30
577.27	2499.69
577.43	1673.48
577.59	1242.82
577.75	910.47
577.92	863.66
578.08	938.55
578.24	1062.60
578.40	1715.61
578.56	4550.00
578.72	6839.05
578.88	6995.86
579.04	5137.48
579.21	3557.61
579.37	2677.57
579.53	2059.67
579.69	2146.27
579.85	2579.27
580.01	2864.82
580.17	2810.98
580.33	2408.41
580.49	2115.84
580.65	1846.68
580.82	1722.63
580.98	1633.69
581.14	1724.97
581.30	1797.53
581.46	1947.33
581.62	2050.31
581.78	2310.11
581.94	2347.56
582.10	2483.31
582.26	2628.42
582.42	2509.05
582.58	2738.43
582.74	2822.69
582.90	2822.69
583.06	2935.03
583.22	2853.11
583.38	2747.79
583.54	2883.54
583.70	2857.79
583.86	2789.92
584.02	2761.83
584.18	2799.28
584.34	2621.40
584.50	2583.95
584.66	2586.29
584.82	2483.31
584.98	2403.73
585.14	2509.05
585.30	2487.99
585.46	2490.33
585.62	2284.36
585.78	2319.47
585.94	2422.45
586.10	2492.67
586.26	2724.38
586.42	2984.18
586.58	3510.80
586.74	4236.37
586.90	5041.51
587.06	5420.68
587.22	5214.71
587.38	4638.94
587.54	4063.17
587.70	3307.18
587.86	2965.46
588.02	2588.63
588.18	2399.05
588.34	2047.97
588.49	1877.11
588.65	1834.98
588.81	1827.96
588.97	1755.40
589.13	1643.06
589.29	1610.29
589.45	1668.80
589.61	1523.69
589.77	1797.53
589.93	1694.55
590.08	1680.50
590.24	1659.44
590.40	1732.00
590.56	1832.64
590.72	1956.69
590.88	1870.09
591.04	1893.49
591.20	1984.77
591.35	2043.29
591.51	2190.74
591.67	2298.41
591.83	2478.63
591.99	2595.65
592.15	2736.09
592.31	3005.25
592.46	3241.64
592.62	3674.64
592.78	3861.88
592.94	3896.99
593.10	3906.35
593.26	3520.17
593.41	3339.94
593.57	3087.17
593.73	2700.98
593.89	2352.24
594.05	2183.72
594.20	1937.96
594.36	1788.17
594.52	1685.19
594.68	1568.16
594.84	1514.33
594.99	1509.65
595.15	1462.83
595.31	1528.37
595.47	1441.77
595.62	1364.53
595.78	1392.62
595.94	1469.86
596.10	1483.90
596.25	1493.26
596.41	1355.17
596.57	1423.05
596.73	1495.60
596.88	1460.49
597.04	1432.41
597.20	1434.75
597.36	1502.62
597.51	1441.77
597.67	1523.69
597.83	1619.65
597.99	1724.97
598.14	1816.26
598.30	1881.79
598.46	2036.27
598.61	2136.91
598.77	2314.79
598.93	2242.23
599.09	2249.25
599.24	2466.92
599.40	2347.56
599.56	2317.13
599.71	2136.91
599.87	2101.80
600.03	1980.09
600.18	1806.89
600.34	1689.87
600.50	1626.67
600.65	1537.73
600.81	1430.07
600.97	1434.75
601.12	1406.66
601.28	1327.08
601.44	1181.97
601.59	1137.50
601.75	1097.71
601.91	1078.99
602.06	968.98
602.22	1104.73
602.37	978.34
602.53	997.07
602.69	976.00
602.84	959.62
603.00	1013.45
603.16	980.68
603.31	973.66
603.47	1001.75
603.62	1043.88
603.78	1057.92
603.94	1170.27
604.09	1156.22
604.25	1097.71
604.40	1207.72
604.56	1156.22
604.71	1205.38
604.87	1156.22
605.03	1224.10
605.18	1144.52
605.34	1291.98
605.49	1259.21
605.65	1310.70
605.80	1219.42
605.96	1399.64
606.12	1444.11
606.27	1439.43
