SpectraSuite Data File
++++++++++++++++++++++++++++++++++++
Date: Fri Oct 04 11:41:46 GMT-05:00 2013
User: price-jones
Dark Spectrum Present: No
Reference Spectrum Present: No
Number of Sampled Component Spectra: 1
Spectrometers: USB2+H05261
Integration Time (usec): 100000 (USB2+H05261)
Spectra Averaged: 1 (USB2+H05261)
Boxcar Smoothing: 0 (USB2+H05261)
Correct for Electrical Dark: No (USB2+H05261)
Strobe/Lamp Enabled: No (USB2+H05261)
Correct for Detector Non-linearity: No (USB2+H05261)
Correct for Stray Light: No (USB2+H05261)
Number of Pixels in Processed Spectrum: 2048
>>>>>Begin Processed Spectral Data<<<<<
365.73	39.79
365.92	39.79
366.12	39.79
366.32	0.00
366.52	0.00
366.72	0.00
366.91	0.00
367.11	0.00
367.31	0.00
367.51	0.00
367.70	0.00
367.90	0.00
368.10	0.00
368.30	0.00
368.49	0.00
368.69	0.00
368.89	0.00
369.09	0.00
369.28	0.00
369.48	0.00
369.68	0.00
369.87	46.81
370.07	4.68
370.27	11.70
370.47	9.36
370.66	46.81
370.86	112.35
371.06	67.88
371.25	100.64
371.45	9.36
371.65	98.30
371.84	67.88
372.04	140.43
372.24	98.30
372.44	77.24
372.63	102.98
372.83	161.50
373.03	131.07
373.22	177.88
373.42	142.77
373.62	126.39
373.81	163.84
374.01	149.79
374.21	159.16
374.40	149.79
374.60	86.60
374.79	72.56
374.99	102.98
375.19	124.05
375.38	198.95
375.58	131.07
375.78	102.98
375.97	112.35
376.17	168.52
376.37	152.13
376.56	156.82
376.76	119.37
376.95	170.86
377.15	180.22
377.35	140.43
377.54	91.28
377.74	119.37
377.93	161.50
378.13	138.09
378.33	163.84
378.52	121.71
378.72	142.77
378.91	175.54
379.11	168.52
379.31	135.75
379.50	74.90
379.70	105.32
379.89	147.45
380.09	77.24
380.28	60.85
380.48	105.32
380.68	119.37
380.87	86.60
381.07	42.13
381.26	175.54
381.46	117.03
381.65	121.71
381.85	166.18
382.04	140.43
382.24	194.26
382.43	44.47
382.63	65.54
382.83	189.58
383.02	131.07
383.22	175.54
383.41	107.66
383.61	58.51
383.80	138.09
384.00	107.66
384.19	74.90
384.39	117.03
384.58	91.28
384.78	81.92
384.97	217.67
385.17	147.45
385.36	98.30
385.56	60.85
385.75	133.41
385.95	93.62
386.14	180.22
386.34	107.66
386.53	170.86
386.72	77.24
386.92	159.16
387.11	112.35
387.31	142.77
387.50	74.90
387.70	210.65
387.89	107.66
388.09	119.37
388.28	119.37
388.48	105.32
388.67	126.39
388.86	112.35
389.06	46.81
389.25	227.03
389.45	142.77
389.64	173.20
389.84	173.20
390.03	163.84
390.22	215.33
390.42	154.48
390.61	117.03
390.81	166.18
391.00	58.51
391.19	173.20
391.39	138.09
391.58	198.95
391.78	60.85
391.97	93.62
392.16	110.01
392.36	114.69
392.55	133.41
392.75	170.86
392.94	145.11
393.13	142.77
393.33	156.82
393.52	121.71
393.71	98.30
393.91	105.32
394.10	35.11
394.29	79.58
394.49	166.18
394.68	149.79
394.88	161.50
395.07	177.88
395.26	93.62
395.46	175.54
395.65	217.67
395.84	98.30
396.04	201.29
396.23	156.82
396.42	154.48
396.62	124.05
396.81	156.82
397.00	149.79
397.19	119.37
397.39	124.05
397.58	180.22
397.77	110.01
397.97	79.58
398.16	117.03
398.35	133.41
398.55	107.66
398.74	128.73
398.93	140.43
399.12	154.48
399.32	105.32
399.51	170.86
399.70	170.86
399.90	133.41
400.09	205.97
400.28	117.03
400.47	166.18
400.67	198.95
400.86	177.88
401.05	189.58
401.24	107.66
401.44	189.58
401.63	227.03
401.82	196.60
402.01	250.44
402.21	180.22
402.40	161.50
402.59	154.48
402.78	222.35
402.97	210.65
403.17	241.08
403.36	287.89
403.55	339.38
403.74	725.57
403.93	2183.72
404.13	4971.30
404.32	7197.15
404.51	6757.13
404.70	4428.29
404.89	1650.08
405.09	547.69
405.28	285.55
405.47	250.44
405.66	243.42
405.85	241.08
406.05	170.86
406.24	229.37
406.43	133.41
406.62	229.37
406.81	367.46
407.00	339.38
407.20	653.01
407.39	945.58
407.58	1062.60
407.77	781.74
407.96	444.70
408.15	245.76
408.34	175.54
408.54	175.54
408.73	154.48
408.92	191.92
409.11	156.82
409.30	245.76
409.49	215.33
409.68	191.92
409.87	248.10
410.07	203.63
410.26	215.33
410.45	180.22
410.64	243.42
410.83	241.08
411.02	203.63
411.21	234.05
411.40	182.56
411.59	154.48
411.78	222.35
411.98	159.16
412.17	264.48
412.36	159.16
412.55	184.90
412.74	224.69
412.93	227.03
413.12	238.73
413.31	215.33
413.50	262.14
413.69	212.99
413.88	299.59
414.07	313.63
414.26	278.52
414.45	142.77
414.64	217.67
414.83	234.05
415.02	215.33
415.22	252.78
415.41	243.42
415.60	217.67
415.79	194.26
415.98	234.05
416.17	222.35
416.36	297.25
416.55	283.20
416.74	252.78
416.93	248.10
417.12	315.97
417.31	311.29
417.50	234.05
417.69	299.59
417.88	236.39
418.07	231.71
418.26	308.95
418.45	294.91
418.64	304.27
418.83	315.97
419.02	273.84
419.21	273.84
419.39	264.48
419.58	283.20
419.77	264.48
419.96	306.61
420.15	257.46
420.34	224.69
420.53	322.99
420.72	308.95
420.91	332.36
421.10	280.86
421.29	243.42
421.48	325.33
421.67	346.40
421.86	245.76
422.05	346.40
422.24	259.80
422.43	262.14
422.61	313.63
422.80	367.46
422.99	262.14
423.18	325.33
423.37	285.55
423.56	390.87
423.75	245.76
423.94	283.20
424.13	306.61
424.32	280.86
424.50	283.20
424.69	313.63
424.88	353.42
425.07	395.55
425.26	315.97
425.45	276.18
425.64	334.70
425.83	404.91
426.01	325.33
426.20	341.72
426.39	325.33
426.58	320.65
426.77	351.08
426.96	276.18
427.15	287.89
427.33	330.02
427.52	344.06
427.71	315.97
427.90	393.21
428.09	358.10
428.28	334.70
428.46	255.12
428.65	360.44
428.84	355.76
429.03	355.76
429.22	421.30
429.40	327.68
429.59	374.49
429.78	332.36
429.97	386.19
430.16	325.33
430.34	367.46
430.53	388.53
430.72	407.25
430.91	376.83
431.10	433.00
431.28	444.70
431.47	416.62
431.66	376.83
431.85	435.34
432.03	414.27
432.22	433.00
432.41	411.93
432.60	470.45
432.79	421.30
432.97	486.83
433.16	519.60
433.35	519.60
433.54	629.60
433.72	704.50
433.91	784.08
434.10	835.57
434.28	933.87
434.47	1004.09
434.66	1186.65
434.85	1432.41
435.03	3438.25
435.22	12645.91
435.41	29584.37
435.59	35409.96
435.78	23948.36
435.97	11255.64
436.16	4278.50
436.34	1551.78
436.53	873.02
436.72	765.36
436.90	753.65
437.09	608.54
437.28	554.71
437.46	512.58
437.65	533.64
437.84	557.05
438.02	514.92
438.21	475.13
438.40	447.04
438.58	433.00
438.77	433.00
438.96	531.30
439.14	524.28
439.33	447.04
439.52	465.77
439.70	379.17
439.89	402.57
440.08	402.57
440.26	472.79
440.45	498.53
440.63	475.13
440.82	514.92
441.01	528.96
441.19	517.26
441.38	395.55
441.57	468.11
441.75	470.45
441.94	552.37
442.12	578.11
442.31	475.13
442.50	482.15
442.68	500.87
442.87	484.49
443.05	486.83
443.24	447.04
443.43	526.62
443.61	564.07
443.80	491.51
443.98	451.72
444.17	477.47
444.35	510.24
444.54	435.34
444.73	484.49
444.91	521.94
445.10	435.34
445.28	498.53
445.47	444.70
445.65	493.85
445.84	479.81
446.02	407.25
446.21	517.26
446.39	486.83
446.58	547.69
446.77	472.79
446.95	486.83
447.14	538.32
447.32	524.28
447.51	486.83
447.69	533.64
447.88	475.13
448.06	470.45
448.25	505.56
448.43	365.12
448.62	470.45
448.80	472.79
448.99	447.04
449.17	444.70
449.36	505.56
449.54	454.06
449.73	463.43
449.91	601.52
450.10	524.28
450.28	573.43
450.46	435.34
450.65	447.04
450.83	475.13
451.02	507.90
451.20	442.36
451.39	528.96
451.57	433.00
451.76	444.70
451.94	470.45
452.13	458.74
452.31	463.43
452.49	393.21
452.68	482.15
452.86	510.24
453.05	538.32
453.23	461.09
453.42	463.43
453.60	390.87
453.78	486.83
453.97	416.62
454.15	444.70
454.34	390.87
454.52	489.17
454.70	489.17
454.89	458.74
455.07	447.04
455.26	458.74
455.44	414.27
455.62	465.77
455.81	468.11
455.99	451.72
456.17	451.72
456.36	458.74
456.54	428.32
456.73	428.32
456.91	484.49
457.09	629.60
457.28	496.19
457.46	533.64
457.64	475.13
457.83	461.09
458.01	447.04
458.19	517.26
458.38	472.79
458.56	540.66
458.74	435.34
458.93	479.81
459.11	454.06
459.29	435.34
459.48	456.40
459.66	535.98
459.84	463.43
460.03	519.60
460.21	503.22
460.39	498.53
460.57	510.24
460.76	444.70
460.94	334.70
461.12	416.62
461.31	496.19
461.49	440.02
461.67	505.56
461.85	510.24
462.04	411.93
462.22	980.68
462.40	524.28
462.59	395.55
462.77	409.59
462.95	510.24
463.13	479.81
463.32	418.96
463.50	505.56
463.68	421.30
463.86	465.77
464.05	461.09
464.23	550.03
464.41	580.45
464.59	423.64
464.78	517.26
464.96	496.19
465.14	433.00
465.32	435.34
465.50	510.24
465.69	325.33
465.87	423.64
466.05	451.72
466.23	407.25
466.41	437.68
466.60	510.24
466.78	484.49
466.96	491.51
467.14	482.15
467.32	440.02
467.51	484.49
467.69	472.79
467.87	500.87
468.05	390.87
468.23	470.45
468.41	402.57
468.60	362.78
468.78	447.04
468.96	447.04
469.14	440.02
469.32	393.21
469.50	435.34
469.69	447.04
469.87	475.13
470.05	411.93
470.23	418.96
470.41	393.21
470.59	463.43
470.77	381.51
470.95	397.89
471.14	454.06
471.32	456.40
471.50	484.49
471.68	461.09
471.86	409.59
472.04	444.70
472.22	418.96
472.40	414.27
472.58	470.45
472.77	402.57
472.95	418.96
473.13	491.51
473.31	465.77
473.49	470.45
473.67	451.72
473.85	430.66
474.03	386.19
474.21	437.68
474.39	461.09
474.57	496.19
474.75	435.34
474.93	440.02
475.12	454.06
475.30	395.55
475.48	393.21
475.66	411.93
475.84	463.43
476.02	404.91
476.20	475.13
476.38	402.57
476.56	564.07
476.74	447.04
476.92	421.30
477.10	379.17
477.28	514.92
477.46	498.53
477.64	447.04
477.82	491.51
478.00	465.77
478.18	531.30
478.36	533.64
478.54	472.79
478.72	498.53
478.90	519.60
479.08	521.94
479.26	472.79
479.44	557.05
479.62	554.71
479.80	557.05
479.98	587.47
480.16	631.94
480.34	725.57
480.52	760.67
480.70	709.18
480.88	753.65
481.06	751.31
481.24	763.01
481.41	861.32
481.59	933.87
481.77	910.47
481.95	945.58
482.13	1064.94
482.31	1046.22
482.49	1132.82
482.67	1256.87
482.85	1294.32
483.03	1383.26
483.21	1467.52
483.39	1593.90
483.57	1647.74
483.74	1823.28
483.92	1820.94
484.10	1947.33
484.28	2033.93
484.46	2181.38
484.64	2214.15
484.82	2401.39
485.00	2415.43
485.18	2555.86
485.35	2897.58
485.53	2967.80
485.71	3033.33
485.89	3194.83
486.07	3276.75
486.25	3309.52
486.43	3239.30
486.61	3213.56
486.78	3400.80
486.96	3241.64
487.14	3407.82
487.32	3267.39
487.50	3276.75
487.68	3410.16
487.85	3038.02
488.03	3162.06
488.21	3124.62
488.39	3049.72
488.57	2911.63
488.75	2965.46
488.92	3150.36
489.10	2834.39
489.28	2778.22
489.46	2691.62
489.64	2621.40
489.81	2623.74
489.99	2651.83
490.17	2628.42
490.35	2476.29
490.53	2429.48
490.70	2539.48
490.88	2363.94
491.06	2635.44
491.24	2750.13
491.41	2925.67
491.59	2647.15
491.77	2483.31
491.95	2415.43
492.13	2270.32
492.30	2307.77
492.48	2235.21
492.66	2183.72
492.84	2153.29
493.01	2197.76
493.19	2193.08
493.37	2150.95
493.54	2146.27
493.72	1994.14
493.90	1959.03
494.08	1954.35
494.25	1902.86
494.43	1935.62
494.61	1853.70
494.79	1877.11
494.96	1771.79
495.14	1851.36
495.32	1741.36
495.49	1708.59
495.67	1727.32
495.85	1720.29
496.02	1633.69
496.20	1703.91
496.38	1629.01
496.55	1603.27
496.73	1664.12
496.91	1579.86
497.09	1516.67
497.26	1554.12
497.44	1523.69
497.62	1439.43
497.79	1413.68
497.97	1413.68
498.14	1413.68
498.32	1200.69
498.50	1306.02
498.67	1273.25
498.85	1284.95
499.03	1238.14
499.20	1123.46
499.38	1210.06
499.56	1125.80
499.73	1109.41
499.91	1212.40
500.08	1116.44
500.26	964.30
500.44	1015.79
500.61	945.58
500.79	929.19
500.97	854.30
501.14	903.45
501.32	856.64
501.49	861.32
501.67	823.87
501.84	798.12
502.02	739.61
502.20	833.23
502.37	802.80
502.55	744.29
502.72	704.50
502.90	727.91
503.07	662.37
503.25	702.16
503.43	662.37
503.60	657.69
503.78	599.18
503.95	685.78
504.13	578.11
504.30	629.60
504.48	699.82
504.65	615.56
504.83	596.84
505.01	575.77
505.18	657.69
505.36	592.16
505.53	617.90
505.71	468.11
505.88	573.43
506.06	571.09
506.23	557.05
506.41	475.13
506.58	543.00
506.76	465.77
506.93	454.06
507.11	512.58
507.28	468.11
507.46	437.68
507.63	535.98
507.81	461.09
507.98	388.53
508.16	449.38
508.33	521.94
508.50	552.37
508.68	514.92
508.85	545.34
509.03	482.15
509.20	512.58
509.38	545.34
509.55	521.94
509.73	477.47
509.90	421.30
510.08	461.09
510.25	447.04
510.42	404.91
510.60	425.98
510.77	437.68
510.95	463.43
511.12	482.15
511.30	388.53
511.47	444.70
511.64	491.51
511.82	421.30
511.99	421.30
512.17	365.12
512.34	386.19
512.51	451.72
512.69	428.32
512.86	440.02
513.04	447.04
513.21	372.15
513.38	489.17
513.56	411.93
513.73	454.06
513.90	425.98
514.08	330.02
514.25	402.57
514.43	383.85
514.60	372.15
514.77	414.27
514.95	379.17
515.12	337.04
515.29	505.56
515.47	341.72
515.64	379.17
515.81	454.06
515.99	428.32
516.16	358.10
516.33	468.11
516.51	351.08
516.68	407.25
516.85	404.91
517.03	402.57
517.20	360.44
517.37	351.08
517.54	311.29
517.72	341.72
517.89	362.78
518.06	376.83
518.24	444.70
518.41	390.87
518.58	388.53
518.75	390.87
518.93	299.59
519.10	430.66
519.27	320.65
519.45	374.49
519.62	442.36
519.79	390.87
519.96	402.57
520.14	374.49
520.31	425.98
520.48	365.12
520.65	388.53
520.83	292.57
521.00	290.23
521.17	461.09
521.34	348.74
521.52	386.19
521.69	379.17
521.86	341.72
522.03	297.25
522.20	315.97
522.38	344.06
522.55	404.91
522.72	308.95
522.89	351.08
523.07	376.83
523.24	425.98
523.41	386.19
523.58	351.08
523.75	440.02
523.92	339.38
524.10	418.96
524.27	390.87
524.44	430.66
524.61	451.72
524.78	334.70
524.96	463.43
525.13	362.78
525.30	330.02
525.47	402.57
525.64	468.11
525.81	458.74
525.98	475.13
526.16	428.32
526.33	400.23
526.50	404.91
526.67	346.40
526.84	456.40
527.01	468.11
527.18	484.49
527.36	423.64
527.53	498.53
527.70	575.77
527.87	416.62
528.04	451.72
528.21	411.93
528.38	414.27
528.55	535.98
528.72	526.62
528.89	538.32
529.07	491.51
529.24	430.66
529.41	435.34
529.58	543.00
529.75	493.85
529.92	575.77
530.09	503.22
530.26	573.43
530.43	486.83
530.60	592.16
530.77	528.96
530.94	559.39
531.11	669.39
531.28	613.22
531.46	561.73
531.63	622.58
531.80	645.99
531.97	725.57
532.14	826.21
532.31	809.83
532.48	1149.20
532.65	1186.65
532.82	1425.39
532.99	1692.21
533.16	1959.03
533.33	2078.40
533.50	1970.73
533.67	1551.78
533.84	1406.66
534.01	1224.10
534.18	1219.42
534.35	1268.57
534.52	1069.62
534.69	1256.87
534.86	1181.97
535.03	1261.55
535.20	1338.79
535.37	1409.00
535.54	1488.58
535.71	1488.58
535.88	1659.44
536.05	1675.82
536.22	1851.36
536.38	2064.35
536.55	2174.36
536.72	2502.03
536.89	2668.21
537.06	2979.50
537.23	3290.79
537.40	3772.94
537.57	4035.08
537.74	4152.11
537.91	4322.97
538.08	4589.79
538.25	4545.32
538.42	4580.43
538.59	4652.98
538.75	4816.82
538.92	5149.18
539.09	5549.41
539.26	6153.27
539.43	6803.94
539.60	7882.92
539.77	8901.06
539.94	10024.51
540.11	11016.90
540.28	12074.82
540.44	13158.49
540.61	14607.28
540.78	16638.87
540.95	19922.64
541.12	24025.60
541.29	27473.21
541.46	28814.34
541.62	28308.78
541.79	27564.49
541.96	25209.91
542.13	23660.48
542.30	21895.71
542.47	20769.91
542.63	19534.11
542.80	18956.00
542.97	18541.72
543.14	18295.97
543.31	18743.01
543.48	18731.31
543.64	19594.96
543.81	19278.99
543.98	19005.15
544.15	19061.32
544.32	19559.86
544.48	19276.65
544.65	19131.54
544.82	19150.26
544.99	18862.38
545.16	19321.12
545.32	20287.76
545.49	32088.74
545.66	54206.81
545.83	62731.04
546.00	60006.65
546.16	46209.20
546.33	33453.28
546.50	24851.81
546.67	19730.72
546.83	17525.93
547.00	16662.27
547.17	16163.74
547.34	15349.23
547.50	14431.74
547.67	14061.94
547.84	13378.50
548.00	13060.19
548.17	12423.56
548.34	12156.74
548.51	11400.75
548.67	11068.39
548.84	10532.41
549.01	10031.54
549.18	9502.58
549.34	9160.86
549.51	8879.99
549.68	8493.80
549.84	8072.51
550.01	7801.01
550.18	7396.09
550.34	7133.95
550.51	6649.46
550.68	6518.39
550.84	6164.97
551.01	5760.06
551.18	5481.53
551.34	5298.97
551.51	5083.64
551.68	4933.85
551.84	4650.64
552.01	4430.63
552.18	4294.88
552.34	4035.08
552.51	4074.87
552.68	3716.77
552.84	3583.36
553.01	3414.84
553.18	3290.79
553.34	3246.32
553.51	3077.80
553.67	3215.90
553.84	3061.42
554.01	2827.37
554.17	2574.59
554.34	2473.95
554.51	2275.00
554.67	2221.17
554.84	2066.69
555.00	1961.37
555.17	1886.47
555.33	1741.36
555.50	1713.27
555.67	1598.59
555.83	1540.07
556.00	1563.48
556.16	1624.33
556.33	1390.28
556.50	1364.53
556.66	1399.64
556.83	1348.15
556.99	1291.98
557.16	1184.31
557.32	1217.08
557.49	1179.63
557.65	1064.94
557.82	1095.37
557.98	1135.16
558.15	1001.75
558.32	1029.84
558.48	976.00
558.65	978.34
558.81	1062.60
558.98	976.00
559.14	966.64
559.31	868.34
559.47	908.13
559.64	919.83
559.80	950.26
559.97	882.38
560.13	866.00
560.30	755.99
560.46	760.67
560.63	858.98
560.79	758.33
560.96	798.12
561.12	814.51
561.29	842.59
561.45	821.53
561.61	844.93
561.78	926.85
561.94	788.76
562.11	821.53
562.27	823.87
562.44	814.51
562.60	763.01
562.77	781.74
562.93	842.59
563.10	737.27
563.26	718.54
563.42	751.31
563.59	727.91
563.75	641.31
563.92	718.54
564.08	631.94
564.24	650.67
564.41	814.51
564.57	587.47
564.74	683.44
564.90	645.99
565.07	662.37
565.23	643.65
565.39	603.86
565.56	636.63
565.72	559.39
565.88	655.35
566.05	662.37
566.21	641.31
566.38	615.56
566.54	606.20
566.70	660.03
566.87	699.82
567.03	582.79
567.19	657.69
567.36	585.13
567.52	669.39
567.68	645.99
567.85	655.35
568.01	606.20
568.17	533.64
568.34	669.39
568.50	720.88
568.66	674.07
568.83	774.72
568.99	636.63
569.15	702.16
569.32	603.86
569.48	585.13
569.64	540.66
569.81	564.07
569.97	552.37
570.13	543.00
570.30	442.36
570.46	470.45
570.62	418.96
570.78	388.53
570.95	416.62
571.11	528.96
571.27	528.96
571.43	416.62
571.60	484.49
571.76	482.15
571.92	510.24
572.09	531.30
572.25	414.27
572.41	440.02
572.57	456.40
572.74	543.00
572.90	503.22
573.06	505.56
573.22	526.62
573.38	533.64
573.55	470.45
573.71	538.32
573.87	535.98
574.03	585.13
574.20	624.92
574.36	627.26
574.52	489.17
574.68	667.05
574.84	620.24
575.01	606.20
575.17	660.03
575.33	655.35
575.49	788.76
575.65	882.38
575.82	903.45
575.98	1039.20
576.14	992.39
576.30	2073.71
576.46	6764.15
576.62	12154.40
576.79	14693.88
576.95	10277.29
577.11	6555.84
577.27	4603.83
577.43	3157.38
577.59	2019.88
577.75	1624.33
577.92	1420.71
578.08	1437.09
578.24	1465.18
578.40	2216.49
578.56	6176.67
578.72	10848.38
578.88	13411.27
579.04	9905.15
579.21	6427.11
579.37	4861.29
579.53	3606.77
579.69	3442.93
579.85	4163.81
580.01	5020.45
580.17	4807.46
580.33	4170.83
580.49	3637.19
580.65	3185.47
580.82	2808.64
580.98	2722.04
581.14	2808.64
581.30	3063.76
581.46	3302.50
581.62	3503.78
581.78	3691.02
581.94	3845.50
582.10	4269.14
582.26	4379.14
582.42	4517.23
582.58	4891.72
582.74	4800.44
582.90	4978.32
583.06	4940.87
583.22	4990.02
583.38	4891.72
583.54	4875.34
583.70	4826.18
583.86	4716.18
584.02	4629.58
584.18	4704.48
584.34	4395.53
584.50	4596.81
584.66	4311.27
584.82	4400.21
584.98	4182.54
585.14	4098.28
585.30	4149.77
585.46	4147.43
585.62	4147.43
585.78	4114.66
585.94	4173.18
586.10	4119.34
586.26	4301.90
586.42	4887.04
586.58	5743.67
586.74	7171.40
586.90	8496.14
587.06	9624.28
587.22	9678.12
587.38	8730.20
587.54	7414.82
587.70	6230.51
587.86	5245.14
588.02	4454.04
588.18	3878.27
588.34	3463.99
588.49	3255.69
588.65	3038.02
588.81	2963.12
588.97	2775.88
589.13	2729.06
589.29	2644.81
589.45	2696.30
589.61	2700.98
589.77	2698.64
589.93	2810.98
590.08	2857.79
590.24	2850.77
590.40	2981.84
590.56	2977.16
590.72	3166.74
590.88	3272.07
591.04	3316.54
591.20	3578.68
591.35	3611.45
591.51	3681.66
591.67	3723.79
591.83	4098.28
591.99	4348.72
592.15	4732.56
592.31	5343.44
592.46	5708.57
592.62	6389.66
592.78	6827.34
592.94	6920.96
593.10	6946.71
593.26	6518.39
593.41	5760.06
593.57	5387.91
593.73	4795.76
593.89	4269.14
594.05	3733.15
594.20	3325.90
594.36	3133.98
594.52	2974.82
594.68	2761.83
594.84	2562.89
594.99	2530.12
595.15	2513.74
595.31	2462.24
595.47	2469.27
595.62	2434.16
595.78	2352.24
595.94	2511.39
596.10	2492.67
596.25	2502.03
596.41	2387.35
596.57	2370.96
596.73	2331.17
596.88	2380.32
597.04	2502.03
597.20	2401.39
597.36	2464.58
597.51	2555.86
597.67	2647.15
597.83	2731.41
597.99	2906.95
598.14	3155.04
598.30	3220.58
598.46	3473.36
598.61	3740.18
598.77	3833.80
598.93	3964.87
599.09	3988.27
599.24	4219.99
599.40	4257.43
599.56	3880.61
599.71	3749.54
599.87	3702.73
600.03	3449.95
600.18	3150.36
600.34	3005.25
600.50	2843.75
600.65	2630.76
600.81	2495.01
600.97	2340.54
601.12	2275.00
601.28	2129.89
601.44	1937.96
601.59	1884.13
601.75	1907.54
601.91	1715.61
602.06	1736.68
602.22	1783.49
602.37	1584.54
602.53	1706.25
602.69	1507.30
602.84	1668.80
603.00	1673.48
603.16	1732.00
603.31	1713.27
603.47	1696.89
603.62	1699.23
603.78	1795.19
603.94	1806.89
604.09	1832.64
604.25	1827.96
604.40	1809.23
604.56	1949.67
604.71	1928.60
604.87	1947.33
605.03	1872.43
605.18	1954.35
