SpectraSuite Data File
++++++++++++++++++++++++++++++++++++
Date: Fri Oct 04 11:42:06 GMT-05:00 2013
User: price-jones
Dark Spectrum Present: No
Reference Spectrum Present: No
Number of Sampled Component Spectra: 1
Spectrometers: USB2+H05261
Integration Time (usec): 100000 (USB2+H05261)
Spectra Averaged: 1 (USB2+H05261)
Boxcar Smoothing: 0 (USB2+H05261)
Correct for Electrical Dark: No (USB2+H05261)
Strobe/Lamp Enabled: No (USB2+H05261)
Correct for Detector Non-linearity: No (USB2+H05261)
Correct for Stray Light: No (USB2+H05261)
Number of Pixels in Processed Spectrum: 2048
>>>>>Begin Processed Spectral Data<<<<<
365.73	77.24
365.92	77.24
366.12	77.24
366.32	0.00
366.52	0.00
366.72	0.00
366.91	0.00
367.11	0.00
367.31	0.00
367.51	0.00
367.70	0.00
367.90	0.00
368.10	0.00
368.30	0.00
368.49	2.34
368.69	9.36
368.89	0.00
369.09	0.00
369.28	0.00
369.48	0.00
369.68	0.00
369.87	98.30
370.07	0.00
370.27	4.68
370.47	124.05
370.66	0.00
370.86	56.17
371.06	49.15
371.25	135.75
371.45	63.19
371.65	44.47
371.84	42.13
372.04	51.49
372.24	81.92
372.44	86.60
372.63	154.48
372.83	81.92
373.03	161.50
373.22	72.56
373.42	79.58
373.62	163.84
373.81	126.39
374.01	173.20
374.21	145.11
374.40	133.41
374.60	102.98
374.79	175.54
374.99	98.30
375.19	112.35
375.38	100.64
375.58	112.35
375.78	159.16
375.97	117.03
376.17	128.73
376.37	53.83
376.56	124.05
376.76	149.79
376.95	88.94
377.15	135.75
377.35	91.28
377.54	84.26
377.74	126.39
377.93	105.32
378.13	16.38
378.33	142.77
378.52	117.03
378.72	156.82
378.91	133.41
379.11	128.73
379.31	133.41
379.50	23.41
379.70	102.98
379.89	138.09
380.09	131.07
380.28	88.94
380.48	173.20
380.68	93.62
380.87	131.07
381.07	147.45
381.26	187.24
381.46	147.45
381.65	114.69
381.85	56.17
382.04	51.49
382.24	184.90
382.43	95.96
382.63	49.15
382.83	107.66
383.02	128.73
383.22	177.88
383.41	53.83
383.61	114.69
383.80	42.13
384.00	74.90
384.19	51.49
384.39	60.85
384.58	170.86
384.78	124.05
384.97	91.28
385.17	138.09
385.36	114.69
385.56	238.73
385.75	161.50
385.95	112.35
386.14	102.98
386.34	74.90
386.53	100.64
386.72	53.83
386.92	191.92
387.11	140.43
387.31	86.60
387.50	63.19
387.70	0.00
387.89	105.32
388.09	72.56
388.28	84.26
388.48	156.82
388.67	126.39
388.86	70.22
389.06	105.32
389.25	147.45
389.45	114.69
389.64	95.96
389.84	177.88
390.03	107.66
390.22	140.43
390.42	166.18
390.61	152.13
390.81	37.45
391.00	163.84
391.19	102.98
391.39	102.98
391.58	147.45
391.78	70.22
391.97	119.37
392.16	112.35
392.36	131.07
392.55	117.03
392.75	95.96
392.94	35.11
393.13	189.58
393.33	51.49
393.52	77.24
393.71	224.69
393.91	147.45
394.10	67.88
394.29	114.69
394.49	117.03
394.68	114.69
394.88	114.69
395.07	121.71
395.26	156.82
395.46	194.26
395.65	119.37
395.84	124.05
396.04	131.07
396.23	114.69
396.42	63.19
396.62	91.28
396.81	159.16
397.00	128.73
397.19	81.92
397.39	154.48
397.58	154.48
397.77	91.28
397.97	180.22
398.16	156.82
398.35	154.48
398.55	93.62
398.74	105.32
398.93	114.69
399.12	86.60
399.32	142.77
399.51	119.37
399.70	121.71
399.90	114.69
400.09	177.88
400.28	163.84
400.47	67.88
400.67	117.03
400.86	159.16
401.05	100.64
401.24	107.66
401.44	138.09
401.63	100.64
401.82	128.73
402.01	86.60
402.21	182.56
402.40	98.30
402.59	88.94
402.78	168.52
402.97	194.26
403.17	173.20
403.36	135.75
403.55	135.75
403.74	372.15
403.93	1013.45
404.13	1952.01
404.32	2209.47
404.51	1774.13
404.70	1025.15
404.89	393.21
405.09	229.37
405.28	175.54
405.47	175.54
405.66	149.79
405.85	252.78
406.05	128.73
406.24	105.32
406.43	152.13
406.62	198.95
406.81	182.56
407.00	196.60
407.20	299.59
407.39	397.89
407.58	367.46
407.77	238.73
407.96	231.71
408.15	159.16
408.34	236.39
408.54	163.84
408.73	100.64
408.92	149.79
409.11	173.20
409.30	156.82
409.49	119.37
409.68	177.88
409.87	102.98
410.07	124.05
410.26	175.54
410.45	124.05
410.64	126.39
410.83	156.82
411.02	205.97
411.21	131.07
411.40	182.56
411.59	173.20
411.78	154.48
411.98	140.43
412.17	74.90
412.36	173.20
412.55	110.01
412.74	224.69
412.93	273.84
413.12	147.45
413.31	156.82
413.50	105.32
413.69	177.88
413.88	184.90
414.07	203.63
414.26	182.56
414.45	142.77
414.64	121.71
414.83	203.63
415.02	163.84
415.22	243.42
415.41	166.18
415.60	156.82
415.79	173.20
415.98	184.90
416.17	163.84
416.36	102.98
416.55	126.39
416.74	161.50
416.93	147.45
417.12	152.13
417.31	119.37
417.50	198.95
417.69	208.31
417.88	128.73
418.07	128.73
418.26	152.13
418.45	194.26
418.64	217.67
418.83	212.99
419.02	95.96
419.21	131.07
419.39	163.84
419.58	156.82
419.77	124.05
419.96	163.84
420.15	156.82
420.34	203.63
420.53	135.75
420.72	168.52
420.91	133.41
421.10	100.64
421.29	187.24
421.48	168.52
421.67	201.29
421.86	182.56
422.05	187.24
422.24	131.07
422.43	255.12
422.61	212.99
422.80	145.11
422.99	205.97
423.18	187.24
423.37	229.37
423.56	203.63
423.75	79.58
423.94	154.48
424.13	276.18
424.32	194.26
424.50	159.16
424.69	220.01
424.88	196.60
425.07	222.35
425.26	203.63
425.45	245.76
425.64	220.01
425.83	163.84
426.01	276.18
426.20	182.56
426.39	210.65
426.58	201.29
426.77	124.05
426.96	201.29
427.15	189.58
427.33	217.67
427.52	170.86
427.71	205.97
427.90	241.08
428.09	241.08
428.28	238.73
428.46	248.10
428.65	182.56
428.84	131.07
429.03	187.24
429.22	175.54
429.40	84.26
429.59	196.60
429.78	294.91
429.97	241.08
430.16	215.33
430.34	191.92
430.53	182.56
430.72	248.10
430.91	224.69
431.10	215.33
431.28	198.95
431.47	215.33
431.66	220.01
431.85	203.63
432.03	276.18
432.22	311.29
432.41	156.82
432.60	224.69
432.79	269.16
432.97	330.02
433.16	273.84
433.35	243.42
433.54	294.91
433.72	304.27
433.91	332.36
434.10	313.63
434.28	383.85
434.47	437.68
434.66	402.57
434.85	622.58
435.03	1739.02
435.22	5736.65
435.41	9298.95
435.59	7978.89
435.78	5224.08
435.97	2555.86
436.16	1170.27
436.34	538.32
436.53	383.85
436.72	341.72
436.90	299.59
437.09	248.10
437.28	201.29
437.46	227.03
437.65	276.18
437.84	224.69
438.02	205.97
438.21	269.16
438.40	241.08
438.58	170.86
438.77	280.86
438.96	304.27
439.14	189.58
439.33	243.42
439.52	266.82
439.70	217.67
439.89	238.73
440.08	210.65
440.26	212.99
440.45	234.05
440.63	241.08
440.82	203.63
441.01	262.14
441.19	283.20
441.38	138.09
441.57	262.14
441.75	224.69
441.94	257.46
442.12	241.08
442.31	224.69
442.50	306.61
442.68	205.97
442.87	266.82
443.05	222.35
443.24	294.91
443.43	273.84
443.61	325.33
443.80	238.73
443.98	257.46
444.17	259.80
444.35	238.73
444.54	259.80
444.73	140.43
444.91	290.23
445.10	191.92
445.28	229.37
445.47	250.44
445.65	248.10
445.84	252.78
446.02	243.42
446.21	205.97
446.39	245.76
446.58	259.80
446.77	205.97
446.95	201.29
447.14	278.52
447.32	276.18
447.51	278.52
447.69	290.23
447.88	168.52
448.06	248.10
448.25	252.78
448.43	290.23
448.62	231.71
448.80	330.02
448.99	231.71
449.17	250.44
449.36	170.86
449.54	205.97
449.73	278.52
449.91	318.31
450.10	222.35
450.28	355.76
450.46	337.04
450.65	285.55
450.83	301.93
451.02	231.71
451.20	215.33
451.39	266.82
451.57	238.73
451.76	259.80
451.94	196.60
452.13	231.71
452.31	318.31
452.49	100.64
452.68	124.05
452.86	285.55
453.05	203.63
453.23	182.56
453.42	229.37
453.60	215.33
453.78	238.73
453.97	203.63
454.15	257.46
454.34	208.31
454.52	177.88
454.70	276.18
454.89	198.95
455.07	196.60
455.26	276.18
455.44	294.91
455.62	217.67
455.81	227.03
455.99	196.60
456.17	292.57
456.36	264.48
456.54	285.55
456.73	198.95
456.91	255.12
457.09	257.46
457.28	220.01
457.46	191.92
457.64	255.12
457.83	241.08
458.01	184.90
458.19	259.80
458.38	191.92
458.56	271.50
458.74	238.73
458.93	255.12
459.11	201.29
459.29	180.22
459.48	203.63
459.66	266.82
459.84	266.82
460.03	315.97
460.21	217.67
460.39	212.99
460.57	292.57
460.76	299.59
460.94	220.01
461.12	227.03
461.31	257.46
461.49	229.37
461.67	217.67
461.85	252.78
462.04	182.56
462.22	662.37
462.40	203.63
462.59	292.57
462.77	212.99
462.95	327.68
463.13	229.37
463.32	173.20
463.50	205.97
463.68	320.65
463.86	287.89
464.05	224.69
464.23	346.40
464.41	215.33
464.59	147.45
464.78	205.97
464.96	220.01
465.14	187.24
465.32	234.05
465.50	290.23
465.69	269.16
465.87	184.90
466.05	273.84
466.23	234.05
466.41	259.80
466.60	238.73
466.78	283.20
466.96	266.82
467.14	301.93
467.32	177.88
467.51	243.42
467.69	290.23
467.87	287.89
468.05	243.42
468.23	299.59
468.41	252.78
468.60	203.63
468.78	227.03
468.96	234.05
469.14	229.37
469.32	250.44
469.50	182.56
469.69	276.18
469.87	208.31
470.05	294.91
470.23	203.63
470.41	194.26
470.59	173.20
470.77	266.82
470.95	241.08
471.14	280.86
471.32	273.84
471.50	313.63
471.68	196.60
471.86	222.35
472.04	154.48
472.22	215.33
472.40	189.58
472.58	292.57
472.77	271.50
472.95	243.42
473.13	238.73
473.31	255.12
473.49	243.42
473.67	227.03
473.85	227.03
474.03	271.50
474.21	276.18
474.39	273.84
474.57	273.84
474.75	243.42
474.93	159.16
475.12	229.37
475.30	290.23
475.48	243.42
475.66	262.14
475.84	243.42
476.02	262.14
476.20	266.82
476.38	313.63
476.56	325.33
476.74	266.82
476.92	231.71
477.10	227.03
477.28	212.99
477.46	252.78
477.64	264.48
477.82	266.82
478.00	234.05
478.18	231.71
478.36	287.89
478.54	313.63
478.72	198.95
478.90	250.44
479.08	227.03
479.26	248.10
479.44	259.80
479.62	276.18
479.80	234.05
479.98	259.80
480.16	252.78
480.34	325.33
480.52	257.46
480.70	297.25
480.88	334.70
481.06	400.23
481.24	334.70
481.41	297.25
481.59	362.78
481.77	416.62
481.95	390.87
482.13	461.09
482.31	421.30
482.49	400.23
482.67	514.92
482.85	528.96
483.03	498.53
483.21	526.62
483.39	535.98
483.57	645.99
483.74	732.59
483.92	653.01
484.10	641.31
484.28	716.20
484.46	706.84
484.64	702.16
484.82	720.88
485.00	767.70
485.18	823.87
485.35	938.55
485.53	835.57
485.71	971.32
485.89	929.19
486.07	929.19
486.25	997.07
486.43	898.77
486.61	931.53
486.78	973.66
486.96	964.30
487.14	1015.79
487.32	985.37
487.50	973.66
487.68	983.02
487.85	957.28
488.03	983.02
488.21	922.17
488.39	908.13
488.57	880.04
488.75	830.89
488.92	1123.46
489.10	863.66
489.28	821.53
489.46	800.46
489.64	713.86
489.81	791.10
489.99	795.78
490.17	781.74
490.35	830.89
490.53	741.95
490.70	772.38
490.88	847.27
491.06	858.98
491.24	835.57
491.41	821.53
491.59	880.04
491.77	760.67
491.95	739.61
492.13	697.48
492.30	678.76
492.48	688.12
492.66	692.80
492.84	617.90
493.01	741.95
493.19	683.44
493.37	791.10
493.54	744.29
493.72	645.99
493.90	622.58
494.08	662.37
494.25	671.73
494.43	723.23
494.61	561.73
494.79	592.16
494.96	664.71
495.14	594.50
495.32	592.16
495.49	573.43
495.67	575.77
495.85	557.05
496.02	589.82
496.20	636.63
496.38	557.05
496.55	617.90
496.73	550.03
496.91	531.30
497.09	552.37
497.26	594.50
497.44	636.63
497.62	524.28
497.79	505.56
497.97	547.69
498.14	568.75
498.32	519.60
498.50	505.56
498.67	479.81
498.85	521.94
499.03	468.11
499.20	447.04
499.38	456.40
499.56	524.28
499.73	475.13
499.91	418.96
500.08	374.49
500.26	428.32
500.44	435.34
500.61	416.62
500.79	367.46
500.97	404.91
501.14	376.83
501.32	358.10
501.49	379.17
501.67	327.68
501.84	393.21
502.02	334.70
502.20	337.04
502.37	381.51
502.55	440.02
502.72	311.29
502.90	320.65
503.07	365.12
503.25	330.02
503.43	332.36
503.60	318.31
503.78	376.83
503.95	367.46
504.13	269.16
504.30	278.52
504.48	304.27
504.65	388.53
504.83	301.93
505.01	341.72
505.18	346.40
505.36	287.89
505.53	287.89
505.71	330.02
505.88	362.78
506.06	313.63
506.23	297.25
506.41	262.14
506.58	264.48
506.76	327.68
506.93	318.31
507.11	334.70
507.28	313.63
507.46	334.70
507.63	299.59
507.81	217.67
507.98	203.63
508.16	287.89
508.33	210.65
508.50	308.95
508.68	351.08
508.85	255.12
509.03	273.84
509.20	257.46
509.38	299.59
509.55	315.97
509.73	292.57
509.90	325.33
510.08	238.73
510.25	337.04
510.42	255.12
510.60	278.52
510.77	297.25
510.95	341.72
511.12	313.63
511.30	245.76
511.47	325.33
511.64	325.33
511.82	308.95
511.99	301.93
512.17	315.97
512.34	276.18
512.51	269.16
512.69	222.35
512.86	262.14
513.04	294.91
513.21	315.97
513.38	290.23
513.56	259.80
513.73	236.39
513.90	227.03
514.08	234.05
514.25	297.25
514.43	306.61
514.60	266.82
514.77	250.44
514.95	257.46
515.12	238.73
515.29	229.37
515.47	269.16
515.64	259.80
515.81	238.73
515.99	297.25
516.16	276.18
516.33	292.57
516.51	248.10
516.68	257.46
516.85	322.99
517.03	287.89
517.20	353.42
517.37	299.59
517.54	280.86
517.72	285.55
517.89	205.97
518.06	217.67
518.24	299.59
518.41	243.42
518.58	252.78
518.75	245.76
518.93	330.02
519.10	271.50
519.27	238.73
519.45	191.92
519.62	222.35
519.79	278.52
519.96	212.99
520.14	273.84
520.31	248.10
520.48	308.95
520.65	229.37
520.83	245.76
521.00	285.55
521.17	243.42
521.34	236.39
521.52	229.37
521.69	266.82
521.86	301.93
522.03	245.76
522.20	327.68
522.38	315.97
522.55	243.42
522.72	231.71
522.89	212.99
523.07	273.84
523.24	315.97
523.41	280.86
523.58	271.50
523.75	330.02
523.92	318.31
524.10	294.91
524.27	315.97
524.44	243.42
524.61	264.48
524.78	285.55
524.96	229.37
525.13	308.95
525.30	320.65
525.47	278.52
525.64	257.46
525.81	297.25
525.98	372.15
526.16	273.84
526.33	348.74
526.50	201.29
526.67	318.31
526.84	257.46
527.01	313.63
527.18	339.38
527.36	297.25
527.53	278.52
527.70	285.55
527.87	280.86
528.04	358.10
528.21	355.76
528.38	376.83
528.55	294.91
528.72	280.86
528.89	332.36
529.07	266.82
529.24	276.18
529.41	397.89
529.58	322.99
529.75	393.21
529.92	320.65
530.09	266.82
530.26	367.46
530.43	414.27
530.60	306.61
530.77	327.68
530.94	294.91
531.11	334.70
531.28	337.04
531.46	308.95
531.63	337.04
531.80	299.59
531.97	411.93
532.14	475.13
532.31	433.00
532.48	407.25
532.65	491.51
532.82	582.79
532.99	561.73
533.16	699.82
533.33	674.07
533.50	669.39
533.67	521.94
533.84	510.24
534.01	559.39
534.18	465.77
534.35	456.40
534.52	524.28
534.69	475.13
534.86	475.13
535.03	451.72
535.20	587.47
535.37	587.47
535.54	566.41
535.71	496.19
535.88	645.99
536.05	638.97
536.22	641.31
536.38	641.31
536.55	695.14
536.72	826.21
536.89	805.14
537.06	933.87
537.23	983.02
537.40	1083.67
537.57	1067.28
537.74	1130.48
537.91	1151.54
538.08	1196.01
538.25	1188.99
538.42	1343.47
538.59	1334.11
538.75	1334.11
538.92	1383.26
539.09	1504.96
539.26	1619.65
539.43	1867.75
539.60	1912.22
539.77	2176.70
539.94	2443.52
540.11	2665.87
540.28	2902.26
540.44	3126.96
540.61	3363.35
540.78	3969.55
540.95	4652.98
541.12	5605.58
541.29	6179.01
541.46	6445.84
541.62	6253.91
541.79	5970.71
541.96	5685.16
542.13	5245.14
542.30	4943.21
542.47	4683.41
542.63	4512.55
542.80	4440.00
542.97	4444.68
543.14	4339.35
543.31	4390.84
543.48	4381.48
543.64	4393.19
543.81	4496.17
543.98	4461.06
544.15	4470.42
544.32	4418.93
544.48	4430.63
544.65	4196.58
544.82	4234.03
544.99	4161.47
545.16	4400.21
545.32	4704.48
545.49	9554.07
545.66	15218.16
545.83	15829.04
546.00	12982.95
546.16	9132.77
546.33	6768.83
546.50	5249.82
546.67	4344.03
546.83	3925.08
547.00	3744.86
547.17	3433.57
547.34	3194.83
547.50	3384.41
547.67	3087.17
547.84	2932.69
548.00	2923.33
548.17	2885.88
548.34	2750.13
548.51	2602.68
548.67	2555.86
548.84	2406.07
549.01	2321.81
549.18	2275.00
549.34	2188.40
549.51	2148.61
549.68	2001.16
549.84	1991.80
550.01	1968.39
550.18	1923.92
550.34	1816.26
550.51	1664.12
550.68	1661.78
550.84	1460.49
551.01	1427.73
551.18	1418.36
551.34	1327.08
551.51	1268.57
551.68	1219.42
551.84	1191.33
552.01	1167.93
552.18	1132.82
552.34	1111.75
552.51	1090.69
552.68	1041.54
552.84	964.30
553.01	940.90
553.18	971.32
553.34	938.55
553.51	901.11
553.67	819.19
553.84	828.55
554.01	870.68
554.17	882.38
554.34	704.50
554.51	648.33
554.67	711.52
554.84	573.43
555.00	601.52
555.17	559.39
555.33	643.65
555.50	573.43
555.67	603.86
555.83	561.73
556.00	535.98
556.16	662.37
556.33	533.64
556.50	447.04
556.66	517.26
556.83	519.60
556.99	395.55
557.16	493.85
557.32	409.59
557.49	365.12
557.65	468.11
557.82	428.32
557.98	402.57
558.15	416.62
558.32	435.34
558.48	393.21
558.65	440.02
558.81	390.87
558.98	381.51
559.14	430.66
559.31	348.74
559.47	386.19
559.64	360.44
559.80	402.57
559.97	344.06
560.13	334.70
560.30	414.27
560.46	397.89
560.63	379.17
560.79	393.21
560.96	360.44
561.12	306.61
561.29	395.55
561.45	369.80
561.61	402.57
561.78	463.43
561.94	386.19
562.11	339.38
562.27	367.46
562.44	365.12
562.60	388.53
562.77	365.12
562.93	362.78
563.10	402.57
563.26	294.91
563.42	372.15
563.59	339.38
563.75	337.04
563.92	355.76
564.08	374.49
564.24	381.51
564.41	315.97
564.57	262.14
564.74	341.72
564.90	297.25
565.07	337.04
565.23	327.68
565.39	285.55
565.56	346.40
565.72	297.25
565.88	308.95
566.05	276.18
566.21	280.86
566.38	257.46
566.54	297.25
566.70	369.80
566.87	313.63
567.03	271.50
567.19	273.84
567.36	334.70
567.52	344.06
567.68	390.87
567.85	311.29
568.01	287.89
568.17	280.86
568.34	358.10
568.50	425.98
568.66	243.42
568.83	332.36
568.99	264.48
569.15	341.72
569.32	297.25
569.48	278.52
569.64	318.31
569.81	280.86
569.97	283.20
570.13	278.52
570.30	266.82
570.46	266.82
570.62	306.61
570.78	280.86
570.95	217.67
571.11	301.93
571.27	311.29
571.43	327.68
571.60	407.25
571.76	248.10
571.92	262.14
572.09	238.73
572.25	236.39
572.41	304.27
572.57	245.76
572.74	304.27
572.90	243.42
573.06	313.63
573.22	259.80
573.38	325.33
573.55	320.65
573.71	262.14
573.87	334.70
574.03	248.10
574.20	243.42
574.36	259.80
574.52	332.36
574.68	297.25
574.84	327.68
575.01	353.42
575.17	276.18
575.33	266.82
575.49	404.91
575.65	390.87
575.82	379.17
575.98	507.90
576.14	381.51
576.30	908.13
576.46	2073.71
576.62	2654.17
576.79	2766.51
576.95	1968.39
577.11	1458.15
577.27	1116.44
577.43	833.23
577.59	627.26
577.75	564.07
577.92	493.85
578.08	521.94
578.24	552.37
578.40	821.53
578.56	1961.37
578.72	2492.67
578.88	2588.63
579.04	1973.07
579.21	1378.58
579.37	1142.18
579.53	950.26
579.69	931.53
579.85	1193.67
580.01	1261.55
580.17	1191.33
580.33	1020.47
580.49	952.60
580.65	770.04
580.82	763.01
580.98	770.04
581.14	741.95
581.30	877.70
581.46	816.85
581.62	910.47
581.78	1015.79
581.94	1013.45
582.10	1071.97
582.26	1088.35
582.42	1203.04
582.58	1186.65
582.74	1205.38
582.90	1181.97
583.06	1277.93
583.22	1214.74
583.38	1214.74
583.54	1130.48
583.70	1207.72
583.86	1233.46
584.02	1139.84
584.18	1200.69
584.34	1118.78
584.50	1149.20
584.66	1067.28
584.82	1125.80
584.98	1090.69
585.14	1048.56
585.30	1076.65
585.46	922.17
585.62	1039.20
585.78	1153.88
585.94	1090.69
586.10	1053.24
586.26	1128.14
586.42	1284.95
586.58	1612.63
586.74	1722.63
586.90	2015.20
587.06	2209.47
587.22	2054.99
587.38	1806.89
587.54	1614.97
587.70	1469.86
587.86	1170.27
588.02	1055.58
588.18	908.13
588.34	894.08
588.49	884.72
588.65	868.34
588.81	760.67
588.97	748.97
589.13	784.08
589.29	737.27
589.45	683.44
589.61	713.86
589.77	798.12
589.93	760.67
590.08	683.44
590.24	678.76
590.40	795.78
590.56	851.96
590.72	835.57
590.88	791.10
591.04	833.23
591.20	903.45
591.35	959.62
591.51	929.19
591.67	968.98
591.83	1018.13
591.99	1107.07
592.15	1170.27
592.31	1233.46
592.46	1322.40
592.62	1483.90
592.78	1446.45
592.94	1584.54
593.10	1441.77
593.26	1380.92
593.41	1308.36
593.57	1203.04
593.73	1128.14
593.89	978.34
594.05	812.17
594.20	795.78
594.36	800.46
594.52	688.12
594.68	648.33
594.84	690.46
594.99	718.54
595.15	657.69
595.31	624.92
595.47	753.65
595.62	664.71
595.78	667.05
595.94	620.24
596.10	575.77
596.25	709.18
596.41	627.26
596.57	631.94
596.73	653.01
596.88	552.37
597.04	720.88
597.20	627.26
597.36	671.73
597.51	692.80
597.67	669.39
597.83	667.05
597.99	779.40
598.14	812.17
598.30	842.59
598.46	807.48
598.61	1006.43
598.77	968.98
598.93	898.77
599.09	980.68
599.24	985.37
599.40	1006.43
599.56	931.53
599.71	894.08
599.87	840.25
600.03	851.96
600.18	805.14
600.34	706.84
600.50	664.71
600.65	709.18
600.81	613.22
600.97	610.88
601.12	582.79
601.28	664.71
601.44	585.13
601.59	624.92
601.75	589.82
601.91	533.64
602.06	472.79
602.22	575.77
602.37	475.13
602.53	468.11
602.69	521.94
602.84	393.21
603.00	531.30
603.16	566.41
603.31	589.82
603.47	507.90
603.62	458.74
603.78	521.94
603.94	531.30
604.09	496.19
604.25	580.45
604.40	547.69
604.56	561.73
604.71	552.37
604.87	550.03
605.03	543.00
605.18	615.56
605.34	582.79
605.49	578.11
605.65	580.45
605.80	596.84
605.96	643.65
606.12	713.86
606.27	716.20
606.43	627.26
606.58	709.18
606.74	770.04
606.89	795.78
607.05	767.70
607.20	851.96
607.36	826.21
607.51	884.72
607.67	1006.43
607.82	1069.62
607.98	1095.37
608.13	1149.20
608.29	1221.76
608.44	1324.74
608.60	1481.56
608.75	1561.14
608.91	1596.25
609.06	1750.72
609.22	1867.75
