SpectraSuite Data File
++++++++++++++++++++++++++++++++++++
Date: Fri Oct 04 11:42:31 GMT-05:00 2013
User: price-jones
Dark Spectrum Present: No
Reference Spectrum Present: No
Number of Sampled Component Spectra: 1
Spectrometers: USB2+H05261
Integration Time (usec): 100000 (USB2+H05261)
Spectra Averaged: 1 (USB2+H05261)
Boxcar Smoothing: 0 (USB2+H05261)
Correct for Electrical Dark: No (USB2+H05261)
Strobe/Lamp Enabled: No (USB2+H05261)
Correct for Detector Non-linearity: No (USB2+H05261)
Correct for Stray Light: No (USB2+H05261)
Number of Pixels in Processed Spectrum: 2048
>>>>>Begin Processed Spectral Data<<<<<
365.73	53.83
365.92	53.83
366.12	53.83
366.32	0.00
366.52	37.45
366.72	44.47
366.91	0.00
367.11	0.00
367.31	0.00
367.51	0.00
367.70	0.00
367.90	0.00
368.10	0.00
368.30	0.00
368.49	0.00
368.69	0.00
368.89	0.00
369.09	0.00
369.28	0.00
369.48	0.00
369.68	0.00
369.87	0.00
370.07	0.00
370.27	0.00
370.47	0.00
370.66	0.00
370.86	32.77
371.06	100.64
371.25	93.62
371.45	58.51
371.65	119.37
371.84	56.17
372.04	65.54
372.24	147.45
372.44	81.92
372.63	105.32
372.83	128.73
373.03	107.66
373.22	110.01
373.42	88.94
373.62	112.35
373.81	93.62
374.01	117.03
374.21	159.16
374.40	67.88
374.60	138.09
374.79	124.05
374.99	154.48
375.19	121.71
375.38	105.32
375.58	182.56
375.78	166.18
375.97	142.77
376.17	196.60
376.37	93.62
376.56	133.41
376.76	42.13
376.95	49.15
377.15	156.82
377.35	196.60
377.54	147.45
377.74	56.17
377.93	77.24
378.13	138.09
378.33	84.26
378.52	166.18
378.72	163.84
378.91	210.65
379.11	49.15
379.31	88.94
379.50	0.00
379.70	131.07
379.89	105.32
380.09	119.37
380.28	114.69
380.48	142.77
380.68	163.84
380.87	110.01
381.07	117.03
381.26	117.03
381.46	56.17
381.65	84.26
381.85	105.32
382.04	152.13
382.24	102.98
382.43	114.69
382.63	88.94
382.83	72.56
383.02	182.56
383.22	102.98
383.41	149.79
383.61	107.66
383.80	98.30
384.00	67.88
384.19	154.48
384.39	163.84
384.58	88.94
384.78	84.26
384.97	194.26
385.17	100.64
385.36	25.75
385.56	140.43
385.75	86.60
385.95	138.09
386.14	46.81
386.34	112.35
386.53	74.90
386.72	37.45
386.92	126.39
387.11	112.35
387.31	133.41
387.50	95.96
387.70	88.94
387.89	107.66
388.09	112.35
388.28	177.88
388.48	74.90
388.67	154.48
388.86	74.90
389.06	56.17
389.25	119.37
389.45	119.37
389.64	86.60
389.84	154.48
390.03	152.13
390.22	170.86
390.42	142.77
390.61	70.22
390.81	112.35
391.00	74.90
391.19	95.96
391.39	51.49
391.58	84.26
391.78	0.00
391.97	100.64
392.16	67.88
392.36	100.64
392.55	117.03
392.75	138.09
392.94	86.60
393.13	79.58
393.33	86.60
393.52	81.92
393.71	133.41
393.91	56.17
394.10	86.60
394.29	98.30
394.49	145.11
394.68	154.48
394.88	154.48
395.07	163.84
395.26	100.64
395.46	189.58
395.65	161.50
395.84	131.07
396.04	163.84
396.23	166.18
396.42	124.05
396.62	161.50
396.81	126.39
397.00	142.77
397.19	128.73
397.39	53.83
397.58	126.39
397.77	138.09
397.97	121.71
398.16	49.15
398.35	142.77
398.55	135.75
398.74	95.96
398.93	102.98
399.12	53.83
399.32	196.60
399.51	124.05
399.70	161.50
399.90	110.01
400.09	124.05
400.28	142.77
400.47	95.96
400.67	182.56
400.86	88.94
401.05	112.35
401.24	112.35
401.44	138.09
401.63	114.69
401.82	107.66
402.01	117.03
402.21	93.62
402.40	72.56
402.59	182.56
402.78	110.01
402.97	112.35
403.17	119.37
403.36	161.50
403.55	152.13
403.74	133.41
403.93	203.63
404.13	210.65
404.32	222.35
404.51	306.61
404.70	170.86
404.89	198.95
405.09	208.31
405.28	128.73
405.47	65.54
405.66	128.73
405.85	112.35
406.05	145.11
406.24	88.94
406.43	128.73
406.62	131.07
406.81	252.78
407.00	140.43
407.20	88.94
407.39	142.77
407.58	147.45
407.77	145.11
407.96	77.24
408.15	126.39
408.34	159.16
408.54	124.05
408.73	56.17
408.92	163.84
409.11	149.79
409.30	133.41
409.49	107.66
409.68	74.90
409.87	135.75
410.07	88.94
410.26	161.50
410.45	149.79
410.64	194.26
410.83	100.64
411.02	65.54
411.21	88.94
411.40	65.54
411.59	121.71
411.78	77.24
411.98	124.05
412.17	81.92
412.36	170.86
412.55	166.18
412.74	91.28
412.93	203.63
413.12	133.41
413.31	173.20
413.50	124.05
413.69	121.71
413.88	149.79
414.07	224.69
414.26	124.05
414.45	187.24
414.64	175.54
414.83	170.86
415.02	140.43
415.22	140.43
415.41	182.56
415.60	194.26
415.79	135.75
415.98	107.66
416.17	187.24
416.36	182.56
416.55	161.50
416.74	126.39
416.93	177.88
417.12	161.50
417.31	154.48
417.50	140.43
417.69	227.03
417.88	131.07
418.07	107.66
418.26	107.66
418.45	117.03
418.64	163.84
418.83	112.35
419.02	126.39
419.21	159.16
419.39	140.43
419.58	84.26
419.77	152.13
419.96	138.09
420.15	269.16
420.34	100.64
420.53	121.71
420.72	105.32
420.91	161.50
421.10	227.03
421.29	105.32
421.48	163.84
421.67	180.22
421.86	145.11
422.05	77.24
422.24	74.90
422.43	175.54
422.61	131.07
422.80	163.84
422.99	194.26
423.18	74.90
423.37	135.75
423.56	128.73
423.75	138.09
423.94	72.56
424.13	177.88
424.32	140.43
424.50	154.48
424.69	84.26
424.88	182.56
425.07	166.18
425.26	149.79
425.45	182.56
425.64	142.77
425.83	121.71
426.01	147.45
426.20	131.07
426.39	112.35
426.58	191.92
426.77	121.71
426.96	147.45
427.15	119.37
427.33	100.64
427.52	212.99
427.71	98.30
427.90	110.01
428.09	140.43
428.28	39.79
428.46	154.48
428.65	156.82
428.84	86.60
429.03	173.20
429.22	189.58
429.40	91.28
429.59	142.77
429.78	159.16
429.97	135.75
430.16	86.60
430.34	91.28
430.53	60.85
430.72	70.22
430.91	152.13
431.10	161.50
431.28	124.05
431.47	131.07
431.66	191.92
431.85	142.77
432.03	159.16
432.22	217.67
432.41	128.73
432.60	147.45
432.79	133.41
432.97	166.18
433.16	93.62
433.35	152.13
433.54	154.48
433.72	86.60
433.91	161.50
434.10	147.45
434.28	224.69
434.47	168.52
434.66	208.31
434.85	114.69
435.03	259.80
435.22	617.90
435.41	1027.50
435.59	1107.07
435.78	830.89
435.97	428.32
436.16	255.12
436.34	234.05
436.53	128.73
436.72	135.75
436.90	177.88
437.09	203.63
437.28	102.98
437.46	79.58
437.65	112.35
437.84	117.03
438.02	205.97
438.21	152.13
438.40	238.73
438.58	135.75
438.77	191.92
438.96	224.69
439.14	147.45
439.33	187.24
439.52	182.56
439.70	124.05
439.89	131.07
440.08	98.30
440.26	166.18
440.45	175.54
440.63	161.50
440.82	112.35
441.01	124.05
441.19	236.39
441.38	121.71
441.57	175.54
441.75	168.52
441.94	205.97
442.12	182.56
442.31	74.90
442.50	175.54
442.68	147.45
442.87	159.16
443.05	152.13
443.24	140.43
443.43	135.75
443.61	182.56
443.80	215.33
443.98	119.37
444.17	168.52
444.35	220.01
444.54	217.67
444.73	156.82
444.91	170.86
445.10	128.73
445.28	159.16
445.47	154.48
445.65	128.73
445.84	154.48
446.02	107.66
446.21	74.90
446.39	177.88
446.58	180.22
446.77	170.86
446.95	138.09
447.14	198.95
447.32	159.16
447.51	215.33
447.69	196.60
447.88	196.60
448.06	217.67
448.25	177.88
448.43	145.11
448.62	152.13
448.80	140.43
448.99	107.66
449.17	110.01
449.36	145.11
449.54	245.76
449.73	147.45
449.91	191.92
450.10	170.86
450.28	189.58
450.46	170.86
450.65	182.56
450.83	217.67
451.02	117.03
451.20	205.97
451.39	152.13
451.57	142.77
451.76	170.86
451.94	110.01
452.13	180.22
452.31	194.26
452.49	175.54
452.68	147.45
452.86	110.01
453.05	236.39
453.23	220.01
453.42	149.79
453.60	177.88
453.78	140.43
453.97	124.05
454.15	119.37
454.34	135.75
454.52	196.60
454.70	238.73
454.89	126.39
455.07	135.75
455.26	177.88
455.44	245.76
455.62	159.16
455.81	170.86
455.99	231.71
456.17	212.99
456.36	147.45
456.54	131.07
456.73	140.43
456.91	191.92
457.09	142.77
457.28	102.98
457.46	234.05
457.64	215.33
457.83	126.39
458.01	145.11
458.19	161.50
458.38	175.54
458.56	196.60
458.74	161.50
458.93	159.16
459.11	81.92
459.29	147.45
459.48	234.05
459.66	201.29
459.84	215.33
460.03	308.95
460.21	252.78
460.39	170.86
460.57	196.60
460.76	177.88
460.94	191.92
461.12	252.78
461.31	168.52
461.49	161.50
461.67	107.66
461.85	201.29
462.04	161.50
462.22	339.38
462.40	147.45
462.59	131.07
462.77	161.50
462.95	175.54
463.13	168.52
463.32	147.45
463.50	138.09
463.68	208.31
463.86	248.10
464.05	163.84
464.23	217.67
464.41	166.18
464.59	175.54
464.78	201.29
464.96	135.75
465.14	220.01
465.32	196.60
465.50	154.48
465.69	245.76
465.87	212.99
466.05	156.82
466.23	205.97
466.41	135.75
466.60	114.69
466.78	121.71
466.96	107.66
467.14	128.73
467.32	215.33
467.51	149.79
467.69	217.67
467.87	243.42
468.05	231.71
468.23	245.76
468.41	187.24
468.60	189.58
468.78	210.65
468.96	191.92
469.14	217.67
469.32	161.50
469.50	187.24
469.69	175.54
469.87	114.69
470.05	203.63
470.23	121.71
470.41	117.03
470.59	102.98
470.77	152.13
470.95	187.24
471.14	205.97
471.32	212.99
471.50	229.37
471.68	231.71
471.86	259.80
472.04	210.65
472.22	191.92
472.40	177.88
472.58	138.09
472.77	135.75
472.95	177.88
473.13	212.99
473.31	208.31
473.49	168.52
473.67	182.56
473.85	170.86
474.03	224.69
474.21	224.69
474.39	196.60
474.57	252.78
474.75	140.43
474.93	163.84
475.12	159.16
475.30	124.05
475.48	161.50
475.66	126.39
475.84	117.03
476.02	154.48
476.20	152.13
476.38	147.45
476.56	299.59
476.74	220.01
476.92	107.66
477.10	173.20
477.28	238.73
477.46	152.13
477.64	238.73
477.82	168.52
478.00	149.79
478.18	248.10
478.36	203.63
478.54	145.11
478.72	271.50
478.90	201.29
479.08	166.18
479.26	191.92
479.44	189.58
479.62	173.20
479.80	93.62
479.98	220.01
480.16	147.45
480.34	189.58
480.52	180.22
480.70	224.69
480.88	154.48
481.06	177.88
481.24	159.16
481.41	149.79
481.59	257.46
481.77	191.92
481.95	201.29
482.13	241.08
482.31	163.84
482.49	222.35
482.67	224.69
482.85	224.69
483.03	248.10
483.21	248.10
483.39	269.16
483.57	252.78
483.74	236.39
483.92	238.73
484.10	290.23
484.28	264.48
484.46	220.01
484.64	278.52
484.82	320.65
485.00	241.08
485.18	257.46
485.35	297.25
485.53	327.68
485.71	304.27
485.89	222.35
486.07	229.37
486.25	341.72
486.43	257.46
486.61	330.02
486.78	290.23
486.96	255.12
487.14	269.16
487.32	325.33
487.50	255.12
487.68	339.38
487.85	306.61
488.03	248.10
488.21	386.19
488.39	304.27
488.57	311.29
488.75	332.36
488.92	519.60
489.10	257.46
489.28	395.55
489.46	241.08
489.64	297.25
489.81	301.93
489.99	332.36
490.17	290.23
490.35	409.59
490.53	404.91
490.70	257.46
490.88	299.59
491.06	299.59
491.24	327.68
491.41	304.27
491.59	269.16
491.77	273.84
491.95	306.61
492.13	297.25
492.30	308.95
492.48	271.50
492.66	360.44
492.84	320.65
493.01	264.48
493.19	285.55
493.37	212.99
493.54	313.63
493.72	276.18
493.90	238.73
494.08	245.76
494.25	299.59
494.43	292.57
494.61	285.55
494.79	285.55
494.96	238.73
495.14	250.44
495.32	271.50
495.49	304.27
495.67	325.33
495.85	259.80
496.02	222.35
496.20	327.68
496.38	243.42
496.55	252.78
496.73	250.44
496.91	269.16
497.09	191.92
497.26	278.52
497.44	212.99
497.62	297.25
497.79	308.95
497.97	372.15
498.14	280.86
498.32	201.29
498.50	241.08
498.67	262.14
498.85	243.42
499.03	292.57
499.20	278.52
499.38	273.84
499.56	252.78
499.73	341.72
499.91	259.80
500.08	306.61
500.26	212.99
500.44	224.69
500.61	250.44
500.79	201.29
500.97	269.16
501.14	271.50
501.32	255.12
501.49	245.76
501.67	248.10
501.84	238.73
502.02	220.01
502.20	292.57
502.37	259.80
502.55	248.10
502.72	276.18
502.90	180.22
503.07	264.48
503.25	273.84
503.43	203.63
503.60	236.39
503.78	248.10
503.95	264.48
504.13	210.65
504.30	245.76
504.48	215.33
504.65	245.76
504.83	297.25
505.01	278.52
505.18	243.42
505.36	229.37
505.53	166.18
505.71	259.80
505.88	259.80
506.06	266.82
506.23	201.29
506.41	264.48
506.58	208.31
506.76	257.46
506.93	229.37
507.11	203.63
507.28	205.97
507.46	241.08
507.63	210.65
507.81	205.97
507.98	285.55
508.16	227.03
508.33	170.86
508.50	180.22
508.68	194.26
508.85	252.78
509.03	229.37
509.20	227.03
509.38	212.99
509.55	311.29
509.73	292.57
509.90	285.55
510.08	203.63
510.25	220.01
510.42	280.86
510.60	252.78
510.77	241.08
510.95	205.97
511.12	273.84
511.30	269.16
511.47	203.63
511.64	311.29
511.82	269.16
511.99	248.10
512.17	255.12
512.34	304.27
512.51	290.23
512.69	243.42
512.86	264.48
513.04	271.50
513.21	231.71
513.38	245.76
513.56	222.35
513.73	229.37
513.90	245.76
514.08	196.60
514.25	212.99
514.43	248.10
514.60	271.50
514.77	250.44
514.95	308.95
515.12	250.44
515.29	252.78
515.47	280.86
515.64	173.20
515.81	280.86
515.99	231.71
516.16	299.59
516.33	315.97
516.51	257.46
516.68	156.82
516.85	292.57
517.03	248.10
517.20	205.97
517.37	203.63
517.54	252.78
517.72	285.55
517.89	128.73
518.06	198.95
518.24	248.10
518.41	332.36
518.58	241.08
518.75	259.80
518.93	231.71
519.10	255.12
519.27	241.08
519.45	285.55
519.62	243.42
519.79	245.76
519.96	227.03
520.14	215.33
520.31	271.50
520.48	227.03
520.65	248.10
520.83	220.01
521.00	292.57
521.17	308.95
521.34	173.20
521.52	252.78
521.69	290.23
521.86	173.20
522.03	285.55
522.20	344.06
522.38	220.01
522.55	217.67
522.72	299.59
522.89	315.97
523.07	287.89
523.24	266.82
523.41	266.82
523.58	344.06
523.75	198.95
523.92	255.12
524.10	280.86
524.27	212.99
524.44	212.99
524.61	243.42
524.78	276.18
524.96	290.23
525.13	241.08
525.30	334.70
525.47	205.97
525.64	266.82
525.81	273.84
525.98	283.20
526.16	168.52
526.33	189.58
526.50	205.97
526.67	224.69
526.84	161.50
527.01	229.37
527.18	191.92
527.36	212.99
527.53	283.20
527.70	215.33
527.87	262.14
528.04	250.44
528.21	276.18
528.38	205.97
528.55	346.40
528.72	306.61
528.89	294.91
529.07	273.84
529.24	182.56
529.41	283.20
529.58	222.35
529.75	271.50
529.92	212.99
530.09	290.23
530.26	304.27
530.43	301.93
530.60	278.52
530.77	257.46
530.94	325.33
531.11	304.27
531.28	353.42
531.46	203.63
531.63	372.15
531.80	327.68
531.97	266.82
532.14	243.42
532.31	367.46
532.48	294.91
532.65	264.48
532.82	283.20
532.99	262.14
533.16	276.18
533.33	306.61
533.50	264.48
533.67	227.03
533.84	322.99
534.01	243.42
534.18	320.65
534.35	320.65
534.52	238.73
534.69	327.68
534.86	337.04
535.03	271.50
535.20	306.61
535.37	311.29
535.54	262.14
535.71	266.82
535.88	379.17
536.05	266.82
536.22	327.68
536.38	365.12
536.55	332.36
536.72	313.63
536.89	285.55
537.06	241.08
537.23	353.42
537.40	355.76
537.57	369.80
537.74	414.27
537.91	440.02
538.08	463.43
538.25	313.63
538.42	400.23
538.59	437.68
538.75	451.72
538.92	388.53
539.09	500.87
539.26	550.03
539.43	437.68
539.60	535.98
539.77	615.56
539.94	561.73
540.11	655.35
540.28	599.18
540.44	709.18
540.61	755.99
540.78	877.70
540.95	870.68
541.12	1132.82
541.29	1102.39
541.46	1196.01
541.62	1228.78
541.79	1107.07
541.96	1144.52
542.13	1179.63
542.30	1165.59
542.47	1156.22
542.63	1177.29
542.80	1125.80
542.97	1125.80
543.14	1081.33
543.31	1109.41
543.48	1153.88
543.64	1055.58
543.81	1083.67
543.98	1109.41
544.15	1111.75
544.32	1060.26
544.48	1067.28
544.65	945.58
544.82	1025.15
544.99	1048.56
545.16	1069.62
545.32	1015.79
545.49	1526.03
545.66	2354.58
545.83	3049.72
546.00	2586.29
546.16	1799.87
546.33	1378.58
546.50	1008.77
546.67	873.02
546.83	875.36
547.00	748.97
547.17	657.69
547.34	620.24
547.50	650.67
547.67	685.78
547.84	657.69
548.00	688.12
548.17	690.46
548.34	554.71
548.51	690.46
548.67	695.14
548.84	564.07
549.01	585.13
549.18	650.67
549.34	627.26
549.51	545.34
549.68	557.05
549.84	535.98
550.01	444.70
550.18	573.43
550.34	552.37
550.51	503.22
550.68	557.05
550.84	465.77
551.01	433.00
551.18	566.41
551.34	418.96
551.51	425.98
551.68	437.68
551.84	510.24
552.01	421.30
552.18	437.68
552.34	369.80
552.51	332.36
552.68	428.32
552.84	468.11
553.01	355.76
553.18	510.24
553.34	358.10
553.51	374.49
553.67	353.42
553.84	388.53
554.01	386.19
554.17	360.44
554.34	379.17
554.51	299.59
554.67	388.53
554.84	313.63
555.00	320.65
555.17	297.25
555.33	339.38
555.50	308.95
555.67	351.08
555.83	306.61
556.00	339.38
556.16	414.27
556.33	339.38
556.50	297.25
556.66	231.71
556.83	224.69
556.99	306.61
557.16	273.84
557.32	262.14
557.49	238.73
557.65	255.12
557.82	248.10
557.98	353.42
558.15	280.86
558.32	203.63
558.48	255.12
558.65	266.82
558.81	278.52
558.98	301.93
559.14	273.84
559.31	241.08
559.47	311.29
559.64	203.63
559.80	198.95
559.97	259.80
560.13	294.91
560.30	229.37
560.46	238.73
560.63	257.46
560.79	264.48
560.96	222.35
561.12	280.86
561.29	278.52
561.45	208.31
561.61	252.78
561.78	369.80
561.94	205.97
562.11	224.69
562.27	264.48
562.44	217.67
562.60	311.29
562.77	205.97
562.93	360.44
563.10	269.16
563.26	238.73
563.42	341.72
563.59	301.93
563.75	217.67
563.92	259.80
564.08	245.76
564.24	245.76
564.41	308.95
564.57	287.89
564.74	231.71
564.90	222.35
565.07	236.39
565.23	241.08
565.39	283.20
565.56	236.39
565.72	273.84
565.88	273.84
566.05	276.18
566.21	278.52
566.38	175.54
566.54	250.44
566.70	222.35
566.87	266.82
567.03	227.03
567.19	241.08
567.36	264.48
567.52	212.99
567.68	243.42
567.85	278.52
568.01	177.88
568.17	220.01
568.34	243.42
568.50	315.97
568.66	245.76
568.83	306.61
568.99	304.27
569.15	360.44
569.32	273.84
569.48	285.55
569.64	248.10
569.81	222.35
569.97	306.61
570.13	257.46
570.30	215.33
570.46	229.37
570.62	259.80
570.78	159.16
570.95	168.52
571.11	285.55
571.27	255.12
571.43	250.44
571.60	262.14
571.76	161.50
571.92	208.31
572.09	264.48
572.25	142.77
572.41	243.42
572.57	257.46
572.74	327.68
572.90	287.89
573.06	280.86
573.22	259.80
573.38	330.02
573.55	236.39
573.71	250.44
573.87	250.44
574.03	252.78
574.20	245.76
574.36	266.82
574.52	220.01
574.68	250.44
574.84	304.27
575.01	301.93
575.17	318.31
575.33	255.12
575.49	318.31
575.65	259.80
575.82	330.02
575.98	313.63
576.14	315.97
576.30	290.23
576.46	507.90
576.62	645.99
576.79	730.25
576.95	592.16
577.11	428.32
577.27	308.95
577.43	379.17
577.59	346.40
577.75	304.27
577.92	297.25
578.08	311.29
578.24	222.35
578.40	348.74
578.56	451.72
578.72	664.71
578.88	746.63
579.04	615.56
579.21	447.04
579.37	444.70
579.53	322.99
579.69	407.25
579.85	393.21
580.01	503.22
580.17	496.19
580.33	418.96
580.49	351.08
580.65	325.33
580.82	353.42
580.98	353.42
581.14	362.78
581.30	402.57
581.46	369.80
581.62	383.85
581.78	367.46
581.94	407.25
582.10	332.36
582.26	402.57
582.42	465.77
582.58	440.02
582.74	489.17
582.90	400.23
583.06	411.93
583.22	393.21
583.38	428.32
583.54	461.09
583.70	484.49
583.86	423.64
584.02	475.13
584.18	475.13
584.34	482.15
584.50	379.17
584.66	376.83
584.82	322.99
584.98	383.85
585.14	367.46
585.30	428.32
585.46	393.21
585.62	479.81
585.78	447.04
585.94	409.59
586.10	414.27
586.26	447.04
586.42	435.34
586.58	503.22
586.74	496.19
586.90	545.34
587.06	608.54
587.22	645.99
587.38	568.75
587.54	484.49
587.70	528.96
587.86	395.55
588.02	414.27
588.18	383.85
588.34	369.80
588.49	360.44
588.65	367.46
588.81	280.86
588.97	360.44
589.13	290.23
589.29	383.85
589.45	397.89
589.61	273.84
589.77	299.59
589.93	376.83
590.08	379.17
590.24	327.68
590.40	390.87
590.56	322.99
590.72	306.61
590.88	315.97
591.04	264.48
591.20	376.83
591.35	327.68
591.51	264.48
591.67	285.55
591.83	283.20
591.99	393.21
592.15	397.89
592.31	351.08
592.46	372.15
592.62	477.47
592.78	351.08
592.94	444.70
593.10	407.25
593.26	468.11
593.41	470.45
593.57	423.64
593.73	423.64
593.89	395.55
594.05	369.80
594.20	311.29
594.36	348.74
594.52	278.52
594.68	227.03
594.84	292.57
594.99	332.36
595.15	259.80
595.31	381.51
595.47	318.31
595.62	229.37
595.78	250.44
595.94	294.91
596.10	285.55
596.25	299.59
596.41	262.14
596.57	241.08
596.73	294.91
596.88	330.02
597.04	360.44
597.20	344.06
597.36	339.38
597.51	278.52
597.67	273.84
597.83	322.99
597.99	320.65
598.14	238.73
598.30	372.15
598.46	287.89
598.61	341.72
598.77	301.93
598.93	353.42
599.09	393.21
599.24	353.42
599.40	369.80
599.56	425.98
599.71	416.62
599.87	346.40
600.03	355.76
600.18	320.65
600.34	397.89
600.50	379.17
600.65	339.38
600.81	271.50
600.97	308.95
601.12	330.02
601.28	330.02
601.44	234.05
601.59	346.40
601.75	203.63
601.91	245.76
602.06	337.04
602.22	374.49
602.37	292.57
602.53	156.82
602.69	231.71
602.84	252.78
603.00	311.29
603.16	283.20
603.31	245.76
603.47	292.57
603.62	278.52
603.78	294.91
603.94	397.89
604.09	280.86
604.25	318.31
604.40	294.91
604.56	313.63
604.71	348.74
604.87	283.20
605.03	276.18
605.18	348.74
605.34	280.86
605.49	320.65
605.65	241.08
605.80	308.95
605.96	262.14
606.12	290.23
606.27	283.20
606.43	234.05
606.58	280.86
606.74	271.50
606.89	215.33
607.05	311.29
607.20	362.78
607.36	376.83
607.51	308.95
607.67	355.76
607.82	327.68
607.98	346.40
608.13	376.83
608.29	393.21
608.44	447.04
608.60	440.02
608.75	447.04
608.91	489.17
609.06	486.83
609.22	538.32
609.37	489.17
609.53	617.90
609.68	636.63
609.84	697.48
609.99	746.63
610.15	971.32
610.30	987.71
610.46	1249.85
610.61	1664.12
610.76	1914.56
610.92	2284.36
611.07	2490.33
611.23	2619.06
