SpectraSuite Data File
++++++++++++++++++++++++++++++++++++
Date: Fri Oct 04 11:42:22 GMT-05:00 2013
User: price-jones
Dark Spectrum Present: No
Reference Spectrum Present: No
Number of Sampled Component Spectra: 1
Spectrometers: USB2+H05261
Integration Time (usec): 100000 (USB2+H05261)
Spectra Averaged: 1 (USB2+H05261)
Boxcar Smoothing: 0 (USB2+H05261)
Correct for Electrical Dark: No (USB2+H05261)
Strobe/Lamp Enabled: No (USB2+H05261)
Correct for Detector Non-linearity: No (USB2+H05261)
Correct for Stray Light: No (USB2+H05261)
Number of Pixels in Processed Spectrum: 2048
>>>>>Begin Processed Spectral Data<<<<<
365.73	86.60
365.92	86.60
366.12	86.60
366.32	0.00
366.52	0.00
366.72	0.00
366.91	0.00
367.11	0.00
367.31	0.00
367.51	0.00
367.70	0.00
367.90	0.00
368.10	0.00
368.30	0.00
368.49	0.00
368.69	0.00
368.89	0.00
369.09	0.00
369.28	0.00
369.48	0.00
369.68	0.00
369.87	0.00
370.07	4.68
370.27	44.47
370.47	98.30
370.66	372.15
370.86	517.26
371.06	566.41
371.25	514.92
371.45	505.56
371.65	463.43
371.84	423.64
372.04	395.55
372.24	458.74
372.44	484.49
372.63	498.53
372.83	454.06
373.03	454.06
373.22	334.70
373.42	456.40
373.62	428.32
373.81	535.98
374.01	535.98
374.21	479.81
374.40	376.83
374.60	517.26
374.79	514.92
374.99	585.13
375.19	578.11
375.38	592.16
375.58	641.31
375.78	554.71
375.97	505.56
376.17	643.65
376.37	540.66
376.56	601.52
376.76	645.99
376.95	617.90
377.15	699.82
377.35	770.04
377.54	741.95
377.74	748.97
377.93	704.50
378.13	690.46
378.33	753.65
378.52	655.35
378.72	683.44
378.91	643.65
379.11	603.86
379.31	629.60
379.50	552.37
379.70	692.80
379.89	697.48
380.09	660.03
380.28	685.78
380.48	704.50
380.68	688.12
380.87	636.63
381.07	667.05
381.26	634.29
381.46	617.90
381.65	620.24
381.85	554.71
382.04	580.45
382.24	566.41
382.43	547.69
382.63	510.24
382.83	444.70
383.02	463.43
383.22	524.28
383.41	521.94
383.61	514.92
383.80	557.05
384.00	622.58
384.19	599.18
384.39	685.78
384.58	718.54
384.78	720.88
384.97	709.18
385.17	690.46
385.36	683.44
385.56	596.84
385.75	620.24
385.95	587.47
386.14	702.16
386.34	575.77
386.53	765.36
386.72	645.99
386.92	763.01
387.11	781.74
387.31	732.59
387.50	594.50
387.70	669.39
387.89	697.48
388.09	753.65
388.28	716.20
388.48	805.14
388.67	753.65
388.86	840.25
389.06	910.47
389.25	873.02
389.45	812.17
389.64	917.49
389.84	926.85
390.03	922.17
390.22	887.06
390.42	957.28
390.61	943.24
390.81	1041.54
391.00	999.41
391.19	908.13
391.39	922.17
391.58	901.11
391.78	819.19
391.97	905.79
392.16	695.14
392.36	746.63
392.55	699.82
392.75	589.82
392.94	451.72
393.13	447.04
393.33	507.90
393.52	589.82
393.71	695.14
393.91	734.93
394.10	798.12
394.29	788.76
394.49	908.13
394.68	1090.69
394.88	1083.67
395.07	1104.73
395.26	1018.13
395.46	1048.56
395.65	987.71
395.84	863.66
396.04	868.34
396.23	643.65
396.42	603.86
396.62	559.39
396.81	648.33
397.00	819.19
397.19	863.66
397.39	1057.92
397.58	1165.59
397.77	1118.78
397.97	1240.48
398.16	1196.01
398.35	1259.21
398.55	1289.64
398.74	1299.00
398.93	1416.02
399.12	1291.98
399.32	1357.51
399.51	1364.53
399.70	1460.49
399.90	1446.45
400.09	1397.30
400.28	1406.66
400.47	1418.36
400.67	1460.49
400.86	1448.79
401.05	1509.65
401.24	1500.28
401.44	1406.66
401.63	1509.65
401.82	1451.13
402.01	1556.46
402.21	1591.56
402.40	1657.10
402.59	1434.75
402.78	1465.18
402.97	1446.45
403.17	1535.39
403.36	1519.01
403.55	1554.12
403.74	1568.16
403.93	1563.48
404.13	1462.83
404.32	1497.94
404.51	1458.15
404.70	1643.06
404.89	1544.75
405.09	1596.25
405.28	1483.90
405.47	1526.03
405.66	1495.60
405.85	1537.73
406.05	1476.88
406.24	1462.83
406.43	1469.86
406.62	1605.61
406.81	1624.33
407.00	1533.05
407.20	1486.24
407.39	1563.48
407.58	1488.58
407.77	1540.07
407.96	1732.00
408.15	1724.97
408.34	1729.66
408.54	1734.34
408.73	1673.48
408.92	1657.10
409.11	1720.29
409.30	1652.42
409.49	1523.69
409.68	1343.47
409.87	1371.55
410.07	1380.92
410.26	1483.90
410.45	1654.76
410.64	1717.95
410.83	1671.14
411.02	1764.76
411.21	1778.81
411.40	1778.81
411.59	1781.15
411.78	1736.68
411.98	1781.15
412.17	1715.61
412.36	1818.60
412.55	1825.62
412.74	1741.36
412.93	1809.23
413.12	1727.32
413.31	1863.07
413.50	1886.47
413.69	1846.68
413.88	1874.77
414.07	1820.94
414.26	1802.21
414.45	1909.88
414.64	1982.43
414.83	1856.04
415.02	1898.17
415.22	1849.02
415.41	1942.64
415.60	1909.88
415.79	1994.14
415.98	2108.82
416.17	2139.25
416.36	1863.07
416.55	1921.58
416.74	1944.99
416.93	1806.89
417.12	1909.88
417.31	1844.34
417.50	1884.13
417.69	1991.80
417.88	1944.99
418.07	1919.24
418.26	1886.47
418.45	1893.49
418.64	1973.07
418.83	2092.44
419.02	1956.69
419.21	2085.42
419.39	2066.69
419.58	1879.45
419.77	1898.17
419.96	2003.50
420.15	2003.50
420.34	1989.46
420.53	2155.63
420.72	2246.91
420.91	2211.81
421.10	2167.34
421.29	2162.66
421.48	2141.59
421.67	2076.06
421.86	2040.95
422.05	1961.37
422.24	1823.28
422.43	1809.23
422.61	1856.04
422.80	2001.16
422.99	2054.99
423.18	1987.11
423.37	1959.03
423.56	1914.56
423.75	1944.99
423.94	2092.44
424.13	1907.54
424.32	1919.24
424.50	1968.39
424.69	1947.33
424.88	1858.39
425.07	1921.58
425.26	1907.54
425.45	1888.81
425.64	1902.86
425.83	1818.60
426.01	1998.82
426.20	2076.06
426.39	1956.69
426.58	1856.04
426.77	1657.10
426.96	1685.19
427.15	1591.56
427.33	1792.85
427.52	1891.15
427.71	1874.77
427.90	1853.70
428.09	1809.23
428.28	1933.28
428.46	1825.62
428.65	1900.52
428.84	1823.28
429.03	1921.58
429.22	1743.70
429.40	1783.49
429.59	1565.82
429.78	1378.58
429.97	1462.83
430.16	1439.43
430.34	1387.94
430.53	1495.60
430.72	1465.18
430.91	1540.07
431.10	1785.83
431.28	2099.46
431.47	2211.81
431.66	2174.36
431.85	2101.80
432.03	2045.63
432.22	1893.49
432.41	1902.86
432.60	2225.85
432.79	2172.02
432.97	2183.72
433.16	2143.93
433.35	1909.88
433.54	1834.98
433.72	1750.72
433.91	1792.85
434.10	1872.43
434.28	2080.74
434.47	2183.72
434.66	2265.64
434.85	2017.54
435.03	2150.95
435.22	2246.91
435.41	2836.73
435.59	2715.02
435.78	2633.10
435.97	2548.84
436.16	2452.88
436.34	2392.03
436.53	2310.11
436.72	2356.92
436.90	2265.64
437.09	2169.68
437.28	2085.42
437.46	2214.15
437.65	2115.84
437.84	2057.33
438.02	1905.20
438.21	1919.24
438.40	1973.07
438.58	2181.38
438.77	2172.02
438.96	2291.38
439.14	2272.66
439.33	2289.04
439.52	2340.54
439.70	2319.47
439.89	2380.32
440.08	2256.28
440.26	2230.53
440.45	2363.94
440.63	2464.58
440.82	2593.31
441.01	2497.35
441.19	2485.65
441.38	2537.14
441.57	2583.95
441.75	2518.42
441.94	2644.81
442.12	2609.70
442.31	2647.15
442.50	2719.70
442.68	2607.36
442.87	2651.83
443.05	2565.23
443.24	2616.72
443.43	2565.23
443.61	2553.52
443.80	2523.10
443.98	2621.40
444.17	2532.46
444.35	2715.02
444.54	2649.49
444.73	2750.13
444.91	2532.46
445.10	2483.31
445.28	2375.64
445.47	2363.94
445.65	2424.80
445.84	2410.75
446.02	2532.46
446.21	2527.78
446.39	2471.61
446.58	2541.82
446.77	2651.83
446.95	2768.85
447.14	2696.30
447.32	2937.37
447.51	2810.98
447.69	2644.81
447.88	2576.93
448.06	2719.70
448.25	2651.83
448.43	2621.40
448.62	2609.70
448.80	2691.62
448.99	2586.29
449.17	2637.78
449.36	2506.71
449.54	2696.30
449.73	2857.79
449.91	2937.37
450.10	2899.92
450.28	3052.06
450.46	3002.91
450.65	2949.08
450.83	2939.71
451.02	2792.26
451.20	2747.79
451.39	2750.13
451.57	2799.28
451.76	2803.96
451.94	2794.60
452.13	2710.34
452.31	2693.96
452.49	2487.99
452.68	2497.35
452.86	2558.21
453.05	2649.49
453.23	2626.08
453.42	2708.00
453.60	2792.26
453.78	2794.60
453.97	2782.90
454.15	2726.72
454.34	2700.98
454.52	2658.85
454.70	2787.58
454.89	2710.34
455.07	2651.83
455.26	2689.28
455.44	2827.37
455.62	2906.95
455.81	2970.14
455.99	2885.88
456.17	2832.05
456.36	2853.11
456.54	2932.69
456.73	2899.92
456.91	2935.03
457.09	3023.97
457.28	3012.27
457.46	2878.86
457.64	2939.71
457.83	2916.31
458.01	2761.83
458.19	2773.53
458.38	2794.60
458.56	2963.12
458.74	2843.75
458.93	2860.13
459.11	2888.22
459.29	2815.66
459.48	2808.64
459.66	2799.28
459.84	2913.97
460.03	2923.33
460.21	2979.50
460.39	2967.80
460.57	2928.01
460.76	3096.53
460.94	3054.40
461.12	3023.97
461.31	2897.58
461.49	2935.03
461.67	2860.13
461.85	2918.65
462.04	3042.70
462.22	3126.96
462.40	2995.89
462.59	3150.36
462.77	3087.17
462.95	2904.60
463.13	2890.56
463.32	2979.50
463.50	2923.33
463.68	2995.89
463.86	3007.59
464.05	2888.22
464.23	2885.88
464.41	2759.49
464.59	2712.68
464.78	2981.84
464.96	2965.46
465.14	2850.77
465.32	2892.90
465.50	3026.31
465.69	3075.46
465.87	3000.57
466.05	2757.15
466.23	2717.36
466.41	2686.94
466.60	2808.64
466.78	2808.64
466.96	2839.07
467.14	2883.54
467.32	2993.55
467.51	2857.79
467.69	2738.43
467.87	2855.45
468.05	2846.09
468.23	2974.82
468.41	2944.39
468.60	2902.26
468.78	2939.71
468.96	2799.28
469.14	2888.22
469.32	2993.55
469.50	2956.10
469.69	2883.54
469.87	2775.88
470.05	2857.79
470.23	2953.76
470.41	2862.48
470.59	2808.64
470.77	2832.05
470.95	2918.65
471.14	3016.95
471.32	3129.30
471.50	3061.42
471.68	3197.17
471.86	3026.31
472.04	3045.04
472.22	3173.77
472.40	3047.38
472.58	3016.95
472.77	3047.38
472.95	3019.29
473.13	3040.36
473.31	3098.87
473.49	2965.46
473.67	3056.74
473.85	3190.15
474.03	3141.00
474.21	3234.62
474.39	3178.45
474.57	3251.00
474.75	3148.02
474.93	3229.94
475.12	3066.10
475.30	3173.77
475.48	3150.36
475.66	3215.90
475.84	3150.36
476.02	3075.46
476.20	3066.10
476.38	3014.61
476.56	3169.09
476.74	3262.71
476.92	3279.09
477.10	3449.95
477.28	3389.10
477.46	3459.31
477.64	3438.25
477.82	3412.50
478.00	3468.67
478.18	3356.33
478.36	3459.31
478.54	3351.65
478.72	3323.56
478.90	3522.51
479.08	3583.36
479.26	3651.24
479.44	3714.43
479.62	3562.30
479.80	3517.83
479.98	3597.40
480.16	3658.26
480.34	3597.40
480.52	3588.04
480.70	3709.75
480.88	3634.85
481.06	3742.52
481.24	3712.09
481.41	3868.91
481.59	3999.98
481.77	3882.95
481.95	3983.59
482.13	3885.29
482.31	3854.86
482.49	4046.79
482.67	3967.21
482.85	3908.69
483.03	4042.11
483.21	3887.63
483.39	3927.42
483.57	3878.27
483.74	3948.48
483.92	3927.42
484.10	3887.63
484.28	4030.40
484.46	4154.45
484.64	4067.85
484.82	3978.91
485.00	4049.13
485.18	3957.85
485.35	3768.26
485.53	3609.11
485.71	3229.94
485.89	3173.77
486.07	3410.16
486.25	3730.81
486.43	3852.52
486.61	3889.97
486.78	3927.42
486.96	3929.76
487.14	3868.91
487.32	4081.89
487.50	4257.43
487.68	4322.97
487.85	4400.21
488.03	4472.76
488.21	4311.27
488.39	4180.20
488.57	4231.69
488.75	4173.18
488.92	4524.26
489.10	4432.97
489.28	4727.88
489.46	4727.88
489.64	4833.21
489.81	4919.81
489.99	4919.81
490.17	4865.97
490.35	4947.89
490.53	4657.67
490.70	4755.97
490.88	4861.29
491.06	4840.23
491.24	4765.33
491.41	4674.05
491.59	4521.92
491.77	4355.74
491.95	4608.51
492.13	4723.20
492.30	4744.27
492.48	4994.70
492.66	5085.98
492.84	5170.24
493.01	5022.79
493.19	4922.15
493.37	4882.36
493.54	4835.55
493.72	4898.74
493.90	5001.72
494.08	5156.20
494.25	5301.31
494.43	5343.44
494.61	5256.84
494.79	5371.53
494.96	5441.75
495.14	5329.40
495.32	5034.49
495.49	4983.00
495.67	5050.88
495.85	5439.40
496.02	5458.13
496.20	5385.57
496.38	5338.76
496.55	5364.51
496.73	5359.83
496.91	5352.81
497.09	5652.39
497.26	5582.18
497.44	5584.52
497.62	5287.27
497.79	5231.10
497.97	5029.81
498.14	5125.77
498.32	5142.16
498.50	5521.32
498.67	5486.22
498.85	5430.04
499.03	5418.34
499.20	5617.29
499.38	5565.79
499.56	5523.66
499.73	5500.26
499.91	5228.76
500.08	5280.25
500.26	5214.71
500.44	5186.63
500.61	5324.72
500.79	5217.05
500.97	5327.06
501.14	5413.66
501.32	5170.24
501.49	5144.50
501.67	5100.03
501.84	5298.97
502.02	5399.62
502.20	5308.34
502.37	5345.78
502.55	5238.12
502.72	5317.70
502.90	5537.71
503.07	5472.17
503.25	5359.83
503.43	5107.05
503.60	4929.17
503.78	4898.74
503.95	4968.96
504.13	5303.65
504.30	5369.19
504.48	5458.13
504.65	5607.92
504.83	5547.07
505.01	5621.97
505.18	5579.84
505.36	5636.01
505.53	5626.65
505.71	5682.82
505.88	5694.52
506.06	5689.84
506.23	5593.88
506.41	5507.28
506.58	5467.49
506.76	5619.63
506.93	5570.48
507.11	5521.32
507.28	5521.32
507.46	5479.19
507.63	5392.59
507.81	5310.68
507.98	5441.75
508.16	5523.66
508.33	5678.14
508.50	5664.10
508.68	5694.52
508.85	5790.49
509.03	5809.21
509.20	5877.09
509.38	5671.12
509.55	5535.37
509.73	5434.72
509.90	5757.72
510.08	5652.39
510.25	5783.46
510.42	5748.36
510.60	5790.49
510.77	5717.93
510.95	5968.37
511.12	5870.06
511.30	5884.11
511.47	6155.61
511.64	6059.65
511.82	5966.03
511.99	5738.99
512.17	5624.31
512.34	5619.63
512.51	5636.01
512.69	5785.80
512.86	5605.58
513.04	6017.52
513.21	5771.76
513.38	5811.55
513.56	5650.05
513.73	5610.26
513.90	5528.35
514.08	5526.00
514.25	5640.69
514.43	5746.02
514.60	5692.18
514.77	5851.34
514.95	5884.11
515.12	5760.06
515.29	5757.72
515.47	5888.79
515.64	5874.74
515.81	5727.29
515.99	5727.29
516.16	5453.45
516.33	5067.26
516.51	4835.55
516.68	4706.82
516.85	4629.58
517.03	4856.61
517.20	5074.28
517.37	5355.15
517.54	5809.21
517.72	5860.70
517.89	5310.68
518.06	4873.00
518.24	4903.42
518.41	5268.55
518.58	5582.18
518.75	5472.17
518.93	5696.86
519.10	5575.16
519.27	5647.71
519.45	5736.65
519.62	5867.72
519.79	5947.30
519.96	5825.59
520.14	5872.40
520.31	5696.86
520.48	5621.97
520.65	5692.18
520.83	5928.58
521.00	5919.21
521.17	5872.40
521.34	5825.59
521.52	5818.57
521.69	5944.96
521.86	5973.05
522.03	6019.86
522.20	5781.12
522.38	5394.93
522.55	5654.73
522.72	5628.99
522.89	5692.18
523.07	6031.56
523.24	5788.14
523.41	5893.47
523.58	5987.09
523.75	6211.78
523.92	6022.20
524.10	5947.30
524.27	6071.35
524.44	6150.93
524.61	6188.38
524.78	6008.16
524.96	5956.66
525.13	5954.32
525.30	6052.63
525.47	6176.67
525.64	6083.05
525.81	5980.07
525.98	5593.88
526.16	5511.96
526.33	5217.05
526.50	5373.87
526.67	5160.88
526.84	5158.54
527.01	5406.64
527.18	5425.36
527.36	5771.76
527.53	5888.79
527.70	6087.73
527.87	5823.25
528.04	5881.77
528.21	5867.72
528.38	5961.34
528.55	6431.79
528.72	6272.64
528.89	6274.98
529.07	6218.80
529.24	6127.52
529.41	5951.98
529.58	5748.36
529.75	5753.04
529.92	5930.92
530.09	6047.94
530.26	6162.63
530.43	6162.63
530.60	6251.57
530.77	6174.33
530.94	6305.40
531.11	6232.85
531.28	6195.40
531.46	6118.16
531.63	6033.90
531.80	6024.54
531.97	5970.71
532.14	5792.83
532.31	5661.76
532.48	5486.22
532.65	5472.17
532.82	5561.11
532.99	5769.42
533.16	6087.73
533.33	6052.63
533.50	5984.75
533.67	6066.67
533.84	5893.47
534.01	5975.39
534.18	5713.25
534.35	5912.19
534.52	6043.26
534.69	6087.73
534.86	5996.45
535.03	5893.47
535.20	6200.08
535.37	6366.26
535.54	6396.68
535.71	6333.49
535.88	6349.87
536.05	6036.24
536.22	6061.99
536.38	5879.43
536.55	5724.95
536.72	5696.86
536.89	5832.62
537.06	5818.57
537.23	5987.09
537.40	6153.27
537.57	6207.10
537.74	5973.05
537.91	6270.30
538.08	6108.80
538.25	5998.79
538.42	6235.19
538.59	6015.18
538.75	5956.66
538.92	5975.39
539.09	5841.98
539.26	5706.23
539.43	5865.38
539.60	5884.11
539.77	6024.54
539.94	5905.17
540.11	5771.76
540.28	5572.82
540.44	5638.35
540.61	5575.16
540.78	5746.02
540.95	5987.09
541.12	6087.73
541.29	6125.18
541.46	6293.70
541.62	6221.14
541.79	6225.82
541.96	6176.67
542.13	6050.28
542.30	6097.10
542.47	6200.08
542.63	6012.84
542.80	6125.18
542.97	6106.46
543.14	6029.22
543.31	6057.31
543.48	5991.77
543.64	6258.59
543.81	6408.39
543.98	6506.69
544.15	6118.16
544.32	6148.59
544.48	6033.90
544.65	6132.20
544.82	6300.72
544.99	6073.69
545.16	6045.60
545.32	6087.73
545.49	6670.53
545.66	7030.97
545.83	7265.02
546.00	6960.75
546.16	6612.01
546.33	6244.55
546.50	6080.71
546.67	6221.14
546.83	6001.13
547.00	6071.35
547.17	6118.16
547.34	5867.72
547.50	5858.36
547.67	5944.96
547.84	5937.94
548.00	5996.45
548.17	5888.79
548.34	5921.56
548.51	6001.13
548.67	5982.41
548.84	5982.41
549.01	5888.79
549.18	6057.31
549.34	5877.09
549.51	5884.11
549.68	5902.83
549.84	5844.32
550.01	5949.64
550.18	5881.77
550.34	5909.85
550.51	5748.36
550.68	5963.68
550.84	5966.03
551.01	5755.38
551.18	5713.25
551.34	5640.69
551.51	5682.82
551.68	5949.64
551.84	5914.53
552.01	5792.83
552.18	5781.12
552.34	5643.03
552.51	5643.03
552.68	5556.43
552.84	5858.36
553.01	5694.52
553.18	5830.27
553.34	5818.57
553.51	5760.06
553.67	5783.46
553.84	5586.86
554.01	5706.23
554.17	5757.72
554.34	5879.43
554.51	5764.74
554.67	5799.85
554.84	5891.13
555.00	5661.76
555.17	5734.31
555.33	5806.87
555.50	5722.61
555.67	5710.91
555.83	5554.09
556.00	5628.99
556.16	5804.53
556.33	5589.20
556.50	5348.12
556.66	5563.45
556.83	5378.55
556.99	5291.95
557.16	5427.70
557.32	5455.79
557.49	5460.47
557.65	5530.69
557.82	5638.35
557.98	5584.52
558.15	5568.13
558.32	5476.85
558.48	5167.90
558.65	5114.07
558.81	5242.80
558.98	5205.35
559.14	5399.62
559.31	5301.31
559.47	5507.28
559.64	5203.01
559.80	5212.37
559.97	5341.10
560.13	5343.44
560.30	5596.22
560.46	5596.22
560.63	5682.82
560.79	5638.35
560.96	5418.34
561.12	5348.12
561.29	5231.10
561.45	5305.99
561.61	5357.49
561.78	5343.44
561.94	5380.89
562.11	5338.76
562.27	5270.89
562.44	5401.96
562.60	5490.90
562.77	5495.58
562.93	5331.74
563.10	5420.68
563.26	5453.45
563.42	5401.96
563.59	5418.34
563.75	5345.78
563.92	5317.70
564.08	5277.91
564.24	5313.02
564.41	5434.72
564.57	5385.57
564.74	5291.95
564.90	5352.81
565.07	5350.46
565.23	5107.05
565.39	5160.88
565.56	5034.49
565.72	5170.24
565.88	5123.43
566.05	5137.48
566.21	5207.69
566.38	5165.56
566.54	5107.05
566.70	5107.05
566.87	5200.67
567.03	5221.74
567.19	5188.97
567.36	5132.79
567.52	5123.43
567.68	5198.33
567.85	5020.45
568.01	4779.37
568.17	4929.17
568.34	4802.78
568.50	4870.65
568.66	4812.14
568.83	4861.29
568.99	4814.48
569.15	4987.68
569.32	4903.42
569.48	4870.65
569.64	4695.11
569.81	4835.55
569.97	4901.08
570.13	4833.21
570.30	4844.91
570.46	4751.29
570.62	4622.56
570.78	4587.45
570.95	4650.64
571.11	4791.08
571.27	4896.40
571.43	4842.57
571.60	4863.63
571.76	4931.51
571.92	4849.59
572.09	4924.49
572.25	4730.22
572.41	4816.82
572.57	4844.91
572.74	4959.60
572.90	4877.68
573.06	4931.51
573.22	4751.29
573.38	4875.34
573.55	4865.97
573.71	4800.44
573.87	4858.95
574.03	4777.03
574.20	4650.64
574.36	4734.90
574.52	4758.31
574.68	4676.39
574.84	4638.94
575.01	4578.09
575.17	4657.67
575.33	4547.66
575.49	4732.56
575.65	4695.11
575.82	4683.41
575.98	4484.47
576.14	4667.03
576.30	4720.86
576.46	4915.12
576.62	4971.30
576.79	4854.27
576.95	4844.91
577.11	4842.57
577.27	4791.08
577.43	4774.69
577.59	4725.54
577.75	4557.02
577.92	4512.55
578.08	4432.97
578.24	4660.01
578.40	4573.41
578.56	4791.08
578.72	4760.65
578.88	4802.78
579.04	4702.14
579.21	4863.63
579.37	4849.59
579.53	4699.80
579.69	4622.56
579.85	4697.46
580.01	4889.38
580.17	4720.86
580.33	4732.56
580.49	4674.05
580.65	4863.63
580.82	4725.54
580.98	4725.54
581.14	4683.41
581.30	4723.20
581.46	4720.86
581.62	4844.91
581.78	4690.43
581.94	4720.86
582.10	4758.31
582.26	4760.65
582.42	4720.86
582.58	4793.42
582.74	4805.12
582.90	4805.12
583.06	4809.80
583.22	4777.03
583.38	4805.12
583.54	4786.40
583.70	4753.63
583.86	4800.44
584.02	4667.03
584.18	4873.00
584.34	4786.40
584.50	4578.09
584.66	4784.06
584.82	4711.50
584.98	4676.39
585.14	4610.86
585.30	4514.89
585.46	4461.06
585.62	4535.96
585.78	4517.23
585.94	4610.86
586.10	4493.83
586.26	4503.19
586.42	4514.89
586.58	4643.62
586.74	4629.58
586.90	4592.13
587.06	4482.13
587.22	4645.96
587.38	4407.23
587.54	4498.51
587.70	4299.56
587.86	4091.26
588.02	4133.39
588.18	3969.55
588.34	3819.75
588.49	3611.45
588.65	3358.67
588.81	3288.45
588.97	3314.20
589.13	3351.65
589.29	3314.20
589.45	3265.05
589.61	3346.97
589.77	3358.67
589.93	3665.28
590.08	3604.42
590.24	3716.77
590.40	3922.74
590.56	3782.31
590.72	3843.16
590.88	3756.56
591.04	3747.20
591.20	3843.16
591.35	3705.07
591.51	3644.21
591.67	3712.09
591.83	3658.26
591.99	3634.85
592.15	3691.02
592.31	3866.56
592.46	3889.97
592.62	3997.64
592.78	4046.79
592.94	3934.44
593.10	4021.04
593.26	4088.92
593.41	4234.03
593.57	4016.36
593.73	3824.44
593.89	3681.66
594.05	3571.66
594.20	3506.12
594.36	3466.33
594.52	3595.06
594.68	3503.78
594.84	3538.89
594.99	3908.69
595.15	3857.20
595.31	3836.14
595.47	3852.52
595.62	3833.80
595.78	3852.52
595.94	3918.06
596.10	4007.00
596.25	3843.16
596.41	3810.39
596.57	3709.75
596.73	3929.76
596.88	3899.33
597.04	3873.59
597.20	3852.52
597.36	3920.40
597.51	3716.77
597.67	3864.22
597.83	3894.65
