SpectraSuite Data File
++++++++++++++++++++++++++++++++++++
Date: Fri Oct 04 11:42:13 GMT-05:00 2013
User: price-jones
Dark Spectrum Present: No
Reference Spectrum Present: No
Number of Sampled Component Spectra: 1
Spectrometers: USB2+H05261
Integration Time (usec): 100000 (USB2+H05261)
Spectra Averaged: 1 (USB2+H05261)
Boxcar Smoothing: 0 (USB2+H05261)
Correct for Electrical Dark: No (USB2+H05261)
Strobe/Lamp Enabled: No (USB2+H05261)
Correct for Detector Non-linearity: No (USB2+H05261)
Correct for Stray Light: No (USB2+H05261)
Number of Pixels in Processed Spectrum: 2048
>>>>>Begin Processed Spectral Data<<<<<
365.73	14.04
365.92	14.04
366.12	14.04
366.32	0.00
366.52	0.00
366.72	0.00
366.91	0.00
367.11	0.00
367.31	0.00
367.51	0.00
367.70	0.00
367.90	0.00
368.10	0.00
368.30	0.00
368.49	0.00
368.69	7.02
368.89	0.00
369.09	0.00
369.28	0.00
369.48	25.75
369.68	25.75
369.87	16.38
370.07	0.00
370.27	30.43
370.47	16.38
370.66	53.83
370.86	67.88
371.06	39.79
371.25	74.90
371.45	42.13
371.65	49.15
371.84	67.88
372.04	46.81
372.24	124.05
372.44	93.62
372.63	135.75
372.83	131.07
373.03	156.82
373.22	98.30
373.42	110.01
373.62	84.26
373.81	161.50
374.01	189.58
374.21	170.86
374.40	182.56
374.60	166.18
374.79	194.26
374.99	65.54
375.19	149.79
375.38	119.37
375.58	159.16
375.78	133.41
375.97	81.92
376.17	173.20
376.37	135.75
376.56	88.94
376.76	173.20
376.95	128.73
377.15	166.18
377.35	163.84
377.54	107.66
377.74	77.24
377.93	163.84
378.13	152.13
378.33	107.66
378.52	142.77
378.72	175.54
378.91	154.48
379.11	95.96
379.31	161.50
379.50	133.41
379.70	84.26
379.89	74.90
380.09	88.94
380.28	198.95
380.48	110.01
380.68	110.01
380.87	196.60
381.07	163.84
381.26	166.18
381.46	53.83
381.65	93.62
381.85	112.35
382.04	107.66
382.24	156.82
382.43	112.35
382.63	128.73
382.83	147.45
383.02	177.88
383.22	131.07
383.41	131.07
383.61	95.96
383.80	42.13
384.00	117.03
384.19	135.75
384.39	128.73
384.58	173.20
384.78	110.01
384.97	65.54
385.17	119.37
385.36	105.32
385.56	93.62
385.75	140.43
385.95	156.82
386.14	138.09
386.34	126.39
386.53	51.49
386.72	81.92
386.92	112.35
387.11	159.16
387.31	177.88
387.50	58.51
387.70	170.86
387.89	110.01
388.09	142.77
388.28	121.71
388.48	70.22
388.67	119.37
388.86	145.11
389.06	98.30
389.25	124.05
389.45	56.17
389.64	152.13
389.84	126.39
390.03	60.85
390.22	154.48
390.42	196.60
390.61	124.05
390.81	51.49
391.00	102.98
391.19	112.35
391.39	138.09
391.58	65.54
391.78	149.79
391.97	180.22
392.16	117.03
392.36	161.50
392.55	166.18
392.75	91.28
392.94	102.98
393.13	201.29
393.33	147.45
393.52	112.35
393.71	161.50
393.91	124.05
394.10	121.71
394.29	112.35
394.49	79.58
394.68	140.43
394.88	114.69
395.07	131.07
395.26	88.94
395.46	44.47
395.65	81.92
395.84	58.51
396.04	110.01
396.23	161.50
396.42	84.26
396.62	147.45
396.81	248.10
397.00	95.96
397.19	140.43
397.39	117.03
397.58	166.18
397.77	142.77
397.97	102.98
398.16	86.60
398.35	119.37
398.55	191.92
398.74	107.66
398.93	191.92
399.12	135.75
399.32	135.75
399.51	81.92
399.70	110.01
399.90	117.03
400.09	121.71
400.28	177.88
400.47	91.28
400.67	210.65
400.86	161.50
401.05	142.77
401.24	154.48
401.44	212.99
401.63	177.88
401.82	210.65
402.01	201.29
402.21	168.52
402.40	173.20
402.59	149.79
402.78	159.16
402.97	217.67
403.17	222.35
403.36	184.90
403.55	292.57
403.74	683.44
403.93	1832.64
404.13	4400.21
404.32	5914.53
404.51	4823.84
404.70	3159.72
404.89	1142.18
405.09	449.38
405.28	262.14
405.47	170.86
405.66	236.39
405.85	187.24
406.05	205.97
406.24	149.79
406.43	98.30
406.62	105.32
406.81	184.90
407.00	269.16
407.20	568.75
407.39	800.46
407.58	884.72
407.77	587.47
407.96	318.31
408.15	212.99
408.34	184.90
408.54	224.69
408.73	159.16
408.92	217.67
409.11	205.97
409.30	175.54
409.49	168.52
409.68	149.79
409.87	215.33
410.07	149.79
410.26	166.18
410.45	128.73
410.64	203.63
410.83	166.18
411.02	147.45
411.21	175.54
411.40	243.42
411.59	255.12
411.78	187.24
411.98	121.71
412.17	168.52
412.36	187.24
412.55	194.26
412.74	236.39
412.93	217.67
413.12	243.42
413.31	175.54
413.50	149.79
413.69	248.10
413.88	163.84
414.07	245.76
414.26	149.79
414.45	182.56
414.64	215.33
414.83	215.33
415.02	208.31
415.22	227.03
415.41	227.03
415.60	234.05
415.79	231.71
415.98	245.76
416.17	243.42
416.36	236.39
416.55	208.31
416.74	337.04
416.93	297.25
417.12	236.39
417.31	187.24
417.50	222.35
417.69	248.10
417.88	220.01
418.07	194.26
418.26	220.01
418.45	241.08
418.64	301.93
418.83	217.67
419.02	234.05
419.21	241.08
419.39	248.10
419.58	210.65
419.77	210.65
419.96	259.80
420.15	273.84
420.34	311.29
420.53	259.80
420.72	287.89
420.91	170.86
421.10	311.29
421.29	271.50
421.48	262.14
421.67	313.63
421.86	276.18
422.05	224.69
422.24	262.14
422.43	299.59
422.61	322.99
422.80	229.37
422.99	217.67
423.18	248.10
423.37	234.05
423.56	290.23
423.75	278.52
423.94	222.35
424.13	315.97
424.32	220.01
424.50	255.12
424.69	262.14
424.88	355.76
425.07	250.44
425.26	320.65
425.45	255.12
425.64	320.65
425.83	269.16
426.01	266.82
426.20	339.38
426.39	262.14
426.58	285.55
426.77	332.36
426.96	315.97
427.15	259.80
427.33	278.52
427.52	320.65
427.71	273.84
427.90	327.68
428.09	299.59
428.28	287.89
428.46	301.93
428.65	313.63
428.84	283.20
429.03	315.97
429.22	304.27
429.40	322.99
429.59	320.65
429.78	346.40
429.97	248.10
430.16	264.48
430.34	273.84
430.53	365.12
430.72	287.89
430.91	308.95
431.10	255.12
431.28	346.40
431.47	315.97
431.66	346.40
431.85	425.98
432.03	381.51
432.22	491.51
432.41	430.66
432.60	407.25
432.79	355.76
432.97	430.66
433.16	435.34
433.35	395.55
433.54	482.15
433.72	634.29
433.91	571.09
434.10	528.96
434.28	695.14
434.47	814.51
434.66	947.92
434.85	1100.05
435.03	3030.99
435.22	11211.17
435.41	25319.92
435.59	26370.82
435.78	17034.42
435.97	8194.22
436.16	3141.00
436.34	1184.31
436.53	744.29
436.72	617.90
436.90	573.43
437.09	498.53
437.28	416.62
437.46	465.77
437.65	395.55
437.84	458.74
438.02	390.87
438.21	393.21
438.40	421.30
438.58	423.64
438.77	386.19
438.96	418.96
439.14	322.99
439.33	433.00
439.52	332.36
439.70	376.83
439.89	379.17
440.08	423.64
440.26	416.62
440.45	358.10
440.63	449.38
440.82	451.72
441.01	393.21
441.19	409.59
441.38	365.12
441.57	393.21
441.75	428.32
441.94	479.81
442.12	383.85
442.31	381.51
442.50	362.78
442.68	393.21
442.87	423.64
443.05	327.68
443.24	421.30
443.43	447.04
443.61	442.36
443.80	437.68
443.98	376.83
444.17	383.85
444.35	407.25
444.54	390.87
444.73	400.23
444.91	521.94
445.10	440.02
445.28	360.44
445.47	528.96
445.65	390.87
445.84	411.93
446.02	397.89
446.21	404.91
446.39	397.89
446.58	407.25
446.77	393.21
446.95	344.06
447.14	400.23
447.32	411.93
447.51	407.25
447.69	475.13
447.88	414.27
448.06	444.70
448.25	393.21
448.43	421.30
448.62	365.12
448.80	416.62
448.99	425.98
449.17	404.91
449.36	407.25
449.54	395.55
449.73	414.27
449.91	374.49
450.10	351.08
450.28	449.38
450.46	472.79
450.65	421.30
450.83	416.62
451.02	407.25
451.20	400.23
451.39	437.68
451.57	351.08
451.76	395.55
451.94	404.91
452.13	416.62
452.31	435.34
452.49	367.46
452.68	325.33
452.86	362.78
453.05	449.38
453.23	404.91
453.42	339.38
453.60	393.21
453.78	353.42
453.97	381.51
454.15	285.55
454.34	454.06
454.52	388.53
454.70	400.23
454.89	468.11
455.07	376.83
455.26	369.80
455.44	444.70
455.62	376.83
455.81	409.59
455.99	430.66
456.17	313.63
456.36	407.25
456.54	421.30
456.73	339.38
456.91	397.89
457.09	374.49
457.28	451.72
457.46	367.46
457.64	383.85
457.83	337.04
458.01	404.91
458.19	341.72
458.38	341.72
458.56	383.85
458.74	348.74
458.93	367.46
459.11	351.08
459.29	409.59
459.48	456.40
459.66	344.06
459.84	468.11
460.03	493.85
460.21	348.74
460.39	407.25
460.57	388.53
460.76	437.68
460.94	416.62
461.12	458.74
461.31	376.83
461.49	362.78
461.67	358.10
461.85	454.06
462.04	351.08
462.22	552.37
462.40	334.70
462.59	407.25
462.77	381.51
462.95	383.85
463.13	390.87
463.32	447.04
463.50	344.06
463.68	407.25
463.86	358.10
464.05	334.70
464.23	435.34
464.41	348.74
464.59	421.30
464.78	402.57
464.96	379.17
465.14	369.80
465.32	402.57
465.50	393.21
465.69	437.68
465.87	320.65
466.05	498.53
466.23	337.04
466.41	362.78
466.60	376.83
466.78	421.30
466.96	416.62
467.14	435.34
467.32	407.25
467.51	428.32
467.69	428.32
467.87	376.83
468.05	292.57
468.23	386.19
468.41	327.68
468.60	381.51
468.78	362.78
468.96	402.57
469.14	346.40
469.32	287.89
469.50	353.42
469.69	376.83
469.87	376.83
470.05	360.44
470.23	435.34
470.41	308.95
470.59	360.44
470.77	421.30
470.95	407.25
471.14	372.15
471.32	369.80
471.50	414.27
471.68	400.23
471.86	397.89
472.04	325.33
472.22	330.02
472.40	376.83
472.58	383.85
472.77	290.23
472.95	301.93
473.13	372.15
473.31	365.12
473.49	313.63
473.67	365.12
473.85	355.76
474.03	390.87
474.21	351.08
474.39	411.93
474.57	428.32
474.75	339.38
474.93	276.18
475.12	322.99
475.30	304.27
475.48	337.04
475.66	402.57
475.84	360.44
476.02	327.68
476.20	369.80
476.38	433.00
476.56	411.93
476.74	320.65
476.92	458.74
477.10	400.23
477.28	351.08
477.46	402.57
477.64	404.91
477.82	411.93
478.00	353.42
478.18	437.68
478.36	423.64
478.54	437.68
478.72	435.34
478.90	458.74
479.08	423.64
479.26	365.12
479.44	468.11
479.62	477.47
479.80	493.85
479.98	454.06
480.16	521.94
480.34	512.58
480.52	559.39
480.70	557.05
480.88	599.18
481.06	610.88
481.24	641.31
481.41	713.86
481.59	760.67
481.77	791.10
481.95	807.48
482.13	866.00
482.31	844.93
482.49	938.55
482.67	1025.15
482.85	926.85
483.03	1214.74
483.21	1144.52
483.39	1282.61
483.57	1355.17
483.74	1542.41
483.92	1451.13
484.10	1476.88
484.28	1629.01
484.46	1799.87
484.64	1849.02
484.82	1820.94
485.00	1987.11
485.18	2115.84
485.35	2211.81
485.53	2333.51
485.71	2366.28
485.89	2499.69
486.07	2541.82
486.25	2633.10
486.43	2567.57
486.61	2562.89
486.78	2567.57
486.96	2513.74
487.14	2724.38
487.32	2551.18
487.50	2511.39
487.68	2560.55
487.85	2511.39
488.03	2450.54
488.21	2450.54
488.39	2375.64
488.57	2363.94
488.75	2289.04
488.92	2473.95
489.10	2216.49
489.28	2195.42
489.46	2043.29
489.64	2050.31
489.81	2080.74
489.99	2113.50
490.17	1989.46
490.35	1973.07
490.53	1881.79
490.70	2017.54
490.88	1905.20
491.06	1987.11
491.24	2267.98
491.41	2277.34
491.59	2120.53
491.77	1944.99
491.95	1830.30
492.13	1802.21
492.30	1713.27
492.48	1722.63
492.66	1781.15
492.84	1720.29
493.01	1636.03
493.19	1710.93
493.37	1673.48
493.54	1596.25
493.72	1699.23
493.90	1535.39
494.08	1511.99
494.25	1593.90
494.43	1591.56
494.61	1509.65
494.79	1357.51
494.96	1462.83
495.14	1439.43
495.32	1369.21
495.49	1399.64
495.67	1376.24
495.85	1303.68
496.02	1315.38
496.20	1357.51
496.38	1392.62
496.55	1242.82
496.73	1387.94
496.91	1254.53
497.09	1226.44
497.26	1205.38
497.44	1153.88
497.62	1177.29
497.79	1233.46
497.97	1165.59
498.14	1111.75
498.32	1100.05
498.50	1090.69
498.67	1078.99
498.85	1029.84
499.03	882.38
499.20	973.66
499.38	924.51
499.56	964.30
499.73	985.37
499.91	973.66
500.08	971.32
500.26	826.21
500.44	837.91
500.61	835.57
500.79	741.95
500.97	706.84
501.14	765.36
501.32	781.74
501.49	760.67
501.67	622.58
501.84	746.63
502.02	643.65
502.20	772.38
502.37	723.23
502.55	636.63
502.72	538.32
502.90	592.16
503.07	573.43
503.25	587.47
503.43	557.05
503.60	510.24
503.78	561.73
503.95	524.28
504.13	500.87
504.30	496.19
504.48	519.60
504.65	564.07
504.83	519.60
505.01	505.56
505.18	416.62
505.36	477.47
505.53	517.26
505.71	547.69
505.88	582.79
506.06	442.36
506.23	496.19
506.41	486.83
506.58	489.17
506.76	472.79
506.93	388.53
507.11	390.87
507.28	531.30
507.46	400.23
507.63	489.17
507.81	496.19
507.98	379.17
508.16	437.68
508.33	440.02
508.50	456.40
508.68	407.25
508.85	496.19
509.03	519.60
509.20	475.13
509.38	500.87
509.55	514.92
509.73	433.00
509.90	433.00
510.08	486.83
510.25	491.51
510.42	393.21
510.60	381.51
510.77	503.22
510.95	451.72
511.12	418.96
511.30	379.17
511.47	404.91
511.64	390.87
511.82	444.70
511.99	360.44
512.17	465.77
512.34	390.87
512.51	313.63
512.69	433.00
512.86	400.23
513.04	404.91
513.21	421.30
513.38	397.89
513.56	376.83
513.73	351.08
513.90	339.38
514.08	365.12
514.25	479.81
514.43	313.63
514.60	360.44
514.77	308.95
514.95	269.16
515.12	381.51
515.29	315.97
515.47	337.04
515.64	353.42
515.81	341.72
515.99	360.44
516.16	266.82
516.33	409.59
516.51	337.04
516.68	414.27
516.85	294.91
517.03	372.15
517.20	372.15
517.37	360.44
517.54	393.21
517.72	369.80
517.89	299.59
518.06	346.40
518.24	421.30
518.41	407.25
518.58	330.02
518.75	344.06
518.93	400.23
519.10	318.31
519.27	294.91
519.45	283.20
519.62	308.95
519.79	386.19
519.96	308.95
520.14	339.38
520.31	430.66
520.48	337.04
520.65	308.95
520.83	421.30
521.00	320.65
521.17	369.80
521.34	365.12
521.52	358.10
521.69	315.97
521.86	348.74
522.03	346.40
522.20	322.99
522.38	318.31
522.55	297.25
522.72	299.59
522.89	402.57
523.07	421.30
523.24	341.72
523.41	297.25
523.58	358.10
523.75	374.49
523.92	334.70
524.10	421.30
524.27	320.65
524.44	369.80
524.61	404.91
524.78	262.14
524.96	348.74
525.13	367.46
525.30	404.91
525.47	409.59
525.64	353.42
525.81	472.79
525.98	334.70
526.16	334.70
526.33	404.91
526.50	360.44
526.67	395.55
526.84	355.76
527.01	407.25
527.18	428.32
527.36	425.98
527.53	484.49
527.70	517.26
527.87	414.27
528.04	498.53
528.21	381.51
528.38	477.47
528.55	425.98
528.72	482.15
528.89	491.51
529.07	315.97
529.24	404.91
529.41	435.34
529.58	440.02
529.75	381.51
529.92	491.51
530.09	491.51
530.26	512.58
530.43	479.81
530.60	519.60
530.77	437.68
530.94	547.69
531.11	554.71
531.28	547.69
531.46	528.96
531.63	613.22
531.80	599.18
531.97	676.41
532.14	725.57
532.31	770.04
532.48	849.61
532.65	1050.90
532.82	1083.67
532.99	1406.66
533.16	1605.61
533.33	1549.43
533.50	1519.01
533.67	1259.21
533.84	1181.97
534.01	968.98
534.18	877.70
534.35	922.17
534.52	945.58
534.69	976.00
534.86	976.00
535.03	954.94
535.20	1025.15
535.37	1107.07
535.54	1174.95
535.71	1287.29
535.88	1291.98
536.05	1364.53
536.22	1558.80
536.38	1668.80
536.55	1694.55
536.72	1961.37
536.89	2062.01
537.06	2289.04
537.23	2665.87
537.40	2867.16
537.57	3070.78
537.74	3335.26
537.91	3496.76
538.08	3403.14
538.25	3447.61
538.42	3447.61
538.59	3534.21
538.75	3693.37
538.92	3918.06
539.09	4341.69
539.26	4706.82
539.43	5203.01
539.60	6001.13
539.77	6630.74
539.94	7541.21
540.11	8404.86
540.28	9041.49
540.44	9958.98
540.61	11030.94
540.78	12568.68
540.95	15264.97
541.12	18354.48
541.29	20402.45
541.46	21252.06
541.62	20938.43
541.79	19908.60
541.96	18555.77
542.13	17549.34
542.30	16189.49
542.47	15482.64
542.63	14684.52
542.80	14108.75
542.97	13586.81
543.14	13664.05
543.31	13694.47
543.48	13825.54
543.64	13879.38
543.81	14157.90
543.98	13973.00
544.15	14473.87
544.32	14045.55
544.48	14356.85
544.65	14059.60
544.82	13996.40
544.99	13682.77
545.16	14483.24
545.32	15236.89
545.49	25289.49
545.66	47533.94
545.83	55128.98
546.00	49586.59
546.16	33886.28
546.33	25387.79
546.50	18623.64
546.67	14689.20
546.83	12943.16
547.00	12283.13
547.17	12013.97
547.34	10974.77
547.50	10834.34
547.67	10490.28
547.84	9991.75
548.00	9582.15
548.17	9331.72
548.34	8910.42
548.51	8505.51
548.67	8098.25
548.84	7793.98
549.01	7375.03
549.18	7094.16
549.34	6792.23
549.51	6754.79
549.68	6389.66
549.84	6169.65
550.01	5884.11
550.18	5596.22
550.34	5462.81
550.51	5195.99
550.68	4936.19
550.84	4603.83
551.01	4578.09
551.18	4138.07
551.34	3939.12
551.51	3791.67
551.68	3515.48
551.84	3557.61
552.01	3405.48
552.18	3232.28
552.34	3054.40
552.51	3012.27
552.68	2888.22
552.84	2801.62
553.01	2682.25
553.18	2619.06
553.34	2520.76
553.51	2441.18
553.67	2389.69
553.84	2267.98
554.01	2113.50
554.17	1998.82
554.34	1849.02
554.51	1778.81
554.67	1720.29
554.84	1682.85
555.00	1523.69
555.17	1448.79
555.33	1467.52
555.50	1401.98
555.67	1306.02
555.83	1315.38
556.00	1132.82
556.16	1212.40
556.33	1151.54
556.50	1043.88
556.66	1095.37
556.83	889.40
556.99	875.36
557.16	976.00
557.32	924.51
557.49	1022.81
557.65	896.43
557.82	709.18
557.98	891.74
558.15	777.06
558.32	910.47
558.48	819.19
558.65	840.25
558.81	795.78
558.98	676.41
559.14	777.06
559.31	753.65
559.47	807.48
559.64	692.80
559.80	772.38
559.97	617.90
560.13	739.61
560.30	725.57
560.46	655.35
560.63	688.12
560.79	685.78
560.96	739.61
561.12	741.95
561.29	638.97
561.45	610.88
561.61	690.46
561.78	685.78
561.94	608.54
562.11	688.12
562.27	631.94
562.44	683.44
562.60	667.05
562.77	664.71
562.93	664.71
563.10	601.52
563.26	533.64
563.42	631.94
563.59	585.13
563.75	594.50
563.92	631.94
564.08	587.47
564.24	561.73
564.41	622.58
564.57	543.00
564.74	580.45
564.90	638.97
565.07	559.39
565.23	550.03
565.39	552.37
565.56	519.60
565.72	629.60
565.88	465.77
566.05	524.28
566.21	540.66
566.38	603.86
566.54	545.34
566.70	510.24
566.87	554.71
567.03	510.24
567.19	557.05
567.36	557.05
567.52	533.64
567.68	524.28
567.85	566.41
568.01	519.60
568.17	540.66
568.34	566.41
568.50	503.22
568.66	550.03
568.83	613.22
568.99	505.56
569.15	638.97
569.32	512.58
569.48	484.49
569.64	484.49
569.81	465.77
569.97	449.38
570.13	444.70
570.30	526.62
570.46	540.66
570.62	416.62
570.78	440.02
570.95	402.57
571.11	451.72
571.27	449.38
571.43	383.85
571.60	402.57
571.76	362.78
571.92	456.40
572.09	449.38
572.25	388.53
572.41	390.87
572.57	395.55
572.74	568.75
572.90	493.85
573.06	393.21
573.22	505.56
573.38	465.77
573.55	463.43
573.71	458.74
573.87	540.66
574.03	376.83
574.20	493.85
574.36	482.15
574.52	465.77
574.68	528.96
574.84	573.43
575.01	533.64
575.17	601.52
575.33	578.11
575.49	748.97
575.65	645.99
575.82	697.48
575.98	833.23
576.14	861.32
576.30	1668.80
576.46	5025.13
576.62	9090.64
576.79	10162.61
576.95	7400.77
577.11	5008.75
577.27	3368.03
577.43	2244.57
577.59	1614.97
577.75	1184.31
577.92	1268.57
578.08	1130.48
578.24	1074.31
578.40	1877.11
578.56	5203.01
578.72	8870.63
578.88	9455.76
579.04	6930.33
579.21	4557.02
579.37	3524.85
579.53	2778.22
579.69	2658.85
579.85	3225.26
580.01	3588.04
580.17	3555.27
580.33	3138.66
580.49	2605.02
580.65	2331.17
580.82	2132.23
580.98	2080.74
581.14	2143.93
581.30	2345.22
581.46	2527.78
581.62	2562.89
581.78	2832.05
581.94	3002.91
582.10	3176.11
582.26	3321.22
582.42	3363.35
582.58	3550.59
582.74	3559.95
582.90	3590.38
583.06	3613.79
583.22	3637.19
583.38	3529.53
583.54	3550.59
583.70	3545.91
583.86	3569.32
584.02	3452.29
584.18	3321.22
584.34	3353.99
584.50	3445.27
584.66	3206.53
584.82	3260.37
584.98	3269.73
585.14	3199.51
585.30	3038.02
585.46	3042.70
585.62	2991.20
585.78	3143.34
585.94	3206.53
586.10	3204.19
586.26	3330.58
586.42	3658.26
586.58	4379.14
586.74	5434.72
586.90	6406.05
587.06	6864.79
587.22	6841.39
587.38	6054.97
587.54	5322.38
587.70	4493.83
587.86	3817.41
588.02	3396.12
588.18	2925.67
588.34	2506.71
588.49	2445.86
588.65	2387.35
588.81	2204.78
588.97	2113.50
589.13	2120.53
589.29	2106.48
589.45	2040.95
589.61	2029.24
589.77	2099.46
589.93	2113.50
590.08	2045.63
590.24	2127.55
590.40	2242.23
590.56	2380.32
590.72	2436.50
590.88	2368.62
591.04	2410.75
591.20	2471.61
591.35	2558.21
591.51	2820.35
591.67	2768.85
591.83	3080.14
591.99	3199.51
592.15	3524.85
592.31	3878.27
592.46	4339.35
592.62	4638.94
592.78	4795.76
592.94	4933.85
593.10	5034.49
593.26	4704.48
593.41	4477.44
593.57	4009.34
593.73	3426.54
593.89	3012.27
594.05	2677.57
594.20	2396.71
594.36	2333.51
594.52	2127.55
594.68	1998.82
594.84	1891.15
594.99	1872.43
595.15	1893.49
595.31	1816.26
595.47	1774.13
595.62	1820.94
595.78	1797.53
595.94	1771.79
596.10	1802.21
596.25	1888.81
596.41	1825.62
596.57	1804.55
596.73	1809.23
596.88	1849.02
597.04	1867.75
597.20	1792.85
597.36	1902.86
597.51	1905.20
597.67	1923.92
597.83	2090.10
597.99	2188.40
598.14	2312.45
598.30	2403.73
598.46	2593.31
598.61	2780.56
598.77	2787.58
598.93	3038.02
599.09	3096.53
599.24	3148.02
599.40	3141.00
599.56	2885.88
599.71	2888.22
599.87	2663.53
600.03	2572.25
600.18	2394.37
600.34	2291.38
600.50	2153.29
600.65	1900.52
600.81	1753.06
600.97	1832.64
601.12	1739.02
601.28	1596.25
601.44	1619.65
601.59	1423.05
601.75	1376.24
601.91	1394.96
602.06	1331.76
602.22	1453.47
602.37	1191.33
602.53	1198.35
602.69	1287.29
602.84	1284.95
603.00	1282.61
603.16	1308.36
603.31	1366.87
603.47	1287.29
603.62	1294.32
603.78	1303.68
603.94	1376.24
604.09	1409.00
604.25	1373.89
604.40	1430.07
604.56	1427.73
604.71	1537.73
604.87	1500.28
605.03	1523.69
605.18	1563.48
605.34	1528.37
605.49	1640.72
605.65	1610.29
605.80	1664.12
