SpectraSuite Data File
++++++++++++++++++++++++++++++++++++
Date: Fri Oct 04 11:42:23 GMT-05:00 2013
User: price-jones
Dark Spectrum Present: No
Reference Spectrum Present: No
Number of Sampled Component Spectra: 1
Spectrometers: USB2+H05261
Integration Time (usec): 100000 (USB2+H05261)
Spectra Averaged: 1 (USB2+H05261)
Boxcar Smoothing: 0 (USB2+H05261)
Correct for Electrical Dark: No (USB2+H05261)
Strobe/Lamp Enabled: No (USB2+H05261)
Correct for Detector Non-linearity: No (USB2+H05261)
Correct for Stray Light: No (USB2+H05261)
Number of Pixels in Processed Spectrum: 2048
>>>>>Begin Processed Spectral Data<<<<<
365.73	74.90
365.92	74.90
366.12	74.90
366.32	0.00
366.52	0.00
366.72	0.00
366.91	0.00
367.11	0.00
367.31	0.00
367.51	0.00
367.70	7.02
367.90	0.00
368.10	0.00
368.30	0.00
368.49	0.00
368.69	7.02
368.89	0.00
369.09	0.00
369.28	0.00
369.48	0.00
369.68	0.00
369.87	2.34
370.07	0.00
370.27	18.72
370.47	105.32
370.66	168.52
370.86	259.80
371.06	248.10
371.25	259.80
371.45	163.84
371.65	262.14
371.84	163.84
372.04	196.60
372.24	315.97
372.44	245.76
372.63	262.14
372.83	311.29
373.03	257.46
373.22	257.46
373.42	234.05
373.62	271.50
373.81	273.84
374.01	351.08
374.21	259.80
374.40	250.44
374.60	292.57
374.79	264.48
374.99	318.31
375.19	358.10
375.38	334.70
375.58	344.06
375.78	440.02
375.97	318.31
376.17	416.62
376.37	308.95
376.56	374.49
376.76	294.91
376.95	351.08
377.15	381.51
377.35	451.72
377.54	454.06
377.74	393.21
377.93	379.17
378.13	367.46
378.33	327.68
378.52	339.38
378.72	395.55
378.91	330.02
379.11	320.65
379.31	278.52
379.50	264.48
379.70	395.55
379.89	365.12
380.09	435.34
380.28	386.19
380.48	386.19
380.68	409.59
380.87	320.65
381.07	283.20
381.26	315.97
381.46	348.74
381.65	362.78
381.85	301.93
382.04	330.02
382.24	276.18
382.43	276.18
382.63	280.86
382.83	262.14
383.02	290.23
383.22	353.42
383.41	325.33
383.61	304.27
383.80	257.46
384.00	341.72
384.19	301.93
384.39	416.62
384.58	365.12
384.78	351.08
384.97	388.53
385.17	308.95
385.36	376.83
385.56	341.72
385.75	327.68
385.95	411.93
386.14	404.91
386.34	374.49
386.53	454.06
386.72	322.99
386.92	489.17
387.11	358.10
387.31	444.70
387.50	369.80
387.70	360.44
387.89	386.19
388.09	320.65
388.28	358.10
388.48	367.46
388.67	400.23
388.86	402.57
389.06	414.27
389.25	428.32
389.45	421.30
389.64	430.66
389.84	451.72
390.03	484.49
390.22	482.15
390.42	458.74
390.61	477.47
390.81	442.36
391.00	514.92
391.19	493.85
391.39	479.81
391.58	456.40
391.78	411.93
391.97	379.17
392.16	416.62
392.36	365.12
392.55	390.87
392.75	196.60
392.94	287.89
393.13	205.97
393.33	227.03
393.52	365.12
393.71	440.02
393.91	402.57
394.10	482.15
394.29	414.27
394.49	550.03
394.68	592.16
394.88	594.50
395.07	531.30
395.26	594.50
395.46	451.72
395.65	505.56
395.84	479.81
396.04	449.38
396.23	447.04
396.42	332.36
396.62	348.74
396.81	358.10
397.00	353.42
397.19	517.26
397.39	627.26
397.58	617.90
397.77	699.82
397.97	681.10
398.16	594.50
398.35	713.86
398.55	631.94
398.74	690.46
398.93	671.73
399.12	683.44
399.32	744.29
399.51	690.46
399.70	706.84
399.90	615.56
400.09	730.25
400.28	699.82
400.47	704.50
400.67	758.33
400.86	753.65
401.05	709.18
401.24	709.18
401.44	753.65
401.63	732.59
401.82	807.48
402.01	774.72
402.21	739.61
402.40	730.25
402.59	791.10
402.78	744.29
402.97	755.99
403.17	816.85
403.36	798.12
403.55	812.17
403.74	777.06
403.93	739.61
404.13	870.68
404.32	704.50
404.51	748.97
404.70	805.14
404.89	744.29
405.09	849.61
405.28	746.63
405.47	791.10
405.66	793.44
405.85	837.91
406.05	671.73
406.24	730.25
406.43	688.12
406.62	760.67
406.81	898.77
407.00	875.36
407.20	791.10
407.39	678.76
407.58	802.80
407.77	814.51
407.96	777.06
408.15	898.77
408.34	826.21
408.54	870.68
408.73	868.34
408.92	924.51
409.11	800.46
409.30	863.66
409.49	840.25
409.68	727.91
409.87	683.44
410.07	643.65
410.26	758.33
410.45	807.48
410.64	849.61
410.83	873.02
411.02	866.00
411.21	968.98
411.40	919.83
411.59	954.94
411.78	894.08
411.98	985.37
412.17	835.57
412.36	924.51
412.55	861.32
412.74	901.11
412.93	912.81
413.12	917.49
413.31	950.26
413.50	950.26
413.69	952.60
413.88	894.08
414.07	961.96
414.26	931.53
414.45	875.36
414.64	894.08
414.83	931.53
415.02	1011.11
415.22	931.53
415.41	945.58
415.60	924.51
415.79	985.37
415.98	1020.47
416.17	1050.90
416.36	997.07
416.55	936.21
416.74	1032.18
416.93	891.74
417.12	877.70
417.31	1001.75
417.50	919.83
417.69	1071.97
417.88	990.05
418.07	926.85
418.26	994.73
418.45	954.94
418.64	1064.94
418.83	1104.73
419.02	1102.39
419.21	1027.50
419.39	1076.65
419.58	880.04
419.77	896.43
419.96	950.26
420.15	1064.94
420.34	1041.54
420.53	1090.69
420.72	1107.07
420.91	1018.13
421.10	1008.77
421.29	1064.94
421.48	1144.52
421.67	1102.39
421.86	1123.46
422.05	992.39
422.24	943.24
422.43	908.13
422.61	987.71
422.80	987.71
422.99	1083.67
423.18	1041.54
423.37	1130.48
423.56	926.85
423.75	1039.20
423.94	1022.81
424.13	1013.45
424.32	957.28
424.50	1083.67
424.69	1015.79
424.88	1006.43
425.07	1029.84
425.26	959.62
425.45	961.96
425.64	966.64
425.83	945.58
426.01	1006.43
426.20	1036.86
426.39	1036.86
426.58	1034.52
426.77	999.41
426.96	901.11
427.15	835.57
427.33	950.26
427.52	910.47
427.71	940.90
427.90	1001.75
428.09	957.28
428.28	919.83
428.46	919.83
428.65	994.73
428.84	1001.75
429.03	961.96
429.22	898.77
429.40	791.10
429.59	718.54
429.78	795.78
429.97	755.99
430.16	748.97
430.34	781.74
430.53	795.78
430.72	788.76
430.91	847.27
431.10	847.27
431.28	1081.33
431.47	1130.48
431.66	1296.66
431.85	1121.12
432.03	1081.33
432.22	1029.84
432.41	1018.13
432.60	1029.84
432.79	1064.94
432.97	1095.37
433.16	1121.12
433.35	997.07
433.54	1046.22
433.72	910.47
433.91	844.93
434.10	1032.18
434.28	1060.26
434.47	1118.78
434.66	1029.84
434.85	1027.50
435.03	1114.10
435.22	1362.19
435.41	1535.39
435.59	1582.20
435.78	1455.81
435.97	1313.04
436.16	1249.85
436.34	1196.01
436.53	1170.27
436.72	1160.91
436.90	1114.10
437.09	1095.37
437.28	1076.65
437.46	1125.80
437.65	1219.42
437.84	1050.90
438.02	978.34
438.21	976.00
438.40	1053.24
438.58	1018.13
438.77	1121.12
438.96	1170.27
439.14	1144.52
439.33	1130.48
439.52	1245.16
439.70	1179.63
439.89	1193.67
440.08	1046.22
440.26	1130.48
440.45	1259.21
440.63	1179.63
440.82	1270.91
441.01	1235.80
441.19	1284.95
441.38	1380.92
441.57	1294.32
441.75	1308.36
441.94	1423.05
442.12	1275.59
442.31	1308.36
442.50	1315.38
442.68	1394.96
442.87	1378.58
443.05	1355.17
443.24	1331.76
443.43	1387.94
443.61	1355.17
443.80	1479.22
443.98	1277.93
444.17	1214.74
444.35	1418.36
444.54	1350.49
444.73	1425.39
444.91	1327.08
445.10	1352.83
445.28	1186.65
445.47	1277.93
445.65	1212.40
445.84	1254.53
446.02	1277.93
446.21	1299.00
446.39	1380.92
446.58	1366.87
446.77	1310.70
446.95	1322.40
447.14	1385.60
447.32	1511.99
447.51	1469.86
447.69	1387.94
447.88	1324.74
448.06	1385.60
448.25	1404.32
448.43	1387.94
448.62	1376.24
448.80	1315.38
448.99	1373.89
449.17	1266.23
449.36	1420.71
449.54	1348.15
449.73	1474.54
449.91	1460.49
450.10	1486.24
450.28	1603.27
450.46	1444.11
450.65	1453.47
450.83	1441.77
451.02	1373.89
451.20	1387.94
451.39	1416.02
451.57	1446.45
451.76	1455.81
451.94	1366.87
452.13	1404.32
452.31	1366.87
452.49	1259.21
452.68	1303.68
452.86	1296.66
453.05	1299.00
453.23	1348.15
453.42	1289.64
453.60	1399.64
453.78	1474.54
453.97	1362.19
454.15	1500.28
454.34	1448.79
454.52	1226.44
454.70	1263.89
454.89	1320.06
455.07	1380.92
455.26	1444.11
455.44	1411.34
455.62	1486.24
455.81	1570.50
455.99	1465.18
456.17	1420.71
456.36	1504.96
456.54	1460.49
456.73	1476.88
456.91	1444.11
457.09	1497.94
457.28	1519.01
457.46	1481.56
457.64	1519.01
457.83	1472.20
458.01	1334.11
458.19	1411.34
458.38	1394.96
458.56	1453.47
458.74	1432.41
458.93	1444.11
459.11	1495.60
459.29	1448.79
459.48	1502.62
459.66	1526.03
459.84	1413.68
460.03	1579.86
460.21	1401.98
460.39	1481.56
460.57	1526.03
460.76	1526.03
460.94	1523.69
461.12	1582.20
461.31	1504.96
461.49	1472.20
461.67	1469.86
461.85	1591.56
462.04	1521.35
462.22	1668.80
462.40	1554.12
462.59	1523.69
462.77	1584.54
462.95	1591.56
463.13	1523.69
463.32	1516.67
463.50	1530.71
463.68	1617.31
463.86	1476.88
464.05	1586.88
464.23	1465.18
464.41	1373.89
464.59	1357.51
464.78	1502.62
464.96	1425.39
465.14	1493.26
465.32	1530.71
465.50	1453.47
465.69	1537.73
465.87	1497.94
466.05	1556.46
466.23	1448.79
466.41	1439.43
466.60	1446.45
466.78	1413.68
466.96	1439.43
467.14	1423.05
467.32	1495.60
467.51	1570.50
467.69	1469.86
467.87	1535.39
468.05	1497.94
468.23	1519.01
468.41	1507.30
468.60	1397.30
468.78	1500.28
468.96	1516.67
469.14	1448.79
469.32	1544.75
469.50	1404.32
469.69	1455.81
469.87	1511.99
470.05	1406.66
470.23	1476.88
470.41	1481.56
470.59	1444.11
470.77	1516.67
470.95	1427.73
471.14	1528.37
471.32	1577.52
471.50	1652.42
471.68	1591.56
471.86	1540.07
472.04	1575.18
472.22	1575.18
472.40	1444.11
472.58	1535.39
472.77	1530.71
472.95	1530.71
473.13	1678.16
473.31	1533.05
473.49	1432.41
473.67	1554.12
473.85	1549.43
474.03	1671.14
474.21	1682.85
474.39	1624.33
474.57	1661.78
474.75	1661.78
474.93	1621.99
475.12	1542.41
475.30	1575.18
475.48	1561.14
475.66	1589.22
475.84	1490.92
476.02	1603.27
476.20	1535.39
476.38	1579.86
476.56	1715.61
476.74	1654.76
476.92	1645.40
477.10	1696.89
477.28	1720.29
477.46	1706.25
477.64	1844.34
477.82	1748.38
478.00	1760.08
478.18	1631.35
478.36	1703.91
478.54	1675.82
478.72	1804.55
478.90	1846.68
479.08	1837.32
479.26	1846.68
479.44	1781.15
479.62	1799.87
479.80	1790.51
479.98	1842.00
480.16	1916.90
480.34	1762.42
480.52	1914.56
480.70	1884.13
480.88	1757.74
481.06	1846.68
481.24	1764.76
481.41	1905.20
481.59	1966.05
481.77	2001.16
481.95	1942.64
482.13	1942.64
482.31	1902.86
482.49	1888.81
482.67	1984.77
482.85	2136.91
483.03	2005.84
483.21	2153.29
483.39	2043.29
483.57	2052.65
483.74	2069.03
483.92	1989.46
484.10	2125.21
484.28	2059.67
484.46	2239.89
484.64	2047.97
484.82	1956.69
485.00	1923.92
485.18	2052.65
485.35	1947.33
485.53	1813.92
485.71	1689.87
485.89	1664.12
486.07	1720.29
486.25	1732.00
486.43	2040.95
486.61	2043.29
486.78	1987.11
486.96	1982.43
487.14	2181.38
487.32	2169.68
487.50	2148.61
487.68	2286.70
487.85	2190.74
488.03	2424.80
488.21	2258.62
488.39	2230.53
488.57	2090.10
488.75	2167.34
488.92	2567.57
489.10	2399.05
489.28	2459.90
489.46	2408.41
489.64	2511.39
489.81	2457.56
489.99	2558.21
490.17	2417.77
490.35	2605.02
490.53	2495.01
490.70	2382.67
490.88	2363.94
491.06	2471.61
491.24	2410.75
491.41	2506.71
491.59	2389.69
491.77	2237.55
491.95	2209.47
492.13	2342.88
492.30	2452.88
492.48	2471.61
492.66	2649.49
492.84	2518.42
493.01	2572.25
493.19	2417.77
493.37	2642.46
493.54	2544.16
493.72	2452.88
493.90	2555.86
494.08	2675.23
494.25	2743.11
494.43	2689.28
494.61	2850.77
494.79	2679.91
494.96	2747.79
495.14	2801.62
495.32	2567.57
495.49	2583.95
495.67	2562.89
495.85	2572.25
496.02	2773.53
496.20	2782.90
496.38	2806.30
496.55	2836.73
496.73	2855.45
496.91	2773.53
497.09	2712.68
497.26	2766.51
497.44	2759.49
497.62	2834.39
497.79	2745.45
497.97	2583.95
498.14	2530.12
498.32	2796.94
498.50	2724.38
498.67	2810.98
498.85	2771.19
499.03	2698.64
499.20	2839.07
499.38	2801.62
499.56	2745.45
499.73	2733.75
499.91	2815.66
500.08	2677.57
500.26	2642.46
500.44	2626.08
500.61	2789.92
500.79	2651.83
500.97	2705.66
501.14	2715.02
501.32	2534.80
501.49	2665.87
501.67	2651.83
501.84	2644.81
502.02	2703.32
502.20	2670.55
502.37	2768.85
502.55	2738.43
502.72	2722.04
502.90	2892.90
503.07	2764.17
503.25	2597.99
503.43	2483.31
503.60	2647.15
503.78	2469.27
503.95	2504.37
504.13	2619.06
504.30	2775.88
504.48	2689.28
504.65	2717.36
504.83	2818.00
505.01	2775.88
505.18	2808.64
505.36	2939.71
505.53	2986.52
505.71	3038.02
505.88	3033.33
506.06	2738.43
506.23	2832.05
506.41	2822.69
506.58	2780.56
506.76	2883.54
506.93	2834.39
507.11	2801.62
507.28	2839.07
507.46	2794.60
507.63	2677.57
507.81	2633.10
507.98	2677.57
508.16	2916.31
508.33	2736.09
508.50	2899.92
508.68	2972.48
508.85	2951.42
509.03	2888.22
509.20	3101.21
509.38	2965.46
509.55	2853.11
509.73	2757.15
509.90	2925.67
510.08	2963.12
510.25	2949.08
510.42	2979.50
510.60	3002.91
510.77	2960.78
510.95	2974.82
511.12	3112.91
511.30	3061.42
511.47	3096.53
511.64	3059.08
511.82	3026.31
511.99	2813.32
512.17	2850.77
512.34	2885.88
512.51	2925.67
512.69	2965.46
512.86	2942.05
513.04	3096.53
513.21	3040.36
513.38	3007.59
513.56	2857.79
513.73	2759.49
513.90	2853.11
514.08	2860.13
514.25	2761.83
514.43	2925.67
514.60	2946.73
514.77	2911.63
514.95	3045.04
515.12	2867.16
515.29	3084.83
515.47	3000.57
515.64	3059.08
515.81	2923.33
515.99	2988.86
516.16	2906.95
516.33	2729.06
516.51	2509.05
516.68	2457.56
516.85	2464.58
517.03	2413.09
517.20	2640.12
517.37	2825.03
517.54	3000.57
517.72	2913.97
517.89	2902.26
518.06	2626.08
518.24	2635.44
518.41	2722.04
518.58	2848.43
518.75	2841.41
518.93	2916.31
519.10	2834.39
519.27	2963.12
519.45	2895.24
519.62	2949.08
519.79	2953.76
519.96	3028.65
520.14	3021.63
520.31	2956.10
520.48	2799.28
520.65	2974.82
520.83	3052.06
521.00	2960.78
521.17	3042.70
521.34	3038.02
521.52	2899.92
521.69	3026.31
521.86	3276.75
522.03	3265.05
522.20	3166.74
522.38	2853.11
522.55	2848.43
522.72	2958.44
522.89	3009.93
523.07	3045.04
523.24	3047.38
523.41	3035.67
523.58	3199.51
523.75	3173.77
523.92	3169.09
524.10	3183.13
524.27	3077.80
524.44	3197.17
524.61	3133.98
524.78	3049.72
524.96	3087.17
525.13	3096.53
525.30	3122.27
525.47	3192.49
525.64	3300.16
525.81	3105.89
525.98	3124.62
526.16	2832.05
526.33	2745.45
526.50	2703.32
526.67	2759.49
526.84	2855.45
527.01	2832.05
527.18	2857.79
527.36	2986.52
527.53	3094.19
527.70	3138.66
527.87	3176.11
528.04	3094.19
528.21	3009.93
528.38	3246.32
528.55	3145.68
528.72	3218.24
528.89	3239.30
529.07	3176.11
529.24	3126.96
529.41	3173.77
529.58	3180.79
529.75	3035.67
529.92	3108.23
530.09	3026.31
530.26	3283.77
530.43	3225.26
530.60	3234.62
530.77	3276.75
530.94	3262.71
531.11	3180.79
531.28	3246.32
531.46	3087.17
531.63	3173.77
531.80	3318.88
531.97	3239.30
532.14	3054.40
532.31	2946.73
532.48	2965.46
532.65	2843.75
532.82	2860.13
532.99	3220.58
533.16	3220.58
533.33	3180.79
533.50	3056.74
533.67	3199.51
533.84	2904.60
534.01	3169.09
534.18	2916.31
534.35	3129.30
534.52	3122.27
534.69	3087.17
534.86	3295.47
535.03	3260.37
535.20	3206.53
535.37	3185.47
535.54	3353.99
535.71	3386.76
535.88	3290.79
536.05	3281.43
536.22	3084.83
536.38	3073.12
536.55	3131.64
536.72	3126.96
536.89	3005.25
537.06	3180.79
537.23	3084.83
537.40	3220.58
537.57	3164.40
537.74	3187.81
537.91	3361.01
538.08	3286.11
538.25	3239.30
538.42	3206.53
538.59	3307.18
538.75	3222.92
538.92	3105.89
539.09	3054.40
539.26	3073.12
539.43	3089.51
539.60	3204.19
539.77	3133.98
539.94	3073.12
540.11	3194.83
540.28	3054.40
540.44	3094.19
540.61	3112.91
540.78	3087.17
540.95	3141.00
541.12	3332.92
541.29	3440.59
541.46	3492.08
541.62	3480.38
541.79	3417.18
541.96	3522.51
542.13	3297.81
542.30	3351.65
542.47	3492.08
542.63	3410.16
542.80	3407.82
542.97	3445.27
543.14	3424.20
543.31	3267.39
543.48	3438.25
543.64	3478.04
543.81	3618.47
543.98	3531.87
544.15	3445.27
544.32	3316.54
544.48	3405.48
544.65	3356.33
544.82	3456.97
544.99	3297.81
545.16	3283.77
545.32	3323.56
545.49	3700.39
545.66	4105.30
545.83	4203.60
546.00	4007.00
546.16	3660.60
546.33	3482.72
546.50	3431.23
546.67	3389.10
546.83	3218.24
547.00	3288.45
547.17	3318.88
547.34	3082.49
547.50	3169.09
547.67	3234.62
547.84	3087.17
548.00	3279.09
548.17	3258.03
548.34	3110.57
548.51	3251.00
548.67	3290.79
548.84	3307.18
549.01	3337.60
549.18	3295.47
549.34	3115.25
549.51	3119.93
549.68	3199.51
549.84	3192.49
550.01	3190.15
550.18	3311.86
550.34	3300.16
550.51	3089.51
550.68	3180.79
550.84	3052.06
551.01	3103.55
551.18	3080.14
551.34	3080.14
551.51	3117.59
551.68	3192.49
551.84	3155.04
552.01	3185.47
552.18	3026.31
552.34	3129.30
552.51	3070.78
552.68	3063.76
552.84	3108.23
553.01	2967.80
553.18	2923.33
553.34	3040.36
553.51	3002.91
553.67	3248.66
553.84	3159.72
554.01	3136.32
554.17	3089.51
554.34	3185.47
554.51	3075.46
554.67	3073.12
554.84	3159.72
555.00	2967.80
555.17	3063.76
555.33	3045.04
555.50	3023.97
555.67	3066.10
555.83	2935.03
556.00	3052.06
556.16	3171.43
556.33	2925.67
556.50	2916.31
556.66	2965.46
556.83	2862.48
556.99	2925.67
557.16	2733.75
557.32	2963.12
557.49	2946.73
557.65	2944.39
557.82	2963.12
557.98	3087.17
558.15	2897.58
558.32	2909.29
558.48	2857.79
558.65	2825.03
558.81	2794.60
558.98	2846.09
559.14	2993.55
559.31	2789.92
559.47	2773.53
559.64	2832.05
559.80	2796.94
559.97	2712.68
560.13	2799.28
560.30	2843.75
560.46	3007.59
560.63	2862.48
560.79	2878.86
560.96	2984.18
561.12	2951.42
561.29	2848.43
561.45	2764.17
561.61	2754.81
561.78	2918.65
561.94	2920.99
562.11	2895.24
562.27	2857.79
562.44	2843.75
562.60	2913.97
562.77	2895.24
562.93	2890.56
563.10	2923.33
563.26	2792.26
563.42	2829.71
563.59	2771.19
563.75	2794.60
563.92	2839.07
564.08	2733.75
564.24	2834.39
564.41	2899.92
564.57	2944.39
564.74	2853.11
564.90	2818.00
565.07	2928.01
565.23	2764.17
565.39	2843.75
565.56	2698.64
565.72	2658.85
565.88	2757.15
566.05	2668.21
566.21	2726.72
566.38	2747.79
566.54	2710.34
566.70	2890.56
566.87	2818.00
567.03	2686.94
567.19	2700.98
567.36	2888.22
567.52	2717.36
567.68	2825.03
567.85	2626.08
568.01	2555.86
568.17	2530.12
568.34	2520.76
568.50	2712.68
568.66	2509.05
568.83	2736.09
568.99	2548.84
569.15	2628.42
569.32	2642.46
569.48	2473.95
569.64	2548.84
569.81	2719.70
569.97	2593.31
570.13	2612.04
570.30	2565.23
570.46	2473.95
570.62	2511.39
570.78	2375.64
570.95	2532.46
571.11	2630.76
571.27	2480.97
571.43	2574.59
571.60	2518.42
571.76	2621.40
571.92	2649.49
572.09	2647.15
572.25	2712.68
572.41	2693.96
572.57	2569.91
572.74	2588.63
572.90	2574.59
573.06	2621.40
573.22	2654.17
573.38	2715.02
573.55	2663.53
573.71	2574.59
573.87	2614.38
574.03	2525.44
574.20	2569.91
574.36	2551.18
574.52	2429.48
574.68	2427.14
574.84	2506.71
575.01	2382.67
575.17	2509.05
575.33	2413.09
575.49	2546.50
575.65	2623.74
575.82	2590.97
575.98	2403.73
576.14	2630.76
576.30	2644.81
576.46	2654.17
576.62	2736.09
576.79	2654.17
576.95	2576.93
577.11	2630.76
577.27	2602.68
577.43	2438.84
577.59	2457.56
577.75	2565.23
577.92	2392.03
578.08	2375.64
578.24	2356.92
578.40	2546.50
578.56	2586.29
578.72	2609.70
578.88	2696.30
579.04	2553.52
579.21	2614.38
579.37	2499.69
579.53	2544.16
579.69	2504.37
579.85	2523.10
580.01	2506.71
580.17	2644.81
580.33	2534.80
580.49	2546.50
580.65	2614.38
580.82	2527.78
580.98	2518.42
581.14	2473.95
581.30	2593.31
581.46	2368.62
581.62	2480.97
581.78	2424.80
581.94	2558.21
582.10	2562.89
582.26	2583.95
582.42	2537.14
582.58	2626.08
582.74	2583.95
582.90	2691.62
583.06	2682.25
583.22	2565.23
583.38	2476.29
583.54	2562.89
583.70	2609.70
583.86	2473.95
584.02	2513.74
584.18	2651.83
584.34	2661.19
584.50	2729.06
584.66	2626.08
584.82	2457.56
584.98	2546.50
585.14	2380.32
585.30	2424.80
585.46	2490.33
585.62	2352.24
585.78	2455.22
585.94	2502.03
586.10	2506.71
586.26	2422.45
586.42	2504.37
586.58	2588.63
586.74	2525.44
586.90	2466.92
587.06	2473.95
587.22	2527.78
587.38	2401.39
587.54	2434.16
587.70	2480.97
587.86	2307.77
588.02	2284.36
588.18	2193.08
588.34	2174.36
588.49	1860.73
588.65	1858.39
588.81	1877.11
588.97	1809.23
589.13	1764.76
589.29	1727.32
589.45	1849.02
589.61	1802.21
589.77	1914.56
589.93	1818.60
590.08	2080.74
590.24	2036.27
590.40	2066.69
590.56	2050.31
590.72	1975.41
590.88	2094.78
591.04	2106.48
591.20	2073.71
591.35	2057.33
591.51	2069.03
591.67	2031.58
591.83	2026.90
591.99	1991.80
592.15	2150.95
592.31	2150.95
592.46	2122.87
592.62	2279.68
592.78	2214.15
592.94	2193.08
593.10	2193.08
593.26	2176.70
593.41	2300.75
593.57	2169.68
593.73	2101.80
593.89	2069.03
594.05	1959.03
594.20	1851.36
594.36	2010.52
594.52	1813.92
594.68	1942.64
594.84	2054.99
594.99	2008.18
595.15	2085.42
595.31	2076.06
595.47	2115.84
595.62	2026.90
595.78	2104.14
595.94	2153.29
596.10	2216.49
596.25	2064.35
596.41	2069.03
596.57	2001.16
596.73	2052.65
596.88	2078.40
597.04	2165.00
597.20	2197.76
597.36	2104.14
597.51	1970.73
597.67	2071.37
597.83	2127.55
597.99	2200.10
598.14	2146.27
598.30	2183.72
598.46	2200.10
598.61	2232.87
598.77	2127.55
598.93	2080.74
599.09	2115.84
599.24	2319.47
599.40	2186.06
