SpectraSuite Data File
++++++++++++++++++++++++++++++++++++
Date: Fri Oct 04 11:42:23 GMT-05:00 2013
User: price-jones
Dark Spectrum Present: No
Reference Spectrum Present: No
Number of Sampled Component Spectra: 1
Spectrometers: USB2+H05261
Integration Time (usec): 100000 (USB2+H05261)
Spectra Averaged: 1 (USB2+H05261)
Boxcar Smoothing: 0 (USB2+H05261)
Correct for Electrical Dark: No (USB2+H05261)
Strobe/Lamp Enabled: No (USB2+H05261)
Correct for Detector Non-linearity: No (USB2+H05261)
Correct for Stray Light: No (USB2+H05261)
Number of Pixels in Processed Spectrum: 2048
>>>>>Begin Processed Spectral Data<<<<<
365.73	0.00
365.92	0.00
366.12	0.00
366.32	0.00
366.52	0.00
366.72	0.00
366.91	0.00
367.11	0.00
367.31	28.09
367.51	0.00
367.70	0.00
367.90	0.00
368.10	0.00
368.30	0.00
368.49	0.00
368.69	0.00
368.89	0.00
369.09	0.00
369.28	0.00
369.48	0.00
369.68	0.00
369.87	0.00
370.07	0.00
370.27	25.75
370.47	110.01
370.66	322.99
370.86	337.04
371.06	339.38
371.25	449.38
371.45	374.49
371.65	287.89
371.84	358.10
372.04	381.51
372.24	475.13
372.44	393.21
372.63	393.21
372.83	423.64
373.03	320.65
373.22	318.31
373.42	341.72
373.62	355.76
373.81	407.25
374.01	423.64
374.21	330.02
374.40	332.36
374.60	393.21
374.79	390.87
374.99	514.92
375.19	491.51
375.38	449.38
375.58	533.64
375.78	461.09
375.97	482.15
376.17	486.83
376.37	472.79
376.56	526.62
376.76	557.05
376.95	486.83
377.15	582.79
377.35	580.45
377.54	524.28
377.74	482.15
377.93	554.71
378.13	613.22
378.33	645.99
378.52	526.62
378.72	454.06
378.91	540.66
379.11	500.87
379.31	418.96
379.50	479.81
379.70	540.66
379.89	500.87
380.09	447.04
380.28	510.24
380.48	547.69
380.68	557.05
380.87	540.66
381.07	524.28
381.26	486.83
381.46	514.92
381.65	440.02
381.85	477.47
382.04	484.49
382.24	365.12
382.43	358.10
382.63	346.40
382.83	353.42
383.02	411.93
383.22	411.93
383.41	376.83
383.61	409.59
383.80	418.96
384.00	444.70
384.19	512.58
384.39	507.90
384.58	566.41
384.78	613.22
384.97	585.13
385.17	601.52
385.36	526.62
385.56	545.34
385.75	493.85
385.95	500.87
386.14	526.62
386.34	601.52
386.53	540.66
386.72	517.26
386.92	599.18
387.11	552.37
387.31	519.60
387.50	650.67
387.70	550.03
387.89	554.71
388.09	571.09
388.28	517.26
388.48	564.07
388.67	596.84
388.86	636.63
389.06	692.80
389.25	751.31
389.45	634.29
389.64	634.29
389.84	779.40
390.03	788.76
390.22	678.76
390.42	809.83
390.61	748.97
390.81	823.87
391.00	716.20
391.19	823.87
391.39	891.74
391.58	741.95
391.78	655.35
391.97	709.18
392.16	674.07
392.36	613.22
392.55	585.13
392.75	404.91
392.94	376.83
393.13	332.36
393.33	416.62
393.52	409.59
393.71	653.01
393.91	667.05
394.10	622.58
394.29	664.71
394.49	734.93
394.68	763.01
394.88	746.63
395.07	919.83
395.26	802.80
395.46	770.04
395.65	837.91
395.84	777.06
396.04	711.52
396.23	477.47
396.42	510.24
396.62	414.27
396.81	514.92
397.00	540.66
397.19	727.91
397.39	805.14
397.58	908.13
397.77	936.21
397.97	992.39
398.16	978.34
398.35	1025.15
398.55	1057.92
398.74	1153.88
398.93	1107.07
399.12	1093.03
399.32	1142.18
399.51	1067.28
399.70	1181.97
399.90	1086.01
400.09	1158.57
400.28	1149.20
400.47	1102.39
400.67	1263.89
400.86	1219.42
401.05	1249.85
401.24	1181.97
401.44	1224.10
401.63	1254.53
401.82	1224.10
402.01	1249.85
402.21	1313.04
402.40	1294.32
402.59	1235.80
402.78	1081.33
402.97	1128.14
403.17	1104.73
403.36	1219.42
403.55	1273.25
403.74	1249.85
403.93	1191.33
404.13	1210.06
404.32	1205.38
404.51	1345.81
404.70	1383.26
404.89	1320.06
405.09	1327.08
405.28	1299.00
405.47	1256.87
405.66	1238.14
405.85	1273.25
406.05	1160.91
406.24	1165.59
406.43	1163.25
406.62	1212.40
406.81	1277.93
407.00	1235.80
407.20	1289.64
407.39	1118.78
407.58	1284.95
407.77	1242.82
407.96	1268.57
408.15	1401.98
408.34	1369.21
408.54	1320.06
408.73	1394.96
408.92	1336.45
409.11	1387.94
409.30	1378.58
409.49	1212.40
409.68	1137.50
409.87	1226.44
410.07	1165.59
410.26	1284.95
410.45	1331.76
410.64	1338.79
410.83	1392.62
411.02	1371.55
411.21	1481.56
411.40	1507.30
411.59	1401.98
411.78	1406.66
411.98	1350.49
412.17	1488.58
412.36	1460.49
412.55	1409.00
412.74	1469.86
412.93	1394.96
413.12	1289.64
413.31	1586.88
413.50	1474.54
413.69	1610.29
413.88	1556.46
414.07	1472.20
414.26	1441.77
414.45	1509.65
414.64	1579.86
414.83	1509.65
415.02	1453.47
415.22	1521.35
415.41	1537.73
415.60	1572.84
415.79	1729.66
415.98	1767.10
416.17	1689.87
416.36	1600.93
416.55	1603.27
416.74	1589.22
416.93	1528.37
417.12	1554.12
417.31	1526.03
417.50	1479.22
417.69	1636.03
417.88	1462.83
418.07	1472.20
418.26	1565.82
418.45	1554.12
418.64	1743.70
418.83	1713.27
419.02	1664.12
419.21	1727.32
419.39	1556.46
419.58	1455.81
419.77	1582.20
419.96	1593.90
420.15	1591.56
420.34	1600.93
420.53	1680.50
420.72	1778.81
420.91	1816.26
421.10	1762.42
421.29	1764.76
421.48	1682.85
421.67	1682.85
421.86	1671.14
422.05	1671.14
422.24	1495.60
422.43	1404.32
422.61	1605.61
422.80	1647.74
422.99	1720.29
423.18	1703.91
423.37	1692.21
423.56	1734.34
423.75	1570.50
423.94	1654.76
424.13	1556.46
424.32	1535.39
424.50	1563.48
424.69	1533.05
424.88	1614.97
425.07	1652.42
425.26	1544.75
425.45	1575.18
425.64	1411.34
425.83	1544.75
426.01	1549.43
426.20	1661.78
426.39	1589.22
426.58	1511.99
426.77	1437.09
426.96	1401.98
427.15	1511.99
427.33	1554.12
427.52	1570.50
427.71	1554.12
427.90	1563.48
428.09	1495.60
428.28	1409.00
428.46	1483.90
428.65	1465.18
428.84	1413.68
429.03	1469.86
429.22	1586.88
429.40	1385.60
429.59	1275.59
429.78	1179.63
429.97	1160.91
430.16	1153.88
430.34	1196.01
430.53	1071.97
430.72	1181.97
430.91	1275.59
431.10	1362.19
431.28	1699.23
431.47	1818.60
431.66	1783.49
431.85	1792.85
432.03	1654.76
432.22	1572.84
432.41	1551.78
432.60	1825.62
432.79	1781.15
432.97	1753.06
433.16	1727.32
433.35	1584.54
433.54	1568.16
433.72	1406.66
433.91	1448.79
434.10	1598.59
434.28	1692.21
434.47	1724.97
434.66	1783.49
434.85	1764.76
435.03	1734.34
435.22	2008.18
435.41	2333.51
435.59	2342.88
435.78	2270.32
435.97	2036.27
436.16	1919.24
436.34	1834.98
436.53	1881.79
436.72	1893.49
436.90	1858.39
437.09	1788.17
437.28	1706.25
437.46	1788.17
437.65	1783.49
437.84	1767.10
438.02	1617.31
438.21	1636.03
438.40	1584.54
438.58	1685.19
438.77	1825.62
438.96	1907.54
439.14	1966.05
439.33	1860.73
439.52	1966.05
439.70	2036.27
439.89	1839.66
440.08	1781.15
440.26	1837.32
440.45	1893.49
440.63	1919.24
440.82	2050.31
441.01	2092.44
441.19	2069.03
441.38	2029.24
441.57	2047.97
441.75	2129.89
441.94	2162.66
442.12	2150.95
442.31	2153.29
442.50	2167.34
442.68	2087.76
442.87	2059.67
443.05	2008.18
443.24	2122.87
443.43	2160.31
443.61	2214.15
443.80	2265.64
443.98	2083.08
444.17	2033.93
444.35	2136.91
444.54	2200.10
444.73	2160.31
444.91	2207.13
445.10	1970.73
445.28	1994.14
445.47	1963.71
445.65	1933.28
445.84	1980.09
446.02	2008.18
446.21	2071.37
446.39	2043.29
446.58	2122.87
446.77	2190.74
446.95	2155.63
447.14	2214.15
447.32	2305.43
447.51	2125.21
447.69	2186.06
447.88	2083.08
448.06	2127.55
448.25	2146.27
448.43	2293.72
448.62	2246.91
448.80	2209.47
448.99	2209.47
449.17	2277.34
449.36	2235.21
449.54	2289.04
449.73	2289.04
449.91	2328.83
450.10	2347.56
450.28	2483.31
450.46	2380.32
450.65	2279.68
450.83	2298.41
451.02	2275.00
451.20	2331.17
451.39	2235.21
451.57	2314.79
451.76	2291.38
451.94	2286.70
452.13	2148.61
452.31	2169.68
452.49	2090.10
452.68	2038.61
452.86	2083.08
453.05	2275.00
453.23	2207.13
453.42	2251.60
453.60	2197.76
453.78	2260.96
453.97	2246.91
454.15	2263.30
454.34	2172.02
454.52	2265.64
454.70	2160.31
454.89	2321.81
455.07	2129.89
455.26	2272.66
455.44	2286.70
455.62	2345.22
455.81	2422.45
455.99	2300.75
456.17	2361.60
456.36	2270.32
456.54	2462.24
456.73	2403.73
456.91	2466.92
457.09	2429.48
457.28	2438.84
457.46	2286.70
457.64	2307.77
457.83	2403.73
458.01	2293.72
458.19	2375.64
458.38	2321.81
458.56	2265.64
458.74	2403.73
458.93	2417.77
459.11	2258.62
459.29	2317.13
459.48	2305.43
459.66	2424.80
459.84	2368.62
460.03	2368.62
460.21	2340.54
460.39	2326.49
460.57	2579.27
460.76	2499.69
460.94	2443.52
461.12	2429.48
461.31	2473.95
461.49	2438.84
461.67	2408.41
461.85	2469.27
462.04	2403.73
462.22	2626.08
462.40	2476.29
462.59	2485.65
462.77	2445.86
462.95	2497.35
463.13	2406.07
463.32	2445.86
463.50	2523.10
463.68	2443.52
463.86	2452.88
464.05	2448.20
464.23	2363.94
464.41	2385.01
464.59	2265.64
464.78	2466.92
464.96	2396.71
465.14	2300.75
465.32	2583.95
465.50	2417.77
465.69	2511.39
465.87	2525.44
466.05	2593.31
466.23	2380.32
466.41	2333.51
466.60	2312.45
466.78	2354.58
466.96	2438.84
467.14	2349.90
467.32	2492.67
467.51	2375.64
467.69	2370.96
467.87	2452.88
468.05	2410.75
468.23	2408.41
468.41	2417.77
468.60	2403.73
468.78	2396.71
468.96	2368.62
469.14	2485.65
469.32	2434.16
469.50	2296.07
469.69	2317.13
469.87	2256.28
470.05	2239.89
470.23	2331.17
470.41	2380.32
470.59	2307.77
470.77	2333.51
470.95	2368.62
471.14	2499.69
471.32	2462.24
471.50	2518.42
471.68	2583.95
471.86	2609.70
472.04	2546.50
472.22	2654.17
472.40	2492.67
472.58	2429.48
472.77	2415.43
472.95	2516.08
473.13	2597.99
473.31	2518.42
473.49	2525.44
473.67	2593.31
473.85	2572.25
474.03	2663.53
474.21	2679.91
474.39	2654.17
474.57	2642.46
474.75	2691.62
474.93	2612.04
475.12	2633.10
475.30	2537.14
475.48	2546.50
475.66	2513.74
475.84	2668.21
476.02	2588.63
476.20	2656.51
476.38	2537.14
476.56	2661.19
476.74	2663.53
476.92	2670.55
477.10	2675.23
477.28	2754.81
477.46	2846.09
477.64	2782.90
477.82	2743.11
478.00	2890.56
478.18	2850.77
478.36	2810.98
478.54	2693.96
478.72	2766.51
478.90	2986.52
479.08	2841.41
479.26	3021.63
479.44	2981.84
479.62	3075.46
479.80	3007.59
479.98	2960.78
480.16	2974.82
480.34	2944.39
480.52	3141.00
480.70	3002.91
480.88	3070.78
481.06	3197.17
481.24	3066.10
481.41	3150.36
481.59	3187.81
481.77	3176.11
481.95	3166.74
482.13	3208.87
482.31	3063.76
482.49	3328.24
482.67	3185.47
482.85	3173.77
483.03	3307.18
483.21	3344.63
483.39	3199.51
483.57	3260.37
483.74	3206.53
483.92	3283.77
484.10	3141.00
484.28	3442.93
484.46	3382.07
484.64	3398.46
484.82	3258.03
485.00	3267.39
485.18	3328.24
485.35	2956.10
485.53	2878.86
485.71	2658.85
485.89	2672.89
486.07	2785.24
486.25	3103.55
486.43	3049.72
486.61	3234.62
486.78	3171.43
486.96	3112.91
487.14	3290.79
487.32	3353.99
487.50	3494.42
487.68	3543.57
487.85	3765.92
488.03	3585.70
488.21	3702.73
488.39	3576.34
488.57	3510.80
488.75	3351.65
488.92	3761.24
489.10	3751.88
489.28	3943.80
489.46	3868.91
489.64	4030.40
489.81	3976.57
489.99	3822.09
490.17	3859.54
490.35	4070.19
490.53	3995.29
490.70	3859.54
490.88	3824.44
491.06	4032.74
491.24	3936.78
491.41	3920.40
491.59	3632.51
491.77	3691.02
491.95	3599.74
492.13	3721.45
492.30	3960.19
492.48	4140.41
492.66	4217.65
492.84	4091.26
493.01	4161.47
493.19	4039.76
493.37	4037.42
493.54	4016.36
493.72	4058.49
493.90	4126.36
494.08	4322.97
494.25	4430.63
494.43	4428.29
494.61	4369.78
494.79	4397.87
494.96	4390.84
495.14	4475.10
495.32	4030.40
495.49	4095.94
495.67	4201.26
495.85	4451.70
496.02	4414.25
496.20	4400.21
496.38	4341.69
496.55	4358.08
496.73	4308.93
496.91	4514.89
497.09	4561.70
497.26	4507.87
497.44	4528.94
497.62	4327.65
497.79	4418.93
497.97	4215.30
498.14	4009.34
498.32	4299.56
498.50	4531.28
498.67	4444.68
498.85	4521.92
499.03	4505.53
499.20	4519.57
499.38	4491.49
499.56	4514.89
499.73	4486.81
499.91	4524.26
500.08	4292.54
500.26	4217.65
500.44	4229.35
500.61	4297.22
500.79	4395.53
500.97	4273.82
501.14	4280.84
501.32	4121.68
501.49	4140.41
501.67	4091.26
501.84	4285.52
502.02	4276.16
502.20	4510.21
502.37	4376.80
502.55	4325.31
502.72	4404.89
502.90	4500.85
503.07	4458.72
503.25	4304.25
503.43	4184.88
503.60	3976.57
503.78	4039.76
503.95	3967.21
504.13	4168.49
504.30	4524.26
504.48	4390.84
504.65	4374.46
504.83	4421.27
505.01	4409.57
505.18	4416.59
505.36	4634.26
505.53	4629.58
505.71	4620.22
505.88	4739.58
506.06	4568.73
506.23	4573.41
506.41	4510.21
506.58	4524.26
506.76	4496.17
506.93	4554.68
507.11	4353.40
507.28	4397.87
507.46	4496.17
507.63	4461.06
507.81	4395.53
507.98	4454.04
508.16	4517.23
508.33	4372.12
508.50	4582.77
508.68	4697.46
508.85	4652.98
509.03	4748.95
509.20	4844.91
509.38	4538.30
509.55	4470.42
509.73	4582.77
509.90	4486.81
510.08	4580.43
510.25	4798.10
510.42	4681.07
510.60	4592.13
510.77	4655.33
510.95	4793.42
511.12	4697.46
511.30	4938.53
511.47	4791.08
511.64	4716.18
511.82	4919.81
511.99	4667.03
512.17	4505.53
512.34	4540.64
512.51	4514.89
512.69	4596.81
512.86	4683.41
513.04	4585.11
513.21	4613.20
513.38	4592.13
513.56	4678.73
513.73	4517.23
513.90	4475.10
514.08	4629.58
514.25	4545.32
514.43	4603.83
514.60	4674.05
514.77	4624.90
514.95	4685.75
515.12	4594.47
515.29	4744.27
515.47	4793.42
515.64	4793.42
515.81	4770.01
515.99	4638.94
516.16	4451.70
516.33	4159.13
516.51	3904.01
516.68	3700.39
516.85	3784.65
517.03	3786.99
517.20	4067.85
517.37	4496.17
517.54	4582.77
517.72	4456.38
517.89	4351.06
518.06	3985.93
518.24	4196.58
518.41	4355.74
518.58	4416.59
518.75	4346.37
518.93	4538.30
519.10	4519.57
519.27	4491.49
519.45	4603.83
519.62	4573.41
519.79	4716.18
519.96	4676.39
520.14	4713.84
520.31	4596.81
520.48	4571.07
520.65	4552.34
520.83	4667.03
521.00	4826.18
521.17	4498.51
521.34	4730.22
521.52	4823.84
521.69	4755.97
521.86	4908.10
522.03	4786.40
522.20	4669.37
522.38	4606.17
522.55	4376.80
522.72	4573.41
522.89	4510.21
523.07	4713.84
523.24	4765.33
523.41	4842.57
523.58	4873.00
523.75	4947.89
523.92	5015.77
524.10	4999.38
524.27	4919.81
524.44	4873.00
524.61	4924.49
524.78	4863.63
524.96	4865.97
525.13	4924.49
525.30	4727.88
525.47	5025.13
525.64	5027.47
525.81	4777.03
525.98	4498.51
526.16	4271.48
526.33	4257.43
526.50	4201.26
526.67	4271.48
526.84	4210.62
527.01	4416.59
527.18	4477.44
527.36	4578.09
527.53	4760.65
527.70	4755.97
527.87	4655.33
528.04	4711.50
528.21	4641.28
528.38	4816.82
528.55	4917.47
528.72	5025.13
528.89	5008.75
529.07	4922.15
529.24	4905.76
529.41	4779.37
529.58	4538.30
529.75	4702.14
529.92	4847.25
530.09	4779.37
530.26	4910.44
530.43	4765.33
530.60	4985.34
530.77	5132.79
530.94	5018.11
531.11	4968.96
531.28	4767.67
531.46	4767.67
531.63	4851.93
531.80	4851.93
531.97	4851.93
532.14	4662.35
532.31	4573.41
532.48	4444.68
532.65	4297.22
532.82	4477.44
532.99	4786.40
533.16	4791.08
533.33	4842.57
533.50	4758.31
533.67	4734.90
533.84	4652.98
534.01	4671.71
534.18	4816.82
534.35	4711.50
534.52	4753.63
534.69	4791.08
534.86	4816.82
535.03	4868.31
535.20	4884.70
535.37	5036.83
535.54	4929.17
535.71	4950.23
535.88	4905.76
536.05	4802.78
536.22	4713.84
536.38	4755.97
536.55	4702.14
536.72	4554.68
536.89	4463.40
537.06	4650.64
537.23	4828.53
537.40	4887.04
537.57	4896.40
537.74	4765.33
537.91	4931.51
538.08	4779.37
538.25	4823.84
538.42	4706.82
538.59	4851.93
538.75	4725.54
538.92	4631.92
539.09	4802.78
539.26	4695.11
539.43	4573.41
539.60	4627.24
539.77	4655.33
539.94	4566.39
540.11	4585.11
540.28	4503.19
540.44	4547.66
540.61	4589.79
540.78	4629.58
540.95	4704.48
541.12	4863.63
541.29	4973.64
541.46	5167.90
541.62	5025.13
541.79	5095.35
541.96	4828.53
542.13	4926.83
542.30	4840.23
542.47	4997.04
542.63	4973.64
542.80	4884.70
542.97	4755.97
543.14	4880.02
543.31	4812.14
543.48	4877.68
543.64	5060.24
543.81	5015.77
543.98	5158.54
544.15	4938.53
544.32	4887.04
544.48	4924.49
544.65	4971.30
544.82	4854.27
544.99	4868.31
545.16	4924.49
545.32	4926.83
545.49	5303.65
545.66	5682.82
545.83	5818.57
546.00	5596.22
546.16	5254.50
546.33	4973.64
546.50	5006.41
546.67	5001.72
546.83	5008.75
547.00	4793.42
547.17	4821.50
547.34	4709.16
547.50	4652.98
547.67	4699.80
547.84	4697.46
548.00	4854.27
548.17	4727.88
548.34	4662.35
548.51	4704.48
548.67	4821.50
548.84	4737.24
549.01	4610.86
549.18	4770.01
549.34	4662.35
549.51	4662.35
549.68	4638.94
549.84	4732.56
550.01	4650.64
550.18	4709.16
550.34	4652.98
550.51	4725.54
550.68	4660.01
550.84	4657.67
551.01	4589.79
551.18	4510.21
551.34	4568.73
551.51	4631.92
551.68	4688.09
551.84	4695.11
552.01	4652.98
552.18	4470.42
552.34	4432.97
552.51	4547.66
552.68	4428.29
552.84	4482.13
553.01	4533.62
553.18	4496.17
553.34	4475.10
553.51	4573.41
553.67	4531.28
553.84	4711.50
554.01	4418.93
554.17	4512.55
554.34	4374.46
554.51	4461.06
554.67	4603.83
554.84	4678.73
555.00	4620.22
555.17	4510.21
555.33	4678.73
555.50	4631.92
555.67	4615.54
555.83	4376.80
556.00	4418.93
556.16	4437.66
556.33	4297.22
556.50	4262.12
556.66	4322.97
556.83	4334.67
556.99	4292.54
557.16	4187.22
557.32	4372.12
557.49	4311.27
557.65	4346.37
557.82	4367.44
557.98	4381.48
558.15	4215.30
558.32	4264.46
558.48	3990.61
558.65	4079.55
558.81	4114.66
558.98	4161.47
559.14	4128.70
559.31	4255.09
559.47	4215.30
559.64	4180.20
559.80	4224.67
559.97	4135.73
560.13	4030.40
560.30	4262.12
560.46	4229.35
560.63	4369.78
560.79	4402.55
560.96	4311.27
561.12	4264.46
561.29	4175.52
561.45	4189.56
561.61	4231.69
561.78	4297.22
561.94	4243.39
562.11	4140.41
562.27	4297.22
562.44	4362.76
562.60	4360.42
562.77	4222.33
562.93	4332.33
563.10	4194.24
563.26	4187.22
563.42	4119.34
563.59	4077.21
563.75	4098.28
563.92	4180.20
564.08	4095.94
564.24	4208.28
564.41	4259.78
564.57	4184.88
564.74	4238.71
564.90	4238.71
565.07	4177.86
565.23	4170.83
565.39	3983.59
565.56	4037.42
565.72	3911.04
565.88	3878.27
566.05	3978.91
566.21	3957.85
566.38	4166.15
566.54	4063.17
566.70	4095.94
566.87	4124.02
567.03	4088.92
567.19	4044.45
567.36	4138.07
567.52	4007.00
567.68	4198.92
567.85	3871.25
568.01	3733.15
568.17	3653.58
568.34	3789.33
568.50	3784.65
568.66	3829.12
568.83	3857.20
568.99	3850.18
569.15	3733.15
569.32	3798.69
569.48	3789.33
569.64	3698.05
569.81	3847.84
569.97	3782.31
570.13	3786.99
570.30	3794.01
570.46	3904.01
570.62	3559.95
570.78	3726.13
570.95	3618.47
571.11	3812.73
571.27	3658.26
571.43	3686.34
571.60	3716.77
571.76	3861.88
571.92	3782.31
572.09	3892.31
572.25	3953.16
572.41	3829.12
572.57	3819.75
572.74	3770.60
572.90	3852.52
573.06	3974.23
573.22	3861.88
573.38	3754.22
573.55	3932.10
573.71	3892.31
573.87	3911.04
574.03	3754.22
574.20	3742.52
574.36	3789.33
574.52	3812.73
574.68	3639.53
574.84	3695.71
575.01	3634.85
575.17	3749.54
575.33	3658.26
575.49	3733.15
575.65	3667.62
575.82	3705.07
575.98	3634.85
576.14	3627.83
576.30	3651.24
576.46	3901.67
576.62	3992.95
576.79	3976.57
576.95	3824.44
577.11	3658.26
577.27	3765.92
577.43	3770.60
577.59	3606.77
577.75	3644.21
577.92	3438.25
578.08	3559.95
578.24	3527.19
578.40	3548.25
578.56	3840.82
578.72	3941.46
578.88	3791.67
579.04	3794.01
579.21	3791.67
579.37	3763.58
579.53	3676.98
579.69	3709.75
579.85	3857.20
580.01	3833.80
580.17	3747.20
580.33	3740.18
580.49	3705.07
580.65	3744.86
580.82	3721.45
580.98	3555.27
581.14	3662.94
581.30	3719.11
581.46	3749.54
581.62	3922.74
581.78	3831.46
581.94	3932.10
582.10	3693.37
582.26	3810.39
582.42	3810.39
582.58	3801.03
582.74	3768.26
582.90	3763.58
583.06	3934.44
583.22	3801.03
583.38	3889.97
583.54	3866.56
583.70	3784.65
583.86	3733.15
584.02	3831.46
584.18	3758.90
584.34	3737.84
584.50	4002.32
584.66	3756.56
584.82	3744.86
584.98	3571.66
585.14	3665.28
585.30	3686.34
585.46	3618.47
585.62	3548.25
585.78	3583.36
585.94	3396.12
586.10	3536.55
586.26	3653.58
586.42	3595.06
586.58	3651.24
586.74	3595.06
586.90	3613.79
587.06	3597.40
587.22	3552.93
587.38	3496.76
587.54	3545.91
587.70	3377.39
587.86	3293.13
588.02	3243.98
588.18	3073.12
588.34	3000.57
588.49	2764.17
588.65	2668.21
588.81	2623.74
588.97	2647.15
589.13	2658.85
589.29	2717.36
589.45	2675.23
589.61	2729.06
589.77	2679.91
589.93	2937.37
590.08	2904.60
590.24	2998.23
590.40	2949.08
590.56	2951.42
590.72	2991.20
590.88	2963.12
591.04	3035.67
591.20	2995.89
591.35	2939.71
591.51	2918.65
591.67	3005.25
591.83	2876.52
591.99	2993.55
592.15	3026.31
592.31	2993.55
592.46	3110.57
592.62	3180.79
592.78	3164.40
592.94	3178.45
593.10	3148.02
593.26	3190.15
593.41	3318.88
593.57	3206.53
593.73	3073.12
593.89	2953.76
594.05	2853.11
594.20	2803.96
594.36	2764.17
594.52	2750.13
594.68	2848.43
594.84	2829.71
594.99	2995.89
595.15	3000.57
595.31	3059.08
595.47	3087.17
595.62	2892.90
595.78	3082.49
595.94	3152.70
596.10	3101.21
596.25	3075.46
596.41	2953.76
596.57	3023.97
596.73	3000.57
596.88	3087.17
597.04	3157.38
597.20	3070.78
597.36	2935.03
597.51	3005.25
597.67	3084.83
597.83	2965.46
597.99	3218.24
