SpectraSuite Data File
++++++++++++++++++++++++++++++++++++
Date: Fri Oct 04 11:42:27 GMT-05:00 2013
User: price-jones
Dark Spectrum Present: No
Reference Spectrum Present: No
Number of Sampled Component Spectra: 1
Spectrometers: USB2+H05261
Integration Time (usec): 100000 (USB2+H05261)
Spectra Averaged: 1 (USB2+H05261)
Boxcar Smoothing: 0 (USB2+H05261)
Correct for Electrical Dark: No (USB2+H05261)
Strobe/Lamp Enabled: No (USB2+H05261)
Correct for Detector Non-linearity: No (USB2+H05261)
Correct for Stray Light: No (USB2+H05261)
Number of Pixels in Processed Spectrum: 2048
>>>>>Begin Processed Spectral Data<<<<<
365.73	0.00
365.92	0.00
366.12	0.00
366.32	0.00
366.52	0.00
366.72	0.00
366.91	0.00
367.11	0.00
367.31	0.00
367.51	0.00
367.70	0.00
367.90	0.00
368.10	0.00
368.30	0.00
368.49	0.00
368.69	0.00
368.89	0.00
369.09	0.00
369.28	0.00
369.48	0.00
369.68	0.00
369.87	0.00
370.07	0.00
370.27	0.00
370.47	0.00
370.66	0.00
370.86	0.00
371.06	88.94
371.25	110.01
371.45	91.28
371.65	49.15
371.84	46.81
372.04	70.22
372.24	0.00
372.44	161.50
372.63	126.39
372.83	170.86
373.03	65.54
373.22	117.03
373.42	98.30
373.62	88.94
373.81	135.75
374.01	166.18
374.21	114.69
374.40	67.88
374.60	152.13
374.79	135.75
374.99	140.43
375.19	147.45
375.38	100.64
375.58	142.77
375.78	100.64
375.97	180.22
376.17	145.11
376.37	95.96
376.56	102.98
376.76	128.73
376.95	35.11
377.15	142.77
377.35	79.58
377.54	126.39
377.74	110.01
377.93	156.82
378.13	159.16
378.33	112.35
378.52	138.09
378.72	126.39
378.91	79.58
379.11	100.64
379.31	142.77
379.50	131.07
379.70	93.62
379.89	138.09
380.09	51.49
380.28	147.45
380.48	149.79
380.68	53.83
380.87	77.24
381.07	86.60
381.26	156.82
381.46	46.81
381.65	102.98
381.85	74.90
382.04	131.07
382.24	161.50
382.43	114.69
382.63	114.69
382.83	86.60
383.02	180.22
383.22	184.90
383.41	88.94
383.61	133.41
383.80	74.90
384.00	152.13
384.19	70.22
384.39	110.01
384.58	156.82
384.78	72.56
384.97	121.71
385.17	91.28
385.36	163.84
385.56	163.84
385.75	105.32
385.95	159.16
386.14	142.77
386.34	131.07
386.53	135.75
386.72	117.03
386.92	126.39
387.11	110.01
387.31	138.09
387.50	110.01
387.70	170.86
387.89	77.24
388.09	142.77
388.28	124.05
388.48	91.28
388.67	124.05
388.86	102.98
389.06	147.45
389.25	119.37
389.45	140.43
389.64	145.11
389.84	140.43
390.03	91.28
390.22	145.11
390.42	72.56
390.61	42.13
390.81	217.67
391.00	152.13
391.19	102.98
391.39	128.73
391.58	140.43
391.78	63.19
391.97	128.73
392.16	110.01
392.36	60.85
392.55	147.45
392.75	95.96
392.94	126.39
393.13	114.69
393.33	46.81
393.52	88.94
393.71	135.75
393.91	102.98
394.10	156.82
394.29	63.19
394.49	121.71
394.68	86.60
394.88	135.75
395.07	107.66
395.26	112.35
395.46	142.77
395.65	234.05
395.84	121.71
396.04	128.73
396.23	107.66
396.42	112.35
396.62	107.66
396.81	163.84
397.00	117.03
397.19	145.11
397.39	121.71
397.58	110.01
397.77	18.72
397.97	77.24
398.16	203.63
398.35	65.54
398.55	58.51
398.74	79.58
398.93	131.07
399.12	126.39
399.32	91.28
399.51	88.94
399.70	145.11
399.90	121.71
400.09	152.13
400.28	110.01
400.47	119.37
400.67	102.98
400.86	84.26
401.05	135.75
401.24	154.48
401.44	107.66
401.63	159.16
401.82	147.45
402.01	72.56
402.21	170.86
402.40	114.69
402.59	102.98
402.78	46.81
402.97	147.45
403.17	119.37
403.36	121.71
403.55	177.88
403.74	229.37
403.93	599.18
404.13	1315.38
404.32	1458.15
404.51	1224.10
404.70	763.01
404.89	341.72
405.09	210.65
405.28	170.86
405.47	126.39
405.66	117.03
405.85	194.26
406.05	138.09
406.24	112.35
406.43	177.88
406.62	128.73
406.81	131.07
407.00	238.73
407.20	264.48
407.39	369.80
407.58	311.29
407.77	255.12
407.96	203.63
408.15	187.24
408.34	110.01
408.54	163.84
408.73	142.77
408.92	163.84
409.11	131.07
409.30	135.75
409.49	131.07
409.68	194.26
409.87	124.05
410.07	133.41
410.26	138.09
410.45	191.92
410.64	133.41
410.83	173.20
411.02	145.11
411.21	107.66
411.40	128.73
411.59	110.01
411.78	117.03
411.98	170.86
412.17	107.66
412.36	126.39
412.55	133.41
412.74	196.60
412.93	210.65
413.12	95.96
413.31	138.09
413.50	140.43
413.69	142.77
413.88	177.88
414.07	100.64
414.26	187.24
414.45	81.92
414.64	156.82
414.83	149.79
415.02	163.84
415.22	220.01
415.41	191.92
415.60	126.39
415.79	203.63
415.98	135.75
416.17	205.97
416.36	154.48
416.55	121.71
416.74	191.92
416.93	196.60
417.12	161.50
417.31	205.97
417.50	126.39
417.69	194.26
417.88	170.86
418.07	147.45
418.26	126.39
418.45	159.16
418.64	220.01
418.83	152.13
419.02	210.65
419.21	189.58
419.39	168.52
419.58	161.50
419.77	117.03
419.96	105.32
420.15	126.39
420.34	205.97
420.53	149.79
420.72	135.75
420.91	177.88
421.10	180.22
421.29	173.20
421.48	198.95
421.67	227.03
421.86	184.90
422.05	187.24
422.24	147.45
422.43	145.11
422.61	114.69
422.80	79.58
422.99	196.60
423.18	163.84
423.37	243.42
423.56	170.86
423.75	93.62
423.94	217.67
424.13	203.63
424.32	182.56
424.50	198.95
424.69	175.54
424.88	189.58
425.07	161.50
425.26	117.03
425.45	166.18
425.64	248.10
425.83	210.65
426.01	175.54
426.20	140.43
426.39	168.52
426.58	154.48
426.77	236.39
426.96	231.71
427.15	166.18
427.33	156.82
427.52	152.13
427.71	173.20
427.90	152.13
428.09	163.84
428.28	142.77
428.46	154.48
428.65	222.35
428.84	224.69
429.03	210.65
429.22	212.99
429.40	138.09
429.59	117.03
429.78	217.67
429.97	196.60
430.16	177.88
430.34	177.88
430.53	107.66
430.72	180.22
430.91	241.08
431.10	117.03
431.28	208.31
431.47	227.03
431.66	220.01
431.85	117.03
432.03	166.18
432.22	262.14
432.41	140.43
432.60	217.67
432.79	203.63
432.97	241.08
433.16	222.35
433.35	236.39
433.54	227.03
433.72	276.18
433.91	299.59
434.10	311.29
434.28	271.50
434.47	278.52
434.66	355.76
434.85	435.34
435.03	1039.20
435.22	3246.32
435.41	5916.87
435.59	5451.11
435.78	3805.71
435.97	1853.70
436.16	765.36
436.34	362.78
436.53	210.65
436.72	346.40
436.90	201.29
437.09	224.69
437.28	205.97
437.46	142.77
437.65	203.63
437.84	252.78
438.02	205.97
438.21	236.39
438.40	198.95
438.58	163.84
438.77	348.74
438.96	152.13
439.14	173.20
439.33	234.05
439.52	201.29
439.70	194.26
439.89	201.29
440.08	208.31
440.26	248.10
440.45	182.56
440.63	198.95
440.82	201.29
441.01	182.56
441.19	198.95
441.38	278.52
441.57	201.29
441.75	245.76
441.94	210.65
442.12	198.95
442.31	191.92
442.50	152.13
442.68	229.37
442.87	175.54
443.05	201.29
443.24	266.82
443.43	203.63
443.61	234.05
443.80	234.05
443.98	222.35
444.17	217.67
444.35	241.08
444.54	170.86
444.73	245.76
444.91	198.95
445.10	161.50
445.28	210.65
445.47	203.63
445.65	231.71
445.84	212.99
446.02	243.42
446.21	170.86
446.39	248.10
446.58	203.63
446.77	222.35
446.95	262.14
447.14	184.90
447.32	266.82
447.51	250.44
447.69	194.26
447.88	243.42
448.06	210.65
448.25	234.05
448.43	191.92
448.62	170.86
448.80	163.84
448.99	229.37
449.17	203.63
449.36	210.65
449.54	163.84
449.73	184.90
449.91	198.95
450.10	142.77
450.28	271.50
450.46	269.16
450.65	283.20
450.83	266.82
451.02	262.14
451.20	187.24
451.39	266.82
451.57	217.67
451.76	161.50
451.94	173.20
452.13	201.29
452.31	259.80
452.49	212.99
452.68	191.92
452.86	238.73
453.05	201.29
453.23	203.63
453.42	170.86
453.60	133.41
453.78	184.90
453.97	241.08
454.15	264.48
454.34	241.08
454.52	180.22
454.70	205.97
454.89	313.63
455.07	170.86
455.26	269.16
455.44	273.84
455.62	152.13
455.81	248.10
455.99	306.61
456.17	243.42
456.36	198.95
456.54	203.63
456.73	210.65
456.91	250.44
457.09	203.63
457.28	245.76
457.46	156.82
457.64	215.33
457.83	142.77
458.01	191.92
458.19	191.92
458.38	187.24
458.56	217.67
458.74	252.78
458.93	184.90
459.11	217.67
459.29	236.39
459.48	133.41
459.66	215.33
459.84	215.33
460.03	220.01
460.21	163.84
460.39	163.84
460.57	222.35
460.76	198.95
460.94	245.76
461.12	294.91
461.31	313.63
461.49	248.10
461.67	224.69
461.85	231.71
462.04	308.95
462.22	341.72
462.40	203.63
462.59	182.56
462.77	238.73
462.95	227.03
463.13	205.97
463.32	264.48
463.50	234.05
463.68	264.48
463.86	248.10
464.05	203.63
464.23	262.14
464.41	318.31
464.59	222.35
464.78	156.82
464.96	248.10
465.14	259.80
465.32	166.18
465.50	203.63
465.69	145.11
465.87	212.99
466.05	210.65
466.23	180.22
466.41	196.60
466.60	177.88
466.78	212.99
466.96	201.29
467.14	273.84
467.32	203.63
467.51	215.33
467.69	203.63
467.87	266.82
468.05	285.55
468.23	220.01
468.41	252.78
468.60	128.73
468.78	212.99
468.96	215.33
469.14	177.88
469.32	196.60
469.50	212.99
469.69	191.92
469.87	266.82
470.05	145.11
470.23	224.69
470.41	184.90
470.59	163.84
470.77	175.54
470.95	198.95
471.14	238.73
471.32	220.01
471.50	255.12
471.68	208.31
471.86	203.63
472.04	236.39
472.22	187.24
472.40	149.79
472.58	215.33
472.77	264.48
472.95	201.29
473.13	299.59
473.31	234.05
473.49	173.20
473.67	182.56
473.85	252.78
474.03	128.73
474.21	257.46
474.39	180.22
474.57	241.08
474.75	276.18
474.93	220.01
475.12	208.31
475.30	217.67
475.48	227.03
475.66	203.63
475.84	220.01
476.02	306.61
476.20	208.31
476.38	187.24
476.56	248.10
476.74	173.20
476.92	250.44
477.10	189.58
477.28	322.99
477.46	196.60
477.64	205.97
477.82	255.12
478.00	273.84
478.18	170.86
478.36	229.37
478.54	194.26
478.72	276.18
478.90	208.31
479.08	182.56
479.26	220.01
479.44	212.99
479.62	229.37
479.80	208.31
479.98	191.92
480.16	250.44
480.34	306.61
480.52	353.42
480.70	292.57
480.88	330.02
481.06	257.46
481.24	187.24
481.41	304.27
481.59	304.27
481.77	330.02
481.95	304.27
482.13	353.42
482.31	252.78
482.49	414.27
482.67	362.78
482.85	418.96
483.03	423.64
483.21	358.10
483.39	468.11
483.57	510.24
483.74	447.04
483.92	456.40
484.10	517.26
484.28	564.07
484.46	669.39
484.64	634.29
484.82	575.77
485.00	683.44
485.18	688.12
485.35	685.78
485.53	629.60
485.71	800.46
485.89	781.74
486.07	805.14
486.25	924.51
486.43	816.85
486.61	830.89
486.78	858.98
486.96	791.10
487.14	870.68
487.32	814.51
487.50	849.61
487.68	875.36
487.85	765.36
488.03	854.30
488.21	856.64
488.39	807.48
488.57	840.25
488.75	880.04
488.92	1116.44
489.10	828.55
489.28	908.13
489.46	800.46
489.64	791.10
489.81	800.46
489.99	833.23
490.17	800.46
490.35	828.55
490.53	699.82
490.70	706.84
490.88	692.80
491.06	725.57
491.24	800.46
491.41	837.91
491.59	737.27
491.77	723.23
491.95	664.71
492.13	624.92
492.30	681.10
492.48	667.05
492.66	692.80
492.84	608.54
493.01	753.65
493.19	681.10
493.37	692.80
493.54	692.80
493.72	594.50
493.90	589.82
494.08	681.10
494.25	592.16
494.43	720.88
494.61	685.78
494.79	594.50
494.96	608.54
495.14	589.82
495.32	524.28
495.49	543.00
495.67	479.81
495.85	461.09
496.02	519.60
496.20	575.77
496.38	554.71
496.55	580.45
496.73	571.09
496.91	575.77
497.09	592.16
497.26	479.81
497.44	484.49
497.62	559.39
497.79	491.51
497.97	507.90
498.14	498.53
498.32	573.43
498.50	414.27
498.67	442.36
498.85	374.49
499.03	402.57
499.20	421.30
499.38	402.57
499.56	428.32
499.73	461.09
499.91	409.59
500.08	425.98
500.26	421.30
500.44	404.91
500.61	468.11
500.79	362.78
500.97	362.78
501.14	449.38
501.32	381.51
501.49	318.31
501.67	320.65
501.84	325.33
502.02	297.25
502.20	395.55
502.37	395.55
502.55	341.72
502.72	346.40
502.90	313.63
503.07	252.78
503.25	330.02
503.43	297.25
503.60	301.93
503.78	301.93
503.95	255.12
504.13	297.25
504.30	320.65
504.48	414.27
504.65	262.14
504.83	287.89
505.01	224.69
505.18	264.48
505.36	283.20
505.53	257.46
505.71	301.93
505.88	208.31
506.06	252.78
506.23	255.12
506.41	276.18
506.58	355.76
506.76	266.82
506.93	311.29
507.11	292.57
507.28	210.65
507.46	222.35
507.63	266.82
507.81	224.69
507.98	224.69
508.16	259.80
508.33	360.44
508.50	236.39
508.68	264.48
508.85	250.44
509.03	276.18
509.20	308.95
509.38	290.23
509.55	273.84
509.73	315.97
509.90	320.65
510.08	278.52
510.25	196.60
510.42	241.08
510.60	257.46
510.77	297.25
510.95	194.26
511.12	222.35
511.30	290.23
511.47	248.10
511.64	294.91
511.82	292.57
511.99	313.63
512.17	285.55
512.34	245.76
512.51	306.61
512.69	170.86
512.86	327.68
513.04	194.26
513.21	332.36
513.38	255.12
513.56	365.12
513.73	210.65
513.90	255.12
514.08	269.16
514.25	250.44
514.43	313.63
514.60	236.39
514.77	243.42
514.95	290.23
515.12	220.01
515.29	168.52
515.47	231.71
515.64	224.69
515.81	294.91
515.99	264.48
516.16	243.42
516.33	224.69
516.51	241.08
516.68	184.90
516.85	297.25
517.03	325.33
517.20	236.39
517.37	259.80
517.54	248.10
517.72	283.20
517.89	215.33
518.06	306.61
518.24	271.50
518.41	313.63
518.58	259.80
518.75	278.52
518.93	231.71
519.10	215.33
519.27	215.33
519.45	266.82
519.62	210.65
519.79	287.89
519.96	255.12
520.14	283.20
520.31	194.26
520.48	215.33
520.65	285.55
520.83	252.78
521.00	306.61
521.17	245.76
521.34	297.25
521.52	283.20
521.69	306.61
521.86	168.52
522.03	287.89
522.20	351.08
522.38	238.73
522.55	280.86
522.72	212.99
522.89	290.23
523.07	341.72
523.24	170.86
523.41	259.80
523.58	201.29
523.75	269.16
523.92	285.55
524.10	241.08
524.27	294.91
524.44	231.71
524.61	322.99
524.78	294.91
524.96	276.18
525.13	220.01
525.30	266.82
525.47	308.95
525.64	236.39
525.81	257.46
525.98	245.76
526.16	222.35
526.33	255.12
526.50	227.03
526.67	252.78
526.84	231.71
527.01	203.63
527.18	241.08
527.36	376.83
527.53	315.97
527.70	313.63
527.87	299.59
528.04	222.35
528.21	252.78
528.38	252.78
528.55	283.20
528.72	337.04
528.89	315.97
529.07	191.92
529.24	301.93
529.41	297.25
529.58	262.14
529.75	271.50
529.92	276.18
530.09	227.03
530.26	248.10
530.43	318.31
530.60	280.86
530.77	234.05
530.94	259.80
531.11	355.76
531.28	313.63
531.46	341.72
531.63	283.20
531.80	187.24
531.97	287.89
532.14	241.08
532.31	318.31
532.48	440.02
532.65	395.55
532.82	379.17
532.99	484.49
533.16	517.26
533.33	512.58
533.50	557.05
533.67	418.96
533.84	435.34
534.01	388.53
534.18	456.40
534.35	423.64
534.52	428.32
534.69	510.24
534.86	395.55
535.03	440.02
535.20	421.30
535.37	454.06
535.54	428.32
535.71	435.34
535.88	486.83
536.05	550.03
536.22	482.15
536.38	547.69
536.55	559.39
536.72	615.56
536.89	617.90
537.06	599.18
537.23	727.91
537.40	727.91
537.57	816.85
537.74	896.43
537.91	992.39
538.08	999.41
538.25	1025.15
538.42	1062.60
538.59	1004.09
538.75	1069.62
538.92	1184.31
539.09	1231.12
539.26	1270.91
539.43	1448.79
539.60	1631.35
539.77	1785.83
539.94	1874.77
540.11	2078.40
540.28	2272.66
540.44	2492.67
540.61	2579.27
540.78	2878.86
540.95	3323.56
541.12	4044.45
541.29	4545.32
541.46	4926.83
541.62	5071.94
541.79	5322.38
541.96	5467.49
542.13	5305.99
542.30	5226.42
542.47	4971.30
542.63	4823.84
542.80	5015.77
542.97	4910.44
543.14	4910.44
543.31	4957.25
543.48	4945.55
543.64	4975.98
543.81	4975.98
543.98	4936.19
544.15	4699.80
544.32	4678.73
544.48	4610.86
544.65	4517.23
544.82	4271.48
544.99	4194.24
545.16	4285.52
545.32	4444.68
545.49	7353.96
545.66	12409.52
545.83	13935.55
546.00	11438.20
546.16	8091.23
546.33	5708.57
546.50	4234.03
546.67	3456.97
546.83	2857.79
547.00	2782.90
547.17	2588.63
547.34	2473.95
547.50	2314.79
547.67	2354.58
547.84	2188.40
548.00	2211.81
548.17	2260.96
548.34	2169.68
548.51	2260.96
548.67	2237.55
548.84	2186.06
549.01	2111.16
549.18	1980.09
549.34	1982.43
549.51	2026.90
549.68	1914.56
549.84	1755.40
550.01	1568.16
550.18	1650.08
550.34	1692.21
550.51	1495.60
550.68	1383.26
550.84	1327.08
551.01	1284.95
551.18	1315.38
551.34	1256.87
551.51	1207.72
551.68	1174.95
551.84	1226.44
552.01	1224.10
552.18	1193.67
552.34	1139.84
552.51	1184.31
552.68	1123.46
552.84	1074.31
553.01	933.87
553.18	936.21
553.34	821.53
553.51	868.34
553.67	767.70
553.84	910.47
554.01	746.63
554.17	641.31
554.34	660.03
554.51	615.56
554.67	566.41
554.84	573.43
555.00	585.13
555.17	552.37
555.33	594.50
555.50	486.83
555.67	521.94
555.83	440.02
556.00	475.13
556.16	594.50
556.33	456.40
556.50	353.42
556.66	498.53
556.83	397.89
556.99	386.19
557.16	381.51
557.32	449.38
557.49	386.19
557.65	379.17
557.82	322.99
557.98	435.34
558.15	344.06
558.32	383.85
558.48	360.44
558.65	348.74
558.81	428.32
558.98	383.85
559.14	301.93
559.31	404.91
559.47	346.40
559.64	297.25
559.80	367.46
559.97	344.06
560.13	283.20
560.30	301.93
560.46	351.08
560.63	365.12
560.79	374.49
560.96	327.68
561.12	297.25
561.29	374.49
561.45	320.65
561.61	337.04
561.78	379.17
561.94	278.52
562.11	386.19
562.27	325.33
562.44	311.29
562.60	290.23
562.77	325.33
562.93	381.51
563.10	315.97
563.26	241.08
563.42	290.23
563.59	278.52
563.75	304.27
563.92	308.95
564.08	344.06
564.24	271.50
564.41	390.87
564.57	290.23
564.74	311.29
564.90	210.65
565.07	243.42
565.23	229.37
565.39	294.91
565.56	299.59
565.72	301.93
565.88	273.84
566.05	210.65
566.21	220.01
566.38	322.99
566.54	264.48
566.70	299.59
566.87	238.73
567.03	297.25
567.19	292.57
567.36	259.80
567.52	330.02
567.68	255.12
567.85	269.16
568.01	294.91
568.17	252.78
568.34	262.14
568.50	313.63
568.66	325.33
568.83	292.57
568.99	285.55
569.15	285.55
569.32	257.46
569.48	250.44
569.64	259.80
569.81	234.05
569.97	236.39
570.13	262.14
570.30	250.44
570.46	308.95
570.62	301.93
570.78	248.10
570.95	133.41
571.11	278.52
571.27	322.99
571.43	269.16
571.60	194.26
571.76	229.37
571.92	294.91
572.09	278.52
572.25	318.31
572.41	299.59
572.57	327.68
572.74	341.72
572.90	198.95
573.06	285.55
573.22	283.20
573.38	313.63
573.55	318.31
573.71	271.50
573.87	320.65
574.03	266.82
574.20	294.91
574.36	252.78
574.52	318.31
574.68	259.80
574.84	313.63
575.01	322.99
575.17	332.36
575.33	411.93
575.49	315.97
575.65	430.66
575.82	404.91
575.98	477.47
576.14	341.72
576.30	676.41
576.46	1788.17
576.62	2387.35
576.79	2380.32
576.95	1790.51
577.11	1233.46
577.27	840.25
577.43	692.80
577.59	582.79
577.75	519.60
577.92	465.77
578.08	482.15
578.24	475.13
578.40	718.54
578.56	1629.01
578.72	2267.98
578.88	2333.51
579.04	1781.15
579.21	1327.08
579.37	1137.50
579.53	868.34
579.69	910.47
579.85	1043.88
580.01	1181.97
580.17	1174.95
580.33	1046.22
580.49	943.24
580.65	896.43
580.82	800.46
580.98	748.97
581.14	767.70
581.30	901.11
581.46	894.08
581.62	875.36
581.78	999.41
581.94	976.00
582.10	1006.43
582.26	990.05
582.42	1015.79
582.58	1027.50
582.74	1137.50
582.90	1151.54
583.06	1252.19
583.22	1270.91
583.38	1160.91
583.54	1233.46
583.70	1256.87
583.86	1156.22
584.02	1132.82
584.18	1268.57
584.34	1100.05
584.50	1181.97
584.66	1074.31
584.82	1081.33
584.98	1018.13
585.14	1018.13
585.30	1025.15
585.46	952.60
585.62	980.68
585.78	973.66
585.94	985.37
586.10	905.79
586.26	1055.58
586.42	1179.63
586.58	1369.21
586.74	1577.52
586.90	1874.77
587.06	2010.52
587.22	2019.88
587.38	1956.69
587.54	1633.69
587.70	1425.39
587.86	1448.79
588.02	1128.14
588.18	1076.65
588.34	1053.24
588.49	851.96
588.65	931.53
588.81	823.87
588.97	826.21
589.13	772.38
589.29	816.85
589.45	868.34
589.61	828.55
589.77	856.64
589.93	755.99
590.08	858.98
590.24	781.74
590.40	847.27
590.56	730.25
590.72	795.78
590.88	835.57
591.04	784.08
591.20	784.08
591.35	772.38
591.51	870.68
591.67	887.06
591.83	931.53
591.99	966.64
592.15	1029.84
592.31	1011.11
592.46	1177.29
592.62	1263.89
592.78	1359.85
592.94	1418.36
593.10	1301.34
593.26	1219.42
593.41	1240.48
593.57	1060.26
593.73	926.85
593.89	812.17
594.05	828.55
594.20	748.97
594.36	596.84
594.52	603.86
594.68	545.34
594.84	561.73
594.99	589.82
595.15	561.73
595.31	596.84
595.47	636.63
595.62	470.45
595.78	615.56
595.94	580.45
596.10	557.05
596.25	599.18
596.41	599.18
596.57	547.69
596.73	498.53
596.88	564.07
597.04	507.90
597.20	489.17
597.36	472.79
597.51	596.84
597.67	610.88
597.83	678.76
597.99	657.69
598.14	690.46
598.30	786.42
598.46	748.97
598.61	720.88
598.77	816.85
598.93	798.12
599.09	943.24
599.24	990.05
599.40	842.59
599.56	779.40
599.71	887.06
599.87	763.01
600.03	681.10
600.18	674.07
600.34	617.90
600.50	636.63
600.65	582.79
600.81	594.50
600.97	517.26
601.12	482.15
601.28	500.87
601.44	477.47
601.59	503.22
601.75	575.77
601.91	390.87
602.06	458.74
602.22	519.60
602.37	421.30
602.53	472.79
602.69	416.62
602.84	454.06
603.00	379.17
603.16	475.13
603.31	477.47
603.47	433.00
603.62	416.62
603.78	468.11
603.94	500.87
604.09	482.15
604.25	411.93
604.40	440.02
604.56	472.79
604.71	484.49
604.87	479.81
605.03	423.64
605.18	458.74
605.34	573.43
605.49	475.13
605.65	489.17
605.80	418.96
605.96	531.30
606.12	559.39
606.27	535.98
606.43	613.22
606.58	617.90
606.74	580.45
606.89	643.65
607.05	664.71
607.20	774.72
607.36	702.16
607.51	718.54
607.67	765.36
607.82	772.38
607.98	889.40
608.13	856.64
608.29	936.21
608.44	1069.62
608.60	1118.78
608.75	1170.27
608.91	1338.79
609.06	1345.81
609.22	1673.48
609.37	1746.04
609.53	1933.28
