SpectraSuite Data File
++++++++++++++++++++++++++++++++++++
Date: Fri Oct 04 11:42:18 GMT-05:00 2013
User: price-jones
Dark Spectrum Present: No
Reference Spectrum Present: No
Number of Sampled Component Spectra: 1
Spectrometers: USB2+H05261
Integration Time (usec): 100000 (USB2+H05261)
Spectra Averaged: 1 (USB2+H05261)
Boxcar Smoothing: 0 (USB2+H05261)
Correct for Electrical Dark: No (USB2+H05261)
Strobe/Lamp Enabled: No (USB2+H05261)
Correct for Detector Non-linearity: No (USB2+H05261)
Correct for Stray Light: No (USB2+H05261)
Number of Pixels in Processed Spectrum: 2048
>>>>>Begin Processed Spectral Data<<<<<
365.73	0.00
365.92	0.00
366.12	0.00
366.32	0.00
366.52	0.00
366.72	0.00
366.91	0.00
367.11	0.00
367.31	0.00
367.51	0.00
367.70	0.00
367.90	0.00
368.10	0.00
368.30	0.00
368.49	0.00
368.69	0.00
368.89	0.00
369.09	0.00
369.28	0.00
369.48	0.00
369.68	0.00
369.87	0.00
370.07	0.00
370.27	42.13
370.47	7.02
370.66	37.45
370.86	138.09
371.06	107.66
371.25	74.90
371.45	42.13
371.65	105.32
371.84	88.94
372.04	77.24
372.24	16.38
372.44	84.26
372.63	112.35
372.83	168.52
373.03	56.17
373.22	114.69
373.42	161.50
373.62	100.64
373.81	194.26
374.01	124.05
374.21	147.45
374.40	112.35
374.60	98.30
374.79	70.22
374.99	156.82
375.19	140.43
375.38	156.82
375.58	107.66
375.78	191.92
375.97	161.50
376.17	149.79
376.37	119.37
376.56	182.56
376.76	131.07
376.95	145.11
377.15	107.66
377.35	142.77
377.54	133.41
377.74	74.90
377.93	35.11
378.13	72.56
378.33	74.90
378.52	133.41
378.72	77.24
378.91	81.92
379.11	53.83
379.31	142.77
379.50	39.79
379.70	107.66
379.89	175.54
380.09	140.43
380.28	124.05
380.48	159.16
380.68	46.81
380.87	84.26
381.07	86.60
381.26	182.56
381.46	79.58
381.65	159.16
381.85	84.26
382.04	138.09
382.24	140.43
382.43	72.56
382.63	100.64
382.83	84.26
383.02	93.62
383.22	191.92
383.41	49.15
383.61	147.45
383.80	128.73
384.00	112.35
384.19	156.82
384.39	117.03
384.58	63.19
384.78	117.03
384.97	102.98
385.17	107.66
385.36	91.28
385.56	124.05
385.75	100.64
385.95	119.37
386.14	173.20
386.34	65.54
386.53	84.26
386.72	142.77
386.92	112.35
387.11	147.45
387.31	95.96
387.50	98.30
387.70	114.69
387.89	86.60
388.09	131.07
388.28	98.30
388.48	91.28
388.67	117.03
388.86	117.03
389.06	205.97
389.25	140.43
389.45	121.71
389.64	119.37
389.84	77.24
390.03	170.86
390.22	93.62
390.42	51.49
390.61	128.73
390.81	79.58
391.00	124.05
391.19	170.86
391.39	161.50
391.58	173.20
391.78	110.01
391.97	81.92
392.16	170.86
392.36	156.82
392.55	154.48
392.75	114.69
392.94	63.19
393.13	166.18
393.33	95.96
393.52	142.77
393.71	142.77
393.91	117.03
394.10	163.84
394.29	72.56
394.49	161.50
394.68	152.13
394.88	156.82
395.07	145.11
395.26	93.62
395.46	163.84
395.65	114.69
395.84	117.03
396.04	222.35
396.23	128.73
396.42	161.50
396.62	93.62
396.81	98.30
397.00	177.88
397.19	182.56
397.39	203.63
397.58	145.11
397.77	46.81
397.97	114.69
398.16	126.39
398.35	133.41
398.55	100.64
398.74	133.41
398.93	119.37
399.12	79.58
399.32	163.84
399.51	133.41
399.70	166.18
399.90	161.50
400.09	105.32
400.28	205.97
400.47	156.82
400.67	145.11
400.86	180.22
401.05	170.86
401.24	107.66
401.44	124.05
401.63	135.75
401.82	208.31
402.01	201.29
402.21	133.41
402.40	196.60
402.59	126.39
402.78	236.39
402.97	163.84
403.17	156.82
403.36	189.58
403.55	346.40
403.74	557.05
403.93	1771.79
404.13	4138.07
404.32	5483.88
404.51	4311.27
404.70	2686.94
404.89	999.41
405.09	400.23
405.28	229.37
405.47	159.16
405.66	252.78
405.85	161.50
406.05	159.16
406.24	166.18
406.43	159.16
406.62	189.58
406.81	262.14
407.00	278.52
407.20	599.18
407.39	702.16
407.58	751.31
407.77	535.98
407.96	358.10
408.15	205.97
408.34	205.97
408.54	184.90
408.73	224.69
408.92	159.16
409.11	159.16
409.30	177.88
409.49	159.16
409.68	175.54
409.87	224.69
410.07	163.84
410.26	184.90
410.45	180.22
410.64	126.39
410.83	100.64
411.02	95.96
411.21	229.37
411.40	203.63
411.59	210.65
411.78	126.39
411.98	191.92
412.17	198.95
412.36	196.60
412.55	77.24
412.74	156.82
412.93	189.58
413.12	147.45
413.31	208.31
413.50	175.54
413.69	198.95
413.88	194.26
414.07	180.22
414.26	110.01
414.45	243.42
414.64	189.58
414.83	241.08
415.02	217.67
415.22	236.39
415.41	227.03
415.60	243.42
415.79	191.92
415.98	189.58
416.17	198.95
416.36	175.54
416.55	168.52
416.74	236.39
416.93	248.10
417.12	196.60
417.31	201.29
417.50	236.39
417.69	234.05
417.88	147.45
418.07	248.10
418.26	191.92
418.45	208.31
418.64	292.57
418.83	241.08
419.02	236.39
419.21	182.56
419.39	191.92
419.58	135.75
419.77	241.08
419.96	220.01
420.15	294.91
420.34	187.24
420.53	215.33
420.72	299.59
420.91	245.76
421.10	269.16
421.29	191.92
421.48	234.05
421.67	201.29
421.86	238.73
422.05	248.10
422.24	308.95
422.43	250.44
422.61	227.03
422.80	264.48
422.99	264.48
423.18	222.35
423.37	308.95
423.56	243.42
423.75	283.20
423.94	248.10
424.13	257.46
424.32	250.44
424.50	252.78
424.69	248.10
424.88	290.23
425.07	210.65
425.26	297.25
425.45	294.91
425.64	285.55
425.83	234.05
426.01	287.89
426.20	224.69
426.39	264.48
426.58	234.05
426.77	189.58
426.96	351.08
427.15	315.97
427.33	241.08
427.52	182.56
427.71	243.42
427.90	297.25
428.09	241.08
428.28	301.93
428.46	306.61
428.65	283.20
428.84	273.84
429.03	215.33
429.22	203.63
429.40	217.67
429.59	194.26
429.78	271.50
429.97	320.65
430.16	255.12
430.34	273.84
430.53	278.52
430.72	257.46
430.91	369.80
431.10	262.14
431.28	318.31
431.47	360.44
431.66	294.91
431.85	402.57
432.03	355.76
432.22	330.02
432.41	355.76
432.60	330.02
432.79	330.02
432.97	428.32
433.16	344.06
433.35	425.98
433.54	540.66
433.72	458.74
433.91	496.19
434.10	582.79
434.28	718.54
434.47	753.65
434.66	819.19
434.85	1142.18
435.03	2932.69
435.22	10466.88
435.41	23506.00
435.59	23480.25
435.78	14986.45
435.97	7639.51
436.16	2722.04
436.34	1076.65
436.53	678.76
436.72	578.11
436.90	491.51
437.09	491.51
437.28	425.98
437.46	447.04
437.65	524.28
437.84	475.13
438.02	360.44
438.21	390.87
438.40	374.49
438.58	372.15
438.77	346.40
438.96	409.59
439.14	337.04
439.33	337.04
439.52	423.64
439.70	416.62
439.89	341.72
440.08	402.57
440.26	444.70
440.45	334.70
440.63	334.70
440.82	390.87
441.01	379.17
441.19	351.08
441.38	444.70
441.57	428.32
441.75	463.43
441.94	404.91
442.12	475.13
442.31	381.51
442.50	351.08
442.68	273.84
442.87	339.38
443.05	430.66
443.24	414.27
443.43	383.85
443.61	451.72
443.80	311.29
443.98	294.91
444.17	339.38
444.35	437.68
444.54	381.51
444.73	388.53
444.91	379.17
445.10	393.21
445.28	435.34
445.47	463.43
445.65	348.74
445.84	339.38
446.02	381.51
446.21	287.89
446.39	386.19
446.58	390.87
446.77	379.17
446.95	346.40
447.14	489.17
447.32	374.49
447.51	381.51
447.69	332.36
447.88	407.25
448.06	430.66
448.25	428.32
448.43	388.53
448.62	353.42
448.80	318.31
448.99	397.89
449.17	334.70
449.36	428.32
449.54	381.51
449.73	346.40
449.91	369.80
450.10	423.64
450.28	447.04
450.46	437.68
450.65	397.89
450.83	358.10
451.02	353.42
451.20	351.08
451.39	404.91
451.57	383.85
451.76	372.15
451.94	414.27
452.13	348.74
452.31	414.27
452.49	386.19
452.68	358.10
452.86	395.55
453.05	451.72
453.23	421.30
453.42	283.20
453.60	367.46
453.78	381.51
453.97	301.93
454.15	301.93
454.34	322.99
454.52	376.83
454.70	369.80
454.89	341.72
455.07	334.70
455.26	470.45
455.44	395.55
455.62	425.98
455.81	369.80
455.99	360.44
456.17	397.89
456.36	369.80
456.54	369.80
456.73	416.62
456.91	362.78
457.09	376.83
457.28	369.80
457.46	311.29
457.64	337.04
457.83	344.06
458.01	337.04
458.19	381.51
458.38	358.10
458.56	407.25
458.74	414.27
458.93	341.72
459.11	388.53
459.29	374.49
459.48	418.96
459.66	402.57
459.84	423.64
460.03	512.58
460.21	416.62
460.39	341.72
460.57	362.78
460.76	351.08
460.94	393.21
461.12	416.62
461.31	332.36
461.49	334.70
461.67	372.15
461.85	339.38
462.04	367.46
462.22	566.41
462.40	353.42
462.59	451.72
462.77	346.40
462.95	360.44
463.13	404.91
463.32	447.04
463.50	348.74
463.68	414.27
463.86	339.38
464.05	409.59
464.23	416.62
464.41	402.57
464.59	325.33
464.78	411.93
464.96	360.44
465.14	299.59
465.32	353.42
465.50	376.83
465.69	327.68
465.87	276.18
466.05	369.80
466.23	320.65
466.41	353.42
466.60	395.55
466.78	355.76
466.96	390.87
467.14	383.85
467.32	421.30
467.51	393.21
467.69	393.21
467.87	458.74
468.05	376.83
468.23	315.97
468.41	402.57
468.60	374.49
468.78	332.36
468.96	365.12
469.14	351.08
469.32	341.72
469.50	318.31
469.69	344.06
469.87	348.74
470.05	320.65
470.23	358.10
470.41	332.36
470.59	374.49
470.77	339.38
470.95	358.10
471.14	388.53
471.32	351.08
471.50	390.87
471.68	376.83
471.86	334.70
472.04	358.10
472.22	433.00
472.40	376.83
472.58	337.04
472.77	376.83
472.95	346.40
473.13	318.31
473.31	386.19
473.49	325.33
473.67	428.32
473.85	395.55
474.03	372.15
474.21	360.44
474.39	409.59
474.57	440.02
474.75	416.62
474.93	327.68
475.12	320.65
475.30	313.63
475.48	397.89
475.66	409.59
475.84	245.76
476.02	395.55
476.20	440.02
476.38	402.57
476.56	435.34
476.74	409.59
476.92	320.65
477.10	400.23
477.28	299.59
477.46	346.40
477.64	451.72
477.82	395.55
478.00	440.02
478.18	376.83
478.36	374.49
478.54	416.62
478.72	402.57
478.90	444.70
479.08	491.51
479.26	456.40
479.44	435.34
479.62	418.96
479.80	454.06
479.98	435.34
480.16	489.17
480.34	547.69
480.52	468.11
480.70	582.79
480.88	540.66
481.06	545.34
481.24	559.39
481.41	587.47
481.59	641.31
481.77	648.33
481.95	725.57
482.13	751.31
482.31	795.78
482.49	880.04
482.67	990.05
482.85	990.05
483.03	968.98
483.21	1121.12
483.39	1137.50
483.57	1146.86
483.74	1277.93
483.92	1376.24
484.10	1460.49
484.28	1519.01
484.46	1680.50
484.64	1645.40
484.82	1734.34
485.00	1774.13
485.18	1966.05
485.35	2129.89
485.53	2115.84
485.71	2265.64
485.89	2286.70
486.07	2340.54
486.25	2504.37
486.43	2305.43
486.61	2548.84
486.78	2492.67
486.96	2509.05
487.14	2347.56
487.32	2413.09
487.50	2342.88
487.68	2242.23
487.85	2296.07
488.03	2216.49
488.21	2429.48
488.39	2202.44
488.57	2190.74
488.75	2160.31
488.92	2265.64
489.10	2062.01
489.28	1961.37
489.46	1900.52
489.64	1867.75
489.81	1860.73
489.99	1776.47
490.17	1872.43
490.35	2017.54
490.53	1694.55
490.70	1818.60
490.88	1870.09
491.06	1991.80
491.24	2073.71
491.41	2090.10
491.59	1942.64
491.77	1755.40
491.95	1781.15
492.13	1652.42
492.30	1675.82
492.48	1645.40
492.66	1689.87
492.84	1577.52
493.01	1643.06
493.19	1636.03
493.37	1495.60
493.54	1572.84
493.72	1629.01
493.90	1437.09
494.08	1448.79
494.25	1416.02
494.43	1519.01
494.61	1385.60
494.79	1369.21
494.96	1359.85
495.14	1390.28
495.32	1453.47
495.49	1306.02
495.67	1261.55
495.85	1170.27
496.02	1308.36
496.20	1203.04
496.38	1254.53
496.55	1188.99
496.73	1203.04
496.91	1153.88
497.09	1203.04
497.26	1076.65
497.44	1074.31
497.62	1097.71
497.79	1020.47
497.97	1011.11
498.14	1097.71
498.32	997.07
498.50	1086.01
498.67	926.85
498.85	1050.90
499.03	940.90
499.20	873.02
499.38	861.32
499.56	936.21
499.73	1022.81
499.91	994.73
500.08	847.27
500.26	795.78
500.44	814.51
500.61	723.23
500.79	704.50
500.97	706.84
501.14	734.93
501.32	720.88
501.49	613.22
501.67	629.60
501.84	676.41
502.02	636.63
502.20	606.20
502.37	634.29
502.55	603.86
502.72	645.99
502.90	638.97
503.07	594.50
503.25	613.22
503.43	585.13
503.60	592.16
503.78	505.56
503.95	526.62
504.13	540.66
504.30	540.66
504.48	528.96
504.65	578.11
504.83	615.56
505.01	524.28
505.18	477.47
505.36	454.06
505.53	524.28
505.71	500.87
505.88	454.06
506.06	479.81
506.23	379.17
506.41	437.68
506.58	449.38
506.76	395.55
506.93	486.83
507.11	421.30
507.28	346.40
507.46	376.83
507.63	395.55
507.81	395.55
507.98	348.74
508.16	451.72
508.33	393.21
508.50	442.36
508.68	458.74
508.85	507.90
509.03	423.64
509.20	440.02
509.38	449.38
509.55	404.91
509.73	425.98
509.90	369.80
510.08	360.44
510.25	477.47
510.42	444.70
510.60	428.32
510.77	386.19
510.95	521.94
511.12	489.17
511.30	411.93
511.47	362.78
511.64	404.91
511.82	440.02
511.99	411.93
512.17	414.27
512.34	334.70
512.51	404.91
512.69	320.65
512.86	423.64
513.04	379.17
513.21	379.17
513.38	355.76
513.56	425.98
513.73	395.55
513.90	386.19
514.08	337.04
514.25	327.68
514.43	374.49
514.60	346.40
514.77	414.27
514.95	358.10
515.12	285.55
515.29	351.08
515.47	353.42
515.64	369.80
515.81	362.78
515.99	355.76
516.16	395.55
516.33	325.33
516.51	327.68
516.68	313.63
516.85	339.38
517.03	304.27
517.20	362.78
517.37	407.25
517.54	337.04
517.72	362.78
517.89	327.68
518.06	227.03
518.24	344.06
518.41	353.42
518.58	409.59
518.75	332.36
518.93	360.44
519.10	259.80
519.27	327.68
519.45	287.89
519.62	327.68
519.79	395.55
519.96	327.68
520.14	283.20
520.31	381.51
520.48	344.06
520.65	362.78
520.83	379.17
521.00	301.93
521.17	337.04
521.34	332.36
521.52	294.91
521.69	418.96
521.86	332.36
522.03	430.66
522.20	465.77
522.38	280.86
522.55	308.95
522.72	262.14
522.89	379.17
523.07	365.12
523.24	290.23
523.41	308.95
523.58	360.44
523.75	358.10
523.92	318.31
524.10	397.89
524.27	337.04
524.44	311.29
524.61	306.61
524.78	248.10
524.96	367.46
525.13	313.63
525.30	362.78
525.47	365.12
525.64	313.63
525.81	332.36
525.98	369.80
526.16	381.51
526.33	355.76
526.50	465.77
526.67	306.61
526.84	341.72
527.01	348.74
527.18	376.83
527.36	388.53
527.53	458.74
527.70	514.92
527.87	411.93
528.04	486.83
528.21	425.98
528.38	351.08
528.55	437.68
528.72	322.99
528.89	414.27
529.07	447.04
529.24	383.85
529.41	489.17
529.58	365.12
529.75	461.09
529.92	376.83
530.09	423.64
530.26	461.09
530.43	552.37
530.60	472.79
530.77	465.77
530.94	444.70
531.11	550.03
531.28	442.36
531.46	557.05
531.63	547.69
531.80	606.20
531.97	559.39
532.14	716.20
532.31	814.51
532.48	912.81
532.65	957.28
532.82	1006.43
532.99	1371.55
533.16	1430.07
533.33	1406.66
533.50	1338.79
533.67	1238.14
533.84	1083.67
534.01	1015.79
534.18	943.24
534.35	858.98
534.52	880.04
534.69	1008.77
534.86	851.96
535.03	1020.47
535.20	1062.60
535.37	1086.01
535.54	1238.14
535.71	1186.65
535.88	1270.91
536.05	1198.35
536.22	1270.91
536.38	1500.28
536.55	1589.22
536.72	1823.28
536.89	2022.22
537.06	2181.38
537.23	2581.61
537.40	2726.72
537.57	2806.30
537.74	2920.99
537.91	3157.38
538.08	3157.38
538.25	3253.34
538.42	3197.17
538.59	3372.71
538.75	3555.27
538.92	3632.51
539.09	4074.87
539.26	4353.40
539.43	4929.17
539.60	5518.98
539.77	6277.32
539.94	6960.75
540.11	7576.31
540.28	8248.05
540.44	9210.01
540.61	10029.20
540.78	11655.87
540.95	14190.67
541.12	16503.12
541.29	18361.50
541.46	19733.06
541.62	19353.89
541.79	18490.23
541.96	17193.58
542.13	16184.80
542.30	15014.54
542.47	14052.58
542.63	13310.63
542.80	12730.17
542.97	12936.14
543.14	12751.24
543.31	12533.57
543.48	12704.43
543.64	12737.20
543.81	12954.87
543.98	13090.62
544.15	13053.17
544.32	12985.29
544.48	13081.25
544.65	12912.74
544.82	13174.88
544.99	12828.48
545.16	13083.59
545.32	14094.71
545.49	24985.22
545.66	44713.59
545.83	52460.77
546.00	45132.55
546.16	31030.82
546.33	23278.97
546.50	17387.84
546.67	13380.84
546.83	11782.26
547.00	11030.94
547.17	10530.07
547.34	10127.50
547.50	10122.82
547.67	9577.47
547.84	9226.39
548.00	9025.11
548.17	8372.10
548.34	8177.83
548.51	7953.14
548.67	7365.67
548.84	7272.04
549.01	6995.86
549.18	6588.61
549.34	6314.77
549.51	6066.67
549.68	5935.60
549.84	5722.61
550.01	5355.15
550.18	5249.82
550.34	5053.22
550.51	4648.30
550.68	4493.83
550.84	4140.41
551.01	3960.19
551.18	3817.41
551.34	3667.62
551.51	3456.97
551.68	3307.18
551.84	3183.13
552.01	3098.87
552.18	2993.55
552.34	2799.28
552.51	2621.40
552.68	2675.23
552.84	2473.95
553.01	2429.48
553.18	2415.43
553.34	2373.30
553.51	2223.51
553.67	2172.02
553.84	2228.19
554.01	1944.99
554.17	1830.30
554.34	1694.55
554.51	1661.78
554.67	1528.37
554.84	1437.09
555.00	1380.92
555.17	1324.74
555.33	1390.28
555.50	1214.74
555.67	1191.33
555.83	1102.39
556.00	1149.20
556.16	1247.51
556.33	1081.33
556.50	1048.56
556.66	903.45
556.83	905.79
556.99	842.59
557.16	931.53
557.32	866.00
557.49	851.96
557.65	753.65
557.82	873.02
557.98	777.06
558.15	702.16
558.32	777.06
558.48	744.29
558.65	667.05
558.81	791.10
558.98	706.84
559.14	767.70
559.31	723.23
559.47	674.07
559.64	718.54
559.80	720.88
559.97	566.41
560.13	641.31
560.30	631.94
560.46	575.77
560.63	723.23
560.79	568.75
560.96	664.71
561.12	641.31
561.29	641.31
561.45	620.24
561.61	674.07
561.78	713.86
561.94	575.77
562.11	643.65
562.27	596.84
562.44	681.10
562.60	664.71
562.77	653.01
562.93	571.09
563.10	627.26
563.26	608.54
563.42	568.75
563.59	610.88
563.75	498.53
563.92	575.77
564.08	561.73
564.24	561.73
564.41	638.97
564.57	519.60
564.74	512.58
564.90	519.60
565.07	505.56
565.23	496.19
565.39	454.06
565.56	489.17
565.72	475.13
565.88	461.09
566.05	505.56
566.21	533.64
566.38	578.11
566.54	500.87
566.70	554.71
566.87	463.43
567.03	505.56
567.19	503.22
567.36	514.92
567.52	505.56
567.68	540.66
567.85	486.83
568.01	477.47
568.17	510.24
568.34	468.11
568.50	547.69
568.66	505.56
568.83	585.13
568.99	512.58
569.15	552.37
569.32	531.30
569.48	484.49
569.64	505.56
569.81	505.56
569.97	430.66
570.13	404.91
570.30	402.57
570.46	491.51
570.62	435.34
570.78	409.59
570.95	374.49
571.11	425.98
571.27	454.06
571.43	456.40
571.60	337.04
571.76	360.44
571.92	454.06
572.09	454.06
572.25	369.80
572.41	425.98
572.57	416.62
572.74	514.92
572.90	367.46
573.06	498.53
573.22	475.13
573.38	454.06
573.55	435.34
573.71	482.15
573.87	468.11
574.03	411.93
574.20	437.68
574.36	416.62
574.52	449.38
574.68	451.72
574.84	521.94
575.01	500.87
575.17	578.11
575.33	613.22
575.49	678.76
575.65	662.37
575.82	706.84
575.98	737.27
576.14	793.44
576.30	1507.30
576.46	5078.96
576.62	8603.81
576.79	9394.91
576.95	6509.03
577.11	4409.57
577.27	2995.89
577.43	2064.35
577.59	1380.92
577.75	1231.12
577.92	1057.92
578.08	1076.65
578.24	983.02
578.40	1722.63
578.56	4830.87
578.72	8042.08
578.88	8629.56
579.04	6333.49
579.21	4327.65
579.37	3187.81
579.53	2495.01
579.69	2471.61
579.85	3059.08
580.01	3414.84
580.17	3155.04
580.33	2827.37
580.49	2480.97
580.65	2305.43
580.82	1926.26
580.98	1991.80
581.14	2076.06
581.30	2167.34
581.46	2277.34
581.62	2502.03
581.78	2581.61
581.94	2806.30
582.10	2850.77
582.26	3218.24
582.42	3164.40
582.58	3389.10
582.74	3290.79
582.90	3492.08
583.06	3190.15
583.22	3361.01
583.38	3471.01
583.54	3424.20
583.70	3311.86
583.86	3166.74
584.02	3267.39
584.18	3098.87
584.34	3112.91
584.50	3042.70
584.66	2984.18
584.82	2979.50
584.98	3136.32
585.14	2913.97
585.30	2864.82
585.46	2825.03
585.62	2867.16
585.78	2818.00
585.94	2801.62
586.10	2925.67
586.26	3084.83
586.42	3391.44
586.58	4126.36
586.74	5025.13
586.90	5893.47
587.06	6445.84
587.22	6176.67
587.38	5645.37
587.54	4812.14
587.70	4119.34
587.86	3555.27
588.02	3080.14
588.18	2642.46
588.34	2516.08
588.49	2249.25
588.65	2118.18
588.81	1959.03
588.97	1907.54
589.13	1968.39
589.29	1919.24
589.45	1858.39
589.61	1909.88
589.77	1923.92
589.93	1907.54
590.08	1935.62
590.24	1902.86
590.40	2108.82
590.56	2113.50
590.72	2165.00
590.88	2195.42
591.04	2366.28
591.20	2335.85
591.35	2473.95
591.51	2588.63
591.67	2605.02
591.83	2888.22
591.99	3098.87
592.15	3229.94
592.31	3648.90
592.46	3941.46
592.62	4325.31
592.78	4503.19
592.94	4613.20
593.10	4465.74
593.26	4332.33
593.41	4086.58
593.57	3501.44
593.73	3302.50
593.89	2998.23
594.05	2597.99
594.20	2366.28
594.36	2120.53
594.52	2050.31
594.68	1947.33
594.84	1778.81
594.99	1778.81
595.15	1750.72
595.31	1802.21
595.47	1675.82
595.62	1673.48
595.78	1736.68
595.94	1696.89
596.10	1671.14
596.25	1668.80
596.41	1640.72
596.57	1682.85
596.73	1664.12
596.88	1654.76
597.04	1631.35
597.20	1783.49
597.36	1755.40
597.51	1851.36
597.67	1886.47
597.83	2001.16
597.99	2092.44
598.14	2045.63
598.30	2275.00
598.46	2324.15
598.61	2431.82
598.77	2640.12
598.93	2583.95
599.09	2754.81
599.24	2825.03
599.40	2829.71
599.56	2806.30
599.71	2565.23
599.87	2471.61
600.03	2324.15
600.18	2134.57
600.34	1987.11
600.50	1914.56
600.65	1853.70
600.81	1696.89
600.97	1647.74
601.12	1600.93
601.28	1483.90
601.44	1387.94
601.59	1371.55
601.75	1284.95
601.91	1210.06
602.06	1128.14
602.22	1294.32
602.37	1121.12
602.53	1221.76
602.69	1233.46
602.84	1144.52
603.00	1125.80
603.16	1144.52
603.31	1186.65
603.47	1366.87
603.62	1179.63
603.78	1221.76
603.94	1259.21
604.09	1284.95
604.25	1301.34
604.40	1203.04
604.56	1210.06
604.71	1345.81
604.87	1418.36
605.03	1486.24
605.18	1460.49
605.34	1502.62
605.49	1448.79
605.65	1427.73
605.80	1530.71
605.96	1535.39
