SpectraSuite Data File
++++++++++++++++++++++++++++++++++++
Date: Fri Oct 04 11:41:43 GMT-05:00 2013
User: price-jones
Dark Spectrum Present: No
Reference Spectrum Present: No
Number of Sampled Component Spectra: 1
Spectrometers: USB2+H05261
Integration Time (usec): 100000 (USB2+H05261)
Spectra Averaged: 1 (USB2+H05261)
Boxcar Smoothing: 0 (USB2+H05261)
Correct for Electrical Dark: No (USB2+H05261)
Strobe/Lamp Enabled: No (USB2+H05261)
Correct for Detector Non-linearity: No (USB2+H05261)
Correct for Stray Light: No (USB2+H05261)
Number of Pixels in Processed Spectrum: 2048
>>>>>Begin Processed Spectral Data<<<<<
365.73	25.75
365.92	25.75
366.12	25.75
366.32	0.00
366.52	0.00
366.72	0.00
366.91	0.00
367.11	0.00
367.31	0.00
367.51	0.00
367.70	0.00
367.90	0.00
368.10	0.00
368.30	0.00
368.49	0.00
368.69	0.00
368.89	0.00
369.09	0.00
369.28	0.00
369.48	2.34
369.68	0.00
369.87	0.00
370.07	0.00
370.27	72.56
370.47	0.00
370.66	35.11
370.86	77.24
371.06	131.07
371.25	105.32
371.45	21.06
371.65	86.60
371.84	128.73
372.04	86.60
372.24	119.37
372.44	124.05
372.63	175.54
372.83	105.32
373.03	70.22
373.22	135.75
373.42	124.05
373.62	128.73
373.81	133.41
374.01	177.88
374.21	140.43
374.40	60.85
374.60	147.45
374.79	105.32
374.99	159.16
375.19	177.88
375.38	156.82
375.58	126.39
375.78	234.05
375.97	84.26
376.17	145.11
376.37	121.71
376.56	110.01
376.76	196.60
376.95	98.30
377.15	135.75
377.35	138.09
377.54	86.60
377.74	117.03
377.93	77.24
378.13	170.86
378.33	163.84
378.52	159.16
378.72	84.26
378.91	175.54
379.11	112.35
379.31	133.41
379.50	60.85
379.70	117.03
379.89	102.98
380.09	168.52
380.28	138.09
380.48	166.18
380.68	180.22
380.87	201.29
381.07	135.75
381.26	212.99
381.46	194.26
381.65	187.24
381.85	121.71
382.04	184.90
382.24	175.54
382.43	102.98
382.63	102.98
382.83	107.66
383.02	114.69
383.22	117.03
383.41	107.66
383.61	119.37
383.80	138.09
384.00	145.11
384.19	154.48
384.39	110.01
384.58	93.62
384.78	128.73
384.97	95.96
385.17	154.48
385.36	74.90
385.56	142.77
385.75	91.28
385.95	119.37
386.14	159.16
386.34	126.39
386.53	180.22
386.72	138.09
386.92	182.56
387.11	114.69
387.31	166.18
387.50	84.26
387.70	182.56
387.89	147.45
388.09	145.11
388.28	98.30
388.48	114.69
388.67	63.19
388.86	119.37
389.06	131.07
389.25	42.13
389.45	70.22
389.64	79.58
389.84	182.56
390.03	180.22
390.22	205.97
390.42	124.05
390.61	152.13
390.81	95.96
391.00	124.05
391.19	79.58
391.39	23.41
391.58	117.03
391.78	124.05
391.97	128.73
392.16	49.15
392.36	170.86
392.55	65.54
392.75	65.54
392.94	74.90
393.13	128.73
393.33	138.09
393.52	140.43
393.71	117.03
393.91	159.16
394.10	107.66
394.29	74.90
394.49	105.32
394.68	93.62
394.88	124.05
395.07	145.11
395.26	114.69
395.46	142.77
395.65	166.18
395.84	138.09
396.04	152.13
396.23	198.95
396.42	149.79
396.62	203.63
396.81	145.11
397.00	84.26
397.19	112.35
397.39	220.01
397.58	100.64
397.77	170.86
397.97	112.35
398.16	154.48
398.35	168.52
398.55	147.45
398.74	133.41
398.93	149.79
399.12	198.95
399.32	205.97
399.51	187.24
399.70	224.69
399.90	177.88
400.09	156.82
400.28	166.18
400.47	154.48
400.67	135.75
400.86	135.75
401.05	110.01
401.24	168.52
401.44	217.67
401.63	215.33
401.82	210.65
402.01	224.69
402.21	203.63
402.40	224.69
402.59	243.42
402.78	191.92
402.97	156.82
403.17	245.76
403.36	355.76
403.55	372.15
403.74	723.23
403.93	2394.37
404.13	6113.48
404.32	10427.09
404.51	11744.81
404.70	7606.74
404.89	2665.87
405.09	798.12
405.28	416.62
405.47	259.80
405.66	255.12
405.85	241.08
406.05	252.78
406.24	280.86
406.43	250.44
406.62	287.89
406.81	285.55
407.00	351.08
407.20	772.38
407.39	1200.69
407.58	1680.50
407.77	1219.42
407.96	571.09
408.15	301.93
408.34	196.60
408.54	222.35
408.73	187.24
408.92	198.95
409.11	212.99
409.30	252.78
409.49	124.05
409.68	227.03
409.87	259.80
410.07	201.29
410.26	229.37
410.45	131.07
410.64	177.88
410.83	238.73
411.02	266.82
411.21	243.42
411.40	236.39
411.59	259.80
411.78	231.71
411.98	252.78
412.17	264.48
412.36	177.88
412.55	252.78
412.74	175.54
412.93	299.59
413.12	292.57
413.31	191.92
413.50	224.69
413.69	264.48
413.88	285.55
414.07	264.48
414.26	266.82
414.45	283.20
414.64	285.55
414.83	304.27
415.02	301.93
415.22	250.44
415.41	337.04
415.60	311.29
415.79	276.18
415.98	255.12
416.17	264.48
416.36	257.46
416.55	311.29
416.74	381.51
416.93	332.36
417.12	285.55
417.31	301.93
417.50	327.68
417.69	325.33
417.88	332.36
418.07	330.02
418.26	330.02
418.45	308.95
418.64	262.14
418.83	379.17
419.02	362.78
419.21	308.95
419.39	299.59
419.58	290.23
419.77	360.44
419.96	379.17
420.15	369.80
420.34	355.76
420.53	320.65
420.72	332.36
420.91	327.68
421.10	358.10
421.29	362.78
421.48	402.57
421.67	358.10
421.86	353.42
422.05	367.46
422.24	402.57
422.43	318.31
422.61	390.87
422.80	376.83
422.99	332.36
423.18	311.29
423.37	369.80
423.56	435.34
423.75	404.91
423.94	365.12
424.13	325.33
424.32	376.83
424.50	341.72
424.69	369.80
424.88	440.02
425.07	451.72
425.26	449.38
425.45	390.87
425.64	402.57
425.83	414.27
426.01	442.36
426.20	451.72
426.39	435.34
426.58	425.98
426.77	461.09
426.96	430.66
427.15	416.62
427.33	395.55
427.52	465.77
427.71	383.85
427.90	430.66
428.09	521.94
428.28	463.43
428.46	479.81
428.65	514.92
428.84	479.81
429.03	496.19
429.22	430.66
429.40	388.53
429.59	409.59
429.78	449.38
429.97	479.81
430.16	477.47
430.34	411.93
430.53	416.62
430.72	521.94
430.91	454.06
431.10	498.53
431.28	514.92
431.47	521.94
431.66	566.41
431.85	606.20
432.03	589.82
432.22	631.94
432.41	641.31
432.60	596.84
432.79	594.50
432.97	660.03
433.16	683.44
433.35	730.25
433.54	889.40
433.72	1060.26
433.91	952.60
434.10	1025.15
434.28	1111.75
434.47	1376.24
434.66	1600.93
434.85	1813.92
435.03	4109.98
435.22	14766.44
435.41	37673.26
435.59	52912.49
435.78	44219.74
435.97	19278.99
436.16	7143.32
436.34	2209.47
436.53	1291.98
436.72	1067.28
436.90	933.87
437.09	894.08
437.28	784.08
437.46	674.07
437.65	746.63
437.84	770.04
438.02	664.71
438.21	688.12
438.40	655.35
438.58	667.05
438.77	695.14
438.96	713.86
439.14	601.52
439.33	711.52
439.52	580.45
439.70	589.82
439.89	674.07
440.08	606.20
440.26	594.50
440.45	713.86
440.63	650.67
440.82	634.29
441.01	594.50
441.19	566.41
441.38	573.43
441.57	547.69
441.75	606.20
441.94	631.94
442.12	603.86
442.31	650.67
442.50	624.92
442.68	596.84
442.87	624.92
443.05	613.22
443.24	690.46
443.43	688.12
443.61	653.01
443.80	674.07
443.98	608.54
444.17	531.30
444.35	615.56
444.54	669.39
444.73	622.58
444.91	765.36
445.10	589.82
445.28	585.13
445.47	641.31
445.65	629.60
445.84	681.10
446.02	631.94
446.21	650.67
446.39	648.33
446.58	610.88
446.77	711.52
446.95	493.85
447.14	655.35
447.32	575.77
447.51	596.84
447.69	697.48
447.88	543.00
448.06	608.54
448.25	606.20
448.43	629.60
448.62	575.77
448.80	667.05
448.99	641.31
449.17	608.54
449.36	582.79
449.54	739.61
449.73	657.69
449.91	667.05
450.10	620.24
450.28	669.39
450.46	697.48
450.65	664.71
450.83	702.16
451.02	627.26
451.20	561.73
451.39	580.45
451.57	688.12
451.76	617.90
451.94	650.67
452.13	711.52
452.31	629.60
452.49	596.84
452.68	606.20
452.86	592.16
453.05	678.76
453.23	613.22
453.42	545.34
453.60	582.79
453.78	615.56
453.97	622.58
454.15	592.16
454.34	564.07
454.52	627.26
454.70	641.31
454.89	578.11
455.07	606.20
455.26	638.97
455.44	669.39
455.62	552.37
455.81	601.52
455.99	615.56
456.17	683.44
456.36	568.75
456.54	629.60
456.73	561.73
456.91	608.54
457.09	613.22
457.28	634.29
457.46	571.09
457.64	669.39
457.83	622.58
458.01	655.35
458.19	592.16
458.38	636.63
458.56	667.05
458.74	564.07
458.93	638.97
459.11	662.37
459.29	603.86
459.48	606.20
459.66	655.35
459.84	683.44
460.03	571.09
460.21	615.56
460.39	564.07
460.57	638.97
460.76	653.01
460.94	629.60
461.12	645.99
461.31	596.84
461.49	528.96
461.67	606.20
461.85	585.13
462.04	507.90
462.22	784.08
462.40	613.22
462.59	653.01
462.77	552.37
462.95	582.79
463.13	559.39
463.32	683.44
463.50	543.00
463.68	571.09
463.86	592.16
464.05	589.82
464.23	636.63
464.41	648.33
464.59	657.69
464.78	725.57
464.96	582.79
465.14	629.60
465.32	648.33
465.50	657.69
465.69	589.82
465.87	528.96
466.05	489.17
466.23	528.96
466.41	606.20
466.60	631.94
466.78	620.24
466.96	711.52
467.14	713.86
467.32	617.90
467.51	638.97
467.69	596.84
467.87	573.43
468.05	566.41
468.23	545.34
468.41	535.98
468.60	571.09
468.78	512.58
468.96	540.66
469.14	458.74
469.32	580.45
469.50	493.85
469.69	566.41
469.87	543.00
470.05	575.77
470.23	561.73
470.41	547.69
470.59	566.41
470.77	575.77
470.95	552.37
471.14	564.07
471.32	610.88
471.50	564.07
471.68	543.00
471.86	587.47
472.04	517.26
472.22	505.56
472.40	571.09
472.58	592.16
472.77	578.11
472.95	585.13
473.13	653.01
473.31	617.90
473.49	608.54
473.67	601.52
473.85	596.84
474.03	582.79
474.21	557.05
474.39	573.43
474.57	610.88
474.75	557.05
474.93	561.73
475.12	526.62
475.30	514.92
475.48	500.87
475.66	608.54
475.84	554.71
476.02	564.07
476.20	533.64
476.38	627.26
476.56	601.52
476.74	627.26
476.92	535.98
477.10	617.90
477.28	587.47
477.46	641.31
477.64	645.99
477.82	723.23
478.00	678.76
478.18	620.24
478.36	599.18
478.54	697.48
478.72	648.33
478.90	648.33
479.08	767.70
479.26	734.93
479.44	770.04
479.62	723.23
479.80	812.17
479.98	816.85
480.16	826.21
480.34	880.04
480.52	938.55
480.70	983.02
480.88	964.30
481.06	1053.24
481.24	1107.07
481.41	1104.73
481.59	1163.25
481.77	1245.16
481.95	1308.36
482.13	1418.36
482.31	1509.65
482.49	1717.95
482.67	1530.71
482.85	1867.75
483.03	1949.67
483.21	2134.57
483.39	2134.57
483.57	2312.45
483.74	2499.69
483.92	2553.52
484.10	2808.64
484.28	3016.95
484.46	3087.17
484.64	3286.11
484.82	3433.57
485.00	3641.87
485.18	3817.41
485.35	4046.79
485.53	4283.18
485.71	4479.79
485.89	4573.41
486.07	4758.31
486.25	4823.84
486.43	4912.78
486.61	4823.84
486.78	4943.21
486.96	4784.06
487.14	4844.91
487.32	4880.02
487.50	4791.08
487.68	4807.46
487.85	4652.98
488.03	4608.51
488.21	4692.77
488.39	4484.47
488.57	4402.55
488.75	4173.18
488.92	4280.84
489.10	4004.66
489.28	4056.15
489.46	3843.16
489.64	3803.37
489.81	3735.50
489.99	3847.84
490.17	3581.02
490.35	3845.50
490.53	3616.13
490.70	3648.90
490.88	3721.45
491.06	3761.24
491.24	4023.38
491.41	4121.68
491.59	3918.06
491.77	3574.00
491.95	3501.44
492.13	3433.57
492.30	3253.34
492.48	3173.77
492.66	3150.36
492.84	3056.74
493.01	3143.34
493.19	3124.62
493.37	3145.68
493.54	3049.72
493.72	3131.64
493.90	2794.60
494.08	2839.07
494.25	2906.95
494.43	2792.26
494.61	2822.69
494.79	2710.34
494.96	2600.34
495.14	2663.53
495.32	2600.34
495.49	2607.36
495.67	2464.58
495.85	2392.03
496.02	2363.94
496.20	2441.18
496.38	2272.66
496.55	2228.19
496.73	2246.91
496.91	2207.13
497.09	2136.91
497.26	2141.59
497.44	2033.93
497.62	2019.88
497.79	2080.74
497.97	2038.61
498.14	1970.73
498.32	1851.36
498.50	1757.74
498.67	1799.87
498.85	1757.74
499.03	1694.55
499.20	1614.97
499.38	1680.50
499.56	1678.16
499.73	1692.21
499.91	1481.56
500.08	1575.18
500.26	1444.11
500.44	1420.71
500.61	1385.60
500.79	1266.23
500.97	1327.08
501.14	1310.70
501.32	1158.57
501.49	1217.08
501.67	1048.56
501.84	1165.59
502.02	1067.28
502.20	1067.28
502.37	1027.50
502.55	1083.67
502.72	997.07
502.90	1039.20
503.07	940.90
503.25	894.08
503.43	884.72
503.60	856.64
503.78	767.70
503.95	835.57
504.13	791.10
504.30	870.68
504.48	795.78
504.65	711.52
504.83	793.44
505.01	779.40
505.18	805.14
505.36	671.73
505.53	727.91
505.71	786.42
505.88	730.25
506.06	608.54
506.23	648.33
506.41	603.86
506.58	657.69
506.76	622.58
506.93	683.44
507.11	695.14
507.28	636.63
507.46	641.31
507.63	566.41
507.81	624.92
507.98	674.07
508.16	582.79
508.33	648.33
508.50	636.63
508.68	664.71
508.85	716.20
509.03	669.39
509.20	683.44
509.38	662.37
509.55	664.71
509.73	648.33
509.90	657.69
510.08	582.79
510.25	664.71
510.42	519.60
510.60	571.09
510.77	592.16
510.95	580.45
511.12	514.92
511.30	582.79
511.47	444.70
511.64	622.58
511.82	627.26
511.99	503.22
512.17	531.30
512.34	517.26
512.51	608.54
512.69	482.15
512.86	587.47
513.04	493.85
513.21	585.13
513.38	547.69
513.56	484.49
513.73	482.15
513.90	552.37
514.08	498.53
514.25	477.47
514.43	507.90
514.60	519.60
514.77	500.87
514.95	479.81
515.12	482.15
515.29	510.24
515.47	526.62
515.64	493.85
515.81	444.70
515.99	484.49
516.16	484.49
516.33	573.43
516.51	407.25
516.68	510.24
516.85	440.02
517.03	503.22
517.20	475.13
517.37	409.59
517.54	428.32
517.72	496.19
517.89	397.89
518.06	355.76
518.24	493.85
518.41	491.51
518.58	407.25
518.75	428.32
518.93	463.43
519.10	381.51
519.27	437.68
519.45	449.38
519.62	512.58
519.79	416.62
519.96	433.00
520.14	400.23
520.31	489.17
520.48	421.30
520.65	421.30
520.83	463.43
521.00	437.68
521.17	435.34
521.34	390.87
521.52	365.12
521.69	407.25
521.86	458.74
522.03	404.91
522.20	510.24
522.38	372.15
522.55	456.40
522.72	435.34
522.89	472.79
523.07	456.40
523.24	465.77
523.41	388.53
523.58	411.93
523.75	383.85
523.92	449.38
524.10	521.94
524.27	381.51
524.44	477.47
524.61	484.49
524.78	423.64
524.96	484.49
525.13	465.77
525.30	514.92
525.47	507.90
525.64	458.74
525.81	573.43
525.98	498.53
526.16	463.43
526.33	528.96
526.50	493.85
526.67	468.11
526.84	559.39
527.01	552.37
527.18	603.86
527.36	557.05
527.53	610.88
527.70	589.82
527.87	568.75
528.04	557.05
528.21	606.20
528.38	514.92
528.55	564.07
528.72	564.07
528.89	540.66
529.07	573.43
529.24	564.07
529.41	702.16
529.58	643.65
529.75	601.52
529.92	641.31
530.09	706.84
530.26	765.36
530.43	699.82
530.60	711.52
530.77	732.59
530.94	720.88
531.11	770.04
531.28	688.12
531.46	795.78
531.63	891.74
531.80	912.81
531.97	924.51
532.14	1074.31
532.31	1205.38
532.48	1502.62
532.65	1652.42
532.82	1975.41
532.99	2324.15
533.16	2750.13
533.33	2972.48
533.50	2780.56
533.67	2438.84
533.84	1923.92
534.01	1849.02
534.18	1668.80
534.35	1600.93
534.52	1586.88
534.69	1657.10
534.86	1685.19
535.03	1724.97
535.20	1834.98
535.37	1935.62
535.54	2010.52
535.71	2160.31
535.88	2263.30
536.05	2427.14
536.22	2546.50
536.38	2796.94
536.55	3143.34
536.72	3468.67
536.89	3859.54
537.06	4400.21
537.23	4772.35
537.40	5231.10
537.57	5764.74
537.74	6211.78
537.91	6487.96
538.08	6530.09
538.25	6534.78
538.42	6537.12
538.59	6796.92
538.75	6991.18
538.92	7510.78
539.09	8105.28
539.26	8964.25
539.43	10115.80
539.60	11293.08
539.77	13055.51
539.94	14644.73
540.11	16198.85
540.28	17584.44
540.44	19428.79
540.61	21362.07
540.78	24243.27
540.95	28804.97
541.12	35232.08
541.29	41031.93
541.46	43337.36
541.62	43213.31
541.79	41436.84
541.96	38424.57
542.13	35620.61
542.30	32910.27
542.47	30895.07
542.63	29607.78
542.80	28505.38
542.97	27985.79
543.14	28041.96
543.31	27733.01
543.48	27784.50
543.64	28088.77
543.81	28496.02
543.98	28437.51
544.15	28641.14
544.32	29053.07
544.48	28950.09
544.65	28769.86
544.82	28615.39
544.99	28322.82
545.16	28914.98
545.32	30125.04
545.49	42801.38
545.66	61612.26
545.83	65535.00
546.00	65535.00
546.16	64348.35
546.33	48268.87
546.50	37277.71
546.67	29153.71
546.83	26305.28
547.00	24753.51
547.17	23814.95
547.34	22892.78
547.50	22054.87
547.67	21144.40
547.84	20215.21
548.00	19360.91
548.17	18642.37
548.34	17879.35
548.51	17317.62
548.67	16402.47
548.84	15758.83
549.01	14890.49
549.18	14015.13
549.34	13701.50
549.51	13219.35
549.68	12622.51
549.84	12074.82
550.01	11674.59
550.18	10827.32
550.34	10658.80
550.51	10008.13
550.68	9406.61
550.84	9048.51
551.01	8528.91
551.18	8163.79
551.34	7576.31
551.51	7424.18
551.68	7080.12
551.84	6696.27
552.01	6597.97
552.18	6174.33
552.34	6076.03
552.51	5844.32
552.68	5657.07
552.84	5310.68
553.01	5008.75
553.18	4964.28
553.34	4706.82
553.51	4535.96
553.67	4512.55
553.84	4362.76
554.01	4102.96
554.17	3838.48
554.34	3559.95
554.51	3344.63
554.67	3206.53
554.84	3103.55
555.00	2698.64
555.17	2644.81
555.33	2546.50
555.50	2373.30
555.67	2392.03
555.83	2134.57
556.00	2033.93
556.16	2174.36
556.33	2066.69
556.50	1867.75
556.66	1764.76
556.83	1729.66
556.99	1739.02
557.16	1724.97
557.32	1657.10
557.49	1607.95
557.65	1547.09
557.82	1387.94
557.98	1418.36
558.15	1310.70
558.32	1385.60
558.48	1420.71
558.65	1327.08
558.81	1359.85
558.98	1308.36
559.14	1291.98
559.31	1228.78
559.47	1144.52
559.64	1179.63
559.80	1177.29
559.97	1181.97
560.13	1165.59
560.30	1151.54
560.46	1081.33
560.63	1135.16
560.79	1060.26
560.96	1071.97
561.12	1025.15
561.29	1158.57
561.45	1139.84
561.61	1078.99
561.78	1167.93
561.94	1128.14
562.11	992.39
562.27	1067.28
562.44	1048.56
562.60	1008.77
562.77	1025.15
562.93	1053.24
563.10	1034.52
563.26	978.34
563.42	997.07
563.59	938.55
563.75	959.62
563.92	961.96
564.08	1039.20
564.24	933.87
564.41	910.47
564.57	858.98
564.74	922.17
564.90	903.45
565.07	877.70
565.23	847.27
565.39	856.64
565.56	828.55
565.72	849.61
565.88	760.67
566.05	840.25
566.21	856.64
566.38	917.49
566.54	828.55
566.70	842.59
566.87	781.74
567.03	753.65
567.19	910.47
567.36	809.83
567.52	880.04
567.68	894.08
567.85	770.04
568.01	875.36
568.17	777.06
568.34	898.77
568.50	877.70
568.66	894.08
568.83	945.58
568.99	823.87
569.15	777.06
569.32	809.83
569.48	755.99
569.64	695.14
569.81	638.97
569.97	617.90
570.13	688.12
570.30	671.73
570.46	636.63
570.62	692.80
570.78	575.77
570.95	617.90
571.11	564.07
571.27	601.52
571.43	587.47
571.60	528.96
571.76	601.52
571.92	631.94
572.09	638.97
572.25	599.18
572.41	540.66
572.57	692.80
572.74	643.65
572.90	678.76
573.06	662.37
573.22	685.78
573.38	594.50
573.55	636.63
573.71	685.78
573.87	723.23
574.03	709.18
574.20	732.59
574.36	720.88
574.52	833.23
574.68	786.42
574.84	844.93
575.01	833.23
575.17	849.61
575.33	908.13
575.49	1013.45
575.65	1107.07
575.82	1231.12
575.98	1249.85
576.14	1416.02
576.30	2654.17
576.46	7719.09
576.62	16229.27
576.79	24809.68
576.95	16809.73
577.11	9954.30
577.27	6525.41
577.43	4411.91
577.59	2803.96
577.75	2270.32
577.92	1966.05
578.08	1984.77
578.24	1921.58
578.40	3000.57
578.56	7286.09
578.72	15101.14
578.88	23150.24
579.04	16114.59
579.21	9626.62
579.37	6806.28
579.53	5235.78
579.69	4812.14
579.85	5879.43
580.01	7543.55
580.17	7751.85
580.33	6499.67
580.49	5313.02
580.65	4582.77
580.82	4135.73
580.98	4025.72
581.14	4145.09
581.30	4334.67
581.46	4734.90
581.62	5032.15
581.78	5291.95
581.94	5874.74
582.10	6186.04
582.26	6382.64
582.42	6789.89
582.58	7042.67
582.74	7159.70
582.90	7117.57
583.06	7250.98
583.22	7204.17
583.38	7229.91
583.54	7056.72
583.70	7307.15
583.86	7000.54
584.02	6860.11
584.18	6738.40
584.34	6698.61
584.50	6574.56
584.66	6595.63
584.82	6558.18
584.98	6394.34
585.14	6153.27
585.30	6136.88
585.46	6003.47
585.62	6036.24
585.78	5973.05
585.94	5926.24
586.10	5996.45
586.26	6347.53
586.42	6977.14
586.58	8421.25
586.74	10256.23
586.90	12636.55
587.06	14808.57
587.22	14766.44
587.38	13301.26
587.54	11283.72
587.70	9357.46
587.86	7698.02
588.02	6637.76
588.18	5877.09
588.34	5329.40
588.49	4748.95
588.65	4435.32
588.81	4119.34
588.97	4154.45
589.13	4102.96
589.29	4105.30
589.45	3824.44
589.61	3908.69
589.77	4053.81
589.93	3969.55
590.08	4191.90
590.24	4217.65
590.40	4353.40
590.56	4393.19
590.72	4620.22
590.88	4634.26
591.04	4844.91
591.20	4870.65
591.35	5210.03
591.51	5446.43
591.67	5565.79
591.83	6083.05
591.99	6462.22
592.15	7255.66
592.31	7885.26
592.46	8461.04
592.62	9514.28
592.78	9717.90
592.94	10106.43
593.10	10265.59
593.26	9724.93
593.41	8875.31
593.57	8077.19
593.73	7030.97
593.89	6321.79
594.05	5554.09
594.20	4994.70
594.36	4606.17
594.52	4339.35
594.68	3936.78
594.84	3871.25
594.99	3744.86
595.15	3571.66
595.31	3674.64
595.47	3569.32
595.62	3471.01
595.78	3440.59
595.94	3562.30
596.10	3431.23
596.25	3499.10
596.41	3606.77
596.57	3461.65
596.73	3585.70
596.88	3459.31
597.04	3454.63
597.20	3520.17
597.36	3583.36
597.51	3646.55
597.67	3777.62
597.83	3999.98
597.99	4346.37
598.14	4533.62
598.30	4734.90
598.46	4870.65
598.61	5313.02
598.77	5495.58
598.93	5804.53
599.09	5984.75
599.24	6012.84
599.40	6026.88
599.56	6064.33
599.71	5771.76
599.87	5420.68
600.03	4971.30
600.18	4676.39
600.34	4355.74
600.50	4056.15
600.65	3960.19
600.81	3522.51
600.97	3485.06
601.12	3222.92
601.28	3103.55
601.44	2963.12
601.59	2841.41
601.75	2747.79
601.91	2656.51
602.06	2443.52
602.22	2424.80
602.37	2368.62
602.53	2232.87
602.69	2331.17
602.84	2136.91
603.00	2289.04
603.16	2319.47
603.31	2401.39
603.47	2363.94
603.62	2466.92
603.78	2443.52
603.94	2595.65
604.09	2565.23
604.25	2626.08
