SpectraSuite Data File
++++++++++++++++++++++++++++++++++++
Date: Fri Oct 04 11:41:39 GMT-05:00 2013
User: price-jones
Dark Spectrum Present: No
Reference Spectrum Present: No
Number of Sampled Component Spectra: 1
Spectrometers: USB2+H05261
Integration Time (usec): 100000 (USB2+H05261)
Spectra Averaged: 1 (USB2+H05261)
Boxcar Smoothing: 0 (USB2+H05261)
Correct for Electrical Dark: No (USB2+H05261)
Strobe/Lamp Enabled: No (USB2+H05261)
Correct for Detector Non-linearity: No (USB2+H05261)
Correct for Stray Light: No (USB2+H05261)
Number of Pixels in Processed Spectrum: 2048
>>>>>Begin Processed Spectral Data<<<<<
365.73	77.24
365.92	77.24
366.12	77.24
366.32	0.00
366.52	0.00
366.72	0.00
366.91	0.00
367.11	0.00
367.31	0.00
367.51	0.00
367.70	0.00
367.90	0.00
368.10	0.00
368.30	0.00
368.49	0.00
368.69	0.00
368.89	0.00
369.09	0.00
369.28	14.04
369.48	0.00
369.68	0.00
369.87	0.00
370.07	9.36
370.27	79.58
370.47	63.19
370.66	28.09
370.86	81.92
371.06	128.73
371.25	119.37
371.45	51.49
371.65	81.92
371.84	114.69
372.04	84.26
372.24	63.19
372.44	81.92
372.63	70.22
372.83	180.22
373.03	105.32
373.22	84.26
373.42	95.96
373.62	124.05
373.81	93.62
374.01	138.09
374.21	51.49
374.40	161.50
374.60	102.98
374.79	110.01
374.99	117.03
375.19	163.84
375.38	175.54
375.58	168.52
375.78	114.69
375.97	119.37
376.17	154.48
376.37	128.73
376.56	95.96
376.76	95.96
376.95	93.62
377.15	93.62
377.35	182.56
377.54	170.86
377.74	67.88
377.93	88.94
378.13	112.35
378.33	126.39
378.52	112.35
378.72	156.82
378.91	77.24
379.11	131.07
379.31	140.43
379.50	145.11
379.70	88.94
379.89	159.16
380.09	79.58
380.28	166.18
380.48	173.20
380.68	70.22
380.87	56.17
381.07	98.30
381.26	105.32
381.46	98.30
381.65	67.88
381.85	93.62
382.04	65.54
382.24	126.39
382.43	60.85
382.63	72.56
382.83	110.01
383.02	173.20
383.22	163.84
383.41	110.01
383.61	79.58
383.80	63.19
384.00	79.58
384.19	142.77
384.39	91.28
384.58	84.26
384.78	147.45
384.97	147.45
385.17	93.62
385.36	81.92
385.56	117.03
385.75	74.90
385.95	88.94
386.14	81.92
386.34	117.03
386.53	170.86
386.72	70.22
386.92	128.73
387.11	154.48
387.31	117.03
387.50	93.62
387.70	65.54
387.89	147.45
388.09	124.05
388.28	42.13
388.48	152.13
388.67	79.58
388.86	154.48
389.06	102.98
389.25	60.85
389.45	84.26
389.64	88.94
389.84	100.64
390.03	102.98
390.22	133.41
390.42	32.77
390.61	98.30
390.81	126.39
391.00	63.19
391.19	187.24
391.39	72.56
391.58	100.64
391.78	126.39
391.97	91.28
392.16	100.64
392.36	86.60
392.55	182.56
392.75	170.86
392.94	177.88
393.13	91.28
393.33	86.60
393.52	135.75
393.71	187.24
393.91	142.77
394.10	138.09
394.29	70.22
394.49	142.77
394.68	166.18
394.88	133.41
395.07	53.83
395.26	100.64
395.46	67.88
395.65	147.45
395.84	161.50
396.04	161.50
396.23	138.09
396.42	88.94
396.62	149.79
396.81	177.88
397.00	70.22
397.19	105.32
397.39	135.75
397.58	110.01
397.77	189.58
397.97	74.90
398.16	131.07
398.35	105.32
398.55	74.90
398.74	140.43
398.93	121.71
399.12	100.64
399.32	131.07
399.51	131.07
399.70	166.18
399.90	102.98
400.09	210.65
400.28	149.79
400.47	142.77
400.67	180.22
400.86	107.66
401.05	201.29
401.24	166.18
401.44	110.01
401.63	124.05
401.82	152.13
402.01	70.22
402.21	140.43
402.40	152.13
402.59	100.64
402.78	93.62
402.97	16.38
403.17	161.50
403.36	126.39
403.55	114.69
403.74	163.84
403.93	229.37
404.13	243.42
404.32	299.59
404.51	332.36
404.70	299.59
404.89	140.43
405.09	173.20
405.28	138.09
405.47	91.28
405.66	182.56
405.85	173.20
406.05	145.11
406.24	95.96
406.43	156.82
406.62	117.03
406.81	156.82
407.00	138.09
407.20	154.48
407.39	173.20
407.58	187.24
407.77	98.30
407.96	145.11
408.15	86.60
408.34	121.71
408.54	170.86
408.73	110.01
408.92	91.28
409.11	53.83
409.30	166.18
409.49	95.96
409.68	79.58
409.87	126.39
410.07	145.11
410.26	95.96
410.45	138.09
410.64	170.86
410.83	124.05
411.02	56.17
411.21	107.66
411.40	138.09
411.59	142.77
411.78	117.03
411.98	51.49
412.17	100.64
412.36	107.66
412.55	203.63
412.74	145.11
412.93	86.60
413.12	131.07
413.31	102.98
413.50	177.88
413.69	135.75
413.88	142.77
414.07	81.92
414.26	147.45
414.45	35.11
414.64	170.86
414.83	133.41
415.02	117.03
415.22	98.30
415.41	156.82
415.60	161.50
415.79	140.43
415.98	196.60
416.17	93.62
416.36	100.64
416.55	100.64
416.74	121.71
416.93	145.11
417.12	114.69
417.31	173.20
417.50	145.11
417.69	107.66
417.88	77.24
418.07	91.28
418.26	180.22
418.45	189.58
418.64	182.56
418.83	159.16
419.02	114.69
419.21	119.37
419.39	74.90
419.58	135.75
419.77	114.69
419.96	196.60
420.15	198.95
420.34	152.13
420.53	156.82
420.72	175.54
420.91	154.48
421.10	149.79
421.29	126.39
421.48	180.22
421.67	156.82
421.86	88.94
422.05	121.71
422.24	114.69
422.43	149.79
422.61	95.96
422.80	72.56
422.99	189.58
423.18	126.39
423.37	98.30
423.56	63.19
423.75	117.03
423.94	175.54
424.13	184.90
424.32	140.43
424.50	81.92
424.69	175.54
424.88	147.45
425.07	166.18
425.26	173.20
425.45	152.13
425.64	166.18
425.83	173.20
426.01	168.52
426.20	147.45
426.39	168.52
426.58	140.43
426.77	124.05
426.96	135.75
427.15	159.16
427.33	53.83
427.52	131.07
427.71	145.11
427.90	105.32
428.09	100.64
428.28	166.18
428.46	112.35
428.65	215.33
428.84	198.95
429.03	161.50
429.22	119.37
429.40	114.69
429.59	23.41
429.78	217.67
429.97	196.60
430.16	154.48
430.34	168.52
430.53	140.43
430.72	161.50
430.91	191.92
431.10	131.07
431.28	98.30
431.47	159.16
431.66	135.75
431.85	135.75
432.03	152.13
432.22	145.11
432.41	65.54
432.60	163.84
432.79	159.16
432.97	140.43
433.16	98.30
433.35	105.32
433.54	159.16
433.72	252.78
433.91	175.54
434.10	196.60
434.28	177.88
434.47	215.33
434.66	196.60
434.85	245.76
435.03	320.65
435.22	800.46
435.41	1217.08
435.59	1240.48
435.78	821.53
435.97	512.58
436.16	334.70
436.34	152.13
436.53	168.52
436.72	147.45
436.90	163.84
437.09	147.45
437.28	224.69
437.46	121.71
437.65	112.35
437.84	105.32
438.02	98.30
438.21	191.92
438.40	212.99
438.58	210.65
438.77	180.22
438.96	238.73
439.14	187.24
439.33	175.54
439.52	175.54
439.70	154.48
439.89	227.03
440.08	117.03
440.26	142.77
440.45	105.32
440.63	170.86
440.82	191.92
441.01	126.39
441.19	168.52
441.38	142.77
441.57	149.79
441.75	152.13
441.94	187.24
442.12	187.24
442.31	133.41
442.50	126.39
442.68	117.03
442.87	142.77
443.05	147.45
443.24	201.29
443.43	245.76
443.61	191.92
443.80	138.09
443.98	145.11
444.17	154.48
444.35	180.22
444.54	159.16
444.73	196.60
444.91	133.41
445.10	191.92
445.28	147.45
445.47	175.54
445.65	91.28
445.84	166.18
446.02	168.52
446.21	133.41
446.39	189.58
446.58	147.45
446.77	231.71
446.95	175.54
447.14	168.52
447.32	241.08
447.51	72.56
447.69	208.31
447.88	112.35
448.06	231.71
448.25	196.60
448.43	147.45
448.62	135.75
448.80	173.20
448.99	212.99
449.17	201.29
449.36	189.58
449.54	152.13
449.73	177.88
449.91	222.35
450.10	133.41
450.28	227.03
450.46	224.69
450.65	241.08
450.83	222.35
451.02	177.88
451.20	177.88
451.39	124.05
451.57	227.03
451.76	126.39
451.94	159.16
452.13	177.88
452.31	212.99
452.49	131.07
452.68	161.50
452.86	229.37
453.05	243.42
453.23	154.48
453.42	126.39
453.60	170.86
453.78	210.65
453.97	177.88
454.15	121.71
454.34	126.39
454.52	140.43
454.70	187.24
454.89	180.22
455.07	152.13
455.26	259.80
455.44	138.09
455.62	154.48
455.81	222.35
455.99	191.92
456.17	121.71
456.36	184.90
456.54	227.03
456.73	147.45
456.91	53.83
457.09	163.84
457.28	248.10
457.46	173.20
457.64	191.92
457.83	187.24
458.01	126.39
458.19	196.60
458.38	138.09
458.56	126.39
458.74	138.09
458.93	142.77
459.11	168.52
459.29	175.54
459.48	220.01
459.66	182.56
459.84	191.92
460.03	252.78
460.21	250.44
460.39	126.39
460.57	128.73
460.76	168.52
460.94	170.86
461.12	175.54
461.31	166.18
461.49	182.56
461.67	161.50
461.85	170.86
462.04	224.69
462.22	248.10
462.40	203.63
462.59	187.24
462.77	140.43
462.95	166.18
463.13	133.41
463.32	184.90
463.50	187.24
463.68	241.08
463.86	182.56
464.05	189.58
464.23	163.84
464.41	161.50
464.59	84.26
464.78	126.39
464.96	208.31
465.14	152.13
465.32	124.05
465.50	241.08
465.69	217.67
465.87	131.07
466.05	147.45
466.23	135.75
466.41	212.99
466.60	191.92
466.78	278.52
466.96	191.92
467.14	224.69
467.32	177.88
467.51	182.56
467.69	117.03
467.87	168.52
468.05	154.48
468.23	229.37
468.41	196.60
468.60	138.09
468.78	166.18
468.96	210.65
469.14	241.08
469.32	163.84
469.50	194.26
469.69	168.52
469.87	196.60
470.05	250.44
470.23	159.16
470.41	124.05
470.59	147.45
470.77	175.54
470.95	133.41
471.14	145.11
471.32	140.43
471.50	156.82
471.68	114.69
471.86	128.73
472.04	112.35
472.22	196.60
472.40	161.50
472.58	147.45
472.77	126.39
472.95	252.78
473.13	170.86
473.31	220.01
473.49	147.45
473.67	133.41
473.85	138.09
474.03	196.60
474.21	201.29
474.39	241.08
474.57	215.33
474.75	145.11
474.93	154.48
475.12	102.98
475.30	191.92
475.48	220.01
475.66	187.24
475.84	170.86
476.02	208.31
476.20	241.08
476.38	100.64
476.56	191.92
476.74	234.05
476.92	180.22
477.10	86.60
477.28	161.50
477.46	166.18
477.64	187.24
477.82	163.84
478.00	191.92
478.18	177.88
478.36	107.66
478.54	93.62
478.72	163.84
478.90	119.37
479.08	231.71
479.26	203.63
479.44	227.03
479.62	220.01
479.80	112.35
479.98	177.88
480.16	131.07
480.34	229.37
480.52	215.33
480.70	173.20
480.88	196.60
481.06	159.16
481.24	217.67
481.41	262.14
481.59	182.56
481.77	177.88
481.95	166.18
482.13	222.35
482.31	252.78
482.49	234.05
482.67	313.63
482.85	161.50
483.03	287.89
483.21	259.80
483.39	184.90
483.57	229.37
483.74	290.23
483.92	238.73
484.10	156.82
484.28	259.80
484.46	360.44
484.64	250.44
484.82	297.25
485.00	266.82
485.18	241.08
485.35	266.82
485.53	238.73
485.71	271.50
485.89	215.33
486.07	278.52
486.25	348.74
486.43	322.99
486.61	248.10
486.78	348.74
486.96	358.10
487.14	322.99
487.32	248.10
487.50	327.68
487.68	271.50
487.85	255.12
488.03	306.61
488.21	418.96
488.39	231.71
488.57	285.55
488.75	273.84
488.92	510.24
489.10	292.57
489.28	327.68
489.46	301.93
489.64	294.91
489.81	222.35
489.99	365.12
490.17	299.59
490.35	283.20
490.53	245.76
490.70	241.08
490.88	269.16
491.06	250.44
491.24	304.27
491.41	402.57
491.59	320.65
491.77	238.73
491.95	287.89
492.13	271.50
492.30	294.91
492.48	241.08
492.66	283.20
492.84	285.55
493.01	245.76
493.19	236.39
493.37	257.46
493.54	311.29
493.72	224.69
493.90	276.18
494.08	262.14
494.25	201.29
494.43	278.52
494.61	259.80
494.79	278.52
494.96	238.73
495.14	290.23
495.32	292.57
495.49	280.86
495.67	346.40
495.85	294.91
496.02	220.01
496.20	320.65
496.38	285.55
496.55	304.27
496.73	243.42
496.91	259.80
497.09	311.29
497.26	280.86
497.44	278.52
497.62	301.93
497.79	189.58
497.97	273.84
498.14	224.69
498.32	259.80
498.50	229.37
498.67	217.67
498.85	217.67
499.03	269.16
499.20	203.63
499.38	212.99
499.56	262.14
499.73	292.57
499.91	238.73
500.08	257.46
500.26	294.91
500.44	301.93
500.61	234.05
500.79	229.37
500.97	301.93
501.14	306.61
501.32	70.22
501.49	205.97
501.67	238.73
501.84	299.59
502.02	238.73
502.20	236.39
502.37	189.58
502.55	290.23
502.72	210.65
502.90	264.48
503.07	220.01
503.25	257.46
503.43	173.20
503.60	241.08
503.78	257.46
503.95	250.44
504.13	234.05
504.30	327.68
504.48	177.88
504.65	217.67
504.83	299.59
505.01	257.46
505.18	238.73
505.36	227.03
505.53	177.88
505.71	154.48
505.88	238.73
506.06	266.82
506.23	236.39
506.41	212.99
506.58	257.46
506.76	191.92
506.93	262.14
507.11	163.84
507.28	234.05
507.46	238.73
507.63	161.50
507.81	220.01
507.98	234.05
508.16	271.50
508.33	166.18
508.50	262.14
508.68	315.97
508.85	262.14
509.03	248.10
509.20	210.65
509.38	224.69
509.55	255.12
509.73	252.78
509.90	266.82
510.08	262.14
510.25	191.92
510.42	243.42
510.60	168.52
510.77	231.71
510.95	215.33
511.12	210.65
511.30	168.52
511.47	290.23
511.64	304.27
511.82	238.73
511.99	191.92
512.17	236.39
512.34	180.22
512.51	119.37
512.69	177.88
512.86	231.71
513.04	212.99
513.21	196.60
513.38	215.33
513.56	327.68
513.73	138.09
513.90	161.50
514.08	227.03
514.25	241.08
514.43	231.71
514.60	173.20
514.77	217.67
514.95	159.16
515.12	290.23
515.29	285.55
515.47	182.56
515.64	156.82
515.81	264.48
515.99	182.56
516.16	285.55
516.33	290.23
516.51	271.50
516.68	276.18
516.85	184.90
517.03	220.01
517.20	278.52
517.37	156.82
517.54	238.73
517.72	212.99
517.89	142.77
518.06	159.16
518.24	257.46
518.41	248.10
518.58	252.78
518.75	227.03
518.93	166.18
519.10	217.67
519.27	191.92
519.45	241.08
519.62	222.35
519.79	212.99
519.96	133.41
520.14	142.77
520.31	238.73
520.48	182.56
520.65	217.67
520.83	292.57
521.00	222.35
521.17	245.76
521.34	198.95
521.52	248.10
521.69	208.31
521.86	163.84
522.03	182.56
522.20	273.84
522.38	304.27
522.55	283.20
522.72	238.73
522.89	236.39
523.07	257.46
523.24	250.44
523.41	259.80
523.58	220.01
523.75	198.95
523.92	236.39
524.10	278.52
524.27	234.05
524.44	269.16
524.61	306.61
524.78	234.05
524.96	245.76
525.13	220.01
525.30	285.55
525.47	175.54
525.64	205.97
525.81	198.95
525.98	189.58
526.16	124.05
526.33	220.01
526.50	191.92
526.67	341.72
526.84	224.69
527.01	229.37
527.18	250.44
527.36	266.82
527.53	227.03
527.70	252.78
527.87	241.08
528.04	283.20
528.21	255.12
528.38	278.52
528.55	248.10
528.72	367.46
528.89	315.97
529.07	196.60
529.24	217.67
529.41	266.82
529.58	245.76
529.75	208.31
529.92	252.78
530.09	222.35
530.26	262.14
530.43	173.20
530.60	287.89
530.77	262.14
530.94	245.76
531.11	311.29
531.28	184.90
531.46	210.65
531.63	238.73
531.80	220.01
531.97	248.10
532.14	301.93
532.31	238.73
532.48	271.50
532.65	346.40
532.82	269.16
532.99	227.03
533.16	273.84
533.33	276.18
533.50	238.73
533.67	297.25
533.84	257.46
534.01	332.36
534.18	212.99
534.35	285.55
534.52	304.27
534.69	257.46
534.86	236.39
535.03	276.18
535.20	222.35
535.37	306.61
535.54	257.46
535.71	234.05
535.88	273.84
536.05	348.74
536.22	315.97
536.38	341.72
536.55	383.85
536.72	334.70
536.89	322.99
537.06	287.89
537.23	341.72
537.40	358.10
537.57	360.44
537.74	360.44
537.91	421.30
538.08	418.96
538.25	414.27
538.42	444.70
538.59	386.19
538.75	374.49
538.92	425.98
539.09	479.81
539.26	449.38
539.43	496.19
539.60	444.70
539.77	528.96
539.94	596.84
540.11	669.39
540.28	746.63
540.44	753.65
540.61	730.25
540.78	919.83
540.95	1013.45
541.12	1179.63
541.29	1219.42
541.46	1409.00
541.62	1252.19
541.79	1334.11
541.96	1212.40
542.13	1235.80
542.30	1116.44
542.47	1015.79
542.63	1114.10
542.80	1039.20
542.97	1032.18
543.14	973.66
543.31	1032.18
543.48	1015.79
543.64	1100.05
543.81	1076.65
543.98	1048.56
544.15	1036.86
544.32	1165.59
544.48	1004.09
544.65	961.96
544.82	999.41
544.99	1008.77
545.16	1125.80
545.32	1001.75
545.49	1694.55
545.66	2464.58
545.83	3089.51
546.00	2607.36
546.16	1877.11
546.33	1451.13
546.50	1100.05
546.67	1062.60
546.83	926.85
547.00	915.15
547.17	713.86
547.34	784.08
547.50	725.57
547.67	758.33
547.84	772.38
548.00	667.05
548.17	674.07
548.34	540.66
548.51	676.41
548.67	688.12
548.84	620.24
549.01	676.41
549.18	599.18
549.34	641.31
549.51	561.73
549.68	533.64
549.84	517.26
550.01	521.94
550.18	585.13
550.34	615.56
550.51	524.28
550.68	580.45
550.84	528.96
551.01	475.13
551.18	496.19
551.34	505.56
551.51	404.91
551.68	393.21
551.84	440.02
552.01	360.44
552.18	379.17
552.34	440.02
552.51	400.23
552.68	397.89
552.84	341.72
553.01	337.04
553.18	397.89
553.34	330.02
553.51	285.55
553.67	355.76
553.84	348.74
554.01	301.93
554.17	306.61
554.34	220.01
554.51	252.78
554.67	367.46
554.84	358.10
555.00	322.99
555.17	252.78
555.33	297.25
555.50	360.44
555.67	327.68
555.83	212.99
556.00	365.12
556.16	407.25
556.33	294.91
556.50	208.31
556.66	292.57
556.83	273.84
556.99	182.56
557.16	238.73
557.32	278.52
557.49	252.78
557.65	231.71
557.82	276.18
557.98	250.44
558.15	257.46
558.32	283.20
558.48	229.37
558.65	252.78
558.81	241.08
558.98	294.91
559.14	299.59
559.31	262.14
559.47	334.70
559.64	210.65
559.80	231.71
559.97	278.52
560.13	189.58
560.30	187.24
560.46	238.73
560.63	252.78
560.79	180.22
560.96	259.80
561.12	236.39
561.29	266.82
561.45	252.78
561.61	227.03
561.78	327.68
561.94	224.69
562.11	168.52
562.27	236.39
562.44	189.58
562.60	208.31
562.77	238.73
562.93	318.31
563.10	262.14
563.26	241.08
563.42	217.67
563.59	292.57
563.75	215.33
563.92	294.91
564.08	264.48
564.24	196.60
564.41	234.05
564.57	217.67
564.74	229.37
564.90	299.59
565.07	252.78
565.23	266.82
565.39	168.52
565.56	161.50
565.72	201.29
565.88	196.60
566.05	231.71
566.21	266.82
566.38	241.08
566.54	217.67
566.70	222.35
566.87	234.05
567.03	210.65
567.19	184.90
567.36	243.42
567.52	255.12
567.68	234.05
567.85	208.31
568.01	259.80
568.17	243.42
568.34	259.80
568.50	194.26
568.66	266.82
568.83	301.93
568.99	238.73
569.15	245.76
569.32	205.97
569.48	182.56
569.64	215.33
569.81	198.95
569.97	217.67
570.13	264.48
570.30	189.58
570.46	222.35
570.62	191.92
570.78	191.92
570.95	184.90
571.11	325.33
571.27	224.69
571.43	248.10
571.60	154.48
571.76	269.16
571.92	297.25
572.09	196.60
572.25	203.63
572.41	163.84
572.57	205.97
572.74	259.80
572.90	191.92
573.06	166.18
573.22	220.01
573.38	203.63
573.55	177.88
573.71	212.99
573.87	257.46
574.03	187.24
574.20	238.73
574.36	227.03
574.52	252.78
574.68	210.65
574.84	177.88
575.01	257.46
575.17	180.22
575.33	175.54
575.49	220.01
575.65	276.18
575.82	231.71
575.98	299.59
576.14	297.25
576.30	301.93
576.46	566.41
576.62	734.93
576.79	660.03
576.95	617.90
577.11	454.06
577.27	367.46
577.43	313.63
577.59	311.29
577.75	283.20
577.92	191.92
578.08	166.18
578.24	306.61
578.40	304.27
578.56	435.34
578.72	568.75
578.88	601.52
579.04	568.75
579.21	454.06
579.37	409.59
579.53	376.83
579.69	416.62
579.85	388.53
580.01	475.13
580.17	402.57
580.33	330.02
580.49	393.21
580.65	306.61
580.82	320.65
580.98	264.48
581.14	241.08
581.30	294.91
581.46	372.15
581.62	388.53
581.78	290.23
581.94	353.42
582.10	348.74
582.26	430.66
582.42	348.74
582.58	367.46
582.74	463.43
582.90	423.64
583.06	442.36
583.22	475.13
583.38	407.25
583.54	381.51
583.70	444.70
583.86	416.62
584.02	435.34
584.18	365.12
584.34	400.23
584.50	416.62
584.66	383.85
584.82	402.57
584.98	290.23
585.14	280.86
585.30	379.17
585.46	355.76
585.62	311.29
585.78	351.08
585.94	400.23
586.10	339.38
586.26	355.76
586.42	484.49
586.58	507.90
586.74	531.30
586.90	449.38
587.06	571.09
587.22	550.03
587.38	470.45
587.54	535.98
587.70	538.32
587.86	330.02
588.02	437.68
588.18	341.72
588.34	318.31
588.49	257.46
588.65	259.80
588.81	301.93
588.97	318.31
589.13	259.80
589.29	341.72
589.45	376.83
589.61	381.51
589.77	346.40
589.93	318.31
590.08	276.18
590.24	301.93
590.40	266.82
590.56	322.99
590.72	367.46
590.88	220.01
591.04	308.95
591.20	294.91
591.35	386.19
591.51	346.40
591.67	332.36
591.83	365.12
591.99	395.55
592.15	404.91
592.31	442.36
592.46	411.93
592.62	435.34
592.78	449.38
592.94	486.83
593.10	430.66
593.26	440.02
593.41	465.77
593.57	369.80
593.73	393.21
593.89	390.87
594.05	372.15
594.20	273.84
594.36	351.08
594.52	332.36
594.68	276.18
594.84	325.33
594.99	355.76
595.15	257.46
595.31	269.16
595.47	337.04
595.62	245.76
595.78	280.86
595.94	194.26
596.10	294.91
596.25	290.23
596.41	327.68
596.57	388.53
596.73	255.12
596.88	320.65
597.04	271.50
597.20	231.71
597.36	280.86
597.51	259.80
597.67	278.52
597.83	262.14
597.99	351.08
598.14	304.27
598.30	341.72
598.46	346.40
598.61	430.66
598.77	341.72
598.93	379.17
599.09	339.38
599.24	374.49
599.40	470.45
599.56	383.85
599.71	245.76
599.87	311.29
600.03	283.20
600.18	290.23
600.34	290.23
600.50	287.89
600.65	278.52
600.81	320.65
600.97	252.78
601.12	243.42
601.28	297.25
601.44	360.44
601.59	276.18
601.75	315.97
601.91	241.08
602.06	358.10
602.22	313.63
602.37	304.27
602.53	313.63
602.69	271.50
602.84	287.89
603.00	276.18
603.16	238.73
603.31	262.14
603.47	255.12
603.62	196.60
603.78	243.42
603.94	269.16
604.09	210.65
604.25	287.89
604.40	285.55
604.56	278.52
604.71	276.18
604.87	248.10
605.03	271.50
605.18	292.57
605.34	278.52
605.49	299.59
605.65	255.12
605.80	166.18
605.96	339.38
606.12	278.52
606.27	332.36
606.43	201.29
606.58	280.86
606.74	320.65
606.89	339.38
607.05	390.87
607.20	344.06
607.36	290.23
607.51	327.68
607.67	299.59
607.82	369.80
607.98	400.23
608.13	393.21
608.29	351.08
608.44	337.04
608.60	402.57
608.75	500.87
608.91	395.55
609.06	479.81
609.22	578.11
609.37	561.73
609.53	566.41
609.68	667.05
609.84	695.14
609.99	683.44
610.15	924.51
610.30	1076.65
610.46	1413.68
610.61	1739.02
610.76	2078.40
610.92	2420.11
611.07	2715.02
611.23	2820.35
