SpectraSuite Data File
++++++++++++++++++++++++++++++++++++
Date: Fri Oct 04 11:42:15 GMT-05:00 2013
User: price-jones
Dark Spectrum Present: No
Reference Spectrum Present: No
Number of Sampled Component Spectra: 1
Spectrometers: USB2+H05261
Integration Time (usec): 100000 (USB2+H05261)
Spectra Averaged: 1 (USB2+H05261)
Boxcar Smoothing: 0 (USB2+H05261)
Correct for Electrical Dark: No (USB2+H05261)
Strobe/Lamp Enabled: No (USB2+H05261)
Correct for Detector Non-linearity: No (USB2+H05261)
Correct for Stray Light: No (USB2+H05261)
Number of Pixels in Processed Spectrum: 2048
>>>>>Begin Processed Spectral Data<<<<<
365.73	56.17
365.92	56.17
366.12	56.17
366.32	0.00
366.52	0.00
366.72	0.00
366.91	0.00
367.11	0.00
367.31	0.00
367.51	0.00
367.70	0.00
367.90	0.00
368.10	0.00
368.30	0.00
368.49	0.00
368.69	9.36
368.89	0.00
369.09	0.00
369.28	0.00
369.48	0.00
369.68	21.06
369.87	42.13
370.07	0.00
370.27	79.58
370.47	16.38
370.66	95.96
370.86	189.58
371.06	198.95
371.25	238.73
371.45	208.31
371.65	222.35
371.84	191.92
372.04	229.37
372.24	278.52
372.44	269.16
372.63	273.84
372.83	220.01
373.03	271.50
373.22	210.65
373.42	205.97
373.62	287.89
373.81	285.55
374.01	283.20
374.21	322.99
374.40	224.69
374.60	299.59
374.79	266.82
374.99	301.93
375.19	212.99
375.38	315.97
375.58	271.50
375.78	299.59
375.97	322.99
376.17	390.87
376.37	292.57
376.56	325.33
376.76	264.48
376.95	283.20
377.15	339.38
377.35	360.44
377.54	325.33
377.74	297.25
377.93	332.36
378.13	348.74
378.33	379.17
378.52	308.95
378.72	283.20
378.91	292.57
379.11	266.82
379.31	271.50
379.50	271.50
379.70	287.89
379.89	311.29
380.09	285.55
380.28	297.25
380.48	388.53
380.68	369.80
380.87	215.33
381.07	273.84
381.26	325.33
381.46	278.52
381.65	369.80
381.85	273.84
382.04	304.27
382.24	212.99
382.43	229.37
382.63	198.95
382.83	287.89
383.02	248.10
383.22	287.89
383.41	229.37
383.61	304.27
383.80	285.55
384.00	306.61
384.19	360.44
384.39	318.31
384.58	308.95
384.78	346.40
384.97	315.97
385.17	367.46
385.36	379.17
385.56	297.25
385.75	271.50
385.95	334.70
386.14	318.31
386.34	341.72
386.53	306.61
386.72	299.59
386.92	259.80
387.11	365.12
387.31	346.40
387.50	306.61
387.70	294.91
387.89	337.04
388.09	278.52
388.28	330.02
388.48	301.93
388.67	360.44
388.86	313.63
389.06	383.85
389.25	351.08
389.45	433.00
389.64	433.00
389.84	414.27
390.03	397.89
390.22	358.10
390.42	341.72
390.61	414.27
390.81	411.93
391.00	423.64
391.19	458.74
391.39	388.53
391.58	447.04
391.78	402.57
391.97	299.59
392.16	388.53
392.36	325.33
392.55	341.72
392.75	238.73
392.94	208.31
393.13	252.78
393.33	294.91
393.52	344.06
393.71	332.36
393.91	409.59
394.10	390.87
394.29	390.87
394.49	461.09
394.68	486.83
394.88	435.34
395.07	444.70
395.26	486.83
395.46	430.66
395.65	458.74
395.84	383.85
396.04	341.72
396.23	313.63
396.42	262.14
396.62	250.44
396.81	297.25
397.00	311.29
397.19	400.23
397.39	442.36
397.58	491.51
397.77	543.00
397.97	528.96
398.16	524.28
398.35	580.45
398.55	535.98
398.74	475.13
398.93	615.56
399.12	559.39
399.32	528.96
399.51	550.03
399.70	575.77
399.90	531.30
400.09	608.54
400.28	592.16
400.47	552.37
400.67	603.86
400.86	613.22
401.05	587.47
401.24	608.54
401.44	650.67
401.63	641.31
401.82	596.84
402.01	566.41
402.21	617.90
402.40	580.45
402.59	491.51
402.78	531.30
402.97	557.05
403.17	592.16
403.36	723.23
403.55	655.35
403.74	657.69
403.93	587.47
404.13	758.33
404.32	755.99
404.51	716.20
404.70	681.10
404.89	641.31
405.09	741.95
405.28	671.73
405.47	538.32
405.66	650.67
405.85	648.33
406.05	638.97
406.24	627.26
406.43	594.50
406.62	596.84
406.81	662.37
407.00	650.67
407.20	638.97
407.39	620.24
407.58	589.82
407.77	601.52
407.96	634.29
408.15	667.05
408.34	648.33
408.54	678.76
408.73	683.44
408.92	718.54
409.11	688.12
409.30	690.46
409.49	608.54
409.68	676.41
409.87	627.26
410.07	662.37
410.26	578.11
410.45	669.39
410.64	641.31
410.83	671.73
411.02	648.33
411.21	676.41
411.40	840.25
411.59	772.38
411.78	657.69
411.98	725.57
412.17	669.39
412.36	643.65
412.55	720.88
412.74	716.20
412.93	737.27
413.12	695.14
413.31	772.38
413.50	781.74
413.69	713.86
413.88	660.03
414.07	709.18
414.26	706.84
414.45	755.99
414.64	734.93
414.83	786.42
415.02	758.33
415.22	718.54
415.41	774.72
415.60	814.51
415.79	800.46
415.98	821.53
416.17	842.59
416.36	753.65
416.55	732.59
416.74	788.76
416.93	781.74
417.12	713.86
417.31	746.63
417.50	704.50
417.69	830.89
417.88	767.70
418.07	763.01
418.26	816.85
418.45	812.17
418.64	847.27
418.83	887.06
419.02	837.91
419.21	732.59
419.39	800.46
419.58	748.97
419.77	823.87
419.96	805.14
420.15	866.00
420.34	770.04
420.53	819.19
420.72	903.45
420.91	828.55
421.10	880.04
421.29	861.32
421.48	784.08
421.67	854.30
421.86	788.76
422.05	777.06
422.24	653.01
422.43	711.52
422.61	767.70
422.80	795.78
422.99	800.46
423.18	784.08
423.37	866.00
423.56	812.17
423.75	779.40
423.94	816.85
424.13	739.61
424.32	772.38
424.50	821.53
424.69	844.93
424.88	873.02
425.07	739.61
425.26	779.40
425.45	753.65
425.64	784.08
425.83	851.96
426.01	788.76
426.20	802.80
426.39	800.46
426.58	720.88
426.77	706.84
426.96	767.70
427.15	711.52
427.33	774.72
427.52	826.21
427.71	858.98
427.90	774.72
428.09	751.31
428.28	725.57
428.46	655.35
428.65	723.23
428.84	770.04
429.03	800.46
429.22	692.80
429.40	748.97
429.59	634.29
429.78	592.16
429.97	603.86
430.16	585.13
430.34	589.82
430.53	662.37
430.72	629.60
430.91	662.37
431.10	800.46
431.28	830.89
431.47	873.02
431.66	875.36
431.85	816.85
432.03	774.72
432.22	849.61
432.41	746.63
432.60	919.83
432.79	809.83
432.97	816.85
433.16	875.36
433.35	821.53
433.54	821.53
433.72	699.82
433.91	807.48
434.10	849.61
434.28	908.13
434.47	924.51
434.66	954.94
434.85	854.30
435.03	912.81
435.22	1261.55
435.41	1643.06
435.59	1837.32
435.78	1521.35
435.97	1219.42
436.16	997.07
436.34	999.41
436.53	961.96
436.72	910.47
436.90	896.43
437.09	884.72
437.28	854.30
437.46	931.53
437.65	1013.45
437.84	863.66
438.02	800.46
438.21	793.44
438.40	877.70
438.58	870.68
438.77	931.53
438.96	917.49
439.14	947.92
439.33	959.62
439.52	959.62
439.70	924.51
439.89	947.92
440.08	830.89
440.26	849.61
440.45	961.96
440.63	908.13
440.82	966.64
441.01	999.41
441.19	1036.86
441.38	994.73
441.57	943.24
441.75	1064.94
441.94	1074.31
442.12	1057.92
442.31	1076.65
442.50	1036.86
442.68	971.32
442.87	1008.77
443.05	1076.65
443.24	983.02
443.43	1041.54
443.61	1109.41
443.80	1046.22
443.98	1020.47
444.17	1062.60
444.35	1104.73
444.54	1071.97
444.73	1046.22
444.91	1067.28
445.10	1015.79
445.28	999.41
445.47	990.05
445.65	968.98
445.84	987.71
446.02	1090.69
446.21	990.05
446.39	945.58
446.58	1076.65
446.77	971.32
446.95	1025.15
447.14	1088.35
447.32	1142.18
447.51	1046.22
447.69	1013.45
447.88	1036.86
448.06	1163.25
448.25	1006.43
448.43	1086.01
448.62	1011.11
448.80	1034.52
448.99	1071.97
449.17	1067.28
449.36	1050.90
449.54	1142.18
449.73	1067.28
449.91	1163.25
450.10	1074.31
450.28	1174.95
450.46	1259.21
450.65	1088.35
450.83	1135.16
451.02	1165.59
451.20	1083.67
451.39	1135.16
451.57	1146.86
451.76	1153.88
451.94	1081.33
452.13	1036.86
452.31	971.32
452.49	1048.56
452.68	1060.26
452.86	912.81
453.05	1053.24
453.23	1050.90
453.42	1090.69
453.60	1034.52
453.78	1170.27
453.97	1170.27
454.15	1146.86
454.34	1130.48
454.52	1123.46
454.70	1109.41
454.89	1097.71
455.07	1041.54
455.26	1135.16
455.44	1160.91
455.62	1165.59
455.81	1167.93
455.99	1212.40
456.17	1205.38
456.36	1111.75
456.54	1128.14
456.73	1111.75
456.91	1139.84
457.09	1226.44
457.28	1231.12
457.46	1078.99
457.64	1240.48
457.83	1048.56
458.01	1064.94
458.19	1088.35
458.38	1137.50
458.56	1146.86
458.74	1137.50
458.93	1221.76
459.11	1093.03
459.29	1181.97
459.48	1144.52
459.66	1186.65
459.84	1137.50
460.03	1224.10
460.21	1163.25
460.39	1198.35
460.57	1156.22
460.76	1240.48
460.94	1231.12
461.12	1221.76
461.31	1151.54
461.49	1238.14
461.67	1193.67
461.85	1245.16
462.04	1226.44
462.22	1341.13
462.40	1196.01
462.59	1207.72
462.77	1193.67
462.95	1240.48
463.13	1217.08
463.32	1249.85
463.50	1214.74
463.68	1217.08
463.86	1174.95
464.05	1219.42
464.23	1149.20
464.41	1181.97
464.59	1132.82
464.78	1062.60
464.96	1256.87
465.14	1217.08
465.32	1139.84
465.50	1212.40
465.69	1240.48
465.87	1048.56
466.05	1212.40
466.23	1142.18
466.41	1123.46
466.60	1118.78
466.78	1191.33
466.96	1146.86
467.14	1170.27
467.32	1102.39
467.51	1188.99
467.69	1135.16
467.87	1207.72
468.05	1203.04
468.23	1273.25
468.41	1153.88
468.60	1203.04
468.78	1273.25
468.96	1228.78
469.14	1179.63
469.32	1165.59
469.50	1097.71
469.69	1217.08
469.87	1118.78
470.05	1137.50
470.23	1125.80
470.41	1029.84
470.59	1053.24
470.77	1196.01
470.95	1193.67
471.14	1224.10
471.32	1153.88
471.50	1165.59
471.68	1284.95
471.86	1275.59
472.04	1231.12
472.22	1224.10
472.40	1226.44
472.58	1221.76
472.77	1170.27
472.95	1329.42
473.13	1296.66
473.31	1289.64
473.49	1221.76
473.67	1198.35
473.85	1334.11
474.03	1336.45
474.21	1261.55
474.39	1313.04
474.57	1287.29
474.75	1252.19
474.93	1240.48
475.12	1275.59
475.30	1207.72
475.48	1301.34
475.66	1324.74
475.84	1231.12
476.02	1203.04
476.20	1226.44
476.38	1240.48
476.56	1364.53
476.74	1252.19
476.92	1221.76
477.10	1247.51
477.28	1380.92
477.46	1362.19
477.64	1378.58
477.82	1380.92
478.00	1376.24
478.18	1500.28
478.36	1226.44
478.54	1284.95
478.72	1383.26
478.90	1373.89
479.08	1423.05
479.26	1406.66
479.44	1380.92
479.62	1275.59
479.80	1437.09
479.98	1444.11
480.16	1504.96
480.34	1511.99
480.52	1455.81
480.70	1472.20
480.88	1490.92
481.06	1453.47
481.24	1511.99
481.41	1561.14
481.59	1514.33
481.77	1474.54
481.95	1453.47
482.13	1563.48
482.31	1502.62
482.49	1556.46
482.67	1554.12
482.85	1507.30
483.03	1612.63
483.21	1657.10
483.39	1610.29
483.57	1647.74
483.74	1680.50
483.92	1636.03
484.10	1544.75
484.28	1614.97
484.46	1729.66
484.64	1610.29
484.82	1650.08
485.00	1561.14
485.18	1617.31
485.35	1533.05
485.53	1462.83
485.71	1401.98
485.89	1387.94
486.07	1427.73
486.25	1600.93
486.43	1584.54
486.61	1715.61
486.78	1673.48
486.96	1619.65
487.14	1774.13
487.32	1713.27
487.50	1785.83
487.68	1795.19
487.85	1717.95
488.03	1842.00
488.21	1816.26
488.39	1720.29
488.57	1661.78
488.75	1659.44
488.92	2029.24
489.10	1919.24
489.28	1867.75
489.46	1926.26
489.64	1863.07
489.81	1961.37
489.99	1966.05
490.17	1823.28
490.35	1963.71
490.53	1832.64
490.70	1778.81
490.88	1895.83
491.06	1984.77
491.24	1982.43
491.41	1998.82
491.59	1870.09
491.77	1732.00
491.95	1785.83
492.13	1830.30
492.30	1930.94
492.48	1940.30
492.66	1977.75
492.84	2008.18
493.01	2078.40
493.19	1905.20
493.37	1973.07
493.54	1893.49
493.72	1963.71
493.90	2008.18
494.08	2101.80
494.25	2120.53
494.43	2101.80
494.61	2120.53
494.79	2169.68
494.96	2069.03
495.14	2176.70
495.32	2181.38
495.49	2022.22
495.67	2062.01
495.85	2179.04
496.02	2038.61
496.20	2101.80
496.38	2118.18
496.55	2143.93
496.73	2125.21
496.91	2090.10
497.09	2211.81
497.26	2132.23
497.44	2209.47
497.62	2146.27
497.79	2129.89
497.97	1944.99
498.14	1937.96
498.32	2010.52
498.50	2090.10
498.67	2101.80
498.85	2134.57
499.03	2235.21
499.20	2232.87
499.38	2052.65
499.56	2132.23
499.73	2179.04
499.91	2101.80
500.08	1975.41
500.26	2052.65
500.44	1987.11
500.61	2031.58
500.79	2064.35
500.97	2033.93
501.14	2024.56
501.32	2010.52
501.49	2157.97
501.67	1982.43
501.84	2040.95
502.02	2047.97
502.20	2127.55
502.37	2270.32
502.55	2160.31
502.72	2111.16
502.90	2218.83
503.07	2134.57
503.25	2008.18
503.43	1959.03
503.60	1909.88
503.78	1909.88
503.95	1900.52
504.13	2094.78
504.30	2066.69
504.48	2214.15
504.65	2090.10
504.83	2157.97
505.01	2099.46
505.18	2165.00
505.36	2165.00
505.53	2150.95
505.71	2076.06
505.88	2249.25
506.06	2115.84
506.23	2134.57
506.41	2115.84
506.58	2176.70
506.76	2101.80
506.93	2155.63
507.11	2172.02
507.28	2059.67
507.46	2069.03
507.63	2097.12
507.81	1989.46
507.98	2118.18
508.16	2134.57
508.33	2134.57
508.50	2207.13
508.68	2237.55
508.85	2279.68
509.03	2186.06
509.20	2380.32
509.38	2179.04
509.55	2045.63
509.73	2139.25
509.90	2282.02
510.08	2106.48
510.25	2235.21
510.42	2155.63
510.60	2345.22
510.77	2373.30
510.95	2361.60
511.12	2258.62
511.30	2230.53
511.47	2296.07
511.64	2307.77
511.82	2342.88
511.99	2244.57
512.17	2165.00
512.34	2162.66
512.51	2317.13
512.69	2148.61
512.86	2165.00
513.04	2317.13
513.21	2246.91
513.38	2230.53
513.56	2167.34
513.73	2022.22
513.90	2024.56
514.08	2167.34
514.25	2160.31
514.43	2143.93
514.60	2225.85
514.77	2244.57
514.95	2101.80
515.12	2172.02
515.29	2242.23
515.47	2300.75
515.64	2303.09
515.81	2310.11
515.99	2179.04
516.16	2139.25
516.33	2003.50
516.51	1874.77
516.68	1764.76
516.85	1809.23
517.03	1888.81
517.20	2134.57
517.37	2062.01
517.54	2155.63
517.72	2120.53
517.89	1996.48
518.06	1902.86
518.24	1923.92
518.41	2127.55
518.58	2242.23
518.75	2153.29
518.93	2197.76
519.10	2064.35
519.27	2246.91
519.45	2179.04
519.62	2179.04
519.79	2183.72
519.96	2129.89
520.14	2172.02
520.31	2141.59
520.48	2108.82
520.65	2066.69
520.83	2211.81
521.00	2399.05
521.17	2352.24
521.34	2153.29
521.52	2298.41
521.69	2307.77
521.86	2333.51
522.03	2251.60
522.20	2277.34
522.38	2097.12
522.55	2115.84
522.72	2216.49
522.89	2209.47
523.07	2181.38
523.24	2277.34
523.41	2239.89
523.58	2300.75
523.75	2385.01
523.92	2258.62
524.10	2223.51
524.27	2331.17
524.44	2293.72
524.61	2267.98
524.78	2286.70
524.96	2223.51
525.13	2270.32
525.30	2385.01
525.47	2328.83
525.64	2181.38
525.81	2347.56
525.98	2169.68
526.16	2200.10
526.33	2012.86
526.50	1942.64
526.67	1968.39
526.84	2054.99
527.01	2122.87
527.18	2108.82
527.36	2104.14
527.53	2183.72
527.70	2317.13
527.87	2197.76
528.04	2202.44
528.21	2181.38
528.38	2225.85
528.55	2396.71
528.72	2431.82
528.89	2457.56
529.07	2305.43
529.24	2307.77
529.41	2338.20
529.58	2186.06
529.75	2225.85
529.92	2242.23
530.09	2300.75
530.26	2356.92
530.43	2406.07
530.60	2387.35
530.77	2509.05
530.94	2373.30
531.11	2239.89
531.28	2211.81
531.46	2228.19
531.63	2188.40
531.80	2310.11
531.97	2221.17
532.14	2141.59
532.31	2167.34
532.48	2193.08
532.65	2193.08
532.82	2160.31
532.99	2258.62
533.16	2258.62
533.33	2342.88
533.50	2368.62
533.67	2291.38
533.84	2232.87
534.01	2118.18
534.18	2087.76
534.35	2296.07
534.52	2246.91
534.69	2300.75
534.86	2324.15
535.03	2314.79
535.20	2429.48
535.37	2347.56
535.54	2373.30
535.71	2279.68
535.88	2417.77
536.05	2413.09
536.22	2267.98
536.38	2340.54
536.55	2179.04
536.72	2235.21
536.89	2153.29
537.06	2333.51
537.23	2443.52
537.40	2387.35
537.57	2413.09
537.74	2506.71
537.91	2406.07
538.08	2401.39
538.25	2441.18
538.42	2331.17
538.59	2387.35
538.75	2340.54
538.92	2352.24
539.09	2389.69
539.26	2385.01
539.43	2342.88
539.60	2415.43
539.77	2392.03
539.94	2471.61
540.11	2326.49
540.28	2429.48
540.44	2480.97
540.61	2502.03
540.78	2647.15
540.95	2698.64
541.12	2881.20
541.29	2932.69
541.46	2841.41
541.62	3012.27
541.79	2995.89
541.96	3021.63
542.13	2827.37
542.30	2963.12
542.47	2981.84
542.63	2810.98
542.80	2752.47
542.97	2773.53
543.14	2848.43
543.31	2738.43
543.48	2789.92
543.64	2960.78
543.81	2942.05
543.98	2920.99
544.15	2878.86
544.32	2761.83
544.48	2672.89
544.65	2780.56
544.82	2930.35
544.99	2759.49
545.16	2761.83
545.32	2813.32
545.49	3403.14
545.66	4081.89
545.83	4603.83
546.00	4222.33
546.16	3534.21
546.33	3265.05
546.50	2827.37
546.67	2700.98
546.83	2619.06
547.00	2740.77
547.17	2532.46
547.34	2532.46
547.50	2457.56
547.67	2670.55
547.84	2499.69
548.00	2478.63
548.17	2455.22
548.34	2471.61
548.51	2558.21
548.67	2555.86
548.84	2555.86
549.01	2385.01
549.18	2413.09
549.34	2459.90
549.51	2527.78
549.68	2541.82
549.84	2275.00
550.01	2457.56
550.18	2495.01
550.34	2459.90
550.51	2326.49
550.68	2356.92
550.84	2333.51
551.01	2317.13
551.18	2434.16
551.34	2368.62
551.51	2211.81
551.68	2282.02
551.84	2289.04
552.01	2258.62
552.18	2298.41
552.34	2232.87
552.51	2193.08
552.68	2017.54
552.84	2146.27
553.01	2244.57
553.18	2249.25
553.34	2354.58
553.51	2239.89
553.67	2190.74
553.84	2277.34
554.01	2338.20
554.17	2237.55
554.34	2132.23
554.51	2324.15
554.67	2251.60
554.84	2256.28
555.00	2186.06
555.17	2190.74
555.33	2181.38
555.50	2111.16
555.67	2214.15
555.83	2181.38
556.00	2085.42
556.16	2193.08
556.33	2071.37
556.50	2139.25
556.66	2057.33
556.83	2033.93
556.99	2136.91
557.16	1996.48
557.32	2127.55
557.49	1989.46
557.65	2125.21
557.82	2204.78
557.98	2125.21
558.15	2113.50
558.32	2045.63
558.48	1928.60
558.65	2003.50
558.81	2001.16
558.98	2064.35
559.14	2085.42
559.31	1954.35
559.47	1956.69
559.64	2080.74
559.80	2010.52
559.97	2113.50
560.13	2059.67
560.30	1968.39
560.46	2083.08
560.63	2225.85
560.79	2172.02
560.96	2153.29
561.12	1952.01
561.29	1916.90
561.45	1982.43
561.61	2031.58
561.78	2094.78
561.94	2052.65
562.11	2001.16
562.27	1975.41
562.44	1914.56
562.60	2059.67
562.77	2099.46
562.93	2139.25
563.10	2047.97
563.26	2139.25
563.42	2008.18
563.59	2017.54
563.75	2038.61
563.92	2019.88
564.08	1916.90
564.24	1966.05
564.41	2026.90
564.57	2033.93
564.74	2022.22
564.90	2073.71
565.07	1942.64
565.23	1923.92
565.39	1928.60
565.56	1900.52
565.72	1888.81
565.88	1898.17
566.05	1935.62
566.21	1865.41
566.38	1900.52
566.54	1966.05
566.70	2012.86
566.87	2083.08
567.03	1982.43
567.19	2064.35
567.36	2033.93
567.52	1937.96
567.68	1930.94
567.85	1750.72
568.01	1898.17
568.17	1842.00
568.34	1776.47
568.50	1870.09
568.66	1804.55
568.83	1902.86
568.99	1842.00
569.15	1872.43
569.32	1820.94
569.48	1781.15
569.64	1774.13
569.81	1809.23
569.97	1781.15
570.13	1888.81
570.30	1755.40
570.46	1804.55
570.62	1732.00
570.78	1722.63
570.95	1806.89
571.11	1825.62
571.27	1753.06
571.43	1820.94
571.60	1872.43
571.76	1830.30
571.92	1914.56
572.09	1839.66
572.25	1907.54
572.41	1853.70
572.57	1912.22
572.74	1886.47
572.90	1900.52
573.06	1856.04
573.22	1743.70
573.38	1902.86
573.55	1895.83
573.71	1877.11
573.87	1851.36
574.03	1809.23
574.20	1802.21
574.36	1736.68
574.52	1762.42
574.68	1781.15
574.84	1785.83
575.01	1727.32
575.17	1729.66
575.33	1785.83
575.49	1771.79
575.65	1774.13
575.82	1769.44
575.98	1739.02
576.14	1809.23
576.30	1933.28
576.46	1956.69
576.62	2122.87
576.79	2249.25
576.95	2054.99
577.11	1872.43
577.27	1823.28
577.43	1905.20
577.59	1825.62
577.75	1638.38
577.92	1692.21
578.08	1720.29
578.24	1717.95
578.40	1823.28
578.56	2052.65
578.72	2162.66
578.88	2146.27
579.04	1998.82
579.21	1996.48
579.37	1825.62
579.53	1877.11
579.69	1823.28
579.85	1912.22
580.01	1874.77
580.17	1888.81
580.33	1973.07
580.49	1842.00
580.65	1867.75
580.82	1872.43
580.98	1856.04
581.14	1898.17
581.30	1923.92
581.46	1760.08
581.62	1853.70
581.78	1858.39
581.94	1921.58
582.10	1884.13
582.26	2003.50
582.42	2043.29
582.58	2054.99
582.74	2050.31
582.90	1935.62
583.06	1940.30
583.22	1912.22
583.38	2038.61
583.54	1914.56
583.70	2040.95
583.86	1949.67
584.02	1884.13
584.18	1905.20
584.34	1944.99
584.50	1839.66
584.66	1823.28
584.82	1839.66
584.98	1881.79
585.14	1816.26
585.30	1886.47
585.46	1820.94
585.62	1874.77
585.78	1813.92
585.94	1858.39
586.10	1874.77
586.26	1792.85
586.42	1823.28
586.58	1973.07
586.74	2036.27
586.90	1926.26
587.06	2024.56
587.22	1963.71
587.38	1879.45
587.54	1760.08
587.70	1886.47
587.86	1792.85
588.02	1638.38
588.18	1521.35
588.34	1502.62
588.49	1554.12
588.65	1404.32
588.81	1329.42
588.97	1327.08
589.13	1371.55
589.29	1341.13
589.45	1423.05
589.61	1427.73
589.77	1521.35
589.93	1483.90
590.08	1544.75
590.24	1511.99
590.40	1551.78
590.56	1500.28
590.72	1561.14
590.88	1561.14
591.04	1502.62
591.20	1589.22
591.35	1479.22
591.51	1521.35
591.67	1558.80
591.83	1589.22
591.99	1502.62
592.15	1680.50
592.31	1643.06
592.46	1638.38
592.62	1748.38
592.78	1696.89
592.94	1664.12
593.10	1729.66
593.26	1685.19
593.41	1701.57
593.57	1652.42
593.73	1523.69
593.89	1526.03
594.05	1392.62
594.20	1425.39
594.36	1437.09
594.52	1343.47
594.68	1430.07
594.84	1448.79
594.99	1516.67
595.15	1561.14
595.31	1497.94
595.47	1586.88
595.62	1516.67
595.78	1455.81
595.94	1568.16
596.10	1530.71
596.25	1561.14
596.41	1568.16
596.57	1479.22
596.73	1430.07
596.88	1474.54
597.04	1416.02
597.20	1462.83
597.36	1617.31
597.51	1626.67
597.67	1565.82
597.83	1551.78
597.99	1636.03
598.14	1638.38
598.30	1570.50
598.46	1631.35
598.61	1671.14
598.77	1521.35
598.93	1659.44
599.09	1706.25
599.24	1657.10
599.40	1605.61
599.56	1717.95
599.71	1645.40
599.87	1528.37
600.03	1561.14
600.18	1629.01
600.34	1600.93
