SpectraSuite Data File
++++++++++++++++++++++++++++++++++++
Date: Fri Oct 04 11:41:56 GMT-05:00 2013
User: price-jones
Dark Spectrum Present: No
Reference Spectrum Present: No
Number of Sampled Component Spectra: 1
Spectrometers: USB2+H05261
Integration Time (usec): 100000 (USB2+H05261)
Spectra Averaged: 1 (USB2+H05261)
Boxcar Smoothing: 0 (USB2+H05261)
Correct for Electrical Dark: No (USB2+H05261)
Strobe/Lamp Enabled: No (USB2+H05261)
Correct for Detector Non-linearity: No (USB2+H05261)
Correct for Stray Light: No (USB2+H05261)
Number of Pixels in Processed Spectrum: 2048
>>>>>Begin Processed Spectral Data<<<<<
365.73	42.13
365.92	42.13
366.12	42.13
366.32	30.43
366.52	0.00
366.72	0.00
366.91	0.00
367.11	0.00
367.31	0.00
367.51	7.02
367.70	0.00
367.90	0.00
368.10	0.00
368.30	0.00
368.49	0.00
368.69	0.00
368.89	0.00
369.09	0.00
369.28	0.00
369.48	0.00
369.68	0.00
369.87	0.00
370.07	0.00
370.27	0.00
370.47	37.45
370.66	39.79
370.86	74.90
371.06	77.24
371.25	72.56
371.45	44.47
371.65	74.90
371.84	44.47
372.04	65.54
372.24	138.09
372.44	60.85
372.63	107.66
372.83	114.69
373.03	102.98
373.22	56.17
373.42	117.03
373.62	128.73
373.81	168.52
374.01	121.71
374.21	201.29
374.40	86.60
374.60	177.88
374.79	145.11
374.99	105.32
375.19	93.62
375.38	177.88
375.58	105.32
375.78	149.79
375.97	175.54
376.17	175.54
376.37	93.62
376.56	100.64
376.76	138.09
376.95	79.58
377.15	121.71
377.35	138.09
377.54	110.01
377.74	133.41
377.93	93.62
378.13	173.20
378.33	187.24
378.52	159.16
378.72	107.66
378.91	105.32
379.11	88.94
379.31	98.30
379.50	135.75
379.70	135.75
379.89	98.30
380.09	86.60
380.28	126.39
380.48	184.90
380.68	126.39
380.87	102.98
381.07	119.37
381.26	138.09
381.46	86.60
381.65	138.09
381.85	112.35
382.04	102.98
382.24	112.35
382.43	110.01
382.63	95.96
382.83	126.39
383.02	161.50
383.22	133.41
383.41	119.37
383.61	107.66
383.80	100.64
384.00	114.69
384.19	149.79
384.39	184.90
384.58	88.94
384.78	110.01
384.97	166.18
385.17	126.39
385.36	142.77
385.56	112.35
385.75	95.96
385.95	74.90
386.14	180.22
386.34	107.66
386.53	117.03
386.72	46.81
386.92	191.92
387.11	126.39
387.31	110.01
387.50	154.48
387.70	72.56
387.89	133.41
388.09	35.11
388.28	86.60
388.48	100.64
388.67	117.03
388.86	156.82
389.06	121.71
389.25	102.98
389.45	124.05
389.64	124.05
389.84	175.54
390.03	140.43
390.22	79.58
390.42	67.88
390.61	100.64
390.81	149.79
391.00	138.09
391.19	133.41
391.39	147.45
391.58	145.11
391.78	124.05
391.97	110.01
392.16	119.37
392.36	138.09
392.55	159.16
392.75	114.69
392.94	145.11
393.13	184.90
393.33	102.98
393.52	135.75
393.71	177.88
393.91	182.56
394.10	168.52
394.29	72.56
394.49	63.19
394.68	121.71
394.88	121.71
395.07	215.33
395.26	154.48
395.46	110.01
395.65	128.73
395.84	77.24
396.04	156.82
396.23	107.66
396.42	126.39
396.62	105.32
396.81	124.05
397.00	124.05
397.19	110.01
397.39	131.07
397.58	168.52
397.77	222.35
397.97	138.09
398.16	140.43
398.35	100.64
398.55	124.05
398.74	215.33
398.93	156.82
399.12	140.43
399.32	163.84
399.51	170.86
399.70	182.56
399.90	220.01
400.09	77.24
400.28	201.29
400.47	156.82
400.67	154.48
400.86	175.54
401.05	177.88
401.24	210.65
401.44	98.30
401.63	131.07
401.82	156.82
402.01	114.69
402.21	184.90
402.40	138.09
402.59	163.84
402.78	182.56
402.97	205.97
403.17	224.69
403.36	257.46
403.55	276.18
403.74	613.22
403.93	1830.30
404.13	4278.50
404.32	5401.96
404.51	4540.64
404.70	2670.55
404.89	1022.81
405.09	428.32
405.28	262.14
405.47	168.52
405.66	187.24
405.85	198.95
406.05	215.33
406.24	182.56
406.43	215.33
406.62	227.03
406.81	271.50
407.00	262.14
407.20	510.24
407.39	751.31
407.58	798.12
407.77	552.37
407.96	306.61
408.15	198.95
408.34	189.58
408.54	191.92
408.73	227.03
408.92	168.52
409.11	187.24
409.30	278.52
409.49	114.69
409.68	147.45
409.87	138.09
410.07	149.79
410.26	170.86
410.45	238.73
410.64	142.77
410.83	131.07
411.02	133.41
411.21	147.45
411.40	102.98
411.59	163.84
411.78	187.24
411.98	238.73
412.17	145.11
412.36	163.84
412.55	135.75
412.74	201.29
412.93	189.58
413.12	154.48
413.31	205.97
413.50	180.22
413.69	166.18
413.88	224.69
414.07	203.63
414.26	205.97
414.45	86.60
414.64	205.97
414.83	227.03
415.02	191.92
415.22	145.11
415.41	315.97
415.60	208.31
415.79	205.97
415.98	262.14
416.17	191.92
416.36	210.65
416.55	243.42
416.74	142.77
416.93	262.14
417.12	215.33
417.31	147.45
417.50	147.45
417.69	248.10
417.88	241.08
418.07	264.48
418.26	191.92
418.45	227.03
418.64	285.55
418.83	205.97
419.02	248.10
419.21	220.01
419.39	306.61
419.58	210.65
419.77	245.76
419.96	304.27
420.15	234.05
420.34	217.67
420.53	262.14
420.72	271.50
420.91	276.18
421.10	217.67
421.29	250.44
421.48	259.80
421.67	320.65
421.86	255.12
422.05	283.20
422.24	227.03
422.43	297.25
422.61	278.52
422.80	266.82
422.99	215.33
423.18	269.16
423.37	292.57
423.56	306.61
423.75	299.59
423.94	250.44
424.13	250.44
424.32	224.69
424.50	250.44
424.69	287.89
424.88	313.63
425.07	255.12
425.26	224.69
425.45	381.51
425.64	327.68
425.83	337.04
426.01	351.08
426.20	311.29
426.39	243.42
426.58	290.23
426.77	278.52
426.96	243.42
427.15	308.95
427.33	330.02
427.52	327.68
427.71	330.02
427.90	313.63
428.09	318.31
428.28	271.50
428.46	283.20
428.65	315.97
428.84	379.17
429.03	325.33
429.22	297.25
429.40	234.05
429.59	280.86
429.78	430.66
429.97	369.80
430.16	383.85
430.34	325.33
430.53	381.51
430.72	308.95
430.91	308.95
431.10	262.14
431.28	318.31
431.47	348.74
431.66	367.46
431.85	322.99
432.03	327.68
432.22	362.78
432.41	381.51
432.60	390.87
432.79	355.76
432.97	400.23
433.16	395.55
433.35	463.43
433.54	491.51
433.72	437.68
433.91	566.41
434.10	620.24
434.28	669.39
434.47	823.87
434.66	868.34
434.85	1093.03
435.03	3045.04
435.22	11590.33
435.41	25043.73
435.59	23901.55
435.78	15122.20
435.97	7470.99
436.16	2773.53
436.34	1029.84
436.53	662.37
436.72	585.13
436.90	444.70
437.09	465.77
437.28	440.02
437.46	486.83
437.65	435.34
437.84	421.30
438.02	435.34
438.21	425.98
438.40	414.27
438.58	379.17
438.77	418.96
438.96	353.42
439.14	374.49
439.33	414.27
439.52	390.87
439.70	379.17
439.89	388.53
440.08	414.27
440.26	346.40
440.45	369.80
440.63	414.27
440.82	365.12
441.01	372.15
441.19	433.00
441.38	433.00
441.57	418.96
441.75	444.70
441.94	437.68
442.12	514.92
442.31	442.36
442.50	479.81
442.68	339.38
442.87	339.38
443.05	367.46
443.24	379.17
443.43	344.06
443.61	362.78
443.80	411.93
443.98	449.38
444.17	428.32
444.35	440.02
444.54	360.44
444.73	346.40
444.91	470.45
445.10	425.98
445.28	388.53
445.47	428.32
445.65	308.95
445.84	388.53
446.02	404.91
446.21	444.70
446.39	440.02
446.58	423.64
446.77	414.27
446.95	353.42
447.14	339.38
447.32	400.23
447.51	360.44
447.69	411.93
447.88	402.57
448.06	451.72
448.25	409.59
448.43	362.78
448.62	358.10
448.80	393.21
448.99	358.10
449.17	367.46
449.36	322.99
449.54	430.66
449.73	320.65
449.91	416.62
450.10	393.21
450.28	411.93
450.46	430.66
450.65	318.31
450.83	367.46
451.02	421.30
451.20	409.59
451.39	407.25
451.57	400.23
451.76	407.25
451.94	381.51
452.13	388.53
452.31	407.25
452.49	376.83
452.68	315.97
452.86	437.68
453.05	362.78
453.23	411.93
453.42	365.12
453.60	407.25
453.78	423.64
453.97	355.76
454.15	278.52
454.34	318.31
454.52	334.70
454.70	339.38
454.89	458.74
455.07	428.32
455.26	397.89
455.44	411.93
455.62	409.59
455.81	430.66
455.99	465.77
456.17	341.72
456.36	360.44
456.54	404.91
456.73	285.55
456.91	416.62
457.09	414.27
457.28	348.74
457.46	313.63
457.64	341.72
457.83	435.34
458.01	388.53
458.19	397.89
458.38	325.33
458.56	390.87
458.74	299.59
458.93	409.59
459.11	376.83
459.29	250.44
459.48	341.72
459.66	418.96
459.84	320.65
460.03	407.25
460.21	404.91
460.39	407.25
460.57	409.59
460.76	383.85
460.94	402.57
461.12	440.02
461.31	388.53
461.49	390.87
461.67	301.93
461.85	365.12
462.04	348.74
462.22	842.59
462.40	351.08
462.59	423.64
462.77	388.53
462.95	397.89
463.13	411.93
463.32	294.91
463.50	388.53
463.68	358.10
463.86	409.59
464.05	404.91
464.23	468.11
464.41	372.15
464.59	367.46
464.78	362.78
464.96	440.02
465.14	367.46
465.32	383.85
465.50	341.72
465.69	416.62
465.87	353.42
466.05	388.53
466.23	311.29
466.41	365.12
466.60	369.80
466.78	433.00
466.96	397.89
467.14	463.43
467.32	346.40
467.51	414.27
467.69	374.49
467.87	433.00
468.05	379.17
468.23	278.52
468.41	395.55
468.60	374.49
468.78	327.68
468.96	433.00
469.14	325.33
469.32	346.40
469.50	325.33
469.69	383.85
469.87	454.06
470.05	386.19
470.23	292.57
470.41	332.36
470.59	351.08
470.77	379.17
470.95	367.46
471.14	379.17
471.32	428.32
471.50	402.57
471.68	290.23
471.86	372.15
472.04	362.78
472.22	355.76
472.40	315.97
472.58	353.42
472.77	355.76
472.95	318.31
473.13	444.70
473.31	386.19
473.49	383.85
473.67	327.68
473.85	383.85
474.03	355.76
474.21	402.57
474.39	418.96
474.57	344.06
474.75	393.21
474.93	313.63
475.12	315.97
475.30	353.42
475.48	383.85
475.66	397.89
475.84	360.44
476.02	339.38
476.20	332.36
476.38	362.78
476.56	465.77
476.74	355.76
476.92	358.10
477.10	346.40
477.28	433.00
477.46	407.25
477.64	440.02
477.82	416.62
478.00	454.06
478.18	500.87
478.36	411.93
478.54	454.06
478.72	418.96
478.90	454.06
479.08	447.04
479.26	463.43
479.44	503.22
479.62	456.40
479.80	479.81
479.98	451.72
480.16	430.66
480.34	425.98
480.52	507.90
480.70	517.26
480.88	552.37
481.06	533.64
481.24	603.86
481.41	594.50
481.59	641.31
481.77	723.23
481.95	732.59
482.13	840.25
482.31	856.64
482.49	1006.43
482.67	880.04
482.85	1011.11
483.03	1041.54
483.21	1048.56
483.39	1245.16
483.57	1324.74
483.74	1416.02
483.92	1355.17
484.10	1413.68
484.28	1654.76
484.46	1703.91
484.64	1776.47
484.82	1764.76
485.00	1905.20
485.18	2015.20
485.35	2160.31
485.53	2132.23
485.71	2345.22
485.89	2347.56
486.07	2377.98
486.25	2490.33
486.43	2560.55
486.61	2588.63
486.78	2422.45
486.96	2403.73
487.14	2441.18
487.32	2443.52
487.50	2394.37
487.68	2490.33
487.85	2464.58
488.03	2363.94
488.21	2525.44
488.39	2272.66
488.57	2293.72
488.75	2195.42
488.92	2307.77
489.10	2132.23
489.28	2047.97
489.46	2008.18
489.64	2026.90
489.81	1923.92
489.99	1994.14
490.17	1956.69
490.35	1909.88
490.53	2010.52
490.70	1788.17
490.88	1888.81
491.06	2085.42
491.24	2017.54
491.41	2062.01
491.59	1919.24
491.77	1881.79
491.95	1881.79
492.13	1682.85
492.30	1757.74
492.48	1736.68
492.66	1619.65
492.84	1668.80
493.01	1689.87
493.19	1584.54
493.37	1619.65
493.54	1547.09
493.72	1570.50
493.90	1540.07
494.08	1540.07
494.25	1526.03
494.43	1467.52
494.61	1394.96
494.79	1509.65
494.96	1357.51
495.14	1399.64
495.32	1411.34
495.49	1299.00
495.67	1301.34
495.85	1310.70
496.02	1268.57
496.20	1313.04
496.38	1299.00
496.55	1146.86
496.73	1235.80
496.91	1252.19
497.09	1181.97
497.26	1107.07
497.44	1170.27
497.62	1144.52
497.79	1111.75
497.97	1081.33
498.14	1057.92
498.32	1027.50
498.50	961.96
498.67	985.37
498.85	997.07
499.03	1006.43
499.20	894.08
499.38	898.77
499.56	933.87
499.73	912.81
499.91	901.11
500.08	858.98
500.26	884.72
500.44	805.14
500.61	821.53
500.79	709.18
500.97	802.80
501.14	730.25
501.32	748.97
501.49	695.14
501.67	692.80
501.84	650.67
502.02	594.50
502.20	760.67
502.37	662.37
502.55	519.60
502.72	526.62
502.90	620.24
503.07	631.94
503.25	535.98
503.43	547.69
503.60	552.37
503.78	428.32
503.95	507.90
504.13	543.00
504.30	540.66
504.48	589.82
504.65	514.92
504.83	498.53
505.01	456.40
505.18	479.81
505.36	416.62
505.53	447.04
505.71	486.83
505.88	517.26
506.06	447.04
506.23	500.87
506.41	461.09
506.58	451.72
506.76	461.09
506.93	454.06
507.11	386.19
507.28	381.51
507.46	411.93
507.63	330.02
507.81	374.49
507.98	440.02
508.16	400.23
508.33	440.02
508.50	454.06
508.68	425.98
508.85	514.92
509.03	486.83
509.20	505.56
509.38	433.00
509.55	367.46
509.73	449.38
509.90	416.62
510.08	414.27
510.25	433.00
510.42	428.32
510.60	479.81
510.77	386.19
510.95	456.40
511.12	461.09
511.30	418.96
511.47	503.22
511.64	428.32
511.82	362.78
511.99	346.40
512.17	374.49
512.34	346.40
512.51	400.23
512.69	339.38
512.86	482.15
513.04	376.83
513.21	306.61
513.38	351.08
513.56	344.06
513.73	299.59
513.90	283.20
514.08	306.61
514.25	339.38
514.43	428.32
514.60	341.72
514.77	304.27
514.95	407.25
515.12	344.06
515.29	397.89
515.47	315.97
515.64	325.33
515.81	320.65
515.99	341.72
516.16	252.78
516.33	421.30
516.51	362.78
516.68	400.23
516.85	287.89
517.03	299.59
517.20	355.76
517.37	332.36
517.54	315.97
517.72	344.06
517.89	280.86
518.06	304.27
518.24	470.45
518.41	416.62
518.58	334.70
518.75	318.31
518.93	388.53
519.10	355.76
519.27	330.02
519.45	271.50
519.62	311.29
519.79	348.74
519.96	299.59
520.14	337.04
520.31	341.72
520.48	259.80
520.65	332.36
520.83	306.61
521.00	259.80
521.17	358.10
521.34	327.68
521.52	304.27
521.69	346.40
521.86	208.31
522.03	327.68
522.20	318.31
522.38	327.68
522.55	315.97
522.72	339.38
522.89	353.42
523.07	395.55
523.24	381.51
523.41	360.44
523.58	372.15
523.75	355.76
523.92	301.93
524.10	337.04
524.27	355.76
524.44	362.78
524.61	414.27
524.78	339.38
524.96	388.53
525.13	306.61
525.30	411.93
525.47	433.00
525.64	362.78
525.81	400.23
525.98	346.40
526.16	376.83
526.33	362.78
526.50	351.08
526.67	393.21
526.84	404.91
527.01	390.87
527.18	454.06
527.36	383.85
527.53	341.72
527.70	468.11
527.87	456.40
528.04	475.13
528.21	411.93
528.38	407.25
528.55	425.98
528.72	430.66
528.89	517.26
529.07	365.12
529.24	430.66
529.41	491.51
529.58	390.87
529.75	428.32
529.92	493.85
530.09	528.96
530.26	454.06
530.43	528.96
530.60	491.51
530.77	521.94
530.94	521.94
531.11	470.45
531.28	489.17
531.46	547.69
531.63	566.41
531.80	599.18
531.97	533.64
532.14	660.03
532.31	770.04
532.48	994.73
532.65	922.17
532.82	1043.88
532.99	1378.58
533.16	1451.13
533.33	1556.46
533.50	1371.55
533.67	1184.31
533.84	1104.73
534.01	1050.90
534.18	929.19
534.35	887.06
534.52	856.64
534.69	983.02
534.86	945.58
535.03	1086.01
535.20	1034.52
535.37	1116.44
535.54	1212.40
535.71	1177.29
535.88	1280.27
536.05	1259.21
536.22	1483.90
536.38	1565.82
536.55	1797.53
536.72	1916.90
536.89	2040.95
537.06	2282.02
537.23	2609.70
537.40	2740.77
537.57	2974.82
537.74	3267.39
537.91	3332.92
538.08	3293.13
538.25	3421.86
538.42	3288.45
538.59	3613.79
538.75	3520.17
538.92	3824.44
539.09	4400.21
539.26	4676.39
539.43	5263.86
539.60	5909.85
539.77	6637.76
539.94	7417.16
540.11	8119.32
540.28	8805.10
540.44	9638.33
540.61	10726.68
540.78	12175.47
540.95	15103.48
541.12	18150.85
541.29	19927.32
541.46	20879.92
541.62	20418.83
541.79	19866.47
541.96	18321.71
542.13	16891.65
542.30	15550.52
542.47	14764.10
542.63	14139.18
542.80	13717.88
542.97	13493.19
543.14	13448.72
543.31	13429.99
543.48	13572.77
543.64	13605.53
543.81	13415.95
543.98	14073.64
544.15	14066.62
544.32	14083.00
544.48	13958.96
544.65	13605.53
544.82	13628.94
544.99	13884.06
545.16	13944.91
545.32	15023.90
545.49	25942.50
545.66	48409.30
545.83	54152.97
546.00	46569.64
546.16	31662.77
546.33	23105.77
546.50	17371.46
546.67	13919.17
546.83	12596.76
547.00	11946.09
547.17	11288.40
547.34	10902.22
547.50	10607.31
547.67	10066.64
547.84	9767.06
548.00	9490.87
548.17	9029.79
548.34	8800.41
548.51	8528.91
548.67	8131.02
548.84	7588.02
549.01	7253.32
549.18	7150.34
549.34	6864.79
549.51	6642.44
549.68	6136.88
549.84	5907.51
550.01	5643.03
550.18	5593.88
550.34	5284.93
550.51	4873.00
550.68	4734.90
550.84	4545.32
551.01	4299.56
551.18	4086.58
551.34	3953.16
551.51	3789.33
551.68	3672.30
551.84	3431.23
552.01	3309.52
552.18	3141.00
552.34	3173.77
552.51	2881.20
552.68	2881.20
552.84	2750.13
553.01	2698.64
553.18	2504.37
553.34	2429.48
553.51	2413.09
553.67	2377.98
553.84	2188.40
554.01	2143.93
554.17	1982.43
554.34	1823.28
554.51	1739.02
554.67	1624.33
554.84	1497.94
555.00	1516.67
555.17	1474.54
555.33	1444.11
555.50	1364.53
555.67	1294.32
555.83	1240.48
556.00	1254.53
556.16	1242.82
556.33	1071.97
556.50	1071.97
556.66	1018.13
556.83	912.81
556.99	1088.35
557.16	926.85
557.32	884.72
557.49	816.85
557.65	849.61
557.82	835.57
557.98	863.66
558.15	753.65
558.32	755.99
558.48	763.01
558.65	725.57
558.81	774.72
558.98	681.10
559.14	695.14
559.31	788.76
559.47	723.23
559.64	734.93
559.80	755.99
559.97	683.44
560.13	737.27
560.30	641.31
560.46	683.44
560.63	645.99
560.79	664.71
560.96	662.37
561.12	606.20
561.29	636.63
561.45	566.41
561.61	603.86
561.78	800.46
561.94	692.80
562.11	662.37
562.27	582.79
562.44	615.56
562.60	629.60
562.77	620.24
562.93	622.58
563.10	650.67
563.26	575.77
563.42	535.98
563.59	573.43
563.75	592.16
563.92	559.39
564.08	540.66
564.24	650.67
564.41	566.41
564.57	566.41
564.74	571.09
564.90	531.30
565.07	575.77
565.23	573.43
565.39	514.92
565.56	557.05
565.72	472.79
565.88	500.87
566.05	484.49
566.21	510.24
566.38	510.24
566.54	493.85
566.70	512.58
566.87	578.11
567.03	521.94
567.19	500.87
567.36	573.43
567.52	475.13
567.68	507.90
567.85	592.16
568.01	521.94
568.17	535.98
568.34	557.05
568.50	608.54
568.66	535.98
568.83	678.76
568.99	573.43
569.15	524.28
569.32	524.28
569.48	500.87
569.64	519.60
569.81	411.93
569.97	421.30
570.13	507.90
570.30	418.96
570.46	369.80
570.62	454.06
570.78	425.98
570.95	468.11
571.11	468.11
571.27	447.04
571.43	369.80
571.60	456.40
571.76	400.23
571.92	425.98
572.09	416.62
572.25	475.13
572.41	425.98
572.57	484.49
572.74	475.13
572.90	493.85
573.06	397.89
573.22	510.24
573.38	444.70
573.55	475.13
573.71	425.98
573.87	613.22
574.03	475.13
574.20	435.34
574.36	493.85
574.52	594.50
574.68	463.43
574.84	592.16
575.01	554.71
575.17	557.05
575.33	589.82
575.49	610.88
575.65	685.78
575.82	720.88
575.98	770.04
576.14	870.68
576.30	1802.21
576.46	5509.62
576.62	8805.10
576.79	9277.88
576.95	6839.05
577.11	4643.62
577.27	3447.61
577.43	2305.43
577.59	1399.64
577.75	1132.82
577.92	1128.14
578.08	1093.03
578.24	1184.31
578.40	1989.46
578.56	5413.66
578.72	8503.17
578.88	9179.58
579.04	6513.71
579.21	4667.03
579.37	3421.86
579.53	2789.92
579.69	2682.25
579.85	3222.92
580.01	3854.86
580.17	3506.12
580.33	2928.01
580.49	2635.44
580.65	2282.02
580.82	2106.48
580.98	2153.29
581.14	2090.10
581.30	2270.32
581.46	2387.35
581.62	2668.21
581.78	2771.19
581.94	3000.57
582.10	3042.70
582.26	3262.71
582.42	3433.57
582.58	3578.68
582.74	3616.13
582.90	3609.11
583.06	3648.90
583.22	3700.39
583.38	3529.53
583.54	3592.72
583.70	3592.72
583.86	3501.44
584.02	3346.97
584.18	3583.36
584.34	3215.90
584.50	3325.90
584.66	3255.69
584.82	3293.13
584.98	3258.03
585.14	3157.38
585.30	2998.23
585.46	3040.36
585.62	2883.54
585.78	2984.18
585.94	3023.97
586.10	3143.34
586.26	3332.92
586.42	3730.81
586.58	4411.91
586.74	5577.50
586.90	6471.58
587.06	6885.86
587.22	6780.53
587.38	5879.43
587.54	5224.08
587.70	4512.55
587.86	3875.93
588.02	3187.81
588.18	2892.90
588.34	2612.04
588.49	2401.39
588.65	2267.98
588.81	2179.04
588.97	2101.80
589.13	2120.53
589.29	2071.37
589.45	1973.07
589.61	1952.01
589.77	1963.71
589.93	2017.54
590.08	2097.12
590.24	2221.17
590.40	2186.06
590.56	2286.70
590.72	2415.43
590.88	2459.90
591.04	2410.75
591.20	2516.08
591.35	2722.04
591.51	2717.36
591.67	2864.82
591.83	3042.70
591.99	3363.35
592.15	3744.86
592.31	3997.64
592.46	4320.63
592.62	4620.22
592.78	5041.51
592.94	5144.50
593.10	5043.85
593.26	4706.82
593.41	4301.90
593.57	3847.84
593.73	3548.25
593.89	3028.65
594.05	2649.49
594.20	2455.22
594.36	2312.45
594.52	2129.89
594.68	1933.28
594.84	1982.43
594.99	1846.68
595.15	1820.94
595.31	1790.51
595.47	1900.52
595.62	1827.96
595.78	1846.68
595.94	1849.02
596.10	1905.20
596.25	1788.17
596.41	1762.42
596.57	1867.75
596.73	1797.53
596.88	1839.66
597.04	1818.60
597.20	1839.66
597.36	1834.98
597.51	1975.41
597.67	1935.62
597.83	2036.27
597.99	2172.02
598.14	2356.92
598.30	2410.75
598.46	2511.39
598.61	2761.83
598.77	2871.84
598.93	2850.77
599.09	2930.35
599.24	3098.87
599.40	3094.19
599.56	2853.11
599.71	2743.11
599.87	2665.87
600.03	2513.74
600.18	2291.38
600.34	2221.17
600.50	2090.10
600.65	1982.43
600.81	1907.54
600.97	1797.53
601.12	1724.97
601.28	1636.03
601.44	1540.07
601.59	1399.64
601.75	1451.13
601.91	1385.60
602.06	1411.34
602.22	1308.36
602.37	1299.00
602.53	1231.12
602.69	1345.81
602.84	1238.14
603.00	1165.59
603.16	1287.29
603.31	1355.17
603.47	1369.21
603.62	1303.68
603.78	1371.55
603.94	1383.26
604.09	1411.34
604.25	1401.98
604.40	1387.94
604.56	1380.92
604.71	1441.77
604.87	1526.03
605.03	1533.05
605.18	1423.05
605.34	1624.33
605.49	1603.27
605.65	1600.93
