SpectraSuite Data File
++++++++++++++++++++++++++++++++++++
Date: Fri Oct 04 11:42:02 GMT-05:00 2013
User: price-jones
Dark Spectrum Present: No
Reference Spectrum Present: No
Number of Sampled Component Spectra: 1
Spectrometers: USB2+H05261
Integration Time (usec): 100000 (USB2+H05261)
Spectra Averaged: 1 (USB2+H05261)
Boxcar Smoothing: 0 (USB2+H05261)
Correct for Electrical Dark: No (USB2+H05261)
Strobe/Lamp Enabled: No (USB2+H05261)
Correct for Detector Non-linearity: No (USB2+H05261)
Correct for Stray Light: No (USB2+H05261)
Number of Pixels in Processed Spectrum: 2048
>>>>>Begin Processed Spectral Data<<<<<
365.73	0.00
365.92	0.00
366.12	0.00
366.32	0.00
366.52	0.00
366.72	0.00
366.91	0.00
367.11	0.00
367.31	0.00
367.51	0.00
367.70	0.00
367.90	0.00
368.10	0.00
368.30	0.00
368.49	0.00
368.69	0.00
368.89	0.00
369.09	0.00
369.28	0.00
369.48	0.00
369.68	16.38
369.87	9.36
370.07	16.38
370.27	28.09
370.47	0.00
370.66	46.81
370.86	105.32
371.06	117.03
371.25	152.13
371.45	51.49
371.65	163.84
371.84	88.94
372.04	95.96
372.24	105.32
372.44	110.01
372.63	39.79
372.83	166.18
373.03	35.11
373.22	107.66
373.42	102.98
373.62	117.03
373.81	107.66
374.01	154.48
374.21	145.11
374.40	110.01
374.60	70.22
374.79	138.09
374.99	114.69
375.19	81.92
375.38	152.13
375.58	133.41
375.78	194.26
375.97	145.11
376.17	156.82
376.37	145.11
376.56	102.98
376.76	86.60
376.95	88.94
377.15	145.11
377.35	93.62
377.54	128.73
377.74	154.48
377.93	95.96
378.13	126.39
378.33	198.95
378.52	91.28
378.72	58.51
378.91	98.30
379.11	138.09
379.31	100.64
379.50	105.32
379.70	105.32
379.89	156.82
380.09	119.37
380.28	95.96
380.48	77.24
380.68	117.03
380.87	86.60
381.07	65.54
381.26	215.33
381.46	166.18
381.65	133.41
381.85	126.39
382.04	119.37
382.24	51.49
382.43	180.22
382.63	124.05
382.83	121.71
383.02	128.73
383.22	114.69
383.41	159.16
383.61	152.13
383.80	56.17
384.00	131.07
384.19	124.05
384.39	194.26
384.58	51.49
384.78	131.07
384.97	77.24
385.17	91.28
385.36	72.56
385.56	161.50
385.75	102.98
385.95	126.39
386.14	161.50
386.34	112.35
386.53	86.60
386.72	152.13
386.92	133.41
387.11	124.05
387.31	79.58
387.50	70.22
387.70	93.62
387.89	81.92
388.09	119.37
388.28	107.66
388.48	72.56
388.67	161.50
388.86	93.62
389.06	74.90
389.25	161.50
389.45	88.94
389.64	124.05
389.84	182.56
390.03	112.35
390.22	81.92
390.42	56.17
390.61	110.01
390.81	154.48
391.00	145.11
391.19	194.26
391.39	102.98
391.58	91.28
391.78	131.07
391.97	205.97
392.16	95.96
392.36	105.32
392.55	60.85
392.75	133.41
392.94	88.94
393.13	84.26
393.33	124.05
393.52	72.56
393.71	133.41
393.91	112.35
394.10	142.77
394.29	23.41
394.49	44.47
394.68	95.96
394.88	102.98
395.07	81.92
395.26	21.06
395.46	152.13
395.65	166.18
395.84	124.05
396.04	159.16
396.23	156.82
396.42	173.20
396.62	133.41
396.81	65.54
397.00	142.77
397.19	117.03
397.39	161.50
397.58	198.95
397.77	133.41
397.97	147.45
398.16	37.45
398.35	107.66
398.55	81.92
398.74	133.41
398.93	135.75
399.12	72.56
399.32	154.48
399.51	128.73
399.70	161.50
399.90	145.11
400.09	138.09
400.28	177.88
400.47	166.18
400.67	112.35
400.86	187.24
401.05	110.01
401.24	159.16
401.44	147.45
401.63	128.73
401.82	184.90
402.01	163.84
402.21	152.13
402.40	77.24
402.59	126.39
402.78	163.84
402.97	149.79
403.17	133.41
403.36	194.26
403.55	245.76
403.74	465.77
403.93	1203.04
404.13	2321.81
404.32	2513.74
404.51	2010.52
404.70	1191.33
404.89	512.58
405.09	292.57
405.28	191.92
405.47	161.50
405.66	196.60
405.85	161.50
406.05	149.79
406.24	138.09
406.43	114.69
406.62	184.90
406.81	243.42
407.00	339.38
407.20	365.12
407.39	404.91
407.58	451.72
407.77	341.72
407.96	187.24
408.15	128.73
408.34	250.44
408.54	170.86
408.73	42.13
408.92	86.60
409.11	194.26
409.30	175.54
409.49	112.35
409.68	102.98
409.87	107.66
410.07	170.86
410.26	175.54
410.45	194.26
410.64	145.11
410.83	110.01
411.02	147.45
411.21	201.29
411.40	170.86
411.59	149.79
411.78	110.01
411.98	163.84
412.17	117.03
412.36	161.50
412.55	168.52
412.74	173.20
412.93	198.95
413.12	177.88
413.31	250.44
413.50	131.07
413.69	166.18
413.88	184.90
414.07	168.52
414.26	170.86
414.45	138.09
414.64	159.16
414.83	177.88
415.02	184.90
415.22	173.20
415.41	243.42
415.60	194.26
415.79	234.05
415.98	166.18
416.17	227.03
416.36	227.03
416.55	215.33
416.74	205.97
416.93	208.31
417.12	198.95
417.31	135.75
417.50	170.86
417.69	191.92
417.88	191.92
418.07	208.31
418.26	205.97
418.45	117.03
418.64	220.01
418.83	180.22
419.02	222.35
419.21	184.90
419.39	138.09
419.58	215.33
419.77	149.79
419.96	184.90
420.15	194.26
420.34	215.33
420.53	147.45
420.72	292.57
420.91	168.52
421.10	222.35
421.29	194.26
421.48	205.97
421.67	234.05
421.86	177.88
422.05	149.79
422.24	147.45
422.43	163.84
422.61	131.07
422.80	173.20
422.99	189.58
423.18	250.44
423.37	173.20
423.56	138.09
423.75	159.16
423.94	196.60
424.13	149.79
424.32	154.48
424.50	196.60
424.69	131.07
424.88	241.08
425.07	170.86
425.26	152.13
425.45	285.55
425.64	210.65
425.83	184.90
426.01	220.01
426.20	201.29
426.39	201.29
426.58	159.16
426.77	140.43
426.96	250.44
427.15	217.67
427.33	163.84
427.52	234.05
427.71	208.31
427.90	234.05
428.09	208.31
428.28	149.79
428.46	238.73
428.65	269.16
428.84	189.58
429.03	191.92
429.22	224.69
429.40	208.31
429.59	217.67
429.78	191.92
429.97	184.90
430.16	243.42
430.34	184.90
430.53	159.16
430.72	236.39
430.91	259.80
431.10	250.44
431.28	196.60
431.47	252.78
431.66	166.18
431.85	212.99
432.03	278.52
432.22	215.33
432.41	280.86
432.60	285.55
432.79	180.22
432.97	250.44
433.16	229.37
433.35	330.02
433.54	252.78
433.72	271.50
433.91	283.20
434.10	395.55
434.28	334.70
434.47	503.22
434.66	465.77
434.85	613.22
435.03	1872.43
435.22	6544.14
435.41	10675.18
435.59	9750.67
435.78	6260.93
435.97	3169.09
436.16	1313.04
436.34	589.82
436.53	402.57
436.72	388.53
436.90	285.55
437.09	255.12
437.28	292.57
437.46	276.18
437.65	257.46
437.84	231.71
438.02	301.93
438.21	194.26
438.40	311.29
438.58	269.16
438.77	250.44
438.96	177.88
439.14	250.44
439.33	294.91
439.52	248.10
439.70	191.92
439.89	250.44
440.08	280.86
440.26	299.59
440.45	290.23
440.63	245.76
440.82	255.12
441.01	231.71
441.19	252.78
441.38	252.78
441.57	266.82
441.75	222.35
441.94	264.48
442.12	266.82
442.31	264.48
442.50	231.71
442.68	262.14
442.87	236.39
443.05	313.63
443.24	341.72
443.43	243.42
443.61	365.12
443.80	276.18
443.98	229.37
444.17	280.86
444.35	201.29
444.54	241.08
444.73	189.58
444.91	294.91
445.10	255.12
445.28	245.76
445.47	222.35
445.65	212.99
445.84	205.97
446.02	355.76
446.21	266.82
446.39	280.86
446.58	330.02
446.77	264.48
446.95	292.57
447.14	355.76
447.32	287.89
447.51	224.69
447.69	245.76
447.88	287.89
448.06	313.63
448.25	278.52
448.43	287.89
448.62	189.58
448.80	229.37
448.99	341.72
449.17	280.86
449.36	306.61
449.54	252.78
449.73	276.18
449.91	208.31
450.10	257.46
450.28	266.82
450.46	280.86
450.65	280.86
450.83	346.40
451.02	285.55
451.20	276.18
451.39	341.72
451.57	231.71
451.76	234.05
451.94	259.80
452.13	292.57
452.31	248.10
452.49	180.22
452.68	208.31
452.86	283.20
453.05	297.25
453.23	266.82
453.42	294.91
453.60	308.95
453.78	231.71
453.97	201.29
454.15	236.39
454.34	203.63
454.52	297.25
454.70	257.46
454.89	236.39
455.07	198.95
455.26	229.37
455.44	287.89
455.62	222.35
455.81	262.14
455.99	224.69
456.17	278.52
456.36	220.01
456.54	264.48
456.73	205.97
456.91	266.82
457.09	243.42
457.28	257.46
457.46	269.16
457.64	224.69
457.83	236.39
458.01	210.65
458.19	250.44
458.38	259.80
458.56	238.73
458.74	220.01
458.93	304.27
459.11	236.39
459.29	257.46
459.48	313.63
459.66	257.46
459.84	273.84
460.03	292.57
460.21	217.67
460.39	191.92
460.57	259.80
460.76	250.44
460.94	306.61
461.12	325.33
461.31	229.37
461.49	273.84
461.67	257.46
461.85	231.71
462.04	252.78
462.22	669.39
462.40	308.95
462.59	229.37
462.77	182.56
462.95	283.20
463.13	182.56
463.32	278.52
463.50	266.82
463.68	285.55
463.86	264.48
464.05	285.55
464.23	266.82
464.41	259.80
464.59	276.18
464.78	203.63
464.96	264.48
465.14	327.68
465.32	255.12
465.50	283.20
465.69	222.35
465.87	229.37
466.05	229.37
466.23	234.05
466.41	227.03
466.60	301.93
466.78	273.84
466.96	220.01
467.14	257.46
467.32	292.57
467.51	238.73
467.69	255.12
467.87	315.97
468.05	241.08
468.23	276.18
468.41	271.50
468.60	346.40
468.78	273.84
468.96	248.10
469.14	262.14
469.32	238.73
469.50	191.92
469.69	294.91
469.87	287.89
470.05	257.46
470.23	285.55
470.41	252.78
470.59	248.10
470.77	234.05
470.95	166.18
471.14	278.52
471.32	325.33
471.50	334.70
471.68	283.20
471.86	262.14
472.04	231.71
472.22	269.16
472.40	184.90
472.58	182.56
472.77	257.46
472.95	205.97
473.13	304.27
473.31	269.16
473.49	269.16
473.67	243.42
473.85	257.46
474.03	248.10
474.21	255.12
474.39	229.37
474.57	175.54
474.75	208.31
474.93	236.39
475.12	177.88
475.30	262.14
475.48	269.16
475.66	285.55
475.84	245.76
476.02	269.16
476.20	285.55
476.38	227.03
476.56	287.89
476.74	318.31
476.92	238.73
477.10	229.37
477.28	278.52
477.46	266.82
477.64	290.23
477.82	262.14
478.00	245.76
478.18	320.65
478.36	283.20
478.54	264.48
478.72	292.57
478.90	292.57
479.08	330.02
479.26	294.91
479.44	283.20
479.62	287.89
479.80	294.91
479.98	362.78
480.16	416.62
480.34	355.76
480.52	365.12
480.70	421.30
480.88	325.33
481.06	355.76
481.24	365.12
481.41	304.27
481.59	456.40
481.77	416.62
481.95	388.53
482.13	393.21
482.31	461.09
482.49	463.43
482.67	500.87
482.85	540.66
483.03	587.47
483.21	585.13
483.39	613.22
483.57	655.35
483.74	704.50
483.92	737.27
484.10	737.27
484.28	800.46
484.46	851.96
484.64	770.04
484.82	905.79
485.00	863.66
485.18	971.32
485.35	1032.18
485.53	947.92
485.71	1067.28
485.89	1062.60
486.07	1057.92
486.25	1254.53
486.43	1132.82
486.61	1174.95
486.78	1191.33
486.96	1041.54
487.14	1146.86
487.32	1221.76
487.50	1116.44
487.68	1196.01
487.85	1041.54
488.03	1184.31
488.21	1179.63
488.39	1107.07
488.57	1048.56
488.75	1018.13
488.92	1254.53
489.10	997.07
489.28	954.94
489.46	940.90
489.64	980.68
489.81	954.94
489.99	919.83
490.17	905.79
490.35	980.68
490.53	891.74
490.70	870.68
490.88	933.87
491.06	922.17
491.24	950.26
491.41	1027.50
491.59	905.79
491.77	896.43
491.95	847.27
492.13	823.87
492.30	880.04
492.48	856.64
492.66	730.25
492.84	746.63
493.01	770.04
493.19	751.31
493.37	753.65
493.54	788.76
493.72	753.65
493.90	734.93
494.08	718.54
494.25	685.78
494.43	741.95
494.61	725.57
494.79	704.50
494.96	709.18
495.14	734.93
495.32	688.12
495.49	585.13
495.67	727.91
495.85	741.95
496.02	594.50
496.20	657.69
496.38	641.31
496.55	636.63
496.73	676.41
496.91	620.24
497.09	655.35
497.26	636.63
497.44	615.56
497.62	601.52
497.79	589.82
497.97	571.09
498.14	613.22
498.32	575.77
498.50	472.79
498.67	566.41
498.85	486.83
499.03	479.81
499.20	531.30
499.38	543.00
499.56	514.92
499.73	568.75
499.91	475.13
500.08	498.53
500.26	512.58
500.44	475.13
500.61	461.09
500.79	465.77
500.97	475.13
501.14	472.79
501.32	475.13
501.49	414.27
501.67	397.89
501.84	425.98
502.02	402.57
502.20	423.64
502.37	395.55
502.55	339.38
502.72	344.06
502.90	367.46
503.07	390.87
503.25	334.70
503.43	351.08
503.60	341.72
503.78	367.46
503.95	313.63
504.13	341.72
504.30	320.65
504.48	339.38
504.65	379.17
504.83	320.65
505.01	308.95
505.18	411.93
505.36	374.49
505.53	313.63
505.71	322.99
505.88	346.40
506.06	318.31
506.23	360.44
506.41	351.08
506.58	294.91
506.76	369.80
506.93	327.68
507.11	297.25
507.28	231.71
507.46	304.27
507.63	379.17
507.81	273.84
507.98	290.23
508.16	327.68
508.33	308.95
508.50	327.68
508.68	318.31
508.85	334.70
509.03	339.38
509.20	280.86
509.38	311.29
509.55	308.95
509.73	273.84
509.90	294.91
510.08	280.86
510.25	308.95
510.42	276.18
510.60	308.95
510.77	243.42
510.95	299.59
511.12	238.73
511.30	318.31
511.47	243.42
511.64	320.65
511.82	257.46
511.99	297.25
512.17	292.57
512.34	273.84
512.51	264.48
512.69	292.57
512.86	297.25
513.04	334.70
513.21	257.46
513.38	327.68
513.56	250.44
513.73	231.71
513.90	252.78
514.08	278.52
514.25	308.95
514.43	290.23
514.60	290.23
514.77	257.46
514.95	278.52
515.12	344.06
515.29	315.97
515.47	255.12
515.64	322.99
515.81	315.97
515.99	304.27
516.16	276.18
516.33	278.52
516.51	217.67
516.68	306.61
516.85	266.82
517.03	220.01
517.20	297.25
517.37	339.38
517.54	278.52
517.72	248.10
517.89	318.31
518.06	273.84
518.24	285.55
518.41	358.10
518.58	299.59
518.75	264.48
518.93	241.08
519.10	278.52
519.27	330.02
519.45	266.82
519.62	311.29
519.79	262.14
519.96	271.50
520.14	252.78
520.31	276.18
520.48	292.57
520.65	271.50
520.83	234.05
521.00	250.44
521.17	243.42
521.34	210.65
521.52	198.95
521.69	299.59
521.86	334.70
522.03	238.73
522.20	327.68
522.38	278.52
522.55	351.08
522.72	285.55
522.89	294.91
523.07	327.68
523.24	177.88
523.41	257.46
523.58	278.52
523.75	241.08
523.92	313.63
524.10	337.04
524.27	346.40
524.44	276.18
524.61	313.63
524.78	332.36
524.96	273.84
525.13	294.91
525.30	311.29
525.47	351.08
525.64	245.76
525.81	262.14
525.98	285.55
526.16	315.97
526.33	224.69
526.50	262.14
526.67	290.23
526.84	248.10
527.01	278.52
527.18	344.06
527.36	365.12
527.53	320.65
527.70	353.42
527.87	341.72
528.04	414.27
528.21	280.86
528.38	322.99
528.55	313.63
528.72	308.95
528.89	315.97
529.07	266.82
529.24	308.95
529.41	416.62
529.58	304.27
529.75	318.31
529.92	367.46
530.09	376.83
530.26	353.42
530.43	264.48
530.60	332.36
530.77	400.23
530.94	388.53
531.11	400.23
531.28	358.10
531.46	346.40
531.63	386.19
531.80	444.70
531.97	440.02
532.14	423.64
532.31	533.64
532.48	559.39
532.65	564.07
532.82	578.11
532.99	760.67
533.16	755.99
533.33	767.70
533.50	713.86
533.67	610.88
533.84	636.63
534.01	535.98
534.18	498.53
534.35	503.22
534.52	571.09
534.69	568.75
534.86	507.90
535.03	568.75
535.20	645.99
535.37	627.26
535.54	645.99
535.71	624.92
535.88	674.07
536.05	580.45
536.22	798.12
536.38	765.36
536.55	870.68
536.72	868.34
536.89	940.90
537.06	1107.07
537.23	1111.75
537.40	1174.95
537.57	1329.42
537.74	1458.15
537.91	1528.37
538.08	1502.62
538.25	1570.50
538.42	1514.33
538.59	1540.07
538.75	1572.84
538.92	1650.08
539.09	1884.13
539.26	2078.40
539.43	2221.17
539.60	2485.65
539.77	2836.73
539.94	3073.12
540.11	3447.61
540.28	3737.84
540.44	4065.51
540.61	4482.13
540.78	4980.66
540.95	6171.99
541.12	7112.89
541.29	7765.90
541.46	8018.68
541.62	7964.84
541.79	7723.77
541.96	7066.08
542.13	6630.74
542.30	6221.14
542.47	6052.63
542.63	5706.23
542.80	5582.18
542.97	5668.78
543.14	5392.59
543.31	5420.68
543.48	5598.56
543.64	5554.09
543.81	5802.19
543.98	5614.95
544.15	5689.84
544.32	5591.54
544.48	5605.58
544.65	5603.24
544.82	5593.88
544.99	5556.43
545.16	5755.38
545.32	6359.24
545.49	12287.81
545.66	19906.26
545.83	20802.68
546.00	17132.72
546.16	12077.16
546.33	8751.26
546.50	6792.23
546.67	5624.31
546.83	5055.56
547.00	4638.94
547.17	4482.13
547.34	4250.41
547.50	4278.50
547.67	4100.62
547.84	3700.39
548.00	3789.33
548.17	3623.15
548.34	3410.16
548.51	3403.14
548.67	3286.11
548.84	3110.57
549.01	3016.95
549.18	2846.09
549.34	2724.38
549.51	2637.78
549.68	2523.10
549.84	2429.48
550.01	2389.69
550.18	2326.49
550.34	2303.09
550.51	2045.63
550.68	2040.95
550.84	1877.11
551.01	1809.23
551.18	1755.40
551.34	1612.63
551.51	1526.03
551.68	1598.59
551.84	1509.65
552.01	1359.85
552.18	1348.15
552.34	1306.02
552.51	1245.16
552.68	1240.48
552.84	1247.51
553.01	1299.00
553.18	1137.50
553.34	1020.47
553.51	1015.79
553.67	1090.69
553.84	1043.88
554.01	1025.15
554.17	908.13
554.34	901.11
554.51	791.10
554.67	781.74
554.84	821.53
555.00	765.36
555.17	685.78
555.33	727.91
555.50	641.31
555.67	671.73
555.83	620.24
556.00	617.90
556.16	755.99
556.33	580.45
556.50	526.62
556.66	486.83
556.83	461.09
556.99	545.34
557.16	538.32
557.32	543.00
557.49	514.92
557.65	512.58
557.82	465.77
557.98	477.47
558.15	461.09
558.32	440.02
558.48	503.22
558.65	402.57
558.81	409.59
558.98	458.74
559.14	404.91
559.31	472.79
559.47	458.74
559.64	475.13
559.80	367.46
559.97	411.93
560.13	397.89
560.30	409.59
560.46	411.93
560.63	430.66
560.79	440.02
560.96	407.25
561.12	379.17
561.29	442.36
561.45	449.38
561.61	404.91
561.78	472.79
561.94	393.21
562.11	409.59
562.27	388.53
562.44	332.36
562.60	416.62
562.77	400.23
562.93	451.72
563.10	339.38
563.26	322.99
563.42	430.66
563.59	486.83
563.75	376.83
563.92	388.53
564.08	353.42
564.24	365.12
564.41	386.19
564.57	416.62
564.74	355.76
564.90	337.04
565.07	390.87
565.23	365.12
565.39	341.72
565.56	355.76
565.72	367.46
565.88	348.74
566.05	278.52
566.21	388.53
566.38	416.62
566.54	379.17
566.70	376.83
566.87	306.61
567.03	285.55
567.19	372.15
567.36	407.25
567.52	355.76
567.68	292.57
567.85	360.44
568.01	311.29
568.17	306.61
568.34	376.83
568.50	369.80
568.66	255.12
568.83	341.72
568.99	369.80
569.15	341.72
569.32	304.27
569.48	327.68
569.64	358.10
569.81	308.95
569.97	308.95
570.13	287.89
570.30	320.65
570.46	346.40
570.62	285.55
570.78	318.31
570.95	297.25
571.11	276.18
571.27	400.23
571.43	358.10
571.60	327.68
571.76	280.86
571.92	388.53
572.09	330.02
572.25	257.46
572.41	285.55
572.57	320.65
572.74	365.12
572.90	250.44
573.06	348.74
573.22	367.46
573.38	327.68
573.55	327.68
573.71	390.87
573.87	334.70
574.03	304.27
574.20	341.72
574.36	330.02
574.52	294.91
574.68	423.64
574.84	351.08
575.01	334.70
575.17	402.57
575.33	367.46
575.49	381.51
575.65	465.77
575.82	423.64
575.98	496.19
576.14	498.53
576.30	1158.57
576.46	2609.70
576.62	3681.66
576.79	3550.59
576.95	2621.40
577.11	1762.42
577.27	1203.04
577.43	947.92
577.59	709.18
577.75	641.31
577.92	594.50
578.08	561.73
578.24	552.37
578.40	1104.73
578.56	2588.63
578.72	3438.25
578.88	3599.74
579.04	2490.33
579.21	1813.92
579.37	1364.53
579.53	1151.54
579.69	1111.75
579.85	1378.58
580.01	1526.03
580.17	1570.50
580.33	1205.38
580.49	1107.07
580.65	985.37
580.82	945.58
580.98	929.19
581.14	976.00
581.30	992.39
581.46	1076.65
581.62	1165.59
581.78	1277.93
581.94	1369.21
582.10	1334.11
582.26	1401.98
582.42	1465.18
582.58	1474.54
582.74	1399.64
582.90	1605.61
583.06	1530.71
583.22	1444.11
583.38	1589.22
583.54	1537.73
583.70	1502.62
583.86	1493.26
584.02	1526.03
584.18	1416.02
584.34	1439.43
584.50	1458.15
584.66	1458.15
584.82	1306.02
584.98	1275.59
585.14	1329.42
585.30	1364.53
585.46	1390.28
585.62	1275.59
585.78	1350.49
585.94	1362.19
586.10	1427.73
586.26	1390.28
586.42	1556.46
586.58	1891.15
586.74	2310.11
586.90	2619.06
587.06	2661.19
587.22	2705.66
587.38	2326.49
587.54	2090.10
587.70	1813.92
587.86	1533.05
588.02	1317.72
588.18	1273.25
588.34	1107.07
588.49	985.37
588.65	1008.77
588.81	919.83
588.97	950.26
589.13	912.81
589.29	908.13
589.45	903.45
589.61	943.24
589.77	1011.11
589.93	931.53
590.08	966.64
590.24	840.25
590.40	1015.79
590.56	1086.01
590.72	1100.05
590.88	997.07
591.04	1076.65
591.20	1050.90
591.35	1118.78
591.51	1153.88
591.67	1132.82
591.83	1287.29
591.99	1401.98
592.15	1483.90
592.31	1713.27
592.46	1661.78
592.62	1867.75
592.78	1914.56
592.94	1982.43
593.10	1795.19
593.26	1872.43
593.41	1795.19
593.57	1577.52
593.73	1270.91
593.89	1179.63
594.05	1132.82
594.20	1109.41
594.36	1053.24
594.52	905.79
594.68	814.51
594.84	929.19
594.99	950.26
595.15	739.61
595.31	772.38
595.47	770.04
595.62	795.78
595.78	805.14
595.94	828.55
596.10	866.00
596.25	844.93
596.41	870.68
596.57	800.46
596.73	739.61
596.88	849.61
597.04	802.80
597.20	842.59
597.36	889.40
597.51	863.66
597.67	873.02
597.83	858.98
597.99	938.55
598.14	1050.90
598.30	1078.99
598.46	1083.67
598.61	1219.42
598.77	1149.20
598.93	1181.97
599.09	1277.93
599.24	1224.10
599.40	1359.85
599.56	1203.04
599.71	1177.29
599.87	1181.97
600.03	1032.18
600.18	971.32
600.34	971.32
600.50	882.38
600.65	870.68
600.81	842.59
600.97	770.04
601.12	704.50
601.28	795.78
601.44	674.07
601.59	671.73
601.75	709.18
601.91	636.63
602.06	603.86
602.22	711.52
602.37	650.67
602.53	554.71
602.69	594.50
602.84	580.45
603.00	636.63
603.16	667.05
603.31	641.31
603.47	617.90
603.62	552.37
603.78	615.56
603.94	718.54
604.09	641.31
604.25	596.84
604.40	631.94
604.56	631.94
604.71	709.18
604.87	638.97
605.03	725.57
605.18	760.67
605.34	767.70
605.49	725.57
605.65	725.57
605.80	770.04
605.96	741.95
606.12	746.63
606.27	882.38
606.43	842.59
606.58	875.36
606.74	952.60
606.89	999.41
607.05	931.53
607.20	1083.67
607.36	1053.24
607.51	1060.26
607.67	1186.65
607.82	1238.14
607.98	1338.79
608.13	1509.65
608.29	1497.94
608.44	1757.74
