SpectraSuite Data File
++++++++++++++++++++++++++++++++++++
Date: Fri Oct 04 11:42:27 GMT-05:00 2013
User: price-jones
Dark Spectrum Present: No
Reference Spectrum Present: No
Number of Sampled Component Spectra: 1
Spectrometers: USB2+H05261
Integration Time (usec): 100000 (USB2+H05261)
Spectra Averaged: 1 (USB2+H05261)
Boxcar Smoothing: 0 (USB2+H05261)
Correct for Electrical Dark: No (USB2+H05261)
Strobe/Lamp Enabled: No (USB2+H05261)
Correct for Detector Non-linearity: No (USB2+H05261)
Correct for Stray Light: No (USB2+H05261)
Number of Pixels in Processed Spectrum: 2048
>>>>>Begin Processed Spectral Data<<<<<
365.73	32.77
365.92	32.77
366.12	32.77
366.32	0.00
366.52	0.00
366.72	0.00
366.91	0.00
367.11	0.00
367.31	0.00
367.51	0.00
367.70	0.00
367.90	0.00
368.10	0.00
368.30	0.00
368.49	0.00
368.69	0.00
368.89	0.00
369.09	0.00
369.28	0.00
369.48	0.00
369.68	4.68
369.87	32.77
370.07	0.00
370.27	32.77
370.47	39.79
370.66	9.36
370.86	9.36
371.06	60.85
371.25	98.30
371.45	0.00
371.65	128.73
371.84	44.47
372.04	25.75
372.24	77.24
372.44	58.51
372.63	63.19
372.83	112.35
373.03	51.49
373.22	79.58
373.42	91.28
373.62	28.09
373.81	145.11
374.01	105.32
374.21	166.18
374.40	133.41
374.60	119.37
374.79	147.45
374.99	88.94
375.19	135.75
375.38	107.66
375.58	91.28
375.78	159.16
375.97	77.24
376.17	170.86
376.37	65.54
376.56	74.90
376.76	72.56
376.95	102.98
377.15	119.37
377.35	128.73
377.54	60.85
377.74	74.90
377.93	63.19
378.13	140.43
378.33	84.26
378.52	77.24
378.72	182.56
378.91	161.50
379.11	77.24
379.31	65.54
379.50	131.07
379.70	138.09
379.89	133.41
380.09	124.05
380.28	65.54
380.48	145.11
380.68	67.88
380.87	74.90
381.07	95.96
381.26	145.11
381.46	184.90
381.65	133.41
381.85	105.32
382.04	81.92
382.24	126.39
382.43	95.96
382.63	95.96
382.83	46.81
383.02	182.56
383.22	163.84
383.41	74.90
383.61	35.11
383.80	140.43
384.00	79.58
384.19	100.64
384.39	93.62
384.58	91.28
384.78	98.30
384.97	156.82
385.17	93.62
385.36	105.32
385.56	133.41
385.75	65.54
385.95	42.13
386.14	93.62
386.34	133.41
386.53	170.86
386.72	128.73
386.92	105.32
387.11	173.20
387.31	131.07
387.50	131.07
387.70	107.66
387.89	112.35
388.09	46.81
388.28	84.26
388.48	65.54
388.67	100.64
388.86	142.77
389.06	147.45
389.25	163.84
389.45	42.13
389.64	102.98
389.84	67.88
390.03	18.72
390.22	124.05
390.42	79.58
390.61	95.96
390.81	53.83
391.00	72.56
391.19	201.29
391.39	107.66
391.58	95.96
391.78	124.05
391.97	42.13
392.16	79.58
392.36	224.69
392.55	126.39
392.75	194.26
392.94	135.75
393.13	168.52
393.33	105.32
393.52	117.03
393.71	210.65
393.91	93.62
394.10	100.64
394.29	93.62
394.49	81.92
394.68	128.73
394.88	180.22
395.07	81.92
395.26	138.09
395.46	180.22
395.65	126.39
395.84	196.60
396.04	227.03
396.23	128.73
396.42	112.35
396.62	67.88
396.81	147.45
397.00	121.71
397.19	145.11
397.39	131.07
397.58	163.84
397.77	100.64
397.97	119.37
398.16	159.16
398.35	126.39
398.55	74.90
398.74	93.62
398.93	124.05
399.12	112.35
399.32	110.01
399.51	138.09
399.70	124.05
399.90	77.24
400.09	100.64
400.28	37.45
400.47	74.90
400.67	175.54
400.86	102.98
401.05	128.73
401.24	147.45
401.44	86.60
401.63	95.96
401.82	152.13
402.01	56.17
402.21	112.35
402.40	133.41
402.59	114.69
402.78	100.64
402.97	145.11
403.17	81.92
403.36	128.73
403.55	131.07
403.74	110.01
403.93	180.22
404.13	196.60
404.32	168.52
404.51	252.78
404.70	236.39
404.89	177.88
405.09	163.84
405.28	175.54
405.47	81.92
405.66	107.66
405.85	135.75
406.05	67.88
406.24	91.28
406.43	39.79
406.62	145.11
406.81	161.50
407.00	152.13
407.20	100.64
407.39	217.67
407.58	177.88
407.77	91.28
407.96	126.39
408.15	128.73
408.34	88.94
408.54	177.88
408.73	84.26
408.92	173.20
409.11	180.22
409.30	93.62
409.49	121.71
409.68	93.62
409.87	63.19
410.07	84.26
410.26	112.35
410.45	135.75
410.64	98.30
410.83	135.75
411.02	166.18
411.21	110.01
411.40	98.30
411.59	154.48
411.78	67.88
411.98	170.86
412.17	114.69
412.36	84.26
412.55	124.05
412.74	161.50
412.93	124.05
413.12	149.79
413.31	142.77
413.50	107.66
413.69	124.05
413.88	203.63
414.07	147.45
414.26	126.39
414.45	105.32
414.64	91.28
414.83	135.75
415.02	105.32
415.22	231.71
415.41	124.05
415.60	124.05
415.79	140.43
415.98	154.48
416.17	156.82
416.36	28.09
416.55	56.17
416.74	128.73
416.93	119.37
417.12	70.22
417.31	156.82
417.50	154.48
417.69	201.29
417.88	124.05
418.07	119.37
418.26	112.35
418.45	140.43
418.64	147.45
418.83	121.71
419.02	140.43
419.21	140.43
419.39	98.30
419.58	161.50
419.77	72.56
419.96	140.43
420.15	128.73
420.34	121.71
420.53	140.43
420.72	163.84
420.91	133.41
421.10	98.30
421.29	131.07
421.48	128.73
421.67	128.73
421.86	182.56
422.05	128.73
422.24	117.03
422.43	91.28
422.61	173.20
422.80	154.48
422.99	112.35
423.18	91.28
423.37	93.62
423.56	163.84
423.75	142.77
423.94	182.56
424.13	138.09
424.32	198.95
424.50	145.11
424.69	88.94
424.88	229.37
425.07	84.26
425.26	161.50
425.45	98.30
425.64	180.22
425.83	142.77
426.01	166.18
426.20	102.98
426.39	154.48
426.58	152.13
426.77	180.22
426.96	175.54
427.15	117.03
427.33	147.45
427.52	189.58
427.71	208.31
427.90	173.20
428.09	124.05
428.28	138.09
428.46	138.09
428.65	147.45
428.84	217.67
429.03	194.26
429.22	177.88
429.40	126.39
429.59	180.22
429.78	189.58
429.97	203.63
430.16	126.39
430.34	105.32
430.53	121.71
430.72	187.24
430.91	234.05
431.10	98.30
431.28	184.90
431.47	152.13
431.66	58.51
431.85	163.84
432.03	133.41
432.22	149.79
432.41	182.56
432.60	126.39
432.79	124.05
432.97	175.54
433.16	182.56
433.35	126.39
433.54	149.79
433.72	156.82
433.91	222.35
434.10	140.43
434.28	236.39
434.47	159.16
434.66	112.35
434.85	149.79
435.03	245.76
435.22	587.47
435.41	978.34
435.59	1083.67
435.78	863.66
435.97	524.28
436.16	271.50
436.34	203.63
436.53	205.97
436.72	168.52
436.90	173.20
437.09	182.56
437.28	198.95
437.46	163.84
437.65	138.09
437.84	175.54
438.02	159.16
438.21	142.77
438.40	126.39
438.58	163.84
438.77	170.86
438.96	154.48
439.14	149.79
439.33	140.43
439.52	128.73
439.70	184.90
439.89	175.54
440.08	147.45
440.26	149.79
440.45	212.99
440.63	154.48
440.82	194.26
441.01	196.60
441.19	168.52
441.38	147.45
441.57	217.67
441.75	215.33
441.94	217.67
442.12	243.42
442.31	227.03
442.50	124.05
442.68	140.43
442.87	208.31
443.05	121.71
443.24	128.73
443.43	191.92
443.61	170.86
443.80	159.16
443.98	100.64
444.17	177.88
444.35	224.69
444.54	128.73
444.73	154.48
444.91	191.92
445.10	124.05
445.28	147.45
445.47	140.43
445.65	149.79
445.84	135.75
446.02	182.56
446.21	187.24
446.39	149.79
446.58	177.88
446.77	173.20
446.95	163.84
447.14	212.99
447.32	166.18
447.51	168.52
447.69	145.11
447.88	166.18
448.06	173.20
448.25	177.88
448.43	159.16
448.62	110.01
448.80	184.90
448.99	107.66
449.17	159.16
449.36	128.73
449.54	222.35
449.73	191.92
449.91	266.82
450.10	84.26
450.28	180.22
450.46	220.01
450.65	194.26
450.83	177.88
451.02	133.41
451.20	102.98
451.39	166.18
451.57	173.20
451.76	121.71
451.94	163.84
452.13	177.88
452.31	245.76
452.49	194.26
452.68	147.45
452.86	142.77
453.05	205.97
453.23	205.97
453.42	161.50
453.60	208.31
453.78	187.24
453.97	170.86
454.15	243.42
454.34	140.43
454.52	88.94
454.70	215.33
454.89	222.35
455.07	201.29
455.26	161.50
455.44	220.01
455.62	173.20
455.81	163.84
455.99	196.60
456.17	138.09
456.36	140.43
456.54	191.92
456.73	140.43
456.91	154.48
457.09	215.33
457.28	212.99
457.46	121.71
457.64	208.31
457.83	168.52
458.01	117.03
458.19	184.90
458.38	201.29
458.56	166.18
458.74	250.44
458.93	191.92
459.11	201.29
459.29	175.54
459.48	152.13
459.66	205.97
459.84	126.39
460.03	245.76
460.21	180.22
460.39	159.16
460.57	220.01
460.76	159.16
460.94	187.24
461.12	236.39
461.31	222.35
461.49	163.84
461.67	173.20
461.85	191.92
462.04	208.31
462.22	273.84
462.40	145.11
462.59	175.54
462.77	166.18
462.95	231.71
463.13	98.30
463.32	196.60
463.50	191.92
463.68	194.26
463.86	227.03
464.05	166.18
464.23	149.79
464.41	170.86
464.59	187.24
464.78	95.96
464.96	210.65
465.14	135.75
465.32	102.98
465.50	159.16
465.69	290.23
465.87	149.79
466.05	168.52
466.23	210.65
466.41	201.29
466.60	177.88
466.78	177.88
466.96	292.57
467.14	142.77
467.32	180.22
467.51	161.50
467.69	191.92
467.87	177.88
468.05	128.73
468.23	224.69
468.41	161.50
468.60	236.39
468.78	168.52
468.96	184.90
469.14	170.86
469.32	133.41
469.50	72.56
469.69	194.26
469.87	126.39
470.05	170.86
470.23	102.98
470.41	189.58
470.59	119.37
470.77	133.41
470.95	105.32
471.14	182.56
471.32	241.08
471.50	210.65
471.68	184.90
471.86	212.99
472.04	227.03
472.22	102.98
472.40	231.71
472.58	175.54
472.77	117.03
472.95	119.37
473.13	252.78
473.31	229.37
473.49	191.92
473.67	152.13
473.85	220.01
474.03	117.03
474.21	217.67
474.39	166.18
474.57	234.05
474.75	290.23
474.93	191.92
475.12	191.92
475.30	133.41
475.48	217.67
475.66	187.24
475.84	189.58
476.02	168.52
476.20	145.11
476.38	175.54
476.56	278.52
476.74	138.09
476.92	173.20
477.10	145.11
477.28	212.99
477.46	180.22
477.64	196.60
477.82	194.26
478.00	128.73
478.18	191.92
478.36	191.92
478.54	175.54
478.72	191.92
478.90	210.65
479.08	187.24
479.26	215.33
479.44	201.29
479.62	135.75
479.80	142.77
479.98	161.50
480.16	161.50
480.34	201.29
480.52	250.44
480.70	215.33
480.88	241.08
481.06	107.66
481.24	184.90
481.41	234.05
481.59	212.99
481.77	166.18
481.95	147.45
482.13	243.42
482.31	156.82
482.49	231.71
482.67	273.84
482.85	229.37
483.03	292.57
483.21	294.91
483.39	180.22
483.57	273.84
483.74	198.95
483.92	285.55
484.10	269.16
484.28	269.16
484.46	255.12
484.64	205.97
484.82	217.67
485.00	294.91
485.18	313.63
485.35	248.10
485.53	257.46
485.71	334.70
485.89	280.86
486.07	238.73
486.25	358.10
486.43	269.16
486.61	334.70
486.78	320.65
486.96	264.48
487.14	292.57
487.32	266.82
487.50	330.02
487.68	308.95
487.85	208.31
488.03	355.76
488.21	337.04
488.39	346.40
488.57	322.99
488.75	301.93
488.92	465.77
489.10	290.23
489.28	386.19
489.46	346.40
489.64	322.99
489.81	271.50
489.99	330.02
490.17	315.97
490.35	322.99
490.53	292.57
490.70	346.40
490.88	330.02
491.06	325.33
491.24	294.91
491.41	315.97
491.59	362.78
491.77	259.80
491.95	283.20
492.13	271.50
492.30	306.61
492.48	325.33
492.66	301.93
492.84	243.42
493.01	259.80
493.19	208.31
493.37	355.76
493.54	355.76
493.72	311.29
493.90	283.20
494.08	159.16
494.25	320.65
494.43	266.82
494.61	308.95
494.79	294.91
494.96	287.89
495.14	315.97
495.32	266.82
495.49	294.91
495.67	285.55
495.85	381.51
496.02	330.02
496.20	322.99
496.38	266.82
496.55	262.14
496.73	287.89
496.91	187.24
497.09	231.71
497.26	220.01
497.44	334.70
497.62	191.92
497.79	278.52
497.97	322.99
498.14	252.78
498.32	224.69
498.50	278.52
498.67	231.71
498.85	257.46
499.03	259.80
499.20	315.97
499.38	304.27
499.56	224.69
499.73	259.80
499.91	257.46
500.08	252.78
500.26	187.24
500.44	222.35
500.61	210.65
500.79	264.48
500.97	198.95
501.14	231.71
501.32	248.10
501.49	215.33
501.67	201.29
501.84	264.48
502.02	170.86
502.20	234.05
502.37	245.76
502.55	262.14
502.72	191.92
502.90	231.71
503.07	259.80
503.25	285.55
503.43	294.91
503.60	205.97
503.78	234.05
503.95	250.44
504.13	250.44
504.30	217.67
504.48	229.37
504.65	292.57
504.83	262.14
505.01	203.63
505.18	276.18
505.36	278.52
505.53	201.29
505.71	205.97
505.88	290.23
506.06	255.12
506.23	217.67
506.41	212.99
506.58	257.46
506.76	248.10
506.93	241.08
507.11	224.69
507.28	224.69
507.46	170.86
507.63	161.50
507.81	217.67
507.98	205.97
508.16	180.22
508.33	222.35
508.50	227.03
508.68	262.14
508.85	248.10
509.03	271.50
509.20	285.55
509.38	203.63
509.55	311.29
509.73	245.76
509.90	212.99
510.08	273.84
510.25	222.35
510.42	297.25
510.60	180.22
510.77	245.76
510.95	259.80
511.12	203.63
511.30	236.39
511.47	234.05
511.64	299.59
511.82	215.33
511.99	238.73
512.17	222.35
512.34	327.68
512.51	266.82
512.69	250.44
512.86	224.69
513.04	241.08
513.21	278.52
513.38	234.05
513.56	248.10
513.73	212.99
513.90	189.58
514.08	301.93
514.25	287.89
514.43	208.31
514.60	229.37
514.77	184.90
514.95	290.23
515.12	266.82
515.29	273.84
515.47	222.35
515.64	212.99
515.81	217.67
515.99	287.89
516.16	252.78
516.33	250.44
516.51	170.86
516.68	152.13
516.85	210.65
517.03	149.79
517.20	147.45
517.37	182.56
517.54	229.37
517.72	273.84
517.89	154.48
518.06	156.82
518.24	227.03
518.41	290.23
518.58	196.60
518.75	227.03
518.93	238.73
519.10	243.42
519.27	252.78
519.45	161.50
519.62	248.10
519.79	287.89
519.96	191.92
520.14	273.84
520.31	273.84
520.48	269.16
520.65	187.24
520.83	292.57
521.00	315.97
521.17	245.76
521.34	264.48
521.52	215.33
521.69	236.39
521.86	198.95
522.03	187.24
522.20	341.72
522.38	269.16
522.55	318.31
522.72	236.39
522.89	248.10
523.07	330.02
523.24	311.29
523.41	217.67
523.58	315.97
523.75	210.65
523.92	306.61
524.10	257.46
524.27	245.76
524.44	264.48
524.61	259.80
524.78	173.20
524.96	285.55
525.13	332.36
525.30	278.52
525.47	287.89
525.64	248.10
525.81	236.39
525.98	245.76
526.16	285.55
526.33	238.73
526.50	182.56
526.67	229.37
526.84	170.86
527.01	234.05
527.18	292.57
527.36	222.35
527.53	175.54
527.70	304.27
527.87	241.08
528.04	264.48
528.21	283.20
528.38	306.61
528.55	269.16
528.72	280.86
528.89	327.68
529.07	273.84
529.24	255.12
529.41	257.46
529.58	292.57
529.75	205.97
529.92	196.60
530.09	318.31
530.26	276.18
530.43	294.91
530.60	248.10
530.77	280.86
530.94	245.76
531.11	266.82
531.28	292.57
531.46	266.82
531.63	217.67
531.80	234.05
531.97	259.80
532.14	278.52
532.31	283.20
532.48	234.05
532.65	191.92
532.82	308.95
532.99	325.33
533.16	234.05
533.33	264.48
533.50	313.63
533.67	322.99
533.84	330.02
534.01	301.93
534.18	337.04
534.35	273.84
534.52	292.57
534.69	344.06
534.86	301.93
535.03	257.46
535.20	276.18
535.37	353.42
535.54	308.95
535.71	299.59
535.88	369.80
536.05	358.10
536.22	243.42
536.38	322.99
536.55	301.93
536.72	327.68
536.89	252.78
537.06	203.63
537.23	318.31
537.40	390.87
537.57	358.10
537.74	383.85
537.91	409.59
538.08	451.72
538.25	526.62
538.42	404.91
538.59	418.96
538.75	386.19
538.92	461.09
539.09	421.30
539.26	475.13
539.43	472.79
539.60	512.58
539.77	585.13
539.94	550.03
540.11	585.13
540.28	725.57
540.44	627.26
540.61	643.65
540.78	777.06
540.95	877.70
541.12	1053.24
541.29	1067.28
541.46	1205.38
541.62	1102.39
541.79	1179.63
541.96	1149.20
542.13	1179.63
542.30	1158.57
542.47	1179.63
542.63	1114.10
542.80	1144.52
542.97	1163.25
543.14	1013.45
543.31	1198.35
543.48	1132.82
543.64	1090.69
543.81	1055.58
543.98	1032.18
544.15	1041.54
544.32	1034.52
544.48	1025.15
544.65	1022.81
544.82	1064.94
544.99	990.05
545.16	1074.31
545.32	999.41
545.49	1586.88
545.66	2387.35
545.83	2738.43
546.00	2595.65
546.16	1785.83
546.33	1362.19
546.50	1118.78
546.67	922.17
546.83	877.70
547.00	748.97
547.17	655.35
547.34	671.73
547.50	624.92
547.67	648.33
547.84	662.37
548.00	730.25
548.17	622.58
548.34	667.05
548.51	660.03
548.67	638.97
548.84	554.71
549.01	629.60
549.18	601.52
549.34	575.77
549.51	531.30
549.68	603.86
549.84	561.73
550.01	545.34
550.18	606.20
550.34	545.34
550.51	526.62
550.68	526.62
550.84	440.02
551.01	409.59
551.18	463.43
551.34	437.68
551.51	456.40
551.68	456.40
551.84	400.23
552.01	369.80
552.18	458.74
552.34	484.49
552.51	472.79
552.68	372.15
552.84	369.80
553.01	334.70
553.18	379.17
553.34	346.40
553.51	386.19
553.67	315.97
553.84	346.40
554.01	351.08
554.17	367.46
554.34	346.40
554.51	311.29
554.67	367.46
554.84	341.72
555.00	283.20
555.17	311.29
555.33	287.89
555.50	393.21
555.67	388.53
555.83	252.78
556.00	255.12
556.16	393.21
556.33	243.42
556.50	299.59
556.66	297.25
556.83	252.78
556.99	292.57
557.16	248.10
557.32	311.29
557.49	276.18
557.65	283.20
557.82	271.50
557.98	313.63
558.15	315.97
558.32	311.29
558.48	259.80
558.65	264.48
558.81	283.20
558.98	234.05
559.14	259.80
559.31	259.80
559.47	325.33
559.64	308.95
559.80	285.55
559.97	259.80
560.13	222.35
560.30	184.90
560.46	259.80
560.63	334.70
560.79	278.52
560.96	379.17
561.12	215.33
561.29	287.89
561.45	222.35
561.61	273.84
561.78	388.53
561.94	360.44
562.11	285.55
562.27	238.73
562.44	299.59
562.60	262.14
562.77	243.42
562.93	337.04
563.10	287.89
563.26	224.69
563.42	238.73
563.59	248.10
563.75	198.95
563.92	280.86
564.08	215.33
564.24	285.55
564.41	280.86
564.57	252.78
564.74	191.92
564.90	215.33
565.07	271.50
565.23	276.18
565.39	229.37
565.56	215.33
565.72	210.65
565.88	224.69
566.05	220.01
566.21	220.01
566.38	290.23
566.54	241.08
566.70	250.44
566.87	320.65
567.03	231.71
567.19	135.75
567.36	271.50
567.52	212.99
567.68	224.69
567.85	358.10
568.01	248.10
568.17	301.93
568.34	187.24
568.50	255.12
568.66	198.95
568.83	306.61
568.99	231.71
569.15	315.97
569.32	262.14
569.48	203.63
569.64	212.99
569.81	234.05
569.97	297.25
570.13	285.55
570.30	196.60
570.46	217.67
570.62	285.55
570.78	252.78
570.95	231.71
571.11	259.80
571.27	320.65
571.43	229.37
571.60	231.71
571.76	215.33
571.92	201.29
572.09	278.52
572.25	294.91
572.41	250.44
572.57	138.09
572.74	236.39
572.90	234.05
573.06	311.29
573.22	292.57
573.38	227.03
573.55	212.99
573.71	325.33
573.87	187.24
574.03	208.31
574.20	262.14
574.36	299.59
574.52	224.69
574.68	203.63
574.84	285.55
575.01	266.82
575.17	255.12
575.33	203.63
575.49	278.52
575.65	255.12
575.82	203.63
575.98	287.89
576.14	304.27
576.30	334.70
576.46	461.09
576.62	734.93
576.79	751.31
576.95	653.01
577.11	451.72
577.27	337.04
577.43	344.06
577.59	315.97
577.75	236.39
577.92	299.59
578.08	320.65
578.24	252.78
578.40	360.44
578.56	458.74
578.72	660.03
578.88	622.58
579.04	582.79
579.21	479.81
579.37	454.06
579.53	362.78
579.69	372.15
579.85	407.25
580.01	482.15
580.17	425.98
580.33	397.89
580.49	365.12
580.65	362.78
580.82	447.04
580.98	320.65
581.14	320.65
581.30	372.15
581.46	414.27
581.62	411.93
581.78	374.49
581.94	477.47
582.10	409.59
582.26	407.25
582.42	346.40
582.58	458.74
582.74	418.96
582.90	395.55
583.06	423.64
583.22	430.66
583.38	372.15
583.54	390.87
583.70	444.70
583.86	418.96
584.02	435.34
584.18	416.62
584.34	308.95
584.50	458.74
584.66	397.89
584.82	400.23
584.98	404.91
585.14	407.25
585.30	409.59
585.46	390.87
585.62	367.46
585.78	395.55
585.94	322.99
586.10	409.59
586.26	365.12
586.42	519.60
586.58	428.32
586.74	526.62
586.90	538.32
587.06	636.63
587.22	575.77
587.38	489.17
587.54	477.47
587.70	489.17
587.86	442.36
588.02	461.09
588.18	353.42
588.34	409.59
588.49	393.21
588.65	348.74
588.81	341.72
588.97	245.76
589.13	278.52
589.29	367.46
589.45	306.61
589.61	299.59
589.77	395.55
589.93	304.27
590.08	283.20
590.24	287.89
590.40	304.27
590.56	360.44
590.72	358.10
590.88	341.72
591.04	344.06
591.20	379.17
591.35	369.80
591.51	262.14
591.67	330.02
591.83	257.46
591.99	367.46
592.15	358.10
592.31	447.04
592.46	449.38
592.62	437.68
592.78	491.51
592.94	437.68
593.10	552.37
593.26	475.13
593.41	437.68
593.57	395.55
593.73	313.63
593.89	346.40
594.05	308.95
594.20	290.23
594.36	327.68
594.52	280.86
594.68	299.59
594.84	285.55
594.99	348.74
595.15	301.93
595.31	264.48
595.47	271.50
595.62	177.88
595.78	252.78
595.94	262.14
596.10	304.27
596.25	318.31
596.41	374.49
596.57	351.08
596.73	264.48
596.88	273.84
597.04	259.80
597.20	203.63
597.36	322.99
597.51	306.61
597.67	351.08
597.83	257.46
597.99	346.40
598.14	299.59
598.30	458.74
598.46	334.70
598.61	315.97
598.77	318.31
598.93	297.25
599.09	379.17
599.24	257.46
599.40	397.89
599.56	430.66
599.71	297.25
599.87	369.80
600.03	346.40
600.18	269.16
600.34	337.04
600.50	301.93
600.65	236.39
600.81	355.76
600.97	252.78
601.12	287.89
601.28	259.80
601.44	264.48
601.59	313.63
601.75	287.89
601.91	276.18
602.06	227.03
602.22	327.68
602.37	217.67
602.53	287.89
602.69	217.67
602.84	330.02
603.00	276.18
603.16	227.03
603.31	238.73
603.47	278.52
603.62	299.59
603.78	318.31
603.94	217.67
604.09	280.86
604.25	327.68
604.40	245.76
604.56	358.10
604.71	283.20
604.87	276.18
605.03	325.33
605.18	243.42
605.34	236.39
605.49	264.48
605.65	294.91
605.80	236.39
605.96	229.37
606.12	327.68
606.27	266.82
606.43	287.89
606.58	278.52
606.74	257.46
606.89	320.65
607.05	330.02
607.20	304.27
607.36	301.93
607.51	297.25
607.67	341.72
607.82	332.36
607.98	360.44
608.13	409.59
608.29	388.53
608.44	442.36
608.60	444.70
608.75	414.27
608.91	479.81
609.06	465.77
609.22	500.87
609.37	519.60
609.53	620.24
609.68	695.14
609.84	634.29
609.99	826.21
610.15	919.83
610.30	1064.94
610.46	1387.94
610.61	1563.48
610.76	1970.73
610.92	2452.88
611.07	2675.23
611.23	2609.70
611.38	2417.77
