SpectraSuite Data File
++++++++++++++++++++++++++++++++++++
Date: Fri Oct 04 11:42:24 GMT-05:00 2013
User: price-jones
Dark Spectrum Present: No
Reference Spectrum Present: No
Number of Sampled Component Spectra: 1
Spectrometers: USB2+H05261
Integration Time (usec): 100000 (USB2+H05261)
Spectra Averaged: 1 (USB2+H05261)
Boxcar Smoothing: 0 (USB2+H05261)
Correct for Electrical Dark: No (USB2+H05261)
Strobe/Lamp Enabled: No (USB2+H05261)
Correct for Detector Non-linearity: No (USB2+H05261)
Correct for Stray Light: No (USB2+H05261)
Number of Pixels in Processed Spectrum: 2048
>>>>>Begin Processed Spectral Data<<<<<
365.73	39.79
365.92	39.79
366.12	39.79
366.32	0.00
366.52	44.47
366.72	0.00
366.91	0.00
367.11	14.04
367.31	0.00
367.51	0.00
367.70	0.00
367.90	0.00
368.10	0.00
368.30	0.00
368.49	0.00
368.69	0.00
368.89	4.68
369.09	0.00
369.28	0.00
369.48	11.70
369.68	0.00
369.87	0.00
370.07	30.43
370.27	53.83
370.47	25.75
370.66	152.13
370.86	168.52
371.06	182.56
371.25	227.03
371.45	147.45
371.65	194.26
371.84	117.03
372.04	196.60
372.24	189.58
372.44	271.50
372.63	271.50
372.83	252.78
373.03	220.01
373.22	227.03
373.42	259.80
373.62	269.16
373.81	196.60
374.01	217.67
374.21	203.63
374.40	290.23
374.60	315.97
374.79	238.73
374.99	278.52
375.19	292.57
375.38	269.16
375.58	278.52
375.78	269.16
375.97	273.84
376.17	348.74
376.37	327.68
376.56	252.78
376.76	346.40
376.95	287.89
377.15	294.91
377.35	322.99
377.54	397.89
377.74	334.70
377.93	400.23
378.13	327.68
378.33	353.42
378.52	351.08
378.72	306.61
378.91	367.46
379.11	369.80
379.31	201.29
379.50	266.82
379.70	287.89
379.89	423.64
380.09	341.72
380.28	346.40
380.48	339.38
380.68	304.27
380.87	299.59
381.07	252.78
381.26	322.99
381.46	337.04
381.65	262.14
381.85	259.80
382.04	283.20
382.24	222.35
382.43	212.99
382.63	222.35
382.83	262.14
383.02	196.60
383.22	229.37
383.41	182.56
383.61	318.31
383.80	266.82
384.00	248.10
384.19	313.63
384.39	334.70
384.58	322.99
384.78	339.38
384.97	348.74
385.17	290.23
385.36	283.20
385.56	299.59
385.75	280.86
385.95	322.99
386.14	297.25
386.34	332.36
386.53	351.08
386.72	346.40
386.92	411.93
387.11	325.33
387.31	348.74
387.50	294.91
387.70	372.15
387.89	297.25
388.09	337.04
388.28	358.10
388.48	294.91
388.67	362.78
388.86	358.10
389.06	379.17
389.25	407.25
389.45	393.21
389.64	360.44
389.84	407.25
390.03	404.91
390.22	444.70
390.42	367.46
390.61	458.74
390.81	437.68
391.00	491.51
391.19	463.43
391.39	381.51
391.58	332.36
391.78	414.27
391.97	318.31
392.16	353.42
392.36	393.21
392.55	369.80
392.75	285.55
392.94	215.33
393.13	210.65
393.33	257.46
393.52	308.95
393.71	344.06
393.91	339.38
394.10	397.89
394.29	346.40
394.49	454.06
394.68	489.17
394.88	477.47
395.07	545.34
395.26	479.81
395.46	440.02
395.65	463.43
395.84	414.27
396.04	435.34
396.23	372.15
396.42	220.01
396.62	292.57
396.81	299.59
397.00	318.31
397.19	442.36
397.39	404.91
397.58	505.56
397.77	507.90
397.97	547.69
398.16	622.58
398.35	573.43
398.55	540.66
398.74	653.01
398.93	638.97
399.12	617.90
399.32	561.73
399.51	624.92
399.70	608.54
399.90	676.41
400.09	699.82
400.28	667.05
400.47	592.16
400.67	669.39
400.86	681.10
401.05	662.37
401.24	622.58
401.44	669.39
401.63	716.20
401.82	688.12
402.01	641.31
402.21	699.82
402.40	713.86
402.59	615.56
402.78	620.24
402.97	608.54
403.17	685.78
403.36	716.20
403.55	636.63
403.74	643.65
403.93	704.50
404.13	767.70
404.32	800.46
404.51	695.14
404.70	823.87
404.89	664.71
405.09	758.33
405.28	667.05
405.47	641.31
405.66	678.76
405.85	596.84
406.05	622.58
406.24	634.29
406.43	699.82
406.62	676.41
406.81	748.97
407.00	662.37
407.20	638.97
407.39	692.80
407.58	655.35
407.77	713.86
407.96	767.70
408.15	645.99
408.34	706.84
408.54	798.12
408.73	690.46
408.92	779.40
409.11	678.76
409.30	765.36
409.49	678.76
409.68	653.01
409.87	645.99
410.07	608.54
410.26	695.14
410.45	720.88
410.64	751.31
410.83	812.17
411.02	720.88
411.21	760.67
411.40	702.16
411.59	835.57
411.78	800.46
411.98	770.04
412.17	814.51
412.36	770.04
412.55	683.44
412.74	697.48
412.93	882.38
413.12	692.80
413.31	807.48
413.50	898.77
413.69	814.51
413.88	880.04
414.07	868.34
414.26	767.70
414.45	781.74
414.64	791.10
414.83	805.14
415.02	779.40
415.22	786.42
415.41	863.66
415.60	713.86
415.79	898.77
415.98	943.24
416.17	854.30
416.36	854.30
416.55	861.32
416.74	837.91
416.93	842.59
417.12	758.33
417.31	858.98
417.50	873.02
417.69	889.40
417.88	880.04
418.07	828.55
418.26	819.19
418.45	917.49
418.64	985.37
418.83	856.64
419.02	922.17
419.21	851.96
419.39	875.36
419.58	837.91
419.77	840.25
419.96	873.02
420.15	889.40
420.34	908.13
420.53	844.93
420.72	891.74
420.91	940.90
421.10	947.92
421.29	863.66
421.48	908.13
421.67	898.77
421.86	917.49
422.05	912.81
422.24	688.12
422.43	828.55
422.61	835.57
422.80	917.49
422.99	891.74
423.18	858.98
423.37	894.08
423.56	908.13
423.75	882.38
423.94	823.87
424.13	931.53
424.32	915.15
424.50	870.68
424.69	875.36
424.88	931.53
425.07	875.36
425.26	851.96
425.45	938.55
425.64	763.01
425.83	767.70
426.01	943.24
426.20	800.46
426.39	821.53
426.58	723.23
426.77	868.34
426.96	833.23
427.15	758.33
427.33	880.04
427.52	896.43
427.71	868.34
427.90	821.53
428.09	812.17
428.28	856.64
428.46	800.46
428.65	812.17
428.84	830.89
429.03	912.81
429.22	826.21
429.40	716.20
429.59	781.74
429.78	638.97
429.97	603.86
430.16	685.78
430.34	627.26
430.53	617.90
430.72	638.97
430.91	709.18
431.10	704.50
431.28	849.61
431.47	978.34
431.66	952.60
431.85	910.47
432.03	798.12
432.22	833.23
432.41	842.59
432.60	994.73
432.79	964.30
432.97	1011.11
433.16	966.64
433.35	793.44
433.54	695.14
433.72	873.02
433.91	828.55
434.10	922.17
434.28	924.51
434.47	903.45
434.66	896.43
434.85	945.58
435.03	1086.01
435.22	1420.71
435.41	1886.47
435.59	1991.80
435.78	1612.63
435.97	1263.89
436.16	1198.35
436.34	1057.92
436.53	997.07
436.72	1018.13
436.90	997.07
437.09	1006.43
437.28	880.04
437.46	959.62
437.65	952.60
437.84	854.30
438.02	837.91
438.21	858.98
438.40	805.14
438.58	917.49
438.77	1008.77
438.96	971.32
439.14	994.73
439.33	1060.26
439.52	999.41
439.70	950.26
439.89	936.21
440.08	1041.54
440.26	1041.54
440.45	1046.22
440.63	987.71
440.82	1114.10
441.01	1111.75
441.19	1090.69
441.38	1055.58
441.57	1032.18
441.75	1109.41
441.94	1165.59
442.12	1149.20
442.31	1233.46
442.50	1128.14
442.68	1184.31
442.87	1100.05
443.05	1128.14
443.24	1088.35
443.43	1109.41
443.61	1139.84
443.80	1142.18
443.98	1104.73
444.17	1081.33
444.35	1076.65
444.54	1149.20
444.73	1156.22
444.91	1130.48
445.10	1069.62
445.28	978.34
445.47	1013.45
445.65	1060.26
445.84	1071.97
446.02	1165.59
446.21	1149.20
446.39	1146.86
446.58	1137.50
446.77	1170.27
446.95	1114.10
447.14	1282.61
447.32	1214.74
447.51	1177.29
447.69	1210.06
447.88	1055.58
448.06	1231.12
448.25	1118.78
448.43	1207.72
448.62	1200.69
448.80	1261.55
448.99	1193.67
449.17	1121.12
449.36	1163.25
449.54	1233.46
449.73	1273.25
449.91	1277.93
450.10	1249.85
450.28	1301.34
450.46	1270.91
450.65	1306.02
450.83	1188.99
451.02	1177.29
451.20	1196.01
451.39	1238.14
451.57	1256.87
451.76	1263.89
451.94	1224.10
452.13	1259.21
452.31	1174.95
452.49	1067.28
452.68	1130.48
452.86	1048.56
453.05	1149.20
453.23	1081.33
453.42	1137.50
453.60	1128.14
453.78	1170.27
453.97	1177.29
454.15	1226.44
454.34	1177.29
454.52	1224.10
454.70	1174.95
454.89	1181.97
455.07	1205.38
455.26	1170.27
455.44	1193.67
455.62	1233.46
455.81	1186.65
455.99	1191.33
456.17	1238.14
456.36	1184.31
456.54	1165.59
456.73	1177.29
456.91	1200.69
457.09	1245.16
457.28	1362.19
457.46	1231.12
457.64	1210.06
457.83	1153.88
458.01	1217.08
458.19	1200.69
458.38	1196.01
458.56	1310.70
458.74	1210.06
458.93	1306.02
459.11	1238.14
459.29	1196.01
459.48	1219.42
459.66	1214.74
459.84	1252.19
460.03	1214.74
460.21	1224.10
460.39	1315.38
460.57	1174.95
460.76	1160.91
460.94	1261.55
461.12	1329.42
461.31	1242.82
461.49	1226.44
461.67	1261.55
461.85	1437.09
462.04	1294.32
462.22	1451.13
462.40	1301.34
462.59	1366.87
462.77	1275.59
462.95	1366.87
463.13	1310.70
463.32	1317.72
463.50	1240.48
463.68	1277.93
463.86	1224.10
464.05	1196.01
464.23	1266.23
464.41	1196.01
464.59	1181.97
464.78	1198.35
464.96	1270.91
465.14	1196.01
465.32	1268.57
465.50	1315.38
465.69	1294.32
465.87	1266.23
466.05	1188.99
466.23	1231.12
466.41	1231.12
466.60	1210.06
466.78	1224.10
466.96	1261.55
467.14	1228.78
467.32	1289.64
467.51	1254.53
467.69	1226.44
467.87	1207.72
468.05	1336.45
468.23	1341.13
468.41	1310.70
468.60	1315.38
468.78	1228.78
468.96	1287.29
469.14	1282.61
469.32	1245.16
469.50	1163.25
469.69	1249.85
469.87	1165.59
470.05	1256.87
470.23	1224.10
470.41	1158.57
470.59	1214.74
470.77	1217.08
470.95	1273.25
471.14	1320.06
471.32	1289.64
471.50	1392.62
471.68	1313.04
471.86	1348.15
472.04	1289.64
472.22	1378.58
472.40	1268.57
472.58	1343.47
472.77	1224.10
472.95	1221.76
473.13	1308.36
473.31	1315.38
473.49	1359.85
473.67	1359.85
473.85	1320.06
474.03	1399.64
474.21	1380.92
474.39	1301.34
474.57	1409.00
474.75	1481.56
474.93	1397.30
475.12	1362.19
475.30	1383.26
475.48	1369.21
475.66	1380.92
475.84	1341.13
476.02	1308.36
476.20	1320.06
476.38	1385.60
476.56	1430.07
476.74	1416.02
476.92	1362.19
477.10	1519.01
477.28	1460.49
477.46	1507.30
477.64	1519.01
477.82	1437.09
478.00	1490.92
478.18	1458.15
478.36	1488.58
478.54	1439.43
478.72	1465.18
478.90	1509.65
479.08	1710.93
479.26	1657.10
479.44	1521.35
479.62	1521.35
479.80	1561.14
479.98	1500.28
480.16	1584.54
480.34	1558.80
480.52	1511.99
480.70	1448.79
480.88	1474.54
481.06	1678.16
481.24	1607.95
481.41	1675.82
481.59	1666.46
481.77	1673.48
481.95	1750.72
482.13	1748.38
482.31	1708.59
482.49	1689.87
482.67	1680.50
482.85	1657.10
483.03	1715.61
483.21	1746.04
483.39	1748.38
483.57	1652.42
483.74	1741.36
483.92	1640.72
484.10	1605.61
484.28	1757.74
484.46	1750.72
484.64	1760.08
484.82	1748.38
485.00	1729.66
485.18	1795.19
485.35	1764.76
485.53	1636.03
485.71	1516.67
485.89	1437.09
486.07	1474.54
486.25	1713.27
486.43	1703.91
486.61	1746.04
486.78	1764.76
486.96	1664.12
487.14	1795.19
487.32	1863.07
487.50	1846.68
487.68	2043.29
487.85	1902.86
488.03	1914.56
488.21	2015.20
488.39	1898.17
488.57	1895.83
488.75	1872.43
488.92	2150.95
489.10	1940.30
489.28	2132.23
489.46	2026.90
489.64	2094.78
489.81	2181.38
489.99	2071.37
490.17	2202.44
490.35	2150.95
490.53	2099.46
490.70	2076.06
490.88	1987.11
491.06	2186.06
491.24	2122.87
491.41	2127.55
491.59	1952.01
491.77	1977.75
491.95	2022.22
492.13	2101.80
492.30	2111.16
492.48	2115.84
492.66	2148.61
492.84	2204.78
493.01	2165.00
493.19	2031.58
493.37	2078.40
493.54	2207.13
493.72	2211.81
493.90	2179.04
494.08	2195.42
494.25	2230.53
494.43	2310.11
494.61	2256.28
494.79	2237.55
494.96	2347.56
495.14	2256.28
495.32	2195.42
495.49	2047.97
495.67	2165.00
495.85	2286.70
496.02	2246.91
496.20	2284.36
496.38	2354.58
496.55	2321.81
496.73	2354.58
496.91	2338.20
497.09	2359.26
497.26	2375.64
497.44	2296.07
497.62	2317.13
497.79	2286.70
497.97	2146.27
498.14	2141.59
498.32	2230.53
498.50	2361.60
498.67	2282.02
498.85	2385.01
499.03	2452.88
499.20	2296.07
499.38	2406.07
499.56	2340.54
499.73	2380.32
499.91	2338.20
500.08	2237.55
500.26	2289.04
500.44	2162.66
500.61	2263.30
500.79	2347.56
500.97	2195.42
501.14	2265.64
501.32	2246.91
501.49	2305.43
501.67	2181.38
501.84	2289.04
502.02	2256.28
502.20	2291.38
502.37	2237.55
502.55	2289.04
502.72	2312.45
502.90	2305.43
503.07	2211.81
503.25	2230.53
503.43	2139.25
503.60	2094.78
503.78	2069.03
503.95	1907.54
504.13	2298.41
504.30	2370.96
504.48	2356.92
504.65	2300.75
504.83	2356.92
505.01	2366.28
505.18	2434.16
505.36	2399.05
505.53	2396.71
505.71	2438.84
505.88	2450.54
506.06	2370.96
506.23	2408.41
506.41	2296.07
506.58	2256.28
506.76	2258.62
506.93	2277.34
507.11	2434.16
507.28	2293.72
507.46	2275.00
507.63	2225.85
507.81	2239.89
507.98	2251.60
508.16	2246.91
508.33	2345.22
508.50	2495.01
508.68	2438.84
508.85	2438.84
509.03	2394.37
509.20	2455.22
509.38	2459.90
509.55	2361.60
509.73	2420.11
509.90	2399.05
510.08	2317.13
510.25	2359.26
510.42	2441.18
510.60	2506.71
510.77	2422.45
510.95	2539.48
511.12	2450.54
511.30	2518.42
511.47	2607.36
511.64	2579.27
511.82	2452.88
511.99	2448.20
512.17	2417.77
512.34	2363.94
512.51	2614.38
512.69	2485.65
512.86	2443.52
513.04	2354.58
513.21	2478.63
513.38	2443.52
513.56	2356.92
513.73	2361.60
513.90	2511.39
514.08	2317.13
514.25	2476.29
514.43	2326.49
514.60	2429.48
514.77	2492.67
514.95	2401.39
515.12	2480.97
515.29	2394.37
515.47	2480.97
515.64	2375.64
515.81	2455.22
515.99	2401.39
516.16	2239.89
516.33	2232.87
516.51	2064.35
516.68	1984.77
516.85	1996.48
517.03	1996.48
517.20	2237.55
517.37	2385.01
517.54	2387.35
517.72	2319.47
517.89	2237.55
518.06	2050.31
518.24	2092.44
518.41	2139.25
518.58	2445.86
518.75	2352.24
518.93	2354.58
519.10	2293.72
519.27	2413.09
519.45	2331.17
519.62	2420.11
519.79	2588.63
519.96	2497.35
520.14	2616.72
520.31	2373.30
520.48	2331.17
520.65	2300.75
520.83	2546.50
521.00	2480.97
521.17	2417.77
521.34	2438.84
521.52	2445.86
521.69	2452.88
521.86	2567.57
522.03	2607.36
522.20	2448.20
522.38	2237.55
522.55	2267.98
522.72	2347.56
522.89	2443.52
523.07	2537.14
523.24	2420.11
523.41	2326.49
523.58	2602.68
523.75	2569.91
523.92	2612.04
524.10	2537.14
524.27	2497.35
524.44	2436.50
524.61	2614.38
524.78	2502.03
524.96	2518.42
525.13	2476.29
525.30	2633.10
525.47	2567.57
525.64	2551.18
525.81	2483.31
525.98	2319.47
526.16	2256.28
526.33	2165.00
526.50	2223.51
526.67	2179.04
526.84	2101.80
527.01	2204.78
527.18	2363.94
527.36	2455.22
527.53	2504.37
527.70	2480.97
527.87	2499.69
528.04	2377.98
528.21	2396.71
528.38	2516.08
528.55	2658.85
528.72	2565.23
528.89	2605.02
529.07	2572.25
529.24	2590.97
529.41	2548.84
529.58	2431.82
529.75	2394.37
529.92	2431.82
530.09	2485.65
530.26	2562.89
530.43	2628.42
530.60	2534.80
530.77	2661.19
530.94	2647.15
531.11	2551.18
531.28	2609.70
531.46	2595.65
531.63	2534.80
531.80	2609.70
531.97	2562.89
532.14	2375.64
532.31	2382.67
532.48	2396.71
532.65	2275.00
532.82	2200.10
532.99	2464.58
533.16	2651.83
533.33	2579.27
533.50	2586.29
533.67	2455.22
533.84	2441.18
534.01	2539.48
534.18	2478.63
534.35	2420.11
534.52	2450.54
534.69	2459.90
534.86	2516.08
535.03	2553.52
535.20	2586.29
535.37	2541.82
535.54	2684.59
535.71	2635.44
535.88	2644.81
536.05	2569.91
536.22	2551.18
536.38	2523.10
536.55	2495.01
536.72	2340.54
536.89	2415.43
537.06	2523.10
537.23	2621.40
537.40	2583.95
537.57	2612.04
537.74	2579.27
537.91	2649.49
538.08	2663.53
538.25	2623.74
538.42	2684.59
538.59	2677.57
538.75	2539.48
538.92	2642.46
539.09	2539.48
539.26	2581.61
539.43	2686.94
539.60	2635.44
539.77	2663.53
539.94	2738.43
540.11	2675.23
540.28	2644.81
540.44	2729.06
540.61	2710.34
540.78	2766.51
540.95	2953.76
541.12	3276.75
541.29	3141.00
541.46	3421.86
541.62	3391.44
541.79	3389.10
541.96	3269.73
542.13	3288.45
542.30	3229.94
542.47	3190.15
542.63	3283.77
542.80	3023.97
542.97	3002.91
543.14	3096.53
543.31	3077.80
543.48	3101.21
543.64	3204.19
543.81	3164.40
543.98	3208.87
544.15	3157.38
544.32	3131.64
544.48	2986.52
544.65	3115.25
544.82	3080.14
544.99	3243.98
545.16	3173.77
545.32	3192.49
545.49	3679.32
545.66	4547.66
545.83	4891.72
546.00	4746.61
546.16	3885.29
546.33	3337.60
546.50	3243.98
546.67	2939.71
546.83	2995.89
547.00	2977.16
547.17	2878.86
547.34	2719.70
547.50	2736.09
547.67	2768.85
547.84	2813.32
548.00	2738.43
548.17	2778.22
548.34	2729.06
548.51	2799.28
548.67	2881.20
548.84	2693.96
549.01	2747.79
549.18	2782.90
549.34	2792.26
549.51	2799.28
549.68	2705.66
549.84	2738.43
550.01	2593.31
550.18	2600.34
550.34	2689.28
550.51	2628.42
550.68	2574.59
550.84	2609.70
551.01	2565.23
551.18	2576.93
551.34	2455.22
551.51	2567.57
551.68	2541.82
551.84	2609.70
552.01	2553.52
552.18	2530.12
552.34	2490.33
552.51	2483.31
552.68	2492.67
552.84	2459.90
553.01	2443.52
553.18	2436.50
553.34	2555.86
553.51	2523.10
553.67	2581.61
553.84	2553.52
554.01	2448.20
554.17	2396.71
554.34	2483.31
554.51	2328.83
554.67	2499.69
554.84	2495.01
555.00	2438.84
555.17	2434.16
555.33	2541.82
555.50	2382.67
555.67	2499.69
555.83	2438.84
556.00	2452.88
556.16	2487.99
556.33	2349.90
556.50	2368.62
556.66	2181.38
556.83	2303.09
556.99	2368.62
557.16	2335.85
557.32	2289.04
557.49	2335.85
557.65	2326.49
557.82	2338.20
557.98	2331.17
558.15	2307.77
558.32	2249.25
558.48	2232.87
558.65	2101.80
558.81	2218.83
558.98	2225.85
559.14	2342.88
559.31	2237.55
559.47	2279.68
559.64	2197.76
559.80	2204.78
559.97	2239.89
560.13	2225.85
560.30	2209.47
560.46	2338.20
560.63	2286.70
560.79	2387.35
560.96	2359.26
561.12	2176.70
561.29	2286.70
561.45	2232.87
561.61	2265.64
561.78	2265.64
561.94	2307.77
562.11	2167.34
562.27	2195.42
562.44	2172.02
562.60	2307.77
562.77	2272.66
562.93	2193.08
563.10	2162.66
563.26	2333.51
563.42	2380.32
563.59	2225.85
563.75	2253.94
563.92	2190.74
564.08	2202.44
564.24	2246.91
564.41	2258.62
564.57	2153.29
564.74	2190.74
564.90	2216.49
565.07	2260.96
565.23	2225.85
565.39	2076.06
565.56	2197.76
565.72	2127.55
565.88	2148.61
566.05	2031.58
566.21	2101.80
566.38	2122.87
566.54	2209.47
566.70	2160.31
566.87	2190.74
567.03	2179.04
567.19	2253.94
567.36	2139.25
567.52	2155.63
567.68	2172.02
567.85	2090.10
568.01	2146.27
568.17	2106.48
568.34	2085.42
568.50	2017.54
568.66	1959.03
568.83	2050.31
568.99	2092.44
569.15	2062.01
569.32	2083.08
569.48	2069.03
569.64	1998.82
569.81	2024.56
569.97	2045.63
570.13	2094.78
570.30	2045.63
570.46	1966.05
570.62	1970.73
570.78	1937.96
570.95	1987.11
571.11	2092.44
571.27	1949.67
571.43	2029.24
571.60	2019.88
571.76	2076.06
571.92	2146.27
572.09	2031.58
572.25	2038.61
572.41	2106.48
572.57	1966.05
572.74	2115.84
572.90	1923.92
573.06	2078.40
573.22	2092.44
573.38	2043.29
573.55	2087.76
573.71	2038.61
573.87	2071.37
574.03	2024.56
574.20	1989.46
574.36	2031.58
574.52	1973.07
574.68	2064.35
574.84	2062.01
575.01	1963.71
575.17	1980.09
575.33	1952.01
575.49	2073.71
575.65	2040.95
575.82	2005.84
575.98	2003.50
576.14	1909.88
576.30	2162.66
576.46	2310.11
576.62	2331.17
576.79	2366.28
576.95	2296.07
577.11	2153.29
577.27	2085.42
577.43	2087.76
577.59	2080.74
577.75	1977.75
577.92	1893.49
578.08	1940.30
578.24	1837.32
578.40	1949.67
578.56	2139.25
578.72	2284.36
578.88	2396.71
579.04	2209.47
579.21	2118.18
579.37	2136.91
579.53	2106.48
579.69	2134.57
579.85	1982.43
580.01	2122.87
580.17	2085.42
580.33	2111.16
580.49	2073.71
580.65	2160.31
580.82	2155.63
580.98	2113.50
581.14	2036.27
581.30	2122.87
581.46	1991.80
581.62	2125.21
581.78	2036.27
581.94	2167.34
582.10	2148.61
582.26	1952.01
582.42	2113.50
582.58	2190.74
582.74	2143.93
582.90	2232.87
583.06	2183.72
583.22	2139.25
583.38	2146.27
583.54	2228.19
583.70	2225.85
583.86	2188.40
584.02	2172.02
584.18	2122.87
584.34	2134.57
584.50	2092.44
584.66	2162.66
584.82	2008.18
584.98	2118.18
585.14	2008.18
585.30	2038.61
585.46	1994.14
585.62	2029.24
585.78	2157.97
585.94	2085.42
586.10	1989.46
586.26	2038.61
586.42	2174.36
586.58	2115.84
586.74	2157.97
586.90	2216.49
587.06	2249.25
587.22	2197.76
587.38	2181.38
587.54	2040.95
587.70	2038.61
587.86	2001.16
588.02	1832.64
588.18	1792.85
588.34	1699.23
588.49	1603.27
588.65	1589.22
588.81	1570.50
588.97	1509.65
589.13	1476.88
589.29	1526.03
589.45	1549.43
589.61	1593.90
589.77	1619.65
589.93	1586.88
590.08	1645.40
590.24	1685.19
590.40	1708.59
590.56	1788.17
590.72	1767.10
590.88	1692.21
591.04	1788.17
591.20	1664.12
591.35	1750.72
591.51	1654.76
591.67	1739.02
591.83	1732.00
591.99	1631.35
592.15	1795.19
592.31	2008.18
592.46	1947.33
592.62	2031.58
592.78	1973.07
592.94	1802.21
593.10	1898.17
593.26	1849.02
593.41	1874.77
593.57	1813.92
593.73	1734.34
593.89	1736.68
594.05	1612.63
594.20	1645.40
594.36	1636.03
594.52	1586.88
594.68	1521.35
594.84	1596.25
594.99	1692.21
595.15	1668.80
595.31	1685.19
595.47	1741.36
595.62	1629.01
595.78	1717.95
595.94	1715.61
596.10	1839.66
596.25	1673.48
596.41	1727.32
596.57	1629.01
596.73	1703.91
596.88	1671.14
597.04	1722.63
597.20	1746.04
597.36	1652.42
597.51	1713.27
597.67	1682.85
597.83	1795.19
597.99	1739.02
598.14	1729.66
598.30	1689.87
598.46	1750.72
598.61	1846.68
598.77	1755.40
598.93	1830.30
599.09	1816.26
599.24	1865.41
599.40	1842.00
599.56	1797.53
599.71	1816.26
599.87	1806.89
600.03	1729.66
