SpectraSuite Data File
++++++++++++++++++++++++++++++++++++
Date: Fri Oct 04 11:41:49 GMT-05:00 2013
User: price-jones
Dark Spectrum Present: No
Reference Spectrum Present: No
Number of Sampled Component Spectra: 1
Spectrometers: USB2+H05261
Integration Time (usec): 100000 (USB2+H05261)
Spectra Averaged: 1 (USB2+H05261)
Boxcar Smoothing: 0 (USB2+H05261)
Correct for Electrical Dark: No (USB2+H05261)
Strobe/Lamp Enabled: No (USB2+H05261)
Correct for Detector Non-linearity: No (USB2+H05261)
Correct for Stray Light: No (USB2+H05261)
Number of Pixels in Processed Spectrum: 2048
>>>>>Begin Processed Spectral Data<<<<<
365.73	42.13
365.92	42.13
366.12	42.13
366.32	0.00
366.52	0.00
366.72	0.00
366.91	0.00
367.11	0.00
367.31	0.00
367.51	0.00
367.70	7.02
367.90	0.00
368.10	0.00
368.30	0.00
368.49	0.00
368.69	0.00
368.89	9.36
369.09	0.00
369.28	0.00
369.48	30.43
369.68	0.00
369.87	0.00
370.07	25.75
370.27	0.00
370.47	23.41
370.66	95.96
370.86	0.00
371.06	98.30
371.25	114.69
371.45	100.64
371.65	168.52
371.84	16.38
372.04	18.72
372.24	175.54
372.44	37.45
372.63	77.24
372.83	124.05
373.03	93.62
373.22	112.35
373.42	147.45
373.62	133.41
373.81	149.79
374.01	145.11
374.21	163.84
374.40	166.18
374.60	105.32
374.79	168.52
374.99	138.09
375.19	112.35
375.38	154.48
375.58	138.09
375.78	191.92
375.97	175.54
376.17	227.03
376.37	105.32
376.56	98.30
376.76	191.92
376.95	110.01
377.15	182.56
377.35	117.03
377.54	100.64
377.74	124.05
377.93	131.07
378.13	154.48
378.33	173.20
378.52	142.77
378.72	135.75
378.91	217.67
379.11	159.16
379.31	79.58
379.50	128.73
379.70	163.84
379.89	170.86
380.09	159.16
380.28	114.69
380.48	124.05
380.68	126.39
380.87	100.64
381.07	112.35
381.26	161.50
381.46	95.96
381.65	112.35
381.85	119.37
382.04	110.01
382.24	126.39
382.43	117.03
382.63	30.43
382.83	51.49
383.02	142.77
383.22	227.03
383.41	100.64
383.61	154.48
383.80	95.96
384.00	128.73
384.19	49.15
384.39	145.11
384.58	114.69
384.78	105.32
384.97	110.01
385.17	128.73
385.36	110.01
385.56	86.60
385.75	187.24
385.95	168.52
386.14	91.28
386.34	86.60
386.53	191.92
386.72	128.73
386.92	163.84
387.11	163.84
387.31	142.77
387.50	142.77
387.70	112.35
387.89	110.01
388.09	110.01
388.28	79.58
388.48	37.45
388.67	95.96
388.86	102.98
389.06	159.16
389.25	131.07
389.45	180.22
389.64	147.45
389.84	140.43
390.03	138.09
390.22	140.43
390.42	91.28
390.61	168.52
390.81	126.39
391.00	114.69
391.19	110.01
391.39	182.56
391.58	110.01
391.78	177.88
391.97	194.26
392.16	114.69
392.36	95.96
392.55	147.45
392.75	79.58
392.94	114.69
393.13	98.30
393.33	124.05
393.52	133.41
393.71	156.82
393.91	168.52
394.10	133.41
394.29	163.84
394.49	163.84
394.68	117.03
394.88	161.50
395.07	149.79
395.26	79.58
395.46	119.37
395.65	154.48
395.84	191.92
396.04	175.54
396.23	191.92
396.42	112.35
396.62	21.06
396.81	147.45
397.00	121.71
397.19	191.92
397.39	138.09
397.58	198.95
397.77	149.79
397.97	168.52
398.16	173.20
398.35	133.41
398.55	126.39
398.74	135.75
398.93	243.42
399.12	142.77
399.32	131.07
399.51	180.22
399.70	149.79
399.90	126.39
400.09	117.03
400.28	133.41
400.47	117.03
400.67	154.48
400.86	166.18
401.05	241.08
401.24	173.20
401.44	177.88
401.63	180.22
401.82	212.99
402.01	184.90
402.21	208.31
402.40	269.16
402.59	177.88
402.78	231.71
402.97	205.97
403.17	255.12
403.36	266.82
403.55	367.46
403.74	784.08
403.93	2293.72
404.13	5919.21
404.32	10235.16
404.51	11365.64
404.70	7501.42
404.89	2602.68
405.09	751.31
405.28	402.57
405.47	355.76
405.66	287.89
405.85	280.86
406.05	203.63
406.24	238.73
406.43	264.48
406.62	264.48
406.81	290.23
407.00	318.31
407.20	760.67
407.39	1303.68
407.58	1643.06
407.77	1277.93
407.96	599.18
408.15	313.63
408.34	259.80
408.54	241.08
408.73	217.67
408.92	252.78
409.11	238.73
409.30	198.95
409.49	231.71
409.68	259.80
409.87	163.84
410.07	191.92
410.26	227.03
410.45	182.56
410.64	273.84
410.83	250.44
411.02	241.08
411.21	166.18
411.40	250.44
411.59	257.46
411.78	245.76
411.98	198.95
412.17	198.95
412.36	220.01
412.55	222.35
412.74	205.97
412.93	208.31
413.12	210.65
413.31	299.59
413.50	348.74
413.69	264.48
413.88	315.97
414.07	257.46
414.26	210.65
414.45	215.33
414.64	273.84
414.83	299.59
415.02	318.31
415.22	332.36
415.41	311.29
415.60	266.82
415.79	248.10
415.98	337.04
416.17	262.14
416.36	301.93
416.55	313.63
416.74	339.38
416.93	351.08
417.12	353.42
417.31	278.52
417.50	325.33
417.69	327.68
417.88	320.65
418.07	330.02
418.26	290.23
418.45	327.68
418.64	299.59
418.83	262.14
419.02	332.36
419.21	259.80
419.39	374.49
419.58	348.74
419.77	320.65
419.96	346.40
420.15	360.44
420.34	285.55
420.53	341.72
420.72	271.50
420.91	383.85
421.10	299.59
421.29	376.83
421.48	346.40
421.67	351.08
421.86	348.74
422.05	355.76
422.24	416.62
422.43	315.97
422.61	360.44
422.80	367.46
422.99	304.27
423.18	283.20
423.37	355.76
423.56	248.10
423.75	397.89
423.94	325.33
424.13	290.23
424.32	315.97
424.50	421.30
424.69	433.00
424.88	393.21
425.07	341.72
425.26	407.25
425.45	376.83
425.64	311.29
425.83	376.83
426.01	430.66
426.20	430.66
426.39	414.27
426.58	400.23
426.77	365.12
426.96	456.40
427.15	402.57
427.33	421.30
427.52	477.47
427.71	411.93
427.90	479.81
428.09	393.21
428.28	386.19
428.46	447.04
428.65	430.66
428.84	477.47
429.03	552.37
429.22	423.64
429.40	397.89
429.59	463.43
429.78	470.45
429.97	461.09
430.16	442.36
430.34	461.09
430.53	444.70
430.72	517.26
430.91	449.38
431.10	512.58
431.28	521.94
431.47	538.32
431.66	540.66
431.85	430.66
432.03	585.13
432.22	596.84
432.41	585.13
432.60	552.37
432.79	571.09
432.97	608.54
433.16	615.56
433.35	634.29
433.54	849.61
433.72	964.30
433.91	943.24
434.10	905.79
434.28	1062.60
434.47	1324.74
434.66	1516.67
434.85	1708.59
435.03	3941.46
435.22	14427.06
435.41	37099.83
435.59	51774.99
435.78	42756.91
435.97	18979.40
436.16	6773.51
436.34	2267.98
436.53	1247.51
436.72	964.30
436.90	882.38
437.09	807.48
437.28	711.52
437.46	695.14
437.65	755.99
437.84	648.33
438.02	678.76
438.21	727.91
438.40	664.71
438.58	669.39
438.77	720.88
438.96	636.63
439.14	571.09
439.33	641.31
439.52	655.35
439.70	592.16
439.89	580.45
440.08	678.76
440.26	650.67
440.45	706.84
440.63	645.99
440.82	594.50
441.01	699.82
441.19	636.63
441.38	547.69
441.57	674.07
441.75	653.01
441.94	636.63
442.12	582.79
442.31	671.73
442.50	575.77
442.68	650.67
442.87	716.20
443.05	653.01
443.24	671.73
443.43	739.61
443.61	638.97
443.80	699.82
443.98	624.92
444.17	564.07
444.35	585.13
444.54	603.86
444.73	699.82
444.91	582.79
445.10	552.37
445.28	669.39
445.47	603.86
445.65	643.65
445.84	641.31
446.02	636.63
446.21	550.03
446.39	603.86
446.58	566.41
446.77	613.22
446.95	653.01
447.14	575.77
447.32	685.78
447.51	660.03
447.69	624.92
447.88	692.80
448.06	606.20
448.25	636.63
448.43	592.16
448.62	564.07
448.80	622.58
448.99	575.77
449.17	512.58
449.36	575.77
449.54	648.33
449.73	643.65
449.91	568.75
450.10	550.03
450.28	683.44
450.46	636.63
450.65	624.92
450.83	653.01
451.02	645.99
451.20	676.41
451.39	648.33
451.57	550.03
451.76	571.09
451.94	655.35
452.13	634.29
452.31	601.52
452.49	603.86
452.68	538.32
452.86	645.99
453.05	674.07
453.23	662.37
453.42	601.52
453.60	559.39
453.78	533.64
453.97	575.77
454.15	592.16
454.34	573.43
454.52	557.05
454.70	622.58
454.89	585.13
455.07	571.09
455.26	622.58
455.44	629.60
455.62	650.67
455.81	575.77
455.99	664.71
456.17	571.09
456.36	519.60
456.54	554.71
456.73	561.73
456.91	589.82
457.09	543.00
457.28	690.46
457.46	573.43
457.64	676.41
457.83	660.03
458.01	498.53
458.19	669.39
458.38	573.43
458.56	528.96
458.74	580.45
458.93	615.56
459.11	622.58
459.29	578.11
459.48	592.16
459.66	615.56
459.84	608.54
460.03	699.82
460.21	582.79
460.39	606.20
460.57	613.22
460.76	566.41
460.94	613.22
461.12	638.97
461.31	538.32
461.49	561.73
461.67	681.10
461.85	653.01
462.04	606.20
462.22	1095.37
462.40	578.11
462.59	622.58
462.77	571.09
462.95	573.43
463.13	601.52
463.32	533.64
463.50	657.69
463.68	566.41
463.86	601.52
464.05	540.66
464.23	636.63
464.41	624.92
464.59	535.98
464.78	552.37
464.96	664.71
465.14	606.20
465.32	657.69
465.50	538.32
465.69	533.64
465.87	510.24
466.05	622.58
466.23	505.56
466.41	638.97
466.60	664.71
466.78	699.82
466.96	617.90
467.14	674.07
467.32	629.60
467.51	695.14
467.69	678.76
467.87	573.43
468.05	510.24
468.23	512.58
468.41	573.43
468.60	517.26
468.78	510.24
468.96	608.54
469.14	566.41
469.32	585.13
469.50	486.83
469.69	479.81
469.87	571.09
470.05	496.19
470.23	524.28
470.41	437.68
470.59	557.05
470.77	503.22
470.95	561.73
471.14	547.69
471.32	468.11
471.50	627.26
471.68	599.18
471.86	610.88
472.04	514.92
472.22	449.38
472.40	512.58
472.58	629.60
472.77	596.84
472.95	528.96
473.13	674.07
473.31	622.58
473.49	463.43
473.67	533.64
473.85	538.32
474.03	587.47
474.21	519.60
474.39	608.54
474.57	641.31
474.75	491.51
474.93	622.58
475.12	496.19
475.30	510.24
475.48	500.87
475.66	496.19
475.84	554.71
476.02	552.37
476.20	557.05
476.38	503.22
476.56	599.18
476.74	582.79
476.92	533.64
477.10	507.90
477.28	615.56
477.46	601.52
477.64	573.43
477.82	655.35
478.00	566.41
478.18	573.43
478.36	664.71
478.54	622.58
478.72	676.41
478.90	711.52
479.08	660.03
479.26	678.76
479.44	709.18
479.62	805.14
479.80	772.38
479.98	688.12
480.16	898.77
480.34	828.55
480.52	912.81
480.70	976.00
480.88	954.94
481.06	1020.47
481.24	1062.60
481.41	1125.80
481.59	1137.50
481.77	1188.99
481.95	1291.98
482.13	1481.56
482.31	1380.92
482.49	1584.54
482.67	1689.87
482.85	1743.70
483.03	1895.83
483.21	2038.61
483.39	2190.74
483.57	2216.49
483.74	2422.45
483.92	2644.81
484.10	2796.94
484.28	2951.42
484.46	3063.76
484.64	3267.39
484.82	3258.03
485.00	3452.29
485.18	3768.26
485.35	3950.82
485.53	4156.79
485.71	4512.55
485.89	4594.47
486.07	4746.61
486.25	4816.82
486.43	4851.93
486.61	4774.69
486.78	4784.06
486.96	4741.93
487.14	4847.25
487.32	4741.93
487.50	4823.84
487.68	4760.65
487.85	4582.77
488.03	4493.83
488.21	4486.81
488.39	4435.32
488.57	4266.80
488.75	4248.07
488.92	4430.63
489.10	4063.17
489.28	3932.10
489.46	3948.48
489.64	3684.00
489.81	3784.65
489.99	3803.37
490.17	3597.40
490.35	3625.49
490.53	3609.11
490.70	3583.36
490.88	3496.76
491.06	3669.96
491.24	3927.42
491.41	4114.66
491.59	4007.00
491.77	3581.02
491.95	3332.92
492.13	3136.32
492.30	3234.62
492.48	3129.30
492.66	3173.77
492.84	3075.46
493.01	2949.08
493.19	3105.89
493.37	3089.51
493.54	2885.88
493.72	2981.84
493.90	2848.43
494.08	2874.18
494.25	2745.45
494.43	2874.18
494.61	2663.53
494.79	2621.40
494.96	2626.08
495.14	2637.78
495.32	2574.59
495.49	2462.24
495.67	2466.92
495.85	2520.76
496.02	2420.11
496.20	2340.54
496.38	2368.62
496.55	2256.28
496.73	2286.70
496.91	2087.76
497.09	2183.72
497.26	2113.50
497.44	2134.57
497.62	2062.01
497.79	2090.10
497.97	1980.09
498.14	1963.71
498.32	1811.57
498.50	1851.36
498.67	1706.25
498.85	1696.89
499.03	1629.01
499.20	1575.18
499.38	1614.97
499.56	1598.59
499.73	1558.80
499.91	1610.29
500.08	1624.33
500.26	1385.60
500.44	1460.49
500.61	1341.13
500.79	1282.61
500.97	1254.53
501.14	1188.99
501.32	1207.72
501.49	1158.57
501.67	1163.25
501.84	1109.41
502.02	1071.97
502.20	1158.57
502.37	1078.99
502.55	961.96
502.72	971.32
502.90	1020.47
503.07	912.81
503.25	833.23
503.43	929.19
503.60	758.33
503.78	870.68
503.95	842.59
504.13	760.67
504.30	774.72
504.48	746.63
504.65	753.65
504.83	807.48
505.01	720.88
505.18	770.04
505.36	741.95
505.53	755.99
505.71	690.46
505.88	727.91
506.06	690.46
506.23	641.31
506.41	610.88
506.58	610.88
506.76	664.71
506.93	671.73
507.11	557.05
507.28	624.92
507.46	589.82
507.63	653.01
507.81	500.87
507.98	716.20
508.16	601.52
508.33	620.24
508.50	655.35
508.68	737.27
508.85	648.33
509.03	716.20
509.20	716.20
509.38	669.39
509.55	739.61
509.73	662.37
509.90	695.14
510.08	552.37
510.25	643.65
510.42	491.51
510.60	543.00
510.77	566.41
510.95	510.24
511.12	519.60
511.30	645.99
511.47	589.82
511.64	662.37
511.82	444.70
511.99	594.50
512.17	559.39
512.34	526.62
512.51	517.26
512.69	641.31
512.86	557.05
513.04	521.94
513.21	500.87
513.38	540.66
513.56	526.62
513.73	566.41
513.90	442.36
514.08	418.96
514.25	444.70
514.43	517.26
514.60	498.53
514.77	479.81
514.95	430.66
515.12	425.98
515.29	507.90
515.47	454.06
515.64	393.21
515.81	416.62
515.99	505.56
516.16	472.79
516.33	538.32
516.51	477.47
516.68	447.04
516.85	505.56
517.03	454.06
517.20	409.59
517.37	507.90
517.54	486.83
517.72	365.12
517.89	327.68
518.06	414.27
518.24	507.90
518.41	498.53
518.58	482.15
518.75	440.02
518.93	423.64
519.10	477.47
519.27	315.97
519.45	496.19
519.62	433.00
519.79	475.13
519.96	400.23
520.14	463.43
520.31	489.17
520.48	402.57
520.65	411.93
520.83	322.99
521.00	449.38
521.17	367.46
521.34	456.40
521.52	402.57
521.69	393.21
521.86	390.87
522.03	418.96
522.20	456.40
522.38	477.47
522.55	430.66
522.72	435.34
522.89	479.81
523.07	489.17
523.24	416.62
523.41	440.02
523.58	477.47
523.75	379.17
523.92	411.93
524.10	425.98
524.27	423.64
524.44	425.98
524.61	433.00
524.78	428.32
524.96	468.11
525.13	503.22
525.30	528.96
525.47	484.49
525.64	418.96
525.81	512.58
525.98	517.26
526.16	463.43
526.33	491.51
526.50	425.98
526.67	421.30
526.84	486.83
527.01	575.77
527.18	547.69
527.36	517.26
527.53	634.29
527.70	568.75
527.87	636.63
528.04	564.07
528.21	585.13
528.38	554.71
528.55	493.85
528.72	568.75
528.89	580.45
529.07	594.50
529.24	594.50
529.41	622.58
529.58	648.33
529.75	638.97
529.92	678.76
530.09	697.48
530.26	676.41
530.43	692.80
530.60	713.86
530.77	627.26
530.94	751.31
531.11	730.25
531.28	746.63
531.46	748.97
531.63	880.04
531.80	851.96
531.97	887.06
532.14	978.34
532.31	1242.82
532.48	1474.54
532.65	1715.61
532.82	1895.83
532.99	2310.11
533.16	2672.89
533.33	2792.26
533.50	2792.26
533.67	2237.55
533.84	2054.99
534.01	1668.80
534.18	1589.22
534.35	1575.18
534.52	1657.10
534.69	1701.57
534.86	1739.02
535.03	1722.63
535.20	1893.49
535.37	1961.37
535.54	2008.18
535.71	2120.53
535.88	2298.41
536.05	2326.49
536.22	2595.65
536.38	2892.90
536.55	3159.72
536.72	3410.16
536.89	3927.42
537.06	4376.80
537.23	4770.01
537.40	5273.23
537.57	5743.67
537.74	6045.60
537.91	6214.12
538.08	6342.85
538.25	6642.44
538.42	6502.01
538.59	6366.26
538.75	6729.04
538.92	7288.43
539.09	7981.23
539.26	8812.12
539.43	9940.26
539.60	11194.78
539.77	12549.95
539.94	14370.89
540.11	15836.06
540.28	17647.64
540.44	19393.68
540.61	21003.97
540.78	23950.70
540.95	28519.43
541.12	34675.04
541.29	40074.65
541.46	42604.77
541.62	42021.98
541.79	40500.63
541.96	37284.73
542.13	35204.00
542.30	31976.40
542.47	30639.95
542.63	28971.15
542.80	28180.05
542.97	27386.61
543.14	27033.19
543.31	27080.00
543.48	27693.22
543.64	27859.40
543.81	27604.28
543.98	27513.00
544.15	28397.72
544.32	28828.38
544.48	28341.55
544.65	28271.33
544.82	28231.54
544.99	27737.69
545.16	28505.38
545.32	29500.11
545.49	41500.04
545.66	60926.49
545.83	65535.00
546.00	65535.00
546.16	63966.84
546.33	47789.06
546.50	36879.82
546.67	29160.73
546.83	25692.06
547.00	24610.73
547.17	23641.75
547.34	22288.92
547.50	21394.84
547.67	20975.88
547.84	20121.59
548.00	19293.04
548.17	18740.67
548.34	17811.48
548.51	17324.65
548.67	15836.06
548.84	15501.37
549.01	14604.94
549.18	13844.27
549.34	13427.65
549.51	12793.37
549.68	12521.87
549.84	11943.75
550.01	11414.79
550.18	10733.70
550.34	10314.74
550.51	9694.50
550.68	9479.17
550.84	8652.96
551.01	8519.55
551.18	7943.78
551.34	7473.33
551.51	7211.19
551.68	7035.65
551.84	6747.76
552.01	6462.22
552.18	6076.03
552.34	6003.47
552.51	5764.74
552.68	5383.23
552.84	5163.22
553.01	4905.76
553.18	4795.76
553.34	4732.56
553.51	4521.92
553.67	4564.04
553.84	4285.52
554.01	4039.76
554.17	3742.52
554.34	3475.70
554.51	3246.32
554.67	2960.78
554.84	2960.78
555.00	2729.06
555.17	2558.21
555.33	2654.17
555.50	2382.67
555.67	2335.85
555.83	2214.15
556.00	2045.63
556.16	2134.57
556.33	1891.15
556.50	1905.20
556.66	1846.68
556.83	1771.79
556.99	1717.95
557.16	1619.65
557.32	1558.80
557.49	1511.99
557.65	1549.43
557.82	1430.07
557.98	1476.88
558.15	1378.58
558.32	1385.60
558.48	1348.15
558.65	1249.85
558.81	1294.32
558.98	1266.23
559.14	1224.10
559.31	1174.95
559.47	1156.22
559.64	1135.16
559.80	1144.52
559.97	1128.14
560.13	1144.52
560.30	1132.82
560.46	1170.27
560.63	1118.78
560.79	1102.39
560.96	1097.71
561.12	1181.97
561.29	1078.99
561.45	1018.13
561.61	1074.31
561.78	1158.57
561.94	1146.86
562.11	1069.62
562.27	994.73
562.44	1100.05
562.60	1046.22
562.77	1025.15
562.93	1057.92
563.10	983.02
563.26	952.60
563.42	1032.18
563.59	931.53
563.75	943.24
563.92	938.55
564.08	882.38
564.24	919.83
564.41	938.55
564.57	898.77
564.74	877.70
564.90	903.45
565.07	889.40
565.23	891.74
565.39	849.61
565.56	779.40
565.72	793.44
565.88	798.12
566.05	741.95
566.21	791.10
566.38	901.11
566.54	861.32
566.70	800.46
566.87	816.85
567.03	833.23
567.19	795.78
567.36	926.85
567.52	781.74
567.68	847.27
567.85	891.74
568.01	816.85
568.17	891.74
568.34	947.92
568.50	856.64
568.66	924.51
568.83	894.08
568.99	823.87
569.15	798.12
569.32	823.87
569.48	716.20
569.64	746.63
569.81	753.65
569.97	697.48
570.13	636.63
570.30	695.14
570.46	681.10
570.62	578.11
570.78	638.97
570.95	610.88
571.11	645.99
571.27	585.13
571.43	540.66
571.60	648.33
571.76	596.84
571.92	653.01
572.09	594.50
572.25	681.10
572.41	636.63
572.57	596.84
572.74	681.10
572.90	685.78
573.06	610.88
573.22	711.52
573.38	538.32
573.55	650.67
573.71	685.78
573.87	720.88
574.03	634.29
574.20	674.07
574.36	744.29
574.52	802.80
574.68	753.65
574.84	830.89
575.01	805.14
575.17	978.34
575.33	966.64
575.49	1013.45
575.65	1158.57
575.82	1156.22
575.98	1245.16
576.14	1299.00
576.30	2387.35
576.46	7597.38
576.62	15786.91
576.79	24357.96
576.95	16547.59
577.11	9778.76
577.27	6600.31
577.43	4365.10
577.59	2787.58
577.75	2181.38
577.92	1856.04
578.08	1858.39
578.24	1879.45
578.40	2916.31
578.56	7084.80
578.72	14768.78
578.88	22672.77
579.04	16114.59
579.21	9418.32
579.37	6595.63
579.53	5116.41
579.69	4695.11
579.85	5865.38
580.01	7236.94
580.17	7452.27
580.33	6235.19
580.49	5266.21
580.65	4524.26
580.82	4049.13
580.98	3999.98
581.14	4138.07
581.30	4168.49
581.46	4603.83
581.62	4901.08
581.78	5242.80
581.94	5832.62
582.10	6052.63
582.26	6221.14
582.42	6672.87
582.58	6970.12
582.74	7007.56
582.90	7061.40
583.06	7129.27
583.22	7124.59
583.38	7082.46
583.54	6911.60
583.70	6871.81
583.86	6906.92
584.02	6745.42
584.18	6679.89
584.34	6644.78
584.50	6347.53
584.66	6338.17
584.82	6422.43
584.98	6155.61
585.14	6221.14
585.30	5902.83
585.46	5987.09
585.62	5570.48
585.78	5893.47
585.94	5694.52
586.10	5914.53
586.26	6244.55
586.42	6986.50
586.58	7857.18
586.74	10087.71
586.90	12301.86
587.06	14071.30
587.22	14422.38
587.38	12952.52
587.54	10916.26
587.70	9188.94
587.86	7847.82
588.02	6567.54
588.18	5764.74
588.34	5235.78
588.49	4648.30
588.65	4421.27
588.81	4191.90
588.97	4053.81
589.13	4037.42
589.29	3997.64
589.45	3896.99
589.61	3861.88
589.77	3892.31
589.93	3927.42
590.08	3985.93
590.24	4023.38
590.40	4311.27
590.56	4498.51
590.72	4428.29
590.88	4704.48
591.04	4741.93
591.20	5039.17
591.35	4975.98
591.51	5551.75
591.67	5551.75
591.83	6045.60
591.99	6403.71
592.15	6874.15
592.31	7892.29
592.46	8311.24
592.62	9076.60
592.78	9720.24
592.94	10061.96
593.10	9944.94
593.26	9551.73
593.41	9071.92
593.57	7918.03
593.73	7037.99
593.89	6312.42
594.05	5722.61
594.20	4973.64
594.36	4432.97
594.52	4156.79
594.68	4051.47
594.84	3747.20
594.99	3644.21
595.15	3623.15
595.31	3454.63
595.47	3283.77
595.62	3356.33
595.78	3454.63
595.94	3468.67
596.10	3506.12
596.25	3499.10
596.41	3541.23
596.57	3344.63
596.73	3405.48
596.88	3428.88
597.04	3267.39
597.20	3344.63
597.36	3496.76
597.51	3606.77
597.67	3688.68
597.83	3873.59
597.99	4294.88
598.14	4404.89
598.30	4704.48
598.46	4751.29
598.61	5423.02
598.77	5542.39
598.93	5687.50
599.09	5839.64
599.24	6031.56
599.40	5933.26
599.56	5729.63
599.71	5373.87
599.87	5277.91
600.03	4814.48
600.18	4573.41
600.34	4140.41
600.50	4053.81
600.65	3733.15
600.81	3576.34
600.97	3368.03
601.12	3166.74
601.28	3033.33
601.44	2988.86
601.59	2738.43
601.75	2724.38
601.91	2478.63
602.06	2413.09
602.22	2422.45
602.37	2207.13
602.53	2289.04
602.69	2256.28
602.84	2087.76
603.00	2275.00
603.16	2296.07
603.31	2326.49
603.47	2389.69
603.62	2293.72
603.78	2410.75
603.94	2513.74
604.09	2473.95
604.25	2567.57
