SpectraSuite Data File
++++++++++++++++++++++++++++++++++++
Date: Fri Oct 04 11:42:02 GMT-05:00 2013
User: price-jones
Dark Spectrum Present: No
Reference Spectrum Present: No
Number of Sampled Component Spectra: 1
Spectrometers: USB2+H05261
Integration Time (usec): 100000 (USB2+H05261)
Spectra Averaged: 1 (USB2+H05261)
Boxcar Smoothing: 0 (USB2+H05261)
Correct for Electrical Dark: No (USB2+H05261)
Strobe/Lamp Enabled: No (USB2+H05261)
Correct for Detector Non-linearity: No (USB2+H05261)
Correct for Stray Light: No (USB2+H05261)
Number of Pixels in Processed Spectrum: 2048
>>>>>Begin Processed Spectral Data<<<<<
365.73	51.49
365.92	51.49
366.12	51.49
366.32	0.00
366.52	0.00
366.72	0.00
366.91	0.00
367.11	0.00
367.31	4.68
367.51	0.00
367.70	0.00
367.90	2.34
368.10	0.00
368.30	0.00
368.49	0.00
368.69	0.00
368.89	0.00
369.09	0.00
369.28	0.00
369.48	0.00
369.68	0.00
369.87	46.81
370.07	7.02
370.27	30.43
370.47	63.19
370.66	0.00
370.86	25.75
371.06	79.58
371.25	124.05
371.45	51.49
371.65	100.64
371.84	11.70
372.04	37.45
372.24	100.64
372.44	124.05
372.63	114.69
372.83	166.18
373.03	121.71
373.22	56.17
373.42	95.96
373.62	126.39
373.81	203.63
374.01	145.11
374.21	161.50
374.40	112.35
374.60	107.66
374.79	147.45
374.99	187.24
375.19	147.45
375.38	100.64
375.58	215.33
375.78	117.03
375.97	133.41
376.17	149.79
376.37	105.32
376.56	152.13
376.76	124.05
376.95	102.98
377.15	124.05
377.35	81.92
377.54	149.79
377.74	140.43
377.93	84.26
378.13	91.28
378.33	110.01
378.52	126.39
378.72	222.35
378.91	142.77
379.11	126.39
379.31	119.37
379.50	65.54
379.70	135.75
379.89	196.60
380.09	152.13
380.28	88.94
380.48	84.26
380.68	79.58
380.87	77.24
381.07	91.28
381.26	100.64
381.46	95.96
381.65	145.11
381.85	79.58
382.04	126.39
382.24	161.50
382.43	196.60
382.63	112.35
382.83	112.35
383.02	173.20
383.22	191.92
383.41	128.73
383.61	102.98
383.80	205.97
384.00	86.60
384.19	58.51
384.39	67.88
384.58	177.88
384.78	138.09
384.97	189.58
385.17	124.05
385.36	77.24
385.56	229.37
385.75	149.79
385.95	91.28
386.14	248.10
386.34	121.71
386.53	119.37
386.72	135.75
386.92	222.35
387.11	208.31
387.31	79.58
387.50	138.09
387.70	124.05
387.89	70.22
388.09	102.98
388.28	74.90
388.48	74.90
388.67	93.62
388.86	182.56
389.06	149.79
389.25	166.18
389.45	149.79
389.64	147.45
389.84	124.05
390.03	182.56
390.22	166.18
390.42	152.13
390.61	154.48
390.81	105.32
391.00	105.32
391.19	163.84
391.39	91.28
391.58	205.97
391.78	107.66
391.97	156.82
392.16	135.75
392.36	175.54
392.55	74.90
392.75	119.37
392.94	175.54
393.13	133.41
393.33	39.79
393.52	131.07
393.71	142.77
393.91	180.22
394.10	210.65
394.29	107.66
394.49	93.62
394.68	79.58
394.88	110.01
395.07	182.56
395.26	140.43
395.46	107.66
395.65	102.98
395.84	140.43
396.04	182.56
396.23	182.56
396.42	184.90
396.62	119.37
396.81	84.26
397.00	170.86
397.19	177.88
397.39	138.09
397.58	117.03
397.77	79.58
397.97	138.09
398.16	124.05
398.35	135.75
398.55	117.03
398.74	133.41
398.93	210.65
399.12	102.98
399.32	196.60
399.51	91.28
399.70	156.82
399.90	147.45
400.09	180.22
400.28	215.33
400.47	210.65
400.67	210.65
400.86	198.95
401.05	208.31
401.24	170.86
401.44	189.58
401.63	184.90
401.82	227.03
402.01	245.76
402.21	208.31
402.40	238.73
402.59	227.03
402.78	248.10
402.97	203.63
403.17	220.01
403.36	250.44
403.55	358.10
403.74	676.41
403.93	2197.76
404.13	5727.29
404.32	9481.51
404.51	10312.40
404.70	6279.66
404.89	2298.41
405.09	596.84
405.28	341.72
405.47	236.39
405.66	273.84
405.85	301.93
406.05	248.10
406.24	182.56
406.43	191.92
406.62	194.26
406.81	285.55
407.00	330.02
407.20	772.38
407.39	1238.14
407.58	1521.35
407.77	1093.03
407.96	620.24
408.15	287.89
408.34	252.78
408.54	241.08
408.73	241.08
408.92	163.84
409.11	241.08
409.30	205.97
409.49	133.41
409.68	161.50
409.87	191.92
410.07	180.22
410.26	166.18
410.45	184.90
410.64	248.10
410.83	184.90
411.02	252.78
411.21	325.33
411.40	238.73
411.59	194.26
411.78	234.05
411.98	189.58
412.17	315.97
412.36	245.76
412.55	252.78
412.74	217.67
412.93	229.37
413.12	283.20
413.31	287.89
413.50	264.48
413.69	243.42
413.88	231.71
414.07	262.14
414.26	208.31
414.45	276.18
414.64	290.23
414.83	264.48
415.02	320.65
415.22	285.55
415.41	304.27
415.60	238.73
415.79	318.31
415.98	330.02
416.17	285.55
416.36	308.95
416.55	266.82
416.74	318.31
416.93	327.68
417.12	351.08
417.31	304.27
417.50	294.91
417.69	306.61
417.88	325.33
418.07	292.57
418.26	280.86
418.45	353.42
418.64	400.23
418.83	369.80
419.02	337.04
419.21	304.27
419.39	348.74
419.58	332.36
419.77	299.59
419.96	362.78
420.15	341.72
420.34	346.40
420.53	341.72
420.72	334.70
420.91	369.80
421.10	325.33
421.29	353.42
421.48	353.42
421.67	325.33
421.86	262.14
422.05	330.02
422.24	341.72
422.43	346.40
422.61	374.49
422.80	325.33
422.99	315.97
423.18	337.04
423.37	379.17
423.56	334.70
423.75	379.17
423.94	297.25
424.13	346.40
424.32	311.29
424.50	381.51
424.69	381.51
424.88	411.93
425.07	365.12
425.26	369.80
425.45	414.27
425.64	358.10
425.83	311.29
426.01	386.19
426.20	411.93
426.39	388.53
426.58	386.19
426.77	423.64
426.96	468.11
427.15	388.53
427.33	374.49
427.52	386.19
427.71	463.43
427.90	400.23
428.09	379.17
428.28	512.58
428.46	376.83
428.65	463.43
428.84	496.19
429.03	505.56
429.22	402.57
429.40	407.25
429.59	482.15
429.78	514.92
429.97	421.30
430.16	449.38
430.34	437.68
430.53	376.83
430.72	397.89
430.91	475.13
431.10	491.51
431.28	500.87
431.47	507.90
431.66	554.71
431.85	407.25
432.03	477.47
432.22	454.06
432.41	477.47
432.60	543.00
432.79	543.00
432.97	634.29
433.16	580.45
433.35	641.31
433.54	767.70
433.72	945.58
433.91	779.40
434.10	814.51
434.28	1060.26
434.47	1273.25
434.66	1469.86
434.85	1654.76
435.03	3716.77
435.22	13764.69
435.41	35257.83
435.59	48858.68
435.78	36147.23
435.97	16372.05
436.16	6059.65
436.34	2026.90
436.53	1186.65
436.72	973.66
436.90	798.12
437.09	741.95
437.28	720.88
437.46	636.63
437.65	716.20
437.84	634.29
438.02	688.12
438.21	606.20
438.40	610.88
438.58	636.63
438.77	685.78
438.96	641.31
439.14	571.09
439.33	624.92
439.52	610.88
439.70	552.37
439.89	610.88
440.08	538.32
440.26	538.32
440.45	554.71
440.63	550.03
440.82	631.94
441.01	491.51
441.19	615.56
441.38	559.39
441.57	594.50
441.75	568.75
441.94	617.90
442.12	573.43
442.31	624.92
442.50	578.11
442.68	603.86
442.87	589.82
443.05	638.97
443.24	552.37
443.43	629.60
443.61	627.26
443.80	624.92
443.98	543.00
444.17	503.22
444.35	648.33
444.54	636.63
444.73	500.87
444.91	582.79
445.10	507.90
445.28	561.73
445.47	645.99
445.65	573.43
445.84	447.04
446.02	566.41
446.21	547.69
446.39	517.26
446.58	568.75
446.77	653.01
446.95	676.41
447.14	566.41
447.32	589.82
447.51	550.03
447.69	580.45
447.88	589.82
448.06	545.34
448.25	582.79
448.43	519.60
448.62	561.73
448.80	575.77
448.99	538.32
449.17	557.05
449.36	503.22
449.54	463.43
449.73	561.73
449.91	493.85
450.10	500.87
450.28	566.41
450.46	606.20
450.65	655.35
450.83	587.47
451.02	552.37
451.20	603.86
451.39	599.18
451.57	617.90
451.76	514.92
451.94	624.92
452.13	526.62
452.31	561.73
452.49	634.29
452.68	512.58
452.86	531.30
453.05	655.35
453.23	564.07
453.42	554.71
453.60	475.13
453.78	505.56
453.97	496.19
454.15	559.39
454.34	554.71
454.52	505.56
454.70	557.05
454.89	489.17
455.07	524.28
455.26	554.71
455.44	535.98
455.62	547.69
455.81	514.92
455.99	552.37
456.17	517.26
456.36	617.90
456.54	528.96
456.73	575.77
456.91	585.13
457.09	601.52
457.28	543.00
457.46	547.69
457.64	573.43
457.83	627.26
458.01	571.09
458.19	578.11
458.38	627.26
458.56	580.45
458.74	484.49
458.93	496.19
459.11	561.73
459.29	498.53
459.48	580.45
459.66	634.29
459.84	566.41
460.03	592.16
460.21	496.19
460.39	557.05
460.57	543.00
460.76	477.47
460.94	568.75
461.12	615.56
461.31	578.11
461.49	561.73
461.67	444.70
461.85	510.24
462.04	622.58
462.22	1064.94
462.40	552.37
462.59	505.56
462.77	540.66
462.95	547.69
463.13	477.47
463.32	550.03
463.50	545.34
463.68	503.22
463.86	538.32
464.05	533.64
464.23	603.86
464.41	592.16
464.59	505.56
464.78	566.41
464.96	528.96
465.14	543.00
465.32	472.79
465.50	564.07
465.69	505.56
465.87	514.92
466.05	451.72
466.23	512.58
466.41	547.69
466.60	603.86
466.78	627.26
466.96	610.88
467.14	552.37
467.32	631.94
467.51	596.84
467.69	528.96
467.87	571.09
468.05	545.34
468.23	580.45
468.41	564.07
468.60	482.15
468.78	479.81
468.96	444.70
469.14	463.43
469.32	514.92
469.50	477.47
469.69	566.41
469.87	430.66
470.05	557.05
470.23	458.74
470.41	477.47
470.59	538.32
470.77	449.38
470.95	535.98
471.14	557.05
471.32	559.39
471.50	655.35
471.68	573.43
471.86	580.45
472.04	564.07
472.22	528.96
472.40	468.11
472.58	545.34
472.77	528.96
472.95	512.58
473.13	592.16
473.31	557.05
473.49	608.54
473.67	528.96
473.85	596.84
474.03	535.98
474.21	437.68
474.39	517.26
474.57	615.56
474.75	568.75
474.93	484.49
475.12	535.98
475.30	456.40
475.48	491.51
475.66	533.64
475.84	489.17
476.02	444.70
476.20	535.98
476.38	512.58
476.56	582.79
476.74	519.60
476.92	512.58
477.10	613.22
477.28	650.67
477.46	547.69
477.64	552.37
477.82	543.00
478.00	564.07
478.18	624.92
478.36	580.45
478.54	634.29
478.72	711.52
478.90	690.46
479.08	653.01
479.26	734.93
479.44	688.12
479.62	709.18
479.80	683.44
479.98	653.01
480.16	695.14
480.34	744.29
480.52	751.31
480.70	912.81
480.88	887.06
481.06	873.02
481.24	854.30
481.41	997.07
481.59	1093.03
481.77	1144.52
481.95	1196.01
482.13	1210.06
482.31	1291.98
482.49	1425.39
482.67	1528.37
482.85	1563.48
483.03	1893.49
483.21	2026.90
483.39	2057.33
483.57	2143.93
483.74	2270.32
483.92	2392.03
484.10	2368.62
484.28	2633.10
484.46	2787.58
484.64	2981.84
484.82	3014.61
485.00	3377.39
485.18	3407.82
485.35	3639.53
485.53	3850.18
485.71	3981.25
485.89	4039.76
486.07	4191.90
486.25	4276.16
486.43	4236.37
486.61	4327.65
486.78	4400.21
486.96	4283.18
487.14	4262.12
487.32	4278.50
487.50	4318.29
487.68	4135.73
487.85	4189.56
488.03	4170.83
488.21	4159.13
488.39	3885.29
488.57	3861.88
488.75	3901.67
488.92	3878.27
489.10	3679.32
489.28	3618.47
489.46	3494.42
489.64	3403.14
489.81	3255.69
489.99	3335.26
490.17	3260.37
490.35	3274.41
490.53	3138.66
490.70	3199.51
490.88	3157.38
491.06	3332.92
491.24	3576.34
491.41	3564.64
491.59	3524.85
491.77	3225.26
491.95	3077.80
492.13	2967.80
492.30	2991.20
492.48	2846.09
492.66	2897.58
492.84	2789.92
493.01	2834.39
493.19	2602.68
493.37	2747.79
493.54	2686.94
493.72	2626.08
493.90	2583.95
494.08	2581.61
494.25	2567.57
494.43	2483.31
494.61	2410.75
494.79	2420.11
494.96	2335.85
495.14	2410.75
495.32	2324.15
495.49	2209.47
495.67	2169.68
495.85	2228.19
496.02	2143.93
496.20	2008.18
496.38	2003.50
496.55	2108.82
496.73	1991.80
496.91	1998.82
497.09	1933.28
497.26	1996.48
497.44	1853.70
497.62	1893.49
497.79	1912.22
497.97	1818.60
498.14	1748.38
498.32	1685.19
498.50	1666.46
498.67	1586.88
498.85	1568.16
499.03	1486.24
499.20	1488.58
499.38	1519.01
499.56	1476.88
499.73	1462.83
499.91	1472.20
500.08	1455.81
500.26	1336.45
500.44	1280.27
500.61	1158.57
500.79	1165.59
500.97	1193.67
501.14	1137.50
501.32	1071.97
501.49	1078.99
501.67	1004.09
501.84	1015.79
502.02	912.81
502.20	973.66
502.37	908.13
502.55	903.45
502.72	971.32
502.90	978.34
503.07	844.93
503.25	847.27
503.43	844.93
503.60	767.70
503.78	823.87
503.95	744.29
504.13	777.06
504.30	716.20
504.48	760.67
504.65	755.99
504.83	681.10
505.01	674.07
505.18	676.41
505.36	793.44
505.53	655.35
505.71	662.37
505.88	692.80
506.06	615.56
506.23	566.41
506.41	606.20
506.58	589.82
506.76	681.10
506.93	594.50
507.11	601.52
507.28	517.26
507.46	559.39
507.63	526.62
507.81	528.96
507.98	620.24
508.16	545.34
508.33	596.84
508.50	617.90
508.68	599.18
508.85	662.37
509.03	638.97
509.20	720.88
509.38	678.76
509.55	603.86
509.73	575.77
509.90	526.62
510.08	580.45
510.25	512.58
510.42	578.11
510.60	416.62
510.77	500.87
510.95	545.34
511.12	507.90
511.30	500.87
511.47	503.22
511.64	496.19
511.82	540.66
511.99	545.34
512.17	468.11
512.34	510.24
512.51	517.26
512.69	540.66
512.86	540.66
513.04	540.66
513.21	510.24
513.38	475.13
513.56	437.68
513.73	486.83
513.90	498.53
514.08	416.62
514.25	458.74
514.43	489.17
514.60	440.02
514.77	442.36
514.95	353.42
515.12	409.59
515.29	505.56
515.47	503.22
515.64	440.02
515.81	470.45
515.99	463.43
516.16	463.43
516.33	456.40
516.51	454.06
516.68	449.38
516.85	402.57
517.03	451.72
517.20	444.70
517.37	500.87
517.54	440.02
517.72	397.89
517.89	362.78
518.06	367.46
518.24	456.40
518.41	409.59
518.58	486.83
518.75	362.78
518.93	463.43
519.10	454.06
519.27	381.51
519.45	411.93
519.62	365.12
519.79	435.34
519.96	376.83
520.14	517.26
520.31	484.49
520.48	444.70
520.65	411.93
520.83	402.57
521.00	395.55
521.17	402.57
521.34	470.45
521.52	444.70
521.69	397.89
521.86	425.98
522.03	390.87
522.20	404.91
522.38	362.78
522.55	397.89
522.72	475.13
522.89	428.32
523.07	430.66
523.24	454.06
523.41	404.91
523.58	376.83
523.75	449.38
523.92	423.64
524.10	531.30
524.27	472.79
524.44	440.02
524.61	475.13
524.78	397.89
524.96	430.66
525.13	437.68
525.30	461.09
525.47	528.96
525.64	493.85
525.81	538.32
525.98	564.07
526.16	498.53
526.33	423.64
526.50	477.47
526.67	397.89
526.84	571.09
527.01	458.74
527.18	484.49
527.36	629.60
527.53	519.60
527.70	660.03
527.87	510.24
528.04	571.09
528.21	507.90
528.38	552.37
528.55	507.90
528.72	624.92
528.89	582.79
529.07	568.75
529.24	657.69
529.41	631.94
529.58	634.29
529.75	594.50
529.92	528.96
530.09	669.39
530.26	622.58
530.43	697.48
530.60	655.35
530.77	585.13
530.94	706.84
531.11	697.48
531.28	744.29
531.46	751.31
531.63	788.76
531.80	826.21
531.97	863.66
532.14	1050.90
532.31	1188.99
532.48	1364.53
532.65	1577.52
532.82	1774.13
532.99	2097.12
533.16	2534.80
533.33	2621.40
533.50	2422.45
533.67	2101.80
533.84	1750.72
534.01	1479.22
534.18	1446.45
534.35	1404.32
534.52	1441.77
534.69	1437.09
534.86	1523.69
535.03	1661.78
535.20	1612.63
535.37	1865.41
535.54	1832.64
535.71	2026.90
535.88	2097.12
536.05	2209.47
536.22	2307.77
536.38	2668.21
536.55	2750.13
536.72	3075.46
536.89	3438.25
537.06	3831.46
537.23	4369.78
537.40	4751.29
537.57	5097.69
537.74	5329.40
537.91	5643.03
538.08	5895.81
538.25	5813.89
538.42	5713.25
538.59	6040.92
538.75	6183.70
538.92	6635.42
539.09	6984.16
539.26	8182.51
539.43	9039.15
539.60	10232.82
539.77	11417.13
539.94	13177.22
540.11	14441.11
540.28	15749.46
540.44	16912.71
540.61	18920.89
540.78	21591.44
540.95	25490.77
541.12	31402.97
541.29	35892.12
541.46	37694.33
541.62	37724.75
541.79	36704.28
541.96	33965.85
542.13	31393.61
542.30	29565.65
542.47	27044.89
542.63	25450.99
542.80	24680.95
542.97	23960.06
543.14	24212.84
543.31	23936.66
543.48	24823.72
543.64	25015.65
543.81	25127.99
543.98	25209.91
544.15	25348.00
544.32	25280.13
544.48	25238.00
544.65	25516.52
544.82	24858.83
544.99	24807.34
545.16	25317.57
545.32	26590.83
545.49	38110.94
545.66	59065.76
545.83	65535.00
546.00	65535.00
546.16	60987.34
546.33	44304.00
546.50	33610.09
546.67	25876.96
546.83	23466.21
547.00	22317.01
547.17	21010.99
547.34	20208.19
547.50	19262.61
547.67	18817.91
547.84	17568.06
548.00	16905.69
548.17	16739.51
548.34	15695.63
548.51	15199.44
548.67	14516.00
548.84	13806.82
549.01	13184.24
549.18	12594.42
549.34	12102.91
549.51	11548.20
549.68	11201.80
549.84	10602.63
550.01	10216.44
550.18	9823.23
550.34	9191.28
550.51	8828.50
550.68	8549.98
550.84	7943.78
551.01	7796.32
551.18	7220.55
551.34	6715.00
551.51	6445.84
551.68	6286.68
551.84	6143.91
552.01	5724.95
552.18	5507.28
552.34	5373.87
552.51	5083.64
552.68	4917.47
552.84	4531.28
553.01	4374.46
553.18	4411.91
553.34	4290.20
553.51	4212.96
553.67	3981.25
553.84	3744.86
554.01	3646.55
554.17	3386.76
554.34	3122.27
554.51	3061.42
554.67	2836.73
554.84	2670.55
555.00	2506.71
555.17	2368.62
555.33	2197.76
555.50	2195.42
555.67	2090.10
555.83	1919.24
556.00	1987.11
556.16	1998.82
556.33	1811.57
556.50	1734.34
556.66	1645.40
556.83	1472.20
556.99	1621.99
557.16	1549.43
557.32	1526.03
557.49	1535.39
557.65	1322.40
557.82	1252.19
557.98	1306.02
558.15	1294.32
558.32	1203.04
558.48	1132.82
558.65	1179.63
558.81	1294.32
558.98	1083.67
559.14	1093.03
559.31	1139.84
559.47	1146.86
559.64	1027.50
559.80	1111.75
559.97	997.07
560.13	1039.20
560.30	994.73
560.46	1041.54
560.63	926.85
560.79	980.68
560.96	1025.15
561.12	1027.50
561.29	1013.45
561.45	992.39
561.61	964.30
561.78	1050.90
561.94	961.96
562.11	992.39
562.27	987.71
562.44	971.32
562.60	1048.56
562.77	912.81
562.93	987.71
563.10	863.66
563.26	868.34
563.42	947.92
563.59	809.83
563.75	830.89
563.92	908.13
564.08	805.14
564.24	791.10
564.41	863.66
564.57	828.55
564.74	685.78
564.90	844.93
565.07	863.66
565.23	812.17
565.39	767.70
565.56	723.23
565.72	741.95
565.88	767.70
566.05	734.93
566.21	746.63
566.38	737.27
566.54	809.83
566.70	713.86
566.87	779.40
567.03	819.19
567.19	847.27
567.36	704.50
567.52	748.97
567.68	805.14
567.85	828.55
568.01	861.32
568.17	828.55
568.34	760.67
568.50	772.38
568.66	805.14
568.83	898.77
568.99	760.67
569.15	856.64
569.32	777.06
569.48	678.76
569.64	655.35
569.81	667.05
569.97	678.76
570.13	601.52
570.30	585.13
570.46	568.75
570.62	580.45
570.78	547.69
570.95	594.50
571.11	561.73
571.27	594.50
571.43	606.20
571.60	561.73
571.76	580.45
571.92	519.60
572.09	571.09
572.25	624.92
572.41	587.47
572.57	601.52
572.74	613.22
572.90	582.79
573.06	615.56
573.22	599.18
573.38	620.24
573.55	615.56
573.71	629.60
573.87	592.16
574.03	627.26
574.20	713.86
574.36	688.12
574.52	664.71
574.68	763.01
574.84	741.95
575.01	795.78
575.17	809.83
575.33	828.55
575.49	961.96
575.65	1032.18
575.82	1102.39
575.98	1177.29
576.14	1291.98
576.30	2312.45
576.46	7052.03
576.62	14640.05
576.79	20472.67
576.95	14792.19
577.11	8746.58
577.27	5970.71
577.43	3985.93
577.59	2513.74
577.75	2078.40
577.92	1825.62
578.08	1664.12
578.24	1832.64
578.40	2621.40
578.56	6691.59
578.72	13495.53
578.88	19859.45
579.04	13853.63
579.21	8667.00
579.37	6043.26
579.53	4542.98
579.69	4301.90
579.85	5385.57
580.01	6497.33
580.17	6572.22
580.33	5746.02
580.49	4753.63
580.65	4142.75
580.82	3829.12
580.98	3639.53
581.14	3543.57
581.30	3901.67
581.46	3962.53
581.62	4613.20
581.78	4880.02
581.94	5284.93
582.10	5369.19
582.26	5621.97
582.42	5769.42
582.58	6298.38
582.74	6324.13
582.90	6083.05
583.06	6310.08
583.22	6417.75
583.38	6408.39
583.54	6403.71
583.70	6562.86
583.86	6267.95
584.02	6092.41
584.18	6022.20
584.34	6071.35
584.50	5907.51
584.66	5746.02
584.82	5542.39
584.98	5650.05
585.14	5584.52
585.30	5502.60
585.46	5359.83
585.62	5153.86
585.78	5235.78
585.94	5334.08
586.10	5380.89
586.26	5760.06
586.42	6457.54
586.58	7379.71
586.74	9097.66
586.90	11122.23
587.06	12280.79
587.22	12767.62
587.38	11300.11
587.54	9977.70
587.70	8229.32
587.86	6806.28
588.02	5811.55
588.18	5156.20
588.34	4552.34
588.49	4390.84
588.65	4145.09
588.81	3918.06
588.97	3630.17
589.13	3674.64
589.29	3510.80
589.45	3473.36
589.61	3426.54
589.77	3522.51
589.93	3501.44
590.08	3571.66
590.24	3796.35
590.40	3782.31
590.56	3840.82
590.72	4011.68
590.88	4105.30
591.04	4257.43
591.20	4407.23
591.35	4627.24
591.51	4716.18
591.67	5069.60
591.83	5289.61
591.99	5827.93
592.15	6267.95
592.31	6731.38
592.46	7274.38
592.62	7786.96
592.78	8594.45
592.94	9015.74
593.10	8833.18
593.26	8388.48
593.41	7892.29
593.57	7091.82
593.73	6267.95
593.89	5804.53
594.05	4924.49
594.20	4416.59
594.36	4063.17
594.52	3794.01
594.68	3559.95
594.84	3482.72
594.99	3389.10
595.15	3239.30
595.31	3197.17
595.47	3164.40
595.62	3096.53
595.78	3232.28
595.94	3141.00
596.10	3171.43
596.25	3049.72
596.41	3061.42
596.57	3260.37
596.73	2913.97
596.88	3005.25
597.04	3049.72
597.20	3073.12
597.36	3365.69
597.51	3342.28
597.67	3461.65
597.83	3482.72
597.99	3686.34
598.14	3918.06
598.30	4095.94
598.46	4292.54
598.61	4856.61
598.77	4959.60
598.93	5139.82
599.09	5177.26
599.24	5455.79
599.40	5509.62
599.56	5275.57
599.71	4896.40
599.87	4732.56
600.03	4344.03
600.18	4259.78
600.34	3709.75
600.50	3541.23
600.65	3396.12
600.81	3192.49
600.97	2906.95
601.12	2768.85
601.28	2670.55
601.44	2647.15
601.59	2438.84
601.75	2499.69
601.91	2181.38
602.06	2179.04
602.22	2200.10
602.37	2097.12
602.53	1956.69
602.69	1966.05
602.84	1991.80
603.00	2097.12
603.16	2078.40
603.31	2122.87
603.47	2111.16
603.62	2024.56
603.78	2258.62
603.94	2209.47
604.09	2239.89
604.25	2307.77
604.40	2319.47
604.56	2403.73
604.71	2420.11
