SpectraSuite Data File
++++++++++++++++++++++++++++++++++++
Date: Fri Oct 04 11:42:21 GMT-05:00 2013
User: price-jones
Dark Spectrum Present: No
Reference Spectrum Present: No
Number of Sampled Component Spectra: 1
Spectrometers: USB2+H05261
Integration Time (usec): 100000 (USB2+H05261)
Spectra Averaged: 1 (USB2+H05261)
Boxcar Smoothing: 0 (USB2+H05261)
Correct for Electrical Dark: No (USB2+H05261)
Strobe/Lamp Enabled: No (USB2+H05261)
Correct for Detector Non-linearity: No (USB2+H05261)
Correct for Stray Light: No (USB2+H05261)
Number of Pixels in Processed Spectrum: 2048
>>>>>Begin Processed Spectral Data<<<<<
365.73	0.00
365.92	0.00
366.12	0.00
366.32	0.00
366.52	0.00
366.72	21.06
366.91	0.00
367.11	0.00
367.31	0.00
367.51	0.00
367.70	0.00
367.90	0.00
368.10	0.00
368.30	0.00
368.49	0.00
368.69	0.00
368.89	0.00
369.09	0.00
369.28	0.00
369.48	0.00
369.68	0.00
369.87	0.00
370.07	0.00
370.27	30.43
370.47	16.38
370.66	9.36
370.86	81.92
371.06	114.69
371.25	112.35
371.45	21.06
371.65	56.17
371.84	23.41
372.04	121.71
372.24	44.47
372.44	128.73
372.63	84.26
372.83	187.24
373.03	112.35
373.22	51.49
373.42	23.41
373.62	102.98
373.81	133.41
374.01	170.86
374.21	128.73
374.40	168.52
374.60	128.73
374.79	170.86
374.99	138.09
375.19	161.50
375.38	100.64
375.58	105.32
375.78	126.39
375.97	140.43
376.17	189.58
376.37	142.77
376.56	159.16
376.76	100.64
376.95	102.98
377.15	88.94
377.35	51.49
377.54	65.54
377.74	70.22
377.93	105.32
378.13	131.07
378.33	133.41
378.52	30.43
378.72	212.99
378.91	102.98
379.11	60.85
379.31	95.96
379.50	53.83
379.70	159.16
379.89	194.26
380.09	70.22
380.28	49.15
380.48	63.19
380.68	51.49
380.87	67.88
381.07	152.13
381.26	142.77
381.46	67.88
381.65	117.03
381.85	110.01
382.04	135.75
382.24	77.24
382.43	11.70
382.63	110.01
382.83	74.90
383.02	191.92
383.22	60.85
383.41	100.64
383.61	102.98
383.80	74.90
384.00	107.66
384.19	117.03
384.39	168.52
384.58	142.77
384.78	117.03
384.97	60.85
385.17	114.69
385.36	65.54
385.56	128.73
385.75	46.81
385.95	128.73
386.14	105.32
386.34	102.98
386.53	135.75
386.72	114.69
386.92	182.56
387.11	121.71
387.31	170.86
387.50	67.88
387.70	65.54
387.89	128.73
388.09	95.96
388.28	119.37
388.48	79.58
388.67	131.07
388.86	184.90
389.06	152.13
389.25	161.50
389.45	81.92
389.64	142.77
389.84	138.09
390.03	95.96
390.22	173.20
390.42	86.60
390.61	149.79
390.81	56.17
391.00	114.69
391.19	147.45
391.39	65.54
391.58	138.09
391.78	114.69
391.97	170.86
392.16	53.83
392.36	117.03
392.55	147.45
392.75	86.60
392.94	79.58
393.13	128.73
393.33	110.01
393.52	46.81
393.71	133.41
393.91	131.07
394.10	79.58
394.29	182.56
394.49	4.68
394.68	119.37
394.88	138.09
395.07	131.07
395.26	100.64
395.46	98.30
395.65	49.15
395.84	93.62
396.04	177.88
396.23	105.32
396.42	110.01
396.62	117.03
396.81	105.32
397.00	112.35
397.19	72.56
397.39	138.09
397.58	173.20
397.77	81.92
397.97	105.32
398.16	112.35
398.35	88.94
398.55	100.64
398.74	95.96
398.93	187.24
399.12	100.64
399.32	112.35
399.51	91.28
399.70	72.56
399.90	180.22
400.09	117.03
400.28	133.41
400.47	154.48
400.67	147.45
400.86	147.45
401.05	166.18
401.24	119.37
401.44	105.32
401.63	152.13
401.82	135.75
402.01	0.00
402.21	93.62
402.40	124.05
402.59	37.45
402.78	107.66
402.97	105.32
403.17	67.88
403.36	88.94
403.55	177.88
403.74	175.54
403.93	266.82
404.13	411.93
404.32	381.51
404.51	351.08
404.70	299.59
404.89	114.69
405.09	189.58
405.28	140.43
405.47	117.03
405.66	128.73
405.85	121.71
406.05	126.39
406.24	102.98
406.43	70.22
406.62	126.39
406.81	198.95
407.00	163.84
407.20	189.58
407.39	159.16
407.58	163.84
407.77	133.41
407.96	121.71
408.15	191.92
408.34	173.20
408.54	187.24
408.73	93.62
408.92	133.41
409.11	149.79
409.30	194.26
409.49	161.50
409.68	58.51
409.87	140.43
410.07	77.24
410.26	163.84
410.45	152.13
410.64	110.01
410.83	100.64
411.02	154.48
411.21	145.11
411.40	215.33
411.59	67.88
411.78	119.37
411.98	142.77
412.17	147.45
412.36	182.56
412.55	28.09
412.74	145.11
412.93	191.92
413.12	161.50
413.31	114.69
413.50	138.09
413.69	166.18
413.88	152.13
414.07	196.60
414.26	147.45
414.45	154.48
414.64	49.15
414.83	156.82
415.02	138.09
415.22	184.90
415.41	191.92
415.60	140.43
415.79	135.75
415.98	187.24
416.17	168.52
416.36	98.30
416.55	128.73
416.74	138.09
416.93	154.48
417.12	149.79
417.31	128.73
417.50	74.90
417.69	152.13
417.88	140.43
418.07	107.66
418.26	110.01
418.45	145.11
418.64	140.43
418.83	182.56
419.02	182.56
419.21	203.63
419.39	133.41
419.58	128.73
419.77	126.39
419.96	175.54
420.15	131.07
420.34	117.03
420.53	182.56
420.72	145.11
420.91	212.99
421.10	117.03
421.29	145.11
421.48	170.86
421.67	170.86
421.86	124.05
422.05	126.39
422.24	74.90
422.43	180.22
422.61	117.03
422.80	126.39
422.99	135.75
423.18	156.82
423.37	149.79
423.56	182.56
423.75	112.35
423.94	98.30
424.13	161.50
424.32	208.31
424.50	170.86
424.69	163.84
424.88	196.60
425.07	117.03
425.26	166.18
425.45	117.03
425.64	182.56
425.83	149.79
426.01	201.29
426.20	180.22
426.39	170.86
426.58	140.43
426.77	147.45
426.96	133.41
427.15	217.67
427.33	177.88
427.52	180.22
427.71	77.24
427.90	112.35
428.09	88.94
428.28	88.94
428.46	149.79
428.65	180.22
428.84	173.20
429.03	187.24
429.22	184.90
429.40	138.09
429.59	163.84
429.78	203.63
429.97	128.73
430.16	117.03
430.34	95.96
430.53	95.96
430.72	135.75
430.91	203.63
431.10	149.79
431.28	191.92
431.47	245.76
431.66	166.18
431.85	196.60
432.03	145.11
432.22	210.65
432.41	198.95
432.60	220.01
432.79	224.69
432.97	168.52
433.16	95.96
433.35	140.43
433.54	168.52
433.72	243.42
433.91	156.82
434.10	205.97
434.28	175.54
434.47	229.37
434.66	187.24
434.85	227.03
435.03	454.06
435.22	1116.44
435.41	1638.38
435.59	1633.69
435.78	1053.24
435.97	631.94
436.16	372.15
436.34	212.99
436.53	138.09
436.72	177.88
436.90	227.03
437.09	220.01
437.28	88.94
437.46	133.41
437.65	210.65
437.84	166.18
438.02	100.64
438.21	168.52
438.40	189.58
438.58	145.11
438.77	131.07
438.96	145.11
439.14	229.37
439.33	161.50
439.52	145.11
439.70	220.01
439.89	163.84
440.08	189.58
440.26	227.03
440.45	168.52
440.63	177.88
440.82	131.07
441.01	180.22
441.19	173.20
441.38	210.65
441.57	98.30
441.75	180.22
441.94	252.78
442.12	152.13
442.31	161.50
442.50	210.65
442.68	173.20
442.87	131.07
443.05	119.37
443.24	238.73
443.43	173.20
443.61	231.71
443.80	117.03
443.98	236.39
444.17	138.09
444.35	156.82
444.54	198.95
444.73	159.16
444.91	147.45
445.10	149.79
445.28	124.05
445.47	170.86
445.65	152.13
445.84	220.01
446.02	203.63
446.21	210.65
446.39	65.54
446.58	124.05
446.77	170.86
446.95	180.22
447.14	140.43
447.32	222.35
447.51	154.48
447.69	184.90
447.88	119.37
448.06	262.14
448.25	187.24
448.43	133.41
448.62	105.32
448.80	222.35
448.99	220.01
449.17	189.58
449.36	166.18
449.54	241.08
449.73	194.26
449.91	138.09
450.10	149.79
450.28	273.84
450.46	196.60
450.65	117.03
450.83	224.69
451.02	205.97
451.20	203.63
451.39	180.22
451.57	231.71
451.76	156.82
451.94	149.79
452.13	184.90
452.31	175.54
452.49	182.56
452.68	170.86
452.86	140.43
453.05	257.46
453.23	191.92
453.42	58.51
453.60	184.90
453.78	180.22
453.97	114.69
454.15	102.98
454.34	95.96
454.52	124.05
454.70	234.05
454.89	100.64
455.07	124.05
455.26	67.88
455.44	102.98
455.62	177.88
455.81	189.58
455.99	203.63
456.17	149.79
456.36	126.39
456.54	184.90
456.73	184.90
456.91	168.52
457.09	222.35
457.28	210.65
457.46	198.95
457.64	180.22
457.83	170.86
458.01	210.65
458.19	152.13
458.38	161.50
458.56	177.88
458.74	177.88
458.93	224.69
459.11	117.03
459.29	107.66
459.48	194.26
459.66	184.90
459.84	243.42
460.03	330.02
460.21	222.35
460.39	138.09
460.57	220.01
460.76	196.60
460.94	198.95
461.12	238.73
461.31	182.56
461.49	133.41
461.67	222.35
461.85	128.73
462.04	166.18
462.22	250.44
462.40	184.90
462.59	135.75
462.77	149.79
462.95	173.20
463.13	156.82
463.32	201.29
463.50	217.67
463.68	283.20
463.86	140.43
464.05	119.37
464.23	224.69
464.41	156.82
464.59	133.41
464.78	177.88
464.96	154.48
465.14	217.67
465.32	201.29
465.50	145.11
465.69	184.90
465.87	117.03
466.05	210.65
466.23	194.26
466.41	112.35
466.60	220.01
466.78	135.75
466.96	201.29
467.14	168.52
467.32	234.05
467.51	170.86
467.69	196.60
467.87	187.24
468.05	201.29
468.23	229.37
468.41	177.88
468.60	208.31
468.78	203.63
468.96	236.39
469.14	198.95
469.32	140.43
469.50	145.11
469.69	220.01
469.87	128.73
470.05	222.35
470.23	147.45
470.41	145.11
470.59	91.28
470.77	156.82
470.95	145.11
471.14	220.01
471.32	238.73
471.50	152.13
471.68	105.32
471.86	238.73
472.04	154.48
472.22	170.86
472.40	177.88
472.58	145.11
472.77	119.37
472.95	243.42
473.13	231.71
473.31	227.03
473.49	198.95
473.67	205.97
473.85	266.82
474.03	173.20
474.21	147.45
474.39	205.97
474.57	168.52
474.75	184.90
474.93	191.92
475.12	168.52
475.30	163.84
475.48	201.29
475.66	175.54
475.84	201.29
476.02	168.52
476.20	142.77
476.38	168.52
476.56	273.84
476.74	154.48
476.92	161.50
477.10	124.05
477.28	229.37
477.46	166.18
477.64	255.12
477.82	177.88
478.00	196.60
478.18	135.75
478.36	224.69
478.54	182.56
478.72	236.39
478.90	168.52
479.08	149.79
479.26	212.99
479.44	124.05
479.62	177.88
479.80	166.18
479.98	121.71
480.16	161.50
480.34	220.01
480.52	241.08
480.70	236.39
480.88	229.37
481.06	170.86
481.24	252.78
481.41	257.46
481.59	180.22
481.77	259.80
481.95	187.24
482.13	231.71
482.31	212.99
482.49	229.37
482.67	266.82
482.85	271.50
483.03	241.08
483.21	182.56
483.39	210.65
483.57	248.10
483.74	372.15
483.92	229.37
484.10	252.78
484.28	362.78
484.46	311.29
484.64	299.59
484.82	198.95
485.00	325.33
485.18	259.80
485.35	285.55
485.53	355.76
485.71	287.89
485.89	238.73
486.07	297.25
486.25	400.23
486.43	327.68
486.61	397.89
486.78	297.25
486.96	315.97
487.14	346.40
487.32	304.27
487.50	337.04
487.68	397.89
487.85	330.02
488.03	358.10
488.21	353.42
488.39	273.84
488.57	325.33
488.75	334.70
488.92	540.66
489.10	353.42
489.28	318.31
489.46	243.42
489.64	360.44
489.81	351.08
489.99	304.27
490.17	339.38
490.35	358.10
490.53	346.40
490.70	306.61
490.88	372.15
491.06	341.72
491.24	327.68
491.41	360.44
491.59	322.99
491.77	287.89
491.95	306.61
492.13	227.03
492.30	360.44
492.48	416.62
492.66	304.27
492.84	332.36
493.01	271.50
493.19	376.83
493.37	311.29
493.54	365.12
493.72	299.59
493.90	220.01
494.08	290.23
494.25	290.23
494.43	341.72
494.61	297.25
494.79	278.52
494.96	283.20
495.14	376.83
495.32	311.29
495.49	301.93
495.67	311.29
495.85	339.38
496.02	273.84
496.20	278.52
496.38	308.95
496.55	234.05
496.73	262.14
496.91	294.91
497.09	322.99
497.26	339.38
497.44	306.61
497.62	313.63
497.79	285.55
497.97	311.29
498.14	269.16
498.32	271.50
498.50	262.14
498.67	259.80
498.85	229.37
499.03	250.44
499.20	257.46
499.38	238.73
499.56	266.82
499.73	208.31
499.91	299.59
500.08	285.55
500.26	227.03
500.44	234.05
500.61	276.18
500.79	198.95
500.97	248.10
501.14	313.63
501.32	243.42
501.49	259.80
501.67	205.97
501.84	294.91
502.02	194.26
502.20	322.99
502.37	280.86
502.55	168.52
502.72	208.31
502.90	220.01
503.07	276.18
503.25	243.42
503.43	243.42
503.60	208.31
503.78	327.68
503.95	203.63
504.13	208.31
504.30	98.30
504.48	287.89
504.65	283.20
504.83	259.80
505.01	234.05
505.18	283.20
505.36	250.44
505.53	306.61
505.71	189.58
505.88	259.80
506.06	278.52
506.23	262.14
506.41	241.08
506.58	227.03
506.76	294.91
506.93	184.90
507.11	220.01
507.28	170.86
507.46	234.05
507.63	205.97
507.81	203.63
507.98	229.37
508.16	241.08
508.33	252.78
508.50	308.95
508.68	304.27
508.85	297.25
509.03	243.42
509.20	264.48
509.38	159.16
509.55	250.44
509.73	194.26
509.90	250.44
510.08	241.08
510.25	280.86
510.42	292.57
510.60	285.55
510.77	196.60
510.95	318.31
511.12	227.03
511.30	311.29
511.47	255.12
511.64	308.95
511.82	215.33
511.99	238.73
512.17	161.50
512.34	203.63
512.51	248.10
512.69	262.14
512.86	322.99
513.04	236.39
513.21	241.08
513.38	220.01
513.56	250.44
513.73	231.71
513.90	175.54
514.08	273.84
514.25	271.50
514.43	229.37
514.60	205.97
514.77	250.44
514.95	245.76
515.12	208.31
515.29	276.18
515.47	236.39
515.64	205.97
515.81	243.42
515.99	327.68
516.16	264.48
516.33	269.16
516.51	149.79
516.68	234.05
516.85	149.79
517.03	238.73
517.20	252.78
517.37	252.78
517.54	201.29
517.72	236.39
517.89	170.86
518.06	241.08
518.24	264.48
518.41	325.33
518.58	322.99
518.75	182.56
518.93	248.10
519.10	245.76
519.27	205.97
519.45	208.31
519.62	290.23
519.79	227.03
519.96	159.16
520.14	217.67
520.31	128.73
520.48	266.82
520.65	252.78
520.83	243.42
521.00	262.14
521.17	283.20
521.34	196.60
521.52	222.35
521.69	234.05
521.86	299.59
522.03	217.67
522.20	290.23
522.38	252.78
522.55	201.29
522.72	215.33
522.89	301.93
523.07	269.16
523.24	231.71
523.41	266.82
523.58	255.12
523.75	332.36
523.92	266.82
524.10	234.05
524.27	276.18
524.44	327.68
524.61	285.55
524.78	175.54
524.96	259.80
525.13	271.50
525.30	257.46
525.47	220.01
525.64	243.42
525.81	236.39
525.98	285.55
526.16	229.37
526.33	212.99
526.50	234.05
526.67	205.97
526.84	156.82
527.01	308.95
527.18	234.05
527.36	271.50
527.53	163.84
527.70	311.29
527.87	215.33
528.04	280.86
528.21	320.65
528.38	301.93
528.55	259.80
528.72	306.61
528.89	299.59
529.07	227.03
529.24	271.50
529.41	241.08
529.58	250.44
529.75	243.42
529.92	266.82
530.09	234.05
530.26	203.63
530.43	234.05
530.60	297.25
530.77	273.84
530.94	322.99
531.11	276.18
531.28	304.27
531.46	252.78
531.63	243.42
531.80	201.29
531.97	299.59
532.14	297.25
532.31	313.63
532.48	308.95
532.65	292.57
532.82	372.15
532.99	353.42
533.16	278.52
533.33	353.42
533.50	271.50
533.67	271.50
533.84	236.39
534.01	404.91
534.18	208.31
534.35	297.25
534.52	318.31
534.69	351.08
534.86	252.78
535.03	320.65
535.20	250.44
535.37	334.70
535.54	311.29
535.71	346.40
535.88	341.72
536.05	330.02
536.22	315.97
536.38	379.17
536.55	402.57
536.72	372.15
536.89	322.99
537.06	339.38
537.23	395.55
537.40	397.89
537.57	444.70
537.74	430.66
537.91	400.23
538.08	454.06
538.25	430.66
538.42	559.39
538.59	458.74
538.75	435.34
538.92	482.15
539.09	484.49
539.26	465.77
539.43	493.85
539.60	585.13
539.77	620.24
539.94	695.14
540.11	737.27
540.28	812.17
540.44	961.96
540.61	926.85
540.78	1001.75
540.95	1198.35
541.12	1315.38
541.29	1373.89
541.46	1514.33
541.62	1584.54
541.79	1462.83
541.96	1469.86
542.13	1413.68
542.30	1383.26
542.47	1306.02
542.63	1191.33
542.80	1322.40
542.97	1273.25
543.14	1301.34
543.31	1233.46
543.48	1212.40
543.64	1291.98
543.81	1275.59
543.98	1254.53
544.15	1277.93
544.32	1273.25
544.48	1172.61
544.65	1203.04
544.82	1146.86
544.99	1114.10
545.16	1245.16
545.32	1270.91
545.49	2085.42
545.66	3108.23
545.83	3651.24
546.00	3225.26
546.16	2260.96
546.33	1682.85
546.50	1341.13
546.67	1128.14
546.83	945.58
547.00	1004.09
547.17	945.58
547.34	877.70
547.50	917.49
547.67	840.25
547.84	847.27
548.00	891.74
548.17	821.53
548.34	718.54
548.51	760.67
548.67	765.36
548.84	699.82
549.01	744.29
549.18	660.03
549.34	685.78
549.51	634.29
549.68	624.92
549.84	535.98
550.01	566.41
550.18	695.14
550.34	624.92
550.51	550.03
550.68	631.94
550.84	521.94
551.01	531.30
551.18	550.03
551.34	477.47
551.51	437.68
551.68	510.24
551.84	444.70
552.01	472.79
552.18	486.83
552.34	491.51
552.51	458.74
552.68	416.62
552.84	404.91
553.01	423.64
553.18	414.27
553.34	346.40
553.51	372.15
553.67	376.83
553.84	362.78
554.01	393.21
554.17	353.42
554.34	306.61
554.51	313.63
554.67	381.51
554.84	470.45
555.00	292.57
555.17	330.02
555.33	332.36
555.50	273.84
555.67	374.49
555.83	348.74
556.00	191.92
556.16	402.57
556.33	318.31
556.50	273.84
556.66	292.57
556.83	285.55
556.99	201.29
557.16	255.12
557.32	224.69
557.49	243.42
557.65	290.23
557.82	409.59
557.98	346.40
558.15	276.18
558.32	308.95
558.48	205.97
558.65	285.55
558.81	212.99
558.98	252.78
559.14	227.03
559.31	255.12
559.47	283.20
559.64	222.35
559.80	248.10
559.97	332.36
560.13	306.61
560.30	201.29
560.46	236.39
560.63	248.10
560.79	299.59
560.96	269.16
561.12	332.36
561.29	248.10
561.45	283.20
561.61	287.89
561.78	294.91
561.94	257.46
562.11	245.76
562.27	250.44
562.44	252.78
562.60	273.84
562.77	215.33
562.93	337.04
563.10	278.52
563.26	220.01
563.42	294.91
563.59	238.73
563.75	315.97
563.92	301.93
564.08	212.99
564.24	231.71
564.41	248.10
564.57	245.76
564.74	255.12
564.90	220.01
565.07	287.89
565.23	294.91
565.39	231.71
565.56	255.12
565.72	283.20
565.88	325.33
566.05	231.71
566.21	311.29
566.38	311.29
566.54	271.50
566.70	236.39
566.87	231.71
567.03	220.01
567.19	224.69
567.36	208.31
567.52	269.16
567.68	212.99
567.85	245.76
568.01	248.10
568.17	255.12
568.34	252.78
568.50	257.46
568.66	163.84
568.83	322.99
568.99	245.76
569.15	255.12
569.32	266.82
569.48	166.18
569.64	156.82
569.81	278.52
569.97	330.02
570.13	266.82
570.30	236.39
570.46	236.39
570.62	229.37
570.78	205.97
570.95	177.88
571.11	271.50
571.27	255.12
571.43	212.99
571.60	243.42
571.76	231.71
571.92	145.11
572.09	266.82
572.25	135.75
572.41	224.69
572.57	220.01
572.74	294.91
572.90	290.23
573.06	243.42
573.22	273.84
573.38	255.12
573.55	266.82
573.71	203.63
573.87	198.95
574.03	245.76
574.20	217.67
574.36	290.23
574.52	217.67
574.68	259.80
574.84	217.67
575.01	231.71
575.17	271.50
575.33	276.18
575.49	227.03
575.65	278.52
575.82	287.89
575.98	327.68
576.14	301.93
576.30	365.12
576.46	674.07
576.62	805.14
576.79	840.25
576.95	716.20
577.11	524.28
577.27	397.89
577.43	376.83
577.59	290.23
577.75	283.20
577.92	264.48
578.08	191.92
578.24	276.18
578.40	454.06
578.56	617.90
578.72	781.74
578.88	772.38
579.04	613.22
579.21	475.13
579.37	428.32
579.53	402.57
579.69	421.30
579.85	416.62
580.01	528.96
580.17	423.64
580.33	425.98
580.49	463.43
580.65	374.49
580.82	322.99
580.98	393.21
581.14	395.55
581.30	383.85
581.46	320.65
581.62	447.04
581.78	465.77
581.94	477.47
582.10	463.43
582.26	470.45
582.42	484.49
582.58	512.58
582.74	404.91
582.90	447.04
583.06	451.72
583.22	486.83
583.38	456.40
583.54	519.60
583.70	454.06
583.86	454.06
584.02	423.64
584.18	489.17
584.34	493.85
584.50	484.49
584.66	486.83
584.82	435.34
584.98	397.89
585.14	414.27
585.30	454.06
585.46	465.77
585.62	393.21
585.78	381.51
585.94	367.46
586.10	444.70
586.26	402.57
586.42	538.32
586.58	500.87
586.74	629.60
586.90	671.73
587.06	786.42
587.22	706.84
587.38	580.45
587.54	594.50
587.70	444.70
587.86	428.32
588.02	451.72
588.18	456.40
588.34	435.34
588.49	353.42
588.65	299.59
588.81	379.17
588.97	365.12
589.13	313.63
589.29	297.25
589.45	388.53
589.61	358.10
589.77	425.98
589.93	379.17
590.08	297.25
590.24	395.55
590.40	297.25
590.56	402.57
590.72	313.63
590.88	339.38
591.04	395.55
591.20	379.17
591.35	500.87
591.51	348.74
591.67	407.25
591.83	374.49
591.99	407.25
592.15	540.66
592.31	407.25
592.46	409.59
592.62	564.07
592.78	533.64
592.94	531.30
593.10	484.49
593.26	505.56
593.41	418.96
593.57	402.57
593.73	507.90
593.89	327.68
594.05	397.89
594.20	320.65
594.36	425.98
594.52	320.65
594.68	287.89
594.84	365.12
594.99	416.62
595.15	379.17
595.31	397.89
595.47	318.31
595.62	311.29
595.78	334.70
595.94	322.99
596.10	355.76
596.25	304.27
596.41	332.36
596.57	360.44
596.73	308.95
596.88	325.33
597.04	334.70
597.20	299.59
597.36	250.44
597.51	330.02
597.67	294.91
597.83	381.51
597.99	290.23
598.14	428.32
598.30	435.34
598.46	320.65
598.61	353.42
598.77	442.36
598.93	395.55
599.09	430.66
599.24	435.34
599.40	395.55
599.56	411.93
599.71	332.36
599.87	414.27
600.03	351.08
600.18	334.70
600.34	355.76
600.50	383.85
600.65	334.70
600.81	248.10
600.97	355.76
601.12	264.48
601.28	332.36
601.44	353.42
601.59	285.55
601.75	304.27
601.91	280.86
602.06	308.95
602.22	379.17
602.37	245.76
602.53	304.27
602.69	280.86
602.84	318.31
603.00	292.57
603.16	358.10
603.31	283.20
603.47	262.14
603.62	243.42
603.78	248.10
603.94	372.15
604.09	292.57
604.25	348.74
604.40	322.99
604.56	278.52
604.71	313.63
604.87	337.04
605.03	299.59
605.18	283.20
605.34	337.04
605.49	273.84
605.65	269.16
605.80	257.46
605.96	297.25
606.12	285.55
606.27	360.44
606.43	262.14
606.58	362.78
606.74	334.70
606.89	294.91
607.05	339.38
607.20	334.70
607.36	315.97
607.51	397.89
607.67	388.53
607.82	423.64
607.98	493.85
608.13	444.70
608.29	421.30
608.44	510.24
608.60	535.98
608.75	552.37
608.91	573.43
609.06	578.11
609.22	634.29
609.37	631.94
609.53	667.05
609.68	732.59
609.84	868.34
609.99	910.47
610.15	1078.99
610.30	1289.64
610.46	1579.86
610.61	2010.52
610.76	2530.12
610.92	2932.69
611.07	3103.55
