SpectraSuite Data File
++++++++++++++++++++++++++++++++++++
Date: Fri Oct 04 11:41:45 GMT-05:00 2013
User: price-jones
Dark Spectrum Present: No
Reference Spectrum Present: No
Number of Sampled Component Spectra: 1
Spectrometers: USB2+H05261
Integration Time (usec): 100000 (USB2+H05261)
Spectra Averaged: 1 (USB2+H05261)
Boxcar Smoothing: 0 (USB2+H05261)
Correct for Electrical Dark: No (USB2+H05261)
Strobe/Lamp Enabled: No (USB2+H05261)
Correct for Detector Non-linearity: No (USB2+H05261)
Correct for Stray Light: No (USB2+H05261)
Number of Pixels in Processed Spectrum: 2048
>>>>>Begin Processed Spectral Data<<<<<
365.73	0.00
365.92	0.00
366.12	0.00
366.32	37.45
366.52	0.00
366.72	11.70
366.91	0.00
367.11	0.00
367.31	0.00
367.51	0.00
367.70	0.00
367.90	0.00
368.10	0.00
368.30	0.00
368.49	0.00
368.69	0.00
368.89	0.00
369.09	0.00
369.28	44.47
369.48	0.00
369.68	0.00
369.87	60.85
370.07	0.00
370.27	0.00
370.47	0.00
370.66	25.75
370.86	21.06
371.06	28.09
371.25	77.24
371.45	95.96
371.65	67.88
371.84	37.45
372.04	53.83
372.24	166.18
372.44	74.90
372.63	93.62
372.83	182.56
373.03	131.07
373.22	107.66
373.42	93.62
373.62	112.35
373.81	77.24
374.01	156.82
374.21	93.62
374.40	145.11
374.60	145.11
374.79	70.22
374.99	65.54
375.19	65.54
375.38	79.58
375.58	77.24
375.78	131.07
375.97	145.11
376.17	234.05
376.37	81.92
376.56	58.51
376.76	42.13
376.95	124.05
377.15	100.64
377.35	119.37
377.54	147.45
377.74	107.66
377.93	138.09
378.13	37.45
378.33	177.88
378.52	77.24
378.72	114.69
378.91	93.62
379.11	142.77
379.31	145.11
379.50	91.28
379.70	100.64
379.89	79.58
380.09	95.96
380.28	147.45
380.48	58.51
380.68	110.01
380.87	37.45
381.07	105.32
381.26	189.58
381.46	70.22
381.65	168.52
381.85	88.94
382.04	117.03
382.24	145.11
382.43	126.39
382.63	161.50
382.83	98.30
383.02	154.48
383.22	222.35
383.41	102.98
383.61	60.85
383.80	93.62
384.00	63.19
384.19	56.17
384.39	91.28
384.58	44.47
384.78	182.56
384.97	119.37
385.17	128.73
385.36	142.77
385.56	131.07
385.75	56.17
385.95	135.75
386.14	145.11
386.34	84.26
386.53	133.41
386.72	102.98
386.92	184.90
387.11	147.45
387.31	131.07
387.50	49.15
387.70	98.30
387.89	100.64
388.09	112.35
388.28	79.58
388.48	117.03
388.67	131.07
388.86	100.64
389.06	142.77
389.25	131.07
389.45	112.35
389.64	117.03
389.84	121.71
390.03	138.09
390.22	51.49
390.42	35.11
390.61	88.94
390.81	67.88
391.00	156.82
391.19	140.43
391.39	126.39
391.58	105.32
391.78	119.37
391.97	114.69
392.16	86.60
392.36	128.73
392.55	79.58
392.75	102.98
392.94	170.86
393.13	86.60
393.33	100.64
393.52	91.28
393.71	128.73
393.91	98.30
394.10	128.73
394.29	67.88
394.49	98.30
394.68	152.13
394.88	114.69
395.07	112.35
395.26	124.05
395.46	154.48
395.65	86.60
395.84	163.84
396.04	154.48
396.23	119.37
396.42	102.98
396.62	95.96
396.81	98.30
397.00	63.19
397.19	131.07
397.39	51.49
397.58	117.03
397.77	93.62
397.97	114.69
398.16	100.64
398.35	140.43
398.55	161.50
398.74	91.28
398.93	67.88
399.12	51.49
399.32	107.66
399.51	138.09
399.70	93.62
399.90	124.05
400.09	126.39
400.28	121.71
400.47	152.13
400.67	147.45
400.86	149.79
401.05	182.56
401.24	184.90
401.44	175.54
401.63	159.16
401.82	65.54
402.01	114.69
402.21	142.77
402.40	95.96
402.59	152.13
402.78	131.07
402.97	105.32
403.17	208.31
403.36	131.07
403.55	180.22
403.74	203.63
403.93	493.85
404.13	947.92
404.32	910.47
404.51	645.99
404.70	433.00
404.89	220.01
405.09	168.52
405.28	128.73
405.47	102.98
405.66	124.05
405.85	175.54
406.05	159.16
406.24	88.94
406.43	110.01
406.62	67.88
406.81	177.88
407.00	229.37
407.20	189.58
407.39	220.01
407.58	222.35
407.77	212.99
407.96	86.60
408.15	147.45
408.34	112.35
408.54	100.64
408.73	156.82
408.92	98.30
409.11	182.56
409.30	138.09
409.49	126.39
409.68	124.05
409.87	110.01
410.07	194.26
410.26	177.88
410.45	107.66
410.64	102.98
410.83	175.54
411.02	173.20
411.21	98.30
411.40	126.39
411.59	81.92
411.78	161.50
411.98	100.64
412.17	168.52
412.36	110.01
412.55	156.82
412.74	154.48
412.93	138.09
413.12	56.17
413.31	191.92
413.50	196.60
413.69	145.11
413.88	184.90
414.07	154.48
414.26	152.13
414.45	67.88
414.64	138.09
414.83	168.52
415.02	147.45
415.22	208.31
415.41	203.63
415.60	191.92
415.79	154.48
415.98	124.05
416.17	170.86
416.36	166.18
416.55	156.82
416.74	133.41
416.93	100.64
417.12	191.92
417.31	133.41
417.50	156.82
417.69	220.01
417.88	182.56
418.07	93.62
418.26	161.50
418.45	124.05
418.64	149.79
418.83	194.26
419.02	205.97
419.21	119.37
419.39	175.54
419.58	145.11
419.77	112.35
419.96	121.71
420.15	189.58
420.34	140.43
420.53	196.60
420.72	229.37
420.91	121.71
421.10	191.92
421.29	177.88
421.48	152.13
421.67	166.18
421.86	166.18
422.05	117.03
422.24	163.84
422.43	154.48
422.61	161.50
422.80	102.98
422.99	100.64
423.18	117.03
423.37	168.52
423.56	159.16
423.75	114.69
423.94	65.54
424.13	159.16
424.32	173.20
424.50	198.95
424.69	112.35
424.88	170.86
425.07	88.94
425.26	79.58
425.45	196.60
425.64	161.50
425.83	182.56
426.01	166.18
426.20	128.73
426.39	140.43
426.58	32.77
426.77	159.16
426.96	152.13
427.15	149.79
427.33	184.90
427.52	149.79
427.71	149.79
427.90	182.56
428.09	152.13
428.28	114.69
428.46	147.45
428.65	187.24
428.84	184.90
429.03	259.80
429.22	138.09
429.40	124.05
429.59	182.56
429.78	234.05
429.97	189.58
430.16	124.05
430.34	121.71
430.53	175.54
430.72	163.84
430.91	173.20
431.10	140.43
431.28	135.75
431.47	168.52
431.66	147.45
431.85	142.77
432.03	182.56
432.22	308.95
432.41	98.30
432.60	257.46
432.79	124.05
432.97	205.97
433.16	201.29
433.35	182.56
433.54	156.82
433.72	201.29
433.91	205.97
434.10	215.33
434.28	299.59
434.47	287.89
434.66	280.86
434.85	278.52
435.03	903.45
435.22	2518.42
435.41	3873.59
435.59	3428.88
435.78	2190.74
435.97	1123.46
436.16	528.96
436.34	308.95
436.53	203.63
436.72	283.20
436.90	255.12
437.09	182.56
437.28	201.29
437.46	187.24
437.65	189.58
437.84	187.24
438.02	290.23
438.21	203.63
438.40	189.58
438.58	170.86
438.77	159.16
438.96	166.18
439.14	182.56
439.33	161.50
439.52	177.88
439.70	126.39
439.89	145.11
440.08	198.95
440.26	212.99
440.45	187.24
440.63	205.97
440.82	208.31
441.01	212.99
441.19	166.18
441.38	196.60
441.57	285.55
441.75	241.08
441.94	208.31
442.12	229.37
442.31	182.56
442.50	212.99
442.68	173.20
442.87	208.31
443.05	117.03
443.24	250.44
443.43	248.10
443.61	257.46
443.80	243.42
443.98	110.01
444.17	210.65
444.35	191.92
444.54	212.99
444.73	241.08
444.91	210.65
445.10	133.41
445.28	140.43
445.47	170.86
445.65	198.95
445.84	154.48
446.02	180.22
446.21	112.35
446.39	140.43
446.58	161.50
446.77	161.50
446.95	156.82
447.14	201.29
447.32	191.92
447.51	234.05
447.69	161.50
447.88	220.01
448.06	177.88
448.25	163.84
448.43	168.52
448.62	100.64
448.80	227.03
448.99	198.95
449.17	201.29
449.36	154.48
449.54	248.10
449.73	170.86
449.91	168.52
450.10	175.54
450.28	315.97
450.46	227.03
450.65	220.01
450.83	198.95
451.02	269.16
451.20	170.86
451.39	231.71
451.57	203.63
451.76	156.82
451.94	229.37
452.13	222.35
452.31	205.97
452.49	255.12
452.68	135.75
452.86	231.71
453.05	313.63
453.23	203.63
453.42	210.65
453.60	166.18
453.78	166.18
453.97	124.05
454.15	138.09
454.34	198.95
454.52	205.97
454.70	201.29
454.89	243.42
455.07	220.01
455.26	215.33
455.44	196.60
455.62	180.22
455.81	264.48
455.99	227.03
456.17	182.56
456.36	135.75
456.54	212.99
456.73	198.95
456.91	266.82
457.09	191.92
457.28	208.31
457.46	224.69
457.64	241.08
457.83	180.22
458.01	163.84
458.19	135.75
458.38	236.39
458.56	166.18
458.74	196.60
458.93	187.24
459.11	217.67
459.29	166.18
459.48	208.31
459.66	208.31
459.84	191.92
460.03	259.80
460.21	255.12
460.39	187.24
460.57	198.95
460.76	234.05
460.94	191.92
461.12	285.55
461.31	278.52
461.49	229.37
461.67	184.90
461.85	222.35
462.04	105.32
462.22	320.65
462.40	187.24
462.59	187.24
462.77	163.84
462.95	220.01
463.13	210.65
463.32	196.60
463.50	220.01
463.68	234.05
463.86	156.82
464.05	220.01
464.23	210.65
464.41	229.37
464.59	170.86
464.78	238.73
464.96	196.60
465.14	203.63
465.32	184.90
465.50	229.37
465.69	245.76
465.87	227.03
466.05	128.73
466.23	205.97
466.41	278.52
466.60	173.20
466.78	154.48
466.96	248.10
467.14	208.31
467.32	243.42
467.51	212.99
467.69	236.39
467.87	224.69
468.05	156.82
468.23	191.92
468.41	182.56
468.60	262.14
468.78	124.05
468.96	250.44
469.14	217.67
469.32	91.28
469.50	124.05
469.69	114.69
469.87	187.24
470.05	152.13
470.23	166.18
470.41	241.08
470.59	220.01
470.77	220.01
470.95	147.45
471.14	243.42
471.32	173.20
471.50	201.29
471.68	205.97
471.86	266.82
472.04	81.92
472.22	205.97
472.40	133.41
472.58	212.99
472.77	220.01
472.95	191.92
473.13	189.58
473.31	220.01
473.49	177.88
473.67	154.48
473.85	161.50
474.03	217.67
474.21	210.65
474.39	231.71
474.57	297.25
474.75	229.37
474.93	231.71
475.12	161.50
475.30	166.18
475.48	182.56
475.66	203.63
475.84	231.71
476.02	243.42
476.20	276.18
476.38	191.92
476.56	191.92
476.74	191.92
476.92	147.45
477.10	126.39
477.28	262.14
477.46	180.22
477.64	180.22
477.82	222.35
478.00	205.97
478.18	112.35
478.36	210.65
478.54	198.95
478.72	252.78
478.90	227.03
479.08	163.84
479.26	182.56
479.44	194.26
479.62	234.05
479.80	238.73
479.98	222.35
480.16	250.44
480.34	187.24
480.52	161.50
480.70	278.52
480.88	135.75
481.06	215.33
481.24	184.90
481.41	257.46
481.59	238.73
481.77	229.37
481.95	287.89
482.13	257.46
482.31	306.61
482.49	285.55
482.67	301.93
482.85	276.18
483.03	344.06
483.21	306.61
483.39	325.33
483.57	294.91
483.74	332.36
483.92	411.93
484.10	365.12
484.28	444.70
484.46	500.87
484.64	395.55
484.82	388.53
485.00	395.55
485.18	416.62
485.35	449.38
485.53	468.11
485.71	463.43
485.89	533.64
486.07	545.34
486.25	559.39
486.43	484.49
486.61	524.28
486.78	440.02
486.96	486.83
487.14	496.19
487.32	498.53
487.50	486.83
487.68	510.24
487.85	524.28
488.03	463.43
488.21	489.17
488.39	437.68
488.57	435.34
488.75	458.74
488.92	758.33
489.10	493.85
489.28	528.96
489.46	402.57
489.64	512.58
489.81	395.55
489.99	442.36
490.17	447.04
490.35	493.85
490.53	383.85
490.70	372.15
490.88	475.13
491.06	383.85
491.24	491.51
491.41	456.40
491.59	493.85
491.77	351.08
491.95	379.17
492.13	444.70
492.30	397.89
492.48	374.49
492.66	372.15
492.84	491.51
493.01	430.66
493.19	369.80
493.37	425.98
493.54	374.49
493.72	400.23
493.90	402.57
494.08	365.12
494.25	395.55
494.43	388.53
494.61	437.68
494.79	369.80
494.96	379.17
495.14	402.57
495.32	376.83
495.49	348.74
495.67	418.96
495.85	313.63
496.02	315.97
496.20	383.85
496.38	330.02
496.55	304.27
496.73	421.30
496.91	259.80
497.09	390.87
497.26	327.68
497.44	397.89
497.62	355.76
497.79	299.59
497.97	393.21
498.14	330.02
498.32	290.23
498.50	290.23
498.67	322.99
498.85	313.63
499.03	294.91
499.20	290.23
499.38	255.12
499.56	327.68
499.73	351.08
499.91	341.72
500.08	294.91
500.26	243.42
500.44	266.82
500.61	313.63
500.79	227.03
500.97	320.65
501.14	294.91
501.32	205.97
501.49	379.17
501.67	285.55
501.84	353.42
502.02	245.76
502.20	330.02
502.37	304.27
502.55	358.10
502.72	299.59
502.90	308.95
503.07	330.02
503.25	334.70
503.43	294.91
503.60	217.67
503.78	201.29
503.95	234.05
504.13	229.37
504.30	339.38
504.48	212.99
504.65	355.76
504.83	278.52
505.01	266.82
505.18	304.27
505.36	262.14
505.53	243.42
505.71	203.63
505.88	285.55
506.06	262.14
506.23	152.13
506.41	220.01
506.58	285.55
506.76	224.69
506.93	252.78
507.11	238.73
507.28	266.82
507.46	194.26
507.63	212.99
507.81	189.58
507.98	138.09
508.16	208.31
508.33	341.72
508.50	341.72
508.68	262.14
508.85	346.40
509.03	217.67
509.20	292.57
509.38	245.76
509.55	236.39
509.73	292.57
509.90	238.73
510.08	313.63
510.25	236.39
510.42	292.57
510.60	292.57
510.77	264.48
510.95	297.25
511.12	201.29
511.30	294.91
511.47	220.01
511.64	334.70
511.82	252.78
511.99	318.31
512.17	266.82
512.34	245.76
512.51	201.29
512.69	194.26
512.86	208.31
513.04	210.65
513.21	273.84
513.38	308.95
513.56	264.48
513.73	229.37
513.90	170.86
514.08	276.18
514.25	292.57
514.43	184.90
514.60	259.80
514.77	231.71
514.95	203.63
515.12	250.44
515.29	248.10
515.47	252.78
515.64	294.91
515.81	196.60
515.99	224.69
516.16	294.91
516.33	287.89
516.51	201.29
516.68	318.31
516.85	161.50
517.03	220.01
517.20	252.78
517.37	269.16
517.54	283.20
517.72	252.78
517.89	159.16
518.06	191.92
518.24	278.52
518.41	271.50
518.58	276.18
518.75	205.97
518.93	290.23
519.10	280.86
519.27	271.50
519.45	250.44
519.62	224.69
519.79	304.27
519.96	187.24
520.14	248.10
520.31	290.23
520.48	250.44
520.65	208.31
520.83	243.42
521.00	264.48
521.17	318.31
521.34	201.29
521.52	156.82
521.69	224.69
521.86	264.48
522.03	311.29
522.20	266.82
522.38	210.65
522.55	257.46
522.72	273.84
522.89	243.42
523.07	203.63
523.24	241.08
523.41	243.42
523.58	208.31
523.75	201.29
523.92	245.76
524.10	238.73
524.27	271.50
524.44	266.82
524.61	227.03
524.78	241.08
524.96	224.69
525.13	327.68
525.30	280.86
525.47	285.55
525.64	297.25
525.81	266.82
525.98	191.92
526.16	210.65
526.33	290.23
526.50	273.84
526.67	220.01
526.84	168.52
527.01	170.86
527.18	262.14
527.36	332.36
527.53	292.57
527.70	264.48
527.87	273.84
528.04	337.04
528.21	182.56
528.38	306.61
528.55	264.48
528.72	325.33
528.89	297.25
529.07	280.86
529.24	311.29
529.41	320.65
529.58	259.80
529.75	220.01
529.92	262.14
530.09	262.14
530.26	299.59
530.43	255.12
530.60	283.20
530.77	215.33
530.94	243.42
531.11	322.99
531.28	299.59
531.46	311.29
531.63	304.27
531.80	262.14
531.97	353.42
532.14	372.15
532.31	308.95
532.48	287.89
532.65	346.40
532.82	327.68
532.99	365.12
533.16	433.00
533.33	402.57
533.50	381.51
533.67	339.38
533.84	367.46
534.01	334.70
534.18	360.44
534.35	320.65
534.52	341.72
534.69	374.49
534.86	290.23
535.03	409.59
535.20	344.06
535.37	304.27
535.54	397.89
535.71	428.32
535.88	308.95
536.05	418.96
536.22	358.10
536.38	444.70
536.55	498.53
536.72	411.93
536.89	486.83
537.06	470.45
537.23	557.05
537.40	645.99
537.57	575.77
537.74	587.47
537.91	568.75
538.08	620.24
538.25	657.69
538.42	601.52
538.59	660.03
538.75	627.26
538.92	657.69
539.09	725.57
539.26	798.12
539.43	856.64
539.60	940.90
539.77	1083.67
539.94	992.39
540.11	1224.10
540.28	1350.49
540.44	1404.32
540.61	1425.39
540.78	1771.79
540.95	2062.01
541.12	2246.91
541.29	2469.27
541.46	2602.68
541.62	2684.59
541.79	2490.33
541.96	2349.90
542.13	2279.68
542.30	2141.59
542.47	1987.11
542.63	1984.77
542.80	1874.77
542.97	1942.64
543.14	1952.01
543.31	1959.03
543.48	2024.56
543.64	1954.35
543.81	2029.24
543.98	1944.99
544.15	2054.99
544.32	1900.52
544.48	1963.71
544.65	1914.56
544.82	1893.49
544.99	1996.48
545.16	1980.09
545.32	2111.16
545.49	3871.25
545.66	5914.53
545.83	6270.30
546.00	5439.40
546.16	3943.80
546.33	2813.32
546.50	2169.68
546.67	1844.34
546.83	1689.87
547.00	1631.35
547.17	1537.73
547.34	1404.32
547.50	1432.41
547.67	1416.02
547.84	1324.74
548.00	1341.13
548.17	1310.70
548.34	1207.72
548.51	1212.40
548.67	1139.84
548.84	1160.91
549.01	1071.97
549.18	1011.11
549.34	987.71
549.51	983.02
549.68	964.30
549.84	887.06
550.01	858.98
550.18	901.11
550.34	844.93
550.51	760.67
550.68	823.87
550.84	744.29
551.01	720.88
551.18	702.16
551.34	653.01
551.51	645.99
551.68	608.54
551.84	671.73
552.01	629.60
552.18	592.16
552.34	531.30
552.51	519.60
552.68	552.37
552.84	638.97
553.01	535.98
553.18	514.92
553.34	510.24
553.51	531.30
553.67	533.64
553.84	587.47
554.01	472.79
554.17	341.72
554.34	425.98
554.51	444.70
554.67	472.79
554.84	407.25
555.00	383.85
555.17	381.51
555.33	425.98
555.50	400.23
555.67	428.32
555.83	379.17
556.00	388.53
556.16	423.64
556.33	344.06
556.50	379.17
556.66	379.17
556.83	355.76
556.99	365.12
557.16	320.65
557.32	313.63
557.49	248.10
557.65	327.68
557.82	257.46
557.98	290.23
558.15	367.46
558.32	369.80
558.48	257.46
558.65	273.84
558.81	313.63
558.98	290.23
559.14	315.97
559.31	271.50
559.47	222.35
559.64	283.20
559.80	266.82
559.97	299.59
560.13	299.59
560.30	184.90
560.46	341.72
560.63	292.57
560.79	280.86
560.96	287.89
561.12	297.25
561.29	264.48
561.45	304.27
561.61	313.63
561.78	351.08
561.94	205.97
562.11	299.59
562.27	292.57
562.44	262.14
562.60	196.60
562.77	278.52
562.93	255.12
563.10	327.68
563.26	304.27
563.42	397.89
563.59	234.05
563.75	217.67
563.92	327.68
564.08	346.40
564.24	184.90
564.41	301.93
564.57	236.39
564.74	208.31
564.90	222.35
565.07	344.06
565.23	252.78
565.39	271.50
565.56	299.59
565.72	325.33
565.88	238.73
566.05	276.18
566.21	259.80
566.38	287.89
566.54	243.42
566.70	243.42
566.87	311.29
567.03	276.18
567.19	285.55
567.36	325.33
567.52	283.20
567.68	250.44
567.85	262.14
568.01	266.82
568.17	278.52
568.34	229.37
568.50	280.86
568.66	287.89
568.83	318.31
568.99	285.55
569.15	294.91
569.32	266.82
569.48	252.78
569.64	224.69
569.81	243.42
569.97	212.99
570.13	217.67
570.30	159.16
570.46	208.31
570.62	290.23
570.78	145.11
570.95	238.73
571.11	376.83
571.27	285.55
571.43	245.76
571.60	269.16
571.76	287.89
571.92	156.82
572.09	184.90
572.25	229.37
572.41	280.86
572.57	266.82
572.74	266.82
572.90	315.97
573.06	374.49
573.22	241.08
573.38	273.84
573.55	250.44
573.71	238.73
573.87	322.99
574.03	259.80
574.20	224.69
574.36	339.38
574.52	266.82
574.68	205.97
574.84	248.10
575.01	315.97
575.17	285.55
575.33	248.10
575.49	294.91
575.65	339.38
575.82	294.91
575.98	358.10
576.14	332.36
576.30	503.22
576.46	976.00
576.62	1200.69
576.79	1284.95
576.95	980.68
577.11	723.23
577.27	477.47
577.43	437.68
577.59	437.68
577.75	379.17
577.92	327.68
578.08	386.19
578.24	351.08
578.40	622.58
578.56	971.32
578.72	1219.42
578.88	1165.59
579.04	912.81
579.21	678.76
579.37	613.22
579.53	484.49
579.69	571.09
579.85	550.03
580.01	669.39
580.17	634.29
580.33	608.54
580.49	517.26
580.65	524.28
580.82	472.79
580.98	428.32
581.14	416.62
581.30	486.83
581.46	496.19
581.62	524.28
581.78	566.41
581.94	664.71
582.10	603.86
582.26	568.75
582.42	615.56
582.58	606.20
582.74	650.67
582.90	718.54
583.06	660.03
583.22	533.64
583.38	533.64
583.54	557.05
583.70	645.99
583.86	650.67
584.02	571.09
584.18	657.69
584.34	582.79
584.50	589.82
584.66	550.03
584.82	613.22
584.98	643.65
585.14	566.41
585.30	554.71
585.46	489.17
585.62	538.32
585.78	564.07
585.94	582.79
586.10	566.41
586.26	662.37
586.42	690.46
586.58	699.82
586.74	795.78
586.90	851.96
587.06	924.51
587.22	882.38
587.38	926.85
587.54	786.42
587.70	660.03
587.86	634.29
588.02	545.34
588.18	540.66
588.34	514.92
588.49	521.94
588.65	407.25
588.81	493.85
588.97	388.53
589.13	411.93
589.29	414.27
589.45	416.62
589.61	341.72
589.77	428.32
589.93	376.83
590.08	442.36
590.24	395.55
590.40	404.91
590.56	512.58
590.72	526.62
590.88	365.12
591.04	482.15
591.20	479.81
591.35	463.43
591.51	493.85
591.67	512.58
591.83	475.13
591.99	482.15
592.15	599.18
592.31	648.33
592.46	725.57
592.62	704.50
592.78	734.93
592.94	744.29
593.10	730.25
593.26	592.16
593.41	660.03
593.57	578.11
593.73	547.69
593.89	533.64
594.05	521.94
594.20	482.15
594.36	458.74
594.52	430.66
594.68	423.64
594.84	393.21
594.99	409.59
595.15	414.27
595.31	423.64
595.47	355.76
595.62	369.80
595.78	449.38
595.94	322.99
596.10	472.79
596.25	442.36
596.41	414.27
596.57	421.30
596.73	409.59
596.88	374.49
597.04	334.70
597.20	425.98
597.36	409.59
597.51	468.11
597.67	360.44
597.83	379.17
597.99	367.46
598.14	409.59
598.30	482.15
598.46	468.11
598.61	484.49
598.77	521.94
598.93	507.90
599.09	571.09
599.24	526.62
599.40	564.07
599.56	524.28
599.71	512.58
599.87	465.77
600.03	486.83
600.18	402.57
600.34	491.51
600.50	449.38
600.65	355.76
600.81	383.85
600.97	320.65
601.12	313.63
601.28	447.04
601.44	388.53
601.59	411.93
601.75	348.74
601.91	404.91
602.06	341.72
602.22	421.30
602.37	306.61
602.53	337.04
602.69	332.36
602.84	339.38
603.00	362.78
603.16	402.57
603.31	330.02
603.47	292.57
603.62	367.46
603.78	388.53
603.94	346.40
604.09	362.78
604.25	334.70
604.40	383.85
604.56	402.57
604.71	318.31
604.87	334.70
605.03	376.83
605.18	365.12
605.34	360.44
605.49	358.10
605.65	341.72
605.80	365.12
605.96	346.40
606.12	447.04
606.27	461.09
606.43	273.84
606.58	425.98
606.74	388.53
606.89	454.06
607.05	447.04
607.20	444.70
607.36	503.22
607.51	440.02
607.67	543.00
607.82	498.53
607.98	547.69
608.13	592.16
608.29	540.66
608.44	660.03
608.60	603.86
608.75	683.44
608.91	718.54
609.06	873.02
609.22	898.77
609.37	947.92
609.53	1060.26
609.68	1090.69
609.84	1336.45
609.99	1502.62
610.15	1708.59
610.30	2099.46
610.46	2534.80
610.61	3073.12
610.76	4056.15
