SpectraSuite Data File
++++++++++++++++++++++++++++++++++++
Date: Fri Oct 04 11:41:59 GMT-05:00 2013
User: price-jones
Dark Spectrum Present: No
Reference Spectrum Present: No
Number of Sampled Component Spectra: 1
Spectrometers: USB2+H05261
Integration Time (usec): 100000 (USB2+H05261)
Spectra Averaged: 1 (USB2+H05261)
Boxcar Smoothing: 0 (USB2+H05261)
Correct for Electrical Dark: No (USB2+H05261)
Strobe/Lamp Enabled: No (USB2+H05261)
Correct for Detector Non-linearity: No (USB2+H05261)
Correct for Stray Light: No (USB2+H05261)
Number of Pixels in Processed Spectrum: 2048
>>>>>Begin Processed Spectral Data<<<<<
365.73	0.00
365.92	0.00
366.12	0.00
366.32	0.00
366.52	0.00
366.72	2.34
366.91	0.00
367.11	0.00
367.31	0.00
367.51	0.00
367.70	0.00
367.90	9.36
368.10	0.00
368.30	0.00
368.49	0.00
368.69	0.00
368.89	0.00
369.09	0.00
369.28	0.00
369.48	0.00
369.68	0.00
369.87	18.72
370.07	0.00
370.27	84.26
370.47	30.43
370.66	9.36
370.86	117.03
371.06	49.15
371.25	170.86
371.45	128.73
371.65	95.96
371.84	56.17
372.04	72.56
372.24	88.94
372.44	74.90
372.63	119.37
372.83	128.73
373.03	138.09
373.22	154.48
373.42	91.28
373.62	180.22
373.81	77.24
374.01	107.66
374.21	86.60
374.40	147.45
374.60	135.75
374.79	95.96
374.99	152.13
375.19	133.41
375.38	156.82
375.58	81.92
375.78	112.35
375.97	124.05
376.17	147.45
376.37	107.66
376.56	145.11
376.76	117.03
376.95	126.39
377.15	168.52
377.35	243.42
377.54	98.30
377.74	138.09
377.93	166.18
378.13	70.22
378.33	149.79
378.52	161.50
378.72	152.13
378.91	184.90
379.11	161.50
379.31	110.01
379.50	128.73
379.70	102.98
379.89	145.11
380.09	142.77
380.28	93.62
380.48	77.24
380.68	86.60
380.87	114.69
381.07	152.13
381.26	128.73
381.46	131.07
381.65	102.98
381.85	86.60
382.04	149.79
382.24	163.84
382.43	220.01
382.63	84.26
382.83	39.79
383.02	121.71
383.22	117.03
383.41	91.28
383.61	142.77
383.80	91.28
384.00	86.60
384.19	170.86
384.39	121.71
384.58	84.26
384.78	88.94
384.97	65.54
385.17	67.88
385.36	84.26
385.56	112.35
385.75	53.83
385.95	147.45
386.14	93.62
386.34	128.73
386.53	142.77
386.72	63.19
386.92	121.71
387.11	119.37
387.31	131.07
387.50	88.94
387.70	81.92
387.89	98.30
388.09	58.51
388.28	133.41
388.48	121.71
388.67	131.07
388.86	184.90
389.06	126.39
389.25	112.35
389.45	74.90
389.64	105.32
389.84	208.31
390.03	149.79
390.22	128.73
390.42	42.13
390.61	56.17
390.81	9.36
391.00	84.26
391.19	154.48
391.39	163.84
391.58	156.82
391.78	114.69
391.97	140.43
392.16	131.07
392.36	182.56
392.55	98.30
392.75	88.94
392.94	124.05
393.13	138.09
393.33	98.30
393.52	93.62
393.71	168.52
393.91	156.82
394.10	124.05
394.29	79.58
394.49	117.03
394.68	107.66
394.88	100.64
395.07	110.01
395.26	114.69
395.46	46.81
395.65	121.71
395.84	154.48
396.04	194.26
396.23	119.37
396.42	107.66
396.62	133.41
396.81	131.07
397.00	67.88
397.19	79.58
397.39	154.48
397.58	175.54
397.77	100.64
397.97	93.62
398.16	138.09
398.35	163.84
398.55	117.03
398.74	91.28
398.93	119.37
399.12	180.22
399.32	98.30
399.51	126.39
399.70	142.77
399.90	154.48
400.09	119.37
400.28	124.05
400.47	110.01
400.67	128.73
400.86	138.09
401.05	187.24
401.24	152.13
401.44	189.58
401.63	168.52
401.82	105.32
402.01	177.88
402.21	112.35
402.40	102.98
402.59	60.85
402.78	147.45
402.97	163.84
403.17	166.18
403.36	145.11
403.55	196.60
403.74	552.37
403.93	1409.00
404.13	2918.65
404.32	3122.27
404.51	2576.93
404.70	1458.15
404.89	580.45
405.09	273.84
405.28	107.66
405.47	163.84
405.66	196.60
405.85	168.52
406.05	220.01
406.24	131.07
406.43	217.67
406.62	217.67
406.81	198.95
407.00	264.48
407.20	386.19
407.39	472.79
407.58	533.64
407.77	395.55
407.96	283.20
408.15	210.65
408.34	147.45
408.54	117.03
408.73	117.03
408.92	196.60
409.11	128.73
409.30	271.50
409.49	128.73
409.68	102.98
409.87	175.54
410.07	135.75
410.26	145.11
410.45	135.75
410.64	159.16
410.83	182.56
411.02	145.11
411.21	217.67
411.40	133.41
411.59	131.07
411.78	147.45
411.98	147.45
412.17	170.86
412.36	119.37
412.55	184.90
412.74	177.88
412.93	257.46
413.12	156.82
413.31	119.37
413.50	156.82
413.69	145.11
413.88	194.26
414.07	180.22
414.26	100.64
414.45	203.63
414.64	147.45
414.83	131.07
415.02	149.79
415.22	205.97
415.41	105.32
415.60	194.26
415.79	135.75
415.98	245.76
416.17	231.71
416.36	198.95
416.55	119.37
416.74	194.26
416.93	191.92
417.12	180.22
417.31	198.95
417.50	180.22
417.69	229.37
417.88	273.84
418.07	117.03
418.26	224.69
418.45	161.50
418.64	198.95
418.83	189.58
419.02	154.48
419.21	194.26
419.39	189.58
419.58	163.84
419.77	175.54
419.96	161.50
420.15	154.48
420.34	196.60
420.53	173.20
420.72	227.03
420.91	170.86
421.10	266.82
421.29	124.05
421.48	269.16
421.67	262.14
421.86	273.84
422.05	154.48
422.24	149.79
422.43	215.33
422.61	187.24
422.80	243.42
422.99	248.10
423.18	259.80
423.37	229.37
423.56	266.82
423.75	184.90
423.94	248.10
424.13	231.71
424.32	217.67
424.50	177.88
424.69	182.56
424.88	306.61
425.07	245.76
425.26	217.67
425.45	266.82
425.64	175.54
425.83	187.24
426.01	212.99
426.20	236.39
426.39	124.05
426.58	236.39
426.77	224.69
426.96	198.95
427.15	220.01
427.33	224.69
427.52	252.78
427.71	215.33
427.90	269.16
428.09	217.67
428.28	245.76
428.46	220.01
428.65	299.59
428.84	215.33
429.03	339.38
429.22	194.26
429.40	280.86
429.59	210.65
429.78	346.40
429.97	208.31
430.16	184.90
430.34	191.92
430.53	262.14
430.72	273.84
430.91	264.48
431.10	238.73
431.28	332.36
431.47	304.27
431.66	250.44
431.85	297.25
432.03	339.38
432.22	315.97
432.41	292.57
432.60	367.46
432.79	252.78
432.97	250.44
433.16	292.57
433.35	372.15
433.54	353.42
433.72	372.15
433.91	388.53
434.10	397.89
434.28	554.71
434.47	554.71
434.66	533.64
434.85	713.86
435.03	2317.13
435.22	8388.48
435.41	14361.53
435.59	13324.67
435.78	8688.07
435.97	4030.40
436.16	1612.63
436.34	685.78
436.53	402.57
436.72	463.43
436.90	257.46
437.09	386.19
437.28	348.74
437.46	353.42
437.65	280.86
437.84	259.80
438.02	287.89
438.21	262.14
438.40	257.46
438.58	271.50
438.77	348.74
438.96	285.55
439.14	353.42
439.33	330.02
439.52	250.44
439.70	315.97
439.89	306.61
440.08	341.72
440.26	353.42
440.45	318.31
440.63	306.61
440.82	257.46
441.01	234.05
441.19	252.78
441.38	301.93
441.57	278.52
441.75	386.19
441.94	358.10
442.12	238.73
442.31	376.83
442.50	248.10
442.68	250.44
442.87	266.82
443.05	341.72
443.24	245.76
443.43	290.23
443.61	360.44
443.80	278.52
443.98	271.50
444.17	252.78
444.35	257.46
444.54	325.33
444.73	255.12
444.91	341.72
445.10	322.99
445.28	313.63
445.47	276.18
445.65	257.46
445.84	276.18
446.02	348.74
446.21	236.39
446.39	187.24
446.58	276.18
446.77	283.20
446.95	276.18
447.14	294.91
447.32	220.01
447.51	322.99
447.69	259.80
447.88	290.23
448.06	351.08
448.25	311.29
448.43	271.50
448.62	308.95
448.80	278.52
448.99	257.46
449.17	236.39
449.36	315.97
449.54	341.72
449.73	280.86
449.91	294.91
450.10	318.31
450.28	322.99
450.46	372.15
450.65	297.25
450.83	294.91
451.02	273.84
451.20	308.95
451.39	259.80
451.57	285.55
451.76	320.65
451.94	276.18
452.13	311.29
452.31	320.65
452.49	306.61
452.68	271.50
452.86	304.27
453.05	276.18
453.23	259.80
453.42	252.78
453.60	322.99
453.78	351.08
453.97	290.23
454.15	257.46
454.34	306.61
454.52	306.61
454.70	252.78
454.89	311.29
455.07	299.59
455.26	327.68
455.44	264.48
455.62	276.18
455.81	301.93
455.99	369.80
456.17	301.93
456.36	262.14
456.54	294.91
456.73	264.48
456.91	280.86
457.09	290.23
457.28	313.63
457.46	292.57
457.64	278.52
457.83	297.25
458.01	248.10
458.19	271.50
458.38	243.42
458.56	266.82
458.74	297.25
458.93	351.08
459.11	262.14
459.29	276.18
459.48	348.74
459.66	334.70
459.84	308.95
460.03	362.78
460.21	283.20
460.39	257.46
460.57	388.53
460.76	297.25
460.94	315.97
461.12	299.59
461.31	299.59
461.49	264.48
461.67	306.61
461.85	262.14
462.04	217.67
462.22	690.46
462.40	334.70
462.59	362.78
462.77	241.08
462.95	315.97
463.13	269.16
463.32	238.73
463.50	231.71
463.68	348.74
463.86	330.02
464.05	304.27
464.23	280.86
464.41	351.08
464.59	255.12
464.78	259.80
464.96	257.46
465.14	243.42
465.32	280.86
465.50	220.01
465.69	344.06
465.87	229.37
466.05	327.68
466.23	285.55
466.41	264.48
466.60	339.38
466.78	290.23
466.96	334.70
467.14	360.44
467.32	315.97
467.51	337.04
467.69	322.99
467.87	344.06
468.05	278.52
468.23	365.12
468.41	271.50
468.60	271.50
468.78	259.80
468.96	264.48
469.14	283.20
469.32	236.39
469.50	278.52
469.69	234.05
469.87	252.78
470.05	266.82
470.23	257.46
470.41	234.05
470.59	292.57
470.77	234.05
470.95	229.37
471.14	306.61
471.32	224.69
471.50	318.31
471.68	234.05
471.86	290.23
472.04	332.36
472.22	259.80
472.40	215.33
472.58	248.10
472.77	278.52
472.95	341.72
473.13	348.74
473.31	269.16
473.49	311.29
473.67	315.97
473.85	304.27
474.03	313.63
474.21	276.18
474.39	322.99
474.57	313.63
474.75	332.36
474.93	290.23
475.12	346.40
475.30	379.17
475.48	362.78
475.66	313.63
475.84	322.99
476.02	283.20
476.20	344.06
476.38	276.18
476.56	306.61
476.74	278.52
476.92	348.74
477.10	294.91
477.28	280.86
477.46	320.65
477.64	346.40
477.82	234.05
478.00	313.63
478.18	386.19
478.36	358.10
478.54	311.29
478.72	306.61
478.90	337.04
479.08	353.42
479.26	360.44
479.44	271.50
479.62	425.98
479.80	423.64
479.98	372.15
480.16	379.17
480.34	421.30
480.52	383.85
480.70	475.13
480.88	435.34
481.06	428.32
481.24	423.64
481.41	489.17
481.59	463.43
481.77	573.43
481.95	582.79
482.13	610.88
482.31	491.51
482.49	580.45
482.67	685.78
482.85	681.10
483.03	755.99
483.21	812.17
483.39	858.98
483.57	882.38
483.74	898.77
483.92	931.53
484.10	880.04
484.28	1027.50
484.46	1078.99
484.64	1074.31
484.82	1123.46
485.00	1303.68
485.18	1249.85
485.35	1397.30
485.53	1413.68
485.71	1434.75
485.89	1467.52
486.07	1547.09
486.25	1514.33
486.43	1479.22
486.61	1519.01
486.78	1563.48
486.96	1488.58
487.14	1519.01
487.32	1483.90
487.50	1584.54
487.68	1511.99
487.85	1495.60
488.03	1434.75
488.21	1409.00
488.39	1357.51
488.57	1486.24
488.75	1366.87
488.92	1678.16
489.10	1376.24
489.28	1366.87
489.46	1214.74
489.64	1352.83
489.81	1284.95
489.99	1266.23
490.17	1210.06
490.35	1341.13
490.53	1219.42
490.70	1071.97
490.88	1114.10
491.06	1308.36
491.24	1348.15
491.41	1366.87
491.59	1238.14
491.77	1170.27
491.95	1200.69
492.13	1121.12
492.30	1139.84
492.48	1057.92
492.66	1118.78
492.84	990.05
493.01	1137.50
493.19	1027.50
493.37	1060.26
493.54	1053.24
493.72	1022.81
493.90	983.02
494.08	936.21
494.25	1095.37
494.43	1032.18
494.61	957.28
494.79	957.28
494.96	854.30
495.14	947.92
495.32	959.62
495.49	833.23
495.67	870.68
495.85	816.85
496.02	873.02
496.20	816.85
496.38	882.38
496.55	908.13
496.73	763.01
496.91	814.51
497.09	720.88
497.26	826.21
497.44	774.72
497.62	753.65
497.79	699.82
497.97	812.17
498.14	669.39
498.32	685.78
498.50	753.65
498.67	653.01
498.85	617.90
499.03	697.48
499.20	596.84
499.38	596.84
499.56	655.35
499.73	725.57
499.91	723.23
500.08	608.54
500.26	601.52
500.44	543.00
500.61	592.16
500.79	510.24
500.97	573.43
501.14	526.62
501.32	540.66
501.49	535.98
501.67	505.56
501.84	538.32
502.02	505.56
502.20	503.22
502.37	503.22
502.55	442.36
502.72	337.04
502.90	456.40
503.07	383.85
503.25	458.74
503.43	369.80
503.60	400.23
503.78	360.44
503.95	407.25
504.13	297.25
504.30	449.38
504.48	414.27
504.65	470.45
504.83	339.38
505.01	362.78
505.18	264.48
505.36	341.72
505.53	411.93
505.71	264.48
505.88	348.74
506.06	383.85
506.23	355.76
506.41	287.89
506.58	346.40
506.76	355.76
506.93	325.33
507.11	341.72
507.28	341.72
507.46	262.14
507.63	414.27
507.81	353.42
507.98	299.59
508.16	407.25
508.33	397.89
508.50	341.72
508.68	365.12
508.85	341.72
509.03	374.49
509.20	367.46
509.38	397.89
509.55	351.08
509.73	411.93
509.90	404.91
510.08	351.08
510.25	386.19
510.42	330.02
510.60	320.65
510.77	358.10
510.95	369.80
511.12	355.76
511.30	311.29
511.47	372.15
511.64	355.76
511.82	325.33
511.99	311.29
512.17	334.70
512.34	339.38
512.51	322.99
512.69	318.31
512.86	369.80
513.04	271.50
513.21	308.95
513.38	325.33
513.56	259.80
513.73	290.23
513.90	273.84
514.08	304.27
514.25	304.27
514.43	337.04
514.60	341.72
514.77	292.57
514.95	294.91
515.12	315.97
515.29	294.91
515.47	351.08
515.64	308.95
515.81	283.20
515.99	372.15
516.16	266.82
516.33	278.52
516.51	355.76
516.68	308.95
516.85	304.27
517.03	287.89
517.20	301.93
517.37	318.31
517.54	301.93
517.72	285.55
517.89	304.27
518.06	229.37
518.24	351.08
518.41	348.74
518.58	374.49
518.75	266.82
518.93	318.31
519.10	311.29
519.27	257.46
519.45	285.55
519.62	287.89
519.79	271.50
519.96	287.89
520.14	257.46
520.31	287.89
520.48	411.93
520.65	322.99
520.83	299.59
521.00	285.55
521.17	325.33
521.34	386.19
521.52	313.63
521.69	294.91
521.86	306.61
522.03	250.44
522.20	299.59
522.38	273.84
522.55	222.35
522.72	262.14
522.89	325.33
523.07	348.74
523.24	269.16
523.41	220.01
523.58	259.80
523.75	301.93
523.92	327.68
524.10	358.10
524.27	353.42
524.44	341.72
524.61	327.68
524.78	322.99
524.96	327.68
525.13	411.93
525.30	374.49
525.47	294.91
525.64	285.55
525.81	280.86
525.98	334.70
526.16	278.52
526.33	231.71
526.50	353.42
526.67	276.18
526.84	372.15
527.01	285.55
527.18	344.06
527.36	283.20
527.53	414.27
527.70	400.23
527.87	306.61
528.04	428.32
528.21	409.59
528.38	376.83
528.55	372.15
528.72	297.25
528.89	395.55
529.07	322.99
529.24	402.57
529.41	383.85
529.58	376.83
529.75	367.46
529.92	348.74
530.09	369.80
530.26	351.08
530.43	421.30
530.60	365.12
530.77	428.32
530.94	503.22
531.11	482.15
531.28	339.38
531.46	374.49
531.63	498.53
531.80	433.00
531.97	486.83
532.14	489.17
532.31	599.18
532.48	643.65
532.65	744.29
532.82	784.08
532.99	910.47
533.16	1053.24
533.33	901.11
533.50	973.66
533.67	854.30
533.84	734.93
534.01	634.29
534.18	755.99
534.35	599.18
534.52	596.84
534.69	678.76
534.86	678.76
535.03	730.25
535.20	781.74
535.37	812.17
535.54	809.83
535.71	814.51
535.88	884.72
536.05	959.62
536.22	950.26
536.38	1029.84
536.55	1109.41
536.72	1301.34
536.89	1313.04
537.06	1542.41
537.23	1640.72
537.40	1769.44
537.57	1998.82
537.74	1970.73
537.91	2087.76
538.08	2127.55
538.25	2083.08
538.42	2136.91
538.59	2197.76
538.75	2352.24
538.92	2363.94
539.09	2548.84
539.26	2899.92
539.43	3232.28
539.60	3613.79
539.77	4018.70
539.94	4311.27
540.11	4933.85
540.28	5322.38
540.44	5708.57
540.61	6485.62
540.78	7197.15
540.95	9142.13
541.12	10513.69
541.29	11719.06
541.46	11918.01
541.62	11637.14
541.79	11375.00
541.96	10494.96
542.13	9935.57
542.30	9390.23
542.47	8674.03
542.63	8210.60
542.80	8037.40
542.97	7960.16
543.14	7901.65
543.31	8035.06
543.48	8154.43
543.64	8060.80
543.81	8236.35
543.98	8177.83
544.15	8383.80
544.32	8276.13
544.48	8369.76
544.65	8182.51
544.82	8215.28
544.99	8131.02
545.16	8383.80
545.32	9167.88
545.49	17649.98
545.66	29589.05
545.83	31754.05
546.00	26094.63
546.16	17734.24
546.33	13095.30
546.50	10040.90
546.67	8234.00
546.83	7389.07
547.00	7005.22
547.17	6705.63
547.34	6408.39
547.50	6279.66
547.67	5935.60
547.84	5586.86
548.00	5523.66
548.17	5291.95
548.34	5029.81
548.51	4973.64
548.67	4800.44
548.84	4568.73
549.01	4156.79
549.18	4189.56
549.34	3927.42
549.51	3721.45
549.68	3747.20
549.84	3613.79
550.01	3316.54
550.18	3332.92
550.34	3119.93
550.51	2848.43
550.68	2841.41
550.84	2761.83
551.01	2513.74
551.18	2476.29
551.34	2317.13
551.51	2279.68
551.68	2272.66
551.84	2104.14
552.01	2097.12
552.18	2052.65
552.34	1902.86
552.51	1771.79
552.68	1872.43
552.84	1657.10
553.01	1554.12
553.18	1586.88
553.34	1535.39
553.51	1465.18
553.67	1469.86
553.84	1423.05
554.01	1348.15
554.17	1329.42
554.34	1123.46
554.51	1029.84
554.67	1078.99
554.84	1069.62
555.00	1034.52
555.17	940.90
555.33	912.81
555.50	821.53
555.67	880.04
555.83	791.10
556.00	713.86
556.16	912.81
556.33	737.27
556.50	678.76
556.66	671.73
556.83	685.78
556.99	601.52
557.16	634.29
557.32	631.94
557.49	723.23
557.65	589.82
557.82	566.41
557.98	664.71
558.15	550.03
558.32	629.60
558.48	641.31
558.65	564.07
558.81	510.24
558.98	535.98
559.14	430.66
559.31	479.81
559.47	568.75
559.64	564.07
559.80	587.47
559.97	589.82
560.13	456.40
560.30	461.09
560.46	489.17
560.63	470.45
560.79	451.72
560.96	395.55
561.12	496.19
561.29	538.32
561.45	493.85
561.61	521.94
561.78	547.69
561.94	458.74
562.11	510.24
562.27	482.15
562.44	482.15
562.60	510.24
562.77	491.51
562.93	491.51
563.10	430.66
563.26	484.49
563.42	479.81
563.59	440.02
563.75	440.02
563.92	543.00
564.08	454.06
564.24	472.79
564.41	500.87
564.57	308.95
564.74	425.98
564.90	397.89
565.07	390.87
565.23	505.56
565.39	379.17
565.56	393.21
565.72	372.15
565.88	355.76
566.05	404.91
566.21	428.32
566.38	461.09
566.54	365.12
566.70	440.02
566.87	465.77
567.03	430.66
567.19	395.55
567.36	320.65
567.52	353.42
567.68	463.43
567.85	411.93
568.01	379.17
568.17	416.62
568.34	468.11
568.50	500.87
568.66	444.70
568.83	465.77
568.99	393.21
569.15	437.68
569.32	346.40
569.48	379.17
569.64	365.12
569.81	365.12
569.97	320.65
570.13	388.53
570.30	351.08
570.46	339.38
570.62	229.37
570.78	337.04
570.95	355.76
571.11	416.62
571.27	299.59
571.43	250.44
571.60	313.63
571.76	360.44
571.92	365.12
572.09	351.08
572.25	353.42
572.41	395.55
572.57	351.08
572.74	414.27
572.90	414.27
573.06	435.34
573.22	315.97
573.38	423.64
573.55	402.57
573.71	313.63
573.87	414.27
574.03	369.80
574.20	444.70
574.36	458.74
574.52	400.23
574.68	292.57
574.84	390.87
575.01	376.83
575.17	416.62
575.33	433.00
575.49	458.74
575.65	472.79
575.82	587.47
575.98	638.97
576.14	596.84
576.30	1362.19
576.46	3950.82
576.62	5722.61
576.79	5376.21
576.95	3922.74
577.11	2693.96
577.27	1980.09
577.43	1291.98
577.59	915.15
577.75	795.78
577.92	685.78
578.08	573.43
578.24	849.61
578.40	1453.47
578.56	3693.37
578.72	5039.17
578.88	5270.89
579.04	3775.28
579.21	2602.68
579.37	1998.82
579.53	1680.50
579.69	1736.68
579.85	2040.95
580.01	2188.40
580.17	2099.46
580.33	1900.52
580.49	1654.76
580.65	1439.43
580.82	1390.28
580.98	1273.25
581.14	1387.94
581.30	1474.54
581.46	1556.46
581.62	1619.65
581.78	1734.34
581.94	1785.83
582.10	1994.14
582.26	2059.67
582.42	2026.90
582.58	2181.38
582.74	2298.41
582.90	2179.04
583.06	2253.94
583.22	2186.06
583.38	2253.94
583.54	2251.60
583.70	2230.53
583.86	2165.00
584.02	2113.50
584.18	2108.82
584.34	1961.37
584.50	2094.78
584.66	2162.66
584.82	2019.88
584.98	1930.94
585.14	1921.58
585.30	1905.20
585.46	1870.09
585.62	1732.00
585.78	1851.36
585.94	1820.94
586.10	1944.99
586.26	1963.71
586.42	2188.40
586.58	2708.00
586.74	3361.01
586.90	3941.46
587.06	4102.96
587.22	3939.12
587.38	3557.61
587.54	3063.76
587.70	2745.45
587.86	2232.87
588.02	2015.20
588.18	1776.47
588.34	1582.20
588.49	1425.39
588.65	1383.26
588.81	1359.85
588.97	1329.42
589.13	1254.53
589.29	1144.52
589.45	1245.16
589.61	1198.35
589.77	1294.32
589.93	1273.25
590.08	1338.79
590.24	1348.15
590.40	1472.20
590.56	1549.43
590.72	1603.27
590.88	1460.49
591.04	1591.56
591.20	1575.18
591.35	1661.78
591.51	1678.16
591.67	1750.72
591.83	1952.01
591.99	2064.35
592.15	2197.76
592.31	2347.56
592.46	2546.50
592.62	2792.26
592.78	2871.84
592.94	3068.44
593.10	2902.26
593.26	2717.36
593.41	2619.06
593.57	2359.26
593.73	2071.37
593.89	1844.34
594.05	1584.54
594.20	1493.26
594.36	1504.96
594.52	1252.19
594.68	1247.51
594.84	1233.46
594.99	1294.32
595.15	1188.99
595.31	1128.14
595.47	1123.46
595.62	1132.82
595.78	1102.39
595.94	1139.84
596.10	1116.44
596.25	1088.35
596.41	1130.48
596.57	1121.12
596.73	1078.99
596.88	1088.35
597.04	1224.10
597.20	1137.50
597.36	1142.18
597.51	1186.65
597.67	1217.08
597.83	1303.68
597.99	1397.30
598.14	1455.81
598.30	1514.33
598.46	1577.52
598.61	1631.35
598.77	1769.44
598.93	1760.08
599.09	1895.83
599.24	1853.70
599.40	1783.49
599.56	1748.38
599.71	1654.76
599.87	1664.12
600.03	1490.92
600.18	1348.15
600.34	1291.98
600.50	1233.46
600.65	1198.35
600.81	1217.08
600.97	1013.45
601.12	1111.75
601.28	1043.88
601.44	999.41
601.59	898.77
601.75	849.61
601.91	840.25
602.06	807.48
602.22	952.60
602.37	791.10
602.53	842.59
602.69	816.85
602.84	889.40
603.00	851.96
603.16	880.04
603.31	781.74
603.47	901.11
603.62	880.04
603.78	858.98
603.94	894.08
604.09	837.91
604.25	973.66
604.40	849.61
604.56	1001.75
604.71	950.26
604.87	908.13
605.03	1025.15
605.18	929.19
605.34	1064.94
605.49	922.17
605.65	961.96
605.80	1083.67
605.96	961.96
606.12	1177.29
606.27	1221.76
606.43	1217.08
606.58	1355.17
606.74	1350.49
606.89	1423.05
607.05	1516.67
607.20	1500.28
