SpectraSuite Data File
++++++++++++++++++++++++++++++++++++
Date: Fri Oct 04 11:42:31 GMT-05:00 2013
User: price-jones
Dark Spectrum Present: No
Reference Spectrum Present: No
Number of Sampled Component Spectra: 1
Spectrometers: USB2+H05261
Integration Time (usec): 100000 (USB2+H05261)
Spectra Averaged: 1 (USB2+H05261)
Boxcar Smoothing: 0 (USB2+H05261)
Correct for Electrical Dark: No (USB2+H05261)
Strobe/Lamp Enabled: No (USB2+H05261)
Correct for Detector Non-linearity: No (USB2+H05261)
Correct for Stray Light: No (USB2+H05261)
Number of Pixels in Processed Spectrum: 2048
>>>>>Begin Processed Spectral Data<<<<<
365.73	65.54
365.92	65.54
366.12	65.54
366.32	0.00
366.52	0.00
366.72	0.00
366.91	0.00
367.11	0.00
367.31	0.00
367.51	0.00
367.70	0.00
367.90	0.00
368.10	0.00
368.30	0.00
368.49	0.00
368.69	0.00
368.89	0.00
369.09	2.34
369.28	0.00
369.48	0.00
369.68	16.38
369.87	0.00
370.07	0.00
370.27	37.45
370.47	0.00
370.66	30.43
370.86	44.47
371.06	46.81
371.25	128.73
371.45	98.30
371.65	93.62
371.84	60.85
372.04	37.45
372.24	84.26
372.44	81.92
372.63	124.05
372.83	170.86
373.03	88.94
373.22	63.19
373.42	42.13
373.62	152.13
373.81	191.92
374.01	117.03
374.21	166.18
374.40	182.56
374.60	145.11
374.79	126.39
374.99	107.66
375.19	149.79
375.38	161.50
375.58	126.39
375.78	124.05
375.97	135.75
376.17	168.52
376.37	133.41
376.56	124.05
376.76	86.60
376.95	126.39
377.15	44.47
377.35	84.26
377.54	161.50
377.74	81.92
377.93	86.60
378.13	138.09
378.33	112.35
378.52	100.64
378.72	67.88
378.91	159.16
379.11	156.82
379.31	79.58
379.50	84.26
379.70	133.41
379.89	102.98
380.09	149.79
380.28	133.41
380.48	119.37
380.68	95.96
380.87	88.94
381.07	93.62
381.26	152.13
381.46	124.05
381.65	51.49
381.85	149.79
382.04	53.83
382.24	140.43
382.43	145.11
382.63	140.43
382.83	79.58
383.02	126.39
383.22	168.52
383.41	138.09
383.61	112.35
383.80	86.60
384.00	67.88
384.19	84.26
384.39	84.26
384.58	67.88
384.78	107.66
384.97	107.66
385.17	56.17
385.36	81.92
385.56	147.45
385.75	93.62
385.95	98.30
386.14	119.37
386.34	93.62
386.53	91.28
386.72	98.30
386.92	182.56
387.11	102.98
387.31	124.05
387.50	35.11
387.70	107.66
387.89	107.66
388.09	49.15
388.28	121.71
388.48	138.09
388.67	105.32
388.86	161.50
389.06	63.19
389.25	124.05
389.45	86.60
389.64	86.60
389.84	126.39
390.03	154.48
390.22	100.64
390.42	51.49
390.61	149.79
390.81	39.79
391.00	126.39
391.19	145.11
391.39	93.62
391.58	147.45
391.78	182.56
391.97	91.28
392.16	110.01
392.36	93.62
392.55	140.43
392.75	128.73
392.94	91.28
393.13	117.03
393.33	81.92
393.52	105.32
393.71	149.79
393.91	152.13
394.10	105.32
394.29	124.05
394.49	191.92
394.68	152.13
394.88	65.54
395.07	133.41
395.26	114.69
395.46	140.43
395.65	119.37
395.84	131.07
396.04	168.52
396.23	145.11
396.42	114.69
396.62	112.35
396.81	110.01
397.00	72.56
397.19	121.71
397.39	133.41
397.58	175.54
397.77	128.73
397.97	107.66
398.16	133.41
398.35	147.45
398.55	74.90
398.74	126.39
398.93	126.39
399.12	81.92
399.32	131.07
399.51	149.79
399.70	149.79
399.90	154.48
400.09	107.66
400.28	88.94
400.47	98.30
400.67	95.96
400.86	124.05
401.05	95.96
401.24	117.03
401.44	121.71
401.63	196.60
401.82	142.77
402.01	163.84
402.21	133.41
402.40	159.16
402.59	131.07
402.78	147.45
402.97	53.83
403.17	117.03
403.36	173.20
403.55	98.30
403.74	159.16
403.93	128.73
404.13	227.03
404.32	234.05
404.51	259.80
404.70	182.56
404.89	107.66
405.09	215.33
405.28	63.19
405.47	77.24
405.66	128.73
405.85	133.41
406.05	177.88
406.24	119.37
406.43	138.09
406.62	131.07
406.81	168.52
407.00	149.79
407.20	124.05
407.39	124.05
407.58	93.62
407.77	182.56
407.96	173.20
408.15	159.16
408.34	112.35
408.54	72.56
408.73	147.45
408.92	175.54
409.11	159.16
409.30	161.50
409.49	133.41
409.68	112.35
409.87	182.56
410.07	65.54
410.26	159.16
410.45	154.48
410.64	168.52
410.83	110.01
411.02	72.56
411.21	126.39
411.40	196.60
411.59	147.45
411.78	117.03
411.98	81.92
412.17	154.48
412.36	149.79
412.55	128.73
412.74	102.98
412.93	138.09
413.12	149.79
413.31	191.92
413.50	70.22
413.69	173.20
413.88	124.05
414.07	124.05
414.26	149.79
414.45	112.35
414.64	173.20
414.83	175.54
415.02	124.05
415.22	166.18
415.41	191.92
415.60	135.75
415.79	81.92
415.98	177.88
416.17	182.56
416.36	117.03
416.55	105.32
416.74	215.33
416.93	187.24
417.12	72.56
417.31	110.01
417.50	93.62
417.69	149.79
417.88	105.32
418.07	166.18
418.26	126.39
418.45	159.16
418.64	154.48
418.83	135.75
419.02	135.75
419.21	191.92
419.39	95.96
419.58	117.03
419.77	131.07
419.96	135.75
420.15	156.82
420.34	114.69
420.53	145.11
420.72	145.11
420.91	140.43
421.10	147.45
421.29	102.98
421.48	191.92
421.67	177.88
421.86	0.00
422.05	149.79
422.24	163.84
422.43	187.24
422.61	126.39
422.80	133.41
422.99	133.41
423.18	65.54
423.37	159.16
423.56	110.01
423.75	189.58
423.94	149.79
424.13	259.80
424.32	126.39
424.50	121.71
424.69	177.88
424.88	112.35
425.07	198.95
425.26	166.18
425.45	154.48
425.64	142.77
425.83	65.54
426.01	147.45
426.20	140.43
426.39	147.45
426.58	215.33
426.77	170.86
426.96	140.43
427.15	173.20
427.33	156.82
427.52	234.05
427.71	166.18
427.90	154.48
428.09	131.07
428.28	126.39
428.46	191.92
428.65	161.50
428.84	154.48
429.03	166.18
429.22	117.03
429.40	114.69
429.59	58.51
429.78	191.92
429.97	105.32
430.16	159.16
430.34	142.77
430.53	88.94
430.72	84.26
430.91	231.71
431.10	79.58
431.28	156.82
431.47	241.08
431.66	114.69
431.85	154.48
432.03	117.03
432.22	140.43
432.41	175.54
432.60	133.41
432.79	86.60
432.97	156.82
433.16	173.20
433.35	145.11
433.54	149.79
433.72	170.86
433.91	217.67
434.10	173.20
434.28	168.52
434.47	175.54
434.66	124.05
434.85	212.99
435.03	292.57
435.22	615.56
435.41	1022.81
435.59	1132.82
435.78	835.57
435.97	498.53
436.16	346.40
436.34	191.92
436.53	227.03
436.72	119.37
436.90	212.99
437.09	196.60
437.28	198.95
437.46	102.98
437.65	215.33
437.84	161.50
438.02	208.31
438.21	79.58
438.40	163.84
438.58	142.77
438.77	163.84
438.96	86.60
439.14	189.58
439.33	191.92
439.52	175.54
439.70	170.86
439.89	184.90
440.08	138.09
440.26	166.18
440.45	128.73
440.63	224.69
440.82	145.11
441.01	177.88
441.19	161.50
441.38	182.56
441.57	187.24
441.75	278.52
441.94	201.29
442.12	161.50
442.31	180.22
442.50	100.64
442.68	133.41
442.87	93.62
443.05	95.96
443.24	124.05
443.43	180.22
443.61	203.63
443.80	175.54
443.98	173.20
444.17	152.13
444.35	163.84
444.54	175.54
444.73	145.11
444.91	198.95
445.10	93.62
445.28	95.96
445.47	152.13
445.65	173.20
445.84	119.37
446.02	147.45
446.21	234.05
446.39	170.86
446.58	203.63
446.77	98.30
446.95	203.63
447.14	210.65
447.32	138.09
447.51	98.30
447.69	184.90
447.88	142.77
448.06	161.50
448.25	180.22
448.43	126.39
448.62	180.22
448.80	156.82
448.99	159.16
449.17	138.09
449.36	105.32
449.54	191.92
449.73	91.28
449.91	161.50
450.10	166.18
450.28	156.82
450.46	299.59
450.65	194.26
450.83	161.50
451.02	243.42
451.20	168.52
451.39	152.13
451.57	196.60
451.76	201.29
451.94	152.13
452.13	208.31
452.31	182.56
452.49	152.13
452.68	72.56
452.86	154.48
453.05	110.01
453.23	222.35
453.42	175.54
453.60	156.82
453.78	98.30
453.97	161.50
454.15	93.62
454.34	156.82
454.52	126.39
454.70	210.65
454.89	133.41
455.07	163.84
455.26	177.88
455.44	227.03
455.62	166.18
455.81	196.60
455.99	196.60
456.17	191.92
456.36	191.92
456.54	231.71
456.73	163.84
456.91	93.62
457.09	166.18
457.28	220.01
457.46	198.95
457.64	224.69
457.83	203.63
458.01	175.54
458.19	163.84
458.38	170.86
458.56	166.18
458.74	180.22
458.93	126.39
459.11	159.16
459.29	145.11
459.48	180.22
459.66	182.56
459.84	236.39
460.03	212.99
460.21	212.99
460.39	234.05
460.57	248.10
460.76	152.13
460.94	203.63
461.12	252.78
461.31	156.82
461.49	131.07
461.67	114.69
461.85	236.39
462.04	170.86
462.22	245.76
462.40	175.54
462.59	208.31
462.77	208.31
462.95	215.33
463.13	128.73
463.32	175.54
463.50	170.86
463.68	182.56
463.86	220.01
464.05	170.86
464.23	187.24
464.41	189.58
464.59	212.99
464.78	194.26
464.96	173.20
465.14	168.52
465.32	238.73
465.50	180.22
465.69	142.77
465.87	227.03
466.05	227.03
466.23	196.60
466.41	166.18
466.60	173.20
466.78	203.63
466.96	224.69
467.14	133.41
467.32	142.77
467.51	191.92
467.69	163.84
467.87	236.39
468.05	224.69
468.23	220.01
468.41	163.84
468.60	175.54
468.78	231.71
468.96	163.84
469.14	187.24
469.32	91.28
469.50	102.98
469.69	196.60
469.87	128.73
470.05	222.35
470.23	184.90
470.41	156.82
470.59	161.50
470.77	191.92
470.95	166.18
471.14	222.35
471.32	131.07
471.50	145.11
471.68	210.65
471.86	177.88
472.04	180.22
472.22	191.92
472.40	271.50
472.58	159.16
472.77	128.73
472.95	114.69
473.13	196.60
473.31	273.84
473.49	159.16
473.67	203.63
473.85	264.48
474.03	215.33
474.21	201.29
474.39	222.35
474.57	215.33
474.75	161.50
474.93	135.75
475.12	208.31
475.30	191.92
475.48	161.50
475.66	161.50
475.84	180.22
476.02	177.88
476.20	177.88
476.38	163.84
476.56	255.12
476.74	196.60
476.92	163.84
477.10	114.69
477.28	205.97
477.46	154.48
477.64	177.88
477.82	145.11
478.00	117.03
478.18	163.84
478.36	229.37
478.54	222.35
478.72	255.12
478.90	128.73
479.08	236.39
479.26	161.50
479.44	159.16
479.62	175.54
479.80	187.24
479.98	229.37
480.16	147.45
480.34	236.39
480.52	142.77
480.70	159.16
480.88	222.35
481.06	175.54
481.24	170.86
481.41	168.52
481.59	180.22
481.77	182.56
481.95	184.90
482.13	264.48
482.31	227.03
482.49	227.03
482.67	152.13
482.85	271.50
483.03	250.44
483.21	264.48
483.39	238.73
483.57	304.27
483.74	273.84
483.92	245.76
484.10	280.86
484.28	278.52
484.46	266.82
484.64	278.52
484.82	332.36
485.00	292.57
485.18	353.42
485.35	257.46
485.53	315.97
485.71	322.99
485.89	227.03
486.07	285.55
486.25	360.44
486.43	283.20
486.61	301.93
486.78	346.40
486.96	358.10
487.14	287.89
487.32	334.70
487.50	344.06
487.68	318.31
487.85	287.89
488.03	285.55
488.21	362.78
488.39	355.76
488.57	325.33
488.75	360.44
488.92	578.11
489.10	297.25
489.28	285.55
489.46	325.33
489.64	339.38
489.81	322.99
489.99	346.40
490.17	208.31
490.35	369.80
490.53	334.70
490.70	290.23
490.88	362.78
491.06	372.15
491.24	339.38
491.41	311.29
491.59	222.35
491.77	266.82
491.95	255.12
492.13	292.57
492.30	315.97
492.48	294.91
492.66	355.76
492.84	285.55
493.01	245.76
493.19	276.18
493.37	283.20
493.54	283.20
493.72	285.55
493.90	322.99
494.08	322.99
494.25	255.12
494.43	301.93
494.61	301.93
494.79	330.02
494.96	231.71
495.14	250.44
495.32	290.23
495.49	231.71
495.67	273.84
495.85	217.67
496.02	308.95
496.20	341.72
496.38	257.46
496.55	292.57
496.73	234.05
496.91	243.42
497.09	311.29
497.26	365.12
497.44	236.39
497.62	259.80
497.79	198.95
497.97	220.01
498.14	257.46
498.32	255.12
498.50	264.48
498.67	278.52
498.85	238.73
499.03	276.18
499.20	264.48
499.38	264.48
499.56	262.14
499.73	229.37
499.91	264.48
500.08	262.14
500.26	231.71
500.44	191.92
500.61	224.69
500.79	175.54
500.97	266.82
501.14	273.84
501.32	222.35
501.49	271.50
501.67	196.60
501.84	201.29
502.02	276.18
502.20	271.50
502.37	297.25
502.55	191.92
502.72	215.33
502.90	283.20
503.07	280.86
503.25	255.12
503.43	175.54
503.60	224.69
503.78	243.42
503.95	189.58
504.13	255.12
504.30	299.59
504.48	203.63
504.65	177.88
504.83	273.84
505.01	205.97
505.18	236.39
505.36	220.01
505.53	262.14
505.71	142.77
505.88	269.16
506.06	180.22
506.23	241.08
506.41	210.65
506.58	215.33
506.76	220.01
506.93	238.73
507.11	283.20
507.28	229.37
507.46	252.78
507.63	138.09
507.81	212.99
507.98	301.93
508.16	241.08
508.33	201.29
508.50	245.76
508.68	215.33
508.85	205.97
509.03	234.05
509.20	322.99
509.38	283.20
509.55	273.84
509.73	175.54
509.90	184.90
510.08	210.65
510.25	187.24
510.42	145.11
510.60	252.78
510.77	243.42
510.95	243.42
511.12	262.14
511.30	236.39
511.47	229.37
511.64	257.46
511.82	220.01
511.99	222.35
512.17	318.31
512.34	194.26
512.51	229.37
512.69	229.37
512.86	234.05
513.04	287.89
513.21	297.25
513.38	271.50
513.56	215.33
513.73	180.22
513.90	215.33
514.08	283.20
514.25	250.44
514.43	229.37
514.60	224.69
514.77	299.59
514.95	182.56
515.12	194.26
515.29	231.71
515.47	269.16
515.64	243.42
515.81	222.35
515.99	287.89
516.16	227.03
516.33	269.16
516.51	255.12
516.68	201.29
516.85	161.50
517.03	194.26
517.20	238.73
517.37	245.76
517.54	259.80
517.72	245.76
517.89	180.22
518.06	252.78
518.24	255.12
518.41	318.31
518.58	215.33
518.75	224.69
518.93	238.73
519.10	292.57
519.27	170.86
519.45	262.14
519.62	236.39
519.79	212.99
519.96	241.08
520.14	276.18
520.31	264.48
520.48	238.73
520.65	168.52
520.83	297.25
521.00	215.33
521.17	238.73
521.34	217.67
521.52	276.18
521.69	203.63
521.86	285.55
522.03	208.31
522.20	299.59
522.38	231.71
522.55	273.84
522.72	224.69
522.89	259.80
523.07	257.46
523.24	227.03
523.41	241.08
523.58	205.97
523.75	252.78
523.92	320.65
524.10	231.71
524.27	294.91
524.44	203.63
524.61	280.86
524.78	266.82
524.96	285.55
525.13	203.63
525.30	297.25
525.47	304.27
525.64	191.92
525.81	297.25
525.98	210.65
526.16	215.33
526.33	280.86
526.50	243.42
526.67	168.52
526.84	208.31
527.01	269.16
527.18	294.91
527.36	205.97
527.53	201.29
527.70	301.93
527.87	365.12
528.04	234.05
528.21	248.10
528.38	243.42
528.55	227.03
528.72	269.16
528.89	301.93
529.07	283.20
529.24	227.03
529.41	255.12
529.58	236.39
529.75	241.08
529.92	229.37
530.09	234.05
530.26	313.63
530.43	285.55
530.60	182.56
530.77	229.37
530.94	276.18
531.11	278.52
531.28	273.84
531.46	308.95
531.63	332.36
531.80	252.78
531.97	215.33
532.14	238.73
532.31	304.27
532.48	362.78
532.65	227.03
532.82	264.48
532.99	355.76
533.16	222.35
533.33	327.68
533.50	433.00
533.67	287.89
533.84	280.86
534.01	308.95
534.18	273.84
534.35	283.20
534.52	322.99
534.69	325.33
534.86	266.82
535.03	290.23
535.20	266.82
535.37	320.65
535.54	315.97
535.71	379.17
535.88	325.33
536.05	231.71
536.22	390.87
536.38	266.82
536.55	367.46
536.72	376.83
536.89	341.72
537.06	318.31
537.23	355.76
537.40	379.17
537.57	337.04
537.74	461.09
537.91	433.00
538.08	334.70
538.25	397.89
538.42	430.66
538.59	416.62
538.75	444.70
538.92	440.02
539.09	421.30
539.26	521.94
539.43	528.96
539.60	561.73
539.77	580.45
539.94	582.79
540.11	641.31
540.28	681.10
540.44	596.84
540.61	662.37
540.78	727.91
540.95	973.66
541.12	1034.52
541.29	1083.67
541.46	1212.40
541.62	1160.91
541.79	1184.31
541.96	1158.57
542.13	1261.55
542.30	1086.01
542.47	1188.99
542.63	1083.67
542.80	1116.44
542.97	1130.48
543.14	1078.99
543.31	1128.14
543.48	1130.48
543.64	1158.57
543.81	1130.48
543.98	1128.14
544.15	1060.26
544.32	1053.24
544.48	1121.12
544.65	954.94
544.82	1039.20
544.99	933.87
545.16	980.68
545.32	1060.26
545.49	1540.07
545.66	2459.90
545.83	2925.67
546.00	2703.32
546.16	1706.25
546.33	1409.00
546.50	1006.43
546.67	882.38
546.83	830.89
547.00	844.93
547.17	744.29
547.34	692.80
547.50	727.91
547.67	660.03
547.84	716.20
548.00	695.14
548.17	734.93
548.34	650.67
548.51	681.10
548.67	697.48
548.84	664.71
549.01	695.14
549.18	557.05
549.34	664.71
549.51	571.09
549.68	554.71
549.84	564.07
550.01	500.87
550.18	660.03
550.34	702.16
550.51	472.79
550.68	531.30
550.84	454.06
551.01	423.64
551.18	538.32
551.34	500.87
551.51	507.90
551.68	540.66
551.84	472.79
552.01	477.47
552.18	447.04
552.34	365.12
552.51	430.66
552.68	428.32
552.84	463.43
553.01	358.10
553.18	386.19
553.34	456.40
553.51	306.61
553.67	400.23
553.84	395.55
554.01	390.87
554.17	442.36
554.34	278.52
554.51	351.08
554.67	433.00
554.84	365.12
555.00	287.89
555.17	215.33
555.33	327.68
555.50	318.31
555.67	224.69
555.83	290.23
556.00	315.97
556.16	418.96
556.33	315.97
556.50	271.50
556.66	283.20
556.83	245.76
556.99	147.45
557.16	273.84
557.32	262.14
557.49	257.46
557.65	259.80
557.82	243.42
557.98	173.20
558.15	257.46
558.32	227.03
558.48	278.52
558.65	327.68
558.81	327.68
558.98	269.16
559.14	283.20
559.31	280.86
559.47	294.91
559.64	248.10
559.80	325.33
559.97	243.42
560.13	266.82
560.30	330.02
560.46	236.39
560.63	290.23
560.79	220.01
560.96	292.57
561.12	241.08
561.29	229.37
561.45	180.22
561.61	220.01
561.78	381.51
561.94	217.67
562.11	285.55
562.27	269.16
562.44	243.42
562.60	280.86
562.77	285.55
562.93	379.17
563.10	266.82
563.26	252.78
563.42	334.70
563.59	215.33
563.75	262.14
563.92	334.70
564.08	238.73
564.24	280.86
564.41	353.42
564.57	220.01
564.74	299.59
564.90	248.10
565.07	227.03
565.23	257.46
565.39	208.31
565.56	255.12
565.72	276.18
565.88	243.42
566.05	292.57
566.21	283.20
566.38	212.99
566.54	243.42
566.70	170.86
566.87	205.97
567.03	322.99
567.19	332.36
567.36	205.97
567.52	255.12
567.68	245.76
567.85	273.84
568.01	236.39
568.17	194.26
568.34	252.78
568.50	285.55
568.66	182.56
568.83	273.84
568.99	217.67
569.15	280.86
569.32	294.91
569.48	163.84
569.64	187.24
569.81	266.82
569.97	205.97
570.13	325.33
570.30	227.03
570.46	222.35
570.62	259.80
570.78	241.08
570.95	227.03
571.11	257.46
571.27	327.68
571.43	189.58
571.60	210.65
571.76	248.10
571.92	191.92
572.09	224.69
572.25	180.22
572.41	276.18
572.57	234.05
572.74	355.76
572.90	229.37
573.06	294.91
573.22	271.50
573.38	215.33
573.55	276.18
573.71	205.97
573.87	290.23
574.03	234.05
574.20	194.26
574.36	248.10
574.52	266.82
574.68	196.60
574.84	189.58
575.01	252.78
575.17	250.44
575.33	212.99
575.49	299.59
575.65	217.67
575.82	163.84
575.98	299.59
576.14	292.57
576.30	416.62
576.46	423.64
576.62	669.39
576.79	653.01
576.95	566.41
577.11	454.06
577.27	306.61
577.43	315.97
577.59	339.38
577.75	306.61
577.92	241.08
578.08	266.82
578.24	285.55
578.40	264.48
578.56	479.81
578.72	643.65
578.88	692.80
579.04	575.77
579.21	463.43
579.37	435.34
579.53	372.15
579.69	414.27
579.85	386.19
580.01	400.23
580.17	435.34
580.33	381.51
580.49	430.66
580.65	374.49
580.82	327.68
580.98	348.74
581.14	346.40
581.30	393.21
581.46	360.44
581.62	353.42
581.78	362.78
581.94	341.72
582.10	409.59
582.26	449.38
582.42	430.66
582.58	393.21
582.74	465.77
582.90	395.55
583.06	407.25
583.22	456.40
583.38	458.74
583.54	407.25
583.70	411.93
583.86	468.11
584.02	451.72
584.18	428.32
584.34	358.10
584.50	421.30
584.66	381.51
584.82	376.83
584.98	383.85
585.14	395.55
585.30	390.87
585.46	365.12
585.62	402.57
585.78	402.57
585.94	325.33
586.10	442.36
586.26	416.62
586.42	461.09
586.58	475.13
586.74	463.43
586.90	507.90
587.06	566.41
587.22	653.01
587.38	526.62
587.54	479.81
587.70	451.72
587.86	507.90
588.02	428.32
588.18	318.31
588.34	369.80
588.49	269.16
588.65	372.15
588.81	292.57
588.97	339.38
589.13	259.80
589.29	367.46
589.45	418.96
589.61	355.76
589.77	421.30
589.93	360.44
590.08	339.38
590.24	280.86
590.40	358.10
590.56	313.63
590.72	273.84
590.88	290.23
591.04	290.23
591.20	308.95
591.35	348.74
591.51	393.21
591.67	344.06
591.83	311.29
591.99	339.38
592.15	355.76
592.31	351.08
592.46	404.91
592.62	414.27
592.78	397.89
592.94	376.83
593.10	461.09
593.26	402.57
593.41	423.64
593.57	388.53
593.73	299.59
593.89	423.64
594.05	285.55
594.20	266.82
594.36	301.93
594.52	297.25
594.68	248.10
594.84	276.18
594.99	255.12
595.15	297.25
595.31	280.86
595.47	400.23
595.62	304.27
595.78	308.95
595.94	278.52
596.10	334.70
596.25	322.99
596.41	320.65
596.57	297.25
596.73	339.38
596.88	311.29
597.04	287.89
597.20	273.84
597.36	262.14
597.51	322.99
597.67	339.38
597.83	198.95
597.99	325.33
598.14	334.70
598.30	404.91
598.46	290.23
598.61	306.61
598.77	248.10
598.93	376.83
599.09	330.02
599.24	376.83
599.40	442.36
599.56	320.65
599.71	360.44
599.87	325.33
600.03	437.68
600.18	306.61
600.34	283.20
600.50	311.29
600.65	255.12
600.81	308.95
600.97	285.55
601.12	304.27
601.28	348.74
601.44	290.23
601.59	224.69
601.75	264.48
601.91	294.91
602.06	259.80
602.22	252.78
602.37	266.82
602.53	285.55
602.69	290.23
602.84	287.89
603.00	262.14
603.16	299.59
603.31	294.91
603.47	266.82
603.62	241.08
603.78	210.65
603.94	203.63
604.09	294.91
604.25	248.10
604.40	269.16
604.56	301.93
604.71	299.59
604.87	339.38
605.03	264.48
605.18	304.27
605.34	322.99
605.49	325.33
605.65	313.63
605.80	236.39
605.96	306.61
606.12	266.82
606.27	262.14
606.43	301.93
606.58	332.36
606.74	327.68
606.89	271.50
607.05	332.36
607.20	297.25
607.36	332.36
607.51	311.29
607.67	402.57
607.82	299.59
607.98	414.27
608.13	381.51
608.29	386.19
608.44	449.38
608.60	447.04
608.75	507.90
608.91	568.75
609.06	526.62
609.22	592.16
609.37	526.62
609.53	608.54
609.68	622.58
609.84	725.57
609.99	821.53
610.15	926.85
610.30	1036.86
610.46	1338.79
610.61	1577.52
610.76	2008.18
610.92	2413.09
611.07	2593.31
611.23	2836.73
