SpectraSuite Data File
++++++++++++++++++++++++++++++++++++
Date: Fri Oct 04 11:42:30 GMT-05:00 2013
User: price-jones
Dark Spectrum Present: No
Reference Spectrum Present: No
Number of Sampled Component Spectra: 1
Spectrometers: USB2+H05261
Integration Time (usec): 100000 (USB2+H05261)
Spectra Averaged: 1 (USB2+H05261)
Boxcar Smoothing: 0 (USB2+H05261)
Correct for Electrical Dark: No (USB2+H05261)
Strobe/Lamp Enabled: No (USB2+H05261)
Correct for Detector Non-linearity: No (USB2+H05261)
Correct for Stray Light: No (USB2+H05261)
Number of Pixels in Processed Spectrum: 2048
>>>>>Begin Processed Spectral Data<<<<<
365.73	67.88
365.92	67.88
366.12	67.88
366.32	0.00
366.52	0.00
366.72	0.00
366.91	0.00
367.11	0.00
367.31	0.00
367.51	0.00
367.70	0.00
367.90	0.00
368.10	0.00
368.30	0.00
368.49	0.00
368.69	0.00
368.89	0.00
369.09	0.00
369.28	7.02
369.48	0.00
369.68	0.00
369.87	51.49
370.07	21.06
370.27	0.00
370.47	39.79
370.66	0.00
370.86	0.00
371.06	131.07
371.25	100.64
371.45	35.11
371.65	67.88
371.84	77.24
372.04	51.49
372.24	44.47
372.44	60.85
372.63	138.09
372.83	152.13
373.03	95.96
373.22	84.26
373.42	100.64
373.62	166.18
373.81	84.26
374.01	102.98
374.21	117.03
374.40	86.60
374.60	121.71
374.79	98.30
374.99	133.41
375.19	28.09
375.38	114.69
375.58	114.69
375.78	135.75
375.97	65.54
376.17	170.86
376.37	107.66
376.56	102.98
376.76	114.69
376.95	65.54
377.15	100.64
377.35	147.45
377.54	93.62
377.74	131.07
377.93	60.85
378.13	133.41
378.33	93.62
378.52	81.92
378.72	175.54
378.91	210.65
379.11	156.82
379.31	131.07
379.50	114.69
379.70	147.45
379.89	131.07
380.09	88.94
380.28	72.56
380.48	149.79
380.68	184.90
380.87	46.81
381.07	44.47
381.26	135.75
381.46	126.39
381.65	88.94
381.85	138.09
382.04	124.05
382.24	147.45
382.43	65.54
382.63	60.85
382.83	35.11
383.02	131.07
383.22	128.73
383.41	30.43
383.61	72.56
383.80	145.11
384.00	161.50
384.19	79.58
384.39	100.64
384.58	18.72
384.78	159.16
384.97	53.83
385.17	95.96
385.36	74.90
385.56	91.28
385.75	70.22
385.95	91.28
386.14	74.90
386.34	145.11
386.53	198.95
386.72	53.83
386.92	91.28
387.11	84.26
387.31	138.09
387.50	140.43
387.70	42.13
387.89	79.58
388.09	79.58
388.28	145.11
388.48	42.13
388.67	161.50
388.86	126.39
389.06	95.96
389.25	74.90
389.45	114.69
389.64	49.15
389.84	187.24
390.03	114.69
390.22	124.05
390.42	147.45
390.61	121.71
390.81	95.96
391.00	110.01
391.19	81.92
391.39	98.30
391.58	119.37
391.78	93.62
391.97	145.11
392.16	170.86
392.36	175.54
392.55	152.13
392.75	124.05
392.94	37.45
393.13	124.05
393.33	56.17
393.52	119.37
393.71	93.62
393.91	133.41
394.10	37.45
394.29	133.41
394.49	163.84
394.68	58.51
394.88	114.69
395.07	140.43
395.26	128.73
395.46	112.35
395.65	112.35
395.84	84.26
396.04	191.92
396.23	35.11
396.42	56.17
396.62	105.32
396.81	107.66
397.00	88.94
397.19	133.41
397.39	117.03
397.58	184.90
397.77	126.39
397.97	152.13
398.16	128.73
398.35	98.30
398.55	114.69
398.74	149.79
398.93	168.52
399.12	168.52
399.32	102.98
399.51	131.07
399.70	119.37
399.90	112.35
400.09	159.16
400.28	135.75
400.47	98.30
400.67	135.75
400.86	112.35
401.05	25.75
401.24	117.03
401.44	222.35
401.63	112.35
401.82	72.56
402.01	121.71
402.21	67.88
402.40	98.30
402.59	131.07
402.78	128.73
402.97	124.05
403.17	81.92
403.36	110.01
403.55	107.66
403.74	152.13
403.93	154.48
404.13	255.12
404.32	276.18
404.51	236.39
404.70	294.91
404.89	121.71
405.09	163.84
405.28	28.09
405.47	102.98
405.66	131.07
405.85	152.13
406.05	121.71
406.24	98.30
406.43	112.35
406.62	102.98
406.81	93.62
407.00	140.43
407.20	191.92
407.39	142.77
407.58	145.11
407.77	126.39
407.96	117.03
408.15	100.64
408.34	154.48
408.54	156.82
408.73	138.09
408.92	35.11
409.11	124.05
409.30	198.95
409.49	60.85
409.68	142.77
409.87	147.45
410.07	110.01
410.26	159.16
410.45	191.92
410.64	46.81
410.83	128.73
411.02	147.45
411.21	166.18
411.40	117.03
411.59	74.90
411.78	63.19
411.98	133.41
412.17	49.15
412.36	126.39
412.55	180.22
412.74	140.43
412.93	145.11
413.12	161.50
413.31	88.94
413.50	98.30
413.69	124.05
413.88	114.69
414.07	182.56
414.26	142.77
414.45	112.35
414.64	187.24
414.83	175.54
415.02	152.13
415.22	173.20
415.41	91.28
415.60	95.96
415.79	117.03
415.98	184.90
416.17	161.50
416.36	79.58
416.55	100.64
416.74	184.90
416.93	161.50
417.12	121.71
417.31	163.84
417.50	147.45
417.69	217.67
417.88	145.11
418.07	81.92
418.26	86.60
418.45	79.58
418.64	215.33
418.83	98.30
419.02	173.20
419.21	196.60
419.39	102.98
419.58	112.35
419.77	142.77
419.96	208.31
420.15	208.31
420.34	168.52
420.53	77.24
420.72	133.41
420.91	184.90
421.10	147.45
421.29	117.03
421.48	145.11
421.67	126.39
421.86	95.96
422.05	126.39
422.24	124.05
422.43	110.01
422.61	133.41
422.80	100.64
422.99	117.03
423.18	140.43
423.37	175.54
423.56	126.39
423.75	133.41
423.94	166.18
424.13	131.07
424.32	63.19
424.50	149.79
424.69	177.88
424.88	201.29
425.07	117.03
425.26	198.95
425.45	222.35
425.64	182.56
425.83	112.35
426.01	191.92
426.20	149.79
426.39	126.39
426.58	152.13
426.77	107.66
426.96	147.45
427.15	149.79
427.33	163.84
427.52	152.13
427.71	205.97
427.90	212.99
428.09	168.52
428.28	133.41
428.46	142.77
428.65	131.07
428.84	131.07
429.03	196.60
429.22	86.60
429.40	100.64
429.59	128.73
429.78	184.90
429.97	98.30
430.16	135.75
430.34	152.13
430.53	140.43
430.72	184.90
430.91	170.86
431.10	149.79
431.28	159.16
431.47	175.54
431.66	187.24
431.85	67.88
432.03	154.48
432.22	177.88
432.41	229.37
432.60	234.05
432.79	170.86
432.97	88.94
433.16	166.18
433.35	166.18
433.54	105.32
433.72	168.52
433.91	138.09
434.10	154.48
434.28	166.18
434.47	177.88
434.66	191.92
434.85	210.65
435.03	332.36
435.22	645.99
435.41	987.71
435.59	1090.69
435.78	744.29
435.97	463.43
436.16	210.65
436.34	168.52
436.53	182.56
436.72	166.18
436.90	215.33
437.09	142.77
437.28	91.28
437.46	238.73
437.65	175.54
437.84	173.20
438.02	229.37
438.21	229.37
438.40	168.52
438.58	166.18
438.77	149.79
438.96	163.84
439.14	107.66
439.33	145.11
439.52	142.77
439.70	133.41
439.89	187.24
440.08	133.41
440.26	224.69
440.45	152.13
440.63	238.73
440.82	210.65
441.01	189.58
441.19	142.77
441.38	177.88
441.57	149.79
441.75	203.63
441.94	191.92
442.12	248.10
442.31	269.16
442.50	117.03
442.68	100.64
442.87	147.45
443.05	187.24
443.24	138.09
443.43	177.88
443.61	154.48
443.80	252.78
443.98	170.86
444.17	177.88
444.35	154.48
444.54	149.79
444.73	248.10
444.91	170.86
445.10	182.56
445.28	159.16
445.47	156.82
445.65	224.69
445.84	205.97
446.02	187.24
446.21	161.50
446.39	135.75
446.58	243.42
446.77	173.20
446.95	177.88
447.14	149.79
447.32	234.05
447.51	163.84
447.69	145.11
447.88	114.69
448.06	238.73
448.25	145.11
448.43	133.41
448.62	105.32
448.80	203.63
448.99	175.54
449.17	124.05
449.36	152.13
449.54	168.52
449.73	180.22
449.91	210.65
450.10	159.16
450.28	191.92
450.46	222.35
450.65	180.22
450.83	203.63
451.02	184.90
451.20	166.18
451.39	70.22
451.57	229.37
451.76	168.52
451.94	126.39
452.13	184.90
452.31	191.92
452.49	168.52
452.68	70.22
452.86	191.92
453.05	259.80
453.23	227.03
453.42	194.26
453.60	119.37
453.78	124.05
453.97	121.71
454.15	201.29
454.34	140.43
454.52	170.86
454.70	140.43
454.89	152.13
455.07	201.29
455.26	133.41
455.44	184.90
455.62	184.90
455.81	149.79
455.99	121.71
456.17	175.54
456.36	166.18
456.54	227.03
456.73	110.01
456.91	152.13
457.09	182.56
457.28	224.69
457.46	189.58
457.64	255.12
457.83	271.50
458.01	191.92
458.19	147.45
458.38	112.35
458.56	161.50
458.74	163.84
458.93	182.56
459.11	140.43
459.29	187.24
459.48	177.88
459.66	147.45
459.84	161.50
460.03	243.42
460.21	191.92
460.39	215.33
460.57	135.75
460.76	131.07
460.94	166.18
461.12	229.37
461.31	201.29
461.49	135.75
461.67	234.05
461.85	119.37
462.04	184.90
462.22	304.27
462.40	215.33
462.59	292.57
462.77	156.82
462.95	243.42
463.13	140.43
463.32	152.13
463.50	203.63
463.68	180.22
463.86	142.77
464.05	145.11
464.23	227.03
464.41	182.56
464.59	191.92
464.78	152.13
464.96	168.52
465.14	170.86
465.32	128.73
465.50	159.16
465.69	131.07
465.87	117.03
466.05	147.45
466.23	84.26
466.41	182.56
466.60	180.22
466.78	173.20
466.96	205.97
467.14	145.11
467.32	210.65
467.51	203.63
467.69	154.48
467.87	212.99
468.05	138.09
468.23	194.26
468.41	161.50
468.60	159.16
468.78	98.30
468.96	212.99
469.14	175.54
469.32	159.16
469.50	140.43
469.69	177.88
469.87	180.22
470.05	191.92
470.23	142.77
470.41	131.07
470.59	205.97
470.77	100.64
470.95	140.43
471.14	198.95
471.32	227.03
471.50	304.27
471.68	196.60
471.86	175.54
472.04	243.42
472.22	191.92
472.40	175.54
472.58	224.69
472.77	161.50
472.95	163.84
473.13	194.26
473.31	140.43
473.49	187.24
473.67	105.32
473.85	159.16
474.03	259.80
474.21	177.88
474.39	168.52
474.57	210.65
474.75	152.13
474.93	173.20
475.12	117.03
475.30	220.01
475.48	163.84
475.66	203.63
475.84	208.31
476.02	124.05
476.20	227.03
476.38	170.86
476.56	238.73
476.74	187.24
476.92	243.42
477.10	220.01
477.28	187.24
477.46	191.92
477.64	231.71
477.82	227.03
478.00	191.92
478.18	191.92
478.36	180.22
478.54	140.43
478.72	236.39
478.90	189.58
479.08	222.35
479.26	145.11
479.44	121.71
479.62	224.69
479.80	212.99
479.98	133.41
480.16	180.22
480.34	196.60
480.52	149.79
480.70	205.97
480.88	210.65
481.06	212.99
481.24	170.86
481.41	135.75
481.59	140.43
481.77	248.10
481.95	180.22
482.13	241.08
482.31	212.99
482.49	241.08
482.67	257.46
482.85	243.42
483.03	227.03
483.21	229.37
483.39	163.84
483.57	217.67
483.74	360.44
483.92	262.14
484.10	278.52
484.28	243.42
484.46	292.57
484.64	217.67
484.82	266.82
485.00	304.27
485.18	266.82
485.35	262.14
485.53	262.14
485.71	285.55
485.89	229.37
486.07	290.23
486.25	358.10
486.43	156.82
486.61	259.80
486.78	308.95
486.96	266.82
487.14	320.65
487.32	294.91
487.50	339.38
487.68	327.68
487.85	255.12
488.03	285.55
488.21	299.59
488.39	311.29
488.57	393.21
488.75	294.91
488.92	554.71
489.10	322.99
489.28	341.72
489.46	250.44
489.64	308.95
489.81	285.55
489.99	285.55
490.17	297.25
490.35	367.46
490.53	245.76
490.70	311.29
490.88	320.65
491.06	304.27
491.24	266.82
491.41	341.72
491.59	273.84
491.77	337.04
491.95	269.16
492.13	285.55
492.30	311.29
492.48	264.48
492.66	313.63
492.84	280.86
493.01	355.76
493.19	299.59
493.37	276.18
493.54	285.55
493.72	341.72
493.90	297.25
494.08	238.73
494.25	280.86
494.43	278.52
494.61	322.99
494.79	285.55
494.96	367.46
495.14	297.25
495.32	287.89
495.49	255.12
495.67	290.23
495.85	327.68
496.02	271.50
496.20	339.38
496.38	229.37
496.55	278.52
496.73	276.18
496.91	252.78
497.09	318.31
497.26	234.05
497.44	250.44
497.62	212.99
497.79	189.58
497.97	292.57
498.14	252.78
498.32	184.90
498.50	227.03
498.67	243.42
498.85	208.31
499.03	238.73
499.20	299.59
499.38	252.78
499.56	257.46
499.73	220.01
499.91	243.42
500.08	269.16
500.26	220.01
500.44	217.67
500.61	339.38
500.79	229.37
500.97	294.91
501.14	234.05
501.32	271.50
501.49	203.63
501.67	234.05
501.84	220.01
502.02	177.88
502.20	262.14
502.37	280.86
502.55	304.27
502.72	234.05
502.90	210.65
503.07	191.92
503.25	285.55
503.43	259.80
503.60	156.82
503.78	198.95
503.95	273.84
504.13	294.91
504.30	334.70
504.48	262.14
504.65	243.42
504.83	238.73
505.01	271.50
505.18	264.48
505.36	229.37
505.53	208.31
505.71	236.39
505.88	271.50
506.06	290.23
506.23	250.44
506.41	311.29
506.58	234.05
506.76	231.71
506.93	266.82
507.11	287.89
507.28	236.39
507.46	257.46
507.63	189.58
507.81	184.90
507.98	229.37
508.16	234.05
508.33	222.35
508.50	259.80
508.68	170.86
508.85	182.56
509.03	271.50
509.20	245.76
509.38	220.01
509.55	271.50
509.73	271.50
509.90	264.48
510.08	280.86
510.25	212.99
510.42	234.05
510.60	222.35
510.77	320.65
510.95	231.71
511.12	196.60
511.30	330.02
511.47	238.73
511.64	294.91
511.82	234.05
511.99	245.76
512.17	180.22
512.34	184.90
512.51	243.42
512.69	248.10
512.86	276.18
513.04	191.92
513.21	238.73
513.38	201.29
513.56	222.35
513.73	182.56
513.90	224.69
514.08	229.37
514.25	229.37
514.43	203.63
514.60	196.60
514.77	208.31
514.95	304.27
515.12	208.31
515.29	238.73
515.47	229.37
515.64	224.69
515.81	257.46
515.99	238.73
516.16	215.33
516.33	283.20
516.51	285.55
516.68	243.42
516.85	238.73
517.03	177.88
517.20	269.16
517.37	201.29
517.54	217.67
517.72	234.05
517.89	203.63
518.06	177.88
518.24	278.52
518.41	264.48
518.58	212.99
518.75	236.39
518.93	175.54
519.10	210.65
519.27	259.80
519.45	227.03
519.62	266.82
519.79	262.14
519.96	180.22
520.14	245.76
520.31	294.91
520.48	241.08
520.65	243.42
520.83	238.73
521.00	229.37
521.17	241.08
521.34	168.52
521.52	290.23
521.69	257.46
521.86	238.73
522.03	308.95
522.20	304.27
522.38	241.08
522.55	243.42
522.72	140.43
522.89	269.16
523.07	278.52
523.24	292.57
523.41	201.29
523.58	234.05
523.75	280.86
523.92	294.91
524.10	182.56
524.27	294.91
524.44	217.67
524.61	276.18
524.78	234.05
524.96	280.86
525.13	241.08
525.30	262.14
525.47	285.55
525.64	262.14
525.81	287.89
525.98	264.48
526.16	294.91
526.33	234.05
526.50	227.03
526.67	196.60
526.84	276.18
527.01	276.18
527.18	271.50
527.36	313.63
527.53	257.46
527.70	257.46
527.87	215.33
528.04	365.12
528.21	231.71
528.38	311.29
528.55	257.46
528.72	290.23
528.89	273.84
529.07	266.82
529.24	215.33
529.41	346.40
529.58	196.60
529.75	322.99
529.92	189.58
530.09	236.39
530.26	245.76
530.43	297.25
530.60	252.78
530.77	187.24
530.94	332.36
531.11	273.84
531.28	292.57
531.46	341.72
531.63	278.52
531.80	217.67
531.97	259.80
532.14	322.99
532.31	266.82
532.48	355.76
532.65	250.44
532.82	205.97
532.99	255.12
533.16	285.55
533.33	320.65
533.50	301.93
533.67	259.80
533.84	299.59
534.01	304.27
534.18	294.91
534.35	315.97
534.52	299.59
534.69	400.23
534.86	245.76
535.03	278.52
535.20	290.23
535.37	292.57
535.54	248.10
535.71	344.06
535.88	379.17
536.05	262.14
536.22	290.23
536.38	280.86
536.55	311.29
536.72	449.38
536.89	395.55
537.06	332.36
537.23	297.25
537.40	255.12
537.57	346.40
537.74	402.57
537.91	376.83
538.08	365.12
538.25	383.85
538.42	421.30
538.59	491.51
538.75	388.53
538.92	461.09
539.09	461.09
539.26	503.22
539.43	461.09
539.60	575.77
539.77	592.16
539.94	566.41
540.11	606.20
540.28	692.80
540.44	671.73
540.61	734.93
540.78	809.83
540.95	943.24
541.12	1039.20
541.29	1109.41
541.46	1214.74
541.62	1256.87
541.79	1331.76
541.96	1174.95
542.13	1217.08
542.30	1149.20
542.47	1167.93
542.63	1149.20
542.80	1163.25
542.97	1205.38
543.14	1083.67
543.31	1149.20
543.48	1188.99
543.64	1146.86
543.81	1130.48
543.98	1078.99
544.15	1137.50
544.32	1011.11
544.48	1057.92
544.65	1102.39
544.82	976.00
544.99	1013.45
545.16	1025.15
545.32	1034.52
545.49	1605.61
545.66	2457.56
545.83	2867.16
546.00	2485.65
546.16	1776.47
546.33	1378.58
546.50	1100.05
546.67	866.00
546.83	760.67
547.00	739.61
547.17	624.92
547.34	653.01
547.50	760.67
547.67	655.35
547.84	685.78
548.00	697.48
548.17	645.99
548.34	636.63
548.51	720.88
548.67	676.41
548.84	671.73
549.01	622.58
549.18	521.94
549.34	589.82
549.51	608.54
549.68	596.84
549.84	620.24
550.01	442.36
550.18	613.22
550.34	557.05
550.51	526.62
550.68	533.64
550.84	463.43
551.01	482.15
551.18	503.22
551.34	535.98
551.51	514.92
551.68	425.98
551.84	341.72
552.01	472.79
552.18	418.96
552.34	458.74
552.51	390.87
552.68	461.09
552.84	353.42
553.01	327.68
553.18	332.36
553.34	344.06
553.51	304.27
553.67	404.91
553.84	416.62
554.01	402.57
554.17	322.99
554.34	360.44
554.51	283.20
554.67	318.31
554.84	290.23
555.00	220.01
555.17	301.93
555.33	344.06
555.50	365.12
555.67	325.33
555.83	318.31
556.00	313.63
556.16	458.74
556.33	250.44
556.50	266.82
556.66	304.27
556.83	257.46
556.99	255.12
557.16	234.05
557.32	285.55
557.49	292.57
557.65	266.82
557.82	238.73
557.98	245.76
558.15	280.86
558.32	250.44
558.48	220.01
558.65	315.97
558.81	271.50
558.98	337.04
559.14	266.82
559.31	262.14
559.47	257.46
559.64	285.55
559.80	262.14
559.97	248.10
560.13	198.95
560.30	210.65
560.46	294.91
560.63	269.16
560.79	276.18
560.96	245.76
561.12	290.23
561.29	290.23
561.45	238.73
561.61	245.76
561.78	325.33
561.94	292.57
562.11	215.33
562.27	266.82
562.44	217.67
562.60	245.76
562.77	245.76
562.93	383.85
563.10	301.93
563.26	243.42
563.42	252.78
563.59	315.97
563.75	255.12
563.92	348.74
564.08	236.39
564.24	271.50
564.41	372.15
564.57	245.76
564.74	285.55
564.90	264.48
565.07	250.44
565.23	299.59
565.39	248.10
565.56	231.71
565.72	255.12
565.88	238.73
566.05	257.46
566.21	203.63
566.38	177.88
566.54	252.78
566.70	262.14
566.87	243.42
567.03	224.69
567.19	290.23
567.36	222.35
567.52	255.12
567.68	201.29
567.85	308.95
568.01	212.99
568.17	290.23
568.34	243.42
568.50	292.57
568.66	257.46
568.83	315.97
568.99	318.31
569.15	278.52
569.32	241.08
569.48	229.37
569.64	241.08
569.81	278.52
569.97	236.39
570.13	273.84
570.30	220.01
570.46	238.73
570.62	201.29
570.78	252.78
570.95	180.22
571.11	250.44
571.27	264.48
571.43	250.44
571.60	252.78
571.76	313.63
571.92	245.76
572.09	266.82
572.25	210.65
572.41	222.35
572.57	208.31
572.74	257.46
572.90	198.95
573.06	304.27
573.22	215.33
573.38	210.65
573.55	271.50
573.71	229.37
573.87	245.76
574.03	294.91
574.20	278.52
574.36	266.82
574.52	238.73
574.68	210.65
574.84	229.37
575.01	283.20
575.17	222.35
575.33	198.95
575.49	276.18
575.65	318.31
575.82	292.57
575.98	360.44
576.14	205.97
576.30	341.72
576.46	477.47
576.62	669.39
576.79	685.78
576.95	496.19
577.11	507.90
577.27	313.63
577.43	308.95
577.59	330.02
577.75	304.27
577.92	238.73
578.08	290.23
578.24	304.27
578.40	320.65
578.56	571.09
578.72	711.52
578.88	767.70
579.04	610.88
579.21	514.92
579.37	365.12
579.53	407.25
579.69	407.25
579.85	402.57
580.01	407.25
580.17	390.87
580.33	369.80
580.49	374.49
580.65	348.74
580.82	341.72
580.98	409.59
581.14	297.25
581.30	299.59
581.46	315.97
581.62	393.21
581.78	346.40
581.94	383.85
582.10	351.08
582.26	346.40
582.42	367.46
582.58	374.49
582.74	411.93
582.90	397.89
583.06	442.36
583.22	423.64
583.38	507.90
583.54	353.42
583.70	517.26
583.86	435.34
584.02	463.43
584.18	491.51
584.34	425.98
584.50	435.34
584.66	362.78
584.82	409.59
584.98	344.06
585.14	374.49
585.30	435.34
585.46	360.44
585.62	351.08
585.78	297.25
585.94	416.62
586.10	461.09
586.26	395.55
586.42	472.79
586.58	533.64
586.74	465.77
586.90	566.41
587.06	622.58
587.22	571.09
587.38	458.74
587.54	521.94
587.70	468.11
587.86	437.68
588.02	463.43
588.18	463.43
588.34	393.21
588.49	306.61
588.65	344.06
588.81	306.61
588.97	313.63
589.13	358.10
589.29	285.55
589.45	283.20
589.61	327.68
589.77	299.59
589.93	339.38
590.08	308.95
590.24	287.89
590.40	372.15
590.56	299.59
590.72	337.04
590.88	358.10
591.04	330.02
591.20	365.12
591.35	388.53
591.51	388.53
591.67	383.85
591.83	344.06
591.99	353.42
592.15	425.98
592.31	393.21
592.46	376.83
592.62	484.49
592.78	475.13
592.94	437.68
593.10	435.34
593.26	433.00
593.41	348.74
593.57	383.85
593.73	341.72
593.89	353.42
594.05	344.06
594.20	231.71
594.36	348.74
594.52	212.99
594.68	285.55
594.84	308.95
594.99	301.93
595.15	280.86
595.31	259.80
595.47	365.12
595.62	191.92
595.78	262.14
595.94	308.95
596.10	248.10
596.25	205.97
596.41	294.91
596.57	278.52
596.73	355.76
596.88	322.99
597.04	360.44
597.20	262.14
597.36	229.37
597.51	276.18
597.67	318.31
597.83	217.67
597.99	306.61
598.14	285.55
598.30	271.50
598.46	367.46
598.61	369.80
598.77	353.42
598.93	266.82
599.09	327.68
599.24	315.97
599.40	418.96
599.56	318.31
599.71	304.27
599.87	297.25
600.03	330.02
600.18	327.68
600.34	292.57
600.50	243.42
600.65	224.69
600.81	229.37
600.97	257.46
601.12	334.70
601.28	320.65
601.44	301.93
601.59	294.91
601.75	285.55
601.91	234.05
602.06	285.55
602.22	327.68
602.37	271.50
602.53	222.35
602.69	294.91
602.84	252.78
603.00	301.93
603.16	322.99
603.31	313.63
603.47	280.86
603.62	201.29
603.78	231.71
603.94	360.44
604.09	278.52
604.25	250.44
604.40	229.37
604.56	292.57
604.71	222.35
604.87	243.42
605.03	205.97
605.18	259.80
605.34	308.95
605.49	285.55
605.65	241.08
605.80	311.29
605.96	320.65
606.12	318.31
606.27	292.57
606.43	250.44
606.58	355.76
606.74	332.36
606.89	362.78
607.05	327.68
607.20	315.97
607.36	346.40
607.51	344.06
607.67	325.33
607.82	318.31
607.98	444.70
608.13	273.84
608.29	346.40
608.44	362.78
608.60	435.34
608.75	451.72
608.91	433.00
609.06	510.24
609.22	500.87
609.37	571.09
609.53	519.60
609.68	641.31
609.84	631.94
609.99	734.93
610.15	870.68
610.30	1015.79
610.46	1263.89
610.61	1582.20
610.76	1877.11
610.92	2438.84
611.07	2553.52
611.23	2738.43
