SpectraSuite Data File
++++++++++++++++++++++++++++++++++++
Date: Fri Oct 04 11:42:24 GMT-05:00 2013
User: price-jones
Dark Spectrum Present: No
Reference Spectrum Present: No
Number of Sampled Component Spectra: 1
Spectrometers: USB2+H05261
Integration Time (usec): 100000 (USB2+H05261)
Spectra Averaged: 1 (USB2+H05261)
Boxcar Smoothing: 0 (USB2+H05261)
Correct for Electrical Dark: No (USB2+H05261)
Strobe/Lamp Enabled: No (USB2+H05261)
Correct for Detector Non-linearity: No (USB2+H05261)
Correct for Stray Light: No (USB2+H05261)
Number of Pixels in Processed Spectrum: 2048
>>>>>Begin Processed Spectral Data<<<<<
365.73	32.77
365.92	32.77
366.12	32.77
366.32	0.00
366.52	23.41
366.72	0.00
366.91	0.00
367.11	0.00
367.31	0.00
367.51	0.00
367.70	0.00
367.90	0.00
368.10	0.00
368.30	0.00
368.49	0.00
368.69	0.00
368.89	0.00
369.09	0.00
369.28	0.00
369.48	0.00
369.68	0.00
369.87	0.00
370.07	0.00
370.27	0.00
370.47	4.68
370.66	37.45
370.86	51.49
371.06	56.17
371.25	79.58
371.45	0.00
371.65	126.39
371.84	56.17
372.04	67.88
372.24	121.71
372.44	98.30
372.63	88.94
372.83	156.82
373.03	60.85
373.22	35.11
373.42	105.32
373.62	56.17
373.81	147.45
374.01	168.52
374.21	203.63
374.40	201.29
374.60	126.39
374.79	58.51
374.99	138.09
375.19	133.41
375.38	102.98
375.58	135.75
375.78	121.71
375.97	98.30
376.17	205.97
376.37	72.56
376.56	131.07
376.76	117.03
376.95	39.79
377.15	128.73
377.35	95.96
377.54	133.41
377.74	28.09
377.93	58.51
378.13	95.96
378.33	107.66
378.52	63.19
378.72	170.86
378.91	58.51
379.11	44.47
379.31	112.35
379.50	100.64
379.70	107.66
379.89	126.39
380.09	93.62
380.28	70.22
380.48	7.02
380.68	74.90
380.87	126.39
381.07	93.62
381.26	145.11
381.46	117.03
381.65	63.19
381.85	91.28
382.04	100.64
382.24	25.75
382.43	74.90
382.63	117.03
382.83	119.37
383.02	131.07
383.22	198.95
383.41	100.64
383.61	100.64
383.80	142.77
384.00	168.52
384.19	119.37
384.39	147.45
384.58	131.07
384.78	191.92
384.97	100.64
385.17	184.90
385.36	63.19
385.56	93.62
385.75	60.85
385.95	93.62
386.14	95.96
386.34	70.22
386.53	84.26
386.72	63.19
386.92	191.92
387.11	147.45
387.31	117.03
387.50	102.98
387.70	72.56
387.89	107.66
388.09	88.94
388.28	100.64
388.48	42.13
388.67	145.11
388.86	126.39
389.06	107.66
389.25	168.52
389.45	88.94
389.64	110.01
389.84	203.63
390.03	81.92
390.22	126.39
390.42	84.26
390.61	58.51
390.81	49.15
391.00	67.88
391.19	119.37
391.39	53.83
391.58	107.66
391.78	98.30
391.97	131.07
392.16	79.58
392.36	156.82
392.55	138.09
392.75	112.35
392.94	105.32
393.13	58.51
393.33	9.36
393.52	46.81
393.71	74.90
393.91	56.17
394.10	51.49
394.29	95.96
394.49	112.35
394.68	98.30
394.88	102.98
395.07	161.50
395.26	102.98
395.46	81.92
395.65	156.82
395.84	95.96
396.04	212.99
396.23	128.73
396.42	140.43
396.62	112.35
396.81	14.04
397.00	124.05
397.19	173.20
397.39	95.96
397.58	131.07
397.77	154.48
397.97	138.09
398.16	51.49
398.35	156.82
398.55	187.24
398.74	140.43
398.93	156.82
399.12	124.05
399.32	98.30
399.51	131.07
399.70	236.39
399.90	107.66
400.09	126.39
400.28	175.54
400.47	58.51
400.67	81.92
400.86	145.11
401.05	93.62
401.24	91.28
401.44	156.82
401.63	203.63
401.82	102.98
402.01	142.77
402.21	138.09
402.40	154.48
402.59	117.03
402.78	140.43
402.97	102.98
403.17	95.96
403.36	121.71
403.55	140.43
403.74	189.58
403.93	147.45
404.13	252.78
404.32	224.69
404.51	212.99
404.70	205.97
404.89	112.35
405.09	168.52
405.28	177.88
405.47	117.03
405.66	152.13
405.85	44.47
406.05	100.64
406.24	86.60
406.43	133.41
406.62	77.24
406.81	138.09
407.00	128.73
407.20	37.45
407.39	175.54
407.58	112.35
407.77	161.50
407.96	65.54
408.15	217.67
408.34	117.03
408.54	93.62
408.73	121.71
408.92	138.09
409.11	135.75
409.30	91.28
409.49	88.94
409.68	135.75
409.87	105.32
410.07	189.58
410.26	128.73
410.45	53.83
410.64	91.28
410.83	128.73
411.02	154.48
411.21	156.82
411.40	107.66
411.59	100.64
411.78	147.45
411.98	149.79
412.17	152.13
412.36	198.95
412.55	121.71
412.74	152.13
412.93	205.97
413.12	58.51
413.31	124.05
413.50	149.79
413.69	102.98
413.88	187.24
414.07	140.43
414.26	236.39
414.45	119.37
414.64	152.13
414.83	102.98
415.02	177.88
415.22	182.56
415.41	135.75
415.60	124.05
415.79	86.60
415.98	189.58
416.17	117.03
416.36	65.54
416.55	117.03
416.74	124.05
416.93	149.79
417.12	133.41
417.31	117.03
417.50	168.52
417.69	163.84
417.88	156.82
418.07	114.69
418.26	138.09
418.45	128.73
418.64	201.29
418.83	124.05
419.02	147.45
419.21	175.54
419.39	168.52
419.58	161.50
419.77	208.31
419.96	201.29
420.15	236.39
420.34	177.88
420.53	212.99
420.72	156.82
420.91	149.79
421.10	182.56
421.29	114.69
421.48	81.92
421.67	182.56
421.86	212.99
422.05	191.92
422.24	215.33
422.43	149.79
422.61	105.32
422.80	135.75
422.99	126.39
423.18	154.48
423.37	198.95
423.56	184.90
423.75	117.03
423.94	156.82
424.13	107.66
424.32	138.09
424.50	168.52
424.69	156.82
424.88	145.11
425.07	135.75
425.26	98.30
425.45	119.37
425.64	93.62
425.83	147.45
426.01	128.73
426.20	156.82
426.39	102.98
426.58	91.28
426.77	149.79
426.96	187.24
427.15	191.92
427.33	102.98
427.52	138.09
427.71	126.39
427.90	112.35
428.09	180.22
428.28	145.11
428.46	147.45
428.65	133.41
428.84	198.95
429.03	72.56
429.22	112.35
429.40	166.18
429.59	107.66
429.78	170.86
429.97	91.28
430.16	135.75
430.34	154.48
430.53	142.77
430.72	126.39
430.91	194.26
431.10	166.18
431.28	135.75
431.47	182.56
431.66	112.35
431.85	102.98
432.03	114.69
432.22	170.86
432.41	224.69
432.60	173.20
432.79	217.67
432.97	184.90
433.16	114.69
433.35	107.66
433.54	201.29
433.72	126.39
433.91	170.86
434.10	145.11
434.28	117.03
434.47	210.65
434.66	241.08
434.85	168.52
435.03	320.65
435.22	578.11
435.41	1029.84
435.59	968.98
435.78	753.65
435.97	479.81
436.16	231.71
436.34	173.20
436.53	243.42
436.72	194.26
436.90	196.60
437.09	159.16
437.28	173.20
437.46	42.13
437.65	161.50
437.84	173.20
438.02	163.84
438.21	205.97
438.40	147.45
438.58	156.82
438.77	114.69
438.96	161.50
439.14	166.18
439.33	175.54
439.52	182.56
439.70	166.18
439.89	177.88
440.08	189.58
440.26	140.43
440.45	203.63
440.63	201.29
440.82	170.86
441.01	210.65
441.19	189.58
441.38	86.60
441.57	161.50
441.75	224.69
441.94	170.86
442.12	152.13
442.31	194.26
442.50	189.58
442.68	126.39
442.87	114.69
443.05	191.92
443.24	145.11
443.43	248.10
443.61	238.73
443.80	135.75
443.98	95.96
444.17	189.58
444.35	210.65
444.54	161.50
444.73	194.26
444.91	198.95
445.10	173.20
445.28	126.39
445.47	117.03
445.65	166.18
445.84	196.60
446.02	107.66
446.21	126.39
446.39	147.45
446.58	138.09
446.77	65.54
446.95	180.22
447.14	182.56
447.32	119.37
447.51	58.51
447.69	198.95
447.88	126.39
448.06	201.29
448.25	161.50
448.43	102.98
448.62	161.50
448.80	149.79
448.99	184.90
449.17	112.35
449.36	152.13
449.54	184.90
449.73	166.18
449.91	227.03
450.10	166.18
450.28	222.35
450.46	198.95
450.65	227.03
450.83	191.92
451.02	238.73
451.20	252.78
451.39	110.01
451.57	133.41
451.76	187.24
451.94	201.29
452.13	170.86
452.31	196.60
452.49	166.18
452.68	154.48
452.86	147.45
453.05	220.01
453.23	205.97
453.42	145.11
453.60	175.54
453.78	170.86
453.97	72.56
454.15	203.63
454.34	135.75
454.52	145.11
454.70	163.84
454.89	161.50
455.07	243.42
455.26	170.86
455.44	180.22
455.62	152.13
455.81	177.88
455.99	140.43
456.17	142.77
456.36	159.16
456.54	198.95
456.73	168.52
456.91	234.05
457.09	156.82
457.28	180.22
457.46	121.71
457.64	177.88
457.83	177.88
458.01	163.84
458.19	231.71
458.38	124.05
458.56	159.16
458.74	126.39
458.93	138.09
459.11	271.50
459.29	166.18
459.48	177.88
459.66	182.56
459.84	173.20
460.03	273.84
460.21	234.05
460.39	229.37
460.57	243.42
460.76	189.58
460.94	191.92
461.12	138.09
461.31	243.42
461.49	182.56
461.67	117.03
461.85	154.48
462.04	114.69
462.22	332.36
462.40	227.03
462.59	187.24
462.77	79.58
462.95	182.56
463.13	187.24
463.32	147.45
463.50	124.05
463.68	224.69
463.86	159.16
464.05	168.52
464.23	147.45
464.41	180.22
464.59	152.13
464.78	126.39
464.96	156.82
465.14	161.50
465.32	166.18
465.50	182.56
465.69	236.39
465.87	196.60
466.05	198.95
466.23	114.69
466.41	133.41
466.60	156.82
466.78	135.75
466.96	224.69
467.14	133.41
467.32	205.97
467.51	112.35
467.69	161.50
467.87	224.69
468.05	163.84
468.23	255.12
468.41	168.52
468.60	163.84
468.78	264.48
468.96	161.50
469.14	98.30
469.32	210.65
469.50	241.08
469.69	140.43
469.87	126.39
470.05	189.58
470.23	138.09
470.41	124.05
470.59	140.43
470.77	173.20
470.95	175.54
471.14	210.65
471.32	201.29
471.50	126.39
471.68	252.78
471.86	177.88
472.04	117.03
472.22	187.24
472.40	208.31
472.58	161.50
472.77	182.56
472.95	142.77
473.13	205.97
473.31	163.84
473.49	182.56
473.67	121.71
473.85	222.35
474.03	189.58
474.21	184.90
474.39	191.92
474.57	220.01
474.75	229.37
474.93	142.77
475.12	196.60
475.30	201.29
475.48	187.24
475.66	107.66
475.84	161.50
476.02	201.29
476.20	210.65
476.38	278.52
476.56	138.09
476.74	255.12
476.92	198.95
477.10	175.54
477.28	224.69
477.46	168.52
477.64	250.44
477.82	212.99
478.00	241.08
478.18	208.31
478.36	224.69
478.54	156.82
478.72	168.52
478.90	217.67
479.08	163.84
479.26	280.86
479.44	156.82
479.62	168.52
479.80	131.07
479.98	198.95
480.16	187.24
480.34	187.24
480.52	241.08
480.70	201.29
480.88	194.26
481.06	161.50
481.24	156.82
481.41	205.97
481.59	217.67
481.77	198.95
481.95	222.35
482.13	292.57
482.31	184.90
482.49	236.39
482.67	189.58
482.85	257.46
483.03	184.90
483.21	241.08
483.39	243.42
483.57	191.92
483.74	327.68
483.92	203.63
484.10	304.27
484.28	290.23
484.46	278.52
484.64	227.03
484.82	313.63
485.00	318.31
485.18	334.70
485.35	308.95
485.53	262.14
485.71	227.03
485.89	245.76
486.07	220.01
486.25	306.61
486.43	294.91
486.61	344.06
486.78	280.86
486.96	264.48
487.14	330.02
487.32	278.52
487.50	308.95
487.68	255.12
487.85	320.65
488.03	273.84
488.21	325.33
488.39	280.86
488.57	327.68
488.75	227.03
488.92	442.36
489.10	355.76
489.28	416.62
489.46	285.55
489.64	334.70
489.81	248.10
489.99	330.02
490.17	245.76
490.35	369.80
490.53	257.46
490.70	388.53
490.88	313.63
491.06	330.02
491.24	306.61
491.41	304.27
491.59	287.89
491.77	259.80
491.95	266.82
492.13	353.42
492.30	264.48
492.48	269.16
492.66	285.55
492.84	308.95
493.01	273.84
493.19	276.18
493.37	341.72
493.54	287.89
493.72	339.38
493.90	182.56
494.08	290.23
494.25	252.78
494.43	297.25
494.61	276.18
494.79	297.25
494.96	245.76
495.14	210.65
495.32	306.61
495.49	238.73
495.67	264.48
495.85	304.27
496.02	276.18
496.20	306.61
496.38	217.67
496.55	262.14
496.73	348.74
496.91	241.08
497.09	278.52
497.26	269.16
497.44	271.50
497.62	243.42
497.79	238.73
497.97	355.76
498.14	252.78
498.32	264.48
498.50	269.16
498.67	243.42
498.85	278.52
499.03	322.99
499.20	285.55
499.38	255.12
499.56	248.10
499.73	280.86
499.91	252.78
500.08	280.86
500.26	182.56
500.44	212.99
500.61	278.52
500.79	208.31
500.97	255.12
501.14	257.46
501.32	191.92
501.49	283.20
501.67	280.86
501.84	229.37
502.02	257.46
502.20	220.01
502.37	236.39
502.55	229.37
502.72	212.99
502.90	266.82
503.07	250.44
503.25	203.63
503.43	194.26
503.60	280.86
503.78	208.31
503.95	250.44
504.13	198.95
504.30	231.71
504.48	250.44
504.65	262.14
504.83	229.37
505.01	194.26
505.18	259.80
505.36	231.71
505.53	311.29
505.71	243.42
505.88	271.50
506.06	266.82
506.23	198.95
506.41	149.79
506.58	222.35
506.76	210.65
506.93	304.27
507.11	243.42
507.28	227.03
507.46	294.91
507.63	271.50
507.81	205.97
507.98	241.08
508.16	292.57
508.33	234.05
508.50	250.44
508.68	173.20
508.85	250.44
509.03	294.91
509.20	248.10
509.38	287.89
509.55	320.65
509.73	236.39
509.90	243.42
510.08	212.99
510.25	346.40
510.42	236.39
510.60	245.76
510.77	287.89
510.95	311.29
511.12	304.27
511.30	271.50
511.47	276.18
511.64	299.59
511.82	269.16
511.99	208.31
512.17	250.44
512.34	313.63
512.51	222.35
512.69	198.95
512.86	285.55
513.04	304.27
513.21	215.33
513.38	217.67
513.56	308.95
513.73	224.69
513.90	177.88
514.08	187.24
514.25	248.10
514.43	227.03
514.60	220.01
514.77	264.48
514.95	243.42
515.12	297.25
515.29	290.23
515.47	266.82
515.64	194.26
515.81	255.12
515.99	229.37
516.16	285.55
516.33	283.20
516.51	215.33
516.68	149.79
516.85	220.01
517.03	229.37
517.20	180.22
517.37	231.71
517.54	187.24
517.72	217.67
517.89	184.90
518.06	259.80
518.24	278.52
518.41	294.91
518.58	131.07
518.75	191.92
518.93	245.76
519.10	210.65
519.27	257.46
519.45	201.29
519.62	313.63
519.79	222.35
519.96	262.14
520.14	245.76
520.31	208.31
520.48	229.37
520.65	248.10
520.83	294.91
521.00	266.82
521.17	292.57
521.34	297.25
521.52	264.48
521.69	236.39
521.86	205.97
522.03	266.82
522.20	283.20
522.38	222.35
522.55	231.71
522.72	227.03
522.89	252.78
523.07	306.61
523.24	278.52
523.41	245.76
523.58	264.48
523.75	224.69
523.92	259.80
524.10	315.97
524.27	177.88
524.44	222.35
524.61	245.76
524.78	243.42
524.96	194.26
525.13	290.23
525.30	203.63
525.47	252.78
525.64	278.52
525.81	250.44
525.98	243.42
526.16	299.59
526.33	234.05
526.50	290.23
526.67	255.12
526.84	245.76
527.01	264.48
527.18	269.16
527.36	278.52
527.53	257.46
527.70	177.88
527.87	311.29
528.04	294.91
528.21	161.50
528.38	236.39
528.55	154.48
528.72	259.80
528.89	358.10
529.07	283.20
529.24	201.29
529.41	327.68
529.58	262.14
529.75	243.42
529.92	189.58
530.09	234.05
530.26	224.69
530.43	264.48
530.60	229.37
530.77	327.68
530.94	271.50
531.11	332.36
531.28	212.99
531.46	238.73
531.63	222.35
531.80	222.35
531.97	278.52
532.14	241.08
532.31	245.76
532.48	273.84
532.65	245.76
532.82	227.03
532.99	276.18
533.16	292.57
533.33	341.72
533.50	341.72
533.67	360.44
533.84	250.44
534.01	269.16
534.18	290.23
534.35	304.27
534.52	259.80
534.69	362.78
534.86	322.99
535.03	360.44
535.20	287.89
535.37	339.38
535.54	351.08
535.71	351.08
535.88	313.63
536.05	346.40
536.22	311.29
536.38	388.53
536.55	355.76
536.72	327.68
536.89	280.86
537.06	379.17
537.23	362.78
537.40	404.91
537.57	374.49
537.74	341.72
537.91	421.30
538.08	388.53
538.25	397.89
538.42	355.76
538.59	397.89
538.75	390.87
538.92	491.51
539.09	479.81
539.26	484.49
539.43	512.58
539.60	503.22
539.77	594.50
539.94	578.11
540.11	585.13
540.28	655.35
540.44	629.60
540.61	786.42
540.78	793.44
540.95	866.00
541.12	1071.97
541.29	1053.24
541.46	1167.93
541.62	1078.99
541.79	1137.50
541.96	1139.84
542.13	1146.86
542.30	1076.65
542.47	1130.48
542.63	1142.18
542.80	1062.60
542.97	1078.99
543.14	997.07
543.31	933.87
543.48	1053.24
543.64	1107.07
543.81	999.41
543.98	999.41
544.15	950.26
544.32	1050.90
544.48	1048.56
544.65	1046.22
544.82	990.05
544.99	1032.18
545.16	887.06
545.32	997.07
545.49	1551.78
545.66	2207.13
545.83	2794.60
546.00	2525.44
546.16	1769.44
546.33	1280.27
546.50	1022.81
546.67	858.98
546.83	826.21
547.00	777.06
547.17	734.93
547.34	613.22
547.50	629.60
547.67	695.14
547.84	603.86
548.00	648.33
548.17	732.59
548.34	650.67
548.51	674.07
548.67	713.86
548.84	653.01
549.01	545.34
549.18	498.53
549.34	592.16
549.51	580.45
549.68	638.97
549.84	552.37
550.01	512.58
550.18	606.20
550.34	554.71
550.51	512.58
550.68	528.96
550.84	409.59
551.01	444.70
551.18	514.92
551.34	496.19
551.51	379.17
551.68	463.43
551.84	425.98
552.01	423.64
552.18	332.36
552.34	430.66
552.51	435.34
552.68	407.25
552.84	379.17
553.01	341.72
553.18	390.87
553.34	390.87
553.51	454.06
553.67	393.21
553.84	369.80
554.01	362.78
554.17	339.38
554.34	355.76
554.51	297.25
554.67	224.69
554.84	330.02
555.00	313.63
555.17	269.16
555.33	297.25
555.50	332.36
555.67	322.99
555.83	318.31
556.00	205.97
556.16	383.85
556.33	255.12
556.50	231.71
556.66	285.55
556.83	271.50
556.99	280.86
557.16	243.42
557.32	264.48
557.49	280.86
557.65	264.48
557.82	297.25
557.98	269.16
558.15	208.31
558.32	299.59
558.48	278.52
558.65	210.65
558.81	294.91
558.98	332.36
559.14	187.24
559.31	259.80
559.47	217.67
559.64	203.63
559.80	257.46
559.97	248.10
560.13	180.22
560.30	224.69
560.46	283.20
560.63	276.18
560.79	292.57
560.96	238.73
561.12	236.39
561.29	299.59
561.45	318.31
561.61	308.95
561.78	306.61
561.94	259.80
562.11	264.48
562.27	278.52
562.44	252.78
562.60	205.97
562.77	229.37
562.93	285.55
563.10	255.12
563.26	271.50
563.42	231.71
563.59	306.61
563.75	229.37
563.92	252.78
564.08	297.25
564.24	285.55
564.41	308.95
564.57	276.18
564.74	341.72
564.90	212.99
565.07	278.52
565.23	266.82
565.39	250.44
565.56	234.05
565.72	161.50
565.88	264.48
566.05	292.57
566.21	297.25
566.38	236.39
566.54	248.10
566.70	208.31
566.87	245.76
567.03	259.80
567.19	262.14
567.36	241.08
567.52	215.33
567.68	241.08
567.85	304.27
568.01	215.33
568.17	259.80
568.34	234.05
568.50	269.16
568.66	212.99
568.83	351.08
568.99	184.90
569.15	308.95
569.32	269.16
569.48	184.90
569.64	215.33
569.81	173.20
569.97	189.58
570.13	191.92
570.30	259.80
570.46	210.65
570.62	149.79
570.78	177.88
570.95	175.54
571.11	236.39
571.27	236.39
571.43	222.35
571.60	234.05
571.76	292.57
571.92	297.25
572.09	212.99
572.25	255.12
572.41	250.44
572.57	170.86
572.74	245.76
572.90	294.91
573.06	220.01
573.22	238.73
573.38	299.59
573.55	212.99
573.71	229.37
573.87	266.82
574.03	217.67
574.20	287.89
574.36	313.63
574.52	273.84
574.68	264.48
574.84	269.16
575.01	222.35
575.17	250.44
575.33	236.39
575.49	299.59
575.65	191.92
575.82	311.29
575.98	285.55
576.14	325.33
576.30	290.23
576.46	461.09
576.62	624.92
576.79	814.51
576.95	643.65
577.11	421.30
577.27	304.27
577.43	341.72
577.59	231.71
577.75	262.14
577.92	308.95
578.08	238.73
578.24	245.76
578.40	344.06
578.56	566.41
578.72	669.39
578.88	636.63
579.04	578.11
579.21	454.06
579.37	414.27
579.53	320.65
579.69	376.83
579.85	358.10
580.01	507.90
580.17	407.25
580.33	346.40
580.49	353.42
580.65	320.65
580.82	341.72
580.98	304.27
581.14	278.52
581.30	365.12
581.46	301.93
581.62	372.15
581.78	397.89
581.94	404.91
582.10	472.79
582.26	376.83
582.42	369.80
582.58	390.87
582.74	416.62
582.90	463.43
583.06	435.34
583.22	353.42
583.38	372.15
583.54	355.76
583.70	449.38
583.86	503.22
584.02	435.34
584.18	428.32
584.34	372.15
584.50	423.64
584.66	430.66
584.82	397.89
584.98	346.40
585.14	388.53
585.30	381.51
585.46	440.02
585.62	337.04
585.78	313.63
585.94	428.32
586.10	341.72
586.26	418.96
586.42	465.77
586.58	421.30
586.74	505.56
586.90	580.45
587.06	521.94
587.22	596.84
587.38	554.71
587.54	386.19
587.70	482.15
587.86	440.02
588.02	360.44
588.18	372.15
588.34	294.91
588.49	311.29
588.65	330.02
588.81	299.59
588.97	294.91
589.13	278.52
589.29	330.02
589.45	346.40
589.61	297.25
589.77	255.12
589.93	337.04
590.08	315.97
590.24	341.72
590.40	297.25
590.56	374.49
590.72	327.68
590.88	330.02
591.04	365.12
591.20	334.70
591.35	337.04
591.51	383.85
591.67	344.06
591.83	348.74
591.99	318.31
592.15	376.83
592.31	435.34
592.46	500.87
592.62	449.38
592.78	468.11
592.94	407.25
593.10	444.70
593.26	451.72
593.41	346.40
593.57	500.87
593.73	458.74
593.89	372.15
594.05	269.16
594.20	311.29
594.36	304.27
594.52	187.24
594.68	236.39
594.84	379.17
594.99	304.27
595.15	327.68
595.31	313.63
595.47	266.82
595.62	315.97
595.78	280.86
595.94	304.27
596.10	325.33
596.25	306.61
596.41	283.20
596.57	266.82
596.73	241.08
596.88	262.14
597.04	266.82
597.20	369.80
597.36	301.93
597.51	241.08
597.67	229.37
597.83	339.38
597.99	299.59
598.14	369.80
598.30	315.97
598.46	306.61
598.61	348.74
598.77	339.38
598.93	334.70
599.09	299.59
599.24	388.53
599.40	369.80
599.56	388.53
599.71	355.76
599.87	383.85
600.03	362.78
600.18	292.57
600.34	330.02
600.50	276.18
600.65	411.93
600.81	243.42
600.97	210.65
601.12	278.52
601.28	332.36
601.44	353.42
601.59	248.10
601.75	250.44
601.91	231.71
602.06	245.76
602.22	346.40
602.37	262.14
602.53	248.10
602.69	273.84
602.84	227.03
603.00	259.80
603.16	287.89
603.31	266.82
603.47	276.18
603.62	224.69
603.78	229.37
603.94	238.73
604.09	234.05
604.25	285.55
604.40	257.46
604.56	304.27
604.71	299.59
604.87	306.61
605.03	257.46
605.18	285.55
605.34	294.91
605.49	337.04
605.65	271.50
605.80	262.14
605.96	318.31
606.12	262.14
606.27	294.91
606.43	292.57
606.58	255.12
606.74	315.97
606.89	285.55
607.05	287.89
607.20	332.36
607.36	308.95
607.51	339.38
607.67	337.04
607.82	318.31
607.98	339.38
608.13	409.59
608.29	376.83
608.44	362.78
608.60	390.87
608.75	503.22
608.91	470.45
609.06	528.96
609.22	447.04
609.37	557.05
609.53	561.73
609.68	617.90
609.84	692.80
609.99	793.44
610.15	870.68
610.30	1013.45
610.46	1231.12
610.61	1530.71
610.76	1907.54
610.92	2293.72
611.07	2530.12
611.23	2597.99
611.38	2541.82
