SpectraSuite Data File
++++++++++++++++++++++++++++++++++++
Date: Fri Oct 04 11:42:02 GMT-05:00 2013
User: price-jones
Dark Spectrum Present: No
Reference Spectrum Present: No
Number of Sampled Component Spectra: 1
Spectrometers: USB2+H05261
Integration Time (usec): 100000 (USB2+H05261)
Spectra Averaged: 1 (USB2+H05261)
Boxcar Smoothing: 0 (USB2+H05261)
Correct for Electrical Dark: No (USB2+H05261)
Strobe/Lamp Enabled: No (USB2+H05261)
Correct for Detector Non-linearity: No (USB2+H05261)
Correct for Stray Light: No (USB2+H05261)
Number of Pixels in Processed Spectrum: 2048
>>>>>Begin Processed Spectral Data<<<<<
365.73	42.13
365.92	42.13
366.12	42.13
366.32	2.34
366.52	0.00
366.72	0.00
366.91	0.00
367.11	0.00
367.31	0.00
367.51	0.00
367.70	0.00
367.90	0.00
368.10	0.00
368.30	32.77
368.49	0.00
368.69	0.00
368.89	0.00
369.09	0.00
369.28	0.00
369.48	0.00
369.68	0.00
369.87	60.85
370.07	14.04
370.27	14.04
370.47	7.02
370.66	2.34
370.86	18.72
371.06	32.77
371.25	46.81
371.45	81.92
371.65	86.60
371.84	60.85
372.04	79.58
372.24	135.75
372.44	119.37
372.63	7.02
372.83	84.26
373.03	42.13
373.22	86.60
373.42	135.75
373.62	39.79
373.81	88.94
374.01	170.86
374.21	161.50
374.40	177.88
374.60	203.63
374.79	159.16
374.99	203.63
375.19	114.69
375.38	81.92
375.58	84.26
375.78	147.45
375.97	145.11
376.17	194.26
376.37	156.82
376.56	117.03
376.76	133.41
376.95	77.24
377.15	86.60
377.35	114.69
377.54	166.18
377.74	128.73
377.93	58.51
378.13	117.03
378.33	128.73
378.52	46.81
378.72	187.24
378.91	100.64
379.11	142.77
379.31	145.11
379.50	102.98
379.70	177.88
379.89	117.03
380.09	102.98
380.28	30.43
380.48	152.13
380.68	16.38
380.87	114.69
381.07	91.28
381.26	112.35
381.46	124.05
381.65	126.39
381.85	163.84
382.04	131.07
382.24	180.22
382.43	114.69
382.63	112.35
382.83	126.39
383.02	147.45
383.22	119.37
383.41	124.05
383.61	72.56
383.80	100.64
384.00	53.83
384.19	100.64
384.39	184.90
384.58	168.52
384.78	95.96
384.97	152.13
385.17	117.03
385.36	95.96
385.56	131.07
385.75	105.32
385.95	124.05
386.14	93.62
386.34	79.58
386.53	138.09
386.72	187.24
386.92	131.07
387.11	154.48
387.31	147.45
387.50	77.24
387.70	105.32
387.89	37.45
388.09	46.81
388.28	60.85
388.48	95.96
388.67	100.64
388.86	119.37
389.06	37.45
389.25	88.94
389.45	191.92
389.64	107.66
389.84	81.92
390.03	180.22
390.22	77.24
390.42	21.06
390.61	86.60
390.81	88.94
391.00	159.16
391.19	149.79
391.39	72.56
391.58	198.95
391.78	95.96
391.97	93.62
392.16	49.15
392.36	131.07
392.55	138.09
392.75	138.09
392.94	117.03
393.13	210.65
393.33	156.82
393.52	163.84
393.71	170.86
393.91	173.20
394.10	102.98
394.29	175.54
394.49	121.71
394.68	131.07
394.88	175.54
395.07	173.20
395.26	161.50
395.46	133.41
395.65	117.03
395.84	70.22
396.04	156.82
396.23	65.54
396.42	126.39
396.62	72.56
396.81	126.39
397.00	161.50
397.19	39.79
397.39	135.75
397.58	140.43
397.77	112.35
397.97	110.01
398.16	114.69
398.35	114.69
398.55	67.88
398.74	53.83
398.93	110.01
399.12	126.39
399.32	161.50
399.51	152.13
399.70	126.39
399.90	166.18
400.09	114.69
400.28	133.41
400.47	81.92
400.67	81.92
400.86	93.62
401.05	102.98
401.24	163.84
401.44	128.73
401.63	175.54
401.82	77.24
402.01	170.86
402.21	117.03
402.40	110.01
402.59	107.66
402.78	161.50
402.97	149.79
403.17	88.94
403.36	88.94
403.55	196.60
403.74	227.03
403.93	294.91
404.13	503.22
404.32	514.92
404.51	416.62
404.70	332.36
404.89	243.42
405.09	180.22
405.28	180.22
405.47	44.47
405.66	152.13
405.85	95.96
406.05	124.05
406.24	168.52
406.43	58.51
406.62	147.45
406.81	175.54
407.00	194.26
407.20	173.20
407.39	135.75
407.58	187.24
407.77	234.05
407.96	149.79
408.15	152.13
408.34	131.07
408.54	117.03
408.73	196.60
408.92	112.35
409.11	102.98
409.30	187.24
409.49	177.88
409.68	86.60
409.87	60.85
410.07	105.32
410.26	161.50
410.45	142.77
410.64	142.77
410.83	145.11
411.02	112.35
411.21	131.07
411.40	124.05
411.59	154.48
411.78	170.86
411.98	110.01
412.17	117.03
412.36	93.62
412.55	93.62
412.74	140.43
412.93	224.69
413.12	86.60
413.31	173.20
413.50	105.32
413.69	177.88
413.88	152.13
414.07	191.92
414.26	177.88
414.45	135.75
414.64	74.90
414.83	91.28
415.02	100.64
415.22	163.84
415.41	147.45
415.60	110.01
415.79	170.86
415.98	152.13
416.17	128.73
416.36	135.75
416.55	142.77
416.74	128.73
416.93	161.50
417.12	154.48
417.31	173.20
417.50	180.22
417.69	205.97
417.88	196.60
418.07	135.75
418.26	114.69
418.45	140.43
418.64	119.37
418.83	91.28
419.02	105.32
419.21	140.43
419.39	135.75
419.58	168.52
419.77	105.32
419.96	140.43
420.15	189.58
420.34	121.71
420.53	243.42
420.72	173.20
420.91	191.92
421.10	138.09
421.29	201.29
421.48	163.84
421.67	163.84
421.86	182.56
422.05	121.71
422.24	142.77
422.43	124.05
422.61	46.81
422.80	191.92
422.99	77.24
423.18	156.82
423.37	156.82
423.56	152.13
423.75	138.09
423.94	140.43
424.13	161.50
424.32	161.50
424.50	138.09
424.69	161.50
424.88	182.56
425.07	166.18
425.26	198.95
425.45	131.07
425.64	102.98
425.83	121.71
426.01	182.56
426.20	290.23
426.39	140.43
426.58	147.45
426.77	138.09
426.96	147.45
427.15	145.11
427.33	180.22
427.52	138.09
427.71	131.07
427.90	166.18
428.09	166.18
428.28	194.26
428.46	102.98
428.65	154.48
428.84	196.60
429.03	238.73
429.22	117.03
429.40	201.29
429.59	74.90
429.78	229.37
429.97	114.69
430.16	126.39
430.34	173.20
430.53	191.92
430.72	63.19
430.91	168.52
431.10	177.88
431.28	88.94
431.47	184.90
431.66	119.37
431.85	161.50
432.03	145.11
432.22	198.95
432.41	140.43
432.60	241.08
432.79	126.39
432.97	208.31
433.16	163.84
433.35	173.20
433.54	145.11
433.72	205.97
433.91	177.88
434.10	149.79
434.28	212.99
434.47	163.84
434.66	259.80
434.85	203.63
435.03	575.77
435.22	1397.30
435.41	1937.96
435.59	1952.01
435.78	1233.46
435.97	753.65
436.16	376.83
436.34	212.99
436.53	220.01
436.72	126.39
436.90	212.99
437.09	135.75
437.28	147.45
437.46	149.79
437.65	140.43
437.84	241.08
438.02	180.22
438.21	114.69
438.40	177.88
438.58	114.69
438.77	168.52
438.96	196.60
439.14	114.69
439.33	117.03
439.52	184.90
439.70	154.48
439.89	198.95
440.08	194.26
440.26	138.09
440.45	212.99
440.63	166.18
440.82	203.63
441.01	147.45
441.19	114.69
441.38	168.52
441.57	135.75
441.75	210.65
441.94	248.10
442.12	201.29
442.31	166.18
442.50	133.41
442.68	205.97
442.87	95.96
443.05	170.86
443.24	126.39
443.43	182.56
443.61	236.39
443.80	161.50
443.98	145.11
444.17	161.50
444.35	301.93
444.54	117.03
444.73	145.11
444.91	126.39
445.10	182.56
445.28	184.90
445.47	170.86
445.65	196.60
445.84	91.28
446.02	166.18
446.21	117.03
446.39	154.48
446.58	170.86
446.77	135.75
446.95	180.22
447.14	250.44
447.32	114.69
447.51	184.90
447.69	170.86
447.88	140.43
448.06	191.92
448.25	187.24
448.43	212.99
448.62	135.75
448.80	184.90
448.99	173.20
449.17	203.63
449.36	100.64
449.54	184.90
449.73	175.54
449.91	201.29
450.10	161.50
450.28	236.39
450.46	184.90
450.65	189.58
450.83	138.09
451.02	177.88
451.20	203.63
451.39	224.69
451.57	175.54
451.76	191.92
451.94	105.32
452.13	220.01
452.31	189.58
452.49	166.18
452.68	149.79
452.86	107.66
453.05	266.82
453.23	177.88
453.42	194.26
453.60	166.18
453.78	194.26
453.97	128.73
454.15	241.08
454.34	170.86
454.52	194.26
454.70	231.71
454.89	271.50
455.07	131.07
455.26	252.78
455.44	184.90
455.62	168.52
455.81	189.58
455.99	147.45
456.17	243.42
456.36	217.67
456.54	163.84
456.73	161.50
456.91	170.86
457.09	166.18
457.28	161.50
457.46	227.03
457.64	224.69
457.83	184.90
458.01	182.56
458.19	184.90
458.38	187.24
458.56	198.95
458.74	147.45
458.93	208.31
459.11	166.18
459.29	117.03
459.48	161.50
459.66	236.39
459.84	227.03
460.03	224.69
460.21	245.76
460.39	205.97
460.57	245.76
460.76	220.01
460.94	229.37
461.12	189.58
461.31	149.79
461.49	210.65
461.67	159.16
461.85	189.58
462.04	198.95
462.22	653.01
462.40	175.54
462.59	159.16
462.77	156.82
462.95	138.09
463.13	198.95
463.32	222.35
463.50	236.39
463.68	131.07
463.86	161.50
464.05	180.22
464.23	198.95
464.41	245.76
464.59	177.88
464.78	168.52
464.96	145.11
465.14	170.86
465.32	161.50
465.50	210.65
465.69	156.82
465.87	98.30
466.05	205.97
466.23	187.24
466.41	110.01
466.60	215.33
466.78	119.37
466.96	196.60
467.14	191.92
467.32	208.31
467.51	245.76
467.69	210.65
467.87	220.01
468.05	210.65
468.23	203.63
468.41	168.52
468.60	135.75
468.78	189.58
468.96	187.24
469.14	222.35
469.32	220.01
469.50	140.43
469.69	229.37
469.87	145.11
470.05	217.67
470.23	182.56
470.41	229.37
470.59	147.45
470.77	166.18
470.95	145.11
471.14	203.63
471.32	170.86
471.50	234.05
471.68	161.50
471.86	156.82
472.04	152.13
472.22	210.65
472.40	205.97
472.58	156.82
472.77	187.24
472.95	191.92
473.13	168.52
473.31	210.65
473.49	222.35
473.67	135.75
473.85	205.97
474.03	175.54
474.21	142.77
474.39	203.63
474.57	201.29
474.75	163.84
474.93	173.20
475.12	175.54
475.30	159.16
475.48	224.69
475.66	229.37
475.84	196.60
476.02	203.63
476.20	250.44
476.38	187.24
476.56	189.58
476.74	173.20
476.92	257.46
477.10	222.35
477.28	217.67
477.46	198.95
477.64	147.45
477.82	180.22
478.00	135.75
478.18	205.97
478.36	189.58
478.54	145.11
478.72	208.31
478.90	168.52
479.08	208.31
479.26	173.20
479.44	227.03
479.62	182.56
479.80	147.45
479.98	224.69
480.16	236.39
480.34	196.60
480.52	238.73
480.70	229.37
480.88	173.20
481.06	142.77
481.24	194.26
481.41	262.14
481.59	294.91
481.77	238.73
481.95	184.90
482.13	264.48
482.31	222.35
482.49	203.63
482.67	290.23
482.85	278.52
483.03	252.78
483.21	269.16
483.39	217.67
483.57	252.78
483.74	315.97
483.92	292.57
484.10	245.76
484.28	362.78
484.46	308.95
484.64	234.05
484.82	311.29
485.00	320.65
485.18	280.86
485.35	341.72
485.53	362.78
485.71	365.12
485.89	287.89
486.07	290.23
486.25	395.55
486.43	365.12
486.61	334.70
486.78	341.72
486.96	365.12
487.14	372.15
487.32	332.36
487.50	351.08
487.68	397.89
487.85	388.53
488.03	390.87
488.21	447.04
488.39	344.06
488.57	332.36
488.75	348.74
488.92	533.64
489.10	351.08
489.28	407.25
489.46	362.78
489.64	290.23
489.81	330.02
489.99	355.76
490.17	360.44
490.35	379.17
490.53	330.02
490.70	290.23
490.88	327.68
491.06	337.04
491.24	339.38
491.41	416.62
491.59	348.74
491.77	313.63
491.95	283.20
492.13	355.76
492.30	341.72
492.48	292.57
492.66	294.91
492.84	315.97
493.01	273.84
493.19	311.29
493.37	353.42
493.54	292.57
493.72	308.95
493.90	287.89
494.08	374.49
494.25	318.31
494.43	278.52
494.61	397.89
494.79	271.50
494.96	315.97
495.14	315.97
495.32	365.12
495.49	173.20
495.67	334.70
495.85	313.63
496.02	322.99
496.20	255.12
496.38	222.35
496.55	280.86
496.73	404.91
496.91	311.29
497.09	280.86
497.26	283.20
497.44	269.16
497.62	215.33
497.79	252.78
497.97	229.37
498.14	266.82
498.32	234.05
498.50	273.84
498.67	367.46
498.85	308.95
499.03	278.52
499.20	208.31
499.38	262.14
499.56	278.52
499.73	322.99
499.91	257.46
500.08	210.65
500.26	332.36
500.44	285.55
500.61	304.27
500.79	194.26
500.97	262.14
501.14	245.76
501.32	271.50
501.49	327.68
501.67	339.38
501.84	250.44
502.02	227.03
502.20	313.63
502.37	215.33
502.55	273.84
502.72	220.01
502.90	278.52
503.07	243.42
503.25	245.76
503.43	229.37
503.60	245.76
503.78	210.65
503.95	217.67
504.13	273.84
504.30	301.93
504.48	290.23
504.65	252.78
504.83	299.59
505.01	220.01
505.18	259.80
505.36	262.14
505.53	163.84
505.71	217.67
505.88	262.14
506.06	227.03
506.23	191.92
506.41	212.99
506.58	238.73
506.76	259.80
506.93	271.50
507.11	196.60
507.28	266.82
507.46	203.63
507.63	142.77
507.81	191.92
507.98	273.84
508.16	241.08
508.33	250.44
508.50	241.08
508.68	252.78
508.85	234.05
509.03	278.52
509.20	245.76
509.38	243.42
509.55	227.03
509.73	278.52
509.90	299.59
510.08	203.63
510.25	245.76
510.42	163.84
510.60	208.31
510.77	304.27
510.95	262.14
511.12	243.42
511.30	215.33
511.47	308.95
511.64	376.83
511.82	229.37
511.99	243.42
512.17	208.31
512.34	234.05
512.51	278.52
512.69	229.37
512.86	327.68
513.04	318.31
513.21	234.05
513.38	252.78
513.56	210.65
513.73	175.54
513.90	198.95
514.08	259.80
514.25	297.25
514.43	271.50
514.60	271.50
514.77	229.37
514.95	243.42
515.12	236.39
515.29	257.46
515.47	203.63
515.64	266.82
515.81	224.69
515.99	227.03
516.16	205.97
516.33	196.60
516.51	203.63
516.68	196.60
516.85	194.26
517.03	191.92
517.20	196.60
517.37	259.80
517.54	234.05
517.72	217.67
517.89	276.18
518.06	241.08
518.24	210.65
518.41	285.55
518.58	243.42
518.75	224.69
518.93	245.76
519.10	238.73
519.27	198.95
519.45	224.69
519.62	248.10
519.79	266.82
519.96	229.37
520.14	245.76
520.31	283.20
520.48	297.25
520.65	241.08
520.83	236.39
521.00	320.65
521.17	355.76
521.34	222.35
521.52	273.84
521.69	252.78
521.86	252.78
522.03	280.86
522.20	285.55
522.38	189.58
522.55	283.20
522.72	177.88
522.89	255.12
523.07	208.31
523.24	229.37
523.41	229.37
523.58	182.56
523.75	231.71
523.92	222.35
524.10	280.86
524.27	290.23
524.44	287.89
524.61	222.35
524.78	212.99
524.96	285.55
525.13	222.35
525.30	271.50
525.47	297.25
525.64	255.12
525.81	259.80
525.98	168.52
526.16	215.33
526.33	248.10
526.50	196.60
526.67	264.48
526.84	184.90
527.01	224.69
527.18	243.42
527.36	287.89
527.53	273.84
527.70	220.01
527.87	231.71
528.04	304.27
528.21	203.63
528.38	294.91
528.55	255.12
528.72	344.06
528.89	346.40
529.07	220.01
529.24	273.84
529.41	273.84
529.58	273.84
529.75	294.91
529.92	229.37
530.09	278.52
530.26	255.12
530.43	180.22
530.60	259.80
530.77	227.03
530.94	315.97
531.11	278.52
531.28	285.55
531.46	163.84
531.63	280.86
531.80	320.65
531.97	287.89
532.14	322.99
532.31	201.29
532.48	318.31
532.65	273.84
532.82	238.73
532.99	402.57
533.16	402.57
533.33	381.51
533.50	341.72
533.67	238.73
533.84	292.57
534.01	285.55
534.18	285.55
534.35	220.01
534.52	344.06
534.69	362.78
534.86	271.50
535.03	306.61
535.20	311.29
535.37	360.44
535.54	311.29
535.71	290.23
535.88	376.83
536.05	290.23
536.22	339.38
536.38	337.04
536.55	393.21
536.72	372.15
536.89	395.55
537.06	381.51
537.23	388.53
537.40	379.17
537.57	416.62
537.74	442.36
537.91	526.62
538.08	465.77
538.25	510.24
538.42	470.45
538.59	442.36
538.75	493.85
538.92	559.39
539.09	594.50
539.26	526.62
539.43	571.09
539.60	634.29
539.77	770.04
539.94	685.78
540.11	835.57
540.28	844.93
540.44	847.27
540.61	919.83
540.78	940.90
540.95	1200.69
541.12	1427.73
541.29	1537.73
541.46	1664.12
541.62	1540.07
541.79	1589.22
541.96	1514.33
542.13	1469.86
542.30	1427.73
542.47	1366.87
542.63	1336.45
542.80	1306.02
542.97	1327.08
543.14	1294.32
543.31	1355.17
543.48	1322.40
543.64	1240.48
543.81	1306.02
543.98	1240.48
544.15	1266.23
544.32	1245.16
544.48	1254.53
544.65	1160.91
544.82	1291.98
544.99	1224.10
545.16	1181.97
545.32	1284.95
545.49	2258.62
545.66	3375.05
545.83	3669.96
546.00	3281.43
546.16	2321.81
546.33	1724.97
546.50	1357.51
546.67	1186.65
546.83	1116.44
547.00	983.02
547.17	924.51
547.34	940.90
547.50	870.68
547.67	894.08
547.84	835.57
548.00	912.81
548.17	809.83
548.34	779.40
548.51	835.57
548.67	835.57
548.84	819.19
549.01	791.10
549.18	748.97
549.34	791.10
549.51	622.58
549.68	688.12
549.84	622.58
550.01	587.47
550.18	723.23
550.34	755.99
550.51	557.05
550.68	599.18
550.84	519.60
551.01	531.30
551.18	503.22
551.34	566.41
551.51	482.15
551.68	496.19
551.84	514.92
552.01	512.58
552.18	519.60
552.34	428.32
552.51	482.15
552.68	386.19
552.84	440.02
553.01	472.79
553.18	454.06
553.34	416.62
553.51	355.76
553.67	393.21
553.84	433.00
554.01	425.98
554.17	393.21
554.34	367.46
554.51	362.78
554.67	367.46
554.84	360.44
555.00	294.91
555.17	344.06
555.33	360.44
555.50	311.29
555.67	322.99
555.83	248.10
556.00	285.55
556.16	454.06
556.33	320.65
556.50	334.70
556.66	234.05
556.83	248.10
556.99	327.68
557.16	255.12
557.32	297.25
557.49	257.46
557.65	280.86
557.82	297.25
557.98	290.23
558.15	248.10
558.32	245.76
558.48	224.69
558.65	243.42
558.81	248.10
558.98	224.69
559.14	294.91
559.31	203.63
559.47	252.78
559.64	325.33
559.80	325.33
559.97	252.78
560.13	318.31
560.30	222.35
560.46	259.80
560.63	276.18
560.79	236.39
560.96	301.93
561.12	227.03
561.29	236.39
561.45	220.01
561.61	238.73
561.78	376.83
561.94	227.03
562.11	330.02
562.27	243.42
562.44	212.99
562.60	241.08
562.77	210.65
562.93	311.29
563.10	337.04
563.26	248.10
563.42	280.86
563.59	187.24
563.75	229.37
563.92	269.16
564.08	294.91
564.24	308.95
564.41	315.97
564.57	262.14
564.74	203.63
564.90	294.91
565.07	257.46
565.23	306.61
565.39	273.84
565.56	294.91
565.72	255.12
565.88	315.97
566.05	241.08
566.21	175.54
566.38	234.05
566.54	229.37
566.70	191.92
566.87	255.12
567.03	262.14
567.19	266.82
567.36	283.20
567.52	229.37
567.68	229.37
567.85	250.44
568.01	252.78
568.17	273.84
568.34	182.56
568.50	292.57
568.66	145.11
568.83	332.36
568.99	217.67
569.15	287.89
569.32	255.12
569.48	262.14
569.64	250.44
569.81	301.93
569.97	248.10
570.13	313.63
570.30	252.78
570.46	250.44
570.62	327.68
570.78	283.20
570.95	142.77
571.11	301.93
571.27	236.39
571.43	168.52
571.60	262.14
571.76	245.76
571.92	262.14
572.09	257.46
572.25	222.35
572.41	245.76
572.57	229.37
572.74	248.10
572.90	215.33
573.06	285.55
573.22	250.44
573.38	234.05
573.55	278.52
573.71	294.91
573.87	227.03
574.03	245.76
574.20	255.12
574.36	283.20
574.52	299.59
574.68	257.46
574.84	191.92
575.01	217.67
575.17	245.76
575.33	224.69
575.49	250.44
575.65	273.84
575.82	234.05
575.98	313.63
576.14	273.84
576.30	346.40
576.46	580.45
576.62	828.55
576.79	882.38
576.95	706.84
577.11	524.28
577.27	390.87
577.43	386.19
577.59	332.36
577.75	280.86
577.92	276.18
578.08	386.19
578.24	334.70
578.40	428.32
578.56	676.41
578.72	751.31
578.88	798.12
579.04	627.26
579.21	538.32
579.37	395.55
579.53	472.79
579.69	388.53
579.85	390.87
580.01	461.09
580.17	456.40
580.33	383.85
580.49	402.57
580.65	369.80
580.82	339.38
580.98	308.95
581.14	369.80
581.30	327.68
581.46	341.72
581.62	397.89
581.78	414.27
581.94	407.25
582.10	456.40
582.26	433.00
582.42	440.02
582.58	475.13
582.74	482.15
582.90	461.09
583.06	507.90
583.22	491.51
583.38	479.81
583.54	447.04
583.70	524.28
583.86	456.40
584.02	503.22
584.18	416.62
584.34	543.00
584.50	468.11
584.66	442.36
584.82	355.76
584.98	500.87
585.14	381.51
585.30	468.11
585.46	430.66
585.62	409.59
585.78	449.38
585.94	447.04
586.10	383.85
586.26	470.45
586.42	528.96
586.58	599.18
586.74	568.75
586.90	641.31
587.06	751.31
587.22	720.88
587.38	573.43
587.54	531.30
587.70	489.17
587.86	479.81
588.02	510.24
588.18	468.11
588.34	397.89
588.49	416.62
588.65	325.33
588.81	395.55
588.97	292.57
589.13	365.12
589.29	341.72
589.45	390.87
589.61	411.93
589.77	374.49
589.93	351.08
590.08	383.85
590.24	339.38
590.40	334.70
590.56	444.70
590.72	418.96
590.88	367.46
591.04	362.78
591.20	337.04
591.35	383.85
591.51	374.49
591.67	414.27
591.83	442.36
591.99	433.00
592.15	421.30
592.31	449.38
592.46	498.53
592.62	587.47
592.78	514.92
592.94	472.79
593.10	538.32
593.26	475.13
593.41	484.49
593.57	491.51
593.73	409.59
593.89	430.66
594.05	346.40
594.20	306.61
594.36	404.91
594.52	355.76
594.68	294.91
594.84	330.02
594.99	318.31
595.15	318.31
595.31	301.93
595.47	348.74
595.62	369.80
595.78	322.99
595.94	318.31
596.10	234.05
596.25	297.25
596.41	311.29
596.57	362.78
596.73	259.80
596.88	322.99
597.04	280.86
597.20	273.84
597.36	327.68
597.51	294.91
597.67	297.25
597.83	292.57
597.99	344.06
598.14	301.93
598.30	409.59
598.46	252.78
598.61	386.19
598.77	402.57
598.93	358.10
599.09	344.06
599.24	423.64
599.40	479.81
599.56	372.15
599.71	358.10
599.87	304.27
600.03	379.17
600.18	407.25
600.34	318.31
600.50	320.65
600.65	271.50
600.81	276.18
600.97	297.25
601.12	311.29
601.28	381.51
601.44	320.65
601.59	245.76
601.75	301.93
601.91	227.03
602.06	294.91
602.22	269.16
602.37	292.57
602.53	271.50
602.69	301.93
602.84	327.68
603.00	299.59
603.16	290.23
603.31	299.59
603.47	266.82
603.62	311.29
603.78	290.23
603.94	330.02
604.09	285.55
604.25	339.38
604.40	294.91
604.56	257.46
604.71	220.01
604.87	210.65
605.03	339.38
605.18	287.89
605.34	360.44
605.49	257.46
605.65	348.74
605.80	365.12
605.96	285.55
606.12	346.40
606.27	315.97
606.43	327.68
606.58	411.93
606.74	322.99
606.89	383.85
607.05	346.40
607.20	330.02
607.36	393.21
607.51	351.08
607.67	318.31
607.82	395.55
607.98	409.59
608.13	416.62
608.29	416.62
608.44	390.87
608.60	465.77
608.75	540.66
608.91	624.92
609.06	521.94
609.22	617.90
609.37	589.82
609.53	730.25
609.68	739.61
609.84	826.21
609.99	1025.15
610.15	1177.29
610.30	1362.19
610.46	1638.38
610.61	2019.88
610.76	2485.65
610.92	3026.31
