SpectraSuite Data File
++++++++++++++++++++++++++++++++++++
Date: Fri Oct 04 11:41:41 GMT-05:00 2013
User: price-jones
Dark Spectrum Present: No
Reference Spectrum Present: No
Number of Sampled Component Spectra: 1
Spectrometers: USB2+H05261
Integration Time (usec): 100000 (USB2+H05261)
Spectra Averaged: 1 (USB2+H05261)
Boxcar Smoothing: 0 (USB2+H05261)
Correct for Electrical Dark: No (USB2+H05261)
Strobe/Lamp Enabled: No (USB2+H05261)
Correct for Detector Non-linearity: No (USB2+H05261)
Correct for Stray Light: No (USB2+H05261)
Number of Pixels in Processed Spectrum: 2048
>>>>>Begin Processed Spectral Data<<<<<
365.73	56.17
365.92	56.17
366.12	56.17
366.32	0.00
366.52	0.00
366.72	0.00
366.91	0.00
367.11	0.00
367.31	0.00
367.51	72.56
367.70	0.00
367.90	0.00
368.10	0.00
368.30	0.00
368.49	0.00
368.69	0.00
368.89	0.00
369.09	0.00
369.28	0.00
369.48	0.00
369.68	0.00
369.87	21.06
370.07	0.00
370.27	25.75
370.47	93.62
370.66	14.04
370.86	93.62
371.06	95.96
371.25	117.03
371.45	35.11
371.65	81.92
371.84	112.35
372.04	102.98
372.24	124.05
372.44	60.85
372.63	88.94
372.83	117.03
373.03	74.90
373.22	79.58
373.42	98.30
373.62	161.50
373.81	128.73
374.01	102.98
374.21	84.26
374.40	156.82
374.60	126.39
374.79	65.54
374.99	189.58
375.19	154.48
375.38	119.37
375.58	112.35
375.78	170.86
375.97	131.07
376.17	175.54
376.37	166.18
376.56	81.92
376.76	138.09
376.95	72.56
377.15	145.11
377.35	163.84
377.54	170.86
377.74	102.98
377.93	117.03
378.13	107.66
378.33	145.11
378.52	102.98
378.72	131.07
378.91	102.98
379.11	60.85
379.31	126.39
379.50	95.96
379.70	35.11
379.89	133.41
380.09	142.77
380.28	173.20
380.48	77.24
380.68	145.11
380.87	81.92
381.07	95.96
381.26	135.75
381.46	114.69
381.65	112.35
381.85	53.83
382.04	201.29
382.24	112.35
382.43	131.07
382.63	56.17
382.83	191.92
383.02	119.37
383.22	215.33
383.41	175.54
383.61	77.24
383.80	63.19
384.00	53.83
384.19	93.62
384.39	135.75
384.58	28.09
384.78	110.01
384.97	201.29
385.17	196.60
385.36	77.24
385.56	84.26
385.75	88.94
385.95	42.13
386.14	70.22
386.34	119.37
386.53	70.22
386.72	175.54
386.92	156.82
387.11	100.64
387.31	189.58
387.50	145.11
387.70	102.98
387.89	121.71
388.09	107.66
388.28	105.32
388.48	39.79
388.67	107.66
388.86	121.71
389.06	60.85
389.25	149.79
389.45	131.07
389.64	117.03
389.84	107.66
390.03	168.52
390.22	135.75
390.42	159.16
390.61	105.32
390.81	79.58
391.00	100.64
391.19	194.26
391.39	102.98
391.58	205.97
391.78	102.98
391.97	112.35
392.16	95.96
392.36	131.07
392.55	119.37
392.75	131.07
392.94	58.51
393.13	107.66
393.33	117.03
393.52	63.19
393.71	105.32
393.91	147.45
394.10	180.22
394.29	140.43
394.49	119.37
394.68	189.58
394.88	149.79
395.07	133.41
395.26	175.54
395.46	166.18
395.65	107.66
395.84	98.30
396.04	205.97
396.23	98.30
396.42	79.58
396.62	156.82
396.81	131.07
397.00	114.69
397.19	196.60
397.39	114.69
397.58	194.26
397.77	95.96
397.97	126.39
398.16	154.48
398.35	128.73
398.55	173.20
398.74	135.75
398.93	205.97
399.12	126.39
399.32	88.94
399.51	173.20
399.70	100.64
399.90	131.07
400.09	145.11
400.28	133.41
400.47	203.63
400.67	212.99
400.86	121.71
401.05	184.90
401.24	191.92
401.44	138.09
401.63	201.29
401.82	170.86
402.01	217.67
402.21	114.69
402.40	191.92
402.59	156.82
402.78	191.92
402.97	194.26
403.17	191.92
403.36	271.50
403.55	332.36
403.74	695.14
403.93	2113.50
404.13	4844.91
404.32	7002.88
404.51	6324.13
404.70	3906.35
404.89	1540.07
405.09	433.00
405.28	301.93
405.47	175.54
405.66	220.01
405.85	168.52
406.05	191.92
406.24	168.52
406.43	166.18
406.62	154.48
406.81	238.73
407.00	245.76
407.20	613.22
407.39	964.30
407.58	990.05
407.77	744.29
407.96	524.28
408.15	266.82
408.34	187.24
408.54	184.90
408.73	180.22
408.92	198.95
409.11	208.31
409.30	182.56
409.49	124.05
409.68	173.20
409.87	210.65
410.07	175.54
410.26	154.48
410.45	255.12
410.64	140.43
410.83	161.50
411.02	182.56
411.21	177.88
411.40	224.69
411.59	152.13
411.78	135.75
411.98	198.95
412.17	145.11
412.36	224.69
412.55	166.18
412.74	245.76
412.93	252.78
413.12	248.10
413.31	241.08
413.50	259.80
413.69	131.07
413.88	217.67
414.07	215.33
414.26	215.33
414.45	198.95
414.64	266.82
414.83	271.50
415.02	290.23
415.22	231.71
415.41	187.24
415.60	238.73
415.79	339.38
415.98	346.40
416.17	236.39
416.36	285.55
416.55	290.23
416.74	276.18
416.93	236.39
417.12	290.23
417.31	294.91
417.50	161.50
417.69	313.63
417.88	327.68
418.07	217.67
418.26	292.57
418.45	257.46
418.64	234.05
418.83	276.18
419.02	344.06
419.21	189.58
419.39	255.12
419.58	290.23
419.77	229.37
419.96	280.86
420.15	294.91
420.34	161.50
420.53	327.68
420.72	351.08
420.91	315.97
421.10	308.95
421.29	273.84
421.48	449.38
421.67	376.83
421.86	175.54
422.05	304.27
422.24	205.97
422.43	252.78
422.61	292.57
422.80	306.61
422.99	313.63
423.18	229.37
423.37	311.29
423.56	297.25
423.75	301.93
423.94	276.18
424.13	315.97
424.32	353.42
424.50	383.85
424.69	332.36
424.88	327.68
425.07	369.80
425.26	353.42
425.45	304.27
425.64	337.04
425.83	280.86
426.01	355.76
426.20	280.86
426.39	339.38
426.58	330.02
426.77	337.04
426.96	339.38
427.15	320.65
427.33	299.59
427.52	238.73
427.71	285.55
427.90	346.40
428.09	273.84
428.28	264.48
428.46	304.27
428.65	318.31
428.84	383.85
429.03	327.68
429.22	351.08
429.40	318.31
429.59	358.10
429.78	341.72
429.97	348.74
430.16	374.49
430.34	376.83
430.53	444.70
430.72	423.64
430.91	374.49
431.10	351.08
431.28	416.62
431.47	369.80
431.66	407.25
431.85	372.15
432.03	423.64
432.22	437.68
432.41	407.25
432.60	465.77
432.79	428.32
432.97	416.62
433.16	458.74
433.35	503.22
433.54	641.31
433.72	638.97
433.91	683.44
434.10	748.97
434.28	847.27
434.47	961.96
434.66	1132.82
434.85	1371.55
435.03	3351.65
435.22	12994.65
435.41	30103.97
435.59	33830.10
435.78	21092.91
435.97	10558.16
436.16	4156.79
436.34	1467.52
436.53	889.40
436.72	716.20
436.90	564.07
437.09	519.60
437.28	594.50
437.46	491.51
437.65	512.58
437.84	514.92
438.02	500.87
438.21	440.02
438.40	435.34
438.58	510.24
438.77	550.03
438.96	465.77
439.14	486.83
439.33	463.43
439.52	449.38
439.70	463.43
439.89	564.07
440.08	456.40
440.26	489.17
440.45	524.28
440.63	482.15
440.82	423.64
441.01	395.55
441.19	423.64
441.38	442.36
441.57	463.43
441.75	475.13
441.94	561.73
442.12	428.32
442.31	489.17
442.50	447.04
442.68	470.45
442.87	418.96
443.05	393.21
443.24	470.45
443.43	500.87
443.61	486.83
443.80	519.60
443.98	472.79
444.17	418.96
444.35	388.53
444.54	425.98
444.73	468.11
444.91	510.24
445.10	433.00
445.28	500.87
445.47	482.15
445.65	411.93
445.84	407.25
446.02	521.94
446.21	425.98
446.39	428.32
446.58	425.98
446.77	395.55
446.95	423.64
447.14	416.62
447.32	531.30
447.51	519.60
447.69	418.96
447.88	475.13
448.06	519.60
448.25	507.90
448.43	386.19
448.62	503.22
448.80	496.19
448.99	491.51
449.17	468.11
449.36	500.87
449.54	421.30
449.73	472.79
449.91	475.13
450.10	379.17
450.28	507.90
450.46	505.56
450.65	526.62
450.83	461.09
451.02	454.06
451.20	425.98
451.39	496.19
451.57	393.21
451.76	381.51
451.94	540.66
452.13	491.51
452.31	538.32
452.49	465.77
452.68	444.70
452.86	454.06
453.05	407.25
453.23	379.17
453.42	423.64
453.60	440.02
453.78	395.55
453.97	463.43
454.15	435.34
454.34	411.93
454.52	393.21
454.70	430.66
454.89	430.66
455.07	421.30
455.26	444.70
455.44	503.22
455.62	489.17
455.81	477.47
455.99	514.92
456.17	374.49
456.36	430.66
456.54	468.11
456.73	397.89
456.91	510.24
457.09	463.43
457.28	458.74
457.46	435.34
457.64	423.64
457.83	407.25
458.01	393.21
458.19	447.04
458.38	433.00
458.56	411.93
458.74	428.32
458.93	547.69
459.11	449.38
459.29	365.12
459.48	482.15
459.66	458.74
459.84	533.64
460.03	493.85
460.21	540.66
460.39	437.68
460.57	444.70
460.76	407.25
460.94	418.96
461.12	498.53
461.31	524.28
461.49	395.55
461.67	397.89
461.85	447.04
462.04	418.96
462.22	545.34
462.40	510.24
462.59	519.60
462.77	444.70
462.95	404.91
463.13	407.25
463.32	430.66
463.50	440.02
463.68	456.40
463.86	418.96
464.05	365.12
464.23	503.22
464.41	421.30
464.59	435.34
464.78	493.85
464.96	428.32
465.14	482.15
465.32	475.13
465.50	489.17
465.69	461.09
465.87	355.76
466.05	447.04
466.23	428.32
466.41	414.27
466.60	482.15
466.78	383.85
466.96	559.39
467.14	477.47
467.32	449.38
467.51	437.68
467.69	461.09
467.87	477.47
468.05	400.23
468.23	461.09
468.41	433.00
468.60	418.96
468.78	395.55
468.96	428.32
469.14	353.42
469.32	330.02
469.50	430.66
469.69	393.21
469.87	428.32
470.05	435.34
470.23	327.68
470.41	402.57
470.59	381.51
470.77	465.77
470.95	402.57
471.14	444.70
471.32	456.40
471.50	468.11
471.68	402.57
471.86	451.72
472.04	437.68
472.22	407.25
472.40	393.21
472.58	433.00
472.77	390.87
472.95	458.74
473.13	472.79
473.31	475.13
473.49	465.77
473.67	386.19
473.85	461.09
474.03	402.57
474.21	421.30
474.39	477.47
474.57	468.11
474.75	461.09
474.93	468.11
475.12	418.96
475.30	397.89
475.48	414.27
475.66	454.06
475.84	409.59
476.02	433.00
476.20	486.83
476.38	491.51
476.56	540.66
476.74	454.06
476.92	421.30
477.10	458.74
477.28	428.32
477.46	440.02
477.64	503.22
477.82	489.17
478.00	484.49
478.18	435.34
478.36	442.36
478.54	510.24
478.72	465.77
478.90	528.96
479.08	543.00
479.26	517.26
479.44	468.11
479.62	451.72
479.80	631.94
479.98	547.69
480.16	634.29
480.34	653.01
480.52	671.73
480.70	653.01
480.88	627.26
481.06	753.65
481.24	767.70
481.41	800.46
481.59	844.93
481.77	887.06
481.95	973.66
482.13	1029.84
482.31	954.94
482.49	1041.54
482.67	1107.07
482.85	1287.29
483.03	1289.64
483.21	1416.02
483.39	1558.80
483.57	1605.61
483.74	1666.46
483.92	1739.02
484.10	1907.54
484.28	1944.99
484.46	2153.29
484.64	2115.84
484.82	2148.61
485.00	2352.24
485.18	2455.22
485.35	2717.36
485.53	2832.05
485.71	2949.08
485.89	3082.49
486.07	3070.78
486.25	3077.80
486.43	3061.42
486.61	3145.68
486.78	3122.27
486.96	3052.06
487.14	3075.46
487.32	3070.78
487.50	3059.08
487.68	3030.99
487.85	3016.95
488.03	3033.33
488.21	2958.44
488.39	2754.81
488.57	2815.66
488.75	2747.79
488.92	3047.38
489.10	2605.02
489.28	2619.06
489.46	2469.27
489.64	2368.62
489.81	2436.50
489.99	2431.82
490.17	2338.20
490.35	2424.80
490.53	2307.77
490.70	2420.11
490.88	2417.77
491.06	2527.78
491.24	2717.36
491.41	2626.08
491.59	2583.95
491.77	2403.73
491.95	2289.04
492.13	2186.06
492.30	2043.29
492.48	2106.48
492.66	2057.33
492.84	2134.57
493.01	2172.02
493.19	2057.33
493.37	2033.93
493.54	1846.68
493.72	1916.90
493.90	1785.83
494.08	1774.13
494.25	1919.24
494.43	1888.81
494.61	1804.55
494.79	1783.49
494.96	1713.27
495.14	1706.25
495.32	1699.23
495.49	1722.63
495.67	1631.35
495.85	1640.72
496.02	1577.52
496.20	1621.99
496.38	1437.09
496.55	1469.86
496.73	1526.03
496.91	1387.94
497.09	1500.28
497.26	1437.09
497.44	1490.92
497.62	1231.12
497.79	1397.30
497.97	1313.04
498.14	1301.34
498.32	1310.70
498.50	1235.80
498.67	1153.88
498.85	1224.10
499.03	1235.80
499.20	1107.07
499.38	1086.01
499.56	1046.22
499.73	1109.41
499.91	1039.20
500.08	1076.65
500.26	978.34
500.44	968.98
500.61	945.58
500.79	844.93
500.97	833.23
501.14	910.47
501.32	830.89
501.49	858.98
501.67	826.21
501.84	814.51
502.02	798.12
502.20	833.23
502.37	683.44
502.55	641.31
502.72	627.26
502.90	711.52
503.07	657.69
503.25	727.91
503.43	629.60
503.60	526.62
503.78	636.63
503.95	578.11
504.13	566.41
504.30	589.82
504.48	641.31
504.65	580.45
504.83	594.50
505.01	564.07
505.18	489.17
505.36	526.62
505.53	519.60
505.71	585.13
505.88	559.39
506.06	517.26
506.23	538.32
506.41	423.64
506.58	498.53
506.76	486.83
506.93	435.34
507.11	461.09
507.28	404.91
507.46	407.25
507.63	561.73
507.81	489.17
507.98	517.26
508.16	484.49
508.33	517.26
508.50	477.47
508.68	482.15
508.85	477.47
509.03	531.30
509.20	451.72
509.38	528.96
509.55	545.34
509.73	456.40
509.90	545.34
510.08	414.27
510.25	500.87
510.42	411.93
510.60	468.11
510.77	428.32
510.95	472.79
511.12	421.30
511.30	418.96
511.47	416.62
511.64	503.22
511.82	463.43
511.99	423.64
512.17	407.25
512.34	433.00
512.51	407.25
512.69	451.72
512.86	521.94
513.04	402.57
513.21	425.98
513.38	376.83
513.56	393.21
513.73	407.25
513.90	402.57
514.08	421.30
514.25	402.57
514.43	379.17
514.60	407.25
514.77	388.53
514.95	332.36
515.12	339.38
515.29	388.53
515.47	376.83
515.64	325.33
515.81	404.91
515.99	376.83
516.16	390.87
516.33	409.59
516.51	407.25
516.68	468.11
516.85	334.70
517.03	362.78
517.20	365.12
517.37	315.97
517.54	465.77
517.72	360.44
517.89	299.59
518.06	433.00
518.24	351.08
518.41	386.19
518.58	351.08
518.75	311.29
518.93	346.40
519.10	362.78
519.27	411.93
519.45	374.49
519.62	418.96
519.79	456.40
519.96	271.50
520.14	351.08
520.31	418.96
520.48	435.34
520.65	339.38
520.83	402.57
521.00	442.36
521.17	308.95
521.34	346.40
521.52	297.25
521.69	337.04
521.86	320.65
522.03	341.72
522.20	311.29
522.38	351.08
522.55	334.70
522.72	339.38
522.89	374.49
523.07	416.62
523.24	416.62
523.41	341.72
523.58	297.25
523.75	341.72
523.92	299.59
524.10	285.55
524.27	414.27
524.44	404.91
524.61	472.79
524.78	372.15
524.96	400.23
525.13	397.89
525.30	528.96
525.47	475.13
525.64	369.80
525.81	386.19
525.98	400.23
526.16	397.89
526.33	414.27
526.50	381.51
526.67	372.15
526.84	311.29
527.01	381.51
527.18	409.59
527.36	550.03
527.53	540.66
527.70	489.17
527.87	482.15
528.04	507.90
528.21	470.45
528.38	400.23
528.55	425.98
528.72	468.11
528.89	519.60
529.07	374.49
529.24	402.57
529.41	454.06
529.58	517.26
529.75	421.30
529.92	521.94
530.09	514.92
530.26	500.87
530.43	507.90
530.60	566.41
530.77	552.37
530.94	519.60
531.11	468.11
531.28	613.22
531.46	622.58
531.63	601.52
531.80	678.76
531.97	692.80
532.14	767.70
532.31	784.08
532.48	1116.44
532.65	1200.69
532.82	1252.19
532.99	1619.65
533.16	1710.93
533.33	1863.07
533.50	1739.02
533.67	1413.68
533.84	1392.62
534.01	1221.76
534.18	1029.84
534.35	1128.14
534.52	1163.25
534.69	1043.88
534.86	1184.31
535.03	1172.61
535.20	1273.25
535.37	1331.76
535.54	1378.58
535.71	1394.96
535.88	1577.52
536.05	1621.99
536.22	1689.87
536.38	1916.90
536.55	2062.01
536.72	2319.47
536.89	2516.08
537.06	2841.41
537.23	3000.57
537.40	3424.20
537.57	3618.47
537.74	3911.04
537.91	3840.82
538.08	4217.65
538.25	4147.43
538.42	4039.76
538.59	4313.61
538.75	4379.14
538.92	4692.77
539.09	5233.44
539.26	5628.99
539.43	6310.08
539.60	7105.87
539.77	8060.80
539.94	9287.25
540.11	9858.34
540.28	11075.42
540.44	12386.12
540.61	13305.95
540.78	15424.13
540.95	18263.20
541.12	22012.74
541.29	24800.32
541.46	25965.90
541.62	26064.21
541.79	25050.75
541.96	23147.90
542.13	21214.62
542.30	19829.02
542.47	18883.44
542.63	17722.54
542.80	17591.47
542.97	17022.72
543.14	16889.31
543.31	16758.24
543.48	16678.66
543.64	17324.65
543.81	17025.06
543.98	17249.75
544.15	17432.31
544.32	17649.98
544.48	17724.88
544.65	17231.02
544.82	17106.98
544.99	17011.01
545.16	17453.37
545.32	18476.19
545.49	29490.75
545.66	52973.34
545.83	60683.07
546.00	56257.12
546.16	41469.61
546.33	30735.92
546.50	22918.53
546.67	18029.15
546.83	15779.89
547.00	15157.31
547.17	14092.37
547.34	13736.60
547.50	13217.01
547.67	12823.80
547.84	12250.36
548.00	11810.34
548.17	11288.40
548.34	10841.36
548.51	10506.66
548.67	9886.42
548.84	9575.13
549.01	8987.66
549.18	8664.66
549.34	8205.92
549.51	8042.08
549.68	7573.97
549.84	7185.44
550.01	7119.91
550.18	6794.58
550.34	6504.35
550.51	6157.95
550.68	6031.56
550.84	5462.81
551.01	5310.68
551.18	4994.70
551.34	4922.15
551.51	4538.30
551.68	4313.61
551.84	4297.22
552.01	4086.58
552.18	4044.45
552.34	3761.24
552.51	3531.87
552.68	3398.46
552.84	3307.18
553.01	3180.79
553.18	3141.00
553.34	3063.76
553.51	2869.50
553.67	2850.77
553.84	2672.89
554.01	2450.54
554.17	2455.22
554.34	2211.81
554.51	2146.27
554.67	2010.52
554.84	1942.64
555.00	1839.66
555.17	1811.57
555.33	1629.01
555.50	1533.05
555.67	1437.09
555.83	1413.68
556.00	1350.49
556.16	1488.58
556.33	1310.70
556.50	1242.82
556.66	1275.59
556.83	1256.87
556.99	1123.46
557.16	1081.33
557.32	1025.15
557.49	1020.47
557.65	926.85
557.82	931.53
557.98	987.71
558.15	919.83
558.32	964.30
558.48	870.68
558.65	868.34
558.81	854.30
558.98	908.13
559.14	844.93
559.31	868.34
559.47	840.25
559.64	798.12
559.80	807.48
559.97	816.85
560.13	784.08
560.30	823.87
560.46	779.40
560.63	821.53
560.79	734.93
560.96	819.19
561.12	784.08
561.29	807.48
561.45	716.20
561.61	737.27
561.78	802.80
561.94	744.29
562.11	685.78
562.27	697.48
562.44	653.01
562.60	737.27
562.77	685.78
562.93	763.01
563.10	786.42
563.26	704.50
563.42	741.95
563.59	676.41
563.75	631.94
563.92	805.14
564.08	741.95
564.24	695.14
564.41	660.03
564.57	676.41
564.74	720.88
564.90	648.33
565.07	641.31
565.23	594.50
565.39	580.45
565.56	678.76
565.72	617.90
565.88	603.86
566.05	571.09
566.21	589.82
566.38	638.97
566.54	664.71
566.70	631.94
566.87	669.39
567.03	592.16
567.19	594.50
567.36	599.18
567.52	575.77
567.68	622.58
567.85	627.26
568.01	636.63
568.17	613.22
568.34	587.47
568.50	697.48
568.66	620.24
568.83	676.41
568.99	603.86
569.15	603.86
569.32	571.09
569.48	521.94
569.64	514.92
569.81	585.13
569.97	596.84
570.13	507.90
570.30	521.94
570.46	517.26
570.62	451.72
570.78	475.13
570.95	447.04
571.11	440.02
571.27	416.62
571.43	472.79
571.60	468.11
571.76	414.27
571.92	477.47
572.09	449.38
572.25	463.43
572.41	479.81
572.57	531.30
572.74	496.19
572.90	449.38
573.06	475.13
573.22	484.49
573.38	535.98
573.55	484.49
573.71	479.81
573.87	498.53
574.03	543.00
574.20	465.77
574.36	594.50
574.52	475.13
574.68	510.24
574.84	559.39
575.01	676.41
575.17	648.33
575.33	650.67
575.49	706.84
575.65	758.33
575.82	842.59
575.98	812.17
576.14	968.98
576.30	1879.45
576.46	6033.90
576.62	11370.32
576.79	12798.05
576.95	8982.98
577.11	5701.54
577.27	4198.92
577.43	2782.90
577.59	1863.07
577.75	1526.03
577.92	1291.98
578.08	1268.57
578.24	1331.76
578.40	2092.44
578.56	5781.12
578.72	9989.41
578.88	11480.33
579.04	8152.09
579.21	5624.31
579.37	4245.73
579.53	3281.43
579.69	3059.08
579.85	3978.91
580.01	4425.95
580.17	4344.03
580.33	3864.22
580.49	3164.40
580.65	2874.18
580.82	2626.08
580.98	2487.99
581.14	2478.63
581.30	2801.62
581.46	2827.37
581.62	3171.43
581.78	3452.29
581.94	3641.87
582.10	3796.35
582.26	4065.51
582.42	4203.60
582.58	4301.90
582.74	4227.01
582.90	4311.27
583.06	4304.25
583.22	4360.42
583.38	4416.59
583.54	4224.67
583.70	4341.69
583.86	4306.59
584.02	4245.73
584.18	4126.36
584.34	4135.73
584.50	3948.48
584.66	3913.38
584.82	3950.82
584.98	3920.40
585.14	3859.54
585.30	3627.83
585.46	3714.43
585.62	3686.34
585.78	3513.14
585.94	3665.28
586.10	3679.32
586.26	3756.56
586.42	4259.78
586.58	5284.93
586.74	6396.68
586.90	7667.60
587.06	8369.76
587.22	8634.24
587.38	7564.61
587.54	6562.86
587.70	5565.79
587.86	4580.43
588.02	4091.26
588.18	3496.76
588.34	3199.51
588.49	2944.39
588.65	2717.36
588.81	2698.64
588.97	2583.95
589.13	2490.33
589.29	2406.07
589.45	2485.65
589.61	2399.05
589.77	2469.27
589.93	2504.37
590.08	2595.65
590.24	2551.18
590.40	2588.63
590.56	2635.44
590.72	2878.86
590.88	2904.60
591.04	3054.40
591.20	3098.87
591.35	3253.34
591.51	3353.99
591.67	3435.91
591.83	3648.90
591.99	3913.38
592.15	4367.44
592.31	4674.05
592.46	5165.56
592.62	5533.03
592.78	6087.73
592.94	6132.20
593.10	6069.01
593.26	5764.74
593.41	5401.96
593.57	4751.29
593.73	4280.84
593.89	3714.43
594.05	3377.39
594.20	3080.14
594.36	2799.28
594.52	2658.85
594.68	2532.46
594.84	2417.77
594.99	2235.21
595.15	2223.51
595.31	2232.87
595.47	2181.38
595.62	2181.38
595.78	2246.91
595.94	2232.87
596.10	2174.36
596.25	2078.40
596.41	2118.18
596.57	2085.42
596.73	2193.08
596.88	2242.23
597.04	2193.08
597.20	2172.02
597.36	2249.25
597.51	2291.38
597.67	2352.24
597.83	2394.37
597.99	2661.19
598.14	2815.66
598.30	2928.01
598.46	3115.25
598.61	3227.60
598.77	3384.41
598.93	3538.89
599.09	3613.79
599.24	3679.32
599.40	3761.24
599.56	3538.89
599.71	3379.73
599.87	3370.37
600.03	3030.99
600.18	2937.37
600.34	2640.12
600.50	2560.55
600.65	2249.25
600.81	2202.44
600.97	2160.31
601.12	2022.22
601.28	1963.71
601.44	1776.47
601.59	1696.89
601.75	1692.21
601.91	1584.54
602.06	1598.59
602.22	1563.48
602.37	1554.12
602.53	1331.76
602.69	1526.03
602.84	1502.62
603.00	1371.55
603.16	1460.49
603.31	1479.22
603.47	1544.75
603.62	1514.33
603.78	1528.37
603.94	1626.67
604.09	1607.95
604.25	1636.03
604.40	1598.59
604.56	1706.25
604.71	1769.44
604.87	1781.15
605.03	1764.76
605.18	1717.95
605.34	1823.28
605.49	1886.47
