SpectraSuite Data File
++++++++++++++++++++++++++++++++++++
Date: Fri Oct 04 11:41:40 GMT-05:00 2013
User: price-jones
Dark Spectrum Present: No
Reference Spectrum Present: No
Number of Sampled Component Spectra: 1
Spectrometers: USB2+H05261
Integration Time (usec): 100000 (USB2+H05261)
Spectra Averaged: 1 (USB2+H05261)
Boxcar Smoothing: 0 (USB2+H05261)
Correct for Electrical Dark: No (USB2+H05261)
Strobe/Lamp Enabled: No (USB2+H05261)
Correct for Detector Non-linearity: No (USB2+H05261)
Correct for Stray Light: No (USB2+H05261)
Number of Pixels in Processed Spectrum: 2048
>>>>>Begin Processed Spectral Data<<<<<
365.73	53.83
365.92	53.83
366.12	53.83
366.32	9.36
366.52	0.00
366.72	0.00
366.91	0.00
367.11	0.00
367.31	0.00
367.51	0.00
367.70	0.00
367.90	0.00
368.10	0.00
368.30	9.36
368.49	0.00
368.69	0.00
368.89	0.00
369.09	0.00
369.28	0.00
369.48	0.00
369.68	0.00
369.87	0.00
370.07	0.00
370.27	49.15
370.47	46.81
370.66	42.13
370.86	60.85
371.06	81.92
371.25	126.39
371.45	70.22
371.65	60.85
371.84	133.41
372.04	88.94
372.24	30.43
372.44	81.92
372.63	84.26
372.83	117.03
373.03	110.01
373.22	72.56
373.42	79.58
373.62	168.52
373.81	142.77
374.01	117.03
374.21	119.37
374.40	117.03
374.60	93.62
374.79	91.28
374.99	112.35
375.19	147.45
375.38	133.41
375.58	119.37
375.78	189.58
375.97	168.52
376.17	198.95
376.37	124.05
376.56	121.71
376.76	175.54
376.95	72.56
377.15	133.41
377.35	119.37
377.54	138.09
377.74	131.07
377.93	107.66
378.13	117.03
378.33	128.73
378.52	133.41
378.72	175.54
378.91	205.97
379.11	161.50
379.31	95.96
379.50	86.60
379.70	145.11
379.89	191.92
380.09	133.41
380.28	91.28
380.48	110.01
380.68	0.00
380.87	51.49
381.07	131.07
381.26	77.24
381.46	88.94
381.65	145.11
381.85	140.43
382.04	110.01
382.24	182.56
382.43	102.98
382.63	67.88
382.83	145.11
383.02	145.11
383.22	175.54
383.41	70.22
383.61	70.22
383.80	112.35
384.00	140.43
384.19	98.30
384.39	126.39
384.58	133.41
384.78	100.64
384.97	135.75
385.17	25.75
385.36	147.45
385.56	177.88
385.75	81.92
385.95	135.75
386.14	128.73
386.34	128.73
386.53	60.85
386.72	100.64
386.92	84.26
387.11	191.92
387.31	135.75
387.50	114.69
387.70	105.32
387.89	128.73
388.09	74.90
388.28	81.92
388.48	156.82
388.67	138.09
388.86	86.60
389.06	81.92
389.25	110.01
389.45	98.30
389.64	86.60
389.84	168.52
390.03	170.86
390.22	142.77
390.42	182.56
390.61	114.69
390.81	168.52
391.00	152.13
391.19	121.71
391.39	154.48
391.58	170.86
391.78	126.39
391.97	126.39
392.16	79.58
392.36	222.35
392.55	154.48
392.75	128.73
392.94	86.60
393.13	135.75
393.33	147.45
393.52	86.60
393.71	196.60
393.91	210.65
394.10	121.71
394.29	63.19
394.49	91.28
394.68	140.43
394.88	203.63
395.07	124.05
395.26	163.84
395.46	163.84
395.65	149.79
395.84	173.20
396.04	205.97
396.23	86.60
396.42	121.71
396.62	149.79
396.81	126.39
397.00	42.13
397.19	154.48
397.39	175.54
397.58	98.30
397.77	140.43
397.97	117.03
398.16	154.48
398.35	152.13
398.55	133.41
398.74	149.79
398.93	159.16
399.12	114.69
399.32	156.82
399.51	156.82
399.70	140.43
399.90	163.84
400.09	145.11
400.28	135.75
400.47	177.88
400.67	142.77
400.86	131.07
401.05	145.11
401.24	156.82
401.44	196.60
401.63	121.71
401.82	84.26
402.01	138.09
402.21	102.98
402.40	184.90
402.59	114.69
402.78	187.24
402.97	119.37
403.17	131.07
403.36	173.20
403.55	126.39
403.74	196.60
403.93	156.82
404.13	320.65
404.32	311.29
404.51	330.02
404.70	287.89
404.89	147.45
405.09	227.03
405.28	138.09
405.47	84.26
405.66	156.82
405.85	198.95
406.05	198.95
406.24	117.03
406.43	161.50
406.62	161.50
406.81	191.92
407.00	241.08
407.20	133.41
407.39	191.92
407.58	191.92
407.77	205.97
407.96	236.39
408.15	205.97
408.34	107.66
408.54	142.77
408.73	119.37
408.92	140.43
409.11	175.54
409.30	145.11
409.49	124.05
409.68	81.92
409.87	77.24
410.07	128.73
410.26	124.05
410.45	135.75
410.64	112.35
410.83	117.03
411.02	53.83
411.21	131.07
411.40	145.11
411.59	133.41
411.78	168.52
411.98	175.54
412.17	46.81
412.36	177.88
412.55	124.05
412.74	161.50
412.93	205.97
413.12	56.17
413.31	215.33
413.50	140.43
413.69	133.41
413.88	189.58
414.07	74.90
414.26	194.26
414.45	138.09
414.64	93.62
414.83	152.13
415.02	135.75
415.22	201.29
415.41	187.24
415.60	194.26
415.79	117.03
415.98	250.44
416.17	142.77
416.36	133.41
416.55	131.07
416.74	198.95
416.93	234.05
417.12	100.64
417.31	161.50
417.50	255.12
417.69	175.54
417.88	163.84
418.07	140.43
418.26	191.92
418.45	126.39
418.64	182.56
418.83	175.54
419.02	100.64
419.21	201.29
419.39	175.54
419.58	147.45
419.77	159.16
419.96	222.35
420.15	250.44
420.34	163.84
420.53	140.43
420.72	220.01
420.91	285.55
421.10	205.97
421.29	217.67
421.48	117.03
421.67	152.13
421.86	203.63
422.05	236.39
422.24	166.18
422.43	189.58
422.61	60.85
422.80	229.37
422.99	189.58
423.18	161.50
423.37	241.08
423.56	234.05
423.75	166.18
423.94	220.01
424.13	182.56
424.32	98.30
424.50	180.22
424.69	152.13
424.88	121.71
425.07	166.18
425.26	184.90
425.45	156.82
425.64	177.88
425.83	215.33
426.01	250.44
426.20	180.22
426.39	128.73
426.58	161.50
426.77	131.07
426.96	201.29
427.15	231.71
427.33	131.07
427.52	152.13
427.71	191.92
427.90	203.63
428.09	133.41
428.28	170.86
428.46	212.99
428.65	229.37
428.84	168.52
429.03	227.03
429.22	152.13
429.40	180.22
429.59	128.73
429.78	177.88
429.97	220.01
430.16	196.60
430.34	159.16
430.53	212.99
430.72	217.67
430.91	203.63
431.10	163.84
431.28	201.29
431.47	255.12
431.66	163.84
431.85	210.65
432.03	224.69
432.22	238.73
432.41	182.56
432.60	266.82
432.79	220.01
432.97	135.75
433.16	205.97
433.35	142.77
433.54	203.63
433.72	203.63
433.91	236.39
434.10	133.41
434.28	201.29
434.47	191.92
434.66	145.11
434.85	236.39
435.03	421.30
435.22	784.08
435.41	1259.21
435.59	1380.92
435.78	903.45
435.97	433.00
436.16	416.62
436.34	198.95
436.53	241.08
436.72	142.77
436.90	180.22
437.09	208.31
437.28	212.99
437.46	212.99
437.65	245.76
437.84	175.54
438.02	177.88
438.21	248.10
438.40	149.79
438.58	227.03
438.77	201.29
438.96	189.58
439.14	198.95
439.33	259.80
439.52	163.84
439.70	276.18
439.89	194.26
440.08	231.71
440.26	173.20
440.45	222.35
440.63	222.35
440.82	257.46
441.01	248.10
441.19	194.26
441.38	191.92
441.57	208.31
441.75	245.76
441.94	259.80
442.12	217.67
442.31	168.52
442.50	177.88
442.68	203.63
442.87	182.56
443.05	227.03
443.24	229.37
443.43	257.46
443.61	322.99
443.80	262.14
443.98	245.76
444.17	208.31
444.35	191.92
444.54	205.97
444.73	255.12
444.91	269.16
445.10	163.84
445.28	245.76
445.47	182.56
445.65	215.33
445.84	149.79
446.02	252.78
446.21	208.31
446.39	234.05
446.58	189.58
446.77	149.79
446.95	154.48
447.14	222.35
447.32	257.46
447.51	184.90
447.69	168.52
447.88	173.20
448.06	220.01
448.25	252.78
448.43	182.56
448.62	264.48
448.80	292.57
448.99	196.60
449.17	243.42
449.36	245.76
449.54	266.82
449.73	231.71
449.91	227.03
450.10	215.33
450.28	280.86
450.46	311.29
450.65	210.65
450.83	220.01
451.02	215.33
451.20	273.84
451.39	262.14
451.57	191.92
451.76	189.58
451.94	203.63
452.13	262.14
452.31	259.80
452.49	140.43
452.68	135.75
452.86	229.37
453.05	175.54
453.23	243.42
453.42	114.69
453.60	217.67
453.78	166.18
453.97	201.29
454.15	234.05
454.34	220.01
454.52	182.56
454.70	142.77
454.89	220.01
455.07	238.73
455.26	227.03
455.44	217.67
455.62	205.97
455.81	210.65
455.99	325.33
456.17	257.46
456.36	175.54
456.54	203.63
456.73	304.27
456.91	170.86
457.09	227.03
457.28	257.46
457.46	205.97
457.64	189.58
457.83	283.20
458.01	182.56
458.19	201.29
458.38	191.92
458.56	271.50
458.74	266.82
458.93	180.22
459.11	224.69
459.29	184.90
459.48	210.65
459.66	280.86
459.84	217.67
460.03	374.49
460.21	203.63
460.39	252.78
460.57	203.63
460.76	189.58
460.94	220.01
461.12	236.39
461.31	224.69
461.49	217.67
461.67	138.09
461.85	170.86
462.04	210.65
462.22	355.76
462.40	224.69
462.59	236.39
462.77	140.43
462.95	243.42
463.13	133.41
463.32	257.46
463.50	238.73
463.68	241.08
463.86	145.11
464.05	198.95
464.23	220.01
464.41	222.35
464.59	184.90
464.78	198.95
464.96	161.50
465.14	203.63
465.32	276.18
465.50	266.82
465.69	201.29
465.87	182.56
466.05	248.10
466.23	297.25
466.41	161.50
466.60	196.60
466.78	304.27
466.96	220.01
467.14	231.71
467.32	271.50
467.51	194.26
467.69	236.39
467.87	269.16
468.05	248.10
468.23	276.18
468.41	330.02
468.60	220.01
468.78	191.92
468.96	210.65
469.14	224.69
469.32	191.92
469.50	145.11
469.69	220.01
469.87	224.69
470.05	201.29
470.23	220.01
470.41	227.03
470.59	215.33
470.77	212.99
470.95	241.08
471.14	245.76
471.32	180.22
471.50	241.08
471.68	248.10
471.86	163.84
472.04	208.31
472.22	220.01
472.40	262.14
472.58	264.48
472.77	203.63
472.95	257.46
473.13	313.63
473.31	252.78
473.49	266.82
473.67	182.56
473.85	271.50
474.03	234.05
474.21	215.33
474.39	308.95
474.57	238.73
474.75	259.80
474.93	180.22
475.12	236.39
475.30	210.65
475.48	224.69
475.66	255.12
475.84	243.42
476.02	184.90
476.20	280.86
476.38	311.29
476.56	330.02
476.74	276.18
476.92	259.80
477.10	238.73
477.28	266.82
477.46	166.18
477.64	297.25
477.82	234.05
478.00	234.05
478.18	269.16
478.36	243.42
478.54	266.82
478.72	145.11
478.90	245.76
479.08	231.71
479.26	220.01
479.44	276.18
479.62	229.37
479.80	266.82
479.98	304.27
480.16	266.82
480.34	231.71
480.52	269.16
480.70	271.50
480.88	234.05
481.06	243.42
481.24	234.05
481.41	259.80
481.59	269.16
481.77	269.16
481.95	215.33
482.13	341.72
482.31	201.29
482.49	231.71
482.67	337.04
482.85	278.52
483.03	241.08
483.21	278.52
483.39	229.37
483.57	301.93
483.74	351.08
483.92	304.27
484.10	332.36
484.28	386.19
484.46	393.21
484.64	388.53
484.82	374.49
485.00	304.27
485.18	313.63
485.35	369.80
485.53	353.42
485.71	322.99
485.89	358.10
486.07	355.76
486.25	365.12
486.43	372.15
486.61	383.85
486.78	402.57
486.96	388.53
487.14	393.21
487.32	379.17
487.50	332.36
487.68	430.66
487.85	397.89
488.03	428.32
488.21	402.57
488.39	367.46
488.57	308.95
488.75	341.72
488.92	636.63
489.10	381.51
489.28	433.00
489.46	351.08
489.64	430.66
489.81	418.96
489.99	386.19
490.17	402.57
490.35	447.04
490.53	437.68
490.70	313.63
490.88	393.21
491.06	315.97
491.24	435.34
491.41	379.17
491.59	337.04
491.77	376.83
491.95	257.46
492.13	407.25
492.30	299.59
492.48	353.42
492.66	259.80
492.84	365.12
493.01	437.68
493.19	346.40
493.37	287.89
493.54	416.62
493.72	365.12
493.90	332.36
494.08	355.76
494.25	339.38
494.43	334.70
494.61	435.34
494.79	367.46
494.96	294.91
495.14	344.06
495.32	283.20
495.49	313.63
495.67	344.06
495.85	372.15
496.02	332.36
496.20	388.53
496.38	372.15
496.55	348.74
496.73	358.10
496.91	346.40
497.09	421.30
497.26	369.80
497.44	334.70
497.62	318.31
497.79	402.57
497.97	386.19
498.14	306.61
498.32	299.59
498.50	266.82
498.67	365.12
498.85	346.40
499.03	355.76
499.20	360.44
499.38	376.83
499.56	348.74
499.73	330.02
499.91	299.59
500.08	327.68
500.26	327.68
500.44	400.23
500.61	374.49
500.79	351.08
500.97	414.27
501.14	423.64
501.32	414.27
501.49	278.52
501.67	224.69
501.84	315.97
502.02	191.92
502.20	327.68
502.37	287.89
502.55	290.23
502.72	283.20
502.90	313.63
503.07	304.27
503.25	358.10
503.43	292.57
503.60	297.25
503.78	320.65
503.95	301.93
504.13	327.68
504.30	400.23
504.48	348.74
504.65	313.63
504.83	315.97
505.01	341.72
505.18	360.44
505.36	325.33
505.53	313.63
505.71	290.23
505.88	407.25
506.06	259.80
506.23	362.78
506.41	313.63
506.58	348.74
506.76	325.33
506.93	311.29
507.11	287.89
507.28	332.36
507.46	304.27
507.63	311.29
507.81	299.59
507.98	280.86
508.16	325.33
508.33	313.63
508.50	360.44
508.68	379.17
508.85	313.63
509.03	351.08
509.20	304.27
509.38	351.08
509.55	388.53
509.73	332.36
509.90	360.44
510.08	269.16
510.25	257.46
510.42	332.36
510.60	299.59
510.77	341.72
510.95	290.23
511.12	287.89
511.30	381.51
511.47	315.97
511.64	482.15
511.82	327.68
511.99	325.33
512.17	290.23
512.34	301.93
512.51	245.76
512.69	287.89
512.86	301.93
513.04	292.57
513.21	269.16
513.38	320.65
513.56	292.57
513.73	299.59
513.90	276.18
514.08	285.55
514.25	344.06
514.43	367.46
514.60	273.84
514.77	308.95
514.95	264.48
515.12	327.68
515.29	308.95
515.47	362.78
515.64	306.61
515.81	313.63
515.99	358.10
516.16	287.89
516.33	341.72
516.51	278.52
516.68	280.86
516.85	322.99
517.03	262.14
517.20	341.72
517.37	386.19
517.54	325.33
517.72	325.33
517.89	250.44
518.06	311.29
518.24	299.59
518.41	390.87
518.58	337.04
518.75	346.40
518.93	299.59
519.10	236.39
519.27	273.84
519.45	276.18
519.62	278.52
519.79	360.44
519.96	346.40
520.14	423.64
520.31	325.33
520.48	351.08
520.65	327.68
520.83	367.46
521.00	327.68
521.17	332.36
521.34	353.42
521.52	299.59
521.69	353.42
521.86	332.36
522.03	311.29
522.20	332.36
522.38	294.91
522.55	304.27
522.72	397.89
522.89	346.40
523.07	383.85
523.24	344.06
523.41	367.46
523.58	301.93
523.75	322.99
523.92	311.29
524.10	365.12
524.27	388.53
524.44	285.55
524.61	367.46
524.78	325.33
524.96	341.72
525.13	287.89
525.30	287.89
525.47	322.99
525.64	325.33
525.81	348.74
525.98	311.29
526.16	315.97
526.33	360.44
526.50	264.48
526.67	327.68
526.84	315.97
527.01	313.63
527.18	362.78
527.36	334.70
527.53	341.72
527.70	320.65
527.87	346.40
528.04	292.57
528.21	325.33
528.38	360.44
528.55	383.85
528.72	355.76
528.89	376.83
529.07	351.08
529.24	360.44
529.41	365.12
529.58	276.18
529.75	386.19
529.92	322.99
530.09	344.06
530.26	327.68
530.43	358.10
530.60	313.63
530.77	386.19
530.94	360.44
531.11	365.12
531.28	435.34
531.46	337.04
531.63	276.18
531.80	367.46
531.97	348.74
532.14	372.15
532.31	433.00
532.48	379.17
532.65	344.06
532.82	402.57
532.99	386.19
533.16	346.40
533.33	444.70
533.50	423.64
533.67	411.93
533.84	369.80
534.01	362.78
534.18	379.17
534.35	334.70
534.52	428.32
534.69	337.04
534.86	332.36
535.03	374.49
535.20	325.33
535.37	402.57
535.54	451.72
535.71	400.23
535.88	383.85
536.05	283.20
536.22	421.30
536.38	334.70
536.55	390.87
536.72	402.57
536.89	454.06
537.06	449.38
537.23	409.59
537.40	491.51
537.57	479.81
537.74	500.87
537.91	514.92
538.08	484.49
538.25	528.96
538.42	589.82
538.59	451.72
538.75	589.82
538.92	498.53
539.09	575.77
539.26	538.32
539.43	676.41
539.60	622.58
539.77	798.12
539.94	779.40
540.11	823.87
540.28	774.72
540.44	961.96
540.61	884.72
540.78	973.66
540.95	1074.31
541.12	1306.02
541.29	1418.36
541.46	1469.86
541.62	1474.54
541.79	1493.26
541.96	1399.64
542.13	1308.36
542.30	1378.58
542.47	1308.36
542.63	1249.85
542.80	1177.29
542.97	1287.29
543.14	1219.42
543.31	1158.57
543.48	1252.19
543.64	1350.49
543.81	1280.27
543.98	1331.76
544.15	1221.76
544.32	1273.25
544.48	1263.89
544.65	1165.59
544.82	1228.78
544.99	1205.38
545.16	1198.35
545.32	1294.32
545.49	1893.49
545.66	2871.84
545.83	3632.51
546.00	3148.02
546.16	2275.00
546.33	1722.63
546.50	1394.96
546.67	1212.40
546.83	976.00
547.00	964.30
547.17	912.81
547.34	866.00
547.50	894.08
547.67	910.47
547.84	882.38
548.00	929.19
548.17	863.66
548.34	819.19
548.51	793.44
548.67	758.33
548.84	800.46
549.01	779.40
549.18	779.40
549.34	636.63
549.51	739.61
549.68	734.93
549.84	610.88
550.01	631.94
550.18	800.46
550.34	676.41
550.51	592.16
550.68	578.11
550.84	571.09
551.01	648.33
551.18	566.41
551.34	578.11
551.51	585.13
551.68	561.73
551.84	528.96
552.01	531.30
552.18	493.85
552.34	482.15
552.51	519.60
552.68	461.09
552.84	475.13
553.01	428.32
553.18	451.72
553.34	519.60
553.51	449.38
553.67	442.36
553.84	491.51
554.01	346.40
554.17	484.49
554.34	409.59
554.51	397.89
554.67	435.34
554.84	449.38
555.00	433.00
555.17	376.83
555.33	339.38
555.50	428.32
555.67	423.64
555.83	276.18
556.00	376.83
556.16	533.64
556.33	388.53
556.50	376.83
556.66	381.51
556.83	325.33
556.99	334.70
557.16	341.72
557.32	395.55
557.49	355.76
557.65	346.40
557.82	262.14
557.98	330.02
558.15	400.23
558.32	330.02
558.48	255.12
558.65	315.97
558.81	339.38
558.98	287.89
559.14	341.72
559.31	358.10
559.47	311.29
559.64	411.93
559.80	325.33
559.97	320.65
560.13	341.72
560.30	304.27
560.46	337.04
560.63	304.27
560.79	334.70
560.96	315.97
561.12	294.91
561.29	315.97
561.45	367.46
561.61	353.42
561.78	463.43
561.94	379.17
562.11	313.63
562.27	353.42
562.44	388.53
562.60	346.40
562.77	365.12
562.93	388.53
563.10	327.68
563.26	362.78
563.42	393.21
563.59	313.63
563.75	241.08
563.92	346.40
564.08	344.06
564.24	358.10
564.41	447.04
564.57	304.27
564.74	358.10
564.90	325.33
565.07	386.19
565.23	332.36
565.39	227.03
565.56	400.23
565.72	397.89
565.88	299.59
566.05	299.59
566.21	330.02
566.38	337.04
566.54	271.50
566.70	330.02
566.87	362.78
567.03	287.89
567.19	360.44
567.36	404.91
567.52	332.36
567.68	367.46
567.85	365.12
568.01	325.33
568.17	308.95
568.34	241.08
568.50	358.10
568.66	299.59
568.83	320.65
568.99	297.25
569.15	339.38
569.32	355.76
569.48	327.68
569.64	276.18
569.81	306.61
569.97	332.36
570.13	315.97
570.30	334.70
570.46	381.51
570.62	327.68
570.78	280.86
570.95	217.67
571.11	245.76
571.27	353.42
571.43	332.36
571.60	379.17
571.76	208.31
571.92	243.42
572.09	313.63
572.25	355.76
572.41	325.33
572.57	210.65
572.74	395.55
572.90	290.23
573.06	341.72
573.22	376.83
573.38	304.27
573.55	297.25
573.71	297.25
573.87	294.91
574.03	285.55
574.20	297.25
574.36	322.99
574.52	346.40
574.68	248.10
574.84	325.33
575.01	266.82
575.17	276.18
575.33	313.63
575.49	327.68
575.65	355.76
575.82	351.08
575.98	400.23
576.14	306.61
576.30	376.83
576.46	557.05
576.62	763.01
576.79	966.64
576.95	711.52
577.11	514.92
577.27	404.91
577.43	461.09
577.59	433.00
577.75	393.21
577.92	397.89
578.08	308.95
578.24	395.55
578.40	430.66
578.56	524.28
578.72	816.85
578.88	922.17
579.04	718.54
579.21	599.18
579.37	461.09
579.53	430.66
579.69	533.64
579.85	435.34
580.01	503.22
580.17	475.13
580.33	561.73
580.49	475.13
580.65	468.11
580.82	381.51
580.98	376.83
581.14	484.49
581.30	503.22
581.46	468.11
581.62	479.81
581.78	402.57
581.94	496.19
582.10	442.36
582.26	465.77
582.42	463.43
582.58	531.30
582.74	514.92
582.90	519.60
583.06	521.94
583.22	535.98
583.38	498.53
583.54	491.51
583.70	517.26
583.86	547.69
584.02	470.45
584.18	503.22
584.34	568.75
584.50	472.79
584.66	496.19
584.82	489.17
584.98	505.56
585.14	533.64
585.30	486.83
585.46	496.19
585.62	379.17
585.78	470.45
585.94	447.04
586.10	524.28
586.26	461.09
586.42	498.53
586.58	582.79
586.74	643.65
586.90	655.35
587.06	746.63
587.22	751.31
587.38	645.99
587.54	662.37
587.70	655.35
587.86	521.94
588.02	475.13
588.18	465.77
588.34	402.57
588.49	433.00
588.65	369.80
588.81	395.55
588.97	344.06
589.13	353.42
589.29	320.65
589.45	388.53
589.61	407.25
589.77	430.66
589.93	425.98
590.08	301.93
590.24	301.93
590.40	442.36
590.56	341.72
590.72	428.32
590.88	402.57
591.04	397.89
591.20	383.85
591.35	489.17
591.51	447.04
591.67	456.40
591.83	463.43
591.99	496.19
592.15	475.13
592.31	493.85
592.46	421.30
592.62	648.33
592.78	613.22
592.94	545.34
593.10	564.07
593.26	521.94
593.41	592.16
593.57	568.75
593.73	447.04
593.89	411.93
594.05	421.30
594.20	411.93
594.36	402.57
594.52	400.23
594.68	315.97
594.84	376.83
594.99	435.34
595.15	372.15
595.31	358.10
595.47	358.10
595.62	348.74
595.78	334.70
595.94	386.19
596.10	411.93
596.25	337.04
596.41	435.34
596.57	365.12
596.73	315.97
596.88	346.40
597.04	365.12
597.20	318.31
597.36	330.02
597.51	353.42
597.67	330.02
597.83	339.38
597.99	360.44
598.14	383.85
598.30	444.70
598.46	358.10
598.61	454.06
598.77	449.38
598.93	409.59
599.09	468.11
599.24	451.72
599.40	451.72
599.56	416.62
599.71	449.38
599.87	430.66
600.03	461.09
600.18	369.80
600.34	386.19
600.50	395.55
600.65	414.27
600.81	404.91
600.97	327.68
601.12	365.12
601.28	383.85
601.44	287.89
601.59	308.95
601.75	348.74
601.91	402.57
602.06	362.78
602.22	337.04
602.37	290.23
602.53	292.57
602.69	315.97
602.84	367.46
603.00	372.15
603.16	325.33
603.31	322.99
603.47	318.31
603.62	344.06
603.78	327.68
603.94	320.65
604.09	327.68
604.25	334.70
604.40	355.76
604.56	355.76
604.71	287.89
604.87	372.15
605.03	325.33
605.18	369.80
605.34	358.10
605.49	411.93
605.65	351.08
605.80	355.76
605.96	358.10
606.12	418.96
606.27	341.72
606.43	353.42
606.58	388.53
606.74	362.78
606.89	435.34
607.05	456.40
607.20	423.64
607.36	437.68
607.51	388.53
607.67	418.96
607.82	458.74
607.98	547.69
608.13	517.26
608.29	531.30
608.44	528.96
608.60	503.22
608.75	498.53
608.91	667.05
609.06	587.47
609.22	631.94
609.37	655.35
609.53	716.20
609.68	842.59
609.84	870.68
609.99	959.62
610.15	1053.24
610.30	1247.51
610.46	1603.27
610.61	1949.67
610.76	2380.32
