SpectraSuite Data File
++++++++++++++++++++++++++++++++++++
Date: Fri Oct 04 11:41:42 GMT-05:00 2013
User: price-jones
Dark Spectrum Present: No
Reference Spectrum Present: No
Number of Sampled Component Spectra: 1
Spectrometers: USB2+H05261
Integration Time (usec): 100000 (USB2+H05261)
Spectra Averaged: 1 (USB2+H05261)
Boxcar Smoothing: 0 (USB2+H05261)
Correct for Electrical Dark: No (USB2+H05261)
Strobe/Lamp Enabled: No (USB2+H05261)
Correct for Detector Non-linearity: No (USB2+H05261)
Correct for Stray Light: No (USB2+H05261)
Number of Pixels in Processed Spectrum: 2048
>>>>>Begin Processed Spectral Data<<<<<
365.73	86.60
365.92	86.60
366.12	86.60
366.32	0.00
366.52	0.00
366.72	28.09
366.91	11.70
367.11	0.00
367.31	0.00
367.51	0.00
367.70	4.68
367.90	0.00
368.10	0.00
368.30	0.00
368.49	0.00
368.69	0.00
368.89	0.00
369.09	0.00
369.28	0.00
369.48	0.00
369.68	0.00
369.87	0.00
370.07	11.70
370.27	32.77
370.47	46.81
370.66	49.15
370.86	42.13
371.06	4.68
371.25	91.28
371.45	63.19
371.65	135.75
371.84	9.36
372.04	35.11
372.24	60.85
372.44	152.13
372.63	159.16
372.83	133.41
373.03	67.88
373.22	65.54
373.42	119.37
373.62	145.11
373.81	107.66
374.01	140.43
374.21	119.37
374.40	98.30
374.60	102.98
374.79	100.64
374.99	100.64
375.19	133.41
375.38	147.45
375.58	91.28
375.78	88.94
375.97	175.54
376.17	135.75
376.37	140.43
376.56	187.24
376.76	135.75
376.95	95.96
377.15	159.16
377.35	194.26
377.54	95.96
377.74	79.58
377.93	154.48
378.13	156.82
378.33	124.05
378.52	138.09
378.72	154.48
378.91	145.11
379.11	93.62
379.31	135.75
379.50	154.48
379.70	121.71
379.89	217.67
380.09	133.41
380.28	105.32
380.48	67.88
380.68	72.56
380.87	95.96
381.07	149.79
381.26	142.77
381.46	182.56
381.65	194.26
381.85	124.05
382.04	201.29
382.24	170.86
382.43	70.22
382.63	84.26
382.83	124.05
383.02	114.69
383.22	37.45
383.41	107.66
383.61	100.64
383.80	67.88
384.00	156.82
384.19	142.77
384.39	184.90
384.58	95.96
384.78	142.77
384.97	163.84
385.17	126.39
385.36	191.92
385.56	152.13
385.75	77.24
385.95	180.22
386.14	147.45
386.34	112.35
386.53	126.39
386.72	65.54
386.92	100.64
387.11	44.47
387.31	133.41
387.50	140.43
387.70	112.35
387.89	128.73
388.09	107.66
388.28	98.30
388.48	133.41
388.67	161.50
388.86	126.39
389.06	126.39
389.25	128.73
389.45	168.52
389.64	114.69
389.84	140.43
390.03	180.22
390.22	138.09
390.42	138.09
390.61	102.98
390.81	126.39
391.00	124.05
391.19	175.54
391.39	74.90
391.58	152.13
391.78	147.45
391.97	126.39
392.16	149.79
392.36	110.01
392.55	152.13
392.75	126.39
392.94	110.01
393.13	166.18
393.33	170.86
393.52	72.56
393.71	159.16
393.91	145.11
394.10	60.85
394.29	156.82
394.49	112.35
394.68	161.50
394.88	128.73
395.07	198.95
395.26	42.13
395.46	140.43
395.65	177.88
395.84	88.94
396.04	177.88
396.23	119.37
396.42	112.35
396.62	145.11
396.81	205.97
397.00	131.07
397.19	191.92
397.39	147.45
397.58	124.05
397.77	184.90
397.97	114.69
398.16	124.05
398.35	93.62
398.55	23.41
398.74	93.62
398.93	138.09
399.12	168.52
399.32	98.30
399.51	184.90
399.70	86.60
399.90	175.54
400.09	107.66
400.28	170.86
400.47	152.13
400.67	170.86
400.86	126.39
401.05	187.24
401.24	149.79
401.44	245.76
401.63	241.08
401.82	196.60
402.01	128.73
402.21	154.48
402.40	182.56
402.59	182.56
402.78	229.37
402.97	220.01
403.17	222.35
403.36	203.63
403.55	400.23
403.74	713.86
403.93	2106.48
404.13	5139.82
404.32	7761.22
404.51	7145.66
404.70	4379.14
404.89	1631.35
405.09	472.79
405.28	379.17
405.47	287.89
405.66	220.01
405.85	184.90
406.05	149.79
406.24	147.45
406.43	208.31
406.62	170.86
406.81	278.52
407.00	404.91
407.20	697.48
407.39	978.34
407.58	1135.16
407.77	821.53
407.96	444.70
408.15	344.06
408.34	229.37
408.54	149.79
408.73	159.16
408.92	170.86
409.11	238.73
409.30	208.31
409.49	166.18
409.68	126.39
409.87	173.20
410.07	180.22
410.26	259.80
410.45	257.46
410.64	159.16
410.83	182.56
411.02	184.90
411.21	250.44
411.40	276.18
411.59	264.48
411.78	184.90
411.98	198.95
412.17	241.08
412.36	248.10
412.55	208.31
412.74	318.31
412.93	191.92
413.12	184.90
413.31	243.42
413.50	262.14
413.69	243.42
413.88	334.70
414.07	278.52
414.26	273.84
414.45	201.29
414.64	271.50
414.83	255.12
415.02	245.76
415.22	248.10
415.41	283.20
415.60	257.46
415.79	266.82
415.98	248.10
416.17	262.14
416.36	327.68
416.55	224.69
416.74	285.55
416.93	278.52
417.12	283.20
417.31	255.12
417.50	191.92
417.69	273.84
417.88	262.14
418.07	220.01
418.26	266.82
418.45	222.35
418.64	287.89
418.83	229.37
419.02	243.42
419.21	241.08
419.39	203.63
419.58	259.80
419.77	360.44
419.96	280.86
420.15	269.16
420.34	276.18
420.53	278.52
420.72	299.59
420.91	217.67
421.10	245.76
421.29	269.16
421.48	325.33
421.67	271.50
421.86	330.02
422.05	287.89
422.24	292.57
422.43	278.52
422.61	234.05
422.80	245.76
422.99	334.70
423.18	327.68
423.37	353.42
423.56	276.18
423.75	320.65
423.94	238.73
424.13	322.99
424.32	278.52
424.50	346.40
424.69	332.36
424.88	369.80
425.07	339.38
425.26	332.36
425.45	318.31
425.64	325.33
425.83	308.95
426.01	372.15
426.20	236.39
426.39	395.55
426.58	280.86
426.77	325.33
426.96	341.72
427.15	407.25
427.33	358.10
427.52	348.74
427.71	386.19
427.90	341.72
428.09	374.49
428.28	297.25
428.46	330.02
428.65	411.93
428.84	414.27
429.03	437.68
429.22	322.99
429.40	360.44
429.59	362.78
429.78	407.25
429.97	351.08
430.16	313.63
430.34	299.59
430.53	362.78
430.72	383.85
430.91	440.02
431.10	388.53
431.28	402.57
431.47	447.04
431.66	383.85
431.85	386.19
432.03	425.98
432.22	507.90
432.41	465.77
432.60	503.22
432.79	430.66
432.97	454.06
433.16	578.11
433.35	557.05
433.54	667.05
433.72	615.56
433.91	638.97
434.10	683.44
434.28	922.17
434.47	1053.24
434.66	1156.22
434.85	1338.79
435.03	3482.72
435.22	12830.82
435.41	31728.30
435.59	37291.76
435.78	24315.83
435.97	11857.15
436.16	4507.87
436.34	1495.60
436.53	929.19
436.72	741.95
436.90	739.61
437.09	620.24
437.28	631.94
437.46	543.00
437.65	571.09
437.84	559.39
438.02	451.72
438.21	517.26
438.40	470.45
438.58	423.64
438.77	601.52
438.96	475.13
439.14	564.07
439.33	561.73
439.52	461.09
439.70	526.62
439.89	456.40
440.08	472.79
440.26	430.66
440.45	493.85
440.63	512.58
440.82	535.98
441.01	465.77
441.19	435.34
441.38	468.11
441.57	463.43
441.75	533.64
441.94	475.13
442.12	496.19
442.31	409.59
442.50	571.09
442.68	423.64
442.87	486.83
443.05	470.45
443.24	493.85
443.43	491.51
443.61	557.05
443.80	486.83
443.98	514.92
444.17	444.70
444.35	528.96
444.54	514.92
444.73	526.62
444.91	479.81
445.10	430.66
445.28	533.64
445.47	442.36
445.65	540.66
445.84	465.77
446.02	489.17
446.21	421.30
446.39	547.69
446.58	507.90
446.77	521.94
446.95	510.24
447.14	458.74
447.32	503.22
447.51	468.11
447.69	463.43
447.88	491.51
448.06	526.62
448.25	440.02
448.43	449.38
448.62	465.77
448.80	435.34
448.99	491.51
449.17	461.09
449.36	404.91
449.54	468.11
449.73	451.72
449.91	557.05
450.10	489.17
450.28	538.32
450.46	535.98
450.65	535.98
450.83	433.00
451.02	489.17
451.20	514.92
451.39	505.56
451.57	484.49
451.76	517.26
451.94	482.15
452.13	568.75
452.31	510.24
452.49	510.24
452.68	440.02
452.86	498.53
453.05	521.94
453.23	507.90
453.42	435.34
453.60	475.13
453.78	468.11
453.97	418.96
454.15	571.09
454.34	444.70
454.52	437.68
454.70	514.92
454.89	505.56
455.07	456.40
455.26	381.51
455.44	454.06
455.62	493.85
455.81	411.93
455.99	454.06
456.17	521.94
456.36	557.05
456.54	489.17
456.73	477.47
456.91	440.02
457.09	498.53
457.28	458.74
457.46	489.17
457.64	498.53
457.83	498.53
458.01	425.98
458.19	458.74
458.38	468.11
458.56	552.37
458.74	479.81
458.93	421.30
459.11	454.06
459.29	435.34
459.48	456.40
459.66	538.32
459.84	486.83
460.03	498.53
460.21	575.77
460.39	472.79
460.57	540.66
460.76	465.77
460.94	444.70
461.12	505.56
461.31	528.96
461.49	463.43
461.67	486.83
461.85	468.11
462.04	379.17
462.22	564.07
462.40	510.24
462.59	433.00
462.77	470.45
462.95	444.70
463.13	486.83
463.32	505.56
463.50	559.39
463.68	496.19
463.86	475.13
464.05	416.62
464.23	500.87
464.41	489.17
464.59	355.76
464.78	465.77
464.96	440.02
465.14	489.17
465.32	414.27
465.50	407.25
465.69	470.45
465.87	447.04
466.05	489.17
466.23	404.91
466.41	552.37
466.60	475.13
466.78	491.51
466.96	486.83
467.14	505.56
467.32	535.98
467.51	543.00
467.69	437.68
467.87	435.34
468.05	454.06
468.23	503.22
468.41	435.34
468.60	409.59
468.78	416.62
468.96	423.64
469.14	463.43
469.32	367.46
469.50	440.02
469.69	531.30
469.87	393.21
470.05	390.87
470.23	456.40
470.41	454.06
470.59	425.98
470.77	418.96
470.95	489.17
471.14	479.81
471.32	376.83
471.50	561.73
471.68	442.36
471.86	444.70
472.04	437.68
472.22	414.27
472.40	376.83
472.58	444.70
472.77	447.04
472.95	425.98
473.13	557.05
473.31	559.39
473.49	411.93
473.67	381.51
473.85	472.79
474.03	454.06
474.21	449.38
474.39	500.87
474.57	528.96
474.75	524.28
474.93	461.09
475.12	437.68
475.30	414.27
475.48	397.89
475.66	519.60
475.84	440.02
476.02	484.49
476.20	491.51
476.38	472.79
476.56	500.87
476.74	468.11
476.92	433.00
477.10	444.70
477.28	526.62
477.46	486.83
477.64	531.30
477.82	479.81
478.00	580.45
478.18	517.26
478.36	484.49
478.54	510.24
478.72	470.45
478.90	550.03
479.08	543.00
479.26	507.90
479.44	585.13
479.62	475.13
479.80	674.07
479.98	629.60
480.16	538.32
480.34	669.39
480.52	786.42
480.70	734.93
480.88	763.01
481.06	758.33
481.24	791.10
481.41	823.87
481.59	922.17
481.77	936.21
481.95	954.94
482.13	1144.52
482.31	1102.39
482.49	1076.65
482.67	1177.29
482.85	1287.29
483.03	1432.41
483.21	1526.03
483.39	1610.29
483.57	1762.42
483.74	1844.34
483.92	1879.45
484.10	2043.29
484.28	2155.63
484.46	2300.75
484.64	2340.54
484.82	2448.20
485.00	2499.69
485.18	2724.38
485.35	2899.92
485.53	3026.31
485.71	3124.62
485.89	3351.65
486.07	3304.84
486.25	3377.39
486.43	3421.86
486.61	3368.03
486.78	3468.67
486.96	3431.23
487.14	3461.65
487.32	3346.97
487.50	3475.70
487.68	3471.01
487.85	3351.65
488.03	3243.98
488.21	3295.47
488.39	3105.89
488.57	3049.72
488.75	3047.38
488.92	3253.34
489.10	3028.65
489.28	2773.53
489.46	2761.83
489.64	2846.09
489.81	2703.32
489.99	2775.88
490.17	2670.55
490.35	2729.06
490.53	2764.17
490.70	2473.95
490.88	2544.16
491.06	2696.30
491.24	2930.35
491.41	2981.84
491.59	2853.11
491.77	2553.52
491.95	2569.91
492.13	2473.95
492.30	2352.24
492.48	2307.77
492.66	2338.20
492.84	2275.00
493.01	2324.15
493.19	2321.81
493.37	2216.49
493.54	2279.68
493.72	2106.48
493.90	2143.93
494.08	2008.18
494.25	2146.27
494.43	1909.88
494.61	1912.22
494.79	2062.01
494.96	1975.41
495.14	1856.04
495.32	1769.44
495.49	1856.04
495.67	1750.72
495.85	1809.23
496.02	1767.10
496.20	1720.29
496.38	1778.81
496.55	1640.72
496.73	1675.82
496.91	1668.80
497.09	1575.18
497.26	1521.35
497.44	1554.12
497.62	1523.69
497.79	1481.56
497.97	1514.33
498.14	1465.18
498.32	1481.56
498.50	1418.36
498.67	1313.04
498.85	1245.16
499.03	1247.51
499.20	1242.82
499.38	1289.64
499.56	1174.95
499.73	1207.72
499.91	1181.97
500.08	1015.79
500.26	1125.80
500.44	997.07
500.61	889.40
500.79	1001.75
500.97	966.64
501.14	983.02
501.32	849.61
501.49	957.28
501.67	877.70
501.84	812.17
502.02	760.67
502.20	931.53
502.37	828.55
502.55	793.44
502.72	692.80
502.90	648.33
503.07	751.31
503.25	587.47
503.43	676.41
503.60	727.91
503.78	716.20
503.95	702.16
504.13	627.26
504.30	608.54
504.48	587.47
504.65	550.03
504.83	608.54
505.01	601.52
505.18	617.90
505.36	629.60
505.53	543.00
505.71	543.00
505.88	603.86
506.06	503.22
506.23	468.11
506.41	524.28
506.58	526.62
506.76	512.58
506.93	550.03
507.11	519.60
507.28	465.77
507.46	500.87
507.63	456.40
507.81	451.72
507.98	503.22
508.16	447.04
508.33	416.62
508.50	521.94
508.68	493.85
508.85	545.34
509.03	461.09
509.20	566.41
509.38	545.34
509.55	472.79
509.73	451.72
509.90	463.43
510.08	477.47
510.25	491.51
510.42	472.79
510.60	463.43
510.77	437.68
510.95	402.57
511.12	489.17
511.30	376.83
511.47	465.77
511.64	545.34
511.82	482.15
511.99	592.16
512.17	423.64
512.34	447.04
512.51	421.30
512.69	409.59
512.86	521.94
513.04	435.34
513.21	498.53
513.38	533.64
513.56	437.68
513.73	498.53
513.90	440.02
514.08	390.87
514.25	482.15
514.43	395.55
514.60	409.59
514.77	397.89
514.95	442.36
515.12	381.51
515.29	435.34
515.47	337.04
515.64	400.23
515.81	425.98
515.99	369.80
516.16	468.11
516.33	449.38
516.51	341.72
516.68	444.70
516.85	468.11
517.03	383.85
517.20	374.49
517.37	374.49
517.54	402.57
517.72	353.42
517.89	334.70
518.06	297.25
518.24	447.04
518.41	337.04
518.58	341.72
518.75	311.29
518.93	372.15
519.10	318.31
519.27	341.72
519.45	402.57
519.62	388.53
519.79	330.02
519.96	397.89
520.14	475.13
520.31	386.19
520.48	402.57
520.65	393.21
520.83	386.19
521.00	318.31
521.17	365.12
521.34	379.17
521.52	365.12
521.69	386.19
521.86	428.32
522.03	407.25
522.20	388.53
522.38	306.61
522.55	358.10
522.72	327.68
522.89	365.12
523.07	477.47
523.24	393.21
523.41	397.89
523.58	376.83
523.75	358.10
523.92	344.06
524.10	397.89
524.27	344.06
524.44	376.83
524.61	372.15
524.78	294.91
524.96	444.70
525.13	374.49
525.30	425.98
525.47	461.09
525.64	437.68
525.81	449.38
525.98	416.62
526.16	447.04
526.33	440.02
526.50	388.53
526.67	430.66
526.84	404.91
527.01	465.77
527.18	500.87
527.36	526.62
527.53	528.96
527.70	594.50
527.87	543.00
528.04	526.62
528.21	475.13
528.38	428.32
528.55	442.36
528.72	535.98
528.89	512.58
529.07	447.04
529.24	451.72
529.41	524.28
529.58	514.92
529.75	505.56
529.92	545.34
530.09	519.60
530.26	564.07
530.43	550.03
530.60	491.51
530.77	645.99
530.94	594.50
531.11	589.82
531.28	587.47
531.46	571.09
531.63	711.52
531.80	767.70
531.97	681.10
532.14	814.51
532.31	971.32
532.48	1071.97
532.65	1315.38
532.82	1563.48
532.99	1633.69
533.16	1963.71
533.33	2076.06
533.50	1963.71
533.67	1685.19
533.84	1423.05
534.01	1282.61
534.18	1200.69
534.35	1198.35
534.52	1242.82
534.69	1214.74
534.86	1256.87
535.03	1291.98
535.20	1322.40
535.37	1540.07
535.54	1507.30
535.71	1575.18
535.88	1774.13
536.05	1842.00
536.22	2045.63
536.38	2104.14
536.55	2279.68
536.72	2532.46
536.89	2876.52
537.06	3211.22
537.23	3438.25
537.40	3728.47
537.57	4117.00
537.74	4269.14
537.91	4430.63
538.08	4444.68
538.25	4514.89
538.42	4561.70
538.59	4858.95
538.75	4945.55
538.92	5284.93
539.09	5701.54
539.26	6396.68
539.43	7197.15
539.60	8109.96
539.77	8994.68
539.94	10209.42
540.11	11199.46
540.28	12528.89
540.44	13364.46
540.61	14923.26
540.78	17130.38
540.95	20538.20
541.12	24697.33
541.29	28187.07
541.46	29930.77
541.62	28900.94
541.79	28140.26
541.96	26204.64
542.13	24542.86
542.30	22607.23
542.47	21443.99
542.63	20130.95
542.80	19389.00
542.97	19321.12
543.14	18986.43
543.31	18857.70
543.48	19066.00
543.64	19346.87
543.81	19723.69
543.98	19852.42
544.15	19592.62
544.32	19915.62
544.48	19754.12
544.65	19389.00
544.82	19674.54
544.99	19295.38
545.16	19744.76
545.32	21085.89
545.49	32641.11
545.66	55608.79
545.83	63627.46
546.00	59875.58
546.16	46677.30
546.33	34995.69
546.50	26141.44
546.67	20423.51
546.83	17844.24
547.00	17078.89
547.17	16311.19
547.34	15824.36
547.50	14764.10
547.67	14740.69
547.84	13561.06
548.00	13015.72
548.17	12821.45
548.34	12194.19
548.51	11646.51
548.67	11272.02
548.84	10593.26
549.01	10188.35
549.18	9593.86
549.34	9600.88
549.51	9095.32
549.68	8826.16
549.84	8276.13
550.01	7744.83
550.18	7737.81
550.34	7356.30
550.51	6848.41
550.68	6773.51
550.84	6160.29
551.01	5891.13
551.18	5507.28
551.34	5268.55
551.51	5109.39
551.68	4945.55
551.84	4765.33
552.01	4629.58
552.18	4360.42
552.34	4280.84
552.51	4002.32
552.68	3667.62
552.84	3810.39
553.01	3524.85
553.18	3496.76
553.34	3407.82
553.51	3185.47
553.67	3260.37
553.84	3056.74
554.01	2897.58
554.17	2651.83
554.34	2450.54
554.51	2370.96
554.67	2289.04
554.84	2083.08
555.00	1994.14
555.17	1809.23
555.33	1844.34
555.50	1743.70
555.67	1673.48
555.83	1603.27
556.00	1476.88
556.16	1682.85
556.33	1399.64
556.50	1439.43
556.66	1390.28
556.83	1233.46
556.99	1273.25
557.16	1193.67
557.32	1193.67
557.49	1121.12
557.65	1249.85
557.82	1142.18
557.98	980.68
558.15	994.73
558.32	1053.24
558.48	990.05
558.65	1027.50
558.81	966.64
558.98	933.87
559.14	924.51
559.31	905.79
559.47	952.60
559.64	868.34
559.80	891.74
559.97	774.72
560.13	807.48
560.30	821.53
560.46	847.27
560.63	868.34
560.79	800.46
560.96	788.76
561.12	765.36
561.29	793.44
561.45	788.76
561.61	814.51
561.78	901.11
561.94	875.36
562.11	856.64
562.27	863.66
562.44	851.96
562.60	805.14
562.77	725.57
562.93	840.25
563.10	816.85
563.26	770.04
563.42	737.27
563.59	716.20
563.75	734.93
563.92	779.40
564.08	741.95
564.24	660.03
564.41	774.72
564.57	662.37
564.74	692.80
564.90	655.35
565.07	699.82
565.23	601.52
565.39	645.99
565.56	657.69
565.72	645.99
565.88	667.05
566.05	627.26
566.21	620.24
566.38	634.29
566.54	667.05
566.70	718.54
566.87	603.86
567.03	566.41
567.19	706.84
567.36	648.33
567.52	599.18
567.68	655.35
567.85	697.48
568.01	690.46
568.17	622.58
568.34	723.23
568.50	786.42
568.66	615.56
568.83	774.72
568.99	641.31
569.15	676.41
569.32	557.05
569.48	622.58
569.64	601.52
569.81	557.05
569.97	568.75
570.13	587.47
570.30	543.00
570.46	517.26
570.62	489.17
570.78	461.09
570.95	535.98
571.11	510.24
571.27	514.92
571.43	486.83
571.60	505.56
571.76	477.47
571.92	559.39
572.09	468.11
572.25	444.70
572.41	519.60
572.57	526.62
572.74	526.62
572.90	484.49
573.06	451.72
573.22	514.92
573.38	505.56
573.55	575.77
573.71	582.79
573.87	559.39
574.03	657.69
574.20	566.41
574.36	545.34
574.52	568.75
574.68	601.52
574.84	631.94
575.01	660.03
575.17	660.03
575.33	699.82
575.49	816.85
575.65	917.49
575.82	866.00
575.98	922.17
576.14	1053.24
576.30	2125.21
576.46	6401.37
576.62	12521.87
576.79	14885.81
576.95	10705.61
577.11	6913.94
577.27	4779.37
577.43	3258.03
577.59	1970.73
577.75	1565.82
577.92	1451.13
578.08	1486.24
578.24	1416.02
578.40	2258.62
578.56	5982.41
578.72	11314.15
578.88	13437.02
579.04	10127.50
579.21	6534.78
579.37	4896.40
579.53	3712.09
579.69	3543.57
579.85	4538.30
580.01	5062.58
580.17	4978.32
580.33	4301.90
580.49	3707.41
580.65	3274.41
580.82	2846.09
580.98	2895.24
581.14	2787.58
581.30	3049.72
581.46	3290.79
581.62	3637.19
581.78	3904.01
581.94	4072.53
582.10	4269.14
582.26	4421.27
582.42	4807.46
582.58	4847.25
582.74	4823.84
582.90	4826.18
583.06	5027.47
583.22	4959.60
583.38	4978.32
583.54	5025.13
583.70	4863.63
583.86	4774.69
584.02	4706.82
584.18	4788.74
584.34	4554.68
584.50	4493.83
584.66	4528.94
584.82	4414.25
584.98	4348.72
585.14	4416.59
585.30	4353.40
585.46	4175.52
585.62	4131.05
585.78	4035.08
585.94	4292.54
586.10	4287.86
586.26	4498.51
586.42	5001.72
586.58	6066.67
586.74	7339.92
586.90	8751.26
587.06	9727.27
587.22	9666.41
587.38	8554.66
587.54	7520.14
587.70	6305.40
587.86	5329.40
588.02	4606.17
588.18	3934.44
588.34	3653.58
588.49	3337.60
588.65	3059.08
588.81	2923.33
588.97	2789.92
589.13	2623.74
589.29	2771.19
589.45	2773.53
589.61	2698.64
589.77	2764.17
589.93	2612.04
590.08	2827.37
590.24	2937.37
590.40	2956.10
590.56	3105.89
590.72	3047.38
590.88	3241.64
591.04	3349.31
591.20	3513.14
591.35	3541.23
591.51	3772.94
591.67	3901.67
591.83	4205.94
591.99	4652.98
592.15	4943.21
592.31	5224.08
592.46	5909.85
592.62	6387.32
592.78	6827.34
592.94	6944.37
593.10	6935.01
593.26	6644.78
593.41	6069.01
593.57	5355.15
593.73	4856.61
593.89	4311.27
594.05	3955.51
594.20	3534.21
594.36	3307.18
594.52	2871.84
594.68	2731.41
594.84	2609.70
594.99	2619.06
595.15	2581.61
595.31	2492.67
595.47	2562.89
595.62	2485.65
595.78	2356.92
595.94	2471.61
596.10	2551.18
596.25	2480.97
596.41	2541.82
596.57	2368.62
596.73	2452.88
596.88	2296.07
597.04	2354.58
597.20	2480.97
597.36	2558.21
597.51	2595.65
597.67	2642.46
597.83	2794.60
597.99	3075.46
598.14	3185.47
598.30	3304.84
598.46	3529.53
598.61	3751.88
598.77	3815.07
598.93	4002.32
599.09	4152.11
599.24	3995.29
599.40	4028.06
599.56	4182.54
599.71	3927.42
599.87	3721.45
600.03	3499.10
600.18	3363.35
600.34	3108.23
600.50	2855.45
600.65	2619.06
600.81	2588.63
600.97	2396.71
601.12	2172.02
601.28	2057.33
601.44	2026.90
601.59	1902.86
601.75	1820.94
601.91	1867.75
602.06	1753.06
602.22	1818.60
602.37	1657.10
602.53	1570.50
602.69	1657.10
602.84	1530.71
603.00	1570.50
603.16	1610.29
603.31	1806.89
603.47	1710.93
603.62	1654.76
603.78	1685.19
603.94	1879.45
604.09	1827.96
604.25	1881.79
604.40	1856.04
604.56	1926.26
604.71	1954.35
604.87	1921.58
605.03	1923.92
605.18	2026.90
