SpectraSuite Data File
++++++++++++++++++++++++++++++++++++
Date: Fri Oct 04 11:41:39 GMT-05:00 2013
User: price-jones
Dark Spectrum Present: No
Reference Spectrum Present: No
Number of Sampled Component Spectra: 1
Spectrometers: USB2+H05261
Integration Time (usec): 100000 (USB2+H05261)
Spectra Averaged: 1 (USB2+H05261)
Boxcar Smoothing: 0 (USB2+H05261)
Correct for Electrical Dark: No (USB2+H05261)
Strobe/Lamp Enabled: No (USB2+H05261)
Correct for Detector Non-linearity: No (USB2+H05261)
Correct for Stray Light: No (USB2+H05261)
Number of Pixels in Processed Spectrum: 2048
>>>>>Begin Processed Spectral Data<<<<<
365.73	84.26
365.92	84.26
366.12	84.26
366.32	0.00
366.52	0.00
366.72	0.00
366.91	0.00
367.11	0.00
367.31	0.00
367.51	0.00
367.70	0.00
367.90	0.00
368.10	0.00
368.30	0.00
368.49	0.00
368.69	0.00
368.89	0.00
369.09	0.00
369.28	0.00
369.48	0.00
369.68	28.09
369.87	21.06
370.07	11.70
370.27	35.11
370.47	0.00
370.66	37.45
370.86	11.70
371.06	107.66
371.25	163.84
371.45	60.85
371.65	102.98
371.84	28.09
372.04	58.51
372.24	35.11
372.44	74.90
372.63	112.35
372.83	65.54
373.03	88.94
373.22	16.38
373.42	138.09
373.62	119.37
373.81	114.69
374.01	126.39
374.21	161.50
374.40	166.18
374.60	191.92
374.79	91.28
374.99	128.73
375.19	156.82
375.38	161.50
375.58	149.79
375.78	128.73
375.97	159.16
376.17	145.11
376.37	100.64
376.56	49.15
376.76	100.64
376.95	65.54
377.15	88.94
377.35	149.79
377.54	112.35
377.74	126.39
377.93	88.94
378.13	86.60
378.33	133.41
378.52	81.92
378.72	112.35
378.91	163.84
379.11	95.96
379.31	128.73
379.50	138.09
379.70	135.75
379.89	131.07
380.09	79.58
380.28	145.11
380.48	119.37
380.68	86.60
380.87	119.37
381.07	161.50
381.26	95.96
381.46	112.35
381.65	145.11
381.85	131.07
382.04	84.26
382.24	58.51
382.43	126.39
382.63	145.11
382.83	39.79
383.02	114.69
383.22	168.52
383.41	46.81
383.61	4.68
383.80	156.82
384.00	117.03
384.19	93.62
384.39	102.98
384.58	91.28
384.78	98.30
384.97	145.11
385.17	98.30
385.36	72.56
385.56	159.16
385.75	117.03
385.95	79.58
386.14	131.07
386.34	117.03
386.53	145.11
386.72	126.39
386.92	135.75
387.11	39.79
387.31	124.05
387.50	79.58
387.70	112.35
387.89	46.81
388.09	102.98
388.28	149.79
388.48	112.35
388.67	110.01
388.86	74.90
389.06	98.30
389.25	126.39
389.45	51.49
389.64	60.85
389.84	180.22
390.03	142.77
390.22	60.85
390.42	86.60
390.61	114.69
390.81	81.92
391.00	126.39
391.19	163.84
391.39	145.11
391.58	81.92
391.78	138.09
391.97	30.43
392.16	77.24
392.36	112.35
392.55	140.43
392.75	88.94
392.94	60.85
393.13	95.96
393.33	100.64
393.52	81.92
393.71	124.05
393.91	81.92
394.10	56.17
394.29	30.43
394.49	119.37
394.68	126.39
394.88	107.66
395.07	124.05
395.26	173.20
395.46	131.07
395.65	98.30
395.84	65.54
396.04	154.48
396.23	128.73
396.42	119.37
396.62	152.13
396.81	128.73
397.00	142.77
397.19	131.07
397.39	79.58
397.58	102.98
397.77	98.30
397.97	140.43
398.16	133.41
398.35	56.17
398.55	159.16
398.74	135.75
398.93	133.41
399.12	44.47
399.32	102.98
399.51	114.69
399.70	128.73
399.90	140.43
400.09	152.13
400.28	56.17
400.47	163.84
400.67	133.41
400.86	65.54
401.05	182.56
401.24	114.69
401.44	100.64
401.63	91.28
401.82	170.86
402.01	98.30
402.21	124.05
402.40	98.30
402.59	145.11
402.78	173.20
402.97	149.79
403.17	198.95
403.36	177.88
403.55	88.94
403.74	119.37
403.93	140.43
404.13	173.20
404.32	215.33
404.51	187.24
404.70	145.11
404.89	119.37
405.09	210.65
405.28	149.79
405.47	100.64
405.66	126.39
405.85	161.50
406.05	72.56
406.24	102.98
406.43	102.98
406.62	138.09
406.81	124.05
407.00	208.31
407.20	126.39
407.39	88.94
407.58	65.54
407.77	91.28
407.96	264.48
408.15	131.07
408.34	95.96
408.54	56.17
408.73	65.54
408.92	145.11
409.11	128.73
409.30	166.18
409.49	74.90
409.68	187.24
409.87	117.03
410.07	135.75
410.26	110.01
410.45	100.64
410.64	170.86
410.83	124.05
411.02	135.75
411.21	114.69
411.40	88.94
411.59	159.16
411.78	124.05
411.98	67.88
412.17	114.69
412.36	163.84
412.55	112.35
412.74	114.69
412.93	180.22
413.12	110.01
413.31	100.64
413.50	93.62
413.69	149.79
413.88	117.03
414.07	163.84
414.26	166.18
414.45	88.94
414.64	114.69
414.83	117.03
415.02	184.90
415.22	152.13
415.41	163.84
415.60	117.03
415.79	184.90
415.98	149.79
416.17	67.88
416.36	189.58
416.55	154.48
416.74	154.48
416.93	128.73
417.12	133.41
417.31	152.13
417.50	98.30
417.69	170.86
417.88	98.30
418.07	152.13
418.26	154.48
418.45	91.28
418.64	210.65
418.83	180.22
419.02	126.39
419.21	95.96
419.39	191.92
419.58	166.18
419.77	152.13
419.96	217.67
420.15	88.94
420.34	154.48
420.53	156.82
420.72	170.86
420.91	131.07
421.10	124.05
421.29	161.50
421.48	126.39
421.67	133.41
421.86	166.18
422.05	91.28
422.24	98.30
422.43	177.88
422.61	117.03
422.80	168.52
422.99	63.19
423.18	156.82
423.37	212.99
423.56	110.01
423.75	121.71
423.94	100.64
424.13	170.86
424.32	131.07
424.50	156.82
424.69	149.79
424.88	135.75
425.07	42.13
425.26	194.26
425.45	241.08
425.64	159.16
425.83	156.82
426.01	161.50
426.20	46.81
426.39	220.01
426.58	100.64
426.77	126.39
426.96	95.96
427.15	149.79
427.33	100.64
427.52	142.77
427.71	173.20
427.90	44.47
428.09	163.84
428.28	161.50
428.46	105.32
428.65	135.75
428.84	145.11
429.03	205.97
429.22	156.82
429.40	39.79
429.59	112.35
429.78	180.22
429.97	147.45
430.16	70.22
430.34	170.86
430.53	145.11
430.72	93.62
430.91	194.26
431.10	112.35
431.28	65.54
431.47	156.82
431.66	154.48
431.85	205.97
432.03	114.69
432.22	203.63
432.41	210.65
432.60	147.45
432.79	156.82
432.97	131.07
433.16	163.84
433.35	142.77
433.54	133.41
433.72	187.24
433.91	140.43
434.10	159.16
434.28	175.54
434.47	194.26
434.66	145.11
434.85	140.43
435.03	252.78
435.22	603.86
435.41	877.70
435.59	945.58
435.78	629.60
435.97	358.10
436.16	238.73
436.34	177.88
436.53	198.95
436.72	191.92
436.90	100.64
437.09	124.05
437.28	196.60
437.46	163.84
437.65	142.77
437.84	140.43
438.02	133.41
438.21	163.84
438.40	140.43
438.58	121.71
438.77	126.39
438.96	91.28
439.14	175.54
439.33	159.16
439.52	140.43
439.70	110.01
439.89	154.48
440.08	156.82
440.26	91.28
440.45	159.16
440.63	138.09
440.82	250.44
441.01	210.65
441.19	147.45
441.38	117.03
441.57	170.86
441.75	161.50
441.94	196.60
442.12	224.69
442.31	72.56
442.50	128.73
442.68	138.09
442.87	138.09
443.05	142.77
443.24	131.07
443.43	161.50
443.61	142.77
443.80	196.60
443.98	166.18
444.17	107.66
444.35	184.90
444.54	145.11
444.73	126.39
444.91	152.13
445.10	180.22
445.28	142.77
445.47	224.69
445.65	126.39
445.84	131.07
446.02	220.01
446.21	131.07
446.39	152.13
446.58	142.77
446.77	142.77
446.95	135.75
447.14	161.50
447.32	168.52
447.51	156.82
447.69	217.67
447.88	114.69
448.06	84.26
448.25	245.76
448.43	159.16
448.62	184.90
448.80	227.03
448.99	222.35
449.17	102.98
449.36	180.22
449.54	156.82
449.73	154.48
449.91	189.58
450.10	135.75
450.28	210.65
450.46	163.84
450.65	177.88
450.83	128.73
451.02	152.13
451.20	201.29
451.39	124.05
451.57	175.54
451.76	133.41
451.94	138.09
452.13	170.86
452.31	124.05
452.49	163.84
452.68	140.43
452.86	205.97
453.05	205.97
453.23	147.45
453.42	121.71
453.60	184.90
453.78	184.90
453.97	149.79
454.15	168.52
454.34	187.24
454.52	154.48
454.70	156.82
454.89	163.84
455.07	175.54
455.26	227.03
455.44	220.01
455.62	189.58
455.81	133.41
455.99	117.03
456.17	191.92
456.36	161.50
456.54	210.65
456.73	163.84
456.91	241.08
457.09	149.79
457.28	126.39
457.46	201.29
457.64	173.20
457.83	184.90
458.01	198.95
458.19	208.31
458.38	149.79
458.56	191.92
458.74	131.07
458.93	138.09
459.11	180.22
459.29	156.82
459.48	173.20
459.66	187.24
459.84	217.67
460.03	287.89
460.21	217.67
460.39	138.09
460.57	212.99
460.76	175.54
460.94	234.05
461.12	208.31
461.31	231.71
461.49	84.26
461.67	140.43
461.85	201.29
462.04	189.58
462.22	276.18
462.40	215.33
462.59	159.16
462.77	182.56
462.95	156.82
463.13	182.56
463.32	180.22
463.50	241.08
463.68	227.03
463.86	210.65
464.05	154.48
464.23	245.76
464.41	177.88
464.59	152.13
464.78	107.66
464.96	147.45
465.14	131.07
465.32	152.13
465.50	170.86
465.69	156.82
465.87	124.05
466.05	110.01
466.23	117.03
466.41	177.88
466.60	124.05
466.78	135.75
466.96	187.24
467.14	184.90
467.32	140.43
467.51	175.54
467.69	210.65
467.87	227.03
468.05	227.03
468.23	191.92
468.41	203.63
468.60	191.92
468.78	163.84
468.96	184.90
469.14	205.97
469.32	138.09
469.50	156.82
469.69	133.41
469.87	180.22
470.05	152.13
470.23	177.88
470.41	135.75
470.59	201.29
470.77	117.03
470.95	161.50
471.14	194.26
471.32	133.41
471.50	236.39
471.68	110.01
471.86	250.44
472.04	124.05
472.22	177.88
472.40	128.73
472.58	278.52
472.77	140.43
472.95	105.32
473.13	177.88
473.31	135.75
473.49	149.79
473.67	117.03
473.85	133.41
474.03	212.99
474.21	121.71
474.39	205.97
474.57	257.46
474.75	152.13
474.93	205.97
475.12	114.69
475.30	180.22
475.48	138.09
475.66	163.84
475.84	175.54
476.02	124.05
476.20	203.63
476.38	145.11
476.56	234.05
476.74	149.79
476.92	149.79
477.10	156.82
477.28	173.20
477.46	133.41
477.64	142.77
477.82	170.86
478.00	161.50
478.18	166.18
478.36	149.79
478.54	322.99
478.72	184.90
478.90	166.18
479.08	166.18
479.26	205.97
479.44	191.92
479.62	168.52
479.80	170.86
479.98	173.20
480.16	215.33
480.34	208.31
480.52	212.99
480.70	196.60
480.88	140.43
481.06	217.67
481.24	154.48
481.41	140.43
481.59	245.76
481.77	184.90
481.95	184.90
482.13	191.92
482.31	241.08
482.49	208.31
482.67	255.12
482.85	222.35
483.03	198.95
483.21	170.86
483.39	212.99
483.57	170.86
483.74	255.12
483.92	177.88
484.10	215.33
484.28	203.63
484.46	299.59
484.64	280.86
484.82	227.03
485.00	292.57
485.18	278.52
485.35	285.55
485.53	294.91
485.71	234.05
485.89	257.46
486.07	259.80
486.25	327.68
486.43	299.59
486.61	308.95
486.78	297.25
486.96	250.44
487.14	320.65
487.32	210.65
487.50	266.82
487.68	262.14
487.85	212.99
488.03	287.89
488.21	276.18
488.39	276.18
488.57	299.59
488.75	243.42
488.92	489.17
489.10	236.39
489.28	266.82
489.46	252.78
489.64	273.84
489.81	330.02
489.99	290.23
490.17	217.67
490.35	273.84
490.53	294.91
490.70	180.22
490.88	271.50
491.06	224.69
491.24	311.29
491.41	259.80
491.59	290.23
491.77	173.20
491.95	271.50
492.13	187.24
492.30	313.63
492.48	238.73
492.66	259.80
492.84	257.46
493.01	348.74
493.19	231.71
493.37	318.31
493.54	292.57
493.72	212.99
493.90	222.35
494.08	245.76
494.25	285.55
494.43	280.86
494.61	280.86
494.79	241.08
494.96	280.86
495.14	276.18
495.32	248.10
495.49	248.10
495.67	290.23
495.85	252.78
496.02	248.10
496.20	287.89
496.38	280.86
496.55	203.63
496.73	271.50
496.91	215.33
497.09	241.08
497.26	163.84
497.44	257.46
497.62	198.95
497.79	173.20
497.97	203.63
498.14	229.37
498.32	241.08
498.50	308.95
498.67	262.14
498.85	238.73
499.03	238.73
499.20	135.75
499.38	166.18
499.56	203.63
499.73	252.78
499.91	278.52
500.08	283.20
500.26	287.89
500.44	290.23
500.61	234.05
500.79	292.57
500.97	243.42
501.14	248.10
501.32	224.69
501.49	170.86
501.67	227.03
501.84	257.46
502.02	201.29
502.20	283.20
502.37	269.16
502.55	149.79
502.72	217.67
502.90	264.48
503.07	201.29
503.25	245.76
503.43	212.99
503.60	154.48
503.78	189.58
503.95	182.56
504.13	159.16
504.30	227.03
504.48	259.80
504.65	196.60
504.83	269.16
505.01	220.01
505.18	292.57
505.36	229.37
505.53	212.99
505.71	227.03
505.88	224.69
506.06	217.67
506.23	212.99
506.41	220.01
506.58	173.20
506.76	220.01
506.93	224.69
507.11	234.05
507.28	156.82
507.46	161.50
507.63	252.78
507.81	236.39
507.98	252.78
508.16	227.03
508.33	149.79
508.50	269.16
508.68	227.03
508.85	121.71
509.03	234.05
509.20	133.41
509.38	182.56
509.55	271.50
509.73	259.80
509.90	266.82
510.08	252.78
510.25	177.88
510.42	238.73
510.60	187.24
510.77	177.88
510.95	180.22
511.12	163.84
511.30	222.35
511.47	212.99
511.64	227.03
511.82	196.60
511.99	245.76
512.17	259.80
512.34	203.63
512.51	201.29
512.69	285.55
512.86	236.39
513.04	227.03
513.21	259.80
513.38	161.50
513.56	180.22
513.73	191.92
513.90	264.48
514.08	210.65
514.25	196.60
514.43	215.33
514.60	301.93
514.77	245.76
514.95	266.82
515.12	212.99
515.29	191.92
515.47	203.63
515.64	198.95
515.81	224.69
515.99	332.36
516.16	264.48
516.33	243.42
516.51	138.09
516.68	182.56
516.85	215.33
517.03	227.03
517.20	227.03
517.37	262.14
517.54	271.50
517.72	175.54
517.89	180.22
518.06	142.77
518.24	220.01
518.41	271.50
518.58	234.05
518.75	234.05
518.93	173.20
519.10	231.71
519.27	241.08
519.45	252.78
519.62	294.91
519.79	273.84
519.96	191.92
520.14	154.48
520.31	278.52
520.48	159.16
520.65	180.22
520.83	182.56
521.00	191.92
521.17	276.18
521.34	292.57
521.52	194.26
521.69	203.63
521.86	140.43
522.03	290.23
522.20	269.16
522.38	196.60
522.55	262.14
522.72	222.35
522.89	229.37
523.07	313.63
523.24	175.54
523.41	264.48
523.58	184.90
523.75	210.65
523.92	208.31
524.10	194.26
524.27	250.44
524.44	220.01
524.61	196.60
524.78	243.42
524.96	271.50
525.13	196.60
525.30	241.08
525.47	285.55
525.64	198.95
525.81	238.73
525.98	238.73
526.16	161.50
526.33	142.77
526.50	208.31
526.67	243.42
526.84	184.90
527.01	220.01
527.18	224.69
527.36	252.78
527.53	187.24
527.70	294.91
527.87	252.78
528.04	313.63
528.21	163.84
528.38	308.95
528.55	208.31
528.72	257.46
528.89	273.84
529.07	248.10
529.24	198.95
529.41	229.37
529.58	287.89
529.75	212.99
529.92	325.33
530.09	280.86
530.26	191.92
530.43	243.42
530.60	337.04
530.77	215.33
530.94	250.44
531.11	262.14
531.28	208.31
531.46	280.86
531.63	215.33
531.80	245.76
531.97	313.63
532.14	245.76
532.31	250.44
532.48	222.35
532.65	280.86
532.82	212.99
532.99	255.12
533.16	210.65
533.33	252.78
533.50	294.91
533.67	198.95
533.84	327.68
534.01	285.55
534.18	259.80
534.35	222.35
534.52	238.73
534.69	243.42
534.86	229.37
535.03	203.63
535.20	234.05
535.37	308.95
535.54	283.20
535.71	287.89
535.88	297.25
536.05	322.99
536.22	308.95
536.38	262.14
536.55	252.78
536.72	348.74
536.89	238.73
537.06	301.93
537.23	320.65
537.40	304.27
537.57	351.08
537.74	353.42
537.91	395.55
538.08	304.27
538.25	418.96
538.42	393.21
538.59	348.74
538.75	395.55
538.92	376.83
539.09	418.96
539.26	322.99
539.43	491.51
539.60	444.70
539.77	496.19
539.94	500.87
540.11	463.43
540.28	594.50
540.44	643.65
540.61	608.54
540.78	702.16
540.95	821.53
541.12	968.98
541.29	1015.79
541.46	987.71
541.62	1118.78
541.79	1057.92
541.96	950.26
542.13	954.94
542.30	926.85
542.47	875.36
542.63	880.04
542.80	882.38
542.97	861.32
543.14	912.81
543.31	837.91
543.48	898.77
543.64	931.53
543.81	898.77
543.98	889.40
544.15	819.19
544.32	880.04
544.48	945.58
544.65	849.61
544.82	802.80
544.99	828.55
545.16	880.04
545.32	903.45
545.49	1437.09
545.66	1996.48
545.83	2392.03
546.00	2155.63
546.16	1565.82
546.33	1144.52
546.50	976.00
546.67	842.59
546.83	739.61
547.00	798.12
547.17	709.18
547.34	610.88
547.50	566.41
547.67	589.82
547.84	645.99
548.00	578.11
548.17	594.50
548.34	610.88
548.51	660.03
548.67	528.96
548.84	510.24
549.01	573.43
549.18	554.71
549.34	489.17
549.51	503.22
549.68	526.62
549.84	500.87
550.01	381.51
550.18	533.64
550.34	510.24
550.51	423.64
550.68	477.47
550.84	386.19
551.01	348.74
551.18	348.74
551.34	372.15
551.51	397.89
551.68	327.68
551.84	365.12
552.01	367.46
552.18	416.62
552.34	337.04
552.51	332.36
552.68	362.78
552.84	299.59
553.01	353.42
553.18	332.36
553.34	348.74
553.51	271.50
553.67	280.86
553.84	374.49
554.01	365.12
554.17	344.06
554.34	308.95
554.51	397.89
554.67	308.95
554.84	290.23
555.00	201.29
555.17	224.69
555.33	229.37
555.50	222.35
555.67	184.90
555.83	236.39
556.00	271.50
556.16	428.32
556.33	198.95
556.50	269.16
556.66	301.93
556.83	234.05
556.99	231.71
557.16	271.50
557.32	210.65
557.49	245.76
557.65	262.14
557.82	248.10
557.98	229.37
558.15	243.42
558.32	191.92
558.48	245.76
558.65	152.13
558.81	276.18
558.98	212.99
559.14	264.48
559.31	280.86
559.47	255.12
559.64	196.60
559.80	250.44
559.97	255.12
560.13	227.03
560.30	208.31
560.46	245.76
560.63	266.82
560.79	196.60
560.96	259.80
561.12	194.26
561.29	187.24
561.45	241.08
561.61	255.12
561.78	358.10
561.94	212.99
562.11	243.42
562.27	212.99
562.44	201.29
562.60	243.42
562.77	257.46
562.93	294.91
563.10	320.65
563.26	222.35
563.42	255.12
563.59	231.71
563.75	227.03
563.92	271.50
564.08	180.22
564.24	276.18
564.41	262.14
564.57	224.69
564.74	252.78
564.90	276.18
565.07	196.60
565.23	252.78
565.39	215.33
565.56	205.97
565.72	184.90
565.88	229.37
566.05	241.08
566.21	210.65
566.38	210.65
566.54	184.90
566.70	234.05
566.87	201.29
567.03	138.09
567.19	220.01
567.36	212.99
567.52	271.50
567.68	229.37
567.85	250.44
568.01	262.14
568.17	147.45
568.34	201.29
568.50	198.95
568.66	177.88
568.83	330.02
568.99	255.12
569.15	273.84
569.32	306.61
569.48	161.50
569.64	168.52
569.81	184.90
569.97	208.31
570.13	234.05
570.30	266.82
570.46	231.71
570.62	255.12
570.78	173.20
570.95	203.63
571.11	322.99
571.27	252.78
571.43	161.50
571.60	203.63
571.76	217.67
571.92	215.33
572.09	177.88
572.25	215.33
572.41	170.86
572.57	280.86
572.74	287.89
572.90	266.82
573.06	182.56
573.22	229.37
573.38	285.55
573.55	224.69
573.71	177.88
573.87	224.69
574.03	205.97
574.20	287.89
574.36	250.44
574.52	250.44
574.68	220.01
574.84	245.76
575.01	227.03
575.17	236.39
575.33	163.84
575.49	259.80
575.65	280.86
575.82	297.25
575.98	278.52
576.14	191.92
576.30	229.37
576.46	416.62
576.62	564.07
576.79	648.33
576.95	510.24
577.11	367.46
577.27	257.46
577.43	278.52
577.59	297.25
577.75	271.50
577.92	234.05
578.08	224.69
578.24	196.60
578.40	318.31
578.56	484.49
578.72	608.54
578.88	561.73
579.04	507.90
579.21	477.47
579.37	292.57
579.53	365.12
579.69	358.10
579.85	402.57
580.01	482.15
580.17	348.74
580.33	308.95
580.49	299.59
580.65	341.72
580.82	308.95
580.98	353.42
581.14	325.33
581.30	369.80
581.46	315.97
581.62	416.62
581.78	215.33
581.94	283.20
582.10	311.29
582.26	358.10
582.42	301.93
582.58	400.23
582.74	344.06
582.90	418.96
583.06	395.55
583.22	444.70
583.38	381.51
583.54	402.57
583.70	430.66
583.86	433.00
584.02	383.85
584.18	444.70
584.34	428.32
584.50	425.98
584.66	348.74
584.82	381.51
584.98	346.40
585.14	334.70
585.30	322.99
585.46	372.15
585.62	294.91
585.78	318.31
585.94	266.82
586.10	369.80
586.26	306.61
586.42	346.40
586.58	440.02
586.74	381.51
586.90	484.49
587.06	519.60
587.22	440.02
587.38	472.79
587.54	362.78
587.70	444.70
587.86	393.21
588.02	360.44
588.18	332.36
588.34	402.57
588.49	285.55
588.65	301.93
588.81	231.71
588.97	318.31
589.13	227.03
589.29	299.59
589.45	290.23
589.61	334.70
589.77	334.70
589.93	259.80
590.08	322.99
590.24	292.57
590.40	306.61
590.56	299.59
590.72	262.14
590.88	248.10
591.04	358.10
591.20	285.55
591.35	327.68
591.51	304.27
591.67	306.61
591.83	325.33
591.99	283.20
592.15	341.72
592.31	358.10
592.46	376.83
592.62	383.85
592.78	451.72
592.94	358.10
593.10	416.62
593.26	395.55
593.41	386.19
593.57	308.95
593.73	308.95
593.89	322.99
594.05	339.38
594.20	325.33
594.36	330.02
594.52	215.33
594.68	236.39
594.84	212.99
594.99	238.73
595.15	273.84
595.31	259.80
595.47	341.72
595.62	376.83
595.78	292.57
595.94	259.80
596.10	294.91
596.25	234.05
596.41	334.70
596.57	285.55
596.73	287.89
596.88	278.52
597.04	280.86
597.20	243.42
597.36	248.10
597.51	287.89
597.67	262.14
597.83	271.50
597.99	306.61
598.14	348.74
598.30	294.91
598.46	269.16
598.61	337.04
598.77	365.12
598.93	376.83
599.09	287.89
599.24	280.86
599.40	390.87
599.56	297.25
599.71	315.97
599.87	299.59
600.03	278.52
600.18	238.73
600.34	259.80
600.50	229.37
600.65	266.82
600.81	278.52
600.97	325.33
601.12	306.61
601.28	294.91
601.44	259.80
601.59	243.42
601.75	255.12
601.91	238.73
602.06	220.01
602.22	344.06
602.37	243.42
602.53	248.10
602.69	245.76
602.84	231.71
603.00	203.63
603.16	241.08
603.31	330.02
603.47	252.78
603.62	276.18
603.78	290.23
603.94	250.44
604.09	290.23
604.25	234.05
604.40	243.42
604.56	285.55
604.71	212.99
604.87	252.78
605.03	259.80
605.18	262.14
605.34	241.08
605.49	283.20
605.65	229.37
605.80	222.35
605.96	220.01
606.12	294.91
606.27	327.68
606.43	264.48
606.58	241.08
606.74	292.57
606.89	299.59
607.05	290.23
607.20	290.23
607.36	264.48
607.51	287.89
607.67	332.36
607.82	330.02
607.98	362.78
608.13	397.89
608.29	381.51
608.44	393.21
608.60	351.08
608.75	397.89
608.91	428.32
609.06	400.23
609.22	454.06
609.37	512.58
609.53	472.79
609.68	526.62
609.84	589.82
609.99	648.33
610.15	826.21
610.30	940.90
610.46	1156.22
610.61	1373.89
610.76	1825.62
610.92	2108.82
611.07	2310.11
611.23	2291.38
611.38	2108.82
611.54	1909.88
