SpectraSuite Data File
++++++++++++++++++++++++++++++++++++
Date: Fri Oct 04 11:42:10 GMT-05:00 2013
User: price-jones
Dark Spectrum Present: No
Reference Spectrum Present: No
Number of Sampled Component Spectra: 1
Spectrometers: USB2+H05261
Integration Time (usec): 100000 (USB2+H05261)
Spectra Averaged: 1 (USB2+H05261)
Boxcar Smoothing: 0 (USB2+H05261)
Correct for Electrical Dark: No (USB2+H05261)
Strobe/Lamp Enabled: No (USB2+H05261)
Correct for Detector Non-linearity: No (USB2+H05261)
Correct for Stray Light: No (USB2+H05261)
Number of Pixels in Processed Spectrum: 2048
>>>>>Begin Processed Spectral Data<<<<<
365.73	95.96
365.92	95.96
366.12	95.96
366.32	0.00
366.52	0.00
366.72	0.00
366.91	0.00
367.11	0.00
367.31	0.00
367.51	0.00
367.70	0.00
367.90	0.00
368.10	0.00
368.30	0.00
368.49	0.00
368.69	9.36
368.89	0.00
369.09	0.00
369.28	0.00
369.48	0.00
369.68	16.38
369.87	0.00
370.07	42.13
370.27	25.75
370.47	0.00
370.66	4.68
370.86	77.24
371.06	11.70
371.25	107.66
371.45	0.00
371.65	18.72
371.84	98.30
372.04	51.49
372.24	35.11
372.44	100.64
372.63	184.90
372.83	159.16
373.03	105.32
373.22	114.69
373.42	102.98
373.62	60.85
373.81	135.75
374.01	107.66
374.21	145.11
374.40	138.09
374.60	126.39
374.79	128.73
374.99	124.05
375.19	102.98
375.38	88.94
375.58	81.92
375.78	145.11
375.97	105.32
376.17	166.18
376.37	142.77
376.56	147.45
376.76	140.43
376.95	126.39
377.15	105.32
377.35	126.39
377.54	93.62
377.74	107.66
377.93	121.71
378.13	95.96
378.33	128.73
378.52	70.22
378.72	124.05
378.91	95.96
379.11	168.52
379.31	63.19
379.50	91.28
379.70	184.90
379.89	210.65
380.09	79.58
380.28	168.52
380.48	140.43
380.68	23.41
380.87	84.26
381.07	91.28
381.26	154.48
381.46	51.49
381.65	142.77
381.85	126.39
382.04	112.35
382.24	81.92
382.43	107.66
382.63	133.41
382.83	100.64
383.02	205.97
383.22	84.26
383.41	100.64
383.61	84.26
383.80	72.56
384.00	88.94
384.19	88.94
384.39	110.01
384.58	72.56
384.78	102.98
384.97	117.03
385.17	60.85
385.36	210.65
385.56	191.92
385.75	79.58
385.95	128.73
386.14	121.71
386.34	70.22
386.53	168.52
386.72	114.69
386.92	166.18
387.11	163.84
387.31	170.86
387.50	147.45
387.70	102.98
387.89	74.90
388.09	93.62
388.28	112.35
388.48	77.24
388.67	152.13
388.86	161.50
389.06	72.56
389.25	88.94
389.45	124.05
389.64	95.96
389.84	135.75
390.03	107.66
390.22	58.51
390.42	117.03
390.61	126.39
390.81	147.45
391.00	194.26
391.19	121.71
391.39	112.35
391.58	128.73
391.78	49.15
391.97	145.11
392.16	53.83
392.36	133.41
392.55	102.98
392.75	44.47
392.94	168.52
393.13	102.98
393.33	32.77
393.52	100.64
393.71	128.73
393.91	9.36
394.10	91.28
394.29	135.75
394.49	95.96
394.68	63.19
394.88	138.09
395.07	161.50
395.26	86.60
395.46	74.90
395.65	191.92
395.84	114.69
396.04	159.16
396.23	117.03
396.42	81.92
396.62	117.03
396.81	147.45
397.00	51.49
397.19	119.37
397.39	161.50
397.58	161.50
397.77	107.66
397.97	98.30
398.16	119.37
398.35	131.07
398.55	58.51
398.74	152.13
398.93	133.41
399.12	32.77
399.32	145.11
399.51	126.39
399.70	133.41
399.90	135.75
400.09	170.86
400.28	131.07
400.47	203.63
400.67	138.09
400.86	102.98
401.05	154.48
401.24	156.82
401.44	166.18
401.63	114.69
401.82	142.77
402.01	133.41
402.21	135.75
402.40	88.94
402.59	138.09
402.78	187.24
402.97	117.03
403.17	114.69
403.36	177.88
403.55	117.03
403.74	131.07
403.93	147.45
404.13	271.50
404.32	201.29
404.51	170.86
404.70	231.71
404.89	49.15
405.09	126.39
405.28	159.16
405.47	112.35
405.66	91.28
405.85	145.11
406.05	135.75
406.24	154.48
406.43	133.41
406.62	131.07
406.81	161.50
407.00	168.52
407.20	128.73
407.39	46.81
407.58	215.33
407.77	140.43
407.96	184.90
408.15	177.88
408.34	126.39
408.54	215.33
408.73	119.37
408.92	79.58
409.11	180.22
409.30	138.09
409.49	163.84
409.68	121.71
409.87	119.37
410.07	91.28
410.26	117.03
410.45	114.69
410.64	105.32
410.83	135.75
411.02	74.90
411.21	100.64
411.40	166.18
411.59	100.64
411.78	91.28
411.98	161.50
412.17	105.32
412.36	159.16
412.55	93.62
412.74	119.37
412.93	86.60
413.12	196.60
413.31	133.41
413.50	114.69
413.69	93.62
413.88	184.90
414.07	191.92
414.26	210.65
414.45	203.63
414.64	175.54
414.83	161.50
415.02	131.07
415.22	145.11
415.41	191.92
415.60	152.13
415.79	145.11
415.98	161.50
416.17	161.50
416.36	142.77
416.55	175.54
416.74	154.48
416.93	168.52
417.12	114.69
417.31	121.71
417.50	166.18
417.69	203.63
417.88	86.60
418.07	161.50
418.26	175.54
418.45	168.52
418.64	212.99
418.83	131.07
419.02	121.71
419.21	133.41
419.39	117.03
419.58	70.22
419.77	184.90
419.96	142.77
420.15	168.52
420.34	131.07
420.53	156.82
420.72	147.45
420.91	147.45
421.10	128.73
421.29	107.66
421.48	220.01
421.67	194.26
421.86	147.45
422.05	145.11
422.24	182.56
422.43	170.86
422.61	81.92
422.80	138.09
422.99	196.60
423.18	119.37
423.37	173.20
423.56	177.88
423.75	147.45
423.94	112.35
424.13	119.37
424.32	142.77
424.50	184.90
424.69	166.18
424.88	145.11
425.07	119.37
425.26	77.24
425.45	170.86
425.64	203.63
425.83	114.69
426.01	180.22
426.20	70.22
426.39	126.39
426.58	74.90
426.77	133.41
426.96	138.09
427.15	63.19
427.33	72.56
427.52	147.45
427.71	119.37
427.90	105.32
428.09	177.88
428.28	110.01
428.46	126.39
428.65	128.73
428.84	170.86
429.03	152.13
429.22	149.79
429.40	173.20
429.59	156.82
429.78	222.35
429.97	119.37
430.16	105.32
430.34	147.45
430.53	105.32
430.72	173.20
430.91	168.52
431.10	161.50
431.28	131.07
431.47	210.65
431.66	112.35
431.85	135.75
432.03	86.60
432.22	145.11
432.41	51.49
432.60	170.86
432.79	154.48
432.97	140.43
433.16	177.88
433.35	163.84
433.54	154.48
433.72	152.13
433.91	229.37
434.10	154.48
434.28	152.13
434.47	177.88
434.66	140.43
434.85	177.88
435.03	259.80
435.22	383.85
435.41	697.48
435.59	662.37
435.78	458.74
435.97	351.08
436.16	278.52
436.34	184.90
436.53	152.13
436.72	184.90
436.90	227.03
437.09	93.62
437.28	189.58
437.46	133.41
437.65	149.79
437.84	154.48
438.02	128.73
438.21	149.79
438.40	170.86
438.58	114.69
438.77	154.48
438.96	196.60
439.14	168.52
439.33	184.90
439.52	166.18
439.70	175.54
439.89	159.16
440.08	189.58
440.26	159.16
440.45	198.95
440.63	135.75
440.82	184.90
441.01	161.50
441.19	142.77
441.38	110.01
441.57	198.95
441.75	191.92
441.94	131.07
442.12	131.07
442.31	203.63
442.50	147.45
442.68	198.95
442.87	95.96
443.05	168.52
443.24	196.60
443.43	168.52
443.61	203.63
443.80	152.13
443.98	63.19
444.17	117.03
444.35	184.90
444.54	142.77
444.73	163.84
444.91	147.45
445.10	124.05
445.28	161.50
445.47	152.13
445.65	95.96
445.84	159.16
446.02	140.43
446.21	166.18
446.39	159.16
446.58	128.73
446.77	156.82
446.95	63.19
447.14	182.56
447.32	273.84
447.51	152.13
447.69	154.48
447.88	187.24
448.06	229.37
448.25	147.45
448.43	93.62
448.62	159.16
448.80	133.41
448.99	152.13
449.17	145.11
449.36	140.43
449.54	138.09
449.73	154.48
449.91	177.88
450.10	156.82
450.28	271.50
450.46	177.88
450.65	201.29
450.83	184.90
451.02	177.88
451.20	110.01
451.39	175.54
451.57	72.56
451.76	105.32
451.94	177.88
452.13	126.39
452.31	173.20
452.49	166.18
452.68	133.41
452.86	175.54
453.05	180.22
453.23	121.71
453.42	149.79
453.60	128.73
453.78	149.79
453.97	117.03
454.15	175.54
454.34	140.43
454.52	91.28
454.70	191.92
454.89	205.97
455.07	140.43
455.26	156.82
455.44	177.88
455.62	159.16
455.81	124.05
455.99	166.18
456.17	163.84
456.36	163.84
456.54	149.79
456.73	173.20
456.91	191.92
457.09	163.84
457.28	154.48
457.46	184.90
457.64	159.16
457.83	189.58
458.01	121.71
458.19	138.09
458.38	208.31
458.56	201.29
458.74	102.98
458.93	170.86
459.11	168.52
459.29	145.11
459.48	180.22
459.66	135.75
459.84	194.26
460.03	255.12
460.21	86.60
460.39	145.11
460.57	175.54
460.76	245.76
460.94	138.09
461.12	220.01
461.31	215.33
461.49	147.45
461.67	128.73
461.85	124.05
462.04	166.18
462.22	622.58
462.40	220.01
462.59	175.54
462.77	161.50
462.95	135.75
463.13	142.77
463.32	163.84
463.50	175.54
463.68	248.10
463.86	217.67
464.05	133.41
464.23	220.01
464.41	212.99
464.59	175.54
464.78	126.39
464.96	145.11
465.14	173.20
465.32	229.37
465.50	163.84
465.69	241.08
465.87	201.29
466.05	220.01
466.23	86.60
466.41	182.56
466.60	180.22
466.78	196.60
466.96	170.86
467.14	107.66
467.32	189.58
467.51	93.62
467.69	196.60
467.87	154.48
468.05	203.63
468.23	210.65
468.41	149.79
468.60	198.95
468.78	184.90
468.96	180.22
469.14	231.71
469.32	88.94
469.50	140.43
469.69	156.82
469.87	133.41
470.05	210.65
470.23	210.65
470.41	149.79
470.59	170.86
470.77	159.16
470.95	210.65
471.14	117.03
471.32	142.77
471.50	182.56
471.68	208.31
471.86	196.60
472.04	163.84
472.22	156.82
472.40	159.16
472.58	147.45
472.77	135.75
472.95	189.58
473.13	248.10
473.31	184.90
473.49	177.88
473.67	208.31
473.85	166.18
474.03	180.22
474.21	142.77
474.39	229.37
474.57	168.52
474.75	154.48
474.93	175.54
475.12	210.65
475.30	161.50
475.48	210.65
475.66	173.20
475.84	121.71
476.02	121.71
476.20	194.26
476.38	198.95
476.56	243.42
476.74	215.33
476.92	191.92
477.10	212.99
477.28	224.69
477.46	156.82
477.64	210.65
477.82	168.52
478.00	175.54
478.18	177.88
478.36	201.29
478.54	88.94
478.72	241.08
478.90	175.54
479.08	142.77
479.26	182.56
479.44	180.22
479.62	170.86
479.80	215.33
479.98	142.77
480.16	175.54
480.34	154.48
480.52	128.73
480.70	173.20
480.88	222.35
481.06	222.35
481.24	187.24
481.41	241.08
481.59	262.14
481.77	187.24
481.95	224.69
482.13	201.29
482.31	210.65
482.49	147.45
482.67	128.73
482.85	173.20
483.03	208.31
483.21	194.26
483.39	273.84
483.57	191.92
483.74	271.50
483.92	161.50
484.10	189.58
484.28	248.10
484.46	276.18
484.64	241.08
484.82	304.27
485.00	224.69
485.18	252.78
485.35	264.48
485.53	222.35
485.71	273.84
485.89	297.25
486.07	257.46
486.25	287.89
486.43	215.33
486.61	278.52
486.78	294.91
486.96	271.50
487.14	252.78
487.32	229.37
487.50	238.73
487.68	320.65
487.85	334.70
488.03	238.73
488.21	388.53
488.39	292.57
488.57	201.29
488.75	220.01
488.92	507.90
489.10	269.16
489.28	255.12
489.46	280.86
489.64	222.35
489.81	327.68
489.99	255.12
490.17	269.16
490.35	308.95
490.53	255.12
490.70	285.55
490.88	322.99
491.06	287.89
491.24	269.16
491.41	252.78
491.59	294.91
491.77	241.08
491.95	201.29
492.13	184.90
492.30	229.37
492.48	299.59
492.66	243.42
492.84	280.86
493.01	238.73
493.19	262.14
493.37	264.48
493.54	255.12
493.72	306.61
493.90	210.65
494.08	250.44
494.25	297.25
494.43	229.37
494.61	294.91
494.79	297.25
494.96	252.78
495.14	285.55
495.32	210.65
495.49	250.44
495.67	292.57
495.85	273.84
496.02	245.76
496.20	320.65
496.38	266.82
496.55	259.80
496.73	276.18
496.91	266.82
497.09	147.45
497.26	262.14
497.44	238.73
497.62	243.42
497.79	278.52
497.97	208.31
498.14	259.80
498.32	187.24
498.50	234.05
498.67	217.67
498.85	238.73
499.03	243.42
499.20	271.50
499.38	173.20
499.56	313.63
499.73	313.63
499.91	255.12
500.08	325.33
500.26	238.73
500.44	250.44
500.61	292.57
500.79	234.05
500.97	245.76
501.14	278.52
501.32	198.95
501.49	234.05
501.67	217.67
501.84	159.16
502.02	215.33
502.20	182.56
502.37	276.18
502.55	215.33
502.72	255.12
502.90	325.33
503.07	311.29
503.25	306.61
503.43	212.99
503.60	124.05
503.78	166.18
503.95	229.37
504.13	175.54
504.30	285.55
504.48	315.97
504.65	266.82
504.83	191.92
505.01	168.52
505.18	194.26
505.36	175.54
505.53	227.03
505.71	215.33
505.88	215.33
506.06	257.46
506.23	231.71
506.41	198.95
506.58	217.67
506.76	222.35
506.93	198.95
507.11	266.82
507.28	208.31
507.46	243.42
507.63	299.59
507.81	283.20
507.98	273.84
508.16	271.50
508.33	212.99
508.50	252.78
508.68	243.42
508.85	241.08
509.03	198.95
509.20	227.03
509.38	222.35
509.55	243.42
509.73	271.50
509.90	278.52
510.08	262.14
510.25	283.20
510.42	227.03
510.60	154.48
510.77	217.67
510.95	182.56
511.12	276.18
511.30	238.73
511.47	212.99
511.64	177.88
511.82	189.58
511.99	224.69
512.17	252.78
512.34	273.84
512.51	215.33
512.69	170.86
512.86	236.39
513.04	259.80
513.21	280.86
513.38	217.67
513.56	201.29
513.73	238.73
513.90	175.54
514.08	238.73
514.25	220.01
514.43	236.39
514.60	138.09
514.77	273.84
514.95	224.69
515.12	177.88
515.29	177.88
515.47	241.08
515.64	180.22
515.81	320.65
515.99	271.50
516.16	266.82
516.33	330.02
516.51	210.65
516.68	217.67
516.85	294.91
517.03	222.35
517.20	241.08
517.37	276.18
517.54	234.05
517.72	212.99
517.89	245.76
518.06	241.08
518.24	255.12
518.41	301.93
518.58	238.73
518.75	196.60
518.93	145.11
519.10	243.42
519.27	255.12
519.45	241.08
519.62	187.24
519.79	194.26
519.96	278.52
520.14	231.71
520.31	262.14
520.48	198.95
520.65	217.67
520.83	273.84
521.00	269.16
521.17	222.35
521.34	203.63
521.52	184.90
521.69	248.10
521.86	325.33
522.03	273.84
522.20	227.03
522.38	252.78
522.55	271.50
522.72	236.39
522.89	227.03
523.07	255.12
523.24	250.44
523.41	196.60
523.58	259.80
523.75	229.37
523.92	238.73
524.10	175.54
524.27	217.67
524.44	227.03
524.61	217.67
524.78	229.37
524.96	187.24
525.13	205.97
525.30	271.50
525.47	205.97
525.64	208.31
525.81	175.54
525.98	163.84
526.16	220.01
526.33	222.35
526.50	257.46
526.67	191.92
526.84	180.22
527.01	241.08
527.18	241.08
527.36	250.44
527.53	229.37
527.70	257.46
527.87	250.44
528.04	245.76
528.21	264.48
528.38	283.20
528.55	315.97
528.72	217.67
528.89	276.18
529.07	236.39
529.24	259.80
529.41	313.63
529.58	201.29
529.75	294.91
529.92	238.73
530.09	217.67
530.26	290.23
530.43	243.42
530.60	269.16
530.77	217.67
530.94	325.33
531.11	283.20
531.28	208.31
531.46	280.86
531.63	234.05
531.80	248.10
531.97	262.14
532.14	222.35
532.31	358.10
532.48	269.16
532.65	283.20
532.82	180.22
532.99	248.10
533.16	297.25
533.33	248.10
533.50	252.78
533.67	273.84
533.84	245.76
534.01	297.25
534.18	294.91
534.35	257.46
534.52	301.93
534.69	250.44
534.86	287.89
535.03	278.52
535.20	257.46
535.37	313.63
535.54	355.76
535.71	280.86
535.88	290.23
536.05	301.93
536.22	308.95
536.38	215.33
536.55	313.63
536.72	313.63
536.89	245.76
537.06	301.93
537.23	301.93
537.40	344.06
537.57	315.97
537.74	278.52
537.91	294.91
538.08	332.36
538.25	393.21
538.42	308.95
538.59	327.68
538.75	313.63
538.92	409.59
539.09	409.59
539.26	353.42
539.43	482.15
539.60	360.44
539.77	397.89
539.94	493.85
540.11	472.79
540.28	472.79
540.44	514.92
540.61	440.02
540.78	587.47
540.95	608.54
541.12	746.63
541.29	753.65
541.46	807.48
541.62	802.80
541.79	868.34
541.96	774.72
542.13	777.06
542.30	760.67
542.47	795.78
542.63	732.59
542.80	709.18
542.97	727.91
543.14	727.91
543.31	763.01
543.48	704.50
543.64	734.93
543.81	767.70
543.98	760.67
544.15	798.12
544.32	739.61
544.48	758.33
544.65	791.10
544.82	741.95
544.99	734.93
545.16	683.44
545.32	755.99
545.49	1116.44
545.66	1533.05
545.83	1703.91
546.00	1516.67
546.16	1167.93
546.33	943.24
546.50	716.20
546.67	641.31
546.83	653.01
547.00	557.05
547.17	531.30
547.34	456.40
547.50	484.49
547.67	454.06
547.84	470.45
548.00	521.94
548.17	447.04
548.34	376.83
548.51	528.96
548.67	547.69
548.84	409.59
549.01	465.77
549.18	521.94
549.34	479.81
549.51	423.64
549.68	489.17
549.84	400.23
550.01	402.57
550.18	500.87
550.34	440.02
550.51	346.40
550.68	468.11
550.84	360.44
551.01	428.32
551.18	318.31
551.34	442.36
551.51	362.78
551.68	383.85
551.84	397.89
552.01	395.55
552.18	287.89
552.34	320.65
552.51	292.57
552.68	346.40
552.84	290.23
553.01	334.70
553.18	365.12
553.34	299.59
553.51	278.52
553.67	332.36
553.84	388.53
554.01	278.52
554.17	262.14
554.34	306.61
554.51	210.65
554.67	308.95
554.84	306.61
555.00	243.42
555.17	341.72
555.33	290.23
555.50	248.10
555.67	381.51
555.83	187.24
556.00	285.55
556.16	411.93
556.33	332.36
556.50	322.99
556.66	252.78
556.83	301.93
556.99	238.73
557.16	325.33
557.32	220.01
557.49	238.73
557.65	238.73
557.82	250.44
557.98	276.18
558.15	299.59
558.32	243.42
558.48	245.76
558.65	217.67
558.81	299.59
558.98	220.01
559.14	250.44
559.31	299.59
559.47	205.97
559.64	252.78
559.80	187.24
559.97	292.57
560.13	208.31
560.30	231.71
560.46	290.23
560.63	301.93
560.79	238.73
560.96	222.35
561.12	273.84
561.29	250.44
561.45	238.73
561.61	273.84
561.78	248.10
561.94	250.44
562.11	266.82
562.27	255.12
562.44	280.86
562.60	292.57
562.77	224.69
562.93	227.03
563.10	220.01
563.26	198.95
563.42	341.72
563.59	229.37
563.75	161.50
563.92	299.59
564.08	231.71
564.24	304.27
564.41	294.91
564.57	177.88
564.74	212.99
564.90	170.86
565.07	250.44
565.23	210.65
565.39	304.27
565.56	266.82
565.72	283.20
565.88	290.23
566.05	175.54
566.21	280.86
566.38	313.63
566.54	241.08
566.70	248.10
566.87	210.65
567.03	177.88
567.19	210.65
567.36	243.42
567.52	210.65
567.68	304.27
567.85	255.12
568.01	306.61
568.17	229.37
568.34	217.67
568.50	304.27
568.66	205.97
568.83	325.33
568.99	208.31
569.15	308.95
569.32	177.88
569.48	257.46
569.64	208.31
569.81	224.69
569.97	241.08
570.13	189.58
570.30	187.24
570.46	266.82
570.62	234.05
570.78	252.78
570.95	152.13
571.11	245.76
571.27	210.65
571.43	257.46
571.60	222.35
571.76	196.60
571.92	215.33
572.09	227.03
572.25	191.92
572.41	117.03
572.57	205.97
572.74	241.08
572.90	262.14
573.06	210.65
573.22	262.14
573.38	234.05
573.55	280.86
573.71	245.76
573.87	175.54
574.03	273.84
574.20	229.37
574.36	222.35
574.52	220.01
574.68	168.52
574.84	212.99
575.01	217.67
575.17	208.31
575.33	215.33
575.49	231.71
575.65	287.89
575.82	283.20
575.98	318.31
576.14	201.29
576.30	266.82
576.46	414.27
576.62	535.98
576.79	489.17
576.95	458.74
577.11	285.55
577.27	245.76
577.43	334.70
577.59	234.05
577.75	217.67
577.92	236.39
578.08	222.35
578.24	201.29
578.40	299.59
578.56	421.30
578.72	437.68
578.88	447.04
579.04	379.17
579.21	390.87
579.37	360.44
579.53	294.91
579.69	322.99
579.85	360.44
580.01	447.04
580.17	404.91
580.33	348.74
580.49	308.95
580.65	297.25
580.82	290.23
580.98	234.05
581.14	299.59
581.30	306.61
581.46	271.50
581.62	365.12
581.78	322.99
581.94	330.02
582.10	290.23
582.26	264.48
582.42	393.21
582.58	290.23
582.74	327.68
582.90	313.63
583.06	297.25
583.22	400.23
583.38	411.93
583.54	351.08
583.70	390.87
583.86	346.40
584.02	339.38
584.18	353.42
584.34	353.42
584.50	311.29
584.66	348.74
584.82	351.08
584.98	360.44
585.14	374.49
585.30	379.17
585.46	301.93
585.62	376.83
585.78	372.15
585.94	248.10
586.10	315.97
586.26	304.27
586.42	383.85
586.58	367.46
586.74	402.57
586.90	381.51
587.06	397.89
587.22	507.90
587.38	430.66
587.54	491.51
587.70	397.89
587.86	346.40
588.02	318.31
588.18	362.78
588.34	299.59
588.49	280.86
588.65	224.69
588.81	283.20
588.97	241.08
589.13	292.57
589.29	290.23
589.45	318.31
589.61	248.10
589.77	304.27
589.93	241.08
590.08	257.46
590.24	280.86
590.40	308.95
590.56	290.23
590.72	238.73
590.88	269.16
591.04	318.31
591.20	259.80
591.35	322.99
591.51	304.27
591.67	304.27
591.83	290.23
591.99	311.29
592.15	311.29
592.31	355.76
592.46	369.80
592.62	353.42
592.78	259.80
592.94	311.29
593.10	379.17
593.26	313.63
593.41	397.89
593.57	292.57
593.73	322.99
593.89	355.76
594.05	292.57
594.20	245.76
594.36	292.57
594.52	294.91
594.68	308.95
594.84	308.95
594.99	269.16
595.15	318.31
595.31	322.99
595.47	320.65
595.62	234.05
595.78	243.42
595.94	236.39
596.10	315.97
596.25	205.97
596.41	358.10
596.57	241.08
596.73	168.52
596.88	276.18
597.04	250.44
597.20	266.82
597.36	367.46
597.51	285.55
597.67	231.71
597.83	271.50
597.99	255.12
598.14	271.50
598.30	379.17
598.46	308.95
598.61	308.95
598.77	308.95
598.93	276.18
599.09	290.23
599.24	379.17
599.40	388.53
599.56	292.57
599.71	212.99
599.87	273.84
600.03	273.84
600.18	294.91
600.34	278.52
600.50	283.20
600.65	278.52
600.81	220.01
600.97	257.46
601.12	264.48
601.28	276.18
601.44	203.63
601.59	287.89
601.75	243.42
601.91	283.20
602.06	304.27
602.22	341.72
602.37	248.10
602.53	231.71
602.69	220.01
602.84	201.29
603.00	231.71
603.16	344.06
603.31	271.50
603.47	255.12
603.62	203.63
603.78	252.78
603.94	311.29
604.09	257.46
604.25	229.37
604.40	234.05
604.56	285.55
604.71	273.84
604.87	203.63
605.03	327.68
605.18	362.78
605.34	271.50
605.49	229.37
605.65	294.91
605.80	248.10
605.96	255.12
606.12	313.63
606.27	271.50
606.43	269.16
606.58	215.33
606.74	241.08
606.89	283.20
607.05	306.61
607.20	255.12
607.36	280.86
607.51	290.23
607.67	358.10
607.82	299.59
607.98	376.83
608.13	318.31
608.29	334.70
608.44	327.68
608.60	322.99
608.75	358.10
608.91	409.59
609.06	458.74
609.22	379.17
609.37	409.59
609.53	381.51
609.68	479.81
609.84	550.03
609.99	599.18
610.15	610.88
610.30	760.67
610.46	915.15
610.61	1064.94
610.76	1366.87
610.92	1610.29
611.07	1809.23
611.23	1760.08
611.38	1696.89
611.54	1448.79
