SpectraSuite Data File
++++++++++++++++++++++++++++++++++++
Date: Fri Oct 04 11:42:24 GMT-05:00 2013
User: price-jones
Dark Spectrum Present: No
Reference Spectrum Present: No
Number of Sampled Component Spectra: 1
Spectrometers: USB2+H05261
Integration Time (usec): 100000 (USB2+H05261)
Spectra Averaged: 1 (USB2+H05261)
Boxcar Smoothing: 0 (USB2+H05261)
Correct for Electrical Dark: No (USB2+H05261)
Strobe/Lamp Enabled: No (USB2+H05261)
Correct for Detector Non-linearity: No (USB2+H05261)
Correct for Stray Light: No (USB2+H05261)
Number of Pixels in Processed Spectrum: 2048
>>>>>Begin Processed Spectral Data<<<<<
365.73	4.68
365.92	4.68
366.12	4.68
366.32	0.00
366.52	0.00
366.72	18.72
366.91	0.00
367.11	0.00
367.31	0.00
367.51	0.00
367.70	0.00
367.90	0.00
368.10	0.00
368.30	30.43
368.49	0.00
368.69	0.00
368.89	0.00
369.09	0.00
369.28	0.00
369.48	0.00
369.68	0.00
369.87	0.00
370.07	0.00
370.27	46.81
370.47	86.60
370.66	292.57
370.86	353.42
371.06	390.87
371.25	449.38
371.45	325.33
371.65	362.78
371.84	330.02
372.04	353.42
372.24	372.15
372.44	451.72
372.63	454.06
372.83	376.83
373.03	334.70
373.22	337.04
373.42	367.46
373.62	414.27
373.81	402.57
374.01	407.25
374.21	425.98
374.40	360.44
374.60	358.10
374.79	496.19
374.99	418.96
375.19	568.75
375.38	521.94
375.58	543.00
375.78	512.58
375.97	493.85
376.17	442.36
376.37	463.43
376.56	568.75
376.76	526.62
376.95	517.26
377.15	482.15
377.35	571.09
377.54	566.41
377.74	484.49
377.93	589.82
378.13	514.92
378.33	629.60
378.52	528.96
378.72	550.03
378.91	423.64
379.11	451.72
379.31	489.17
379.50	503.22
379.70	486.83
379.89	559.39
380.09	526.62
380.28	531.30
380.48	580.45
380.68	585.13
380.87	617.90
381.07	526.62
381.26	540.66
381.46	543.00
381.65	498.53
381.85	451.72
382.04	395.55
382.24	465.77
382.43	393.21
382.63	320.65
382.83	451.72
383.02	500.87
383.22	444.70
383.41	416.62
383.61	360.44
383.80	510.24
384.00	444.70
384.19	491.51
384.39	566.41
384.58	531.30
384.78	592.16
384.97	496.19
385.17	629.60
385.36	559.39
385.56	491.51
385.75	543.00
385.95	603.86
386.14	664.71
386.34	624.92
386.53	575.77
386.72	566.41
386.92	587.47
387.11	517.26
387.31	580.45
387.50	589.82
387.70	610.88
387.89	596.84
388.09	578.11
388.28	617.90
388.48	456.40
388.67	596.84
388.86	692.80
389.06	669.39
389.25	821.53
389.45	653.01
389.64	692.80
389.84	699.82
390.03	741.95
390.22	636.63
390.42	681.10
390.61	702.16
390.81	842.59
391.00	849.61
391.19	784.08
391.39	779.40
391.58	755.99
391.78	737.27
391.97	716.20
392.16	669.39
392.36	531.30
392.55	531.30
392.75	451.72
392.94	388.53
393.13	421.30
393.33	475.13
393.52	554.71
393.71	599.18
393.91	589.82
394.10	653.01
394.29	805.14
394.49	730.25
394.68	856.64
394.88	870.68
395.07	898.77
395.26	819.19
395.46	798.12
395.65	823.87
395.84	758.33
396.04	610.88
396.23	493.85
396.42	451.72
396.62	505.56
396.81	564.07
397.00	573.43
397.19	727.91
397.39	814.51
397.58	924.51
397.77	1006.43
397.97	929.19
398.16	1046.22
398.35	978.34
398.55	1025.15
398.74	1067.28
398.93	1193.67
399.12	1118.78
399.32	1083.67
399.51	1057.92
399.70	1163.25
399.90	1086.01
400.09	1153.88
400.28	1076.65
400.47	1090.69
400.67	1270.91
400.86	1205.38
401.05	1226.44
401.24	1224.10
401.44	1191.33
401.63	1193.67
401.82	1289.64
402.01	1273.25
402.21	1301.34
402.40	1179.63
402.59	1221.76
402.78	1188.99
402.97	1076.65
403.17	1179.63
403.36	1184.31
403.55	1299.00
403.74	1392.62
403.93	1329.42
404.13	1308.36
404.32	1306.02
404.51	1231.12
404.70	1329.42
404.89	1254.53
405.09	1331.76
405.28	1179.63
405.47	1160.91
405.66	1306.02
405.85	1184.31
406.05	1240.48
406.24	1181.97
406.43	1306.02
406.62	1177.29
406.81	1310.70
407.00	1163.25
407.20	1203.04
407.39	1226.44
407.58	1252.19
407.77	1191.33
407.96	1383.26
408.15	1348.15
408.34	1352.83
408.54	1366.87
408.73	1418.36
408.92	1341.13
409.11	1310.70
409.30	1282.61
409.49	1219.42
409.68	1146.86
409.87	1149.20
410.07	1224.10
410.26	1174.95
410.45	1327.08
410.64	1317.72
410.83	1373.89
411.02	1460.49
411.21	1519.01
411.40	1406.66
411.59	1514.33
411.78	1366.87
411.98	1472.20
412.17	1411.34
412.36	1516.67
412.55	1451.13
412.74	1394.96
412.93	1427.73
413.12	1373.89
413.31	1479.22
413.50	1568.16
413.69	1497.94
413.88	1600.93
414.07	1439.43
414.26	1469.86
414.45	1453.47
414.64	1451.13
414.83	1586.88
415.02	1420.71
415.22	1579.86
415.41	1612.63
415.60	1603.27
415.79	1696.89
415.98	1699.23
416.17	1626.67
416.36	1654.76
416.55	1593.90
416.74	1589.22
416.93	1544.75
417.12	1540.07
417.31	1483.90
417.50	1497.94
417.69	1577.52
417.88	1612.63
418.07	1551.78
418.26	1558.80
418.45	1593.90
418.64	1577.52
418.83	1619.65
419.02	1694.55
419.21	1673.48
419.39	1544.75
419.58	1526.03
419.77	1605.61
419.96	1544.75
420.15	1736.68
420.34	1666.46
420.53	1732.00
420.72	1811.57
420.91	1778.81
421.10	1696.89
421.29	1727.32
421.48	1727.32
421.67	1790.51
421.86	1612.63
422.05	1657.10
422.24	1481.56
422.43	1385.60
422.61	1542.41
422.80	1638.38
422.99	1650.08
423.18	1680.50
423.37	1589.22
423.56	1586.88
423.75	1607.95
423.94	1650.08
424.13	1610.29
424.32	1514.33
424.50	1610.29
424.69	1479.22
424.88	1624.33
425.07	1516.67
425.26	1519.01
425.45	1603.27
425.64	1528.37
425.83	1526.03
426.01	1621.99
426.20	1624.33
426.39	1584.54
426.58	1535.39
426.77	1469.86
426.96	1437.09
427.15	1460.49
427.33	1507.30
427.52	1593.90
427.71	1603.27
427.90	1556.46
428.09	1563.48
428.28	1530.71
428.46	1502.62
428.65	1390.28
428.84	1509.65
429.03	1551.78
429.22	1556.46
429.40	1465.18
429.59	1256.87
429.78	1259.21
429.97	1188.99
430.16	1203.04
430.34	1163.25
430.53	1121.12
430.72	1231.12
430.91	1228.78
431.10	1474.54
431.28	1657.10
431.47	1785.83
431.66	1781.15
431.85	1771.79
432.03	1582.20
432.22	1577.52
432.41	1544.75
432.60	1762.42
432.79	1813.92
432.97	1813.92
433.16	1645.40
433.35	1626.67
433.54	1516.67
433.72	1359.85
433.91	1514.33
434.10	1640.72
434.28	1769.44
434.47	1696.89
434.66	1760.08
434.85	1830.30
435.03	1743.70
435.22	2083.08
435.41	2300.75
435.59	2307.77
435.78	2307.77
435.97	2129.89
436.16	1937.96
436.34	1893.49
436.53	1863.07
436.72	1809.23
436.90	1853.70
437.09	1734.34
437.28	1647.74
437.46	1856.04
437.65	1837.32
437.84	1710.93
438.02	1638.38
438.21	1514.33
438.40	1612.63
438.58	1694.55
438.77	1729.66
438.96	1865.41
439.14	1823.28
439.33	1898.17
439.52	1914.56
439.70	1863.07
439.89	1874.77
440.08	1820.94
440.26	1809.23
440.45	1966.05
440.63	1891.15
440.82	2038.61
441.01	2017.54
441.19	2001.16
441.38	1902.86
441.57	2101.80
441.75	2146.27
441.94	2167.34
442.12	2076.06
442.31	2083.08
442.50	2139.25
442.68	2097.12
442.87	2040.95
443.05	2085.42
443.24	2153.29
443.43	2080.74
443.61	2143.93
443.80	2139.25
443.98	1989.46
444.17	2113.50
444.35	2160.31
444.54	2174.36
444.73	2186.06
444.91	2094.78
445.10	2094.78
445.28	2022.22
445.47	2043.29
445.65	1858.39
445.84	1996.48
446.02	2090.10
446.21	2165.00
446.39	2064.35
446.58	2197.76
446.77	2127.55
446.95	2132.23
447.14	2242.23
447.32	2195.42
447.51	2176.70
447.69	2172.02
447.88	2115.84
448.06	2204.78
448.25	2169.68
448.43	2237.55
448.62	2169.68
448.80	2073.71
448.99	2179.04
449.17	2333.51
449.36	2162.66
449.54	2232.87
449.73	2237.55
449.91	2324.15
450.10	2263.30
450.28	2431.82
450.46	2443.52
450.65	2265.64
450.83	2382.67
451.02	2207.13
451.20	2326.49
451.39	2232.87
451.57	2244.57
451.76	2284.36
451.94	2258.62
452.13	2347.56
452.31	2113.50
452.49	1991.80
452.68	2029.24
452.86	2080.74
453.05	2132.23
453.23	2136.91
453.42	2235.21
453.60	2225.85
453.78	2232.87
453.97	2249.25
454.15	2249.25
454.34	2270.32
454.52	2256.28
454.70	2300.75
454.89	2148.61
455.07	2256.28
455.26	2122.87
455.44	2324.15
455.62	2331.17
455.81	2396.71
455.99	2422.45
456.17	2286.70
456.36	2263.30
456.54	2429.48
456.73	2253.94
456.91	2333.51
457.09	2424.80
457.28	2473.95
457.46	2424.80
457.64	2319.47
457.83	2377.98
458.01	2251.60
458.19	2375.64
458.38	2232.87
458.56	2277.34
458.74	2211.81
458.93	2303.09
459.11	2389.69
459.29	2300.75
459.48	2317.13
459.66	2420.11
459.84	2253.94
460.03	2450.54
460.21	2377.98
460.39	2312.45
460.57	2516.08
460.76	2394.37
460.94	2375.64
461.12	2363.94
461.31	2476.29
461.49	2399.05
461.67	2436.50
461.85	2492.67
462.04	2380.32
462.22	2567.57
462.40	2600.34
462.59	2637.78
462.77	2396.71
462.95	2518.42
463.13	2387.35
463.32	2406.07
463.50	2569.91
463.68	2342.88
463.86	2331.17
464.05	2438.84
464.23	2478.63
464.41	2385.01
464.59	2319.47
464.78	2424.80
464.96	2394.37
465.14	2263.30
465.32	2363.94
465.50	2492.67
465.69	2513.74
465.87	2333.51
466.05	2373.30
466.23	2260.96
466.41	2232.87
466.60	2345.22
466.78	2361.60
466.96	2354.58
467.14	2352.24
467.32	2401.39
467.51	2427.14
467.69	2277.34
467.87	2314.79
468.05	2361.60
468.23	2469.27
468.41	2282.02
468.60	2394.37
468.78	2394.37
468.96	2277.34
469.14	2392.03
469.32	2399.05
469.50	2338.20
469.69	2300.75
469.87	2361.60
470.05	2265.64
470.23	2223.51
470.41	2260.96
470.59	2359.26
470.77	2457.56
470.95	2497.35
471.14	2445.86
471.32	2298.41
471.50	2534.80
471.68	2457.56
471.86	2560.55
472.04	2518.42
472.22	2546.50
472.40	2452.88
472.58	2590.97
472.77	2303.09
472.95	2354.58
473.13	2605.02
473.31	2473.95
473.49	2572.25
473.67	2410.75
473.85	2492.67
474.03	2600.34
474.21	2572.25
474.39	2738.43
474.57	2747.79
474.75	2642.46
474.93	2670.55
475.12	2527.78
475.30	2619.06
475.48	2576.93
475.66	2600.34
475.84	2537.14
476.02	2424.80
476.20	2448.20
476.38	2417.77
476.56	2506.71
476.74	2661.19
476.92	2621.40
477.10	2649.49
477.28	2766.51
477.46	2897.58
477.64	2773.53
477.82	2848.43
478.00	2722.04
478.18	2724.38
478.36	2782.90
478.54	2637.78
478.72	2775.88
478.90	2815.66
479.08	2785.24
479.26	2970.14
479.44	3021.63
479.62	2909.29
479.80	2883.54
479.98	2906.95
480.16	3019.29
480.34	3030.99
480.52	2939.71
480.70	2967.80
480.88	3026.31
481.06	3068.44
481.24	3030.99
481.41	3082.49
481.59	3227.60
481.77	3133.98
481.95	3124.62
482.13	3145.68
482.31	3143.34
482.49	3164.40
482.67	3145.68
482.85	3290.79
483.03	3372.71
483.21	3241.64
483.39	3272.07
483.57	3279.09
483.74	3166.74
483.92	3159.72
484.10	3185.47
484.28	3304.84
484.46	3370.37
484.64	3321.22
484.82	3243.98
485.00	3183.13
485.18	3265.05
485.35	3136.32
485.53	3035.67
485.71	2675.23
485.89	2600.34
486.07	2745.45
486.25	3009.93
486.43	3152.70
486.61	3222.92
486.78	3253.34
486.96	3197.17
487.14	3468.67
487.32	3211.22
487.50	3431.23
487.68	3562.30
487.85	3609.11
488.03	3576.34
488.21	3604.42
488.39	3506.12
488.57	3424.20
488.75	3393.78
488.92	3726.13
489.10	3712.09
489.28	3786.99
489.46	3847.84
489.64	3901.67
489.81	3967.21
489.99	3918.06
490.17	3936.78
490.35	4023.38
490.53	3920.40
490.70	3786.99
490.88	3840.82
491.06	4086.58
491.24	3934.44
491.41	3861.88
491.59	3676.98
491.77	3606.77
491.95	3665.28
492.13	3721.45
492.30	3840.82
492.48	4112.32
492.66	4053.81
492.84	4117.00
493.01	4095.94
493.19	4060.83
493.37	3960.19
493.54	3936.78
493.72	4063.17
493.90	3971.89
494.08	4126.36
494.25	4248.07
494.43	4360.42
494.61	4339.35
494.79	4351.06
494.96	4229.35
495.14	4372.12
495.32	4063.17
495.49	4119.34
495.67	4236.37
495.85	4404.89
496.02	4362.76
496.20	4365.10
496.38	4425.95
496.55	4355.74
496.73	4355.74
496.91	4395.53
497.09	4500.85
497.26	4365.10
497.44	4376.80
497.62	4519.57
497.79	4322.97
497.97	4117.00
498.14	4102.96
498.32	4301.90
498.50	4292.54
498.67	4582.77
498.85	4442.34
499.03	4283.18
499.20	4341.69
499.38	4526.60
499.56	4414.25
499.73	4306.59
499.91	4339.35
500.08	4386.16
500.26	4234.03
500.44	4234.03
500.61	4184.88
500.79	4341.69
500.97	4248.07
501.14	4166.15
501.32	4203.60
501.49	4198.92
501.67	4126.36
501.84	4095.94
502.02	4124.02
502.20	4348.72
502.37	4454.04
502.55	4334.67
502.72	4428.29
502.90	4592.13
503.07	4454.04
503.25	4238.71
503.43	4095.94
503.60	3927.42
503.78	4016.36
503.95	3955.51
504.13	4086.58
504.30	4402.55
504.48	4339.35
504.65	4369.78
504.83	4329.99
505.01	4421.27
505.18	4425.95
505.36	4650.64
505.53	4552.34
505.71	4765.33
505.88	4657.67
506.06	4645.96
506.23	4470.42
506.41	4404.89
506.58	4468.08
506.76	4421.27
506.93	4517.23
507.11	4451.70
507.28	4498.51
507.46	4236.37
507.63	4205.94
507.81	4145.09
507.98	4432.97
508.16	4510.21
508.33	4386.16
508.50	4444.68
508.68	4620.22
508.85	4695.11
509.03	4788.74
509.20	4617.88
509.38	4631.92
509.55	4423.61
509.73	4500.85
509.90	4561.70
510.08	4587.45
510.25	4594.47
510.42	4709.16
510.60	4575.75
510.77	4533.62
510.95	4690.43
511.12	4713.84
511.30	4746.61
511.47	4826.18
511.64	4812.14
511.82	4709.16
511.99	4655.33
512.17	4526.60
512.34	4559.36
512.51	4636.60
512.69	4475.10
512.86	4571.07
513.04	4683.41
513.21	4765.33
513.38	4664.69
513.56	4486.81
513.73	4468.08
513.90	4503.19
514.08	4390.84
514.25	4531.28
514.43	4554.68
514.60	4702.14
514.77	4507.87
514.95	4552.34
515.12	4561.70
515.29	4500.85
515.47	4599.15
515.64	4739.58
515.81	4645.96
515.99	4622.56
516.16	4503.19
516.33	4051.47
516.51	3911.04
516.68	3826.78
516.85	3700.39
517.03	3833.80
517.20	3950.82
517.37	4379.14
517.54	4634.26
517.72	4444.68
517.89	4074.87
518.06	4074.87
518.24	3906.35
518.41	4327.65
518.58	4241.05
518.75	4442.34
518.93	4547.66
519.10	4395.53
519.27	4535.96
519.45	4521.92
519.62	4535.96
519.79	4751.29
519.96	4634.26
520.14	4788.74
520.31	4608.51
520.48	4404.89
520.65	4505.53
520.83	4531.28
521.00	4671.71
521.17	4697.46
521.34	4615.54
521.52	4669.37
521.69	4840.23
521.86	4718.52
522.03	4755.97
522.20	4587.45
522.38	4489.15
522.55	4351.06
522.72	4531.28
522.89	4505.53
523.07	4636.60
523.24	4557.02
523.41	4889.38
523.58	4779.37
523.75	4802.78
523.92	4699.80
524.10	4856.61
524.27	4732.56
524.44	4762.99
524.61	4791.08
524.78	4821.50
524.96	4718.52
525.13	4711.50
525.30	4861.29
525.47	4978.32
525.64	4854.27
525.81	4781.71
525.98	4568.73
526.16	4329.99
526.33	4224.67
526.50	4067.85
526.67	4014.02
526.84	3962.53
527.01	4299.56
527.18	4360.42
527.36	4566.39
527.53	4554.68
527.70	4800.44
527.87	4608.51
528.04	4624.90
528.21	4648.30
528.38	4779.37
528.55	4873.00
528.72	4978.32
528.89	4936.19
529.07	4905.76
529.24	4877.68
529.41	4660.01
529.58	4554.68
529.75	4650.64
529.92	4676.39
530.09	4706.82
530.26	4851.93
530.43	4926.83
530.60	4968.96
530.77	4947.89
530.94	4978.32
531.11	4990.02
531.28	4755.97
531.46	4725.54
531.63	4798.10
531.80	4858.95
531.97	4739.58
532.14	4578.09
532.31	4435.32
532.48	4376.80
532.65	4362.76
532.82	4440.00
532.99	4758.31
533.16	4683.41
533.33	4828.53
533.50	4765.33
533.67	4723.20
533.84	4538.30
534.01	4681.07
534.18	4631.92
534.35	4772.35
534.52	4592.13
534.69	4858.95
534.86	4720.86
535.03	4697.46
535.20	4943.21
535.37	4943.21
535.54	4957.25
535.71	4929.17
535.88	4770.01
536.05	4767.67
536.22	4870.65
536.38	4704.48
536.55	4690.43
536.72	4552.34
536.89	4447.02
537.06	4580.43
537.23	4657.67
537.40	4667.03
537.57	4894.06
537.74	4688.09
537.91	4692.77
538.08	4697.46
538.25	4798.10
538.42	4826.18
538.59	4587.45
538.75	4739.58
538.92	4514.89
539.09	4690.43
539.26	4688.09
539.43	4552.34
539.60	4547.66
539.77	4720.86
539.94	4545.32
540.11	4465.74
540.28	4634.26
540.44	4496.17
540.61	4528.94
540.78	4599.15
540.95	4580.43
541.12	4931.51
541.29	5081.30
541.46	5121.09
541.62	5055.56
541.79	4851.93
541.96	4908.10
542.13	4807.46
542.30	4739.58
542.47	5062.58
542.63	4777.03
542.80	4980.66
542.97	4844.91
543.14	4809.80
543.31	4681.07
543.48	4847.25
543.64	5137.48
543.81	5123.43
543.98	5111.73
544.15	5057.90
544.32	4781.71
544.48	4870.65
544.65	4805.12
544.82	5046.20
544.99	4959.60
545.16	4858.95
545.32	4910.44
545.49	5207.69
545.66	5895.81
545.83	6047.94
546.00	5659.42
546.16	5350.46
546.33	5193.65
546.50	4990.02
546.67	4791.08
546.83	4774.69
547.00	4980.66
547.17	4779.37
547.34	4748.95
547.50	4390.84
547.67	4671.71
547.84	4617.88
548.00	4819.16
548.17	4737.24
548.34	4685.75
548.51	4751.29
548.67	4779.37
548.84	4652.98
549.01	4624.90
549.18	4676.39
549.34	4528.94
549.51	4660.01
549.68	4650.64
549.84	4540.64
550.01	4636.60
550.18	4643.62
550.34	4727.88
550.51	4748.95
550.68	4692.77
550.84	4566.39
551.01	4545.32
551.18	4407.23
551.34	4461.06
551.51	4477.44
551.68	4538.30
551.84	4706.82
552.01	4580.43
552.18	4435.32
552.34	4425.95
552.51	4393.19
552.68	4318.29
552.84	4524.26
553.01	4517.23
553.18	4564.04
553.34	4613.20
553.51	4454.04
553.67	4526.60
553.84	4547.66
554.01	4535.96
554.17	4339.35
554.34	4477.44
554.51	4594.47
554.67	4432.97
554.84	4674.05
555.00	4500.85
555.17	4348.72
555.33	4461.06
555.50	4428.29
555.67	4521.92
555.83	4311.27
556.00	4334.67
556.16	4479.79
556.33	4432.97
556.50	4224.67
556.66	4292.54
556.83	4236.37
556.99	4318.29
557.16	4285.52
557.32	4271.48
557.49	4252.75
557.65	4346.37
557.82	4425.95
557.98	4442.34
558.15	4159.13
558.32	4126.36
558.48	4039.76
558.65	4138.07
558.81	4152.11
558.98	4166.15
559.14	4079.55
559.31	4131.05
559.47	4299.56
559.64	4142.75
559.80	4070.19
559.97	4131.05
560.13	4243.39
560.30	4163.81
560.46	4208.28
560.63	4273.82
560.79	4269.14
560.96	4142.75
561.12	4098.28
561.29	4051.47
561.45	4079.55
561.61	4077.21
561.78	4315.95
561.94	4140.41
562.11	4208.28
562.27	4180.20
562.44	4124.02
562.60	4203.60
562.77	4198.92
562.93	4250.41
563.10	4315.95
563.26	4355.74
563.42	4159.13
563.59	4145.09
563.75	4175.52
563.92	4105.30
564.08	4011.68
564.24	4095.94
564.41	4072.53
564.57	4025.72
564.74	4131.05
564.90	4032.74
565.07	4161.47
565.23	4025.72
565.39	3969.55
565.56	4042.11
565.72	3985.93
565.88	3932.10
566.05	3864.22
566.21	4002.32
566.38	3852.52
566.54	3974.23
566.70	3999.98
566.87	4124.02
567.03	4142.75
567.19	4135.73
567.36	4023.38
567.52	4112.32
567.68	3918.06
567.85	3871.25
568.01	3693.37
568.17	3737.84
568.34	3875.93
568.50	3637.19
568.66	3705.07
568.83	3819.75
568.99	3824.44
569.15	3838.48
569.32	3777.62
569.48	3894.65
569.64	3646.55
569.81	3688.68
569.97	3824.44
570.13	3768.26
570.30	3726.13
570.46	3695.71
570.62	3662.94
570.78	3777.62
570.95	3478.04
571.11	3688.68
571.27	3742.52
571.43	3791.67
571.60	3658.26
571.76	3772.94
571.92	3728.47
572.09	3843.16
572.25	3763.58
572.41	3698.05
572.57	3817.41
572.74	3887.63
572.90	3655.92
573.06	3524.85
573.22	3723.79
573.38	3801.03
573.55	3796.35
573.71	3693.37
573.87	3756.56
574.03	3749.54
574.20	3784.65
574.36	3695.71
574.52	3634.85
574.68	3674.64
574.84	3562.30
575.01	3700.39
575.17	3627.83
575.33	3574.00
575.49	3597.40
575.65	3810.39
575.82	3651.24
575.98	3695.71
576.14	3646.55
576.30	3655.92
576.46	3728.47
576.62	3899.33
576.79	3887.63
576.95	3976.57
577.11	3688.68
577.27	3754.22
577.43	3726.13
577.59	3646.55
577.75	3555.27
577.92	3445.27
578.08	3527.19
578.24	3510.80
578.40	3775.28
578.56	3786.99
578.72	3815.07
578.88	3749.54
579.04	3698.05
579.21	3758.90
579.37	3714.43
579.53	3742.52
579.69	3559.95
579.85	3686.34
580.01	3779.97
580.17	3737.84
580.33	3772.94
580.49	3684.00
580.65	3763.58
580.82	3667.62
580.98	3571.66
581.14	3630.17
581.30	3693.37
581.46	3730.81
581.62	3691.02
581.78	3674.64
581.94	3775.28
582.10	3765.92
582.26	3779.97
582.42	3705.07
582.58	3892.31
582.74	3815.07
582.90	3777.62
583.06	3880.61
583.22	3667.62
583.38	3702.73
583.54	3737.84
583.70	3686.34
583.86	3796.35
584.02	3798.69
584.18	3801.03
584.34	3782.31
584.50	3749.54
584.66	3559.95
584.82	3691.02
584.98	3747.20
585.14	3733.15
585.30	3552.93
585.46	3531.87
585.62	3501.44
585.78	3599.74
585.94	3473.36
586.10	3618.47
586.26	3513.14
586.42	3616.13
586.58	3625.49
586.74	3627.83
586.90	3478.04
587.06	3583.36
587.22	3716.77
587.38	3510.80
587.54	3503.78
587.70	3407.82
587.86	3323.56
588.02	3213.56
588.18	3129.30
588.34	3054.40
588.49	2754.81
588.65	2614.38
588.81	2558.21
588.97	2579.27
589.13	2621.40
589.29	2565.23
589.45	2597.99
589.61	2626.08
589.77	2848.43
589.93	2881.20
590.08	2892.90
590.24	3087.17
590.40	3155.04
590.56	3082.49
590.72	3023.97
590.88	2916.31
591.04	3023.97
591.20	2984.18
591.35	2871.84
591.51	2977.16
591.67	2942.05
591.83	2850.77
591.99	2864.82
592.15	3016.95
592.31	2981.84
592.46	3117.59
592.62	3066.10
592.78	3059.08
592.94	3236.96
593.10	3126.96
593.26	3215.90
593.41	3274.41
593.57	3180.79
593.73	3028.65
593.89	2963.12
594.05	2913.97
594.20	2794.60
594.36	2600.34
594.52	2700.98
594.68	2775.88
594.84	2846.09
594.99	2923.33
595.15	3084.83
595.31	3143.34
595.47	3009.93
595.62	2942.05
595.78	3087.17
595.94	3171.43
596.10	3105.89
596.25	3009.93
596.41	2988.86
596.57	3066.10
596.73	3009.93
596.88	3002.91
597.04	3141.00
597.20	3019.29
597.36	2944.39
597.51	2967.80
597.67	2939.71
597.83	3052.06
597.99	3220.58
