SpectraSuite Data File
++++++++++++++++++++++++++++++++++++
Date: Fri Oct 04 11:41:50 GMT-05:00 2013
User: price-jones
Dark Spectrum Present: No
Reference Spectrum Present: No
Number of Sampled Component Spectra: 1
Spectrometers: USB2+H05261
Integration Time (usec): 100000 (USB2+H05261)
Spectra Averaged: 1 (USB2+H05261)
Boxcar Smoothing: 0 (USB2+H05261)
Correct for Electrical Dark: No (USB2+H05261)
Strobe/Lamp Enabled: No (USB2+H05261)
Correct for Detector Non-linearity: No (USB2+H05261)
Correct for Stray Light: No (USB2+H05261)
Number of Pixels in Processed Spectrum: 2048
>>>>>Begin Processed Spectral Data<<<<<
365.73	79.58
365.92	79.58
366.12	79.58
366.32	4.68
366.52	0.00
366.72	0.00
366.91	0.00
367.11	0.00
367.31	0.00
367.51	0.00
367.70	0.00
367.90	0.00
368.10	0.00
368.30	0.00
368.49	0.00
368.69	0.00
368.89	0.00
369.09	0.00
369.28	0.00
369.48	0.00
369.68	0.00
369.87	0.00
370.07	0.00
370.27	9.36
370.47	67.88
370.66	0.00
370.86	28.09
371.06	102.98
371.25	102.98
371.45	35.11
371.65	117.03
371.84	110.01
372.04	44.47
372.24	110.01
372.44	53.83
372.63	58.51
372.83	161.50
373.03	67.88
373.22	140.43
373.42	131.07
373.62	49.15
373.81	63.19
374.01	159.16
374.21	187.24
374.40	84.26
374.60	175.54
374.79	110.01
374.99	95.96
375.19	74.90
375.38	126.39
375.58	128.73
375.78	133.41
375.97	100.64
376.17	105.32
376.37	84.26
376.56	173.20
376.76	105.32
376.95	114.69
377.15	210.65
377.35	215.33
377.54	121.71
377.74	107.66
377.93	117.03
378.13	67.88
378.33	156.82
378.52	205.97
378.72	140.43
378.91	187.24
379.11	117.03
379.31	168.52
379.50	95.96
379.70	196.60
379.89	152.13
380.09	128.73
380.28	147.45
380.48	175.54
380.68	98.30
380.87	170.86
381.07	140.43
381.26	222.35
381.46	86.60
381.65	117.03
381.85	145.11
382.04	51.49
382.24	117.03
382.43	149.79
382.63	119.37
382.83	126.39
383.02	135.75
383.22	227.03
383.41	95.96
383.61	128.73
383.80	124.05
384.00	126.39
384.19	95.96
384.39	100.64
384.58	126.39
384.78	105.32
384.97	163.84
385.17	142.77
385.36	65.54
385.56	170.86
385.75	145.11
385.95	152.13
386.14	138.09
386.34	149.79
386.53	93.62
386.72	53.83
386.92	191.92
387.11	112.35
387.31	145.11
387.50	98.30
387.70	79.58
387.89	119.37
388.09	117.03
388.28	159.16
388.48	88.94
388.67	114.69
388.86	117.03
389.06	124.05
389.25	46.81
389.45	98.30
389.64	102.98
389.84	180.22
390.03	198.95
390.22	102.98
390.42	84.26
390.61	168.52
390.81	121.71
391.00	131.07
391.19	105.32
391.39	65.54
391.58	119.37
391.78	187.24
391.97	175.54
392.16	110.01
392.36	138.09
392.55	112.35
392.75	133.41
392.94	117.03
393.13	110.01
393.33	131.07
393.52	91.28
393.71	161.50
393.91	58.51
394.10	135.75
394.29	138.09
394.49	112.35
394.68	77.24
394.88	88.94
395.07	138.09
395.26	126.39
395.46	86.60
395.65	102.98
395.84	121.71
396.04	229.37
396.23	168.52
396.42	187.24
396.62	189.58
396.81	93.62
397.00	63.19
397.19	102.98
397.39	95.96
397.58	222.35
397.77	74.90
397.97	152.13
398.16	131.07
398.35	119.37
398.55	133.41
398.74	121.71
398.93	159.16
399.12	229.37
399.32	159.16
399.51	93.62
399.70	203.63
399.90	149.79
400.09	131.07
400.28	95.96
400.47	91.28
400.67	154.48
400.86	177.88
401.05	224.69
401.24	156.82
401.44	152.13
401.63	182.56
401.82	145.11
402.01	93.62
402.21	198.95
402.40	201.29
402.59	198.95
402.78	252.78
402.97	126.39
403.17	283.20
403.36	266.82
403.55	411.93
403.74	751.31
403.93	2286.70
404.13	5448.77
404.32	7988.25
404.51	7330.56
404.70	4685.75
404.89	1823.28
405.09	545.34
405.28	290.23
405.47	334.70
405.66	255.12
405.85	220.01
406.05	212.99
406.24	196.60
406.43	238.73
406.62	220.01
406.81	252.78
407.00	428.32
407.20	709.18
407.39	1039.20
407.58	1226.44
407.77	908.13
407.96	458.74
408.15	208.31
408.34	220.01
408.54	149.79
408.73	159.16
408.92	217.67
409.11	266.82
409.30	271.50
409.49	189.58
409.68	201.29
409.87	156.82
410.07	168.52
410.26	222.35
410.45	236.39
410.64	243.42
410.83	248.10
411.02	227.03
411.21	231.71
411.40	220.01
411.59	177.88
411.78	177.88
411.98	177.88
412.17	201.29
412.36	273.84
412.55	177.88
412.74	194.26
412.93	224.69
413.12	248.10
413.31	234.05
413.50	255.12
413.69	208.31
413.88	220.01
414.07	250.44
414.26	217.67
414.45	264.48
414.64	222.35
414.83	299.59
415.02	257.46
415.22	297.25
415.41	337.04
415.60	278.52
415.79	313.63
415.98	341.72
416.17	276.18
416.36	304.27
416.55	196.60
416.74	379.17
416.93	341.72
417.12	271.50
417.31	344.06
417.50	297.25
417.69	304.27
417.88	306.61
418.07	259.80
418.26	245.76
418.45	358.10
418.64	306.61
418.83	217.67
419.02	217.67
419.21	255.12
419.39	220.01
419.58	234.05
419.77	205.97
419.96	262.14
420.15	304.27
420.34	280.86
420.53	290.23
420.72	372.15
420.91	332.36
421.10	306.61
421.29	325.33
421.48	362.78
421.67	332.36
421.86	346.40
422.05	322.99
422.24	337.04
422.43	306.61
422.61	285.55
422.80	308.95
422.99	306.61
423.18	252.78
423.37	337.04
423.56	327.68
423.75	379.17
423.94	374.49
424.13	318.31
424.32	315.97
424.50	318.31
424.69	285.55
424.88	337.04
425.07	292.57
425.26	344.06
425.45	245.76
425.64	311.29
425.83	365.12
426.01	409.59
426.20	407.25
426.39	348.74
426.58	339.38
426.77	407.25
426.96	365.12
427.15	379.17
427.33	311.29
427.52	358.10
427.71	320.65
427.90	358.10
428.09	383.85
428.28	381.51
428.46	301.93
428.65	451.72
428.84	404.91
429.03	454.06
429.22	437.68
429.40	376.83
429.59	367.46
429.78	360.44
429.97	353.42
430.16	365.12
430.34	416.62
430.53	440.02
430.72	395.55
430.91	428.32
431.10	433.00
431.28	358.10
431.47	465.77
431.66	475.13
431.85	400.23
432.03	468.11
432.22	447.04
432.41	400.23
432.60	489.17
432.79	458.74
432.97	514.92
433.16	524.28
433.35	648.33
433.54	620.24
433.72	681.10
433.91	695.14
434.10	821.53
434.28	959.62
434.47	1107.07
434.66	1226.44
434.85	1537.73
435.03	3707.41
435.22	13699.16
435.41	33666.27
435.59	39653.36
435.78	26089.95
435.97	12929.12
436.16	5078.96
436.34	1706.25
436.53	978.34
436.72	814.51
436.90	727.91
437.09	634.29
437.28	631.94
437.46	594.50
437.65	561.73
437.84	615.56
438.02	533.64
438.21	528.96
438.40	491.51
438.58	531.30
438.77	444.70
438.96	578.11
439.14	521.94
439.33	507.90
439.52	484.49
439.70	510.24
439.89	477.47
440.08	463.43
440.26	475.13
440.45	610.88
440.63	573.43
440.82	521.94
441.01	489.17
441.19	535.98
441.38	528.96
441.57	468.11
441.75	500.87
441.94	547.69
442.12	456.40
442.31	493.85
442.50	451.72
442.68	472.79
442.87	557.05
443.05	463.43
443.24	500.87
443.43	512.58
443.61	552.37
443.80	493.85
443.98	454.06
444.17	521.94
444.35	477.47
444.54	510.24
444.73	500.87
444.91	538.32
445.10	428.32
445.28	507.90
445.47	479.81
445.65	421.30
445.84	510.24
446.02	566.41
446.21	397.89
446.39	533.64
446.58	484.49
446.77	526.62
446.95	514.92
447.14	524.28
447.32	510.24
447.51	465.77
447.69	496.19
447.88	524.28
448.06	559.39
448.25	484.49
448.43	482.15
448.62	463.43
448.80	557.05
448.99	496.19
449.17	517.26
449.36	486.83
449.54	477.47
449.73	486.83
449.91	514.92
450.10	510.24
450.28	571.09
450.46	479.81
450.65	472.79
450.83	545.34
451.02	557.05
451.20	547.69
451.39	519.60
451.57	545.34
451.76	428.32
451.94	470.45
452.13	528.96
452.31	489.17
452.49	528.96
452.68	526.62
452.86	575.77
453.05	603.86
453.23	444.70
453.42	482.15
453.60	526.62
453.78	395.55
453.97	468.11
454.15	531.30
454.34	430.66
454.52	482.15
454.70	519.60
454.89	528.96
455.07	463.43
455.26	456.40
455.44	503.22
455.62	428.32
455.81	449.38
455.99	526.62
456.17	482.15
456.36	451.72
456.54	454.06
456.73	552.37
456.91	451.72
457.09	503.22
457.28	554.71
457.46	547.69
457.64	552.37
457.83	514.92
458.01	496.19
458.19	447.04
458.38	510.24
458.56	512.58
458.74	521.94
458.93	468.11
459.11	472.79
459.29	465.77
459.48	486.83
459.66	571.09
459.84	531.30
460.03	606.20
460.21	573.43
460.39	435.34
460.57	433.00
460.76	496.19
460.94	498.53
461.12	512.58
461.31	463.43
461.49	486.83
461.67	407.25
461.85	510.24
462.04	423.64
462.22	959.62
462.40	589.82
462.59	575.77
462.77	390.87
462.95	477.47
463.13	456.40
463.32	477.47
463.50	486.83
463.68	491.51
463.86	505.56
464.05	458.74
464.23	521.94
464.41	404.91
464.59	465.77
464.78	526.62
464.96	428.32
465.14	573.43
465.32	505.56
465.50	510.24
465.69	449.38
465.87	451.72
466.05	521.94
466.23	484.49
466.41	468.11
466.60	578.11
466.78	561.73
466.96	547.69
467.14	472.79
467.32	521.94
467.51	503.22
467.69	500.87
467.87	454.06
468.05	470.45
468.23	512.58
468.41	442.36
468.60	421.30
468.78	407.25
468.96	468.11
469.14	477.47
469.32	397.89
469.50	383.85
469.69	449.38
469.87	505.56
470.05	442.36
470.23	465.77
470.41	416.62
470.59	407.25
470.77	383.85
470.95	437.68
471.14	498.53
471.32	332.36
471.50	514.92
471.68	442.36
471.86	475.13
472.04	425.98
472.22	482.15
472.40	454.06
472.58	425.98
472.77	465.77
472.95	461.09
473.13	489.17
473.31	498.53
473.49	374.49
473.67	451.72
473.85	496.19
474.03	526.62
474.21	524.28
474.39	484.49
474.57	545.34
474.75	416.62
474.93	416.62
475.12	442.36
475.30	514.92
475.48	528.96
475.66	498.53
475.84	470.45
476.02	416.62
476.20	505.56
476.38	465.77
476.56	526.62
476.74	461.09
476.92	477.47
477.10	510.24
477.28	524.28
477.46	402.57
477.64	437.68
477.82	465.77
478.00	482.15
478.18	540.66
478.36	444.70
478.54	524.28
478.72	554.71
478.90	566.41
479.08	540.66
479.26	648.33
479.44	596.84
479.62	681.10
479.80	650.67
479.98	720.88
480.16	690.46
480.34	636.63
480.52	697.48
480.70	753.65
480.88	746.63
481.06	779.40
481.24	821.53
481.41	924.51
481.59	964.30
481.77	1006.43
481.95	966.64
482.13	1114.10
482.31	1210.06
482.49	1301.34
482.67	1287.29
482.85	1427.73
483.03	1425.39
483.21	1636.03
483.39	1755.40
483.57	1764.76
483.74	1923.92
483.92	2080.74
484.10	2026.90
484.28	2258.62
484.46	2298.41
484.64	2483.31
484.82	2499.69
485.00	2682.25
485.18	2820.35
485.35	3129.30
485.53	3253.34
485.71	3351.65
485.89	3543.57
486.07	3604.42
486.25	3562.30
486.43	3651.24
486.61	3665.28
486.78	3513.14
486.96	3506.12
487.14	3648.90
487.32	3602.08
487.50	3555.27
487.68	3566.98
487.85	3616.13
488.03	3506.12
488.21	3510.80
488.39	3316.54
488.57	3269.73
488.75	3141.00
488.92	3410.16
489.10	2970.14
489.28	2963.12
489.46	2986.52
489.64	2818.00
489.81	2846.09
489.99	2808.64
490.17	2743.11
490.35	2820.35
490.53	2827.37
490.70	2773.53
490.88	2689.28
491.06	2895.24
491.24	3126.96
491.41	3272.07
491.59	2913.97
491.77	2633.10
491.95	2626.08
492.13	2551.18
492.30	2518.42
492.48	2478.63
492.66	2401.39
492.84	2380.32
493.01	2396.71
493.19	2380.32
493.37	2326.49
493.54	2417.77
493.72	2256.28
493.90	2155.63
494.08	2289.04
494.25	2230.53
494.43	2101.80
494.61	2059.67
494.79	2099.46
494.96	2043.29
495.14	1940.30
495.32	2029.24
495.49	1940.30
495.67	1872.43
495.85	1830.30
496.02	1863.07
496.20	1778.81
496.38	1832.64
496.55	1776.47
496.73	1799.87
496.91	1680.50
497.09	1701.57
497.26	1650.08
497.44	1671.14
497.62	1500.28
497.79	1584.54
497.97	1439.43
498.14	1497.94
498.32	1540.07
498.50	1420.71
498.67	1399.64
498.85	1371.55
499.03	1313.04
499.20	1392.62
499.38	1259.21
499.56	1146.86
499.73	1210.06
499.91	1179.63
500.08	1259.21
500.26	1104.73
500.44	1022.81
500.61	1039.20
500.79	1029.84
500.97	959.62
501.14	1109.41
501.32	910.47
501.49	985.37
501.67	929.19
501.84	924.51
502.02	870.68
502.20	880.04
502.37	791.10
502.55	741.95
502.72	826.21
502.90	765.36
503.07	704.50
503.25	697.48
503.43	669.39
503.60	683.44
503.78	765.36
503.95	671.73
504.13	627.26
504.30	596.84
504.48	662.37
504.65	681.10
504.83	713.86
505.01	575.77
505.18	585.13
505.36	554.71
505.53	540.66
505.71	552.37
505.88	620.24
506.06	484.49
506.23	596.84
506.41	643.65
506.58	552.37
506.76	552.37
506.93	561.73
507.11	507.90
507.28	489.17
507.46	500.87
507.63	575.77
507.81	486.83
507.98	552.37
508.16	463.43
508.33	578.11
508.50	512.58
508.68	585.13
508.85	543.00
509.03	620.24
509.20	521.94
509.38	531.30
509.55	566.41
509.73	498.53
509.90	524.28
510.08	500.87
510.25	470.45
510.42	503.22
510.60	512.58
510.77	496.19
510.95	496.19
511.12	418.96
511.30	411.93
511.47	477.47
511.64	465.77
511.82	433.00
511.99	454.06
512.17	564.07
512.34	503.22
512.51	514.92
512.69	475.13
512.86	512.58
513.04	418.96
513.21	493.85
513.38	463.43
513.56	449.38
513.73	416.62
513.90	433.00
514.08	397.89
514.25	489.17
514.43	376.83
514.60	376.83
514.77	433.00
514.95	442.36
515.12	381.51
515.29	400.23
515.47	423.64
515.64	425.98
515.81	400.23
515.99	358.10
516.16	430.66
516.33	414.27
516.51	437.68
516.68	360.44
516.85	454.06
517.03	435.34
517.20	395.55
517.37	435.34
517.54	407.25
517.72	313.63
517.89	407.25
518.06	304.27
518.24	404.91
518.41	477.47
518.58	447.04
518.75	388.53
518.93	344.06
519.10	421.30
519.27	411.93
519.45	423.64
519.62	327.68
519.79	416.62
519.96	397.89
520.14	418.96
520.31	395.55
520.48	383.85
520.65	299.59
520.83	409.59
521.00	409.59
521.17	353.42
521.34	362.78
521.52	407.25
521.69	369.80
521.86	456.40
522.03	411.93
522.20	388.53
522.38	381.51
522.55	388.53
522.72	381.51
522.89	383.85
523.07	454.06
523.24	442.36
523.41	339.38
523.58	339.38
523.75	414.27
523.92	477.47
524.10	325.33
524.27	418.96
524.44	444.70
524.61	362.78
524.78	482.15
524.96	404.91
525.13	369.80
525.30	416.62
525.47	456.40
525.64	437.68
525.81	430.66
525.98	421.30
526.16	369.80
526.33	383.85
526.50	435.34
526.67	407.25
526.84	435.34
527.01	472.79
527.18	517.26
527.36	596.84
527.53	561.73
527.70	580.45
527.87	421.30
528.04	493.85
528.21	524.28
528.38	538.32
528.55	479.81
528.72	550.03
528.89	503.22
529.07	491.51
529.24	486.83
529.41	589.82
529.58	482.15
529.75	425.98
529.92	552.37
530.09	557.05
530.26	531.30
530.43	603.86
530.60	552.37
530.77	566.41
530.94	613.22
531.11	683.44
531.28	634.29
531.46	624.92
531.63	669.39
531.80	699.82
531.97	741.95
532.14	858.98
532.31	997.07
532.48	1132.82
532.65	1341.13
532.82	1568.16
532.99	1912.22
533.16	2010.52
533.33	2125.21
533.50	1982.43
533.67	1820.94
533.84	1472.20
534.01	1310.70
534.18	1203.04
534.35	1291.98
534.52	1221.76
534.69	1378.58
534.86	1411.34
535.03	1366.87
535.20	1327.08
535.37	1607.95
535.54	1680.50
535.71	1732.00
535.88	1729.66
536.05	1930.94
536.22	2019.88
536.38	2193.08
536.55	2361.60
536.72	2621.40
536.89	2974.82
537.06	3276.75
537.23	3613.79
537.40	3964.87
537.57	4362.76
537.74	4510.21
537.91	4664.69
538.08	4966.62
538.25	5060.24
538.42	4933.85
538.59	4924.49
538.75	5291.95
538.92	5514.30
539.09	6050.28
539.26	6668.19
539.43	7438.22
539.60	8587.43
539.77	9586.83
539.94	10551.14
540.11	11885.24
540.28	13284.88
540.44	14420.04
540.61	15744.78
540.78	18050.21
540.95	21928.48
541.12	26253.79
541.29	29532.88
541.46	31381.90
541.62	30939.54
541.79	29633.52
541.96	28173.03
542.13	25905.05
542.30	23934.32
542.47	22574.47
542.63	21123.33
542.80	20610.76
542.97	20421.17
543.14	20030.30
543.31	19941.36
543.48	19868.81
543.64	20442.24
543.81	20425.86
543.98	20968.86
544.15	21067.16
544.32	21362.07
544.48	21380.79
544.65	20856.51
544.82	20814.38
544.99	20917.37
545.16	21310.58
545.32	22324.03
545.49	34649.29
545.66	57537.39
545.83	65034.13
546.00	62426.77
546.16	50160.02
546.33	37186.43
546.50	28051.32
546.67	21799.75
546.83	18960.68
547.00	18090.00
547.17	17336.35
547.34	16772.28
547.50	15981.18
547.67	15309.44
547.84	14789.85
548.00	14420.04
548.17	13703.84
548.34	13467.44
548.51	12552.29
548.67	11939.07
548.84	11559.91
549.01	10729.02
549.18	10331.12
549.34	9975.36
549.51	9633.64
549.68	9371.50
549.84	8964.25
550.01	8451.67
550.18	8065.49
550.34	7672.28
550.51	7363.33
550.68	6986.50
550.84	6534.78
551.01	6356.90
551.18	6024.54
551.34	5769.42
551.51	5537.71
551.68	5181.95
551.84	4990.02
552.01	4959.60
552.18	4524.26
552.34	4503.19
552.51	4191.90
552.68	4102.96
552.84	3889.97
553.01	3794.01
553.18	3653.58
553.34	3449.95
553.51	3370.37
553.67	3337.60
553.84	3297.81
554.01	2892.90
554.17	2899.92
554.34	2544.16
554.51	2457.56
554.67	2429.48
554.84	2286.70
555.00	2193.08
555.17	1949.67
555.33	1952.01
555.50	1767.10
555.67	1757.74
555.83	1589.22
556.00	1624.33
556.16	1694.55
556.33	1638.38
556.50	1423.05
556.66	1404.32
556.83	1364.53
556.99	1313.04
557.16	1345.81
557.32	1296.66
557.49	1203.04
557.65	1165.59
557.82	1036.86
557.98	1078.99
558.15	1111.75
558.32	1135.16
558.48	1071.97
558.65	938.55
558.81	1060.26
558.98	1018.13
559.14	922.17
559.31	1001.75
559.47	976.00
559.64	800.46
559.80	877.70
559.97	835.57
560.13	868.34
560.30	835.57
560.46	870.68
560.63	830.89
560.79	922.17
560.96	924.51
561.12	880.04
561.29	835.57
561.45	880.04
561.61	868.34
561.78	950.26
561.94	842.59
562.11	882.38
562.27	802.80
562.44	795.78
562.60	912.81
562.77	772.38
562.93	814.51
563.10	821.53
563.26	809.83
563.42	755.99
563.59	779.40
563.75	786.42
563.92	905.79
564.08	793.44
564.24	805.14
564.41	800.46
564.57	688.12
564.74	753.65
564.90	681.10
565.07	777.06
565.23	676.41
565.39	638.97
565.56	723.23
565.72	678.76
565.88	692.80
566.05	608.54
566.21	617.90
566.38	713.86
566.54	655.35
566.70	655.35
566.87	702.16
567.03	683.44
567.19	692.80
567.36	690.46
567.52	631.94
567.68	657.69
567.85	732.59
568.01	676.41
568.17	699.82
568.34	662.37
568.50	704.50
568.66	624.92
568.83	746.63
568.99	688.12
569.15	737.27
569.32	636.63
569.48	554.71
569.64	641.31
569.81	550.03
569.97	535.98
570.13	585.13
570.30	496.19
570.46	575.77
570.62	482.15
570.78	559.39
570.95	463.43
571.11	517.26
571.27	603.86
571.43	543.00
571.60	482.15
571.76	528.96
571.92	507.90
572.09	486.83
572.25	517.26
572.41	571.09
572.57	500.87
572.74	575.77
572.90	512.58
573.06	566.41
573.22	557.05
573.38	557.05
573.55	573.43
573.71	566.41
573.87	615.56
574.03	535.98
574.20	566.41
574.36	617.90
574.52	599.18
574.68	557.05
574.84	711.52
575.01	699.82
575.17	711.52
575.33	755.99
575.49	844.93
575.65	854.30
575.82	875.36
575.98	990.05
576.14	1158.57
576.30	2040.95
576.46	6394.34
576.62	13404.25
576.79	16561.63
576.95	11433.52
577.11	7138.63
577.27	4959.60
577.43	3276.75
577.59	2129.89
577.75	1727.32
577.92	1441.77
578.08	1411.34
578.24	1490.92
578.40	2387.35
578.56	6200.08
578.72	12524.21
578.88	14630.69
579.04	10689.23
579.21	7126.93
579.37	5217.05
579.53	3843.16
579.69	3779.97
579.85	4585.11
580.01	5366.85
580.17	5308.34
580.33	4557.02
580.49	3789.33
580.65	3513.14
580.82	3375.05
580.98	3075.46
581.14	3192.49
581.30	3243.98
581.46	3438.25
581.62	3772.94
581.78	3992.95
581.94	4315.95
582.10	4449.36
582.26	4669.37
582.42	5139.82
582.58	5116.41
582.74	5294.29
582.90	5200.67
583.06	5336.42
583.22	5233.44
583.38	5245.14
583.54	5296.63
583.70	5249.82
583.86	5095.35
584.02	5069.60
584.18	4926.83
584.34	4873.00
584.50	4837.89
584.66	4741.93
584.82	4667.03
584.98	4645.96
585.14	4631.92
585.30	4440.00
585.46	4430.63
585.62	4292.54
585.78	4449.36
585.94	4482.13
586.10	4542.98
586.26	4880.02
586.42	5308.34
586.58	6469.24
586.74	7578.65
586.90	9181.92
587.06	10424.75
587.22	10347.51
587.38	9202.99
587.54	8152.09
587.70	6867.13
587.86	5584.52
588.02	4947.89
588.18	4248.07
588.34	3974.23
588.49	3412.50
588.65	3393.78
588.81	3194.83
588.97	3059.08
589.13	2881.20
589.29	2902.26
589.45	2906.95
589.61	2902.26
589.77	2913.97
589.93	2897.58
590.08	2986.52
590.24	3148.02
590.40	3215.90
590.56	3288.45
590.72	3358.67
590.88	3316.54
591.04	3487.40
591.20	3742.52
591.35	3950.82
591.51	3957.85
591.67	4208.28
591.83	4395.53
591.99	4901.08
592.15	5221.74
592.31	5841.98
592.46	6179.01
592.62	6693.93
592.78	7073.10
592.94	7290.77
593.10	7382.05
593.26	7229.91
593.41	6462.22
593.57	5731.97
593.73	5198.33
593.89	4561.70
594.05	3911.04
594.20	3651.24
594.36	3417.18
594.52	3077.80
594.68	2923.33
594.84	2803.96
594.99	2803.96
595.15	2750.13
595.31	2668.21
595.47	2743.11
595.62	2546.50
595.78	2621.40
595.94	2672.89
596.10	2626.08
596.25	2658.85
596.41	2663.53
596.57	2668.21
596.73	2654.17
596.88	2546.50
597.04	2525.44
597.20	2607.36
597.36	2684.59
597.51	2761.83
597.67	2864.82
597.83	3110.57
597.99	3232.28
598.14	3351.65
598.30	3538.89
598.46	3672.30
598.61	4039.76
598.77	3953.16
598.93	4250.41
599.09	4362.76
599.24	4592.13
599.40	4386.16
599.56	4341.69
599.71	4037.42
599.87	4004.66
600.03	3744.86
600.18	3522.51
600.34	3192.49
600.50	2949.08
600.65	2789.92
600.81	2609.70
600.97	2518.42
601.12	2340.54
601.28	2237.55
601.44	2230.53
601.59	2078.40
601.75	2022.22
601.91	1909.88
602.06	1886.47
602.22	1858.39
602.37	1741.36
602.53	1734.34
602.69	1748.38
602.84	1643.06
603.00	1734.34
603.16	1764.76
603.31	1877.11
603.47	1757.74
603.62	1797.53
603.78	1844.34
603.94	1973.07
604.09	1879.45
604.25	1834.98
604.40	2001.16
604.56	2036.27
604.71	2094.78
604.87	2017.54
605.03	2022.22
605.18	2038.61
