SpectraSuite Data File
++++++++++++++++++++++++++++++++++++
Date: Fri Oct 04 11:42:03 GMT-05:00 2013
User: price-jones
Dark Spectrum Present: No
Reference Spectrum Present: No
Number of Sampled Component Spectra: 1
Spectrometers: USB2+H05261
Integration Time (usec): 100000 (USB2+H05261)
Spectra Averaged: 1 (USB2+H05261)
Boxcar Smoothing: 0 (USB2+H05261)
Correct for Electrical Dark: No (USB2+H05261)
Strobe/Lamp Enabled: No (USB2+H05261)
Correct for Detector Non-linearity: No (USB2+H05261)
Correct for Stray Light: No (USB2+H05261)
Number of Pixels in Processed Spectrum: 2048
>>>>>Begin Processed Spectral Data<<<<<
365.73	42.13
365.92	42.13
366.12	42.13
366.32	0.00
366.52	0.00
366.72	0.00
366.91	0.00
367.11	0.00
367.31	0.00
367.51	0.00
367.70	0.00
367.90	0.00
368.10	0.00
368.30	0.00
368.49	0.00
368.69	0.00
368.89	0.00
369.09	32.77
369.28	0.00
369.48	0.00
369.68	0.00
369.87	0.00
370.07	14.04
370.27	32.77
370.47	0.00
370.66	37.45
370.86	0.00
371.06	77.24
371.25	51.49
371.45	44.47
371.65	133.41
371.84	28.09
372.04	0.00
372.24	79.58
372.44	42.13
372.63	58.51
372.83	107.66
373.03	128.73
373.22	49.15
373.42	72.56
373.62	95.96
373.81	140.43
374.01	166.18
374.21	121.71
374.40	128.73
374.60	152.13
374.79	100.64
374.99	126.39
375.19	105.32
375.38	149.79
375.58	88.94
375.78	170.86
375.97	194.26
376.17	159.16
376.37	124.05
376.56	74.90
376.76	133.41
376.95	105.32
377.15	184.90
377.35	138.09
377.54	81.92
377.74	46.81
377.93	37.45
378.13	149.79
378.33	152.13
378.52	121.71
378.72	135.75
378.91	79.58
379.11	117.03
379.31	119.37
379.50	53.83
379.70	107.66
379.89	88.94
380.09	156.82
380.28	107.66
380.48	140.43
380.68	124.05
380.87	98.30
381.07	191.92
381.26	100.64
381.46	161.50
381.65	145.11
381.85	105.32
382.04	152.13
382.24	159.16
382.43	147.45
382.63	133.41
382.83	16.38
383.02	98.30
383.22	147.45
383.41	79.58
383.61	93.62
383.80	53.83
384.00	86.60
384.19	91.28
384.39	163.84
384.58	53.83
384.78	227.03
384.97	135.75
385.17	9.36
385.36	126.39
385.56	161.50
385.75	128.73
385.95	119.37
386.14	95.96
386.34	126.39
386.53	53.83
386.72	70.22
386.92	112.35
387.11	84.26
387.31	168.52
387.50	166.18
387.70	88.94
387.89	124.05
388.09	128.73
388.28	100.64
388.48	114.69
388.67	95.96
388.86	142.77
389.06	72.56
389.25	138.09
389.45	107.66
389.64	145.11
389.84	133.41
390.03	81.92
390.22	107.66
390.42	131.07
390.61	128.73
390.81	110.01
391.00	79.58
391.19	170.86
391.39	138.09
391.58	114.69
391.78	86.60
391.97	107.66
392.16	102.98
392.36	88.94
392.55	135.75
392.75	56.17
392.94	91.28
393.13	100.64
393.33	88.94
393.52	77.24
393.71	191.92
393.91	112.35
394.10	117.03
394.29	133.41
394.49	119.37
394.68	102.98
394.88	161.50
395.07	175.54
395.26	140.43
395.46	102.98
395.65	67.88
395.84	128.73
396.04	187.24
396.23	100.64
396.42	93.62
396.62	173.20
396.81	154.48
397.00	107.66
397.19	49.15
397.39	152.13
397.58	95.96
397.77	110.01
397.97	142.77
398.16	121.71
398.35	91.28
398.55	102.98
398.74	102.98
398.93	180.22
399.12	145.11
399.32	196.60
399.51	105.32
399.70	102.98
399.90	91.28
400.09	154.48
400.28	224.69
400.47	149.79
400.67	156.82
400.86	163.84
401.05	161.50
401.24	147.45
401.44	145.11
401.63	98.30
401.82	133.41
402.01	147.45
402.21	119.37
402.40	154.48
402.59	74.90
402.78	114.69
402.97	79.58
403.17	170.86
403.36	126.39
403.55	147.45
403.74	187.24
403.93	159.16
404.13	241.08
404.32	236.39
404.51	173.20
404.70	236.39
404.89	102.98
405.09	70.22
405.28	133.41
405.47	79.58
405.66	149.79
405.85	105.32
406.05	86.60
406.24	142.77
406.43	91.28
406.62	121.71
406.81	163.84
407.00	198.95
407.20	154.48
407.39	133.41
407.58	166.18
407.77	177.88
407.96	159.16
408.15	189.58
408.34	126.39
408.54	145.11
408.73	142.77
408.92	135.75
409.11	119.37
409.30	161.50
409.49	135.75
409.68	70.22
409.87	135.75
410.07	182.56
410.26	126.39
410.45	161.50
410.64	102.98
410.83	159.16
411.02	88.94
411.21	140.43
411.40	252.78
411.59	159.16
411.78	138.09
411.98	152.13
412.17	168.52
412.36	86.60
412.55	224.69
412.74	91.28
412.93	187.24
413.12	159.16
413.31	168.52
413.50	159.16
413.69	159.16
413.88	173.20
414.07	121.71
414.26	152.13
414.45	138.09
414.64	117.03
414.83	135.75
415.02	182.56
415.22	121.71
415.41	189.58
415.60	121.71
415.79	170.86
415.98	205.97
416.17	84.26
416.36	149.79
416.55	168.52
416.74	191.92
416.93	152.13
417.12	84.26
417.31	175.54
417.50	189.58
417.69	117.03
417.88	93.62
418.07	107.66
418.26	205.97
418.45	117.03
418.64	119.37
418.83	119.37
419.02	105.32
419.21	112.35
419.39	159.16
419.58	60.85
419.77	149.79
419.96	121.71
420.15	91.28
420.34	131.07
420.53	145.11
420.72	175.54
420.91	119.37
421.10	142.77
421.29	124.05
421.48	128.73
421.67	124.05
421.86	88.94
422.05	128.73
422.24	93.62
422.43	187.24
422.61	128.73
422.80	156.82
422.99	84.26
423.18	187.24
423.37	187.24
423.56	142.77
423.75	128.73
423.94	121.71
424.13	117.03
424.32	154.48
424.50	142.77
424.69	156.82
424.88	191.92
425.07	91.28
425.26	220.01
425.45	184.90
425.64	91.28
425.83	196.60
426.01	114.69
426.20	142.77
426.39	93.62
426.58	65.54
426.77	227.03
426.96	184.90
427.15	175.54
427.33	112.35
427.52	56.17
427.71	145.11
427.90	105.32
428.09	138.09
428.28	124.05
428.46	117.03
428.65	229.37
428.84	98.30
429.03	168.52
429.22	114.69
429.40	163.84
429.59	121.71
429.78	166.18
429.97	126.39
430.16	131.07
430.34	126.39
430.53	121.71
430.72	138.09
430.91	138.09
431.10	119.37
431.28	114.69
431.47	159.16
431.66	198.95
431.85	126.39
432.03	149.79
432.22	196.60
432.41	173.20
432.60	135.75
432.79	182.56
432.97	156.82
433.16	149.79
433.35	154.48
433.54	147.45
433.72	149.79
433.91	154.48
434.10	140.43
434.28	205.97
434.47	142.77
434.66	149.79
434.85	212.99
435.03	262.14
435.22	559.39
435.41	922.17
435.59	933.87
435.78	709.18
435.97	449.38
436.16	262.14
436.34	201.29
436.53	166.18
436.72	154.48
436.90	124.05
437.09	177.88
437.28	159.16
437.46	175.54
437.65	105.32
437.84	159.16
438.02	203.63
438.21	145.11
438.40	140.43
438.58	110.01
438.77	175.54
438.96	180.22
439.14	86.60
439.33	198.95
439.52	138.09
439.70	126.39
439.89	91.28
440.08	142.77
440.26	163.84
440.45	154.48
440.63	117.03
440.82	168.52
441.01	138.09
441.19	184.90
441.38	131.07
441.57	161.50
441.75	189.58
441.94	245.76
442.12	152.13
442.31	168.52
442.50	175.54
442.68	149.79
442.87	126.39
443.05	133.41
443.24	163.84
443.43	128.73
443.61	168.52
443.80	173.20
443.98	217.67
444.17	159.16
444.35	180.22
444.54	170.86
444.73	140.43
444.91	175.54
445.10	189.58
445.28	145.11
445.47	191.92
445.65	138.09
445.84	154.48
446.02	142.77
446.21	145.11
446.39	168.52
446.58	170.86
446.77	46.81
446.95	194.26
447.14	126.39
447.32	88.94
447.51	140.43
447.69	9.36
447.88	126.39
448.06	222.35
448.25	184.90
448.43	208.31
448.62	222.35
448.80	152.13
448.99	163.84
449.17	163.84
449.36	198.95
449.54	189.58
449.73	124.05
449.91	177.88
450.10	201.29
450.28	187.24
450.46	184.90
450.65	170.86
450.83	175.54
451.02	159.16
451.20	184.90
451.39	110.01
451.57	140.43
451.76	194.26
451.94	180.22
452.13	173.20
452.31	180.22
452.49	161.50
452.68	126.39
452.86	241.08
453.05	250.44
453.23	215.33
453.42	105.32
453.60	161.50
453.78	203.63
453.97	159.16
454.15	161.50
454.34	159.16
454.52	189.58
454.70	142.77
454.89	191.92
455.07	184.90
455.26	236.39
455.44	173.20
455.62	147.45
455.81	175.54
455.99	194.26
456.17	156.82
456.36	227.03
456.54	161.50
456.73	205.97
456.91	201.29
457.09	194.26
457.28	234.05
457.46	182.56
457.64	177.88
457.83	198.95
458.01	173.20
458.19	138.09
458.38	177.88
458.56	182.56
458.74	149.79
458.93	145.11
459.11	175.54
459.29	149.79
459.48	131.07
459.66	145.11
459.84	177.88
460.03	271.50
460.21	194.26
460.39	203.63
460.57	159.16
460.76	114.69
460.94	147.45
461.12	210.65
461.31	191.92
461.49	145.11
461.67	203.63
461.85	203.63
462.04	142.77
462.22	580.45
462.40	241.08
462.59	163.84
462.77	184.90
462.95	182.56
463.13	128.73
463.32	306.61
463.50	159.16
463.68	222.35
463.86	156.82
464.05	220.01
464.23	182.56
464.41	182.56
464.59	212.99
464.78	184.90
464.96	154.48
465.14	119.37
465.32	147.45
465.50	215.33
465.69	161.50
465.87	105.32
466.05	210.65
466.23	224.69
466.41	189.58
466.60	156.82
466.78	163.84
466.96	217.67
467.14	145.11
467.32	182.56
467.51	208.31
467.69	128.73
467.87	159.16
468.05	205.97
468.23	182.56
468.41	191.92
468.60	205.97
468.78	168.52
468.96	292.57
469.14	119.37
469.32	187.24
469.50	102.98
469.69	93.62
469.87	154.48
470.05	121.71
470.23	203.63
470.41	133.41
470.59	84.26
470.77	149.79
470.95	121.71
471.14	180.22
471.32	187.24
471.50	238.73
471.68	170.86
471.86	220.01
472.04	177.88
472.22	149.79
472.40	203.63
472.58	149.79
472.77	163.84
472.95	107.66
473.13	210.65
473.31	112.35
473.49	159.16
473.67	187.24
473.85	196.60
474.03	252.78
474.21	182.56
474.39	140.43
474.57	220.01
474.75	196.60
474.93	163.84
475.12	140.43
475.30	168.52
475.48	182.56
475.66	161.50
475.84	170.86
476.02	128.73
476.20	248.10
476.38	170.86
476.56	255.12
476.74	198.95
476.92	133.41
477.10	220.01
477.28	252.78
477.46	189.58
477.64	175.54
477.82	201.29
478.00	72.56
478.18	180.22
478.36	142.77
478.54	145.11
478.72	95.96
478.90	203.63
479.08	175.54
479.26	203.63
479.44	231.71
479.62	177.88
479.80	215.33
479.98	217.67
480.16	86.60
480.34	255.12
480.52	198.95
480.70	229.37
480.88	208.31
481.06	208.31
481.24	145.11
481.41	210.65
481.59	241.08
481.77	241.08
481.95	259.80
482.13	259.80
482.31	152.13
482.49	159.16
482.67	173.20
482.85	266.82
483.03	229.37
483.21	243.42
483.39	210.65
483.57	203.63
483.74	259.80
483.92	189.58
484.10	208.31
484.28	304.27
484.46	330.02
484.64	278.52
484.82	248.10
485.00	271.50
485.18	315.97
485.35	285.55
485.53	241.08
485.71	236.39
485.89	311.29
486.07	248.10
486.25	248.10
486.43	236.39
486.61	259.80
486.78	250.44
486.96	322.99
487.14	318.31
487.32	287.89
487.50	210.65
487.68	327.68
487.85	229.37
488.03	290.23
488.21	306.61
488.39	280.86
488.57	313.63
488.75	264.48
488.92	571.09
489.10	306.61
489.28	388.53
489.46	280.86
489.64	285.55
489.81	341.72
489.99	248.10
490.17	294.91
490.35	381.51
490.53	266.82
490.70	273.84
490.88	245.76
491.06	320.65
491.24	273.84
491.41	245.76
491.59	320.65
491.77	283.20
491.95	252.78
492.13	311.29
492.30	238.73
492.48	243.42
492.66	259.80
492.84	285.55
493.01	292.57
493.19	278.52
493.37	308.95
493.54	259.80
493.72	217.67
493.90	170.86
494.08	315.97
494.25	269.16
494.43	241.08
494.61	236.39
494.79	320.65
494.96	234.05
495.14	304.27
495.32	283.20
495.49	278.52
495.67	262.14
495.85	276.18
496.02	212.99
496.20	273.84
496.38	224.69
496.55	259.80
496.73	301.93
496.91	248.10
497.09	236.39
497.26	292.57
497.44	276.18
497.62	280.86
497.79	227.03
497.97	236.39
498.14	201.29
498.32	262.14
498.50	271.50
498.67	229.37
498.85	257.46
499.03	257.46
499.20	196.60
499.38	191.92
499.56	212.99
499.73	287.89
499.91	259.80
500.08	238.73
500.26	212.99
500.44	159.16
500.61	224.69
500.79	198.95
500.97	250.44
501.14	224.69
501.32	245.76
501.49	198.95
501.67	276.18
501.84	229.37
502.02	145.11
502.20	259.80
502.37	243.42
502.55	173.20
502.72	287.89
502.90	173.20
503.07	362.78
503.25	222.35
503.43	191.92
503.60	250.44
503.78	217.67
503.95	283.20
504.13	205.97
504.30	273.84
504.48	264.48
504.65	231.71
504.83	215.33
505.01	180.22
505.18	227.03
505.36	238.73
505.53	234.05
505.71	236.39
505.88	369.80
506.06	203.63
506.23	231.71
506.41	241.08
506.58	238.73
506.76	229.37
506.93	220.01
507.11	250.44
507.28	212.99
507.46	245.76
507.63	238.73
507.81	140.43
507.98	248.10
508.16	245.76
508.33	224.69
508.50	234.05
508.68	203.63
508.85	208.31
509.03	222.35
509.20	222.35
509.38	269.16
509.55	241.08
509.73	257.46
509.90	170.86
510.08	234.05
510.25	269.16
510.42	170.86
510.60	229.37
510.77	248.10
510.95	266.82
511.12	198.95
511.30	238.73
511.47	189.58
511.64	229.37
511.82	224.69
511.99	255.12
512.17	184.90
512.34	145.11
512.51	194.26
512.69	194.26
512.86	250.44
513.04	205.97
513.21	180.22
513.38	140.43
513.56	273.84
513.73	203.63
513.90	196.60
514.08	112.35
514.25	231.71
514.43	252.78
514.60	255.12
514.77	229.37
514.95	250.44
515.12	175.54
515.29	294.91
515.47	252.78
515.64	262.14
515.81	227.03
515.99	264.48
516.16	250.44
516.33	285.55
516.51	182.56
516.68	156.82
516.85	252.78
517.03	189.58
517.20	168.52
517.37	287.89
517.54	140.43
517.72	145.11
517.89	227.03
518.06	191.92
518.24	278.52
518.41	257.46
518.58	266.82
518.75	196.60
518.93	259.80
519.10	180.22
519.27	308.95
519.45	217.67
519.62	250.44
519.79	180.22
519.96	283.20
520.14	325.33
520.31	248.10
520.48	205.97
520.65	283.20
520.83	266.82
521.00	262.14
521.17	273.84
521.34	236.39
521.52	259.80
521.69	175.54
521.86	243.42
522.03	243.42
522.20	276.18
522.38	191.92
522.55	217.67
522.72	175.54
522.89	259.80
523.07	290.23
523.24	262.14
523.41	168.52
523.58	194.26
523.75	224.69
523.92	175.54
524.10	297.25
524.27	175.54
524.44	234.05
524.61	166.18
524.78	140.43
524.96	208.31
525.13	269.16
525.30	250.44
525.47	194.26
525.64	184.90
525.81	212.99
525.98	217.67
526.16	294.91
526.33	264.48
526.50	194.26
526.67	128.73
526.84	191.92
527.01	187.24
527.18	334.70
527.36	299.59
527.53	222.35
527.70	283.20
527.87	212.99
528.04	203.63
528.21	154.48
528.38	266.82
528.55	292.57
528.72	285.55
528.89	327.68
529.07	231.71
529.24	238.73
529.41	290.23
529.58	245.76
529.75	222.35
529.92	280.86
530.09	217.67
530.26	210.65
530.43	257.46
530.60	294.91
530.77	294.91
530.94	212.99
531.11	243.42
531.28	189.58
531.46	231.71
531.63	250.44
531.80	252.78
531.97	280.86
532.14	177.88
532.31	276.18
532.48	287.89
532.65	220.01
532.82	259.80
532.99	301.93
533.16	304.27
533.33	259.80
533.50	285.55
533.67	271.50
533.84	334.70
534.01	280.86
534.18	306.61
534.35	257.46
534.52	297.25
534.69	283.20
534.86	271.50
535.03	285.55
535.20	278.52
535.37	341.72
535.54	236.39
535.71	330.02
535.88	322.99
536.05	292.57
536.22	229.37
536.38	234.05
536.55	301.93
536.72	320.65
536.89	301.93
537.06	301.93
537.23	411.93
537.40	360.44
537.57	313.63
537.74	393.21
537.91	367.46
538.08	379.17
538.25	379.17
538.42	337.04
538.59	306.61
538.75	381.51
538.92	409.59
539.09	367.46
539.26	353.42
539.43	568.75
539.60	582.79
539.77	528.96
539.94	528.96
540.11	503.22
540.28	683.44
540.44	770.04
540.61	578.11
540.78	711.52
540.95	774.72
541.12	936.21
541.29	1015.79
541.46	1041.54
541.62	1093.03
541.79	1107.07
541.96	1032.18
542.13	985.37
542.30	1006.43
542.47	994.73
542.63	947.92
542.80	896.43
542.97	947.92
543.14	924.51
543.31	983.02
543.48	933.87
543.64	964.30
543.81	983.02
543.98	884.72
544.15	961.96
544.32	908.13
544.48	919.83
544.65	851.96
544.82	858.98
544.99	938.55
545.16	861.32
545.32	896.43
545.49	1509.65
545.66	2228.19
545.83	2672.89
546.00	2265.64
546.16	1638.38
546.33	1247.51
546.50	938.55
546.67	880.04
546.83	741.95
547.00	748.97
547.17	655.35
547.34	688.12
547.50	610.88
547.67	638.97
547.84	685.78
548.00	594.50
548.17	610.88
548.34	580.45
548.51	620.24
548.67	653.01
548.84	622.58
549.01	545.34
549.18	566.41
549.34	535.98
549.51	622.58
549.68	526.62
549.84	521.94
550.01	447.04
550.18	521.94
550.34	519.60
550.51	468.11
550.68	447.04
550.84	440.02
551.01	465.77
551.18	491.51
551.34	472.79
551.51	393.21
551.68	418.96
551.84	395.55
552.01	353.42
552.18	411.93
552.34	397.89
552.51	400.23
552.68	318.31
552.84	428.32
553.01	304.27
553.18	362.78
553.34	346.40
553.51	372.15
553.67	332.36
553.84	397.89
554.01	327.68
554.17	320.65
554.34	327.68
554.51	339.38
554.67	299.59
554.84	320.65
555.00	325.33
555.17	245.76
555.33	304.27
555.50	266.82
555.67	227.03
555.83	330.02
556.00	255.12
556.16	425.98
556.33	313.63
556.50	227.03
556.66	159.16
556.83	278.52
556.99	297.25
557.16	243.42
557.32	283.20
557.49	220.01
557.65	301.93
557.82	280.86
557.98	149.79
558.15	152.13
558.32	306.61
558.48	238.73
558.65	250.44
558.81	259.80
558.98	252.78
559.14	337.04
559.31	208.31
559.47	248.10
559.64	271.50
559.80	306.61
559.97	297.25
560.13	222.35
560.30	198.95
560.46	283.20
560.63	201.29
560.79	248.10
560.96	311.29
561.12	166.18
561.29	236.39
561.45	201.29
561.61	163.84
561.78	252.78
561.94	297.25
562.11	224.69
562.27	201.29
562.44	198.95
562.60	245.76
562.77	238.73
562.93	369.80
563.10	236.39
563.26	294.91
563.42	304.27
563.59	269.16
563.75	269.16
563.92	269.16
564.08	208.31
564.24	304.27
564.41	266.82
564.57	212.99
564.74	290.23
564.90	189.58
565.07	285.55
565.23	299.59
565.39	224.69
565.56	180.22
565.72	264.48
565.88	170.86
566.05	280.86
566.21	224.69
566.38	318.31
566.54	217.67
566.70	210.65
566.87	241.08
567.03	215.33
567.19	255.12
567.36	278.52
567.52	304.27
567.68	138.09
567.85	175.54
568.01	259.80
568.17	250.44
568.34	259.80
568.50	271.50
568.66	224.69
568.83	283.20
568.99	236.39
569.15	269.16
569.32	271.50
569.48	241.08
569.64	98.30
569.81	224.69
569.97	264.48
570.13	255.12
570.30	248.10
570.46	269.16
570.62	269.16
570.78	255.12
570.95	259.80
571.11	313.63
571.27	283.20
571.43	217.67
571.60	280.86
571.76	222.35
571.92	220.01
572.09	238.73
572.25	170.86
572.41	262.14
572.57	196.60
572.74	234.05
572.90	203.63
573.06	208.31
573.22	311.29
573.38	266.82
573.55	273.84
573.71	283.20
573.87	271.50
574.03	231.71
574.20	212.99
574.36	212.99
574.52	245.76
574.68	177.88
574.84	227.03
575.01	234.05
575.17	294.91
575.33	224.69
575.49	238.73
575.65	257.46
575.82	287.89
575.98	250.44
576.14	372.15
576.30	348.74
576.46	535.98
576.62	585.13
576.79	660.03
576.95	500.87
577.11	379.17
577.27	367.46
577.43	280.86
577.59	264.48
577.75	304.27
577.92	257.46
578.08	229.37
578.24	259.80
578.40	318.31
578.56	531.30
578.72	634.29
578.88	643.65
579.04	418.96
579.21	414.27
579.37	393.21
579.53	337.04
579.69	369.80
579.85	386.19
580.01	393.21
580.17	411.93
580.33	285.55
580.49	337.04
580.65	351.08
580.82	271.50
580.98	334.70
581.14	327.68
581.30	348.74
581.46	301.93
581.62	374.49
581.78	337.04
581.94	407.25
582.10	404.91
582.26	355.76
582.42	379.17
582.58	409.59
582.74	425.98
582.90	390.87
583.06	327.68
583.22	344.06
583.38	397.89
583.54	348.74
583.70	437.68
583.86	325.33
584.02	376.83
584.18	418.96
584.34	376.83
584.50	374.49
584.66	360.44
584.82	404.91
584.98	400.23
585.14	374.49
585.30	404.91
585.46	369.80
585.62	358.10
585.78	332.36
585.94	346.40
586.10	325.33
586.26	318.31
586.42	390.87
586.58	496.19
586.74	461.09
586.90	519.60
587.06	557.05
587.22	561.73
587.38	458.74
587.54	444.70
587.70	393.21
587.86	383.85
588.02	353.42
588.18	325.33
588.34	372.15
588.49	257.46
588.65	290.23
588.81	304.27
588.97	271.50
589.13	220.01
589.29	311.29
589.45	322.99
589.61	301.93
589.77	315.97
589.93	327.68
590.08	334.70
590.24	262.14
590.40	283.20
590.56	327.68
590.72	301.93
590.88	351.08
591.04	353.42
591.20	348.74
591.35	376.83
591.51	341.72
591.67	390.87
591.83	344.06
591.99	386.19
592.15	416.62
592.31	458.74
592.46	393.21
592.62	447.04
592.78	374.49
592.94	404.91
593.10	337.04
593.26	425.98
593.41	367.46
593.57	388.53
593.73	301.93
593.89	360.44
594.05	313.63
594.20	360.44
594.36	414.27
594.52	250.44
594.68	322.99
594.84	264.48
594.99	327.68
595.15	290.23
595.31	374.49
595.47	287.89
595.62	271.50
595.78	276.18
595.94	238.73
596.10	360.44
596.25	283.20
596.41	299.59
596.57	285.55
596.73	311.29
596.88	287.89
597.04	330.02
597.20	222.35
597.36	346.40
597.51	234.05
597.67	243.42
597.83	276.18
597.99	313.63
598.14	269.16
598.30	304.27
598.46	362.78
598.61	388.53
598.77	294.91
598.93	341.72
599.09	372.15
599.24	360.44
599.40	292.57
599.56	369.80
599.71	297.25
599.87	231.71
600.03	360.44
600.18	306.61
600.34	400.23
600.50	231.71
600.65	278.52
600.81	308.95
600.97	257.46
601.12	311.29
601.28	339.38
601.44	287.89
601.59	337.04
601.75	212.99
601.91	273.84
602.06	212.99
602.22	318.31
602.37	257.46
602.53	248.10
602.69	257.46
602.84	224.69
603.00	285.55
603.16	198.95
603.31	189.58
603.47	308.95
603.62	234.05
603.78	250.44
603.94	332.36
604.09	257.46
604.25	217.67
604.40	262.14
604.56	262.14
604.71	320.65
604.87	173.20
605.03	266.82
605.18	287.89
605.34	297.25
605.49	332.36
605.65	222.35
605.80	252.78
605.96	266.82
606.12	372.15
606.27	322.99
606.43	278.52
606.58	273.84
606.74	250.44
606.89	250.44
607.05	322.99
607.20	332.36
607.36	266.82
607.51	259.80
607.67	376.83
607.82	308.95
607.98	409.59
608.13	386.19
608.29	283.20
608.44	383.85
608.60	395.55
608.75	351.08
608.91	418.96
609.06	468.11
609.22	449.38
609.37	500.87
609.53	547.69
609.68	615.56
609.84	648.33
609.99	613.22
610.15	875.36
610.30	950.26
610.46	1263.89
610.61	1579.86
610.76	1863.07
610.92	2188.40
611.07	2387.35
611.23	2471.61
611.38	2270.32
