SpectraSuite Data File
++++++++++++++++++++++++++++++++++++
Date: Fri Oct 04 11:42:26 GMT-05:00 2013
User: price-jones
Dark Spectrum Present: No
Reference Spectrum Present: No
Number of Sampled Component Spectra: 1
Spectrometers: USB2+H05261
Integration Time (usec): 100000 (USB2+H05261)
Spectra Averaged: 1 (USB2+H05261)
Boxcar Smoothing: 0 (USB2+H05261)
Correct for Electrical Dark: No (USB2+H05261)
Strobe/Lamp Enabled: No (USB2+H05261)
Correct for Detector Non-linearity: No (USB2+H05261)
Correct for Stray Light: No (USB2+H05261)
Number of Pixels in Processed Spectrum: 2048
>>>>>Begin Processed Spectral Data<<<<<
365.73	28.09
365.92	28.09
366.12	28.09
366.32	0.00
366.52	0.00
366.72	0.00
366.91	0.00
367.11	0.00
367.31	0.00
367.51	14.04
367.70	0.00
367.90	0.00
368.10	0.00
368.30	0.00
368.49	0.00
368.69	35.11
368.89	0.00
369.09	0.00
369.28	0.00
369.48	0.00
369.68	0.00
369.87	37.45
370.07	0.00
370.27	93.62
370.47	11.70
370.66	0.00
370.86	56.17
371.06	65.54
371.25	156.82
371.45	79.58
371.65	16.38
371.84	30.43
372.04	11.70
372.24	95.96
372.44	100.64
372.63	131.07
372.83	140.43
373.03	91.28
373.22	86.60
373.42	88.94
373.62	88.94
373.81	170.86
374.01	177.88
374.21	154.48
374.40	133.41
374.60	149.79
374.79	98.30
374.99	117.03
375.19	177.88
375.38	168.52
375.58	107.66
375.78	110.01
375.97	131.07
376.17	140.43
376.37	102.98
376.56	131.07
376.76	133.41
376.95	23.41
377.15	102.98
377.35	182.56
377.54	112.35
377.74	119.37
377.93	70.22
378.13	107.66
378.33	156.82
378.52	149.79
378.72	154.48
378.91	168.52
379.11	84.26
379.31	79.58
379.50	65.54
379.70	154.48
379.89	112.35
380.09	58.51
380.28	88.94
380.48	124.05
380.68	84.26
380.87	32.77
381.07	86.60
381.26	147.45
381.46	77.24
381.65	107.66
381.85	91.28
382.04	70.22
382.24	102.98
382.43	142.77
382.63	128.73
382.83	91.28
383.02	102.98
383.22	154.48
383.41	58.51
383.61	79.58
383.80	163.84
384.00	177.88
384.19	81.92
384.39	110.01
384.58	49.15
384.78	107.66
384.97	163.84
385.17	67.88
385.36	81.92
385.56	67.88
385.75	152.13
385.95	67.88
386.14	159.16
386.34	145.11
386.53	147.45
386.72	126.39
386.92	81.92
387.11	154.48
387.31	65.54
387.50	135.75
387.70	133.41
387.89	184.90
388.09	79.58
388.28	84.26
388.48	131.07
388.67	175.54
388.86	117.03
389.06	114.69
389.25	77.24
389.45	138.09
389.64	114.69
389.84	107.66
390.03	191.92
390.22	124.05
390.42	175.54
390.61	138.09
390.81	93.62
391.00	88.94
391.19	105.32
391.39	119.37
391.58	163.84
391.78	84.26
391.97	114.69
392.16	140.43
392.36	98.30
392.55	161.50
392.75	159.16
392.94	79.58
393.13	159.16
393.33	56.17
393.52	42.13
393.71	112.35
393.91	189.58
394.10	79.58
394.29	119.37
394.49	42.13
394.68	224.69
394.88	205.97
395.07	91.28
395.26	114.69
395.46	119.37
395.65	88.94
395.84	128.73
396.04	205.97
396.23	100.64
396.42	42.13
396.62	77.24
396.81	46.81
397.00	67.88
397.19	39.79
397.39	156.82
397.58	107.66
397.77	88.94
397.97	107.66
398.16	147.45
398.35	100.64
398.55	145.11
398.74	112.35
398.93	175.54
399.12	107.66
399.32	147.45
399.51	159.16
399.70	147.45
399.90	112.35
400.09	133.41
400.28	77.24
400.47	84.26
400.67	156.82
400.86	173.20
401.05	107.66
401.24	156.82
401.44	145.11
401.63	119.37
401.82	161.50
402.01	128.73
402.21	119.37
402.40	154.48
402.59	100.64
402.78	98.30
402.97	77.24
403.17	159.16
403.36	112.35
403.55	205.97
403.74	145.11
403.93	498.53
404.13	767.70
404.32	833.23
404.51	697.48
404.70	528.96
404.89	236.39
405.09	124.05
405.28	84.26
405.47	135.75
405.66	133.41
405.85	131.07
406.05	156.82
406.24	166.18
406.43	154.48
406.62	131.07
406.81	173.20
407.00	205.97
407.20	196.60
407.39	222.35
407.58	243.42
407.77	241.08
407.96	142.77
408.15	105.32
408.34	91.28
408.54	110.01
408.73	128.73
408.92	145.11
409.11	117.03
409.30	163.84
409.49	145.11
409.68	175.54
409.87	173.20
410.07	168.52
410.26	175.54
410.45	142.77
410.64	166.18
410.83	98.30
411.02	65.54
411.21	131.07
411.40	112.35
411.59	128.73
411.78	112.35
411.98	110.01
412.17	128.73
412.36	140.43
412.55	154.48
412.74	229.37
412.93	138.09
413.12	138.09
413.31	145.11
413.50	245.76
413.69	159.16
413.88	145.11
414.07	140.43
414.26	131.07
414.45	126.39
414.64	217.67
414.83	152.13
415.02	145.11
415.22	182.56
415.41	154.48
415.60	159.16
415.79	91.28
415.98	156.82
416.17	177.88
416.36	177.88
416.55	142.77
416.74	110.01
416.93	234.05
417.12	168.52
417.31	182.56
417.50	124.05
417.69	198.95
417.88	142.77
418.07	67.88
418.26	203.63
418.45	142.77
418.64	175.54
418.83	201.29
419.02	88.94
419.21	170.86
419.39	184.90
419.58	74.90
419.77	133.41
419.96	100.64
420.15	191.92
420.34	163.84
420.53	142.77
420.72	102.98
420.91	161.50
421.10	212.99
421.29	180.22
421.48	187.24
421.67	93.62
421.86	166.18
422.05	173.20
422.24	121.71
422.43	135.75
422.61	86.60
422.80	112.35
422.99	124.05
423.18	138.09
423.37	170.86
423.56	203.63
423.75	198.95
423.94	156.82
424.13	159.16
424.32	163.84
424.50	191.92
424.69	173.20
424.88	147.45
425.07	98.30
425.26	208.31
425.45	166.18
425.64	149.79
425.83	126.39
426.01	117.03
426.20	147.45
426.39	142.77
426.58	175.54
426.77	278.52
426.96	177.88
427.15	168.52
427.33	105.32
427.52	234.05
427.71	208.31
427.90	159.16
428.09	152.13
428.28	117.03
428.46	177.88
428.65	128.73
428.84	170.86
429.03	114.69
429.22	133.41
429.40	154.48
429.59	161.50
429.78	264.48
429.97	182.56
430.16	161.50
430.34	131.07
430.53	170.86
430.72	159.16
430.91	154.48
431.10	189.58
431.28	163.84
431.47	245.76
431.66	229.37
431.85	149.79
432.03	196.60
432.22	196.60
432.41	168.52
432.60	126.39
432.79	149.79
432.97	152.13
433.16	222.35
433.35	170.86
433.54	252.78
433.72	201.29
433.91	224.69
434.10	135.75
434.28	292.57
434.47	145.11
434.66	280.86
434.85	346.40
435.03	688.12
435.22	1996.48
435.41	3272.07
435.59	3133.98
435.78	2050.31
435.97	1135.16
436.16	458.74
436.34	283.20
436.53	222.35
436.72	224.69
436.90	191.92
437.09	107.66
437.28	227.03
437.46	259.80
437.65	224.69
437.84	243.42
438.02	304.27
438.21	220.01
438.40	182.56
438.58	175.54
438.77	196.60
438.96	203.63
439.14	205.97
439.33	168.52
439.52	198.95
439.70	175.54
439.89	145.11
440.08	147.45
440.26	205.97
440.45	217.67
440.63	203.63
440.82	229.37
441.01	159.16
441.19	217.67
441.38	208.31
441.57	175.54
441.75	255.12
441.94	234.05
442.12	191.92
442.31	203.63
442.50	166.18
442.68	180.22
442.87	245.76
443.05	152.13
443.24	191.92
443.43	234.05
443.61	245.76
443.80	140.43
443.98	220.01
444.17	227.03
444.35	227.03
444.54	145.11
444.73	198.95
444.91	156.82
445.10	262.14
445.28	196.60
445.47	170.86
445.65	196.60
445.84	152.13
446.02	220.01
446.21	147.45
446.39	145.11
446.58	227.03
446.77	147.45
446.95	156.82
447.14	191.92
447.32	269.16
447.51	208.31
447.69	163.84
447.88	220.01
448.06	234.05
448.25	168.52
448.43	264.48
448.62	145.11
448.80	243.42
448.99	170.86
449.17	245.76
449.36	163.84
449.54	257.46
449.73	187.24
449.91	227.03
450.10	191.92
450.28	273.84
450.46	184.90
450.65	217.67
450.83	234.05
451.02	231.71
451.20	194.26
451.39	227.03
451.57	189.58
451.76	198.95
451.94	252.78
452.13	126.39
452.31	189.58
452.49	184.90
452.68	201.29
452.86	196.60
453.05	257.46
453.23	227.03
453.42	198.95
453.60	203.63
453.78	194.26
453.97	173.20
454.15	220.01
454.34	142.77
454.52	212.99
454.70	241.08
454.89	229.37
455.07	163.84
455.26	128.73
455.44	252.78
455.62	161.50
455.81	205.97
455.99	205.97
456.17	236.39
456.36	142.77
456.54	142.77
456.73	212.99
456.91	236.39
457.09	187.24
457.28	222.35
457.46	168.52
457.64	294.91
457.83	152.13
458.01	163.84
458.19	201.29
458.38	257.46
458.56	187.24
458.74	154.48
458.93	194.26
459.11	182.56
459.29	215.33
459.48	269.16
459.66	187.24
459.84	191.92
460.03	266.82
460.21	241.08
460.39	189.58
460.57	238.73
460.76	184.90
460.94	159.16
461.12	184.90
461.31	203.63
461.49	84.26
461.67	191.92
461.85	201.29
462.04	114.69
462.22	334.70
462.40	224.69
462.59	222.35
462.77	191.92
462.95	276.18
463.13	163.84
463.32	203.63
463.50	156.82
463.68	208.31
463.86	121.71
464.05	194.26
464.23	304.27
464.41	227.03
464.59	184.90
464.78	187.24
464.96	145.11
465.14	236.39
465.32	182.56
465.50	280.86
465.69	255.12
465.87	170.86
466.05	229.37
466.23	236.39
466.41	187.24
466.60	182.56
466.78	203.63
466.96	168.52
467.14	180.22
467.32	224.69
467.51	273.84
467.69	215.33
467.87	180.22
468.05	229.37
468.23	271.50
468.41	177.88
468.60	203.63
468.78	208.31
468.96	248.10
469.14	205.97
469.32	184.90
469.50	187.24
469.69	173.20
469.87	177.88
470.05	168.52
470.23	252.78
470.41	292.57
470.59	175.54
470.77	227.03
470.95	205.97
471.14	177.88
471.32	175.54
471.50	287.89
471.68	222.35
471.86	194.26
472.04	177.88
472.22	205.97
472.40	292.57
472.58	257.46
472.77	201.29
472.95	222.35
473.13	245.76
473.31	180.22
473.49	224.69
473.67	142.77
473.85	198.95
474.03	252.78
474.21	212.99
474.39	262.14
474.57	313.63
474.75	248.10
474.93	107.66
475.12	175.54
475.30	156.82
475.48	198.95
475.66	210.65
475.84	173.20
476.02	201.29
476.20	304.27
476.38	184.90
476.56	184.90
476.74	236.39
476.92	257.46
477.10	227.03
477.28	191.92
477.46	201.29
477.64	170.86
477.82	248.10
478.00	215.33
478.18	231.71
478.36	208.31
478.54	187.24
478.72	217.67
478.90	210.65
479.08	205.97
479.26	227.03
479.44	234.05
479.62	231.71
479.80	163.84
479.98	224.69
480.16	259.80
480.34	208.31
480.52	203.63
480.70	278.52
480.88	184.90
481.06	283.20
481.24	236.39
481.41	311.29
481.59	257.46
481.77	269.16
481.95	308.95
482.13	259.80
482.31	248.10
482.49	266.82
482.67	325.33
482.85	322.99
483.03	287.89
483.21	376.83
483.39	369.80
483.57	451.72
483.74	367.46
483.92	372.15
484.10	388.53
484.28	484.49
484.46	498.53
484.64	442.36
484.82	468.11
485.00	416.62
485.18	559.39
485.35	561.73
485.53	482.15
485.71	566.41
485.89	519.60
486.07	578.11
486.25	669.39
486.43	561.73
486.61	589.82
486.78	589.82
486.96	603.86
487.14	561.73
487.32	585.13
487.50	578.11
487.68	587.47
487.85	603.86
488.03	624.92
488.21	587.47
488.39	559.39
488.57	599.18
488.75	582.79
488.92	793.44
489.10	641.31
489.28	559.39
489.46	653.01
489.64	545.34
489.81	592.16
489.99	599.18
490.17	627.26
490.35	688.12
490.53	638.97
490.70	519.60
490.88	517.26
491.06	636.63
491.24	594.50
491.41	603.86
491.59	624.92
491.77	500.87
491.95	465.77
492.13	514.92
492.30	571.09
492.48	493.85
492.66	505.56
492.84	447.04
493.01	547.69
493.19	442.36
493.37	580.45
493.54	564.07
493.72	468.11
493.90	414.27
494.08	447.04
494.25	402.57
494.43	491.51
494.61	463.43
494.79	470.45
494.96	423.64
495.14	440.02
495.32	435.34
495.49	430.66
495.67	374.49
495.85	528.96
496.02	416.62
496.20	477.47
496.38	421.30
496.55	414.27
496.73	418.96
496.91	486.83
497.09	409.59
497.26	477.47
497.44	440.02
497.62	444.70
497.79	442.36
497.97	470.45
498.14	447.04
498.32	421.30
498.50	386.19
498.67	355.76
498.85	369.80
499.03	334.70
499.20	292.57
499.38	327.68
499.56	334.70
499.73	351.08
499.91	393.21
500.08	341.72
500.26	313.63
500.44	273.84
500.61	325.33
500.79	266.82
500.97	308.95
501.14	372.15
501.32	322.99
501.49	320.65
501.67	330.02
501.84	313.63
502.02	250.44
502.20	320.65
502.37	255.12
502.55	257.46
502.72	196.60
502.90	308.95
503.07	234.05
503.25	301.93
503.43	180.22
503.60	180.22
503.78	241.08
503.95	245.76
504.13	280.86
504.30	205.97
504.48	180.22
504.65	325.33
504.83	285.55
505.01	276.18
505.18	276.18
505.36	280.86
505.53	236.39
505.71	198.95
505.88	273.84
506.06	322.99
506.23	290.23
506.41	245.76
506.58	238.73
506.76	252.78
506.93	257.46
507.11	285.55
507.28	294.91
507.46	236.39
507.63	255.12
507.81	238.73
507.98	250.44
508.16	231.71
508.33	248.10
508.50	236.39
508.68	278.52
508.85	259.80
509.03	203.63
509.20	220.01
509.38	191.92
509.55	252.78
509.73	220.01
509.90	297.25
510.08	271.50
510.25	280.86
510.42	243.42
510.60	250.44
510.77	250.44
510.95	241.08
511.12	297.25
511.30	229.37
511.47	285.55
511.64	358.10
511.82	227.03
511.99	280.86
512.17	215.33
512.34	269.16
512.51	121.71
512.69	259.80
512.86	315.97
513.04	229.37
513.21	220.01
513.38	236.39
513.56	227.03
513.73	241.08
513.90	203.63
514.08	250.44
514.25	234.05
514.43	313.63
514.60	250.44
514.77	231.71
514.95	271.50
515.12	147.45
515.29	297.25
515.47	266.82
515.64	320.65
515.81	241.08
515.99	311.29
516.16	262.14
516.33	217.67
516.51	229.37
516.68	234.05
516.85	203.63
517.03	238.73
517.20	229.37
517.37	196.60
517.54	198.95
517.72	276.18
517.89	191.92
518.06	248.10
518.24	315.97
518.41	311.29
518.58	257.46
518.75	212.99
518.93	269.16
519.10	234.05
519.27	259.80
519.45	241.08
519.62	250.44
519.79	215.33
519.96	250.44
520.14	189.58
520.31	290.23
520.48	194.26
520.65	290.23
520.83	283.20
521.00	217.67
521.17	306.61
521.34	292.57
521.52	252.78
521.69	292.57
521.86	166.18
522.03	290.23
522.20	322.99
522.38	266.82
522.55	337.04
522.72	269.16
522.89	248.10
523.07	355.76
523.24	250.44
523.41	177.88
523.58	201.29
523.75	205.97
523.92	250.44
524.10	255.12
524.27	252.78
524.44	245.76
524.61	262.14
524.78	201.29
524.96	273.84
525.13	245.76
525.30	210.65
525.47	262.14
525.64	220.01
525.81	238.73
525.98	280.86
526.16	241.08
526.33	184.90
526.50	205.97
526.67	283.20
526.84	222.35
527.01	236.39
527.18	315.97
527.36	278.52
527.53	255.12
527.70	278.52
527.87	252.78
528.04	318.31
528.21	248.10
528.38	341.72
528.55	346.40
528.72	238.73
528.89	299.59
529.07	248.10
529.24	231.71
529.41	311.29
529.58	250.44
529.75	252.78
529.92	236.39
530.09	297.25
530.26	273.84
530.43	255.12
530.60	257.46
530.77	297.25
530.94	390.87
531.11	325.33
531.28	266.82
531.46	313.63
531.63	388.53
531.80	271.50
531.97	322.99
532.14	327.68
532.31	315.97
532.48	344.06
532.65	344.06
532.82	315.97
532.99	390.87
533.16	360.44
533.33	383.85
533.50	400.23
533.67	334.70
533.84	332.36
534.01	294.91
534.18	332.36
534.35	297.25
534.52	308.95
534.69	365.12
534.86	351.08
535.03	393.21
535.20	374.49
535.37	355.76
535.54	372.15
535.71	346.40
535.88	484.49
536.05	355.76
536.22	362.78
536.38	369.80
536.55	444.70
536.72	538.32
536.89	423.64
537.06	468.11
537.23	470.45
537.40	503.22
537.57	575.77
537.74	564.07
537.91	653.01
538.08	627.26
538.25	650.67
538.42	741.95
538.59	791.10
538.75	746.63
538.92	727.91
539.09	725.57
539.26	781.74
539.43	922.17
539.60	966.64
539.77	1111.75
539.94	1198.35
540.11	1228.78
540.28	1256.87
540.44	1343.47
540.61	1406.66
540.78	1488.58
540.95	1741.36
541.12	2214.15
541.29	2167.34
541.46	2560.55
541.62	2691.62
541.79	3033.33
541.96	3251.00
542.13	3454.63
542.30	3496.76
542.47	3452.29
542.63	3330.58
542.80	3330.58
542.97	3389.10
543.14	3290.79
543.31	3386.76
543.48	3407.82
543.64	3356.33
543.81	3389.10
543.98	3159.72
544.15	3218.24
544.32	3115.25
544.48	3136.32
544.65	2956.10
544.82	2773.53
544.99	2750.13
545.16	2672.89
545.32	2623.74
545.49	4524.26
545.66	7063.74
545.83	7918.03
546.00	6445.84
546.16	4402.55
546.33	3084.83
546.50	2314.79
546.67	1722.63
546.83	1596.25
547.00	1448.79
547.17	1350.49
547.34	1329.42
547.50	1270.91
547.67	1378.58
547.84	1177.29
548.00	1221.76
548.17	1259.21
548.34	1245.16
548.51	1280.27
548.67	1275.59
548.84	1315.38
549.01	1338.79
549.18	1282.61
549.34	1238.14
549.51	1219.42
549.68	1137.50
549.84	1022.81
550.01	997.07
550.18	1137.50
550.34	952.60
550.51	966.64
550.68	959.62
550.84	931.53
551.01	884.72
551.18	866.00
551.34	898.77
551.51	868.34
551.68	847.27
551.84	863.66
552.01	863.66
552.18	741.95
552.34	765.36
552.51	798.12
552.68	713.86
552.84	662.37
553.01	753.65
553.18	751.31
553.34	690.46
553.51	627.26
553.67	662.37
553.84	589.82
554.01	561.73
554.17	468.11
554.34	489.17
554.51	498.53
554.67	475.13
554.84	379.17
555.00	404.91
555.17	337.04
555.33	444.70
555.50	386.19
555.67	440.02
555.83	341.72
556.00	379.17
556.16	482.15
556.33	320.65
556.50	322.99
556.66	315.97
556.83	264.48
556.99	393.21
557.16	388.53
557.32	348.74
557.49	369.80
557.65	327.68
557.82	280.86
557.98	318.31
558.15	358.10
558.32	351.08
558.48	264.48
558.65	337.04
558.81	313.63
558.98	327.68
559.14	346.40
559.31	287.89
559.47	243.42
559.64	278.52
559.80	285.55
559.97	250.44
560.13	266.82
560.30	271.50
560.46	271.50
560.63	224.69
560.79	320.65
560.96	379.17
561.12	374.49
561.29	278.52
561.45	276.18
561.61	301.93
561.78	372.15
561.94	205.97
562.11	327.68
562.27	255.12
562.44	294.91
562.60	369.80
562.77	245.76
562.93	379.17
563.10	241.08
563.26	285.55
563.42	285.55
563.59	332.36
563.75	271.50
563.92	234.05
564.08	320.65
564.24	238.73
564.41	262.14
564.57	269.16
564.74	236.39
564.90	234.05
565.07	252.78
565.23	318.31
565.39	234.05
565.56	306.61
565.72	154.48
565.88	315.97
566.05	208.31
566.21	250.44
566.38	320.65
566.54	243.42
566.70	283.20
566.87	339.38
567.03	229.37
567.19	243.42
567.36	252.78
567.52	238.73
567.68	276.18
567.85	259.80
568.01	257.46
568.17	280.86
568.34	243.42
568.50	238.73
568.66	266.82
568.83	280.86
568.99	287.89
569.15	273.84
569.32	273.84
569.48	250.44
569.64	210.65
569.81	248.10
569.97	196.60
570.13	252.78
570.30	269.16
570.46	217.67
570.62	315.97
570.78	168.52
570.95	210.65
571.11	341.72
571.27	313.63
571.43	248.10
571.60	236.39
571.76	308.95
571.92	257.46
572.09	222.35
572.25	280.86
572.41	290.23
572.57	304.27
572.74	280.86
572.90	283.20
573.06	351.08
573.22	276.18
573.38	271.50
573.55	264.48
573.71	299.59
573.87	191.92
574.03	208.31
574.20	208.31
574.36	318.31
574.52	280.86
574.68	285.55
574.84	252.78
575.01	290.23
575.17	231.71
575.33	304.27
575.49	311.29
575.65	322.99
575.82	308.95
575.98	372.15
576.14	304.27
576.30	491.51
576.46	1102.39
576.62	1528.37
576.79	1563.48
576.95	1069.62
577.11	755.99
577.27	517.26
577.43	475.13
577.59	360.44
577.75	374.49
577.92	332.36
578.08	346.40
578.24	255.12
578.40	582.79
578.56	1179.63
578.72	1373.89
578.88	1497.94
579.04	1107.07
579.21	919.83
579.37	734.93
579.53	697.48
579.69	741.95
579.85	723.23
580.01	809.83
580.17	819.19
580.33	678.76
580.49	669.39
580.65	645.99
580.82	608.54
580.98	554.71
581.14	650.67
581.30	678.76
581.46	664.71
581.62	692.80
581.78	702.16
581.94	678.76
582.10	711.52
582.26	784.08
582.42	753.65
582.58	730.25
582.74	809.83
582.90	826.21
583.06	821.53
583.22	816.85
583.38	854.30
583.54	882.38
583.70	884.72
583.86	854.30
584.02	795.78
584.18	842.59
584.34	786.42
584.50	866.00
584.66	807.48
584.82	678.76
584.98	678.76
585.14	688.12
585.30	622.58
585.46	699.82
585.62	748.97
585.78	720.88
585.94	809.83
586.10	709.18
586.26	755.99
586.42	805.14
586.58	912.81
586.74	1004.09
586.90	1233.46
587.06	1357.51
587.22	1355.17
587.38	1256.87
587.54	1090.69
587.70	1022.81
587.86	915.15
588.02	718.54
588.18	770.04
588.34	746.63
588.49	667.05
588.65	690.46
588.81	557.05
588.97	594.50
589.13	620.24
589.29	608.54
589.45	620.24
589.61	557.05
589.77	648.33
589.93	601.52
590.08	589.82
590.24	564.07
590.40	631.94
590.56	615.56
590.72	613.22
590.88	557.05
591.04	585.13
591.20	519.60
591.35	627.26
591.51	575.77
591.67	641.31
591.83	636.63
591.99	578.11
592.15	706.84
592.31	751.31
592.46	713.86
592.62	774.72
592.78	814.51
592.94	880.04
593.10	828.55
593.26	739.61
593.41	727.91
593.57	627.26
593.73	641.31
593.89	554.71
594.05	575.77
594.20	498.53
594.36	440.02
594.52	435.34
594.68	390.87
594.84	489.17
594.99	416.62
595.15	383.85
595.31	437.68
595.47	428.32
595.62	397.89
595.78	348.74
595.94	414.27
596.10	381.51
596.25	322.99
596.41	362.78
596.57	477.47
596.73	355.76
596.88	379.17
597.04	379.17
597.20	369.80
597.36	358.10
597.51	404.91
597.67	390.87
597.83	332.36
597.99	435.34
598.14	409.59
598.30	538.32
598.46	568.75
598.61	486.83
598.77	521.94
598.93	449.38
599.09	620.24
599.24	489.17
599.40	596.84
599.56	559.39
599.71	486.83
599.87	505.56
600.03	561.73
600.18	573.43
600.34	447.04
600.50	418.96
600.65	404.91
600.81	440.02
600.97	416.62
601.12	311.29
601.28	376.83
601.44	315.97
601.59	348.74
601.75	330.02
601.91	388.53
602.06	322.99
602.22	430.66
602.37	311.29
602.53	346.40
602.69	383.85
602.84	411.93
603.00	315.97
603.16	330.02
603.31	315.97
603.47	341.72
603.62	301.93
603.78	409.59
603.94	332.36
604.09	327.68
604.25	383.85
604.40	421.30
604.56	332.36
604.71	404.91
604.87	236.39
605.03	376.83
605.18	397.89
605.34	428.32
605.49	355.76
605.65	353.42
605.80	402.57
605.96	351.08
606.12	367.46
606.27	435.34
606.43	479.81
606.58	486.83
606.74	451.72
606.89	367.46
607.05	486.83
607.20	447.04
607.36	543.00
607.51	475.13
607.67	510.24
607.82	603.86
607.98	648.33
608.13	603.86
608.29	653.01
608.44	676.41
608.60	629.60
608.75	800.46
608.91	931.53
609.06	936.21
609.22	894.08
609.37	1123.46
609.53	1128.14
609.68	1350.49
609.84	1474.54
609.99	1643.06
610.15	2047.97
610.30	2539.48
610.46	3133.98
