SpectraSuite Data File
++++++++++++++++++++++++++++++++++++
Date: Fri Oct 04 11:41:51 GMT-05:00 2013
User: price-jones
Dark Spectrum Present: No
Reference Spectrum Present: No
Number of Sampled Component Spectra: 1
Spectrometers: USB2+H05261
Integration Time (usec): 100000 (USB2+H05261)
Spectra Averaged: 1 (USB2+H05261)
Boxcar Smoothing: 0 (USB2+H05261)
Correct for Electrical Dark: No (USB2+H05261)
Strobe/Lamp Enabled: No (USB2+H05261)
Correct for Detector Non-linearity: No (USB2+H05261)
Correct for Stray Light: No (USB2+H05261)
Number of Pixels in Processed Spectrum: 2048
>>>>>Begin Processed Spectral Data<<<<<
365.73	44.47
365.92	44.47
366.12	44.47
366.32	0.00
366.52	0.00
366.72	0.00
366.91	0.00
367.11	0.00
367.31	0.00
367.51	0.00
367.70	0.00
367.90	0.00
368.10	0.00
368.30	0.00
368.49	0.00
368.69	0.00
368.89	0.00
369.09	0.00
369.28	0.00
369.48	2.34
369.68	0.00
369.87	39.79
370.07	42.13
370.27	72.56
370.47	0.00
370.66	0.00
370.86	60.85
371.06	32.77
371.25	152.13
371.45	91.28
371.65	154.48
371.84	145.11
372.04	114.69
372.24	205.97
372.44	121.71
372.63	93.62
372.83	138.09
373.03	102.98
373.22	117.03
373.42	138.09
373.62	163.84
373.81	145.11
374.01	191.92
374.21	191.92
374.40	98.30
374.60	168.52
374.79	168.52
374.99	128.73
375.19	201.29
375.38	166.18
375.58	135.75
375.78	149.79
375.97	168.52
376.17	170.86
376.37	161.50
376.56	180.22
376.76	175.54
376.95	86.60
377.15	191.92
377.35	42.13
377.54	60.85
377.74	182.56
377.93	77.24
378.13	140.43
378.33	175.54
378.52	117.03
378.72	126.39
378.91	110.01
379.11	138.09
379.31	140.43
379.50	107.66
379.70	107.66
379.89	201.29
380.09	112.35
380.28	154.48
380.48	140.43
380.68	131.07
380.87	112.35
381.07	100.64
381.26	159.16
381.46	133.41
381.65	184.90
381.85	42.13
382.04	98.30
382.24	107.66
382.43	72.56
382.63	74.90
382.83	140.43
383.02	110.01
383.22	126.39
383.41	119.37
383.61	124.05
383.80	102.98
384.00	182.56
384.19	145.11
384.39	138.09
384.58	131.07
384.78	74.90
384.97	86.60
385.17	95.96
385.36	46.81
385.56	98.30
385.75	86.60
385.95	119.37
386.14	152.13
386.34	126.39
386.53	147.45
386.72	79.58
386.92	191.92
387.11	112.35
387.31	105.32
387.50	128.73
387.70	100.64
387.89	49.15
388.09	138.09
388.28	100.64
388.48	250.44
388.67	121.71
388.86	46.81
389.06	100.64
389.25	133.41
389.45	142.77
389.64	39.79
389.84	231.71
390.03	53.83
390.22	191.92
390.42	81.92
390.61	114.69
390.81	95.96
391.00	51.49
391.19	159.16
391.39	95.96
391.58	184.90
391.78	112.35
391.97	149.79
392.16	126.39
392.36	191.92
392.55	145.11
392.75	147.45
392.94	152.13
393.13	91.28
393.33	91.28
393.52	81.92
393.71	159.16
393.91	175.54
394.10	119.37
394.29	98.30
394.49	114.69
394.68	163.84
394.88	168.52
395.07	170.86
395.26	180.22
395.46	128.73
395.65	124.05
395.84	124.05
396.04	269.16
396.23	149.79
396.42	142.77
396.62	98.30
396.81	159.16
397.00	138.09
397.19	84.26
397.39	147.45
397.58	154.48
397.77	159.16
397.97	128.73
398.16	173.20
398.35	105.32
398.55	77.24
398.74	126.39
398.93	126.39
399.12	205.97
399.32	212.99
399.51	117.03
399.70	175.54
399.90	145.11
400.09	215.33
400.28	196.60
400.47	170.86
400.67	201.29
400.86	147.45
401.05	88.94
401.24	131.07
401.44	138.09
401.63	152.13
401.82	191.92
402.01	138.09
402.21	229.37
402.40	196.60
402.59	159.16
402.78	198.95
402.97	231.71
403.17	220.01
403.36	259.80
403.55	400.23
403.74	681.10
403.93	2277.34
404.13	5671.12
404.32	9181.92
404.51	9015.74
404.70	5734.31
404.89	2129.89
405.09	674.07
405.28	358.10
405.47	269.16
405.66	271.50
405.85	187.24
406.05	203.63
406.24	229.37
406.43	278.52
406.62	285.55
406.81	308.95
407.00	425.98
407.20	727.91
407.39	1235.80
407.58	1441.77
407.77	1048.56
407.96	603.86
408.15	285.55
408.34	243.42
408.54	182.56
408.73	287.89
408.92	163.84
409.11	187.24
409.30	222.35
409.49	217.67
409.68	278.52
409.87	163.84
410.07	163.84
410.26	196.60
410.45	212.99
410.64	231.71
410.83	189.58
411.02	173.20
411.21	271.50
411.40	243.42
411.59	271.50
411.78	194.26
411.98	231.71
412.17	220.01
412.36	266.82
412.55	308.95
412.74	257.46
412.93	252.78
413.12	227.03
413.31	234.05
413.50	322.99
413.69	290.23
413.88	318.31
414.07	285.55
414.26	255.12
414.45	236.39
414.64	285.55
414.83	285.55
415.02	222.35
415.22	255.12
415.41	341.72
415.60	304.27
415.79	191.92
415.98	367.46
416.17	243.42
416.36	318.31
416.55	341.72
416.74	243.42
416.93	266.82
417.12	292.57
417.31	271.50
417.50	327.68
417.69	297.25
417.88	285.55
418.07	285.55
418.26	252.78
418.45	327.68
418.64	248.10
418.83	250.44
419.02	255.12
419.21	353.42
419.39	292.57
419.58	220.01
419.77	283.20
419.96	337.04
420.15	400.23
420.34	276.18
420.53	311.29
420.72	198.95
420.91	283.20
421.10	407.25
421.29	278.52
421.48	374.49
421.67	374.49
421.86	346.40
422.05	290.23
422.24	220.01
422.43	332.36
422.61	320.65
422.80	339.38
422.99	344.06
423.18	344.06
423.37	344.06
423.56	358.10
423.75	334.70
423.94	327.68
424.13	353.42
424.32	346.40
424.50	294.91
424.69	304.27
424.88	409.59
425.07	393.21
425.26	341.72
425.45	369.80
425.64	402.57
425.83	374.49
426.01	376.83
426.20	409.59
426.39	381.51
426.58	402.57
426.77	367.46
426.96	411.93
427.15	379.17
427.33	372.15
427.52	337.04
427.71	374.49
427.90	395.55
428.09	388.53
428.28	334.70
428.46	440.02
428.65	390.87
428.84	402.57
429.03	489.17
429.22	383.85
429.40	372.15
429.59	383.85
429.78	482.15
429.97	341.72
430.16	393.21
430.34	393.21
430.53	400.23
430.72	390.87
430.91	524.28
431.10	433.00
431.28	468.11
431.47	461.09
431.66	404.91
431.85	533.64
432.03	503.22
432.22	557.05
432.41	571.09
432.60	557.05
432.79	538.32
432.97	535.98
433.16	599.18
433.35	699.82
433.54	753.65
433.72	781.74
433.91	812.17
434.10	880.04
434.28	1057.92
434.47	1249.85
434.66	1313.04
434.85	1605.61
435.03	3777.62
435.22	13729.58
435.41	36128.51
435.59	46703.05
435.78	32329.82
435.97	15412.43
436.16	5586.86
436.34	1893.49
436.53	1074.31
436.72	816.85
436.90	704.50
437.09	856.64
437.28	608.54
437.46	653.01
437.65	653.01
437.84	552.37
438.02	620.24
438.21	521.94
438.40	613.22
438.58	557.05
438.77	589.82
438.96	550.03
439.14	585.13
439.33	552.37
439.52	552.37
439.70	582.79
439.89	564.07
440.08	613.22
440.26	550.03
440.45	594.50
440.63	643.65
440.82	585.13
441.01	559.39
441.19	566.41
441.38	566.41
441.57	564.07
441.75	545.34
441.94	575.77
442.12	594.50
442.31	622.58
442.50	507.90
442.68	550.03
442.87	571.09
443.05	524.28
443.24	606.20
443.43	547.69
443.61	610.88
443.80	629.60
443.98	514.92
444.17	463.43
444.35	624.92
444.54	599.18
444.73	610.88
444.91	608.54
445.10	521.94
445.28	578.11
445.47	540.66
445.65	620.24
445.84	526.62
446.02	594.50
446.21	498.53
446.39	528.96
446.58	524.28
446.77	491.51
446.95	526.62
447.14	493.85
447.32	571.09
447.51	524.28
447.69	608.54
447.88	578.11
448.06	540.66
448.25	535.98
448.43	585.13
448.62	587.47
448.80	496.19
448.99	582.79
449.17	503.22
449.36	491.51
449.54	592.16
449.73	601.52
449.91	587.47
450.10	610.88
450.28	641.31
450.46	641.31
450.65	552.37
450.83	540.66
451.02	608.54
451.20	557.05
451.39	507.90
451.57	528.96
451.76	543.00
451.94	603.86
452.13	533.64
452.31	524.28
452.49	571.09
452.68	528.96
452.86	592.16
453.05	596.84
453.23	543.00
453.42	517.26
453.60	533.64
453.78	526.62
453.97	498.53
454.15	503.22
454.34	503.22
454.52	496.19
454.70	514.92
454.89	561.73
455.07	503.22
455.26	601.52
455.44	594.50
455.62	538.32
455.81	566.41
455.99	491.51
456.17	585.13
456.36	559.39
456.54	517.26
456.73	550.03
456.91	461.09
457.09	554.71
457.28	594.50
457.46	535.98
457.64	571.09
457.83	486.83
458.01	526.62
458.19	561.73
458.38	451.72
458.56	592.16
458.74	580.45
458.93	517.26
459.11	486.83
459.29	580.45
459.48	484.49
459.66	564.07
459.84	545.34
460.03	678.76
460.21	482.15
460.39	498.53
460.57	538.32
460.76	540.66
460.94	486.83
461.12	559.39
461.31	575.77
461.49	498.53
461.67	493.85
461.85	531.30
462.04	594.50
462.22	959.62
462.40	425.98
462.59	535.98
462.77	470.45
462.95	631.94
463.13	524.28
463.32	599.18
463.50	517.26
463.68	505.56
463.86	510.24
464.05	545.34
464.23	568.75
464.41	526.62
464.59	573.43
464.78	587.47
464.96	552.37
465.14	566.41
465.32	482.15
465.50	519.60
465.69	512.58
465.87	468.11
466.05	517.26
466.23	521.94
466.41	559.39
466.60	519.60
466.78	643.65
466.96	592.16
467.14	531.30
467.32	517.26
467.51	606.20
467.69	545.34
467.87	517.26
468.05	510.24
468.23	510.24
468.41	454.06
468.60	484.49
468.78	564.07
468.96	507.90
469.14	411.93
469.32	566.41
469.50	533.64
469.69	465.77
469.87	437.68
470.05	468.11
470.23	493.85
470.41	440.02
470.59	407.25
470.77	484.49
470.95	477.47
471.14	489.17
471.32	528.96
471.50	535.98
471.68	433.00
471.86	482.15
472.04	514.92
472.22	482.15
472.40	571.09
472.58	528.96
472.77	404.91
472.95	503.22
473.13	610.88
473.31	573.43
473.49	503.22
473.67	545.34
473.85	510.24
474.03	475.13
474.21	585.13
474.39	582.79
474.57	496.19
474.75	526.62
474.93	533.64
475.12	468.11
475.30	491.51
475.48	587.47
475.66	416.62
475.84	526.62
476.02	472.79
476.20	573.43
476.38	540.66
476.56	528.96
476.74	543.00
476.92	512.58
477.10	461.09
477.28	451.72
477.46	465.77
477.64	561.73
477.82	540.66
478.00	624.92
478.18	475.13
478.36	559.39
478.54	573.43
478.72	660.03
478.90	660.03
479.08	601.52
479.26	676.41
479.44	725.57
479.62	627.26
479.80	676.41
479.98	664.71
480.16	716.20
480.34	774.72
480.52	737.27
480.70	837.91
480.88	903.45
481.06	931.53
481.24	973.66
481.41	1025.15
481.59	976.00
481.77	1137.50
481.95	1156.22
482.13	1320.06
482.31	1249.85
482.49	1343.47
482.67	1413.68
482.85	1685.19
483.03	1671.14
483.21	1825.62
483.39	1856.04
483.57	2071.37
483.74	2253.94
483.92	2157.97
484.10	2399.05
484.28	2511.39
484.46	2647.15
484.64	2853.11
484.82	2869.50
485.00	3016.95
485.18	3309.52
485.35	3410.16
485.53	3716.77
485.71	3798.69
485.89	3976.57
486.07	4009.34
486.25	3978.91
486.43	4142.75
486.61	4102.96
486.78	4088.92
486.96	4182.54
487.14	4095.94
487.32	4072.53
487.50	4074.87
487.68	4016.36
487.85	4032.74
488.03	4056.15
488.21	3859.54
488.39	3794.01
488.57	3653.58
488.75	3559.95
488.92	3840.82
489.10	3548.25
489.28	3501.44
489.46	3314.20
489.64	3178.45
489.81	3089.51
489.99	3129.30
490.17	3117.59
490.35	3148.02
490.53	3103.55
490.70	3162.06
490.88	3068.44
491.06	3157.38
491.24	3421.86
491.41	3485.06
491.59	3290.79
491.77	2960.78
491.95	2942.05
492.13	2949.08
492.30	2794.60
492.48	2637.78
492.66	2684.59
492.84	2780.56
493.01	2696.30
493.19	2663.53
493.37	2745.45
493.54	2663.53
493.72	2438.84
493.90	2485.65
494.08	2480.97
494.25	2366.28
494.43	2394.37
494.61	2310.11
494.79	2338.20
494.96	2298.41
495.14	2230.53
495.32	2104.14
495.49	2214.15
495.67	2172.02
495.85	2165.00
496.02	2059.67
496.20	2076.06
496.38	1919.24
496.55	1966.05
496.73	1916.90
496.91	1895.83
497.09	1902.86
497.26	1830.30
497.44	1844.34
497.62	1739.02
497.79	1748.38
497.97	1760.08
498.14	1753.06
498.32	1708.59
498.50	1565.82
498.67	1439.43
498.85	1544.75
499.03	1556.46
499.20	1416.02
499.38	1336.45
499.56	1441.77
499.73	1476.88
499.91	1287.29
500.08	1481.56
500.26	1226.44
500.44	1163.25
500.61	1242.82
500.79	1057.92
500.97	1132.82
501.14	1132.82
501.32	1095.37
501.49	1018.13
501.67	971.32
501.84	1027.50
502.02	924.51
502.20	978.34
502.37	919.83
502.55	875.36
502.72	884.72
502.90	880.04
503.07	802.80
503.25	901.11
503.43	819.19
503.60	809.83
503.78	814.51
503.95	725.57
504.13	734.93
504.30	758.33
504.48	688.12
504.65	699.82
504.83	772.38
505.01	744.29
505.18	671.73
505.36	608.54
505.53	650.67
505.71	657.69
505.88	706.84
506.06	521.94
506.23	585.13
506.41	596.84
506.58	543.00
506.76	566.41
506.93	564.07
507.11	587.47
507.28	571.09
507.46	554.71
507.63	582.79
507.81	620.24
507.98	564.07
508.16	552.37
508.33	568.75
508.50	535.98
508.68	610.88
508.85	585.13
509.03	564.07
509.20	585.13
509.38	610.88
509.55	655.35
509.73	606.20
509.90	606.20
510.08	521.94
510.25	514.92
510.42	620.24
510.60	540.66
510.77	470.45
510.95	524.28
511.12	458.74
511.30	543.00
511.47	521.94
511.64	552.37
511.82	514.92
511.99	552.37
512.17	500.87
512.34	540.66
512.51	510.24
512.69	414.27
512.86	535.98
513.04	463.43
513.21	500.87
513.38	468.11
513.56	423.64
513.73	479.81
513.90	465.77
514.08	484.49
514.25	470.45
514.43	407.25
514.60	451.72
514.77	388.53
514.95	428.32
515.12	360.44
515.29	461.09
515.47	386.19
515.64	339.38
515.81	444.70
515.99	491.51
516.16	388.53
516.33	444.70
516.51	425.98
516.68	418.96
516.85	451.72
517.03	381.51
517.20	484.49
517.37	400.23
517.54	414.27
517.72	344.06
517.89	351.08
518.06	348.74
518.24	423.64
518.41	390.87
518.58	397.89
518.75	383.85
518.93	472.79
519.10	358.10
519.27	423.64
519.45	402.57
519.62	351.08
519.79	437.68
519.96	299.59
520.14	386.19
520.31	376.83
520.48	372.15
520.65	418.96
520.83	360.44
521.00	372.15
521.17	400.23
521.34	344.06
521.52	449.38
521.69	383.85
521.86	425.98
522.03	407.25
522.20	423.64
522.38	440.02
522.55	397.89
522.72	425.98
522.89	463.43
523.07	449.38
523.24	374.49
523.41	393.21
523.58	393.21
523.75	395.55
523.92	388.53
524.10	383.85
524.27	402.57
524.44	313.63
524.61	430.66
524.78	348.74
524.96	355.76
525.13	447.04
525.30	421.30
525.47	493.85
525.64	496.19
525.81	447.04
525.98	447.04
526.16	468.11
526.33	463.43
526.50	344.06
526.67	444.70
526.84	458.74
527.01	456.40
527.18	528.96
527.36	599.18
527.53	554.71
527.70	507.90
527.87	571.09
528.04	554.71
528.21	526.62
528.38	561.73
528.55	575.77
528.72	580.45
528.89	617.90
529.07	533.64
529.24	491.51
529.41	596.84
529.58	528.96
529.75	545.34
529.92	517.26
530.09	622.58
530.26	631.94
530.43	603.86
530.60	514.92
530.77	641.31
530.94	622.58
531.11	821.53
531.28	650.67
531.46	683.44
531.63	709.18
531.80	877.70
531.97	840.25
532.14	1018.13
532.31	1050.90
532.48	1294.32
532.65	1519.01
532.82	1741.36
532.99	2064.35
533.16	2319.47
533.33	2422.45
533.50	2417.77
533.67	2083.08
533.84	1846.68
534.01	1430.07
534.18	1488.58
534.35	1434.75
534.52	1430.07
534.69	1469.86
534.86	1434.75
535.03	1523.69
535.20	1570.50
535.37	1760.08
535.54	1654.76
535.71	1849.02
535.88	1940.30
536.05	1949.67
536.22	2200.10
536.38	2558.21
536.55	2700.98
536.72	3096.53
536.89	3365.69
537.06	3637.19
537.23	4201.26
537.40	4599.15
537.57	4720.86
537.74	5097.69
537.91	5296.63
538.08	5352.81
538.25	5366.85
538.42	5453.45
538.59	5816.23
538.75	5973.05
538.92	6235.19
539.09	6890.54
539.26	7562.27
539.43	8402.52
539.60	9633.64
539.77	11047.33
539.94	12407.18
540.11	13703.84
540.28	14988.79
540.44	16631.85
540.61	18099.36
540.78	20645.87
540.95	24849.47
541.12	29570.33
541.29	34132.03
541.46	35838.28
541.62	35817.22
541.79	34506.52
541.96	31885.12
542.13	29638.20
542.30	27821.95
542.47	26092.29
542.63	24388.38
542.80	23447.49
542.97	23314.08
543.14	23262.58
543.31	23105.77
543.48	23267.27
543.64	23728.35
543.81	23824.31
543.98	23775.16
544.15	24294.76
544.32	24313.48
544.48	24100.50
544.65	23590.26
544.82	23517.70
544.99	23805.59
545.16	24009.22
545.32	25270.76
545.49	36947.70
545.66	58808.30
545.83	65535.00
546.00	65535.00
546.16	54873.86
546.33	41766.86
546.50	31798.52
546.67	24851.81
546.83	22010.40
547.00	20989.92
547.17	19700.29
547.34	19201.76
547.50	18382.57
547.67	17745.94
547.84	16973.56
548.00	16243.32
548.17	15592.65
548.34	15023.90
548.51	14295.99
548.67	13937.89
548.84	13200.62
549.01	12519.53
549.18	11669.91
549.34	11494.37
549.51	11154.99
549.68	10717.31
549.84	10083.03
550.01	9792.80
550.18	9170.22
550.34	8676.37
550.51	8311.24
550.68	8037.40
550.84	7522.48
551.01	7023.95
551.18	6696.27
551.34	6459.88
551.51	6225.82
551.68	5935.60
551.84	5790.49
552.01	5568.13
552.18	5242.80
552.34	5102.37
552.51	4741.93
552.68	4695.11
552.84	4390.84
553.01	4379.14
553.18	4231.69
553.34	4039.76
553.51	3922.74
553.67	3873.59
553.84	3634.85
554.01	3375.05
554.17	3183.13
554.34	2993.55
554.51	2841.41
554.67	2686.94
554.84	2429.48
555.00	2485.65
555.17	2256.28
555.33	2181.38
555.50	2040.95
555.67	2012.86
555.83	1914.56
556.00	1942.64
556.16	1987.11
556.33	1689.87
556.50	1638.38
556.66	1607.95
556.83	1596.25
556.99	1523.69
557.16	1519.01
557.32	1366.87
557.49	1331.76
557.65	1303.68
557.82	1256.87
557.98	1259.21
558.15	1268.57
558.32	1174.95
558.48	1280.27
558.65	1191.33
558.81	1043.88
558.98	1137.50
559.14	1191.33
559.31	1067.28
559.47	1074.31
559.64	1048.56
559.80	983.02
559.97	1006.43
560.13	959.62
560.30	887.06
560.46	910.47
560.63	940.90
560.79	959.62
560.96	940.90
561.12	901.11
561.29	964.30
561.45	983.02
561.61	1004.09
561.78	1097.71
561.94	964.30
562.11	947.92
562.27	966.64
562.44	898.77
562.60	891.74
562.77	908.13
562.93	926.85
563.10	933.87
563.26	828.55
563.42	912.81
563.59	863.66
563.75	774.72
563.92	844.93
564.08	800.46
564.24	786.42
564.41	870.68
564.57	795.78
564.74	767.70
564.90	791.10
565.07	758.33
565.23	763.01
565.39	748.97
565.56	720.88
565.72	763.01
565.88	748.97
566.05	657.69
566.21	744.29
566.38	758.33
566.54	732.59
566.70	730.25
566.87	770.04
567.03	730.25
567.19	760.67
567.36	746.63
567.52	709.18
567.68	723.23
567.85	732.59
568.01	741.95
568.17	716.20
568.34	842.59
568.50	809.83
568.66	882.38
568.83	793.44
568.99	688.12
569.15	746.63
569.32	697.48
569.48	610.88
569.64	650.67
569.81	631.94
569.97	634.29
570.13	606.20
570.30	585.13
570.46	498.53
570.62	622.58
570.78	543.00
570.95	496.19
571.11	592.16
571.27	444.70
571.43	528.96
571.60	519.60
571.76	636.63
571.92	528.96
572.09	512.58
572.25	540.66
572.41	564.07
572.57	613.22
572.74	596.84
572.90	507.90
573.06	496.19
573.22	538.32
573.38	592.16
573.55	606.20
573.71	610.88
573.87	653.01
574.03	620.24
574.20	599.18
574.36	660.03
574.52	627.26
574.68	723.23
574.84	791.10
575.01	655.35
575.17	849.61
575.33	837.91
575.49	990.05
575.65	976.00
575.82	1083.67
575.98	1217.08
576.14	1273.25
576.30	2312.45
576.46	7009.90
576.62	14724.31
576.79	19250.91
576.95	13118.70
577.11	8393.16
577.27	5694.52
577.43	3861.88
577.59	2490.33
577.75	1844.34
577.92	1760.08
578.08	1701.57
578.24	1739.02
578.40	2551.18
578.56	6462.22
578.72	13137.43
578.88	17383.16
579.04	12559.31
579.21	7992.93
579.37	5921.56
579.53	4332.33
579.69	4138.07
579.85	4971.30
580.01	6274.98
580.17	6202.42
580.33	5327.06
580.49	4456.38
580.65	3920.40
580.82	3463.99
580.98	3386.76
581.14	3391.44
581.30	3770.60
581.46	3878.27
581.62	4287.86
581.78	4514.89
581.94	4905.76
582.10	5156.20
582.26	5528.35
582.42	5586.86
582.58	5722.61
582.74	5933.26
582.90	5937.94
583.06	6087.73
583.22	6059.65
583.38	5991.77
583.54	5928.58
583.70	5849.00
583.86	5959.00
584.02	5790.49
584.18	5533.03
584.34	5666.44
584.50	5633.67
584.66	5416.00
584.82	5362.17
584.98	5219.39
585.14	5242.80
585.30	5095.35
585.46	5001.72
585.62	4957.25
585.78	4926.83
585.94	4753.63
586.10	5055.56
586.26	5376.21
586.42	5914.53
586.58	7115.23
586.74	8613.17
586.90	10661.14
587.06	12077.16
587.22	12168.45
587.38	10630.71
587.54	9153.84
587.70	7653.55
587.86	6562.86
588.02	5416.00
588.18	4964.28
588.34	4404.89
588.49	4049.13
588.65	3698.05
588.81	3637.19
588.97	3424.20
589.13	3344.63
589.29	3295.47
589.45	3199.51
589.61	3246.32
589.77	3276.75
589.93	3171.43
590.08	3400.80
590.24	3534.21
590.40	3777.62
590.56	3794.01
590.72	3836.14
590.88	3857.20
591.04	3992.95
591.20	4243.39
591.35	4301.90
591.51	4510.21
591.67	4571.07
591.83	5114.07
591.99	5460.47
592.15	5966.03
592.31	6417.75
592.46	6972.46
592.62	7744.83
592.78	8280.82
592.94	8624.87
593.10	8573.38
593.26	8042.08
593.41	7405.46
593.57	6590.95
593.73	5846.66
593.89	5392.59
594.05	4650.64
594.20	4278.50
594.36	3754.22
594.52	3487.40
594.68	3471.01
594.84	3323.56
594.99	3162.06
595.15	3075.46
595.31	3005.25
595.47	2965.46
595.62	3009.93
595.78	2998.23
595.94	3063.76
596.10	3098.87
596.25	3030.99
596.41	3038.02
596.57	2949.08
596.73	2972.48
596.88	2953.76
597.04	2942.05
597.20	2995.89
597.36	2960.78
597.51	3126.96
597.67	3199.51
597.83	3421.86
597.99	3578.68
598.14	3740.18
598.30	3934.44
598.46	4114.66
598.61	4564.04
598.77	4566.39
598.93	4765.33
599.09	4994.70
599.24	4999.38
599.40	5032.15
599.56	4807.46
599.71	4674.05
599.87	4608.51
600.03	4283.18
600.18	3925.08
600.34	3681.66
600.50	3555.27
600.65	3105.89
600.81	3005.25
600.97	2972.48
601.12	2708.00
601.28	2497.35
601.44	2476.29
601.59	2349.90
601.75	2370.96
601.91	2181.38
602.06	2136.91
602.22	2125.21
602.37	2010.52
602.53	1994.14
602.69	1994.14
602.84	1933.28
603.00	1973.07
603.16	1970.73
603.31	2031.58
603.47	2090.10
603.62	2038.61
603.78	2125.21
603.94	2218.83
604.09	2249.25
604.25	2242.23
604.40	2176.70
604.56	2214.15
604.71	2265.64
