SpectraSuite Data File
++++++++++++++++++++++++++++++++++++
Date: Fri Oct 04 11:41:56 GMT-05:00 2013
User: price-jones
Dark Spectrum Present: No
Reference Spectrum Present: No
Number of Sampled Component Spectra: 1
Spectrometers: USB2+H05261
Integration Time (usec): 100000 (USB2+H05261)
Spectra Averaged: 1 (USB2+H05261)
Boxcar Smoothing: 0 (USB2+H05261)
Correct for Electrical Dark: No (USB2+H05261)
Strobe/Lamp Enabled: No (USB2+H05261)
Correct for Detector Non-linearity: No (USB2+H05261)
Correct for Stray Light: No (USB2+H05261)
Number of Pixels in Processed Spectrum: 2048
>>>>>Begin Processed Spectral Data<<<<<
365.73	16.38
365.92	16.38
366.12	16.38
366.32	0.00
366.52	0.00
366.72	16.38
366.91	0.00
367.11	14.04
367.31	0.00
367.51	0.00
367.70	0.00
367.90	0.00
368.10	0.00
368.30	0.00
368.49	0.00
368.69	0.00
368.89	0.00
369.09	0.00
369.28	70.22
369.48	0.00
369.68	0.00
369.87	0.00
370.07	0.00
370.27	14.04
370.47	0.00
370.66	86.60
370.86	79.58
371.06	74.90
371.25	124.05
371.45	39.79
371.65	131.07
371.84	77.24
372.04	100.64
372.24	4.68
372.44	65.54
372.63	131.07
372.83	86.60
373.03	65.54
373.22	117.03
373.42	117.03
373.62	124.05
373.81	161.50
374.01	177.88
374.21	147.45
374.40	77.24
374.60	187.24
374.79	124.05
374.99	95.96
375.19	88.94
375.38	138.09
375.58	149.79
375.78	177.88
375.97	135.75
376.17	166.18
376.37	44.47
376.56	159.16
376.76	220.01
376.95	140.43
377.15	184.90
377.35	91.28
377.54	161.50
377.74	112.35
377.93	100.64
378.13	170.86
378.33	196.60
378.52	196.60
378.72	168.52
378.91	102.98
379.11	110.01
379.31	147.45
379.50	88.94
379.70	117.03
379.89	124.05
380.09	102.98
380.28	53.83
380.48	102.98
380.68	107.66
380.87	37.45
381.07	81.92
381.26	212.99
381.46	159.16
381.65	112.35
381.85	88.94
382.04	88.94
382.24	161.50
382.43	35.11
382.63	93.62
382.83	112.35
383.02	60.85
383.22	138.09
383.41	91.28
383.61	140.43
383.80	88.94
384.00	102.98
384.19	77.24
384.39	149.79
384.58	191.92
384.78	84.26
384.97	91.28
385.17	135.75
385.36	114.69
385.56	119.37
385.75	105.32
385.95	142.77
386.14	77.24
386.34	100.64
386.53	147.45
386.72	84.26
386.92	177.88
387.11	86.60
387.31	133.41
387.50	135.75
387.70	102.98
387.89	168.52
388.09	138.09
388.28	121.71
388.48	224.69
388.67	191.92
388.86	208.31
389.06	74.90
389.25	102.98
389.45	56.17
389.64	161.50
389.84	175.54
390.03	168.52
390.22	77.24
390.42	98.30
390.61	86.60
390.81	112.35
391.00	170.86
391.19	95.96
391.39	65.54
391.58	79.58
391.78	124.05
391.97	126.39
392.16	173.20
392.36	131.07
392.55	156.82
392.75	140.43
392.94	70.22
393.13	184.90
393.33	154.48
393.52	23.41
393.71	152.13
393.91	110.01
394.10	39.79
394.29	210.65
394.49	114.69
394.68	154.48
394.88	142.77
395.07	180.22
395.26	102.98
395.46	121.71
395.65	121.71
395.84	114.69
396.04	159.16
396.23	135.75
396.42	112.35
396.62	126.39
396.81	128.73
397.00	117.03
397.19	105.32
397.39	147.45
397.58	173.20
397.77	170.86
397.97	119.37
398.16	133.41
398.35	156.82
398.55	102.98
398.74	119.37
398.93	175.54
399.12	140.43
399.32	159.16
399.51	107.66
399.70	187.24
399.90	140.43
400.09	149.79
400.28	149.79
400.47	131.07
400.67	168.52
400.86	138.09
401.05	140.43
401.24	196.60
401.44	182.56
401.63	180.22
401.82	201.29
402.01	196.60
402.21	124.05
402.40	212.99
402.59	154.48
402.78	154.48
402.97	203.63
403.17	215.33
403.36	220.01
403.55	320.65
403.74	636.63
403.93	1956.69
404.13	4517.23
404.32	6146.25
404.51	5210.03
404.70	3197.17
404.89	1203.04
405.09	402.57
405.28	304.27
405.47	159.16
405.66	182.56
405.85	189.58
406.05	245.76
406.24	191.92
406.43	140.43
406.62	222.35
406.81	177.88
407.00	369.80
407.20	493.85
407.39	844.93
407.58	894.08
407.77	695.14
407.96	327.68
408.15	250.44
408.34	189.58
408.54	238.73
408.73	210.65
408.92	156.82
409.11	184.90
409.30	107.66
409.49	170.86
409.68	161.50
409.87	156.82
410.07	126.39
410.26	196.60
410.45	234.05
410.64	112.35
410.83	252.78
411.02	222.35
411.21	234.05
411.40	227.03
411.59	189.58
411.78	250.44
411.98	222.35
412.17	182.56
412.36	201.29
412.55	227.03
412.74	196.60
412.93	184.90
413.12	250.44
413.31	276.18
413.50	201.29
413.69	227.03
413.88	205.97
414.07	224.69
414.26	212.99
414.45	182.56
414.64	245.76
414.83	234.05
415.02	177.88
415.22	203.63
415.41	257.46
415.60	238.73
415.79	273.84
415.98	266.82
416.17	182.56
416.36	311.29
416.55	208.31
416.74	318.31
416.93	224.69
417.12	124.05
417.31	241.08
417.50	294.91
417.69	231.71
417.88	322.99
418.07	217.67
418.26	311.29
418.45	222.35
418.64	236.39
418.83	271.50
419.02	264.48
419.21	248.10
419.39	313.63
419.58	320.65
419.77	292.57
419.96	283.20
420.15	241.08
420.34	264.48
420.53	210.65
420.72	313.63
420.91	255.12
421.10	189.58
421.29	227.03
421.48	241.08
421.67	292.57
421.86	292.57
422.05	287.89
422.24	227.03
422.43	308.95
422.61	210.65
422.80	290.23
422.99	269.16
423.18	287.89
423.37	283.20
423.56	325.33
423.75	304.27
423.94	229.37
424.13	248.10
424.32	257.46
424.50	339.38
424.69	245.76
424.88	346.40
425.07	294.91
425.26	259.80
425.45	301.93
425.64	306.61
425.83	365.12
426.01	278.52
426.20	306.61
426.39	318.31
426.58	292.57
426.77	383.85
426.96	241.08
427.15	372.15
427.33	358.10
427.52	280.86
427.71	301.93
427.90	320.65
428.09	299.59
428.28	325.33
428.46	283.20
428.65	327.68
428.84	320.65
429.03	407.25
429.22	280.86
429.40	297.25
429.59	224.69
429.78	320.65
429.97	372.15
430.16	315.97
430.34	306.61
430.53	278.52
430.72	311.29
430.91	346.40
431.10	409.59
431.28	280.86
431.47	334.70
431.66	346.40
431.85	416.62
432.03	404.91
432.22	428.32
432.41	409.59
432.60	458.74
432.79	414.27
432.97	456.40
433.16	409.59
433.35	496.19
433.54	559.39
433.72	535.98
433.91	557.05
434.10	692.80
434.28	812.17
434.47	849.61
434.66	894.08
434.85	1226.44
435.03	3251.00
435.22	12273.77
435.41	27754.07
435.59	28669.22
435.78	17572.74
435.97	8791.05
436.16	3391.44
436.34	1338.79
436.53	760.67
436.72	521.94
436.90	540.66
437.09	566.41
437.28	493.85
437.46	475.13
437.65	493.85
437.84	538.32
438.02	414.27
438.21	470.45
438.40	395.55
438.58	428.32
438.77	444.70
438.96	458.74
439.14	428.32
439.33	348.74
439.52	428.32
439.70	533.64
439.89	423.64
440.08	421.30
440.26	435.34
440.45	486.83
440.63	493.85
440.82	477.47
441.01	463.43
441.19	400.23
441.38	404.91
441.57	442.36
441.75	458.74
441.94	477.47
442.12	414.27
442.31	369.80
442.50	472.79
442.68	484.49
442.87	402.57
443.05	423.64
443.24	390.87
443.43	514.92
443.61	528.96
443.80	440.02
443.98	383.85
444.17	454.06
444.35	454.06
444.54	379.17
444.73	482.15
444.91	486.83
445.10	423.64
445.28	383.85
445.47	393.21
445.65	402.57
445.84	346.40
446.02	496.19
446.21	362.78
446.39	409.59
446.58	440.02
446.77	421.30
446.95	411.93
447.14	477.47
447.32	395.55
447.51	433.00
447.69	414.27
447.88	388.53
448.06	435.34
448.25	360.44
448.43	454.06
448.62	362.78
448.80	416.62
448.99	425.98
449.17	372.15
449.36	395.55
449.54	447.04
449.73	383.85
449.91	447.04
450.10	435.34
450.28	423.64
450.46	503.22
450.65	383.85
450.83	411.93
451.02	461.09
451.20	507.90
451.39	461.09
451.57	418.96
451.76	449.38
451.94	444.70
452.13	428.32
452.31	374.49
452.49	407.25
452.68	383.85
452.86	456.40
453.05	451.72
453.23	421.30
453.42	397.89
453.60	372.15
453.78	411.93
453.97	454.06
454.15	411.93
454.34	365.12
454.52	301.93
454.70	454.06
454.89	402.57
455.07	449.38
455.26	381.51
455.44	421.30
455.62	409.59
455.81	358.10
455.99	388.53
456.17	388.53
456.36	430.66
456.54	470.45
456.73	433.00
456.91	425.98
457.09	374.49
457.28	395.55
457.46	393.21
457.64	437.68
457.83	463.43
458.01	428.32
458.19	409.59
458.38	404.91
458.56	454.06
458.74	369.80
458.93	367.46
459.11	416.62
459.29	404.91
459.48	470.45
459.66	461.09
459.84	383.85
460.03	411.93
460.21	451.72
460.39	468.11
460.57	381.51
460.76	367.46
460.94	442.36
461.12	468.11
461.31	402.57
461.49	444.70
461.67	409.59
461.85	435.34
462.04	414.27
462.22	938.55
462.40	428.32
462.59	362.78
462.77	414.27
462.95	381.51
463.13	341.72
463.32	447.04
463.50	400.23
463.68	402.57
463.86	447.04
464.05	322.99
464.23	430.66
464.41	404.91
464.59	491.51
464.78	395.55
464.96	451.72
465.14	447.04
465.32	425.98
465.50	433.00
465.69	433.00
465.87	334.70
466.05	404.91
466.23	393.21
466.41	416.62
466.60	400.23
466.78	416.62
466.96	423.64
467.14	484.49
467.32	507.90
467.51	442.36
467.69	423.64
467.87	484.49
468.05	393.21
468.23	449.38
468.41	388.53
468.60	423.64
468.78	379.17
468.96	393.21
469.14	430.66
469.32	360.44
469.50	376.83
469.69	346.40
469.87	337.04
470.05	402.57
470.23	315.97
470.41	383.85
470.59	341.72
470.77	376.83
470.95	386.19
471.14	397.89
471.32	411.93
471.50	475.13
471.68	294.91
471.86	393.21
472.04	348.74
472.22	365.12
472.40	409.59
472.58	369.80
472.77	341.72
472.95	360.44
473.13	440.02
473.31	376.83
473.49	388.53
473.67	444.70
473.85	421.30
474.03	374.49
474.21	400.23
474.39	425.98
474.57	404.91
474.75	388.53
474.93	423.64
475.12	407.25
475.30	346.40
475.48	447.04
475.66	376.83
475.84	297.25
476.02	425.98
476.20	348.74
476.38	425.98
476.56	454.06
476.74	383.85
476.92	318.31
477.10	479.81
477.28	407.25
477.46	339.38
477.64	470.45
477.82	395.55
478.00	458.74
478.18	400.23
478.36	400.23
478.54	407.25
478.72	407.25
478.90	433.00
479.08	435.34
479.26	533.64
479.44	566.41
479.62	456.40
479.80	564.07
479.98	414.27
480.16	571.09
480.34	528.96
480.52	596.84
480.70	636.63
480.88	624.92
481.06	655.35
481.24	660.03
481.41	777.06
481.59	751.31
481.77	730.25
481.95	791.10
482.13	870.68
482.31	863.66
482.49	1008.77
482.67	1135.16
482.85	1156.22
483.03	1170.27
483.21	1376.24
483.39	1336.45
483.57	1341.13
483.74	1497.94
483.92	1645.40
484.10	1689.87
484.28	1877.11
484.46	1872.43
484.64	1954.35
484.82	2097.12
485.00	2090.10
485.18	2174.36
485.35	2305.43
485.53	2455.22
485.71	2649.49
485.89	2605.02
486.07	2731.41
486.25	2736.09
486.43	2799.28
486.61	2693.96
486.78	2822.69
486.96	2813.32
487.14	2740.77
487.32	2832.05
487.50	2693.96
487.68	2794.60
487.85	2628.42
488.03	2698.64
488.21	2708.00
488.39	2583.95
488.57	2516.08
488.75	2427.14
488.92	2672.89
489.10	2352.24
489.28	2349.90
489.46	2356.92
489.64	2209.47
489.81	2216.49
489.99	2263.30
490.17	2129.89
490.35	2150.95
490.53	2165.00
490.70	2022.22
490.88	2134.57
491.06	2228.19
491.24	2267.98
491.41	2495.01
491.59	2354.58
491.77	2157.97
491.95	2153.29
492.13	1961.37
492.30	2015.20
492.48	1863.07
492.66	1952.01
492.84	1785.83
493.01	1867.75
493.19	1867.75
493.37	1886.47
493.54	1724.97
493.72	1729.66
493.90	1732.00
494.08	1689.87
494.25	1708.59
494.43	1638.38
494.61	1654.76
494.79	1593.90
494.96	1486.24
495.14	1521.35
495.32	1600.93
495.49	1521.35
495.67	1437.09
495.85	1476.88
496.02	1432.41
496.20	1437.09
496.38	1425.39
496.55	1366.87
496.73	1373.89
496.91	1387.94
497.09	1411.34
497.26	1303.68
497.44	1259.21
497.62	1238.14
497.79	1289.64
497.97	1210.06
498.14	1242.82
498.32	1198.35
498.50	1104.73
498.67	1006.43
498.85	1060.26
499.03	1057.92
499.20	997.07
499.38	987.71
499.56	1011.11
499.73	1034.52
499.91	976.00
500.08	870.68
500.26	922.17
500.44	884.72
500.61	851.96
500.79	894.08
500.97	898.77
501.14	788.76
501.32	770.04
501.49	788.76
501.67	788.76
501.84	699.82
502.02	688.12
502.20	809.83
502.37	711.52
502.55	669.39
502.72	709.18
502.90	669.39
503.07	564.07
503.25	622.58
503.43	573.43
503.60	585.13
503.78	519.60
503.95	550.03
504.13	550.03
504.30	533.64
504.48	582.79
504.65	564.07
504.83	552.37
505.01	503.22
505.18	484.49
505.36	475.13
505.53	517.26
505.71	456.40
505.88	479.81
506.06	440.02
506.23	390.87
506.41	468.11
506.58	482.15
506.76	477.47
506.93	479.81
507.11	486.83
507.28	442.36
507.46	444.70
507.63	477.47
507.81	400.23
507.98	411.93
508.16	400.23
508.33	505.56
508.50	433.00
508.68	482.15
508.85	477.47
509.03	397.89
509.20	442.36
509.38	561.73
509.55	482.15
509.73	454.06
509.90	519.60
510.08	395.55
510.25	428.32
510.42	374.49
510.60	425.98
510.77	465.77
510.95	423.64
511.12	402.57
511.30	500.87
511.47	395.55
511.64	477.47
511.82	379.17
511.99	491.51
512.17	454.06
512.34	383.85
512.51	395.55
512.69	444.70
512.86	414.27
513.04	397.89
513.21	425.98
513.38	381.51
513.56	404.91
513.73	383.85
513.90	355.76
514.08	397.89
514.25	348.74
514.43	393.21
514.60	440.02
514.77	290.23
514.95	297.25
515.12	351.08
515.29	344.06
515.47	423.64
515.64	397.89
515.81	341.72
515.99	383.85
516.16	374.49
516.33	358.10
516.51	390.87
516.68	330.02
516.85	388.53
517.03	311.29
517.20	304.27
517.37	346.40
517.54	308.95
517.72	390.87
517.89	292.57
518.06	313.63
518.24	360.44
518.41	367.46
518.58	416.62
518.75	341.72
518.93	388.53
519.10	339.38
519.27	306.61
519.45	421.30
519.62	409.59
519.79	411.93
519.96	334.70
520.14	430.66
520.31	388.53
520.48	327.68
520.65	463.43
520.83	360.44
521.00	332.36
521.17	346.40
521.34	383.85
521.52	266.82
521.69	365.12
521.86	313.63
522.03	348.74
522.20	374.49
522.38	339.38
522.55	332.36
522.72	334.70
522.89	388.53
523.07	454.06
523.24	362.78
523.41	348.74
523.58	369.80
523.75	379.17
523.92	327.68
524.10	306.61
524.27	400.23
524.44	327.68
524.61	337.04
524.78	367.46
524.96	397.89
525.13	393.21
525.30	418.96
525.47	447.04
525.64	397.89
525.81	379.17
525.98	369.80
526.16	430.66
526.33	344.06
526.50	334.70
526.67	337.04
526.84	390.87
527.01	472.79
527.18	430.66
527.36	475.13
527.53	463.43
527.70	425.98
527.87	404.91
528.04	489.17
528.21	351.08
528.38	421.30
528.55	386.19
528.72	451.72
528.89	531.30
529.07	519.60
529.24	440.02
529.41	482.15
529.58	528.96
529.75	437.68
529.92	454.06
530.09	444.70
530.26	477.47
530.43	498.53
530.60	472.79
530.77	468.11
530.94	564.07
531.11	538.32
531.28	615.56
531.46	554.71
531.63	519.60
531.80	566.41
531.97	690.46
532.14	746.63
532.31	847.27
532.48	1036.86
532.65	1174.95
532.82	1306.02
532.99	1509.65
533.16	1734.34
533.33	1710.93
533.50	1600.93
533.67	1315.38
533.84	1153.88
534.01	1142.18
534.18	1071.97
534.35	1036.86
534.52	1022.81
534.69	1149.20
534.86	1055.58
535.03	1067.28
535.20	1256.87
535.37	1280.27
535.54	1252.19
535.71	1327.08
535.88	1486.24
536.05	1488.58
536.22	1629.01
536.38	1790.51
536.55	1865.41
536.72	2181.38
536.89	2361.60
537.06	2502.03
537.23	2892.90
537.40	3260.37
537.57	3461.65
537.74	3735.50
537.91	3534.21
538.08	3796.35
538.25	3765.92
538.42	3948.48
538.59	3911.04
538.75	4032.74
538.92	4262.12
539.09	4821.50
539.26	5338.76
539.43	6001.13
539.60	6696.27
539.77	7655.89
539.94	8484.44
540.11	9214.69
540.28	10267.93
540.44	10951.37
540.61	11999.93
540.78	13905.12
540.95	16772.28
541.12	20439.90
541.29	22857.67
541.46	23730.69
541.62	23318.76
541.79	22611.92
541.96	21245.04
542.13	19459.21
542.30	18092.34
542.47	17238.05
542.63	16161.40
542.80	15405.41
542.97	15318.81
543.14	15372.64
543.31	15201.78
543.48	15096.46
543.64	15599.67
543.81	15845.43
543.98	15679.25
544.15	16020.97
544.32	15903.94
544.48	15906.28
544.65	15817.34
544.82	15833.72
544.99	15800.96
545.16	16276.09
545.32	16716.11
545.49	28250.27
545.66	52306.29
545.83	58174.02
546.00	51980.96
546.16	36744.07
546.33	27295.33
546.50	20322.87
546.67	15948.41
546.83	14223.44
547.00	13755.33
547.17	13259.13
547.34	12603.78
547.50	12030.35
547.67	11712.04
547.84	11129.25
548.00	10897.53
548.17	10375.59
548.34	9750.67
548.51	9598.54
548.67	9013.40
548.84	8620.19
549.01	8180.17
549.18	7960.16
549.34	7573.97
549.51	7363.33
549.68	7056.72
549.84	6731.38
550.01	6520.73
550.18	6291.36
550.34	5905.17
550.51	5795.17
550.68	5369.19
550.84	5036.83
551.01	4952.57
551.18	4688.09
551.34	4329.99
551.51	4219.99
551.68	4095.94
551.84	3929.76
552.01	3749.54
552.18	3508.46
552.34	3384.41
552.51	3276.75
552.68	3199.51
552.84	2939.71
553.01	2855.45
553.18	2869.50
553.34	2782.90
553.51	2619.06
553.67	2658.85
553.84	2569.91
554.01	2286.70
554.17	2225.85
554.34	1963.71
554.51	1966.05
554.67	1919.24
554.84	1717.95
555.00	1626.67
555.17	1586.88
555.33	1572.84
555.50	1430.07
555.67	1352.83
555.83	1266.23
556.00	1247.51
556.16	1455.81
556.33	1289.64
556.50	1174.95
556.66	1231.12
556.83	1104.73
556.99	1006.43
557.16	1050.90
557.32	1013.45
557.49	992.39
557.65	954.94
557.82	1022.81
557.98	997.07
558.15	1015.79
558.32	880.04
558.48	812.17
558.65	856.64
558.81	779.40
558.98	812.17
559.14	802.80
559.31	727.91
559.47	753.65
559.64	837.91
559.80	809.83
559.97	741.95
560.13	671.73
560.30	746.63
560.46	711.52
560.63	725.57
560.79	664.71
560.96	748.97
561.12	727.91
561.29	741.95
561.45	716.20
561.61	699.82
561.78	791.10
561.94	723.23
562.11	720.88
562.27	704.50
562.44	683.44
562.60	690.46
562.77	638.97
562.93	709.18
563.10	720.88
563.26	641.31
563.42	660.03
563.59	629.60
563.75	638.97
563.92	641.31
564.08	648.33
564.24	627.26
564.41	662.37
564.57	571.09
564.74	559.39
564.90	617.90
565.07	629.60
565.23	653.01
565.39	629.60
565.56	631.94
565.72	543.00
565.88	493.85
566.05	484.49
566.21	533.64
566.38	624.92
566.54	559.39
566.70	622.58
566.87	606.20
567.03	531.30
567.19	559.39
567.36	594.50
567.52	587.47
567.68	521.94
567.85	627.26
568.01	531.30
568.17	585.13
568.34	622.58
568.50	540.66
568.66	578.11
568.83	648.33
568.99	503.22
569.15	580.45
569.32	517.26
569.48	430.66
569.64	512.58
569.81	472.79
569.97	496.19
570.13	442.36
570.30	423.64
570.46	437.68
570.62	507.90
570.78	442.36
570.95	404.91
571.11	454.06
571.27	463.43
571.43	409.59
571.60	440.02
571.76	372.15
571.92	440.02
572.09	463.43
572.25	463.43
572.41	435.34
572.57	458.74
572.74	423.64
572.90	521.94
573.06	463.43
573.22	489.17
573.38	503.22
573.55	524.28
573.71	557.05
573.87	465.77
574.03	454.06
574.20	540.66
574.36	592.16
574.52	550.03
574.68	498.53
574.84	531.30
575.01	559.39
575.17	709.18
575.33	641.31
575.49	709.18
575.65	746.63
575.82	866.00
575.98	910.47
576.14	1029.84
576.30	1842.00
576.46	5949.64
576.62	10277.29
576.79	11131.59
576.95	7875.90
577.11	5123.43
577.27	3808.05
577.43	2544.16
577.59	1706.25
577.75	1425.39
577.92	1320.06
578.08	1245.16
578.24	1263.89
578.40	2008.18
578.56	5820.91
578.72	9715.56
578.88	10469.22
579.04	7583.34
579.21	5336.42
579.37	4072.53
579.53	3028.65
579.69	3012.27
579.85	3709.75
580.01	4182.54
580.17	3911.04
580.33	3304.84
580.49	2930.35
580.65	2590.97
580.82	2450.54
580.98	2422.45
581.14	2457.56
581.30	2651.83
581.46	2717.36
581.62	2998.23
581.78	3206.53
581.94	3316.54
582.10	3590.38
582.26	3684.00
582.42	3840.82
582.58	4032.74
582.74	4152.11
582.90	4236.37
583.06	4231.69
583.22	4114.66
583.38	3929.76
583.54	4016.36
583.70	4156.79
583.86	4044.45
584.02	3985.93
584.18	4067.85
584.34	3765.92
584.50	3742.52
584.66	3754.22
584.82	3693.37
584.98	3611.45
585.14	3492.08
585.30	3611.45
585.46	3375.05
585.62	3379.73
585.78	3316.54
585.94	3295.47
586.10	3447.61
586.26	3810.39
586.42	4147.43
586.58	5085.98
586.74	6237.53
586.90	7307.15
587.06	7801.01
587.22	7721.43
587.38	7014.59
587.54	5905.17
587.70	5198.33
587.86	4360.42
588.02	3758.90
588.18	3220.58
588.34	2909.29
588.49	2693.96
588.65	2490.33
588.81	2466.92
588.97	2408.41
589.13	2237.55
589.29	2270.32
589.45	2286.70
589.61	2270.32
589.77	2335.85
589.93	2310.11
590.08	2326.49
590.24	2588.63
590.40	2457.56
590.56	2630.76
590.72	2672.89
590.88	2715.02
591.04	2785.24
591.20	2820.35
591.35	3070.78
591.51	3253.34
591.67	3316.54
591.83	3435.91
591.99	3819.75
592.15	4039.76
592.31	4365.10
592.46	4919.81
592.62	5266.21
592.78	5738.99
592.94	5682.82
593.10	5614.95
593.26	5322.38
593.41	4828.53
593.57	4381.48
593.73	3913.38
593.89	3588.04
594.05	3126.96
594.20	2729.06
594.36	2637.78
594.52	2431.82
594.68	2352.24
594.84	2230.53
594.99	2286.70
595.15	2165.00
595.31	2181.38
595.47	2069.03
595.62	2141.59
595.78	2104.14
595.94	2047.97
596.10	2099.46
596.25	2092.44
596.41	2031.58
596.57	2076.06
596.73	2036.27
596.88	1998.82
597.04	2024.56
597.20	2040.95
597.36	2118.18
597.51	2157.97
597.67	2246.91
597.83	2335.85
597.99	2464.58
598.14	2509.05
598.30	2726.72
598.46	2829.71
598.61	3190.15
598.77	3232.28
598.93	3133.98
599.09	3442.93
599.24	3534.21
599.40	3407.82
599.56	3243.98
599.71	3096.53
599.87	2939.71
600.03	2899.92
600.18	2647.15
600.34	2555.86
600.50	2352.24
600.65	2216.49
600.81	2062.01
600.97	1926.26
601.12	1867.75
601.28	1795.19
601.44	1799.87
601.59	1617.31
601.75	1617.31
601.91	1554.12
602.06	1554.12
602.22	1387.94
602.37	1453.47
602.53	1338.79
602.69	1497.94
602.84	1359.85
603.00	1416.02
603.16	1434.75
603.31	1310.70
603.47	1472.20
603.62	1467.52
603.78	1509.65
603.94	1544.75
604.09	1549.43
604.25	1554.12
604.40	1561.14
604.56	1504.96
604.71	1645.40
604.87	1614.97
605.03	1647.74
605.18	1626.67
605.34	1743.70
605.49	1816.26
