SpectraSuite Data File
++++++++++++++++++++++++++++++++++++
Date: Fri Oct 04 11:42:22 GMT-05:00 2013
User: price-jones
Dark Spectrum Present: No
Reference Spectrum Present: No
Number of Sampled Component Spectra: 1
Spectrometers: USB2+H05261
Integration Time (usec): 100000 (USB2+H05261)
Spectra Averaged: 1 (USB2+H05261)
Boxcar Smoothing: 0 (USB2+H05261)
Correct for Electrical Dark: No (USB2+H05261)
Strobe/Lamp Enabled: No (USB2+H05261)
Correct for Detector Non-linearity: No (USB2+H05261)
Correct for Stray Light: No (USB2+H05261)
Number of Pixels in Processed Spectrum: 2048
>>>>>Begin Processed Spectral Data<<<<<
365.73	18.72
365.92	18.72
366.12	18.72
366.32	0.00
366.52	0.00
366.72	0.00
366.91	0.00
367.11	0.00
367.31	0.00
367.51	0.00
367.70	0.00
367.90	0.00
368.10	0.00
368.30	0.00
368.49	2.34
368.69	0.00
368.89	0.00
369.09	0.00
369.28	0.00
369.48	0.00
369.68	2.34
369.87	4.68
370.07	0.00
370.27	100.64
370.47	140.43
370.66	545.34
370.86	631.94
371.06	746.63
371.25	713.86
371.45	664.71
371.65	566.41
371.84	557.05
372.04	496.19
372.24	624.92
372.44	685.78
372.63	683.44
372.83	578.11
373.03	573.43
373.22	550.03
373.42	571.09
373.62	526.62
373.81	704.50
374.01	653.01
374.21	692.80
374.40	617.90
374.60	617.90
374.79	711.52
374.99	737.27
375.19	755.99
375.38	809.83
375.58	718.54
375.78	746.63
375.97	716.20
376.17	863.66
376.37	809.83
376.56	823.87
376.76	765.36
376.95	816.85
377.15	931.53
377.35	1029.84
377.54	976.00
377.74	1034.52
377.93	983.02
378.13	938.55
378.33	861.32
378.52	837.91
378.72	863.66
378.91	765.36
379.11	798.12
379.31	851.96
379.50	737.27
379.70	896.43
379.89	1015.79
380.09	887.06
380.28	880.04
380.48	926.85
380.68	858.98
380.87	912.81
381.07	772.38
381.26	875.36
381.46	720.88
381.65	734.93
381.85	746.63
382.04	741.95
382.24	716.20
382.43	713.86
382.63	629.60
382.83	650.67
383.02	648.33
383.22	636.63
383.41	664.71
383.61	713.86
383.80	720.88
384.00	854.30
384.19	866.00
384.39	976.00
384.58	1032.18
384.78	976.00
384.97	992.39
385.17	873.02
385.36	826.21
385.56	868.34
385.75	835.57
385.95	828.55
386.14	1050.90
386.34	887.06
386.53	943.24
386.72	863.66
386.92	842.59
387.11	1022.81
387.31	959.62
387.50	940.90
387.70	957.28
387.89	915.15
388.09	917.49
388.28	919.83
388.48	891.74
388.67	964.30
388.86	1104.73
389.06	1156.22
389.25	1252.19
389.45	1336.45
389.64	1165.59
389.84	1186.65
390.03	1132.82
390.22	1128.14
390.42	1191.33
390.61	1338.79
390.81	1345.81
391.00	1437.09
391.19	1331.76
391.39	1289.64
391.58	1233.46
391.78	1160.91
391.97	1240.48
392.16	1160.91
392.36	990.05
392.55	784.08
392.75	741.95
392.94	578.11
393.13	587.47
393.33	620.24
393.52	826.21
393.71	964.30
393.91	1116.44
394.10	1172.61
394.29	1210.06
394.49	1364.53
394.68	1411.34
394.88	1364.53
395.07	1439.43
395.26	1411.34
395.46	1373.89
395.65	1317.72
395.84	1193.67
396.04	1022.81
396.23	943.24
396.42	655.35
396.62	777.06
396.81	896.43
397.00	1062.60
397.19	1111.75
397.39	1383.26
397.58	1626.67
397.77	1612.63
397.97	1685.19
398.16	1741.36
398.35	1837.32
398.55	1797.53
398.74	1874.77
398.93	1926.26
399.12	1851.36
399.32	1898.17
399.51	1837.32
399.70	1966.05
399.90	1937.96
400.09	1982.43
400.28	1891.15
400.47	1921.58
400.67	2017.54
400.86	2015.20
401.05	1994.14
401.24	2162.66
401.44	2111.16
401.63	2045.63
401.82	2160.31
402.01	2174.36
402.21	2160.31
402.40	2064.35
402.59	2146.27
402.78	2078.40
402.97	1952.01
403.17	2010.52
403.36	2136.91
403.55	2207.13
403.74	2256.28
403.93	2104.14
404.13	2101.80
404.32	2036.27
404.51	2129.89
404.70	2242.23
404.89	2104.14
405.09	2139.25
405.28	2108.82
405.47	2165.00
405.66	2047.97
405.85	2090.10
406.05	1996.48
406.24	2017.54
406.43	2073.71
406.62	2141.59
406.81	2162.66
407.00	2108.82
407.20	2043.29
407.39	2064.35
407.58	2214.15
407.77	2293.72
407.96	2289.04
408.15	2331.17
408.34	2480.97
408.54	2450.54
408.73	2473.95
408.92	2375.64
409.11	2448.20
409.30	2167.34
409.49	2183.72
409.68	2033.93
409.87	1963.71
410.07	2036.27
410.26	2155.63
410.45	2249.25
410.64	2310.11
410.83	2436.50
411.02	2422.45
411.21	2654.17
411.40	2597.99
411.59	2539.48
411.78	2520.76
411.98	2590.97
412.17	2689.28
412.36	2403.73
412.55	2487.99
412.74	2366.28
412.93	2485.65
413.12	2370.96
413.31	2658.85
413.50	2495.01
413.69	2597.99
413.88	2483.31
414.07	2499.69
414.26	2429.48
414.45	2537.14
414.64	2654.17
414.83	2677.57
415.02	2567.57
415.22	2670.55
415.41	2649.49
415.60	2682.25
415.79	2771.19
415.98	2878.86
416.17	2930.35
416.36	2796.94
416.55	2759.49
416.74	2722.04
416.93	2703.32
417.12	2537.14
417.31	2623.74
417.50	2595.65
417.69	2752.47
417.88	2609.70
418.07	2794.60
418.26	2740.77
418.45	2649.49
418.64	2813.32
418.83	2853.11
419.02	2818.00
419.21	2787.58
419.39	2633.10
419.58	2600.34
419.77	2572.25
419.96	2635.44
420.15	2937.37
420.34	2892.90
420.53	3012.27
420.72	2918.65
420.91	3089.51
421.10	3082.49
421.29	2939.71
421.48	2829.71
421.67	3038.02
421.86	2878.86
422.05	2750.13
422.24	2509.05
422.43	2499.69
422.61	2586.29
422.80	2869.50
422.99	2942.05
423.18	2942.05
423.37	2801.62
423.56	2782.90
423.75	2850.77
423.94	2801.62
424.13	2682.25
424.32	2689.28
424.50	2848.43
424.69	2729.06
424.88	2679.91
425.07	2555.86
425.26	2708.00
425.45	2719.70
425.64	2621.40
425.83	2668.21
426.01	2818.00
426.20	2754.81
426.39	2745.45
426.58	2628.42
426.77	2424.80
426.96	2354.58
427.15	2368.62
427.33	2586.29
427.52	2649.49
427.71	2672.89
427.90	2602.68
428.09	2731.41
428.28	2614.38
428.46	2586.29
428.65	2385.01
428.84	2619.06
429.03	2511.39
429.22	2457.56
429.40	2242.23
429.59	2190.74
429.78	2017.54
429.97	1933.28
430.16	1919.24
430.34	1930.94
430.53	1900.52
430.72	2019.88
430.91	2209.47
431.10	2516.08
431.28	2815.66
431.47	3056.74
431.66	3155.04
431.85	2953.76
432.03	2782.90
432.22	2651.83
432.41	2747.79
432.60	2972.48
432.79	3063.76
432.97	3019.29
433.16	3077.80
433.35	2792.26
433.54	2546.50
433.72	2548.84
433.91	2593.31
434.10	2698.64
434.28	2930.35
434.47	3096.53
434.66	3038.02
434.85	2888.22
435.03	2855.45
435.22	3276.75
435.41	3669.96
435.59	3648.90
435.78	3485.06
435.97	3393.78
436.16	3473.36
436.34	3309.52
436.53	3171.43
436.72	3276.75
436.90	3054.40
437.09	3087.17
437.28	3061.42
437.46	3038.02
437.65	2977.16
437.84	2909.29
438.02	2775.88
438.21	2715.02
438.40	2785.24
438.58	2979.50
438.77	3075.46
438.96	3101.21
439.14	3194.83
439.33	3368.03
439.52	3356.33
439.70	3222.92
439.89	3229.94
440.08	3215.90
440.26	3126.96
440.45	3288.45
440.63	3248.66
440.82	3625.49
441.01	3468.67
441.19	3391.44
441.38	3426.54
441.57	3740.18
441.75	3747.20
441.94	3662.94
442.12	3660.60
442.31	3599.74
442.50	3686.34
442.68	3714.43
442.87	3646.55
443.05	3611.45
443.24	3627.83
443.43	3588.04
443.61	3763.58
443.80	3866.56
443.98	3651.24
444.17	3655.92
444.35	3840.82
444.54	3833.80
444.73	3854.86
444.91	3892.31
445.10	3552.93
445.28	3440.59
445.47	3281.43
445.65	3419.52
445.84	3503.78
446.02	3543.57
446.21	3627.83
446.39	3686.34
446.58	3705.07
446.77	3854.86
446.95	3721.45
447.14	3854.86
447.32	3892.31
447.51	3742.52
447.69	3726.13
447.88	3637.19
448.06	3641.87
448.25	3911.04
448.43	3737.84
448.62	3721.45
448.80	3824.44
448.99	3684.00
449.17	3812.73
449.36	3728.47
449.54	3786.99
449.73	3936.78
449.91	3934.44
450.10	4126.36
450.28	4154.45
450.46	4135.73
450.65	4117.00
450.83	4112.32
451.02	4011.68
451.20	3955.51
451.39	3901.67
451.57	4037.42
451.76	3878.27
451.94	3927.42
452.13	3953.16
452.31	3637.19
452.49	3569.32
452.68	3503.78
452.86	3679.32
453.05	3716.77
453.23	3798.69
453.42	3836.14
453.60	3824.44
453.78	3943.80
453.97	3833.80
454.15	3925.08
454.34	3782.31
454.52	3878.27
454.70	3918.06
454.89	3705.07
455.07	3735.50
455.26	3918.06
455.44	3981.25
455.62	4147.43
455.81	4152.11
455.99	4011.68
456.17	4159.13
456.36	4093.60
456.54	4124.02
456.73	4126.36
456.91	4257.43
457.09	4147.43
457.28	4388.50
457.46	4119.34
457.64	4107.64
457.83	3953.16
458.01	4032.74
458.19	4063.17
458.38	4102.96
458.56	4219.99
458.74	4215.30
458.93	4086.58
459.11	4107.64
459.29	4032.74
459.48	4149.77
459.66	4124.02
459.84	4037.42
460.03	4236.37
460.21	4175.52
460.39	4147.43
460.57	4170.83
460.76	4234.03
460.94	4203.60
461.12	4175.52
461.31	4114.66
461.49	4182.54
461.67	4175.52
461.85	4407.23
462.04	4269.14
462.22	4451.70
462.40	4187.22
462.59	4212.96
462.77	4339.35
462.95	4404.89
463.13	4285.52
463.32	4320.63
463.50	4215.30
463.68	4276.16
463.86	4184.88
464.05	4095.94
464.23	4051.47
464.41	4091.26
464.59	3955.51
464.78	4231.69
464.96	4138.07
465.14	4095.94
465.32	4212.96
465.50	4362.76
465.69	4257.43
465.87	4131.05
466.05	4304.25
466.23	3981.25
466.41	3887.63
466.60	3927.42
466.78	3875.93
466.96	4093.60
467.14	4173.18
467.32	4156.79
467.51	4156.79
467.69	3976.57
467.87	4133.39
468.05	4236.37
468.23	4053.81
468.41	4124.02
468.60	4161.47
468.78	4128.70
468.96	4112.32
469.14	4173.18
469.32	4234.03
469.50	4133.39
469.69	4009.34
469.87	3950.82
470.05	3836.14
470.23	3934.44
470.41	3950.82
470.59	4051.47
470.77	4161.47
470.95	4161.47
471.14	4234.03
471.32	4159.13
471.50	4418.93
471.68	4435.32
471.86	4386.16
472.04	4409.57
472.22	4432.97
472.40	4222.33
472.58	4374.46
472.77	4269.14
472.95	4187.22
473.13	4486.81
473.31	4346.37
473.49	4266.80
473.67	4367.44
473.85	4451.70
474.03	4587.45
474.21	4599.15
474.39	4702.14
474.57	4622.56
474.75	4561.70
474.93	4552.34
475.12	4486.81
475.30	4353.40
475.48	4381.48
475.66	4531.28
475.84	4519.57
476.02	4489.15
476.20	4362.76
476.38	4212.96
476.56	4505.53
476.74	4681.07
476.92	4643.62
477.10	4610.86
477.28	4840.23
477.46	4823.84
477.64	4940.87
477.82	4936.19
478.00	4922.15
478.18	4844.91
478.36	4873.00
478.54	4929.17
478.72	4812.14
478.90	4912.78
479.08	5261.52
479.26	5212.37
479.44	5240.46
479.62	5268.55
479.80	5142.16
479.98	5277.91
480.16	5181.95
480.34	5245.14
480.52	5247.48
480.70	5233.44
480.88	5132.79
481.06	5427.70
481.24	5247.48
481.41	5444.09
481.59	5650.05
481.77	5612.60
481.95	5607.92
482.13	5528.35
482.31	5493.24
482.49	5584.52
482.67	5579.84
482.85	5717.93
483.03	5863.04
483.21	5755.38
483.39	5694.52
483.57	5572.82
483.74	5647.71
483.92	5757.72
484.10	5825.59
484.28	5858.36
484.46	6066.67
484.64	6038.58
484.82	5710.91
485.00	5823.25
485.18	5518.98
485.35	5371.53
485.53	5067.26
485.71	4746.61
485.89	4451.70
486.07	4875.34
486.25	5203.01
486.43	5441.75
486.61	5633.67
486.78	5650.05
486.96	5504.94
487.14	5846.66
487.32	6043.26
487.50	6115.82
487.68	6139.23
487.85	6274.98
488.03	6480.94
488.21	6349.87
488.39	6033.90
488.57	6092.41
488.75	6015.18
488.92	6349.87
489.10	6637.76
489.28	6590.95
489.46	6815.64
489.64	6890.54
489.81	6916.28
489.99	6892.88
490.17	6876.49
490.35	7016.93
490.53	6878.83
490.70	6839.05
490.88	6848.41
491.06	6885.86
491.24	7096.50
491.41	6956.07
491.59	6576.91
491.77	6375.62
491.95	6455.20
492.13	6759.47
492.30	6972.46
492.48	7204.17
492.66	7314.17
492.84	7197.15
493.01	7197.15
493.19	7096.50
493.37	7045.01
493.54	6965.43
493.72	7096.50
493.90	7197.15
494.08	7522.48
494.25	7630.15
494.43	7786.96
494.61	7496.74
494.79	7644.19
494.96	7714.41
495.14	7653.55
495.32	7311.83
495.49	7133.95
495.67	7468.65
495.85	7723.77
496.02	7955.48
496.20	7801.01
496.38	7918.03
496.55	7550.57
496.73	7789.30
496.91	7864.20
497.09	8067.83
497.26	7955.48
497.44	7990.59
497.62	7686.32
497.79	7702.70
497.97	7351.62
498.14	7260.34
498.32	7396.09
498.50	7808.03
498.67	7948.46
498.85	7885.26
499.03	7742.49
499.20	7868.88
499.38	7953.14
499.56	8046.76
499.73	7985.91
499.91	7737.81
500.08	7765.90
500.26	7475.67
500.44	7496.74
500.61	7630.15
500.79	7578.65
500.97	7606.74
501.14	7583.34
501.32	7375.03
501.49	7346.94
501.67	7520.14
501.84	7702.70
502.02	7683.98
502.20	7845.48
502.37	7782.28
502.55	7578.65
502.72	7850.16
502.90	8042.08
503.07	7857.18
503.25	7599.72
503.43	7424.18
503.60	7122.25
503.78	7112.89
503.95	7239.28
504.13	7386.73
504.30	7866.54
504.48	7859.52
504.65	7833.77
504.83	7927.39
505.01	8072.51
505.18	8102.93
505.36	8079.53
505.53	8131.02
505.71	8381.46
505.88	8463.38
506.06	8210.60
506.23	8037.40
506.41	8131.02
506.58	7845.48
506.76	7899.31
506.93	7896.97
507.11	8028.04
507.28	7990.59
507.46	7775.26
507.63	7676.96
507.81	7644.19
507.98	7819.73
508.16	8004.63
508.33	8217.62
508.50	8304.22
508.68	8348.69
508.85	8421.25
509.03	8475.08
509.20	8266.77
509.38	8175.49
509.55	8081.87
509.73	7896.97
509.90	8327.63
510.08	8191.88
510.25	8273.79
510.42	8248.05
510.60	8416.57
510.77	8210.60
510.95	8428.27
511.12	8477.42
511.30	8552.32
511.47	8578.06
511.64	8617.85
511.82	8760.63
511.99	8294.86
512.17	8383.80
512.34	8217.62
512.51	8016.33
512.69	8236.35
512.86	8262.09
513.04	8421.25
513.21	8437.63
513.38	8306.56
513.56	8196.56
513.73	8030.38
513.90	7957.82
514.08	8201.24
514.25	8042.08
514.43	8367.42
514.60	8540.61
514.77	8266.77
514.95	8276.13
515.12	8191.88
515.29	8386.14
515.47	8582.74
515.64	8615.51
515.81	8531.25
515.99	8290.18
516.16	8163.79
516.33	7485.03
516.51	6944.37
516.68	6867.13
516.85	6736.06
517.03	6761.81
517.20	7314.17
517.37	7932.08
517.54	8215.28
517.72	8189.53
517.89	7470.99
518.06	6864.79
518.24	7187.79
518.41	7735.47
518.58	7934.42
518.75	8046.76
518.93	8133.36
519.10	8046.76
519.27	8229.32
519.45	8203.58
519.62	8315.92
519.79	8615.51
519.96	8449.33
520.14	8449.33
520.31	8063.15
520.48	8219.96
520.65	8093.57
520.83	8468.06
521.00	8496.14
521.17	8444.65
521.34	8365.07
521.52	8465.72
521.69	8540.61
521.86	8739.56
522.03	8557.00
522.20	8372.10
522.38	7992.93
522.55	8091.23
522.72	8006.97
522.89	8156.77
523.07	8353.37
523.24	8559.34
523.41	8582.74
523.58	8772.33
523.75	8922.12
523.92	8655.30
524.10	8777.01
524.27	8842.54
524.44	8615.51
524.61	8671.68
524.78	8608.49
524.96	8479.76
525.13	8437.63
525.30	8681.05
525.47	8571.04
525.64	8606.15
525.81	8528.91
525.98	8276.13
526.16	7969.52
526.33	7478.01
526.50	7405.46
526.67	7384.39
526.84	7492.05
527.01	7812.71
527.18	7943.78
527.36	8074.85
527.53	8723.18
527.70	8554.66
527.87	8454.02
528.04	8610.83
528.21	8311.24
528.38	8533.59
528.55	8650.62
528.72	8837.86
528.89	9050.85
529.07	8659.98
529.24	8868.29
529.41	8683.39
529.58	8255.07
529.75	8439.97
529.92	8446.99
530.09	8542.96
530.26	8791.05
530.43	9025.11
530.60	8929.14
530.77	8847.22
530.94	8990.00
531.11	8720.84
531.28	8706.79
531.46	8746.58
531.63	8683.39
531.80	8884.67
531.97	8559.34
532.14	8451.67
532.31	8021.02
532.48	8011.65
532.65	7953.14
532.82	8196.56
532.99	8549.98
533.16	8676.37
533.33	8755.94
533.50	8524.23
533.67	8493.80
533.84	8407.20
534.01	8313.58
534.18	8528.91
534.35	8400.18
534.52	8503.17
534.69	8662.32
534.86	8681.05
535.03	8667.00
535.20	8987.66
535.37	9149.15
535.54	8975.95
535.71	8964.25
535.88	8751.26
536.05	8538.27
536.22	8552.32
536.38	8479.76
536.55	8283.16
536.72	8243.37
536.89	7967.18
537.06	8390.82
537.23	8613.17
537.40	8643.60
537.57	8657.64
537.74	8793.39
537.91	8879.99
538.08	8594.45
538.25	8683.39
538.42	8957.23
538.59	8716.16
538.75	8510.19
538.92	8320.60
539.09	8248.05
539.26	8182.51
539.43	8212.94
539.60	8145.06
539.77	8255.07
539.94	8355.71
540.11	8028.04
540.28	8018.68
540.44	7854.84
540.61	7953.14
540.78	8119.32
540.95	8072.51
541.12	8500.83
541.29	8479.76
541.46	8629.56
541.62	8690.41
541.79	8580.40
541.96	8519.55
542.13	8566.36
542.30	8580.40
542.47	8631.90
542.63	8578.06
542.80	8411.89
542.97	8557.00
543.14	8411.89
543.31	8318.26
543.48	8538.27
543.64	8793.39
543.81	9074.26
543.98	9081.28
544.15	8765.31
544.32	8713.81
544.48	8648.28
544.65	8737.22
544.82	8819.14
544.99	8519.55
545.16	8439.97
545.32	8484.44
545.49	9116.39
545.66	9551.73
545.83	9523.64
546.00	9254.48
546.16	8706.79
546.33	8784.03
546.50	8514.87
546.67	8491.46
546.83	8587.43
547.00	8589.77
547.17	8402.52
547.34	8189.53
547.50	7962.50
547.67	8189.53
547.84	8219.96
548.00	8294.86
548.17	8283.16
548.34	8421.25
548.51	8477.42
548.67	8477.42
548.84	8585.08
549.01	8332.31
549.18	8285.50
549.34	8308.90
549.51	8416.57
549.68	8346.35
549.84	8100.59
550.01	8280.82
550.18	8432.95
550.34	8489.12
550.51	8311.24
550.68	8229.32
550.84	8018.68
551.01	8112.30
551.18	8131.02
551.34	8313.58
551.51	8311.24
551.68	8360.39
551.84	8344.01
552.01	8379.12
552.18	8372.10
552.34	8173.15
552.51	8060.80
552.68	7964.84
552.84	8138.04
553.01	8067.83
553.18	8280.82
553.34	8189.53
553.51	8114.64
553.67	8222.30
553.84	8287.84
554.01	8219.96
554.17	8124.00
554.34	8269.11
554.51	8060.80
554.67	8238.69
554.84	8397.84
555.00	8273.79
555.17	8161.45
555.33	8088.89
555.50	8098.25
555.67	8039.74
555.83	8175.49
556.00	8088.89
556.16	8203.58
556.33	7854.84
556.50	7779.94
556.66	8016.33
556.83	7798.66
556.99	7831.43
557.16	7992.93
557.32	7871.22
557.49	7990.59
557.65	7950.80
557.82	8044.42
557.98	7920.37
558.15	7742.49
558.32	7541.21
558.48	7559.93
558.65	7370.35
558.81	7501.42
558.98	7463.97
559.14	7543.55
559.31	7435.88
559.47	7803.35
559.64	7534.18
559.80	7639.51
559.97	7592.70
560.13	7501.42
560.30	7899.31
560.46	7960.16
560.63	7882.92
560.79	8119.32
560.96	7887.61
561.12	7721.43
561.29	7311.83
561.45	7529.50
561.61	7466.31
561.78	7737.81
561.94	7599.72
562.11	7611.42
562.27	7480.35
562.44	7529.50
562.60	7639.51
562.77	7489.71
562.93	7740.15
563.10	7782.28
563.26	7723.77
563.42	7728.45
563.59	7517.80
563.75	7534.18
563.92	7644.19
564.08	7529.50
564.24	7672.28
564.41	7695.68
564.57	7536.52
564.74	7360.98
564.90	7648.87
565.07	7634.83
565.23	7456.95
565.39	7459.29
565.56	7290.77
565.72	7098.84
565.88	7250.98
566.05	7222.89
566.21	7452.27
566.38	7382.05
566.54	7428.86
566.70	7510.78
566.87	7604.40
567.03	7510.78
567.19	7503.76
567.36	7478.01
567.52	7473.33
567.68	7227.57
567.85	7059.06
568.01	6942.03
568.17	6771.17
568.34	6801.60
568.50	6808.62
568.66	6787.55
568.83	6960.75
568.99	6733.72
569.15	6965.43
569.32	7101.19
569.48	6855.43
569.64	6733.72
569.81	6740.74
569.97	6869.47
570.13	7012.24
570.30	6806.28
570.46	6668.19
570.62	6750.10
570.78	6647.12
570.95	6782.87
571.11	6874.15
571.27	6960.75
571.43	7028.63
571.60	6820.32
571.76	6918.62
571.92	6993.52
572.09	6892.88
572.25	6949.05
572.41	6979.48
572.57	7056.72
572.74	7000.54
572.90	6827.34
573.06	6925.65
573.22	6944.37
573.38	7105.87
573.55	6958.41
573.71	6902.24
573.87	6956.07
574.03	6782.87
574.20	6785.21
574.36	6759.47
574.52	6443.49
574.68	6736.06
574.84	6654.14
575.01	6668.19
575.17	6764.15
575.33	6574.56
575.49	6654.14
575.65	6644.78
575.82	6633.08
575.98	6696.27
576.14	6817.98
576.30	6792.23
576.46	6733.72
576.62	6956.07
576.79	7073.10
576.95	6773.51
577.11	6808.62
577.27	6579.25
577.43	6677.55
577.59	6593.29
577.75	6553.50
577.92	6399.02
578.08	6387.32
578.24	6502.01
578.40	6518.39
578.56	6806.28
578.72	6717.34
578.88	6670.53
579.04	6918.62
579.21	6544.14
579.37	6834.36
579.53	6579.25
579.69	6698.61
579.85	6794.58
580.01	6878.83
580.17	6471.58
580.33	6677.55
580.49	6946.71
580.65	6771.17
580.82	6581.59
580.98	6773.51
581.14	6740.74
581.30	6663.51
581.46	6761.81
581.62	6810.96
581.78	6853.09
581.94	6981.82
582.10	6857.77
582.26	6808.62
582.42	6904.58
582.58	6913.94
582.74	6724.36
582.90	6995.86
583.06	6853.09
583.22	6855.43
583.38	6785.21
583.54	6822.66
583.70	6696.27
583.86	6696.27
584.02	6960.75
584.18	6815.64
584.34	6981.82
584.50	6778.19
584.66	6703.29
584.82	6628.40
584.98	6581.59
585.14	6518.39
585.30	6307.74
585.46	6274.98
585.62	6459.88
585.78	6216.46
585.94	6122.84
586.10	6494.99
586.26	6403.71
586.42	6328.81
586.58	6335.83
586.74	6368.60
586.90	6614.35
587.06	6448.18
587.22	6403.71
587.38	6150.93
587.54	6284.34
587.70	5954.32
587.86	5970.71
588.02	5680.48
588.18	5790.49
588.34	5423.02
588.49	5097.69
588.65	4891.72
588.81	4657.67
588.97	4767.67
589.13	4758.31
589.29	4755.97
589.45	4645.96
589.61	4896.40
589.77	4983.00
589.93	5149.18
590.08	5259.18
590.24	5500.26
590.40	5540.05
590.56	5380.89
590.72	5385.57
590.88	5371.53
591.04	5247.48
591.20	5460.47
591.35	5528.35
591.51	5228.76
591.67	5221.74
591.83	5181.95
591.99	5210.03
592.15	5268.55
592.31	5460.47
592.46	5659.42
592.62	5577.50
592.78	5561.11
592.94	5703.89
593.10	5774.10
593.26	5631.33
593.41	5877.09
593.57	5628.99
593.73	5518.98
593.89	5373.87
594.05	5195.99
594.20	5205.35
594.36	4985.34
594.52	4959.60
594.68	5057.90
594.84	5060.24
594.99	5387.91
595.15	5605.58
595.31	5481.53
595.47	5408.98
595.62	5357.49
595.78	5518.98
595.94	5675.80
596.10	5729.63
596.25	5612.60
596.41	5387.91
596.57	5343.44
596.73	5542.39
596.88	5551.75
597.04	5696.86
597.20	5579.84
597.36	5444.09
597.51	5425.36
