SpectraSuite Data File
++++++++++++++++++++++++++++++++++++
Date: Fri Oct 04 11:42:24 GMT-05:00 2013
User: price-jones
Dark Spectrum Present: No
Reference Spectrum Present: No
Number of Sampled Component Spectra: 1
Spectrometers: USB2+H05261
Integration Time (usec): 100000 (USB2+H05261)
Spectra Averaged: 1 (USB2+H05261)
Boxcar Smoothing: 0 (USB2+H05261)
Correct for Electrical Dark: No (USB2+H05261)
Strobe/Lamp Enabled: No (USB2+H05261)
Correct for Detector Non-linearity: No (USB2+H05261)
Correct for Stray Light: No (USB2+H05261)
Number of Pixels in Processed Spectrum: 2048
>>>>>Begin Processed Spectral Data<<<<<
365.73	58.51
365.92	58.51
366.12	58.51
366.32	0.00
366.52	0.00
366.72	0.00
366.91	0.00
367.11	2.34
367.31	0.00
367.51	0.00
367.70	0.00
367.90	0.00
368.10	0.00
368.30	0.00
368.49	0.00
368.69	4.68
368.89	0.00
369.09	0.00
369.28	0.00
369.48	0.00
369.68	21.06
369.87	0.00
370.07	0.00
370.27	23.41
370.47	196.60
370.66	533.64
370.86	589.82
371.06	716.20
371.25	683.44
371.45	650.67
371.65	648.33
371.84	664.71
372.04	582.79
372.24	664.71
372.44	641.31
372.63	720.88
372.83	664.71
373.03	610.88
373.22	662.37
373.42	648.33
373.62	606.20
373.81	667.05
374.01	681.10
374.21	678.76
374.40	627.26
374.60	706.84
374.79	713.86
374.99	774.72
375.19	842.59
375.38	917.49
375.58	814.51
375.78	760.67
375.97	781.74
376.17	840.25
376.37	833.23
376.56	858.98
376.76	880.04
376.95	908.13
377.15	985.37
377.35	1020.47
377.54	973.66
377.74	1064.94
377.93	971.32
378.13	1018.13
378.33	1015.79
378.52	891.74
378.72	887.06
378.91	833.23
379.11	823.87
379.31	877.70
379.50	875.36
379.70	964.30
379.89	1046.22
380.09	1022.81
380.28	1034.52
380.48	1050.90
380.68	1128.14
380.87	1102.39
381.07	1004.09
381.26	919.83
381.46	828.55
381.65	793.44
381.85	809.83
382.04	816.85
382.24	720.88
382.43	669.39
382.63	688.12
382.83	648.33
383.02	638.97
383.22	692.80
383.41	638.97
383.61	753.65
383.80	880.04
384.00	875.36
384.19	1015.79
384.39	1006.43
384.58	994.73
384.78	1004.09
384.97	919.83
385.17	887.06
385.36	910.47
385.56	880.04
385.75	847.27
385.95	990.05
386.14	1071.97
386.34	1116.44
386.53	896.43
386.72	896.43
386.92	961.96
387.11	1041.54
387.31	912.81
387.50	1006.43
387.70	936.21
387.89	994.73
388.09	1088.35
388.28	936.21
388.48	1055.58
388.67	1107.07
388.86	1249.85
389.06	1259.21
389.25	1348.15
389.45	1303.68
389.64	1371.55
389.84	1245.16
390.03	1249.85
390.22	1284.95
390.42	1359.85
390.61	1397.30
390.81	1453.47
391.00	1465.18
391.19	1467.52
391.39	1451.13
391.58	1320.06
391.78	1282.61
391.97	1193.67
392.16	1090.69
392.36	1109.41
392.55	912.81
392.75	718.54
392.94	622.58
393.13	641.31
393.33	732.59
393.52	837.91
393.71	1022.81
393.91	1151.54
394.10	1149.20
394.29	1296.66
394.49	1387.94
394.68	1526.03
394.88	1455.81
395.07	1652.42
395.26	1612.63
395.46	1397.30
395.65	1385.60
395.84	1259.21
396.04	1193.67
396.23	903.45
396.42	784.08
396.62	828.55
396.81	917.49
397.00	1107.07
397.19	1261.55
397.39	1535.39
397.58	1680.50
397.77	1703.91
397.97	1856.04
398.16	1823.28
398.35	1956.69
398.55	1905.20
398.74	2010.52
398.93	2157.97
399.12	2033.93
399.32	1961.37
399.51	2069.03
399.70	2153.29
399.90	2153.29
400.09	2087.76
400.28	2106.48
400.47	2139.25
400.67	2246.91
400.86	2258.62
401.05	2209.47
401.24	2310.11
401.44	2324.15
401.63	2260.96
401.82	2324.15
402.01	2291.38
402.21	2385.01
402.40	2382.67
402.59	2326.49
402.78	2165.00
402.97	2143.93
403.17	2225.85
403.36	2326.49
403.55	2359.26
403.74	2413.09
403.93	2471.61
404.13	2588.63
404.32	2642.46
404.51	2757.15
404.70	2593.31
404.89	2544.16
405.09	2403.73
405.28	2279.68
405.47	2272.66
405.66	2195.42
405.85	2216.49
406.05	2183.72
406.24	2214.15
406.43	2195.42
406.62	2347.56
406.81	2328.83
407.00	2312.45
407.20	2237.55
407.39	2347.56
407.58	2338.20
407.77	2553.52
407.96	2562.89
408.15	2499.69
408.34	2593.31
408.54	2572.25
408.73	2527.78
408.92	2628.42
409.11	2497.35
409.30	2406.07
409.49	2368.62
409.68	2267.98
409.87	2104.14
410.07	2169.68
410.26	2342.88
410.45	2464.58
410.64	2609.70
410.83	2642.46
411.02	2649.49
411.21	2715.02
411.40	2689.28
411.59	2750.13
411.78	2691.62
411.98	2733.75
412.17	2773.53
412.36	2614.38
412.55	2773.53
412.74	2649.49
412.93	2698.64
413.12	2661.19
413.31	2766.51
413.50	2813.32
413.69	2956.10
413.88	2918.65
414.07	2679.91
414.26	2848.43
414.45	2930.35
414.64	2815.66
414.83	2920.99
415.02	2869.50
415.22	2878.86
415.41	2855.45
415.60	2890.56
415.79	2986.52
415.98	3047.38
416.17	3096.53
416.36	3143.34
416.55	3129.30
416.74	3023.97
416.93	2857.79
417.12	2768.85
417.31	2878.86
417.50	2965.46
417.69	3068.44
417.88	2972.48
418.07	3005.25
418.26	2918.65
418.45	2874.18
418.64	3096.53
418.83	3133.98
419.02	3112.91
419.21	3164.40
419.39	2932.69
419.58	2841.41
419.77	2715.02
419.96	2991.20
420.15	3103.55
420.34	3148.02
420.53	3178.45
420.72	3433.57
420.91	3290.79
421.10	3290.79
421.29	3248.66
421.48	3042.70
421.67	3272.07
421.86	3122.27
422.05	2895.24
422.24	2752.47
422.43	2684.59
422.61	2967.80
422.80	3096.53
422.99	3117.59
423.18	3061.42
423.37	2995.89
423.56	3045.04
423.75	3122.27
423.94	2988.86
424.13	2960.78
424.32	3052.06
424.50	3005.25
424.69	2953.76
424.88	2930.35
425.07	2958.44
425.26	2977.16
425.45	2963.12
425.64	2794.60
425.83	2867.16
426.01	3096.53
426.20	3042.70
426.39	3169.09
426.58	2841.41
426.77	2654.17
426.96	2630.76
427.15	2679.91
427.33	2834.39
427.52	3019.29
427.71	2895.24
427.90	2876.52
428.09	2923.33
428.28	2913.97
428.46	2867.16
428.65	2736.09
428.84	3019.29
429.03	2902.26
429.22	2799.28
429.40	2782.90
429.59	2450.54
429.78	2172.02
429.97	2150.95
430.16	2129.89
430.34	2214.15
430.53	2162.66
430.72	2197.76
430.91	2277.34
431.10	2672.89
431.28	3187.81
431.47	3506.12
431.66	3405.48
431.85	3215.90
432.03	2946.73
432.22	2986.52
432.41	2890.56
432.60	3255.69
432.79	3365.69
432.97	3480.38
433.16	3288.45
433.35	3087.17
433.54	2935.03
433.72	2698.64
433.91	2757.15
434.10	3012.27
434.28	3208.87
434.47	3541.23
434.66	3403.14
434.85	3419.52
435.03	3557.61
435.22	4362.76
435.41	5598.56
435.59	5933.26
435.78	5015.77
435.97	4276.16
436.16	3871.25
436.34	3562.30
436.53	3625.49
436.72	3632.51
436.90	3536.55
437.09	3412.50
437.28	3201.85
437.46	3454.63
437.65	3396.12
437.84	3332.92
438.02	3089.51
438.21	3035.67
438.40	3089.51
438.58	3365.69
438.77	3428.88
438.96	3424.20
439.14	3520.17
439.33	3639.53
439.52	3756.56
439.70	3588.04
439.89	3503.78
440.08	3384.41
440.26	3377.39
440.45	3529.53
440.63	3864.22
440.82	4002.32
441.01	3868.91
441.19	3833.80
441.38	3847.84
441.57	3997.64
441.75	4067.85
441.94	4002.32
442.12	4044.45
442.31	3941.46
442.50	4180.20
442.68	3894.65
442.87	4046.79
443.05	3997.64
443.24	3943.80
443.43	4191.90
443.61	4119.34
443.80	4210.62
443.98	3927.42
444.17	4100.62
444.35	4276.16
444.54	4255.09
444.73	4079.55
444.91	4105.30
445.10	3819.75
445.28	3604.42
445.47	3730.81
445.65	3679.32
445.84	3754.22
446.02	3932.10
446.21	3974.23
446.39	3892.31
446.58	4039.76
446.77	4070.19
446.95	4058.49
447.14	4318.29
447.32	4311.27
447.51	4376.80
447.69	4126.36
447.88	4149.77
448.06	4180.20
448.25	4166.15
448.43	4255.09
448.62	4168.49
448.80	4194.24
448.99	4210.62
449.17	4173.18
449.36	4166.15
449.54	4318.29
449.73	4400.21
449.91	4500.85
450.10	4542.98
450.28	4526.60
450.46	4416.59
450.65	4601.49
450.83	4500.85
451.02	4390.84
451.20	4325.31
451.39	4559.36
451.57	4372.12
451.76	4329.99
451.94	4278.50
452.13	4311.27
452.31	4035.08
452.49	3845.50
452.68	3915.72
452.86	3920.40
453.05	3999.98
453.23	4166.15
453.42	4189.56
453.60	4365.10
453.78	4409.57
453.97	4315.95
454.15	4318.29
454.34	4222.33
454.52	4182.54
454.70	4205.94
454.89	4163.81
455.07	4299.56
455.26	4360.42
455.44	4404.89
455.62	4416.59
455.81	4337.01
455.99	4538.30
456.17	4435.32
456.36	4397.87
456.54	4566.39
456.73	4683.41
456.91	4571.07
457.09	4482.13
457.28	4760.65
457.46	4559.36
457.64	4514.89
457.83	4318.29
458.01	4257.43
458.19	4341.69
458.38	4374.46
458.56	4652.98
458.74	4456.38
458.93	4468.08
459.11	4386.16
459.29	4299.56
459.48	4489.15
459.66	4315.95
459.84	4526.60
460.03	4727.88
460.21	4564.04
460.39	4692.77
460.57	4585.11
460.76	4695.11
460.94	4657.67
461.12	4669.37
461.31	4606.17
461.49	4791.08
461.67	4571.07
461.85	4741.93
462.04	4727.88
462.22	4931.51
462.40	4662.35
462.59	4727.88
462.77	4676.39
462.95	4706.82
463.13	4697.46
463.32	4660.01
463.50	4671.71
463.68	4624.90
463.86	4573.41
464.05	4631.92
464.23	4599.15
464.41	4517.23
464.59	4517.23
464.78	4533.62
464.96	4414.25
465.14	4557.02
465.32	4500.85
465.50	4702.14
465.69	4870.65
465.87	4615.54
466.05	4622.56
466.23	4273.82
466.41	4252.75
466.60	4411.91
466.78	4416.59
466.96	4528.94
467.14	4521.92
467.32	4589.79
467.51	4526.60
467.69	4367.44
467.87	4526.60
468.05	4472.76
468.23	4578.09
468.41	4594.47
468.60	4461.06
468.78	4538.30
468.96	4587.45
469.14	4594.47
469.32	4695.11
469.50	4500.85
469.69	4428.29
469.87	4444.68
470.05	4381.48
470.23	4339.35
470.41	4458.72
470.59	4423.61
470.77	4465.74
470.95	4622.56
471.14	4718.52
471.32	4641.28
471.50	4947.89
471.68	4919.81
471.86	5004.07
472.04	4983.00
472.22	4870.65
472.40	4660.01
472.58	4559.36
472.77	4746.61
472.95	4765.33
473.13	4898.74
473.31	4884.70
473.49	4758.31
473.67	4706.82
473.85	4833.21
474.03	5083.64
474.21	4873.00
474.39	5067.26
474.57	5097.69
474.75	4954.91
474.93	5034.49
475.12	4936.19
475.30	4917.47
475.48	4912.78
475.66	4835.55
475.84	4961.94
476.02	4830.87
476.20	4908.10
476.38	4896.40
476.56	5095.35
476.74	5025.13
476.92	5118.75
477.10	5235.78
477.28	5334.08
477.46	5212.37
477.64	5376.21
477.82	5500.26
478.00	5383.23
478.18	5526.00
478.36	5392.59
478.54	5369.19
478.72	5373.87
478.90	5575.16
479.08	5645.37
479.26	5813.89
479.44	5769.42
479.62	5825.59
479.80	5603.24
479.98	5694.52
480.16	5717.93
480.34	5900.49
480.52	5710.91
480.70	5738.99
480.88	5636.01
481.06	5874.74
481.24	6022.20
481.41	6218.80
481.59	6134.54
481.77	6244.55
481.95	6099.44
482.13	6136.88
482.31	6078.37
482.49	6143.91
482.67	6164.97
482.85	6162.63
483.03	6150.93
483.21	6459.88
483.39	6258.59
483.57	6171.99
483.74	6335.83
483.92	6291.36
484.10	6310.08
484.28	6312.42
484.46	6705.63
484.64	6560.52
484.82	6429.45
485.00	6527.75
485.18	6363.92
485.35	6202.42
485.53	5863.04
485.71	5226.42
485.89	5193.65
486.07	5425.36
486.25	5795.17
486.43	6150.93
486.61	6174.33
486.78	6284.34
486.96	6296.04
487.14	6562.86
487.32	6684.57
487.50	6787.55
487.68	6944.37
487.85	6958.41
488.03	7117.57
488.21	7199.49
488.39	6904.58
488.57	6937.35
488.75	6761.81
488.92	7033.31
489.10	7377.37
489.28	7506.10
489.46	7833.77
489.64	7747.17
489.81	7805.69
489.99	7648.87
490.17	7822.07
490.35	7861.86
490.53	7634.83
490.70	7506.10
490.88	7597.38
491.06	7786.96
491.24	7850.16
491.41	7609.08
491.59	7281.41
491.77	6904.58
491.95	7140.97
492.13	7417.16
492.30	7620.78
492.48	8086.55
492.66	7992.93
492.84	8058.46
493.01	7953.14
493.19	7789.30
493.37	8030.38
493.54	7733.13
493.72	7765.90
493.90	7960.16
494.08	8222.30
494.25	8451.67
494.43	8573.38
494.61	8678.71
494.79	8594.45
494.96	8542.96
495.14	8341.67
495.32	8234.00
495.49	8093.57
495.67	8060.80
495.85	8592.11
496.02	8580.40
496.20	8681.05
496.38	8554.66
496.55	8416.57
496.73	8594.45
496.91	8631.90
497.09	8887.01
497.26	8840.20
497.44	8854.25
497.62	8620.19
497.79	8189.53
497.97	7995.27
498.14	8126.34
498.32	8418.91
498.50	8643.60
498.67	8720.84
498.85	8887.01
499.03	8837.86
499.20	8816.80
499.38	8767.65
499.56	8667.00
499.73	8617.85
499.91	8479.76
500.08	8411.89
500.26	8252.73
500.44	8226.98
500.61	8435.29
500.79	8437.63
500.97	8287.84
501.14	8486.78
501.32	8194.22
501.49	8102.93
501.67	8149.75
501.84	8285.50
502.02	8332.31
502.20	8531.25
502.37	8482.10
502.55	8608.49
502.72	8737.22
502.90	8720.84
503.07	8697.43
503.25	8376.78
503.43	8114.64
503.60	7925.05
503.78	7796.32
503.95	7962.50
504.13	8166.13
504.30	8554.66
504.48	8706.79
504.65	8554.66
504.83	8652.96
505.01	8823.82
505.18	9053.19
505.36	9022.77
505.53	8767.65
505.71	8798.07
505.88	9273.20
506.06	8840.20
506.23	8940.85
506.41	8608.49
506.58	8671.68
506.76	8744.24
506.93	8865.95
507.11	8589.77
507.28	8739.56
507.46	8596.79
507.63	8564.02
507.81	8353.37
507.98	8507.85
508.16	8606.15
508.33	8702.11
508.50	8903.40
508.68	9004.04
508.85	9261.50
509.03	9102.34
509.20	9432.36
509.38	9219.37
509.55	8807.44
509.73	8730.20
509.90	8980.64
510.08	9006.38
510.25	9151.49
510.42	9076.60
510.60	8994.68
510.77	9062.55
510.95	9228.73
511.12	9596.20
511.30	9383.21
511.47	9582.15
511.64	9750.67
511.82	9394.91
511.99	9130.43
512.17	8868.29
512.34	8809.78
512.51	8819.14
512.69	8924.46
512.86	9076.60
513.04	9158.52
513.21	9224.05
513.38	9088.30
513.56	8910.42
513.73	8741.90
513.90	8669.34
514.08	8812.12
514.25	8730.20
514.43	8931.48
514.60	9069.58
514.77	8985.32
514.95	9205.33
515.12	8952.55
515.29	9125.75
515.47	9177.24
515.64	9336.40
515.81	9224.05
515.99	9055.53
516.16	8739.56
516.33	8226.98
516.51	7576.31
516.68	7447.58
516.85	7269.70
517.03	7220.55
517.20	7929.74
517.37	8603.81
517.54	8971.27
517.72	8858.93
517.89	8131.02
518.06	7620.78
518.24	7667.60
518.41	8273.79
518.58	8552.32
518.75	8716.16
518.93	8662.32
519.10	8961.91
519.27	8657.64
519.45	8692.75
519.62	9277.88
519.79	9273.20
519.96	9083.62
520.14	9156.18
520.31	9029.79
520.48	9018.08
520.65	8711.47
520.83	8961.91
521.00	9317.67
521.17	9308.31
521.34	9289.59
521.52	9217.03
521.69	9235.75
521.86	9593.86
522.03	9219.37
522.20	9078.94
522.38	8779.35
522.55	8423.59
522.72	8669.34
522.89	8952.55
523.07	9008.72
523.24	9062.55
523.41	9434.70
523.58	9469.81
523.75	9617.26
523.92	9385.55
524.10	9535.34
524.27	9453.42
524.44	9565.77
524.61	9504.92
524.78	9430.02
524.96	9282.56
525.13	9453.42
525.30	9430.02
525.47	9591.52
525.64	9455.76
525.81	9291.93
525.98	8954.89
526.16	8325.29
526.33	8262.09
526.50	8079.53
526.67	8018.68
526.84	8175.49
527.01	8339.33
527.18	8542.96
527.36	8901.06
527.53	9184.26
527.70	9495.55
527.87	9284.91
528.04	9053.19
528.21	9174.90
528.38	9312.99
528.55	9488.53
528.72	9748.33
528.89	9736.63
529.07	9750.67
529.24	9549.39
529.41	9322.35
529.58	9111.71
529.75	8973.61
529.92	9144.47
530.09	9657.05
530.26	9767.06
530.43	9600.88
530.60	9441.72
530.77	9741.31
530.94	9942.60
531.11	9713.22
531.28	9418.32
531.46	9469.81
531.63	9528.32
531.80	9645.35
531.97	9387.89
532.14	9371.50
532.31	8734.88
532.48	8542.96
532.65	8514.87
532.82	8786.37
532.99	9184.26
533.16	9476.83
533.33	9369.16
533.50	9640.67
533.67	9083.62
533.84	9095.32
534.01	9308.31
534.18	9432.36
534.35	9254.48
534.52	9252.14
534.69	9104.68
534.86	9582.15
535.03	9603.22
535.20	9523.64
535.37	9937.91
535.54	9874.72
535.71	9729.61
535.88	9633.64
536.05	9387.89
536.22	9385.55
536.38	9479.17
536.55	9261.50
536.72	8861.27
536.89	8819.14
537.06	9217.03
537.23	9518.96
537.40	9612.58
537.57	9701.52
537.74	9579.81
537.91	9390.23
538.08	9507.26
538.25	9514.28
538.42	9671.09
538.59	9659.39
538.75	9364.48
538.92	9287.25
539.09	9497.89
539.26	9586.83
539.43	9544.70
539.60	9362.14
539.77	9521.30
539.94	9397.25
540.11	9322.35
540.28	9158.52
540.44	9249.80
540.61	9469.81
540.78	9558.75
540.95	9968.34
541.12	10579.22
541.29	10675.18
541.46	10918.60
541.62	10925.62
541.79	10717.31
541.96	10511.35
542.13	10413.04
542.30	10644.76
542.47	10387.30
542.63	10361.55
542.80	10122.82
542.97	10190.69
543.14	10286.65
543.31	9980.04
543.48	10251.55
543.64	10656.46
543.81	10703.27
543.98	10630.71
544.15	10593.26
544.32	10298.36
544.48	10195.37
544.65	10209.42
544.82	10363.89
544.99	10593.26
545.16	10410.70
545.32	10373.25
545.49	11655.87
545.66	13743.63
545.83	14726.65
546.00	13481.49
546.16	12046.74
546.33	11136.27
546.50	10480.92
546.67	10445.81
546.83	10326.44
547.00	10068.98
547.17	9827.91
547.34	9659.39
547.50	9619.60
547.67	9600.88
547.84	9741.31
548.00	9717.90
548.17	9762.37
548.34	9783.44
548.51	9839.61
548.67	9837.27
548.84	9619.60
549.01	9760.03
549.18	9497.89
549.34	9626.62
549.51	9521.30
549.68	9460.45
549.84	9446.40
550.01	9135.11
550.18	9423.00
550.34	9605.56
550.51	9268.52
550.68	9357.46
550.84	9062.55
551.01	9151.49
551.18	8990.00
551.34	9146.81
551.51	9275.54
551.68	9202.99
551.84	9425.34
552.01	9315.33
552.18	9179.58
552.34	9100.00
552.51	8837.86
552.68	9050.85
552.84	8919.78
553.01	8865.95
553.18	8795.73
553.34	9055.53
553.51	8940.85
553.67	9102.34
553.84	9179.58
554.01	9123.41
554.17	8903.40
554.34	8950.21
554.51	9057.87
554.67	9118.73
554.84	9268.52
555.00	8772.33
555.17	8940.85
555.33	8912.76
555.50	8769.99
555.67	8849.57
555.83	8659.98
556.00	8741.90
556.16	8645.94
556.33	8587.43
556.50	8500.83
556.66	8568.70
556.83	8414.23
556.99	8472.74
557.16	8468.06
557.32	8769.99
557.49	8798.07
557.65	8580.40
557.82	8620.19
557.98	8484.44
558.15	8568.70
558.32	8456.36
558.48	8215.28
558.65	8105.28
558.81	8308.90
558.98	8152.09
559.14	8198.90
559.31	8044.42
559.47	8187.19
559.64	8182.51
559.80	8091.23
559.97	8208.26
560.13	8084.21
560.30	8432.95
560.46	8805.10
560.63	8812.12
560.79	8727.86
560.96	8561.68
561.12	8131.02
561.29	7889.95
561.45	8030.38
561.61	8215.28
561.78	8374.44
561.94	8269.11
562.11	8332.31
562.27	8152.09
562.44	8318.26
562.60	8393.16
562.77	8273.79
562.93	8404.86
563.10	8559.34
563.26	8292.52
563.42	8336.99
563.59	8241.03
563.75	8112.30
563.92	8318.26
564.08	8056.12
564.24	8365.07
564.41	8327.63
564.57	8095.91
564.74	8287.84
564.90	8154.43
565.07	8013.99
565.23	8074.85
565.39	7932.08
565.56	7925.05
565.72	7789.30
565.88	7646.53
566.05	7728.45
566.21	7953.14
566.38	7903.99
566.54	7985.91
566.70	7990.59
566.87	8224.64
567.03	7934.42
567.19	8154.43
567.36	8025.70
567.52	7950.80
567.68	7960.16
567.85	7672.28
568.01	7510.78
568.17	7517.80
568.34	7330.56
568.50	7403.11
568.66	7384.39
568.83	7543.55
568.99	7410.14
569.15	7499.08
569.32	7534.18
569.48	7543.55
569.64	7342.26
569.81	7229.91
569.97	7363.33
570.13	7393.75
570.30	7426.52
570.46	7208.85
570.62	7103.53
570.78	7166.72
570.95	7183.10
571.11	7335.24
571.27	7288.43
571.43	7279.07
571.60	7360.98
571.76	7279.07
571.92	7646.53
572.09	7398.43
572.25	7747.17
572.41	7592.70
572.57	7510.78
572.74	7424.18
572.90	7459.29
573.06	7571.63
573.22	7478.01
573.38	7447.58
573.55	7470.99
573.71	7541.21
573.87	7398.43
574.03	7407.80
574.20	7335.24
574.36	7225.23
574.52	7180.76
574.68	7262.68
574.84	7258.00
575.01	7218.21
575.17	7199.49
575.33	7082.46
575.49	7276.73
575.65	7445.24
575.82	7227.57
575.98	7178.42
576.14	7042.67
576.30	7403.11
576.46	7850.16
576.62	8191.88
576.79	8180.17
576.95	7882.92
577.11	7492.05
577.27	7485.03
577.43	7513.12
577.59	7358.64
577.75	7194.81
577.92	6972.46
578.08	7019.27
578.24	7047.35
578.40	7143.32
578.56	7534.18
578.72	7976.55
578.88	7880.58
579.04	7953.14
579.21	7588.02
579.37	7536.52
579.53	7529.50
579.69	7412.48
579.85	7379.71
580.01	7698.02
580.17	7541.21
580.33	7454.61
580.49	7389.07
580.65	7478.01
580.82	7592.70
580.98	7346.94
581.14	7379.71
581.30	7431.20
581.46	7325.88
581.62	7337.58
581.78	7618.44
581.94	7510.78
582.10	7618.44
582.26	7618.44
582.42	7712.07
582.58	7597.38
582.74	7648.87
582.90	7639.51
583.06	7602.06
583.22	7550.57
583.38	7559.93
583.54	7691.00
583.70	7559.93
583.86	7829.09
584.02	7503.76
584.18	7487.37
584.34	7461.63
584.50	7440.56
584.66	7454.61
584.82	7318.86
584.98	7417.16
585.14	7180.76
585.30	7126.93
585.46	6967.77
585.62	6991.18
585.78	7007.56
585.94	7009.90
586.10	6913.94
586.26	7194.81
586.42	7211.19
586.58	7337.58
586.74	7267.36
586.90	7239.28
587.06	7489.71
587.22	7323.54
587.38	7014.59
587.54	7073.10
587.70	6846.07
587.86	6626.06
588.02	6424.77
588.18	6232.85
588.34	5806.87
588.49	5633.67
588.65	5301.31
588.81	5146.84
588.97	5277.91
589.13	5252.16
589.29	5200.67
589.45	5067.26
589.61	5371.53
589.77	5593.88
589.93	5500.26
590.08	5881.77
590.24	6017.52
590.40	5895.81
590.56	6087.73
590.72	6125.18
590.88	5783.46
591.04	5949.64
591.20	5982.41
591.35	6012.84
591.51	5940.28
591.67	5804.53
591.83	5891.13
591.99	5715.59
592.15	5935.60
592.31	6150.93
592.46	6368.60
592.62	6408.39
592.78	6438.81
592.94	6464.56
593.10	6511.37
593.26	6464.56
593.41	6628.40
593.57	6436.47
593.73	6249.23
593.89	5841.98
594.05	5724.95
594.20	5495.58
594.36	5668.78
594.52	5511.96
594.68	5551.75
594.84	5708.57
594.99	5933.26
595.15	6146.25
595.31	5980.07
595.47	6118.16
595.62	6090.07
595.78	6120.50
595.94	6251.57
596.10	6335.83
596.25	6195.40
596.41	6157.95
596.57	6015.18
596.73	5877.09
596.88	6237.53
