SpectraSuite Data File
++++++++++++++++++++++++++++++++++++
Date: Fri Oct 04 11:41:41 GMT-05:00 2013
User: price-jones
Dark Spectrum Present: No
Reference Spectrum Present: No
Number of Sampled Component Spectra: 1
Spectrometers: USB2+H05261
Integration Time (usec): 100000 (USB2+H05261)
Spectra Averaged: 1 (USB2+H05261)
Boxcar Smoothing: 0 (USB2+H05261)
Correct for Electrical Dark: No (USB2+H05261)
Strobe/Lamp Enabled: No (USB2+H05261)
Correct for Detector Non-linearity: No (USB2+H05261)
Correct for Stray Light: No (USB2+H05261)
Number of Pixels in Processed Spectrum: 2048
>>>>>Begin Processed Spectral Data<<<<<
365.73	65.54
365.92	65.54
366.12	65.54
366.32	0.00
366.52	0.00
366.72	0.00
366.91	0.00
367.11	0.00
367.31	0.00
367.51	0.00
367.70	0.00
367.90	0.00
368.10	0.00
368.30	0.00
368.49	0.00
368.69	32.77
368.89	0.00
369.09	0.00
369.28	32.77
369.48	0.00
369.68	35.11
369.87	0.00
370.07	0.00
370.27	0.00
370.47	23.41
370.66	25.75
370.86	14.04
371.06	131.07
371.25	37.45
371.45	25.75
371.65	32.77
371.84	117.03
372.04	107.66
372.24	114.69
372.44	77.24
372.63	70.22
372.83	105.32
373.03	138.09
373.22	72.56
373.42	74.90
373.62	154.48
373.81	133.41
374.01	156.82
374.21	161.50
374.40	161.50
374.60	149.79
374.79	117.03
374.99	142.77
375.19	138.09
375.38	107.66
375.58	105.32
375.78	98.30
375.97	110.01
376.17	86.60
376.37	105.32
376.56	119.37
376.76	117.03
376.95	74.90
377.15	39.79
377.35	184.90
377.54	91.28
377.74	95.96
377.93	166.18
378.13	65.54
378.33	138.09
378.52	119.37
378.72	161.50
378.91	198.95
379.11	74.90
379.31	49.15
379.50	112.35
379.70	102.98
379.89	142.77
380.09	131.07
380.28	88.94
380.48	135.75
380.68	161.50
380.87	112.35
381.07	133.41
381.26	154.48
381.46	135.75
381.65	138.09
381.85	88.94
382.04	86.60
382.24	159.16
382.43	77.24
382.63	81.92
382.83	102.98
383.02	112.35
383.22	86.60
383.41	84.26
383.61	140.43
383.80	119.37
384.00	112.35
384.19	128.73
384.39	163.84
384.58	128.73
384.78	170.86
384.97	51.49
385.17	65.54
385.36	39.79
385.56	100.64
385.75	58.51
385.95	131.07
386.14	147.45
386.34	117.03
386.53	84.26
386.72	124.05
386.92	126.39
387.11	105.32
387.31	187.24
387.50	107.66
387.70	86.60
387.89	124.05
388.09	39.79
388.28	74.90
388.48	56.17
388.67	124.05
388.86	67.88
389.06	112.35
389.25	95.96
389.45	142.77
389.64	114.69
389.84	203.63
390.03	138.09
390.22	114.69
390.42	56.17
390.61	107.66
390.81	81.92
391.00	74.90
391.19	114.69
391.39	65.54
391.58	88.94
391.78	95.96
391.97	100.64
392.16	74.90
392.36	173.20
392.55	88.94
392.75	102.98
392.94	105.32
393.13	112.35
393.33	152.13
393.52	95.96
393.71	159.16
393.91	138.09
394.10	133.41
394.29	105.32
394.49	79.58
394.68	147.45
394.88	23.41
395.07	112.35
395.26	102.98
395.46	128.73
395.65	163.84
395.84	98.30
396.04	140.43
396.23	159.16
396.42	102.98
396.62	114.69
396.81	105.32
397.00	93.62
397.19	30.43
397.39	175.54
397.58	198.95
397.77	138.09
397.97	124.05
398.16	121.71
398.35	117.03
398.55	131.07
398.74	100.64
398.93	194.26
399.12	124.05
399.32	182.56
399.51	110.01
399.70	65.54
399.90	107.66
400.09	142.77
400.28	119.37
400.47	133.41
400.67	72.56
400.86	161.50
401.05	91.28
401.24	170.86
401.44	135.75
401.63	86.60
401.82	168.52
402.01	187.24
402.21	161.50
402.40	166.18
402.59	117.03
402.78	84.26
402.97	133.41
403.17	152.13
403.36	128.73
403.55	159.16
403.74	278.52
403.93	851.96
404.13	1387.94
404.32	1441.77
404.51	1291.98
404.70	664.71
404.89	346.40
405.09	166.18
405.28	145.11
405.47	107.66
405.66	93.62
405.85	142.77
406.05	112.35
406.24	175.54
406.43	210.65
406.62	39.79
406.81	182.56
407.00	145.11
407.20	264.48
407.39	241.08
407.58	332.36
407.77	276.18
407.96	222.35
408.15	140.43
408.34	203.63
408.54	156.82
408.73	161.50
408.92	86.60
409.11	117.03
409.30	180.22
409.49	53.83
409.68	105.32
409.87	126.39
410.07	79.58
410.26	194.26
410.45	145.11
410.64	170.86
410.83	170.86
411.02	156.82
411.21	180.22
411.40	180.22
411.59	168.52
411.78	102.98
411.98	212.99
412.17	234.05
412.36	135.75
412.55	140.43
412.74	135.75
412.93	112.35
413.12	67.88
413.31	140.43
413.50	154.48
413.69	138.09
413.88	112.35
414.07	147.45
414.26	142.77
414.45	105.32
414.64	191.92
414.83	173.20
415.02	168.52
415.22	224.69
415.41	201.29
415.60	138.09
415.79	184.90
415.98	149.79
416.17	196.60
416.36	126.39
416.55	220.01
416.74	180.22
416.93	191.92
417.12	159.16
417.31	140.43
417.50	184.90
417.69	212.99
417.88	198.95
418.07	128.73
418.26	84.26
418.45	196.60
418.64	114.69
418.83	217.67
419.02	222.35
419.21	170.86
419.39	196.60
419.58	112.35
419.77	180.22
419.96	182.56
420.15	236.39
420.34	149.79
420.53	248.10
420.72	252.78
420.91	147.45
421.10	173.20
421.29	229.37
421.48	220.01
421.67	250.44
421.86	100.64
422.05	156.82
422.24	184.90
422.43	215.33
422.61	126.39
422.80	135.75
422.99	168.52
423.18	212.99
423.37	222.35
423.56	170.86
423.75	191.92
423.94	102.98
424.13	180.22
424.32	133.41
424.50	163.84
424.69	175.54
424.88	156.82
425.07	208.31
425.26	191.92
425.45	182.56
425.64	248.10
425.83	154.48
426.01	238.73
426.20	198.95
426.39	182.56
426.58	102.98
426.77	182.56
426.96	229.37
427.15	138.09
427.33	163.84
427.52	170.86
427.71	257.46
427.90	110.01
428.09	177.88
428.28	163.84
428.46	173.20
428.65	145.11
428.84	182.56
429.03	273.84
429.22	175.54
429.40	145.11
429.59	140.43
429.78	269.16
429.97	203.63
430.16	187.24
430.34	175.54
430.53	191.92
430.72	114.69
430.91	191.92
431.10	152.13
431.28	114.69
431.47	145.11
431.66	191.92
431.85	117.03
432.03	222.35
432.22	255.12
432.41	220.01
432.60	269.16
432.79	238.73
432.97	121.71
433.16	187.24
433.35	255.12
433.54	224.69
433.72	250.44
433.91	255.12
434.10	290.23
434.28	330.02
434.47	278.52
434.66	362.78
434.85	486.83
435.03	1296.66
435.22	4086.58
435.41	6703.29
435.59	6059.65
435.78	3976.57
435.97	1954.35
436.16	823.87
436.34	390.87
436.53	327.68
436.72	297.25
436.90	266.82
437.09	159.16
437.28	243.42
437.46	212.99
437.65	248.10
437.84	266.82
438.02	205.97
438.21	241.08
438.40	166.18
438.58	201.29
438.77	241.08
438.96	203.63
439.14	159.16
439.33	224.69
439.52	266.82
439.70	203.63
439.89	222.35
440.08	248.10
440.26	208.31
440.45	182.56
440.63	201.29
440.82	196.60
441.01	159.16
441.19	175.54
441.38	182.56
441.57	262.14
441.75	231.71
441.94	283.20
442.12	222.35
442.31	252.78
442.50	271.50
442.68	241.08
442.87	269.16
443.05	231.71
443.24	173.20
443.43	252.78
443.61	189.58
443.80	191.92
443.98	196.60
444.17	224.69
444.35	243.42
444.54	140.43
444.73	229.37
444.91	252.78
445.10	135.75
445.28	271.50
445.47	252.78
445.65	222.35
445.84	227.03
446.02	168.52
446.21	201.29
446.39	194.26
446.58	252.78
446.77	255.12
446.95	220.01
447.14	257.46
447.32	241.08
447.51	208.31
447.69	294.91
447.88	276.18
448.06	255.12
448.25	191.92
448.43	175.54
448.62	243.42
448.80	301.93
448.99	187.24
449.17	203.63
449.36	262.14
449.54	276.18
449.73	210.65
449.91	259.80
450.10	170.86
450.28	229.37
450.46	262.14
450.65	280.86
450.83	145.11
451.02	290.23
451.20	205.97
451.39	234.05
451.57	142.77
451.76	252.78
451.94	191.92
452.13	255.12
452.31	250.44
452.49	210.65
452.68	168.52
452.86	198.95
453.05	173.20
453.23	262.14
453.42	168.52
453.60	285.55
453.78	269.16
453.97	191.92
454.15	210.65
454.34	149.79
454.52	215.33
454.70	210.65
454.89	231.71
455.07	231.71
455.26	262.14
455.44	290.23
455.62	227.03
455.81	264.48
455.99	234.05
456.17	353.42
456.36	208.31
456.54	215.33
456.73	234.05
456.91	180.22
457.09	250.44
457.28	227.03
457.46	222.35
457.64	236.39
457.83	236.39
458.01	238.73
458.19	168.52
458.38	210.65
458.56	177.88
458.74	173.20
458.93	159.16
459.11	245.76
459.29	194.26
459.48	248.10
459.66	245.76
459.84	191.92
460.03	229.37
460.21	273.84
460.39	187.24
460.57	210.65
460.76	196.60
460.94	252.78
461.12	264.48
461.31	273.84
461.49	287.89
461.67	128.73
461.85	208.31
462.04	196.60
462.22	369.80
462.40	145.11
462.59	231.71
462.77	278.52
462.95	215.33
463.13	236.39
463.32	236.39
463.50	217.67
463.68	201.29
463.86	191.92
464.05	184.90
464.23	224.69
464.41	201.29
464.59	283.20
464.78	224.69
464.96	208.31
465.14	273.84
465.32	220.01
465.50	222.35
465.69	175.54
465.87	187.24
466.05	224.69
466.23	128.73
466.41	180.22
466.60	250.44
466.78	189.58
466.96	222.35
467.14	210.65
467.32	346.40
467.51	250.44
467.69	201.29
467.87	205.97
468.05	255.12
468.23	220.01
468.41	191.92
468.60	196.60
468.78	220.01
468.96	259.80
469.14	236.39
469.32	241.08
469.50	222.35
469.69	238.73
469.87	198.95
470.05	194.26
470.23	194.26
470.41	212.99
470.59	212.99
470.77	241.08
470.95	252.78
471.14	231.71
471.32	231.71
471.50	271.50
471.68	180.22
471.86	184.90
472.04	241.08
472.22	210.65
472.40	187.24
472.58	269.16
472.77	259.80
472.95	173.20
473.13	290.23
473.31	313.63
473.49	161.50
473.67	217.67
473.85	220.01
474.03	245.76
474.21	231.71
474.39	280.86
474.57	269.16
474.75	227.03
474.93	229.37
475.12	126.39
475.30	278.52
475.48	180.22
475.66	250.44
475.84	201.29
476.02	222.35
476.20	290.23
476.38	149.79
476.56	320.65
476.74	222.35
476.92	243.42
477.10	210.65
477.28	203.63
477.46	217.67
477.64	173.20
477.82	283.20
478.00	184.90
478.18	238.73
478.36	227.03
478.54	238.73
478.72	243.42
478.90	236.39
479.08	262.14
479.26	238.73
479.44	266.82
479.62	252.78
479.80	238.73
479.98	252.78
480.16	215.33
480.34	330.02
480.52	243.42
480.70	308.95
480.88	191.92
481.06	294.91
481.24	271.50
481.41	280.86
481.59	351.08
481.77	337.04
481.95	332.36
482.13	327.68
482.31	311.29
482.49	376.83
482.67	411.93
482.85	393.21
483.03	472.79
483.21	475.13
483.39	423.64
483.57	472.79
483.74	472.79
483.92	514.92
484.10	507.90
484.28	561.73
484.46	533.64
484.64	571.09
484.82	543.00
485.00	617.90
485.18	627.26
485.35	657.69
485.53	711.52
485.71	741.95
485.89	634.29
486.07	734.93
486.25	725.57
486.43	716.20
486.61	744.29
486.78	732.59
486.96	685.78
487.14	788.76
487.32	807.48
487.50	725.57
487.68	734.93
487.85	671.73
488.03	681.10
488.21	713.86
488.39	688.12
488.57	634.29
488.75	727.91
488.92	968.98
489.10	765.36
489.28	674.07
489.46	631.94
489.64	603.86
489.81	564.07
489.99	624.92
490.17	622.58
490.35	662.37
490.53	592.16
490.70	617.90
490.88	629.60
491.06	681.10
491.24	711.52
491.41	716.20
491.59	660.03
491.77	631.94
491.95	561.73
492.13	545.34
492.30	568.75
492.48	601.52
492.66	599.18
492.84	545.34
493.01	468.11
493.19	543.00
493.37	585.13
493.54	528.96
493.72	528.96
493.90	589.82
494.08	514.92
494.25	465.77
494.43	552.37
494.61	454.06
494.79	484.49
494.96	505.56
495.14	468.11
495.32	428.32
495.49	463.43
495.67	477.47
495.85	500.87
496.02	489.17
496.20	507.90
496.38	489.17
496.55	496.19
496.73	470.45
496.91	442.36
497.09	425.98
497.26	451.72
497.44	440.02
497.62	456.40
497.79	416.62
497.97	444.70
498.14	411.93
498.32	400.23
498.50	489.17
498.67	346.40
498.85	395.55
499.03	437.68
499.20	372.15
499.38	437.68
499.56	376.83
499.73	367.46
499.91	339.38
500.08	395.55
500.26	332.36
500.44	320.65
500.61	367.46
500.79	313.63
500.97	327.68
501.14	435.34
501.32	252.78
501.49	425.98
501.67	332.36
501.84	348.74
502.02	271.50
502.20	390.87
502.37	351.08
502.55	383.85
502.72	330.02
502.90	355.76
503.07	322.99
503.25	374.49
503.43	280.86
503.60	238.73
503.78	248.10
503.95	290.23
504.13	259.80
504.30	304.27
504.48	220.01
504.65	264.48
504.83	339.38
505.01	308.95
505.18	318.31
505.36	313.63
505.53	297.25
505.71	266.82
505.88	266.82
506.06	334.70
506.23	276.18
506.41	376.83
506.58	301.93
506.76	278.52
506.93	224.69
507.11	318.31
507.28	222.35
507.46	203.63
507.63	308.95
507.81	187.24
507.98	271.50
508.16	294.91
508.33	341.72
508.50	313.63
508.68	224.69
508.85	262.14
509.03	301.93
509.20	264.48
509.38	313.63
509.55	346.40
509.73	248.10
509.90	264.48
510.08	212.99
510.25	287.89
510.42	236.39
510.60	220.01
510.77	297.25
510.95	229.37
511.12	269.16
511.30	241.08
511.47	285.55
511.64	266.82
511.82	262.14
511.99	248.10
512.17	250.44
512.34	273.84
512.51	264.48
512.69	266.82
512.86	238.73
513.04	315.97
513.21	238.73
513.38	278.52
513.56	255.12
513.73	285.55
513.90	243.42
514.08	212.99
514.25	337.04
514.43	271.50
514.60	259.80
514.77	212.99
514.95	334.70
515.12	297.25
515.29	238.73
515.47	198.95
515.64	266.82
515.81	243.42
515.99	339.38
516.16	283.20
516.33	280.86
516.51	243.42
516.68	250.44
516.85	276.18
517.03	217.67
517.20	208.31
517.37	341.72
517.54	259.80
517.72	241.08
517.89	278.52
518.06	220.01
518.24	252.78
518.41	327.68
518.58	259.80
518.75	266.82
518.93	205.97
519.10	205.97
519.27	273.84
519.45	245.76
519.62	252.78
519.79	271.50
519.96	297.25
520.14	262.14
520.31	262.14
520.48	255.12
520.65	234.05
520.83	248.10
521.00	227.03
521.17	276.18
521.34	271.50
521.52	231.71
521.69	222.35
521.86	337.04
522.03	271.50
522.20	358.10
522.38	287.89
522.55	313.63
522.72	215.33
522.89	271.50
523.07	224.69
523.24	201.29
523.41	241.08
523.58	264.48
523.75	227.03
523.92	245.76
524.10	290.23
524.27	280.86
524.44	245.76
524.61	262.14
524.78	222.35
524.96	271.50
525.13	294.91
525.30	273.84
525.47	229.37
525.64	257.46
525.81	269.16
525.98	266.82
526.16	283.20
526.33	285.55
526.50	227.03
526.67	217.67
526.84	231.71
527.01	243.42
527.18	311.29
527.36	292.57
527.53	313.63
527.70	220.01
527.87	315.97
528.04	348.74
528.21	330.02
528.38	348.74
528.55	290.23
528.72	360.44
528.89	353.42
529.07	297.25
529.24	259.80
529.41	308.95
529.58	266.82
529.75	257.46
529.92	252.78
530.09	276.18
530.26	322.99
530.43	362.78
530.60	313.63
530.77	355.76
530.94	250.44
531.11	311.29
531.28	313.63
531.46	262.14
531.63	341.72
531.80	327.68
531.97	315.97
532.14	294.91
532.31	397.89
532.48	400.23
532.65	430.66
532.82	489.17
532.99	470.45
533.16	510.24
533.33	594.50
533.50	519.60
533.67	449.38
533.84	386.19
534.01	428.32
534.18	362.78
534.35	425.98
534.52	414.27
534.69	505.56
534.86	369.80
535.03	367.46
535.20	369.80
535.37	369.80
535.54	491.51
535.71	510.24
535.88	550.03
536.05	461.09
536.22	578.11
536.38	594.50
536.55	613.22
536.72	631.94
536.89	601.52
537.06	690.46
537.23	746.63
537.40	814.51
537.57	774.72
537.74	851.96
537.91	854.30
538.08	851.96
538.25	976.00
538.42	917.49
538.59	957.28
538.75	901.11
538.92	983.02
539.09	1158.57
539.26	1123.46
539.43	1404.32
539.60	1458.15
539.77	1607.95
539.94	1767.10
540.11	1909.88
540.28	1984.77
540.44	2197.76
540.61	2487.99
540.78	2738.43
540.95	3290.79
541.12	3829.12
541.29	4224.67
541.46	4182.54
541.62	4217.65
541.79	4018.70
541.96	3777.62
542.13	3569.32
542.30	3501.44
542.47	3260.37
542.63	3091.85
542.80	3066.10
542.97	3164.40
543.14	2951.42
543.31	3038.02
543.48	3117.59
543.64	3089.51
543.81	3201.85
543.98	3225.26
544.15	3215.90
544.32	3201.85
544.48	3176.11
544.65	3094.19
544.82	3094.19
544.99	3218.24
545.16	3080.14
545.32	3454.63
545.49	6569.88
545.66	10267.93
545.83	10569.86
546.00	8830.84
546.16	6384.98
546.33	4802.78
546.50	3747.20
546.67	3009.93
546.83	2682.25
547.00	2562.89
547.17	2581.61
547.34	2216.49
547.50	2211.81
547.67	2221.17
547.84	2148.61
548.00	2174.36
548.17	2012.86
548.34	1919.24
548.51	1919.24
548.67	1760.08
548.84	1722.63
549.01	1755.40
549.18	1629.01
549.34	1544.75
549.51	1563.48
549.68	1418.36
549.84	1441.77
550.01	1352.83
550.18	1369.21
550.34	1268.57
550.51	1238.14
550.68	1221.76
550.84	1088.35
551.01	978.34
551.18	1057.92
551.34	863.66
551.51	994.73
551.68	910.47
551.84	957.28
552.01	854.30
552.18	835.57
552.34	844.93
552.51	800.46
552.68	884.72
552.84	800.46
553.01	763.01
553.18	770.04
553.34	664.71
553.51	657.69
553.67	683.44
553.84	744.29
554.01	634.29
554.17	615.56
554.34	578.11
554.51	517.26
554.67	535.98
554.84	491.51
555.00	533.64
555.17	479.81
555.33	444.70
555.50	423.64
555.67	531.30
555.83	416.62
556.00	435.34
556.16	601.52
556.33	390.87
556.50	395.55
556.66	395.55
556.83	301.93
556.99	393.21
557.16	372.15
557.32	304.27
557.49	322.99
557.65	362.78
557.82	374.49
557.98	358.10
558.15	320.65
558.32	374.49
558.48	306.61
558.65	257.46
558.81	411.93
558.98	388.53
559.14	383.85
559.31	341.72
559.47	367.46
559.64	320.65
559.80	409.59
559.97	322.99
560.13	325.33
560.30	276.18
560.46	308.95
560.63	388.53
560.79	358.10
560.96	266.82
561.12	351.08
561.29	395.55
561.45	297.25
561.61	339.38
561.78	393.21
561.94	311.29
562.11	353.42
562.27	381.51
562.44	386.19
562.60	306.61
562.77	271.50
562.93	330.02
563.10	301.93
563.26	301.93
563.42	341.72
563.59	358.10
563.75	337.04
563.92	327.68
564.08	273.84
564.24	332.36
564.41	273.84
564.57	227.03
564.74	266.82
564.90	231.71
565.07	334.70
565.23	367.46
565.39	297.25
565.56	341.72
565.72	262.14
565.88	234.05
566.05	257.46
566.21	292.57
566.38	320.65
566.54	351.08
566.70	318.31
566.87	339.38
567.03	273.84
567.19	355.76
567.36	353.42
567.52	292.57
567.68	330.02
567.85	383.85
568.01	301.93
568.17	222.35
568.34	212.99
568.50	294.91
568.66	259.80
568.83	348.74
568.99	264.48
569.15	299.59
569.32	248.10
569.48	243.42
569.64	283.20
569.81	255.12
569.97	308.95
570.13	243.42
570.30	283.20
570.46	215.33
570.62	311.29
570.78	306.61
570.95	257.46
571.11	280.86
571.27	355.76
571.43	224.69
571.60	222.35
571.76	311.29
571.92	273.84
572.09	285.55
572.25	341.72
572.41	243.42
572.57	285.55
572.74	322.99
572.90	306.61
573.06	245.76
573.22	220.01
573.38	248.10
573.55	337.04
573.71	297.25
573.87	313.63
574.03	278.52
574.20	222.35
574.36	262.14
574.52	290.23
574.68	285.55
574.84	308.95
575.01	330.02
575.17	369.80
575.33	278.52
575.49	280.86
575.65	337.04
575.82	283.20
575.98	409.59
576.14	367.46
576.30	650.67
576.46	1411.34
576.62	1846.68
576.79	1973.07
576.95	1465.18
577.11	1055.58
577.27	774.72
577.43	596.84
577.59	421.30
577.75	470.45
577.92	320.65
578.08	318.31
578.24	437.68
578.40	653.01
578.56	1369.21
578.72	1797.53
578.88	1804.55
579.04	1455.81
579.21	1013.45
579.37	802.80
579.53	725.57
579.69	854.30
579.85	873.02
580.01	915.15
580.17	889.40
580.33	697.48
580.49	674.07
580.65	624.92
580.82	629.60
580.98	526.62
581.14	589.82
581.30	695.14
581.46	641.31
581.62	713.86
581.78	697.48
581.94	760.67
582.10	837.91
582.26	826.21
582.42	866.00
582.58	812.17
582.74	908.13
582.90	784.08
583.06	917.49
583.22	826.21
583.38	870.68
583.54	908.13
583.70	961.96
583.86	833.23
584.02	826.21
584.18	952.60
584.34	819.19
584.50	826.21
584.66	781.74
584.82	734.93
584.98	802.80
585.14	765.36
585.30	755.99
585.46	734.93
585.62	805.14
585.78	791.10
585.94	741.95
586.10	791.10
586.26	861.32
586.42	940.90
586.58	1111.75
586.74	1177.29
586.90	1383.26
587.06	1533.05
587.22	1507.30
587.38	1219.42
587.54	1231.12
587.70	1090.69
587.86	938.55
588.02	837.91
588.18	739.61
588.34	690.46
588.49	585.13
588.65	538.32
588.81	603.86
588.97	514.92
589.13	505.56
589.29	575.77
589.45	547.69
589.61	510.24
589.77	580.45
589.93	688.12
590.08	575.77
590.24	571.09
590.40	528.96
590.56	585.13
590.72	622.58
590.88	559.39
591.04	650.67
591.20	610.88
591.35	704.50
591.51	678.76
591.67	718.54
591.83	671.73
591.99	863.66
592.15	891.74
592.31	950.26
592.46	1006.43
592.62	1057.92
592.78	1062.60
592.94	1064.94
593.10	1158.57
593.26	983.02
593.41	1046.22
593.57	917.49
593.73	718.54
593.89	753.65
594.05	737.27
594.20	592.16
594.36	617.90
594.52	503.22
594.68	599.18
594.84	571.09
594.99	566.41
595.15	514.92
595.31	524.28
595.47	582.79
595.62	585.13
595.78	468.11
595.94	538.32
596.10	510.24
596.25	503.22
596.41	477.47
596.57	557.05
596.73	493.85
596.88	521.94
597.04	451.72
597.20	552.37
597.36	533.64
597.51	573.43
597.67	613.22
597.83	552.37
597.99	650.67
598.14	571.09
598.30	688.12
598.46	669.39
598.61	702.16
598.77	727.91
598.93	744.29
599.09	772.38
599.24	709.18
599.40	685.78
599.56	725.57
599.71	653.01
599.87	685.78
600.03	643.65
600.18	599.18
600.34	615.56
600.50	491.51
600.65	582.79
600.81	468.11
600.97	528.96
601.12	498.53
601.28	468.11
601.44	463.43
601.59	442.36
601.75	353.42
601.91	472.79
602.06	367.46
602.22	493.85
602.37	447.04
602.53	386.19
602.69	400.23
602.84	388.53
603.00	433.00
603.16	390.87
603.31	409.59
603.47	449.38
603.62	360.44
603.78	486.83
603.94	393.21
604.09	407.25
604.25	458.74
604.40	472.79
604.56	390.87
604.71	400.23
604.87	402.57
605.03	463.43
605.18	538.32
605.34	456.40
605.49	437.68
605.65	428.32
605.80	517.26
605.96	535.98
606.12	493.85
606.27	533.64
606.43	585.13
606.58	524.28
606.74	521.94
606.89	571.09
607.05	643.65
607.20	564.07
607.36	636.63
607.51	645.99
607.67	617.90
607.82	713.86
607.98	784.08
608.13	847.27
608.29	767.70
608.44	968.98
608.60	1011.11
608.75	1086.01
608.91	1114.10
609.06	1268.57
609.22	1369.21
609.37	1437.09
609.53	1591.56
609.68	1856.04
609.84	2047.97
609.99	2356.92
