SpectraSuite Data File
++++++++++++++++++++++++++++++++++++
Date: Fri Oct 04 11:41:40 GMT-05:00 2013
User: price-jones
Dark Spectrum Present: No
Reference Spectrum Present: No
Number of Sampled Component Spectra: 1
Spectrometers: USB2+H05261
Integration Time (usec): 100000 (USB2+H05261)
Spectra Averaged: 1 (USB2+H05261)
Boxcar Smoothing: 0 (USB2+H05261)
Correct for Electrical Dark: No (USB2+H05261)
Strobe/Lamp Enabled: No (USB2+H05261)
Correct for Detector Non-linearity: No (USB2+H05261)
Correct for Stray Light: No (USB2+H05261)
Number of Pixels in Processed Spectrum: 2048
>>>>>Begin Processed Spectral Data<<<<<
365.73	51.49
365.92	51.49
366.12	51.49
366.32	0.00
366.52	2.34
366.72	0.00
366.91	0.00
367.11	0.00
367.31	0.00
367.51	0.00
367.70	0.00
367.90	0.00
368.10	0.00
368.30	0.00
368.49	0.00
368.69	0.00
368.89	0.00
369.09	0.00
369.28	0.00
369.48	0.00
369.68	30.43
369.87	4.68
370.07	0.00
370.27	0.00
370.47	70.22
370.66	18.72
370.86	67.88
371.06	58.51
371.25	124.05
371.45	81.92
371.65	107.66
371.84	23.41
372.04	63.19
372.24	98.30
372.44	79.58
372.63	93.62
372.83	100.64
373.03	88.94
373.22	105.32
373.42	112.35
373.62	95.96
373.81	196.60
374.01	189.58
374.21	102.98
374.40	128.73
374.60	168.52
374.79	93.62
374.99	105.32
375.19	100.64
375.38	154.48
375.58	105.32
375.78	149.79
375.97	65.54
376.17	184.90
376.37	184.90
376.56	117.03
376.76	175.54
376.95	133.41
377.15	168.52
377.35	142.77
377.54	56.17
377.74	175.54
377.93	145.11
378.13	152.13
378.33	117.03
378.52	65.54
378.72	88.94
378.91	102.98
379.11	110.01
379.31	145.11
379.50	88.94
379.70	142.77
379.89	156.82
380.09	95.96
380.28	44.47
380.48	67.88
380.68	60.85
380.87	67.88
381.07	154.48
381.26	81.92
381.46	53.83
381.65	84.26
381.85	114.69
382.04	140.43
382.24	72.56
382.43	60.85
382.63	86.60
382.83	72.56
383.02	142.77
383.22	81.92
383.41	30.43
383.61	224.69
383.80	95.96
384.00	107.66
384.19	93.62
384.39	121.71
384.58	60.85
384.78	84.26
384.97	126.39
385.17	93.62
385.36	67.88
385.56	128.73
385.75	105.32
385.95	147.45
386.14	107.66
386.34	86.60
386.53	105.32
386.72	105.32
386.92	124.05
387.11	215.33
387.31	203.63
387.50	133.41
387.70	105.32
387.89	98.30
388.09	58.51
388.28	74.90
388.48	138.09
388.67	177.88
388.86	126.39
389.06	117.03
389.25	63.19
389.45	135.75
389.64	163.84
389.84	107.66
390.03	114.69
390.22	156.82
390.42	173.20
390.61	95.96
390.81	63.19
391.00	121.71
391.19	170.86
391.39	112.35
391.58	128.73
391.78	79.58
391.97	93.62
392.16	110.01
392.36	161.50
392.55	117.03
392.75	102.98
392.94	70.22
393.13	86.60
393.33	121.71
393.52	133.41
393.71	201.29
393.91	105.32
394.10	140.43
394.29	44.47
394.49	100.64
394.68	86.60
394.88	135.75
395.07	203.63
395.26	152.13
395.46	140.43
395.65	107.66
395.84	119.37
396.04	194.26
396.23	84.26
396.42	138.09
396.62	173.20
396.81	110.01
397.00	70.22
397.19	42.13
397.39	128.73
397.58	154.48
397.77	142.77
397.97	119.37
398.16	72.56
398.35	102.98
398.55	91.28
398.74	138.09
398.93	114.69
399.12	161.50
399.32	56.17
399.51	128.73
399.70	114.69
399.90	110.01
400.09	173.20
400.28	161.50
400.47	177.88
400.67	149.79
400.86	161.50
401.05	138.09
401.24	131.07
401.44	154.48
401.63	133.41
401.82	147.45
402.01	124.05
402.21	98.30
402.40	147.45
402.59	107.66
402.78	107.66
402.97	105.32
403.17	100.64
403.36	114.69
403.55	140.43
403.74	248.10
403.93	348.74
404.13	566.41
404.32	573.43
404.51	533.64
404.70	381.51
404.89	264.48
405.09	191.92
405.28	81.92
405.47	121.71
405.66	88.94
405.85	140.43
406.05	117.03
406.24	72.56
406.43	100.64
406.62	133.41
406.81	182.56
407.00	191.92
407.20	168.52
407.39	231.71
407.58	161.50
407.77	215.33
407.96	182.56
408.15	175.54
408.34	121.71
408.54	170.86
408.73	189.58
408.92	102.98
409.11	88.94
409.30	86.60
409.49	124.05
409.68	77.24
409.87	124.05
410.07	147.45
410.26	100.64
410.45	91.28
410.64	156.82
410.83	117.03
411.02	163.84
411.21	95.96
411.40	191.92
411.59	142.77
411.78	149.79
411.98	107.66
412.17	86.60
412.36	110.01
412.55	100.64
412.74	112.35
412.93	154.48
413.12	121.71
413.31	140.43
413.50	128.73
413.69	131.07
413.88	135.75
414.07	152.13
414.26	187.24
414.45	126.39
414.64	187.24
414.83	102.98
415.02	110.01
415.22	156.82
415.41	191.92
415.60	138.09
415.79	107.66
415.98	161.50
416.17	100.64
416.36	133.41
416.55	119.37
416.74	166.18
416.93	161.50
417.12	147.45
417.31	133.41
417.50	131.07
417.69	117.03
417.88	163.84
418.07	170.86
418.26	191.92
418.45	196.60
418.64	168.52
418.83	147.45
419.02	128.73
419.21	102.98
419.39	152.13
419.58	163.84
419.77	39.79
419.96	149.79
420.15	161.50
420.34	105.32
420.53	140.43
420.72	126.39
420.91	156.82
421.10	163.84
421.29	152.13
421.48	175.54
421.67	177.88
421.86	93.62
422.05	124.05
422.24	168.52
422.43	117.03
422.61	131.07
422.80	194.26
422.99	163.84
423.18	152.13
423.37	205.97
423.56	126.39
423.75	117.03
423.94	131.07
424.13	234.05
424.32	72.56
424.50	112.35
424.69	105.32
424.88	191.92
425.07	182.56
425.26	159.16
425.45	154.48
425.64	205.97
425.83	159.16
426.01	166.18
426.20	147.45
426.39	135.75
426.58	128.73
426.77	72.56
426.96	177.88
427.15	152.13
427.33	208.31
427.52	117.03
427.71	222.35
427.90	180.22
428.09	124.05
428.28	154.48
428.46	210.65
428.65	198.95
428.84	187.24
429.03	255.12
429.22	133.41
429.40	177.88
429.59	145.11
429.78	259.80
429.97	191.92
430.16	138.09
430.34	138.09
430.53	147.45
430.72	257.46
430.91	229.37
431.10	168.52
431.28	131.07
431.47	194.26
431.66	135.75
431.85	105.32
432.03	168.52
432.22	152.13
432.41	110.01
432.60	147.45
432.79	175.54
432.97	173.20
433.16	187.24
433.35	110.01
433.54	93.62
433.72	142.77
433.91	217.67
434.10	205.97
434.28	217.67
434.47	259.80
434.66	245.76
434.85	250.44
435.03	613.22
435.22	1446.45
435.41	2349.90
435.59	2338.20
435.78	1643.06
435.97	912.81
436.16	402.57
436.34	201.29
436.53	231.71
436.72	227.03
436.90	187.24
437.09	220.01
437.28	187.24
437.46	159.16
437.65	243.42
437.84	187.24
438.02	161.50
438.21	159.16
438.40	180.22
438.58	201.29
438.77	220.01
438.96	203.63
439.14	135.75
439.33	210.65
439.52	177.88
439.70	196.60
439.89	168.52
440.08	166.18
440.26	187.24
440.45	184.90
440.63	126.39
440.82	124.05
441.01	168.52
441.19	154.48
441.38	205.97
441.57	205.97
441.75	194.26
441.94	196.60
442.12	210.65
442.31	147.45
442.50	184.90
442.68	114.69
442.87	212.99
443.05	222.35
443.24	163.84
443.43	250.44
443.61	184.90
443.80	98.30
443.98	119.37
444.17	152.13
444.35	201.29
444.54	147.45
444.73	147.45
444.91	259.80
445.10	117.03
445.28	203.63
445.47	189.58
445.65	177.88
445.84	100.64
446.02	220.01
446.21	124.05
446.39	187.24
446.58	189.58
446.77	196.60
446.95	91.28
447.14	227.03
447.32	184.90
447.51	241.08
447.69	201.29
447.88	187.24
448.06	222.35
448.25	194.26
448.43	131.07
448.62	145.11
448.80	234.05
448.99	234.05
449.17	142.77
449.36	147.45
449.54	173.20
449.73	161.50
449.91	159.16
450.10	187.24
450.28	227.03
450.46	234.05
450.65	180.22
450.83	149.79
451.02	159.16
451.20	161.50
451.39	114.69
451.57	191.92
451.76	201.29
451.94	170.86
452.13	194.26
452.31	180.22
452.49	245.76
452.68	236.39
452.86	180.22
453.05	259.80
453.23	149.79
453.42	248.10
453.60	161.50
453.78	133.41
453.97	154.48
454.15	175.54
454.34	145.11
454.52	91.28
454.70	217.67
454.89	196.60
455.07	248.10
455.26	276.18
455.44	222.35
455.62	210.65
455.81	224.69
455.99	245.76
456.17	215.33
456.36	231.71
456.54	182.56
456.73	133.41
456.91	119.37
457.09	257.46
457.28	266.82
457.46	205.97
457.64	222.35
457.83	175.54
458.01	210.65
458.19	198.95
458.38	152.13
458.56	142.77
458.74	175.54
458.93	217.67
459.11	140.43
459.29	170.86
459.48	173.20
459.66	248.10
459.84	283.20
460.03	292.57
460.21	166.18
460.39	210.65
460.57	175.54
460.76	182.56
460.94	154.48
461.12	154.48
461.31	252.78
461.49	177.88
461.67	196.60
461.85	194.26
462.04	154.48
462.22	358.10
462.40	222.35
462.59	166.18
462.77	163.84
462.95	147.45
463.13	156.82
463.32	208.31
463.50	217.67
463.68	187.24
463.86	224.69
464.05	215.33
464.23	154.48
464.41	177.88
464.59	117.03
464.78	196.60
464.96	175.54
465.14	205.97
465.32	273.84
465.50	210.65
465.69	166.18
465.87	184.90
466.05	259.80
466.23	133.41
466.41	201.29
466.60	175.54
466.78	198.95
466.96	231.71
467.14	203.63
467.32	269.16
467.51	252.78
467.69	215.33
467.87	271.50
468.05	112.35
468.23	262.14
468.41	208.31
468.60	205.97
468.78	243.42
468.96	198.95
469.14	163.84
469.32	208.31
469.50	210.65
469.69	257.46
469.87	191.92
470.05	212.99
470.23	241.08
470.41	138.09
470.59	166.18
470.77	194.26
470.95	236.39
471.14	250.44
471.32	170.86
471.50	262.14
471.68	163.84
471.86	283.20
472.04	170.86
472.22	198.95
472.40	133.41
472.58	156.82
472.77	105.32
472.95	194.26
473.13	198.95
473.31	245.76
473.49	128.73
473.67	145.11
473.85	250.44
474.03	163.84
474.21	194.26
474.39	163.84
474.57	114.69
474.75	182.56
474.93	236.39
475.12	145.11
475.30	149.79
475.48	238.73
475.66	119.37
475.84	198.95
476.02	182.56
476.20	191.92
476.38	173.20
476.56	170.86
476.74	170.86
476.92	227.03
477.10	220.01
477.28	255.12
477.46	203.63
477.64	184.90
477.82	163.84
478.00	191.92
478.18	227.03
478.36	161.50
478.54	208.31
478.72	189.58
478.90	243.42
479.08	220.01
479.26	220.01
479.44	191.92
479.62	189.58
479.80	196.60
479.98	187.24
480.16	180.22
480.34	222.35
480.52	241.08
480.70	306.61
480.88	173.20
481.06	227.03
481.24	222.35
481.41	238.73
481.59	196.60
481.77	257.46
481.95	220.01
482.13	313.63
482.31	208.31
482.49	231.71
482.67	283.20
482.85	266.82
483.03	313.63
483.21	280.86
483.39	269.16
483.57	262.14
483.74	381.51
483.92	355.76
484.10	308.95
484.28	414.27
484.46	402.57
484.64	320.65
484.82	337.04
485.00	355.76
485.18	365.12
485.35	344.06
485.53	414.27
485.71	388.53
485.89	416.62
486.07	407.25
486.25	458.74
486.43	442.36
486.61	437.68
486.78	355.76
486.96	388.53
487.14	447.04
487.32	433.00
487.50	435.34
487.68	421.30
487.85	421.30
488.03	409.59
488.21	498.53
488.39	435.34
488.57	404.91
488.75	486.83
488.92	685.78
489.10	367.46
489.28	318.31
489.46	402.57
489.64	421.30
489.81	376.83
489.99	346.40
490.17	430.66
490.35	505.56
490.53	332.36
490.70	353.42
490.88	386.19
491.06	299.59
491.24	397.89
491.41	472.79
491.59	463.43
491.77	339.38
491.95	325.33
492.13	395.55
492.30	344.06
492.48	308.95
492.66	369.80
492.84	318.31
493.01	348.74
493.19	409.59
493.37	383.85
493.54	393.21
493.72	393.21
493.90	381.51
494.08	339.38
494.25	285.55
494.43	386.19
494.61	294.91
494.79	411.93
494.96	222.35
495.14	308.95
495.32	315.97
495.49	290.23
495.67	306.61
495.85	325.33
496.02	311.29
496.20	360.44
496.38	386.19
496.55	334.70
496.73	255.12
496.91	325.33
497.09	217.67
497.26	407.25
497.44	301.93
497.62	306.61
497.79	334.70
497.97	332.36
498.14	269.16
498.32	397.89
498.50	250.44
498.67	255.12
498.85	297.25
499.03	346.40
499.20	224.69
499.38	290.23
499.56	290.23
499.73	227.03
499.91	264.48
500.08	290.23
500.26	273.84
500.44	273.84
500.61	257.46
500.79	252.78
500.97	299.59
501.14	353.42
501.32	259.80
501.49	414.27
501.67	266.82
501.84	290.23
502.02	220.01
502.20	276.18
502.37	229.37
502.55	222.35
502.72	205.97
502.90	276.18
503.07	182.56
503.25	245.76
503.43	238.73
503.60	231.71
503.78	315.97
503.95	236.39
504.13	196.60
504.30	257.46
504.48	280.86
504.65	234.05
504.83	280.86
505.01	180.22
505.18	236.39
505.36	269.16
505.53	168.52
505.71	222.35
505.88	241.08
506.06	250.44
506.23	327.68
506.41	248.10
506.58	184.90
506.76	177.88
506.93	177.88
507.11	259.80
507.28	266.82
507.46	283.20
507.63	236.39
507.81	217.67
507.98	266.82
508.16	252.78
508.33	278.52
508.50	327.68
508.68	248.10
508.85	369.80
509.03	255.12
509.20	245.76
509.38	283.20
509.55	222.35
509.73	236.39
509.90	201.29
510.08	217.67
510.25	315.97
510.42	257.46
510.60	304.27
510.77	313.63
510.95	290.23
511.12	212.99
511.30	168.52
511.47	290.23
511.64	280.86
511.82	271.50
511.99	222.35
512.17	236.39
512.34	210.65
512.51	215.33
512.69	159.16
512.86	308.95
513.04	203.63
513.21	245.76
513.38	276.18
513.56	285.55
513.73	234.05
513.90	234.05
514.08	311.29
514.25	322.99
514.43	327.68
514.60	231.71
514.77	227.03
514.95	280.86
515.12	161.50
515.29	208.31
515.47	231.71
515.64	313.63
515.81	187.24
515.99	231.71
516.16	203.63
516.33	241.08
516.51	210.65
516.68	198.95
516.85	315.97
517.03	217.67
517.20	299.59
517.37	325.33
517.54	308.95
517.72	294.91
517.89	257.46
518.06	191.92
518.24	264.48
518.41	236.39
518.58	245.76
518.75	227.03
518.93	210.65
519.10	266.82
519.27	290.23
519.45	234.05
519.62	273.84
519.79	252.78
519.96	222.35
520.14	283.20
520.31	252.78
520.48	250.44
520.65	229.37
520.83	262.14
521.00	273.84
521.17	280.86
521.34	280.86
521.52	297.25
521.69	285.55
521.86	220.01
522.03	220.01
522.20	259.80
522.38	271.50
522.55	187.24
522.72	238.73
522.89	243.42
523.07	262.14
523.24	271.50
523.41	238.73
523.58	234.05
523.75	177.88
523.92	231.71
524.10	220.01
524.27	227.03
524.44	227.03
524.61	243.42
524.78	154.48
524.96	273.84
525.13	243.42
525.30	280.86
525.47	283.20
525.64	229.37
525.81	330.02
525.98	252.78
526.16	217.67
526.33	212.99
526.50	266.82
526.67	234.05
526.84	205.97
527.01	255.12
527.18	287.89
527.36	236.39
527.53	299.59
527.70	266.82
527.87	311.29
528.04	332.36
528.21	262.14
528.38	283.20
528.55	330.02
528.72	280.86
528.89	273.84
529.07	315.97
529.24	149.79
529.41	217.67
529.58	252.78
529.75	231.71
529.92	276.18
530.09	332.36
530.26	273.84
530.43	285.55
530.60	248.10
530.77	276.18
530.94	308.95
531.11	304.27
531.28	259.80
531.46	238.73
531.63	294.91
531.80	297.25
531.97	301.93
532.14	358.10
532.31	278.52
532.48	353.42
532.65	276.18
532.82	339.38
532.99	330.02
533.16	388.53
533.33	339.38
533.50	353.42
533.67	292.57
533.84	308.95
534.01	257.46
534.18	245.76
534.35	255.12
534.52	322.99
534.69	409.59
534.86	374.49
535.03	351.08
535.20	341.72
535.37	348.74
535.54	362.78
535.71	311.29
535.88	351.08
536.05	376.83
536.22	393.21
536.38	362.78
536.55	365.12
536.72	402.57
536.89	437.68
537.06	402.57
537.23	421.30
537.40	372.15
537.57	456.40
537.74	496.19
537.91	479.81
538.08	475.13
538.25	538.32
538.42	561.73
538.59	517.26
538.75	585.13
538.92	552.37
539.09	620.24
539.26	624.92
539.43	676.41
539.60	678.76
539.77	840.25
539.94	861.32
540.11	919.83
540.28	985.37
540.44	1086.01
540.61	1090.69
540.78	1186.65
540.95	1467.52
541.12	1685.19
541.29	1790.51
541.46	1891.15
541.62	1956.69
541.79	1884.13
541.96	1750.72
542.13	1764.76
542.30	1699.23
542.47	1626.67
542.63	1619.65
542.80	1549.43
542.97	1507.30
543.14	1528.37
543.31	1516.67
543.48	1488.58
543.64	1537.73
543.81	1488.58
543.98	1579.86
544.15	1446.45
544.32	1476.88
544.48	1544.75
544.65	1399.64
544.82	1488.58
544.99	1434.75
545.16	1537.73
545.32	1469.86
545.49	2560.55
545.66	3955.51
545.83	4826.18
546.00	4100.62
546.16	2923.33
546.33	2141.59
546.50	1760.08
546.67	1437.09
546.83	1315.38
547.00	1207.72
547.17	1135.16
547.34	1081.33
547.50	1001.75
547.67	1121.12
547.84	1011.11
548.00	966.64
548.17	959.62
548.34	896.43
548.51	980.68
548.67	924.51
548.84	910.47
549.01	849.61
549.18	882.38
549.34	805.14
549.51	730.25
549.68	774.72
549.84	678.76
550.01	788.76
550.18	779.40
550.34	765.36
550.51	671.73
550.68	690.46
550.84	660.03
551.01	589.82
551.18	606.20
551.34	580.45
551.51	547.69
551.68	510.24
551.84	592.16
552.01	500.87
552.18	472.79
552.34	454.06
552.51	479.81
552.68	507.90
552.84	512.58
553.01	500.87
553.18	517.26
553.34	468.11
553.51	463.43
553.67	447.04
553.84	381.51
554.01	418.96
554.17	425.98
554.34	409.59
554.51	425.98
554.67	425.98
554.84	428.32
555.00	411.93
555.17	365.12
555.33	416.62
555.50	393.21
555.67	313.63
555.83	231.71
556.00	318.31
556.16	454.06
556.33	259.80
556.50	358.10
556.66	299.59
556.83	229.37
556.99	315.97
557.16	259.80
557.32	355.76
557.49	266.82
557.65	283.20
557.82	308.95
557.98	292.57
558.15	276.18
558.32	229.37
558.48	255.12
558.65	346.40
558.81	306.61
558.98	299.59
559.14	285.55
559.31	280.86
559.47	252.78
559.64	283.20
559.80	236.39
559.97	266.82
560.13	257.46
560.30	236.39
560.46	222.35
560.63	280.86
560.79	241.08
560.96	184.90
561.12	250.44
561.29	252.78
561.45	285.55
561.61	311.29
561.78	390.87
561.94	236.39
562.11	248.10
562.27	222.35
562.44	304.27
562.60	262.14
562.77	301.93
562.93	390.87
563.10	334.70
563.26	334.70
563.42	346.40
563.59	250.44
563.75	215.33
563.92	203.63
564.08	229.37
564.24	250.44
564.41	348.74
564.57	278.52
564.74	325.33
564.90	276.18
565.07	241.08
565.23	271.50
565.39	227.03
565.56	318.31
565.72	241.08
565.88	255.12
566.05	285.55
566.21	266.82
566.38	227.03
566.54	262.14
566.70	255.12
566.87	220.01
567.03	285.55
567.19	227.03
567.36	264.48
567.52	311.29
567.68	259.80
567.85	287.89
568.01	238.73
568.17	248.10
568.34	248.10
568.50	332.36
568.66	217.67
568.83	259.80
568.99	217.67
569.15	278.52
569.32	318.31
569.48	259.80
569.64	224.69
569.81	285.55
569.97	266.82
570.13	259.80
570.30	227.03
570.46	248.10
570.62	255.12
570.78	252.78
570.95	245.76
571.11	271.50
571.27	311.29
571.43	184.90
571.60	208.31
571.76	227.03
571.92	227.03
572.09	292.57
572.25	360.44
572.41	285.55
572.57	215.33
572.74	290.23
572.90	203.63
573.06	283.20
573.22	320.65
573.38	299.59
573.55	283.20
573.71	257.46
573.87	205.97
574.03	248.10
574.20	269.16
574.36	250.44
574.52	198.95
574.68	255.12
574.84	259.80
575.01	205.97
575.17	234.05
575.33	224.69
575.49	196.60
575.65	315.97
575.82	243.42
575.98	337.04
576.14	348.74
576.30	353.42
576.46	655.35
576.62	866.00
576.79	1032.18
576.95	866.00
577.11	620.24
577.27	505.56
577.43	353.42
577.59	374.49
577.75	355.76
577.92	234.05
578.08	348.74
578.24	348.74
578.40	409.59
578.56	634.29
578.72	938.55
578.88	952.60
579.04	844.93
579.21	601.52
579.37	528.96
579.53	449.38
579.69	585.13
579.85	465.77
580.01	575.77
580.17	507.90
580.33	479.81
580.49	477.47
580.65	433.00
580.82	423.64
580.98	299.59
581.14	409.59
581.30	383.85
581.46	458.74
581.62	461.09
581.78	388.53
581.94	355.76
582.10	465.77
582.26	484.49
582.42	454.06
582.58	578.11
582.74	489.17
582.90	479.81
583.06	517.26
583.22	561.73
583.38	519.60
583.54	575.77
583.70	638.97
583.86	589.82
584.02	540.66
584.18	531.30
584.34	489.17
584.50	505.56
584.66	528.96
584.82	414.27
584.98	493.85
585.14	526.62
585.30	496.19
585.46	468.11
585.62	510.24
585.78	456.40
585.94	383.85
586.10	475.13
586.26	512.58
586.42	538.32
586.58	664.71
586.74	594.50
586.90	697.48
587.06	812.17
587.22	828.55
587.38	690.46
587.54	643.65
587.70	643.65
587.86	587.47
588.02	486.83
588.18	477.47
588.34	458.74
588.49	397.89
588.65	458.74
588.81	351.08
588.97	344.06
589.13	292.57
589.29	414.27
589.45	383.85
589.61	376.83
589.77	390.87
589.93	404.91
590.08	454.06
590.24	372.15
590.40	463.43
590.56	372.15
590.72	376.83
590.88	341.72
591.04	463.43
591.20	374.49
591.35	491.51
591.51	430.66
591.67	456.40
591.83	428.32
591.99	461.09
592.15	550.03
592.31	484.49
592.46	524.28
592.62	524.28
592.78	613.22
592.94	660.03
593.10	620.24
593.26	589.82
593.41	524.28
593.57	510.24
593.73	454.06
593.89	468.11
594.05	393.21
594.20	330.02
594.36	440.02
594.52	353.42
594.68	390.87
594.84	397.89
594.99	348.74
595.15	397.89
595.31	404.91
595.47	409.59
595.62	283.20
595.78	327.68
595.94	280.86
596.10	397.89
596.25	351.08
596.41	360.44
596.57	322.99
596.73	353.42
596.88	339.38
597.04	318.31
597.20	351.08
597.36	315.97
597.51	360.44
597.67	390.87
597.83	292.57
597.99	433.00
598.14	362.78
598.30	330.02
598.46	409.59
598.61	369.80
598.77	458.74
598.93	454.06
599.09	430.66
599.24	451.72
599.40	444.70
599.56	510.24
599.71	418.96
599.87	379.17
600.03	397.89
600.18	386.19
600.34	440.02
600.50	367.46
600.65	362.78
600.81	362.78
600.97	374.49
601.12	367.46
601.28	337.04
601.44	299.59
601.59	269.16
601.75	337.04
601.91	259.80
602.06	313.63
602.22	390.87
602.37	308.95
602.53	297.25
602.69	273.84
602.84	285.55
603.00	320.65
603.16	339.38
603.31	217.67
603.47	320.65
603.62	287.89
603.78	290.23
603.94	322.99
604.09	341.72
604.25	322.99
604.40	334.70
604.56	231.71
604.71	320.65
604.87	285.55
605.03	325.33
605.18	325.33
605.34	360.44
605.49	259.80
605.65	257.46
605.80	278.52
605.96	348.74
606.12	358.10
606.27	400.23
606.43	339.38
606.58	404.91
606.74	285.55
606.89	435.34
607.05	388.53
607.20	416.62
607.36	418.96
607.51	456.40
607.67	416.62
607.82	468.11
607.98	468.11
608.13	477.47
608.29	521.94
608.44	585.13
608.60	585.13
608.75	545.34
608.91	653.01
609.06	681.10
609.22	690.46
609.37	777.06
609.53	875.36
609.68	828.55
609.84	959.62
609.99	1160.91
610.15	1259.21
610.30	1533.05
610.46	2001.16
610.61	2319.47
610.76	3145.68
