SpectraSuite Data File
++++++++++++++++++++++++++++++++++++
Date: Fri Oct 04 11:41:51 GMT-05:00 2013
User: price-jones
Dark Spectrum Present: No
Reference Spectrum Present: No
Number of Sampled Component Spectra: 1
Spectrometers: USB2+H05261
Integration Time (usec): 100000 (USB2+H05261)
Spectra Averaged: 1 (USB2+H05261)
Boxcar Smoothing: 0 (USB2+H05261)
Correct for Electrical Dark: No (USB2+H05261)
Strobe/Lamp Enabled: No (USB2+H05261)
Correct for Detector Non-linearity: No (USB2+H05261)
Correct for Stray Light: No (USB2+H05261)
Number of Pixels in Processed Spectrum: 2048
>>>>>Begin Processed Spectral Data<<<<<
365.73	74.90
365.92	74.90
366.12	74.90
366.32	9.36
366.52	2.34
366.72	0.00
366.91	0.00
367.11	0.00
367.31	0.00
367.51	0.00
367.70	0.00
367.90	0.00
368.10	0.00
368.30	0.00
368.49	0.00
368.69	0.00
368.89	32.77
369.09	0.00
369.28	0.00
369.48	0.00
369.68	0.00
369.87	0.00
370.07	0.00
370.27	35.11
370.47	0.00
370.66	4.68
370.86	56.17
371.06	72.56
371.25	70.22
371.45	60.85
371.65	124.05
371.84	70.22
372.04	30.43
372.24	46.81
372.44	117.03
372.63	100.64
372.83	63.19
373.03	114.69
373.22	84.26
373.42	67.88
373.62	65.54
373.81	124.05
374.01	198.95
374.21	131.07
374.40	70.22
374.60	205.97
374.79	220.01
374.99	98.30
375.19	107.66
375.38	126.39
375.58	117.03
375.78	98.30
375.97	145.11
376.17	236.39
376.37	140.43
376.56	114.69
376.76	163.84
376.95	119.37
377.15	105.32
377.35	138.09
377.54	107.66
377.74	147.45
377.93	102.98
378.13	126.39
378.33	152.13
378.52	107.66
378.72	170.86
378.91	149.79
379.11	91.28
379.31	35.11
379.50	152.13
379.70	189.58
379.89	161.50
380.09	135.75
380.28	175.54
380.48	126.39
380.68	163.84
380.87	156.82
381.07	196.60
381.26	152.13
381.46	74.90
381.65	138.09
381.85	208.31
382.04	135.75
382.24	229.37
382.43	131.07
382.63	86.60
382.83	93.62
383.02	201.29
383.22	173.20
383.41	98.30
383.61	88.94
383.80	53.83
384.00	142.77
384.19	149.79
384.39	184.90
384.58	121.71
384.78	88.94
384.97	74.90
385.17	196.60
385.36	44.47
385.56	205.97
385.75	105.32
385.95	117.03
386.14	67.88
386.34	140.43
386.53	74.90
386.72	98.30
386.92	117.03
387.11	156.82
387.31	131.07
387.50	121.71
387.70	121.71
387.89	161.50
388.09	42.13
388.28	110.01
388.48	114.69
388.67	187.24
388.86	154.48
389.06	112.35
389.25	102.98
389.45	114.69
389.64	100.64
389.84	187.24
390.03	114.69
390.22	117.03
390.42	46.81
390.61	182.56
390.81	95.96
391.00	212.99
391.19	163.84
391.39	117.03
391.58	152.13
391.78	107.66
391.97	147.45
392.16	159.16
392.36	124.05
392.55	161.50
392.75	121.71
392.94	131.07
393.13	135.75
393.33	100.64
393.52	114.69
393.71	135.75
393.91	91.28
394.10	112.35
394.29	173.20
394.49	77.24
394.68	156.82
394.88	147.45
395.07	145.11
395.26	119.37
395.46	152.13
395.65	152.13
395.84	112.35
396.04	210.65
396.23	102.98
396.42	175.54
396.62	131.07
396.81	147.45
397.00	105.32
397.19	156.82
397.39	91.28
397.58	177.88
397.77	175.54
397.97	154.48
398.16	77.24
398.35	166.18
398.55	131.07
398.74	140.43
398.93	184.90
399.12	124.05
399.32	229.37
399.51	149.79
399.70	72.56
399.90	159.16
400.09	100.64
400.28	166.18
400.47	142.77
400.67	149.79
400.86	159.16
401.05	264.48
401.24	257.46
401.44	224.69
401.63	175.54
401.82	278.52
402.01	168.52
402.21	159.16
402.40	201.29
402.59	238.73
402.78	163.84
402.97	283.20
403.17	311.29
403.36	334.70
403.55	306.61
403.74	805.14
403.93	2289.04
404.13	5675.80
404.32	8975.95
404.51	8926.80
404.70	5703.89
404.89	2064.35
405.09	629.60
405.28	311.29
405.47	271.50
405.66	290.23
405.85	248.10
406.05	250.44
406.24	217.67
406.43	217.67
406.62	170.86
406.81	283.20
407.00	461.09
407.20	650.67
407.39	1128.14
407.58	1418.36
407.77	1041.54
407.96	603.86
408.15	318.31
408.34	264.48
408.54	198.95
408.73	229.37
408.92	196.60
409.11	201.29
409.30	318.31
409.49	121.71
409.68	210.65
409.87	187.24
410.07	187.24
410.26	187.24
410.45	315.97
410.64	210.65
410.83	175.54
411.02	184.90
411.21	201.29
411.40	257.46
411.59	255.12
411.78	156.82
411.98	229.37
412.17	241.08
412.36	149.79
412.55	231.71
412.74	264.48
412.93	297.25
413.12	327.68
413.31	241.08
413.50	308.95
413.69	224.69
413.88	318.31
414.07	236.39
414.26	224.69
414.45	243.42
414.64	262.14
414.83	196.60
415.02	276.18
415.22	311.29
415.41	304.27
415.60	220.01
415.79	334.70
415.98	334.70
416.17	227.03
416.36	320.65
416.55	241.08
416.74	299.59
416.93	276.18
417.12	299.59
417.31	304.27
417.50	304.27
417.69	292.57
417.88	208.31
418.07	290.23
418.26	220.01
418.45	315.97
418.64	365.12
418.83	238.73
419.02	322.99
419.21	250.44
419.39	311.29
419.58	201.29
419.77	210.65
419.96	311.29
420.15	353.42
420.34	294.91
420.53	334.70
420.72	332.36
420.91	280.86
421.10	283.20
421.29	358.10
421.48	292.57
421.67	390.87
421.86	327.68
422.05	344.06
422.24	402.57
422.43	334.70
422.61	386.19
422.80	327.68
422.99	353.42
423.18	330.02
423.37	404.91
423.56	407.25
423.75	369.80
423.94	360.44
424.13	339.38
424.32	374.49
424.50	313.63
424.69	414.27
424.88	339.38
425.07	360.44
425.26	374.49
425.45	409.59
425.64	421.30
425.83	390.87
426.01	362.78
426.20	372.15
426.39	386.19
426.58	306.61
426.77	322.99
426.96	365.12
427.15	360.44
427.33	433.00
427.52	332.36
427.71	402.57
427.90	447.04
428.09	479.81
428.28	367.46
428.46	416.62
428.65	442.36
428.84	388.53
429.03	365.12
429.22	433.00
429.40	402.57
429.59	376.83
429.78	442.36
429.97	376.83
430.16	449.38
430.34	449.38
430.53	409.59
430.72	430.66
430.91	463.43
431.10	496.19
431.28	440.02
431.47	482.15
431.66	521.94
431.85	449.38
432.03	507.90
432.22	416.62
432.41	521.94
432.60	568.75
432.79	461.09
432.97	498.53
433.16	589.82
433.35	615.56
433.54	753.65
433.72	779.40
433.91	739.61
434.10	744.29
434.28	1057.92
434.47	1238.14
434.66	1362.19
434.85	1598.59
435.03	3782.31
435.22	13980.02
435.41	35491.88
435.59	46333.24
435.78	32950.06
435.97	15171.35
436.16	5734.31
436.34	1844.34
436.53	1067.28
436.72	866.00
436.90	716.20
437.09	704.50
437.28	667.05
437.46	636.63
437.65	620.24
437.84	547.69
438.02	585.13
438.21	610.88
438.40	514.92
438.58	568.75
438.77	587.47
438.96	582.79
439.14	535.98
439.33	578.11
439.52	578.11
439.70	528.96
439.89	571.09
440.08	601.52
440.26	500.87
440.45	573.43
440.63	543.00
440.82	521.94
441.01	557.05
441.19	524.28
441.38	496.19
441.57	496.19
441.75	521.94
441.94	566.41
442.12	571.09
442.31	547.69
442.50	575.77
442.68	554.71
442.87	596.84
443.05	505.56
443.24	484.49
443.43	559.39
443.61	648.33
443.80	638.97
443.98	507.90
444.17	599.18
444.35	472.79
444.54	568.75
444.73	552.37
444.91	538.32
445.10	552.37
445.28	517.26
445.47	491.51
445.65	610.88
445.84	482.15
446.02	531.30
446.21	575.77
446.39	526.62
446.58	573.43
446.77	657.69
446.95	540.66
447.14	538.32
447.32	550.03
447.51	547.69
447.69	524.28
447.88	535.98
448.06	575.77
448.25	561.73
448.43	575.77
448.62	550.03
448.80	564.07
448.99	561.73
449.17	638.97
449.36	489.17
449.54	547.69
449.73	479.81
449.91	669.39
450.10	573.43
450.28	645.99
450.46	521.94
450.65	599.18
450.83	608.54
451.02	580.45
451.20	566.41
451.39	517.26
451.57	552.37
451.76	580.45
451.94	561.73
452.13	559.39
452.31	505.56
452.49	610.88
452.68	526.62
452.86	575.77
453.05	559.39
453.23	468.11
453.42	538.32
453.60	554.71
453.78	573.43
453.97	486.83
454.15	543.00
454.34	550.03
454.52	552.37
454.70	545.34
454.89	538.32
455.07	465.77
455.26	540.66
455.44	500.87
455.62	454.06
455.81	545.34
455.99	592.16
456.17	458.74
456.36	524.28
456.54	543.00
456.73	524.28
456.91	425.98
457.09	585.13
457.28	472.79
457.46	596.84
457.64	638.97
457.83	512.58
458.01	526.62
458.19	585.13
458.38	517.26
458.56	608.54
458.74	472.79
458.93	517.26
459.11	491.51
459.29	629.60
459.48	582.79
459.66	587.47
459.84	554.71
460.03	638.97
460.21	505.56
460.39	526.62
460.57	507.90
460.76	461.09
460.94	475.13
461.12	566.41
461.31	545.34
461.49	444.70
461.67	528.96
461.85	622.58
462.04	475.13
462.22	894.08
462.40	561.73
462.59	510.24
462.77	524.28
462.95	482.15
463.13	533.64
463.32	472.79
463.50	540.66
463.68	629.60
463.86	489.17
464.05	568.75
464.23	547.69
464.41	615.56
464.59	575.77
464.78	543.00
464.96	622.58
465.14	557.05
465.32	465.77
465.50	587.47
465.69	538.32
465.87	440.02
466.05	500.87
466.23	510.24
466.41	512.58
466.60	538.32
466.78	589.82
466.96	622.58
467.14	554.71
467.32	512.58
467.51	624.92
467.69	507.90
467.87	622.58
468.05	491.51
468.23	484.49
468.41	528.96
468.60	400.23
468.78	512.58
468.96	524.28
469.14	475.13
469.32	458.74
469.50	421.30
469.69	381.51
469.87	500.87
470.05	461.09
470.23	430.66
470.41	451.72
470.59	482.15
470.77	395.55
470.95	589.82
471.14	517.26
471.32	482.15
471.50	510.24
471.68	444.70
471.86	510.24
472.04	535.98
472.22	568.75
472.40	484.49
472.58	543.00
472.77	374.49
472.95	571.09
473.13	608.54
473.31	514.92
473.49	547.69
473.67	568.75
473.85	594.50
474.03	456.40
474.21	568.75
474.39	552.37
474.57	512.58
474.75	519.60
474.93	561.73
475.12	393.21
475.30	528.96
475.48	440.02
475.66	440.02
475.84	500.87
476.02	566.41
476.20	575.77
476.38	545.34
476.56	559.39
476.74	507.90
476.92	533.64
477.10	465.77
477.28	531.30
477.46	519.60
477.64	554.71
477.82	568.75
478.00	545.34
478.18	631.94
478.36	550.03
478.54	592.16
478.72	671.73
478.90	650.67
479.08	685.78
479.26	606.20
479.44	634.29
479.62	638.97
479.80	660.03
479.98	702.16
480.16	681.10
480.34	784.08
480.52	760.67
480.70	842.59
480.88	866.00
481.06	896.43
481.24	919.83
481.41	901.11
481.59	994.73
481.77	1104.73
481.95	1212.40
482.13	1235.80
482.31	1308.36
482.49	1352.83
482.67	1437.09
482.85	1563.48
483.03	1671.14
483.21	1792.85
483.39	1902.86
483.57	2062.01
483.74	2073.71
483.92	2275.00
484.10	2417.77
484.28	2525.44
484.46	2766.51
484.64	2846.09
484.82	2892.90
485.00	3115.25
485.18	3314.20
485.35	3454.63
485.53	3492.08
485.71	3831.46
485.89	4070.19
486.07	3997.64
486.25	3983.59
486.43	4140.41
486.61	4088.92
486.78	4269.14
486.96	4007.00
487.14	4147.43
487.32	4060.83
487.50	3918.06
487.68	4121.68
487.85	3936.78
488.03	3742.52
488.21	3765.92
488.39	3730.81
488.57	3737.84
488.75	3616.13
488.92	3770.60
489.10	3466.33
489.28	3417.18
489.46	3375.05
489.64	3176.11
489.81	3197.17
489.99	3281.43
490.17	3229.94
490.35	3103.55
490.53	3040.36
490.70	3030.99
490.88	3056.74
491.06	3239.30
491.24	3389.10
491.41	3485.06
491.59	3302.50
491.77	3108.23
491.95	3002.91
492.13	2904.60
492.30	2867.16
492.48	2862.48
492.66	2715.02
492.84	2708.00
493.01	2637.78
493.19	2628.42
493.37	2633.10
493.54	2464.58
493.72	2495.01
493.90	2516.08
494.08	2363.94
494.25	2324.15
494.43	2401.39
494.61	2356.92
494.79	2331.17
494.96	2251.60
495.14	2207.13
495.32	2256.28
495.49	2190.74
495.67	2207.13
495.85	2136.91
496.02	2111.16
496.20	2094.78
496.38	2050.31
496.55	1926.26
496.73	1970.73
496.91	1834.98
497.09	1870.09
497.26	1865.41
497.44	1727.32
497.62	1823.28
497.79	1750.72
497.97	1785.83
498.14	1664.12
498.32	1586.88
498.50	1675.82
498.67	1565.82
498.85	1516.67
499.03	1385.60
499.20	1437.09
499.38	1345.81
499.56	1256.87
499.73	1373.89
499.91	1366.87
500.08	1387.94
500.26	1259.21
500.44	1256.87
500.61	1196.01
500.79	1111.75
500.97	1093.03
501.14	1130.48
501.32	1015.79
501.49	1032.18
501.67	976.00
501.84	931.53
502.02	1004.09
502.20	877.70
502.37	950.26
502.55	823.87
502.72	866.00
502.90	887.06
503.07	814.51
503.25	805.14
503.43	866.00
503.60	805.14
503.78	746.63
503.95	732.59
504.13	706.84
504.30	791.10
504.48	667.05
504.65	730.25
504.83	669.39
505.01	645.99
505.18	655.35
505.36	641.31
505.53	667.05
505.71	627.26
505.88	716.20
506.06	697.48
506.23	727.91
506.41	587.47
506.58	603.86
506.76	615.56
506.93	641.31
507.11	645.99
507.28	613.22
507.46	566.41
507.63	568.75
507.81	507.90
507.98	510.24
508.16	538.32
508.33	470.45
508.50	526.62
508.68	547.69
508.85	564.07
509.03	620.24
509.20	653.01
509.38	681.10
509.55	599.18
509.73	557.05
509.90	543.00
510.08	510.24
510.25	475.13
510.42	521.94
510.60	503.22
510.77	477.47
510.95	514.92
511.12	463.43
511.30	477.47
511.47	519.60
511.64	545.34
511.82	564.07
511.99	493.85
512.17	521.94
512.34	521.94
512.51	540.66
512.69	458.74
512.86	545.34
513.04	514.92
513.21	531.30
513.38	463.43
513.56	489.17
513.73	510.24
513.90	440.02
514.08	451.72
514.25	477.47
514.43	465.77
514.60	390.87
514.77	407.25
514.95	484.49
515.12	425.98
515.29	341.72
515.47	404.91
515.64	425.98
515.81	428.32
515.99	496.19
516.16	437.68
516.33	477.47
516.51	484.49
516.68	444.70
516.85	407.25
517.03	440.02
517.20	470.45
517.37	395.55
517.54	416.62
517.72	374.49
517.89	390.87
518.06	395.55
518.24	514.92
518.41	423.64
518.58	397.89
518.75	397.89
518.93	388.53
519.10	456.40
519.27	477.47
519.45	433.00
519.62	451.72
519.79	454.06
519.96	447.04
520.14	404.91
520.31	444.70
520.48	322.99
520.65	414.27
520.83	437.68
521.00	348.74
521.17	383.85
521.34	390.87
521.52	355.76
521.69	360.44
521.86	369.80
522.03	458.74
522.20	447.04
522.38	404.91
522.55	344.06
522.72	447.04
522.89	489.17
523.07	423.64
523.24	428.32
523.41	386.19
523.58	409.59
523.75	437.68
523.92	454.06
524.10	477.47
524.27	472.79
524.44	416.62
524.61	423.64
524.78	367.46
524.96	437.68
525.13	458.74
525.30	425.98
525.47	470.45
525.64	451.72
525.81	477.47
525.98	395.55
526.16	475.13
526.33	346.40
526.50	421.30
526.67	491.51
526.84	475.13
527.01	496.19
527.18	559.39
527.36	482.15
527.53	510.24
527.70	615.56
527.87	470.45
528.04	638.97
528.21	528.96
528.38	571.09
528.55	587.47
528.72	451.72
528.89	477.47
529.07	496.19
529.24	561.73
529.41	589.82
529.58	510.24
529.75	538.32
529.92	631.94
530.09	587.47
530.26	617.90
530.43	643.65
530.60	573.43
530.77	629.60
530.94	636.63
531.11	622.58
531.28	634.29
531.46	737.27
531.63	770.04
531.80	732.59
531.97	805.14
532.14	983.02
532.31	1149.20
532.48	1392.62
532.65	1568.16
532.82	1743.70
532.99	2001.16
533.16	2340.54
533.33	2520.76
533.50	2244.57
533.67	1996.48
533.84	1722.63
534.01	1469.86
534.18	1392.62
534.35	1355.17
534.52	1383.26
534.69	1455.81
534.86	1455.81
535.03	1544.75
535.20	1591.56
535.37	1610.29
535.54	1790.51
535.71	1776.47
535.88	1949.67
536.05	2052.65
536.22	2235.21
536.38	2518.42
536.55	2583.95
536.72	3021.63
536.89	3318.88
537.06	3552.93
537.23	4065.51
537.40	4550.00
537.57	4931.51
537.74	5111.73
537.91	5380.89
538.08	5371.53
538.25	5469.83
538.42	5561.11
538.59	5797.51
538.75	5802.19
538.92	6274.98
539.09	6649.46
539.26	7424.18
539.43	8465.72
539.60	9628.96
539.77	10839.02
539.94	12196.53
540.11	13303.60
540.28	14789.85
540.44	16278.43
540.61	18001.06
540.78	20498.41
540.95	24615.41
541.12	29916.73
541.29	33778.61
541.46	36114.47
541.62	35208.68
541.79	34120.33
541.96	31941.29
542.13	29502.45
542.30	27821.95
542.47	25647.59
542.63	24613.07
542.80	23604.30
542.97	22815.54
543.14	22600.21
543.31	23171.30
543.48	22920.87
543.64	23747.08
543.81	23681.54
543.98	23714.31
544.15	24266.67
544.32	24355.61
544.48	24079.43
544.65	23805.59
544.82	23260.24
544.99	23887.51
545.16	24018.58
545.32	25277.79
545.49	37530.49
545.66	58485.31
545.83	65535.00
546.00	65535.00
546.16	54583.63
546.33	41572.60
546.50	31725.96
546.67	24659.88
546.83	21708.47
547.00	20793.32
547.17	20182.44
547.34	19262.61
547.50	18363.84
547.67	17497.84
547.84	16879.94
548.00	16264.38
548.17	15503.71
548.34	14808.57
548.51	14300.67
548.67	13825.54
548.84	13092.96
549.01	11990.56
549.18	11737.79
549.34	11499.05
549.51	10846.04
549.68	10525.39
549.84	10164.95
550.01	9631.30
550.18	9308.31
550.34	8819.14
550.51	8252.73
550.68	7974.21
550.84	7531.84
551.01	7073.10
551.18	6757.13
551.34	6520.73
551.51	6305.40
551.68	5926.24
551.84	5708.57
552.01	5612.60
552.18	5210.03
552.34	5069.60
552.51	4903.42
552.68	4461.06
552.84	4416.59
553.01	4315.95
553.18	4056.15
553.34	3999.98
553.51	3960.19
553.67	3735.50
553.84	3761.24
554.01	3246.32
554.17	3141.00
554.34	3068.44
554.51	2733.75
554.67	2595.65
554.84	2626.08
555.00	2457.56
555.17	2235.21
555.33	2172.02
555.50	2080.74
555.67	1989.46
555.83	1893.49
556.00	1806.89
556.16	1982.43
556.33	1671.14
556.50	1593.90
556.66	1589.22
556.83	1500.28
556.99	1537.73
557.16	1554.12
557.32	1437.09
557.49	1336.45
557.65	1287.29
557.82	1308.36
557.98	1217.08
558.15	1235.80
558.32	1210.06
558.48	1165.59
558.65	1160.91
558.81	1142.18
558.98	1130.48
559.14	1100.05
559.31	1088.35
559.47	973.66
559.64	964.30
559.80	1057.92
559.97	931.53
560.13	966.64
560.30	973.66
560.46	1118.78
560.63	936.21
560.79	987.71
560.96	945.58
561.12	912.81
561.29	933.87
561.45	983.02
561.61	950.26
561.78	1069.62
561.94	1008.77
562.11	971.32
562.27	896.43
562.44	922.17
562.60	863.66
562.77	875.36
562.93	875.36
563.10	898.77
563.26	847.27
563.42	819.19
563.59	844.93
563.75	807.48
563.92	856.64
564.08	760.67
564.24	835.57
564.41	901.11
564.57	807.48
564.74	746.63
564.90	784.08
565.07	819.19
565.23	669.39
565.39	751.31
565.56	725.57
565.72	741.95
565.88	763.01
566.05	730.25
566.21	791.10
566.38	697.48
566.54	662.37
566.70	737.27
566.87	819.19
567.03	688.12
567.19	741.95
567.36	695.14
567.52	697.48
567.68	713.86
567.85	732.59
568.01	748.97
568.17	718.54
568.34	774.72
568.50	751.31
568.66	718.54
568.83	774.72
568.99	755.99
569.15	779.40
569.32	711.52
569.48	767.70
569.64	582.79
569.81	645.99
569.97	573.43
570.13	617.90
570.30	559.39
570.46	535.98
570.62	526.62
570.78	557.05
570.95	528.96
571.11	589.82
571.27	559.39
571.43	519.60
571.60	627.26
571.76	543.00
571.92	550.03
572.09	486.83
572.25	582.79
572.41	447.04
572.57	510.24
572.74	578.11
572.90	547.69
573.06	594.50
573.22	545.34
573.38	667.05
573.55	521.94
573.71	620.24
573.87	603.86
574.03	622.58
574.20	641.31
574.36	615.56
574.52	660.03
574.68	699.82
574.84	755.99
575.01	791.10
575.17	791.10
575.33	835.57
575.49	866.00
575.65	931.53
575.82	1027.50
575.98	1107.07
576.14	1221.76
576.30	2207.13
576.46	6764.15
576.62	14176.62
576.79	19466.24
576.95	13617.24
577.11	8124.00
577.27	5570.48
577.43	3719.11
577.59	2476.29
577.75	1893.49
577.92	1703.91
578.08	1568.16
578.24	1631.35
578.40	2581.61
578.56	6597.97
578.72	13327.01
578.88	17352.73
579.04	12720.81
579.21	8056.12
579.37	5788.14
579.53	4407.23
579.69	3983.59
579.85	4938.53
580.01	6097.10
580.17	6272.64
580.33	5390.25
580.49	4437.66
580.65	3901.67
580.82	3571.66
580.98	3456.97
581.14	3407.82
581.30	3700.39
581.46	3896.99
581.62	4191.90
581.78	4498.51
581.94	4854.27
582.10	5214.71
582.26	5418.34
582.42	5600.90
582.58	5790.49
582.74	5717.93
582.90	5867.72
583.06	6033.90
583.22	6026.88
583.38	6127.52
583.54	6099.44
583.70	5914.53
583.86	5795.17
584.02	5727.29
584.18	5631.33
584.34	5558.77
584.50	5343.44
584.66	5217.05
584.82	5329.40
584.98	5252.16
585.14	5088.32
585.30	5029.81
585.46	4973.64
585.62	5015.77
585.78	5018.11
585.94	5083.64
586.10	5062.58
586.26	5362.17
586.42	5968.37
586.58	7030.97
586.74	8592.11
586.90	10452.83
587.06	11852.47
587.22	12065.46
587.38	10789.87
587.54	9195.96
587.70	7812.71
587.86	6733.72
588.02	5294.29
588.18	4968.96
588.34	4402.55
588.49	3892.31
588.65	3789.33
588.81	3424.20
588.97	3414.84
589.13	3344.63
589.29	3281.43
589.45	3220.58
589.61	3173.77
589.77	3243.98
589.93	3391.44
590.08	3431.23
590.24	3541.23
590.40	3595.06
590.56	3709.75
590.72	3817.41
590.88	3847.84
591.04	3978.91
591.20	4222.33
591.35	4269.14
591.51	4564.04
591.67	4697.46
591.83	4877.68
591.99	5432.38
592.15	5879.43
592.31	6612.01
592.46	6942.03
592.62	7590.36
592.78	8039.74
592.94	8257.41
593.10	8571.04
593.26	8147.40
593.41	7435.88
593.57	6504.35
593.73	5813.89
593.89	5329.40
594.05	4664.69
594.20	4201.26
594.36	3772.94
594.52	3627.83
594.68	3405.48
594.84	3251.00
594.99	3215.90
595.15	2974.82
595.31	3040.36
595.47	3108.23
595.62	2995.89
595.78	2995.89
595.94	3045.04
596.10	2930.35
596.25	3126.96
596.41	3126.96
596.57	2892.90
596.73	2974.82
596.88	3028.65
597.04	2867.16
597.20	2930.35
597.36	2958.44
597.51	3105.89
597.67	3206.53
597.83	3384.41
597.99	3602.08
598.14	3798.69
598.30	3948.48
598.46	4098.28
598.61	4365.10
598.77	4510.21
598.93	4711.50
599.09	4894.06
599.24	5046.20
599.40	5001.72
599.56	4898.74
599.71	4676.39
599.87	4547.66
600.03	4217.65
600.18	3868.91
600.34	3440.59
600.50	3379.73
600.65	3105.89
600.81	3005.25
600.97	2740.77
601.12	2637.78
601.28	2541.82
601.44	2509.05
601.59	2300.75
601.75	2298.41
601.91	2157.97
602.06	2127.55
602.22	2045.63
602.37	2036.27
602.53	1928.60
602.69	1959.03
602.84	1849.02
603.00	2066.69
603.16	1895.83
603.31	1930.94
603.47	2010.52
603.62	2038.61
603.78	2183.72
603.94	2200.10
604.09	2197.76
604.25	2155.63
604.40	2242.23
604.56	2143.93
604.71	2275.00
604.87	2300.75
