SpectraSuite Data File
++++++++++++++++++++++++++++++++++++
Date: Fri Oct 04 11:42:05 GMT-05:00 2013
User: price-jones
Dark Spectrum Present: No
Reference Spectrum Present: No
Number of Sampled Component Spectra: 1
Spectrometers: USB2+H05261
Integration Time (usec): 100000 (USB2+H05261)
Spectra Averaged: 1 (USB2+H05261)
Boxcar Smoothing: 0 (USB2+H05261)
Correct for Electrical Dark: No (USB2+H05261)
Strobe/Lamp Enabled: No (USB2+H05261)
Correct for Detector Non-linearity: No (USB2+H05261)
Correct for Stray Light: No (USB2+H05261)
Number of Pixels in Processed Spectrum: 2048
>>>>>Begin Processed Spectral Data<<<<<
365.73	4.68
365.92	4.68
366.12	4.68
366.32	0.00
366.52	0.00
366.72	0.00
366.91	0.00
367.11	0.00
367.31	0.00
367.51	0.00
367.70	0.00
367.90	0.00
368.10	0.00
368.30	0.00
368.49	0.00
368.69	0.00
368.89	0.00
369.09	0.00
369.28	0.00
369.48	0.00
369.68	0.00
369.87	49.15
370.07	0.00
370.27	37.45
370.47	25.75
370.66	32.77
370.86	35.11
371.06	117.03
371.25	138.09
371.45	7.02
371.65	133.41
371.84	121.71
372.04	70.22
372.24	152.13
372.44	84.26
372.63	74.90
372.83	121.71
373.03	102.98
373.22	161.50
373.42	128.73
373.62	177.88
373.81	182.56
374.01	121.71
374.21	135.75
374.40	161.50
374.60	138.09
374.79	182.56
374.99	147.45
375.19	159.16
375.38	119.37
375.58	119.37
375.78	145.11
375.97	95.96
376.17	201.29
376.37	102.98
376.56	154.48
376.76	170.86
376.95	84.26
377.15	126.39
377.35	102.98
377.54	95.96
377.74	74.90
377.93	163.84
378.13	205.97
378.33	114.69
378.52	37.45
378.72	170.86
378.91	156.82
379.11	126.39
379.31	121.71
379.50	91.28
379.70	110.01
379.89	152.13
380.09	128.73
380.28	161.50
380.48	110.01
380.68	131.07
380.87	166.18
381.07	168.52
381.26	138.09
381.46	124.05
381.65	42.13
381.85	142.77
382.04	154.48
382.24	114.69
382.43	147.45
382.63	114.69
382.83	88.94
383.02	126.39
383.22	91.28
383.41	100.64
383.61	81.92
383.80	152.13
384.00	60.85
384.19	95.96
384.39	110.01
384.58	191.92
384.78	128.73
384.97	110.01
385.17	95.96
385.36	142.77
385.56	93.62
385.75	112.35
385.95	135.75
386.14	224.69
386.34	156.82
386.53	138.09
386.72	88.94
386.92	212.99
387.11	117.03
387.31	173.20
387.50	51.49
387.70	72.56
387.89	77.24
388.09	105.32
388.28	105.32
388.48	77.24
388.67	142.77
388.86	46.81
389.06	100.64
389.25	121.71
389.45	107.66
389.64	93.62
389.84	119.37
390.03	119.37
390.22	208.31
390.42	70.22
390.61	88.94
390.81	140.43
391.00	110.01
391.19	133.41
391.39	184.90
391.58	166.18
391.78	107.66
391.97	84.26
392.16	93.62
392.36	210.65
392.55	159.16
392.75	105.32
392.94	35.11
393.13	114.69
393.33	93.62
393.52	128.73
393.71	180.22
393.91	133.41
394.10	91.28
394.29	65.54
394.49	159.16
394.68	102.98
394.88	112.35
395.07	107.66
395.26	152.13
395.46	93.62
395.65	42.13
395.84	131.07
396.04	227.03
396.23	102.98
396.42	140.43
396.62	133.41
396.81	161.50
397.00	184.90
397.19	117.03
397.39	152.13
397.58	236.39
397.77	117.03
397.97	138.09
398.16	152.13
398.35	196.60
398.55	126.39
398.74	49.15
398.93	156.82
399.12	180.22
399.32	191.92
399.51	124.05
399.70	184.90
399.90	79.58
400.09	166.18
400.28	159.16
400.47	191.92
400.67	114.69
400.86	131.07
401.05	166.18
401.24	142.77
401.44	177.88
401.63	177.88
401.82	168.52
402.01	110.01
402.21	140.43
402.40	152.13
402.59	180.22
402.78	177.88
402.97	266.82
403.17	205.97
403.36	276.18
403.55	308.95
403.74	653.01
403.93	2033.93
404.13	4924.49
404.32	7164.38
404.51	6361.58
404.70	3964.87
404.89	1493.26
405.09	552.37
405.28	245.76
405.47	166.18
405.66	241.08
405.85	269.16
406.05	196.60
406.24	196.60
406.43	203.63
406.62	273.84
406.81	252.78
407.00	414.27
407.20	622.58
407.39	938.55
407.58	966.64
407.77	709.18
407.96	451.72
408.15	287.89
408.34	198.95
408.54	198.95
408.73	184.90
408.92	259.80
409.11	241.08
409.30	273.84
409.49	163.84
409.68	208.31
409.87	210.65
410.07	112.35
410.26	159.16
410.45	290.23
410.64	119.37
410.83	220.01
411.02	163.84
411.21	135.75
411.40	287.89
411.59	283.20
411.78	299.59
411.98	187.24
412.17	241.08
412.36	205.97
412.55	198.95
412.74	154.48
412.93	308.95
413.12	147.45
413.31	187.24
413.50	152.13
413.69	217.67
413.88	264.48
414.07	269.16
414.26	175.54
414.45	220.01
414.64	290.23
414.83	301.93
415.02	222.35
415.22	191.92
415.41	217.67
415.60	196.60
415.79	212.99
415.98	250.44
416.17	269.16
416.36	250.44
416.55	245.76
416.74	224.69
416.93	273.84
417.12	313.63
417.31	194.26
417.50	205.97
417.69	322.99
417.88	210.65
418.07	222.35
418.26	243.42
418.45	215.33
418.64	297.25
418.83	248.10
419.02	217.67
419.21	278.52
419.39	236.39
419.58	231.71
419.77	266.82
419.96	175.54
420.15	334.70
420.34	252.78
420.53	252.78
420.72	297.25
420.91	320.65
421.10	227.03
421.29	353.42
421.48	278.52
421.67	318.31
421.86	259.80
422.05	234.05
422.24	292.57
422.43	294.91
422.61	287.89
422.80	355.76
422.99	252.78
423.18	255.12
423.37	346.40
423.56	276.18
423.75	285.55
423.94	198.95
424.13	276.18
424.32	255.12
424.50	325.33
424.69	290.23
424.88	418.96
425.07	285.55
425.26	294.91
425.45	362.78
425.64	372.15
425.83	245.76
426.01	337.04
426.20	301.93
426.39	320.65
426.58	280.86
426.77	276.18
426.96	355.76
427.15	276.18
427.33	290.23
427.52	278.52
427.71	269.16
427.90	348.74
428.09	283.20
428.28	318.31
428.46	327.68
428.65	313.63
428.84	355.76
429.03	393.21
429.22	290.23
429.40	376.83
429.59	322.99
429.78	344.06
429.97	344.06
430.16	285.55
430.34	402.57
430.53	393.21
430.72	400.23
430.91	351.08
431.10	376.83
431.28	327.68
431.47	407.25
431.66	423.64
431.85	339.38
432.03	491.51
432.22	503.22
432.41	463.43
432.60	425.98
432.79	425.98
432.97	510.24
433.16	496.19
433.35	622.58
433.54	638.97
433.72	634.29
433.91	674.07
434.10	718.54
434.28	828.55
434.47	1025.15
434.66	1111.75
434.85	1310.70
435.03	3274.41
435.22	12774.64
435.41	30211.64
435.59	33752.87
435.78	21582.08
435.97	10647.10
436.16	4135.73
436.34	1551.78
436.53	858.98
436.72	713.86
436.90	589.82
437.09	606.20
437.28	585.13
437.46	519.60
437.65	447.04
437.84	503.22
438.02	526.62
438.21	500.87
438.40	414.27
438.58	437.68
438.77	444.70
438.96	465.77
439.14	472.79
439.33	493.85
439.52	465.77
439.70	526.62
439.89	465.77
440.08	397.89
440.26	411.93
440.45	423.64
440.63	543.00
440.82	484.49
441.01	528.96
441.19	454.06
441.38	468.11
441.57	486.83
441.75	543.00
441.94	514.92
442.12	484.49
442.31	503.22
442.50	395.55
442.68	468.11
442.87	404.91
443.05	423.64
443.24	535.98
443.43	465.77
443.61	416.62
443.80	550.03
443.98	456.40
444.17	461.09
444.35	512.58
444.54	475.13
444.73	472.79
444.91	465.77
445.10	463.43
445.28	390.87
445.47	458.74
445.65	414.27
445.84	444.70
446.02	449.38
446.21	465.77
446.39	465.77
446.58	535.98
446.77	433.00
446.95	472.79
447.14	416.62
447.32	468.11
447.51	521.94
447.69	416.62
447.88	505.56
448.06	451.72
448.25	498.53
448.43	475.13
448.62	514.92
448.80	559.39
448.99	465.77
449.17	507.90
449.36	390.87
449.54	414.27
449.73	433.00
449.91	505.56
450.10	437.68
450.28	535.98
450.46	484.49
450.65	519.60
450.83	444.70
451.02	456.40
451.20	411.93
451.39	479.81
451.57	390.87
451.76	451.72
451.94	498.53
452.13	498.53
452.31	505.56
452.49	484.49
452.68	442.36
452.86	407.25
453.05	414.27
453.23	479.81
453.42	475.13
453.60	482.15
453.78	454.06
453.97	393.21
454.15	372.15
454.34	461.09
454.52	351.08
454.70	498.53
454.89	458.74
455.07	416.62
455.26	484.49
455.44	430.66
455.62	404.91
455.81	461.09
455.99	369.80
456.17	440.02
456.36	451.72
456.54	435.34
456.73	475.13
456.91	458.74
457.09	458.74
457.28	489.17
457.46	477.47
457.64	393.21
457.83	409.59
458.01	353.42
458.19	414.27
458.38	423.64
458.56	442.36
458.74	428.32
458.93	397.89
459.11	535.98
459.29	430.66
459.48	517.26
459.66	479.81
459.84	404.91
460.03	489.17
460.21	404.91
460.39	468.11
460.57	472.79
460.76	447.04
460.94	451.72
461.12	444.70
461.31	484.49
461.49	433.00
461.67	404.91
461.85	414.27
462.04	395.55
462.22	851.96
462.40	489.17
462.59	510.24
462.77	393.21
462.95	407.25
463.13	437.68
463.32	425.98
463.50	376.83
463.68	491.51
463.86	395.55
464.05	435.34
464.23	421.30
464.41	475.13
464.59	442.36
464.78	411.93
464.96	430.66
465.14	400.23
465.32	400.23
465.50	477.47
465.69	346.40
465.87	376.83
466.05	358.10
466.23	362.78
466.41	390.87
466.60	381.51
466.78	465.77
466.96	444.70
467.14	418.96
467.32	552.37
467.51	547.69
467.69	381.51
467.87	341.72
468.05	477.47
468.23	482.15
468.41	430.66
468.60	395.55
468.78	404.91
468.96	435.34
469.14	475.13
469.32	449.38
469.50	393.21
469.69	388.53
469.87	447.04
470.05	339.38
470.23	423.64
470.41	416.62
470.59	397.89
470.77	404.91
470.95	381.51
471.14	423.64
471.32	393.21
471.50	404.91
471.68	409.59
471.86	449.38
472.04	435.34
472.22	390.87
472.40	409.59
472.58	493.85
472.77	477.47
472.95	409.59
473.13	475.13
473.31	461.09
473.49	411.93
473.67	442.36
473.85	362.78
474.03	456.40
474.21	463.43
474.39	444.70
474.57	395.55
474.75	444.70
474.93	376.83
475.12	383.85
475.30	407.25
475.48	411.93
475.66	444.70
475.84	425.98
476.02	463.43
476.20	414.27
476.38	397.89
476.56	535.98
476.74	437.68
476.92	411.93
477.10	505.56
477.28	449.38
477.46	416.62
477.64	400.23
477.82	409.59
478.00	418.96
478.18	414.27
478.36	468.11
478.54	449.38
478.72	491.51
478.90	500.87
479.08	500.87
479.26	552.37
479.44	552.37
479.62	489.17
479.80	582.79
479.98	564.07
480.16	660.03
480.34	688.12
480.52	617.90
480.70	664.71
480.88	655.35
481.06	657.69
481.24	734.93
481.41	802.80
481.59	849.61
481.77	915.15
481.95	873.02
482.13	940.90
482.31	980.68
482.49	1088.35
482.67	1142.18
482.85	1270.91
483.03	1275.59
483.21	1366.87
483.39	1476.88
483.57	1547.09
483.74	1675.82
483.92	1732.00
484.10	1767.10
484.28	1973.07
484.46	2045.63
484.64	2108.82
484.82	2183.72
485.00	2340.54
485.18	2506.71
485.35	2626.08
485.53	2738.43
485.71	2892.90
485.89	3040.36
486.07	3023.97
486.25	3007.59
486.43	3054.40
486.61	3220.58
486.78	3126.96
486.96	3185.47
487.14	3173.77
487.32	3038.02
487.50	3061.42
487.68	3119.93
487.85	2967.80
488.03	3005.25
488.21	3049.72
488.39	2881.20
488.57	2918.65
488.75	2717.36
488.92	3087.17
489.10	2616.72
489.28	2572.25
489.46	2480.97
489.64	2408.41
489.81	2345.22
489.99	2401.39
490.17	2342.88
490.35	2473.95
490.53	2368.62
490.70	2258.62
490.88	2359.26
491.06	2422.45
491.24	2616.72
491.41	2668.21
491.59	2382.67
491.77	2392.03
491.95	2256.28
492.13	2188.40
492.30	2172.02
492.48	2115.84
492.66	2134.57
492.84	2085.42
493.01	2054.99
493.19	2017.54
493.37	2062.01
493.54	1881.79
493.72	1884.13
493.90	1989.46
494.08	1856.04
494.25	1785.83
494.43	1825.62
494.61	1785.83
494.79	1774.13
494.96	1762.42
495.14	1675.82
495.32	1743.70
495.49	1584.54
495.67	1675.82
495.85	1652.42
496.02	1556.46
496.20	1600.93
496.38	1621.99
496.55	1544.75
496.73	1514.33
496.91	1434.75
497.09	1462.83
497.26	1427.73
497.44	1392.62
497.62	1380.92
497.79	1200.69
497.97	1315.38
498.14	1315.38
498.32	1273.25
498.50	1280.27
498.67	1210.06
498.85	1160.91
499.03	1146.86
499.20	1125.80
499.38	1153.88
499.56	1135.16
499.73	1153.88
499.91	1170.27
500.08	1067.28
500.26	978.34
500.44	931.53
500.61	966.64
500.79	936.21
500.97	856.64
501.14	903.45
501.32	816.85
501.49	828.55
501.67	798.12
501.84	744.29
502.02	774.72
502.20	858.98
502.37	727.91
502.55	678.76
502.72	690.46
502.90	716.20
503.07	758.33
503.25	599.18
503.43	622.58
503.60	690.46
503.78	596.84
503.95	620.24
504.13	578.11
504.30	622.58
504.48	622.58
504.65	638.97
504.83	601.52
505.01	592.16
505.18	624.92
505.36	594.50
505.53	580.45
505.71	484.49
505.88	543.00
506.06	477.47
506.23	498.53
506.41	458.74
506.58	468.11
506.76	461.09
506.93	425.98
507.11	507.90
507.28	449.38
507.46	484.49
507.63	610.88
507.81	472.79
507.98	404.91
508.16	411.93
508.33	470.45
508.50	489.17
508.68	458.74
508.85	573.43
509.03	510.24
509.20	528.96
509.38	472.79
509.55	479.81
509.73	479.81
509.90	524.28
510.08	390.87
510.25	463.43
510.42	444.70
510.60	500.87
510.77	496.19
510.95	440.02
511.12	416.62
511.30	447.04
511.47	454.06
511.64	517.26
511.82	339.38
511.99	397.89
512.17	421.30
512.34	421.30
512.51	411.93
512.69	505.56
512.86	585.13
513.04	404.91
513.21	393.21
513.38	428.32
513.56	433.00
513.73	334.70
513.90	383.85
514.08	243.42
514.25	390.87
514.43	414.27
514.60	388.53
514.77	421.30
514.95	379.17
515.12	315.97
515.29	369.80
515.47	381.51
515.64	407.25
515.81	428.32
515.99	341.72
516.16	491.51
516.33	395.55
516.51	407.25
516.68	301.93
516.85	409.59
517.03	355.76
517.20	390.87
517.37	400.23
517.54	351.08
517.72	393.21
517.89	337.04
518.06	273.84
518.24	388.53
518.41	461.09
518.58	369.80
518.75	332.36
518.93	355.76
519.10	346.40
519.27	390.87
519.45	388.53
519.62	404.91
519.79	355.76
519.96	334.70
520.14	320.65
520.31	318.31
520.48	332.36
520.65	393.21
520.83	416.62
521.00	388.53
521.17	320.65
521.34	320.65
521.52	407.25
521.69	404.91
521.86	381.51
522.03	386.19
522.20	454.06
522.38	339.38
522.55	388.53
522.72	365.12
522.89	400.23
523.07	442.36
523.24	313.63
523.41	264.48
523.58	395.55
523.75	325.33
523.92	348.74
524.10	374.49
524.27	372.15
524.44	327.68
524.61	437.68
524.78	255.12
524.96	390.87
525.13	311.29
525.30	388.53
525.47	423.64
525.64	430.66
525.81	484.49
525.98	421.30
526.16	447.04
526.33	339.38
526.50	374.49
526.67	348.74
526.84	372.15
527.01	344.06
527.18	521.94
527.36	458.74
527.53	456.40
527.70	533.64
527.87	486.83
528.04	477.47
528.21	477.47
528.38	547.69
528.55	390.87
528.72	430.66
528.89	500.87
529.07	444.70
529.24	470.45
529.41	505.56
529.58	491.51
529.75	510.24
529.92	449.38
530.09	437.68
530.26	503.22
530.43	512.58
530.60	465.77
530.77	561.73
530.94	594.50
531.11	519.60
531.28	566.41
531.46	608.54
531.63	566.41
531.80	674.07
531.97	697.48
532.14	863.66
532.31	889.40
532.48	1111.75
532.65	1170.27
532.82	1359.85
532.99	1540.07
533.16	1802.21
533.33	1832.64
533.50	1760.08
533.67	1511.99
533.84	1348.15
534.01	1165.59
534.18	1111.75
534.35	1095.37
534.52	1086.01
534.69	1165.59
534.86	1174.95
535.03	1235.80
535.20	1228.78
535.37	1327.08
535.54	1390.28
535.71	1420.71
535.88	1507.30
536.05	1533.05
536.22	1739.02
536.38	1853.70
536.55	2001.16
536.72	2284.36
536.89	2455.22
537.06	2766.51
537.23	3038.02
537.40	3508.46
537.57	3700.39
537.74	3831.46
537.91	3978.91
538.08	3882.95
538.25	4079.55
538.42	4238.71
538.59	4210.62
538.75	4355.74
538.92	4706.82
539.09	5048.54
539.26	5657.07
539.43	6253.91
539.60	6956.07
539.77	8091.23
539.94	8982.98
540.11	10059.62
540.28	10883.49
540.44	12231.64
540.61	13401.91
540.78	15056.67
540.95	18209.37
541.12	21935.50
541.29	24716.06
541.46	26129.74
541.62	25624.18
541.79	24582.65
541.96	22829.59
542.13	21481.44
542.30	19901.58
542.47	18728.97
542.63	17687.43
542.80	16978.25
542.97	16819.09
543.14	16669.30
543.31	16636.53
543.48	16748.87
543.64	16847.18
543.81	16968.88
543.98	17383.16
544.15	17591.47
544.32	17493.16
544.48	17724.88
544.65	17289.54
544.82	17128.04
544.99	16779.30
545.16	17502.53
545.32	18398.95
545.49	30118.01
545.66	53359.53
545.83	60690.09
546.00	56072.21
546.16	41818.35
546.33	30663.36
546.50	23150.24
546.67	17834.88
546.83	15587.97
547.00	14857.72
547.17	14249.18
547.34	13668.73
547.50	13249.77
547.67	12898.69
547.84	12023.33
548.00	11585.65
548.17	11225.21
548.34	10829.66
548.51	10661.14
548.67	10246.87
548.84	9563.43
549.01	9139.79
549.18	8531.25
549.34	8241.03
549.51	8210.60
549.68	7791.64
549.84	7527.16
550.01	7124.59
550.18	6822.66
550.34	6499.67
550.51	6017.52
550.68	5809.21
550.84	5490.90
551.01	5331.74
551.18	5100.03
551.34	4819.16
551.51	4554.68
551.68	4308.93
551.84	4252.75
552.01	4109.98
552.18	4016.36
552.34	3644.21
552.51	3487.40
552.68	3501.44
552.84	3274.41
553.01	3267.39
553.18	3152.70
553.34	2920.99
553.51	2963.12
553.67	2909.29
553.84	2815.66
554.01	2658.85
554.17	2373.30
554.34	2127.55
554.51	2069.03
554.67	2024.56
554.84	1872.43
555.00	1879.45
555.17	1769.44
555.33	1610.29
555.50	1554.12
555.67	1540.07
555.83	1369.21
556.00	1308.36
556.16	1481.56
556.33	1242.82
556.50	1242.82
556.66	1193.67
556.83	1132.82
556.99	1196.01
557.16	1069.62
557.32	1118.78
557.49	1011.11
557.65	1048.56
557.82	999.41
557.98	980.68
558.15	910.47
558.32	891.74
558.48	875.36
558.65	919.83
558.81	854.30
558.98	786.42
559.14	866.00
559.31	896.43
559.47	873.02
559.64	800.46
559.80	821.53
559.97	802.80
560.13	791.10
560.30	788.76
560.46	793.44
560.63	791.10
560.79	800.46
560.96	760.67
561.12	683.44
561.29	711.52
561.45	709.18
561.61	720.88
561.78	844.93
561.94	840.25
562.11	732.59
562.27	676.41
562.44	690.46
562.60	732.59
562.77	660.03
562.93	751.31
563.10	739.61
563.26	688.12
563.42	788.76
563.59	650.67
563.75	610.88
563.92	723.23
564.08	617.90
564.24	713.86
564.41	716.20
564.57	603.86
564.74	575.77
564.90	713.86
565.07	704.50
565.23	578.11
565.39	603.86
565.56	561.73
565.72	543.00
565.88	636.63
566.05	648.33
566.21	596.84
566.38	657.69
566.54	622.58
566.70	566.41
566.87	545.34
567.03	650.67
567.19	671.73
567.36	587.47
567.52	667.05
567.68	596.84
567.85	552.37
568.01	634.29
568.17	554.71
568.34	606.20
568.50	688.12
568.66	645.99
568.83	660.03
568.99	620.24
569.15	662.37
569.32	557.05
569.48	592.16
569.64	533.64
569.81	568.75
569.97	580.45
570.13	430.66
570.30	414.27
570.46	425.98
570.62	444.70
570.78	421.30
570.95	425.98
571.11	451.72
571.27	475.13
571.43	477.47
571.60	416.62
571.76	503.22
571.92	503.22
572.09	390.87
572.25	472.79
572.41	470.45
572.57	463.43
572.74	496.19
572.90	512.58
573.06	465.77
573.22	510.24
573.38	514.92
573.55	496.19
573.71	571.09
573.87	414.27
574.03	458.74
574.20	486.83
574.36	554.71
574.52	550.03
574.68	526.62
574.84	620.24
575.01	571.09
575.17	669.39
575.33	685.78
575.49	711.52
575.65	746.63
575.82	873.02
575.98	901.11
576.14	957.28
576.30	1872.43
576.46	6076.03
576.62	11262.66
576.79	12601.44
576.95	9022.77
577.11	5607.92
577.27	4107.64
577.43	2747.79
577.59	1699.23
577.75	1488.58
577.92	1418.36
578.08	1219.42
578.24	1291.98
578.40	2204.78
578.56	5764.74
578.72	10422.41
578.88	11632.46
579.04	8381.46
579.21	5521.32
579.37	4255.09
579.53	3344.63
579.69	3117.59
579.85	3796.35
580.01	4538.30
580.17	4386.16
580.33	3740.18
580.49	3183.13
580.65	2855.45
580.82	2579.27
580.98	2415.43
581.14	2614.38
581.30	2773.53
581.46	2836.73
581.62	3262.71
581.78	3321.22
581.94	3581.02
582.10	3810.39
582.26	4011.68
582.42	4072.53
582.58	4112.32
582.74	4250.41
582.90	4358.08
583.06	4269.14
583.22	4418.93
583.38	4458.72
583.54	4276.16
583.70	4329.99
583.86	4369.78
584.02	4081.89
584.18	4070.19
584.34	4032.74
584.50	4021.04
584.66	3967.21
584.82	3889.97
584.98	3887.63
585.14	3758.90
585.30	3733.15
585.46	3630.17
585.62	3585.70
585.78	3562.30
585.94	3653.58
586.10	3702.73
586.26	3843.16
586.42	4395.53
586.58	5355.15
586.74	6450.52
586.90	7566.95
587.06	8393.16
587.22	8348.69
587.38	7562.27
587.54	6476.26
587.70	5547.07
587.86	4805.12
588.02	4049.13
588.18	3552.93
588.34	3227.60
588.49	2902.26
588.65	2796.94
588.81	2614.38
588.97	2583.95
589.13	2476.29
589.29	2457.56
589.45	2427.14
589.61	2434.16
589.77	2331.17
589.93	2408.41
590.08	2452.88
590.24	2708.00
590.40	2658.85
590.56	2757.15
590.72	2771.19
590.88	2881.20
591.04	2890.56
591.20	3129.30
591.35	3267.39
591.51	3407.82
591.67	3433.57
591.83	3894.65
591.99	4072.53
592.15	4327.65
592.31	4716.18
592.46	5001.72
592.62	5385.57
592.78	6040.92
592.94	6061.99
593.10	6179.01
593.26	5877.09
593.41	5394.93
593.57	4732.56
593.73	4299.56
593.89	3864.22
594.05	3344.63
594.20	3009.93
594.36	2860.13
594.52	2520.76
594.68	2476.29
594.84	2438.84
594.99	2265.64
595.15	2282.02
595.31	2221.17
595.47	2054.99
595.62	2146.27
595.78	2122.87
595.94	2139.25
596.10	2148.61
596.25	2162.66
596.41	2108.82
596.57	2108.82
596.73	2139.25
596.88	2153.29
597.04	2275.00
597.20	2172.02
597.36	2214.15
597.51	2417.77
597.67	2394.37
597.83	2539.48
597.99	2546.50
598.14	2705.66
598.30	2897.58
598.46	3007.59
598.61	3262.71
598.77	3445.27
598.93	3653.58
599.09	3515.48
599.24	3805.71
599.40	3625.49
599.56	3471.01
599.71	3454.63
599.87	3162.06
600.03	3021.63
600.18	2869.50
600.34	2689.28
600.50	2352.24
600.65	2377.98
600.81	2286.70
600.97	2080.74
601.12	1921.58
601.28	1856.04
601.44	1762.42
601.59	1739.02
601.75	1689.87
601.91	1640.72
602.06	1579.86
602.22	1511.99
602.37	1526.03
602.53	1355.17
602.69	1453.47
602.84	1540.07
603.00	1448.79
603.16	1462.83
603.31	1472.20
603.47	1584.54
603.62	1535.39
603.78	1547.09
603.94	1591.56
604.09	1554.12
604.25	1607.95
604.40	1638.38
604.56	1694.55
604.71	1685.19
604.87	1654.76
605.03	1837.32
605.18	1832.64
605.34	1797.53
