SpectraSuite Data File
++++++++++++++++++++++++++++++++++++
Date: Fri Oct 04 11:41:40 GMT-05:00 2013
User: price-jones
Dark Spectrum Present: No
Reference Spectrum Present: No
Number of Sampled Component Spectra: 1
Spectrometers: USB2+H05261
Integration Time (usec): 100000 (USB2+H05261)
Spectra Averaged: 1 (USB2+H05261)
Boxcar Smoothing: 0 (USB2+H05261)
Correct for Electrical Dark: No (USB2+H05261)
Strobe/Lamp Enabled: No (USB2+H05261)
Correct for Detector Non-linearity: No (USB2+H05261)
Correct for Stray Light: No (USB2+H05261)
Number of Pixels in Processed Spectrum: 2048
>>>>>Begin Processed Spectral Data<<<<<
365.73	32.77
365.92	32.77
366.12	32.77
366.32	0.00
366.52	0.00
366.72	0.00
366.91	0.00
367.11	0.00
367.31	0.00
367.51	0.00
367.70	0.00
367.90	0.00
368.10	0.00
368.30	0.00
368.49	0.00
368.69	0.00
368.89	0.00
369.09	0.00
369.28	0.00
369.48	0.00
369.68	7.02
369.87	0.00
370.07	0.00
370.27	0.00
370.47	42.13
370.66	0.00
370.86	88.94
371.06	65.54
371.25	100.64
371.45	63.19
371.65	86.60
371.84	14.04
372.04	67.88
372.24	114.69
372.44	35.11
372.63	65.54
372.83	107.66
373.03	163.84
373.22	147.45
373.42	84.26
373.62	42.13
373.81	110.01
374.01	67.88
374.21	159.16
374.40	77.24
374.60	114.69
374.79	93.62
374.99	35.11
375.19	117.03
375.38	114.69
375.58	210.65
375.78	194.26
375.97	159.16
376.17	208.31
376.37	140.43
376.56	121.71
376.76	131.07
376.95	51.49
377.15	93.62
377.35	121.71
377.54	170.86
377.74	102.98
377.93	107.66
378.13	110.01
378.33	100.64
378.52	189.58
378.72	119.37
378.91	105.32
379.11	81.92
379.31	100.64
379.50	154.48
379.70	138.09
379.89	112.35
380.09	46.81
380.28	112.35
380.48	39.79
380.68	135.75
380.87	114.69
381.07	138.09
381.26	110.01
381.46	93.62
381.65	88.94
381.85	46.81
382.04	81.92
382.24	135.75
382.43	53.83
382.63	63.19
382.83	229.37
383.02	156.82
383.22	180.22
383.41	124.05
383.61	135.75
383.80	72.56
384.00	81.92
384.19	86.60
384.39	149.79
384.58	128.73
384.78	88.94
384.97	107.66
385.17	131.07
385.36	53.83
385.56	91.28
385.75	98.30
385.95	100.64
386.14	105.32
386.34	201.29
386.53	117.03
386.72	91.28
386.92	100.64
387.11	98.30
387.31	140.43
387.50	138.09
387.70	32.77
387.89	142.77
388.09	196.60
388.28	95.96
388.48	81.92
388.67	154.48
388.86	107.66
389.06	184.90
389.25	102.98
389.45	126.39
389.64	63.19
389.84	58.51
390.03	149.79
390.22	84.26
390.42	140.43
390.61	88.94
390.81	114.69
391.00	145.11
391.19	208.31
391.39	86.60
391.58	117.03
391.78	124.05
391.97	95.96
392.16	77.24
392.36	173.20
392.55	140.43
392.75	74.90
392.94	56.17
393.13	44.47
393.33	65.54
393.52	117.03
393.71	138.09
393.91	145.11
394.10	49.15
394.29	70.22
394.49	65.54
394.68	107.66
394.88	152.13
395.07	105.32
395.26	159.16
395.46	138.09
395.65	119.37
395.84	112.35
396.04	236.39
396.23	121.71
396.42	142.77
396.62	88.94
396.81	131.07
397.00	121.71
397.19	154.48
397.39	84.26
397.58	72.56
397.77	35.11
397.97	74.90
398.16	77.24
398.35	105.32
398.55	67.88
398.74	58.51
398.93	88.94
399.12	161.50
399.32	93.62
399.51	145.11
399.70	128.73
399.90	86.60
400.09	114.69
400.28	91.28
400.47	35.11
400.67	133.41
400.86	128.73
401.05	173.20
401.24	119.37
401.44	149.79
401.63	191.92
401.82	128.73
402.01	205.97
402.21	98.30
402.40	121.71
402.59	159.16
402.78	91.28
402.97	77.24
403.17	135.75
403.36	114.69
403.55	107.66
403.74	145.11
403.93	173.20
404.13	248.10
404.32	210.65
404.51	266.82
404.70	159.16
404.89	135.75
405.09	142.77
405.28	135.75
405.47	140.43
405.66	121.71
405.85	149.79
406.05	140.43
406.24	105.32
406.43	170.86
406.62	70.22
406.81	170.86
407.00	175.54
407.20	60.85
407.39	161.50
407.58	110.01
407.77	102.98
407.96	91.28
408.15	133.41
408.34	131.07
408.54	67.88
408.73	156.82
408.92	72.56
409.11	161.50
409.30	187.24
409.49	23.41
409.68	133.41
409.87	135.75
410.07	140.43
410.26	110.01
410.45	88.94
410.64	189.58
410.83	140.43
411.02	180.22
411.21	79.58
411.40	126.39
411.59	93.62
411.78	79.58
411.98	110.01
412.17	128.73
412.36	114.69
412.55	114.69
412.74	224.69
412.93	215.33
413.12	91.28
413.31	205.97
413.50	84.26
413.69	154.48
413.88	203.63
414.07	166.18
414.26	105.32
414.45	93.62
414.64	133.41
414.83	145.11
415.02	159.16
415.22	156.82
415.41	147.45
415.60	145.11
415.79	156.82
415.98	95.96
416.17	224.69
416.36	163.84
416.55	201.29
416.74	145.11
416.93	114.69
417.12	152.13
417.31	84.26
417.50	18.72
417.69	152.13
417.88	44.47
418.07	86.60
418.26	91.28
418.45	110.01
418.64	184.90
418.83	102.98
419.02	119.37
419.21	159.16
419.39	161.50
419.58	149.79
419.77	163.84
419.96	147.45
420.15	191.92
420.34	140.43
420.53	194.26
420.72	128.73
420.91	217.67
421.10	131.07
421.29	175.54
421.48	112.35
421.67	238.73
421.86	112.35
422.05	117.03
422.24	152.13
422.43	175.54
422.61	119.37
422.80	93.62
422.99	124.05
423.18	152.13
423.37	191.92
423.56	81.92
423.75	182.56
423.94	182.56
424.13	126.39
424.32	100.64
424.50	217.67
424.69	175.54
424.88	95.96
425.07	53.83
425.26	229.37
425.45	140.43
425.64	156.82
425.83	182.56
426.01	210.65
426.20	154.48
426.39	175.54
426.58	126.39
426.77	102.98
426.96	114.69
427.15	138.09
427.33	107.66
427.52	107.66
427.71	117.03
427.90	194.26
428.09	112.35
428.28	112.35
428.46	220.01
428.65	119.37
428.84	140.43
429.03	133.41
429.22	156.82
429.40	98.30
429.59	133.41
429.78	133.41
429.97	140.43
430.16	58.51
430.34	187.24
430.53	180.22
430.72	110.01
430.91	58.51
431.10	166.18
431.28	102.98
431.47	152.13
431.66	196.60
431.85	124.05
432.03	114.69
432.22	194.26
432.41	135.75
432.60	220.01
432.79	114.69
432.97	224.69
433.16	119.37
433.35	154.48
433.54	119.37
433.72	156.82
433.91	168.52
434.10	128.73
434.28	149.79
434.47	187.24
434.66	234.05
434.85	187.24
435.03	259.80
435.22	636.63
435.41	1018.13
435.59	1107.07
435.78	718.54
435.97	393.21
436.16	292.57
436.34	191.92
436.53	163.84
436.72	248.10
436.90	196.60
437.09	163.84
437.28	156.82
437.46	159.16
437.65	114.69
437.84	131.07
438.02	72.56
438.21	126.39
438.40	56.17
438.58	107.66
438.77	102.98
438.96	187.24
439.14	173.20
439.33	205.97
439.52	156.82
439.70	147.45
439.89	212.99
440.08	170.86
440.26	100.64
440.45	184.90
440.63	161.50
440.82	189.58
441.01	173.20
441.19	205.97
441.38	212.99
441.57	154.48
441.75	227.03
441.94	187.24
442.12	156.82
442.31	117.03
442.50	187.24
442.68	154.48
442.87	222.35
443.05	191.92
443.24	126.39
443.43	184.90
443.61	182.56
443.80	152.13
443.98	196.60
444.17	166.18
444.35	175.54
444.54	201.29
444.73	102.98
444.91	131.07
445.10	208.31
445.28	149.79
445.47	175.54
445.65	77.24
445.84	184.90
446.02	140.43
446.21	154.48
446.39	107.66
446.58	217.67
446.77	175.54
446.95	177.88
447.14	161.50
447.32	208.31
447.51	149.79
447.69	175.54
447.88	142.77
448.06	243.42
448.25	166.18
448.43	166.18
448.62	187.24
448.80	112.35
448.99	126.39
449.17	170.86
449.36	145.11
449.54	210.65
449.73	180.22
449.91	168.52
450.10	163.84
450.28	191.92
450.46	210.65
450.65	205.97
450.83	126.39
451.02	117.03
451.20	189.58
451.39	243.42
451.57	140.43
451.76	161.50
451.94	126.39
452.13	201.29
452.31	173.20
452.49	180.22
452.68	175.54
452.86	140.43
453.05	198.95
453.23	159.16
453.42	161.50
453.60	170.86
453.78	184.90
453.97	79.58
454.15	145.11
454.34	105.32
454.52	196.60
454.70	210.65
454.89	170.86
455.07	159.16
455.26	252.78
455.44	154.48
455.62	154.48
455.81	266.82
455.99	191.92
456.17	203.63
456.36	161.50
456.54	203.63
456.73	147.45
456.91	147.45
457.09	231.71
457.28	170.86
457.46	121.71
457.64	203.63
457.83	163.84
458.01	154.48
458.19	91.28
458.38	161.50
458.56	149.79
458.74	189.58
458.93	222.35
459.11	194.26
459.29	215.33
459.48	131.07
459.66	201.29
459.84	182.56
460.03	290.23
460.21	156.82
460.39	156.82
460.57	184.90
460.76	189.58
460.94	166.18
461.12	175.54
461.31	245.76
461.49	154.48
461.67	159.16
461.85	196.60
462.04	173.20
462.22	308.95
462.40	222.35
462.59	227.03
462.77	114.69
462.95	210.65
463.13	86.60
463.32	201.29
463.50	145.11
463.68	227.03
463.86	121.71
464.05	131.07
464.23	217.67
464.41	245.76
464.59	126.39
464.78	154.48
464.96	175.54
465.14	182.56
465.32	189.58
465.50	238.73
465.69	163.84
465.87	126.39
466.05	210.65
466.23	119.37
466.41	173.20
466.60	189.58
466.78	212.99
466.96	154.48
467.14	145.11
467.32	227.03
467.51	205.97
467.69	105.32
467.87	124.05
468.05	170.86
468.23	201.29
468.41	196.60
468.60	140.43
468.78	138.09
468.96	227.03
469.14	147.45
469.32	98.30
469.50	126.39
469.69	177.88
469.87	182.56
470.05	220.01
470.23	140.43
470.41	170.86
470.59	161.50
470.77	177.88
470.95	128.73
471.14	145.11
471.32	196.60
471.50	205.97
471.68	196.60
471.86	159.16
472.04	220.01
472.22	117.03
472.40	205.97
472.58	203.63
472.77	184.90
472.95	234.05
473.13	198.95
473.31	182.56
473.49	217.67
473.67	208.31
473.85	177.88
474.03	182.56
474.21	191.92
474.39	177.88
474.57	215.33
474.75	166.18
474.93	154.48
475.12	189.58
475.30	198.95
475.48	177.88
475.66	266.82
475.84	231.71
476.02	222.35
476.20	220.01
476.38	201.29
476.56	252.78
476.74	140.43
476.92	156.82
477.10	189.58
477.28	208.31
477.46	203.63
477.64	234.05
477.82	205.97
478.00	128.73
478.18	180.22
478.36	114.69
478.54	180.22
478.72	191.92
478.90	163.84
479.08	112.35
479.26	248.10
479.44	201.29
479.62	159.16
479.80	224.69
479.98	161.50
480.16	138.09
480.34	257.46
480.52	280.86
480.70	269.16
480.88	166.18
481.06	184.90
481.24	177.88
481.41	203.63
481.59	252.78
481.77	198.95
481.95	269.16
482.13	255.12
482.31	180.22
482.49	243.42
482.67	224.69
482.85	250.44
483.03	159.16
483.21	269.16
483.39	163.84
483.57	234.05
483.74	271.50
483.92	198.95
484.10	243.42
484.28	210.65
484.46	262.14
484.64	262.14
484.82	276.18
485.00	257.46
485.18	332.36
485.35	280.86
485.53	255.12
485.71	266.82
485.89	257.46
486.07	266.82
486.25	332.36
486.43	334.70
486.61	353.42
486.78	339.38
486.96	252.78
487.14	173.20
487.32	327.68
487.50	283.20
487.68	231.71
487.85	365.12
488.03	292.57
488.21	376.83
488.39	299.59
488.57	227.03
488.75	245.76
488.92	601.52
489.10	325.33
489.28	430.66
489.46	231.71
489.64	318.31
489.81	330.02
489.99	229.37
490.17	297.25
490.35	374.49
490.53	299.59
490.70	276.18
490.88	205.97
491.06	276.18
491.24	285.55
491.41	294.91
491.59	311.29
491.77	224.69
491.95	276.18
492.13	245.76
492.30	311.29
492.48	297.25
492.66	311.29
492.84	332.36
493.01	203.63
493.19	297.25
493.37	311.29
493.54	238.73
493.72	264.48
493.90	271.50
494.08	227.03
494.25	294.91
494.43	243.42
494.61	241.08
494.79	276.18
494.96	201.29
495.14	308.95
495.32	152.13
495.49	332.36
495.67	308.95
495.85	205.97
496.02	238.73
496.20	264.48
496.38	334.70
496.55	208.31
496.73	337.04
496.91	238.73
497.09	217.67
497.26	238.73
497.44	252.78
497.62	280.86
497.79	308.95
497.97	334.70
498.14	330.02
498.32	290.23
498.50	332.36
498.67	191.92
498.85	250.44
499.03	241.08
499.20	280.86
499.38	234.05
499.56	198.95
499.73	245.76
499.91	248.10
500.08	264.48
500.26	264.48
500.44	238.73
500.61	273.84
500.79	299.59
500.97	231.71
501.14	313.63
501.32	184.90
501.49	290.23
501.67	238.73
501.84	180.22
502.02	252.78
502.20	285.55
502.37	189.58
502.55	234.05
502.72	210.65
502.90	257.46
503.07	238.73
503.25	227.03
503.43	184.90
503.60	236.39
503.78	231.71
503.95	271.50
504.13	234.05
504.30	205.97
504.48	238.73
504.65	266.82
504.83	217.67
505.01	280.86
505.18	222.35
505.36	220.01
505.53	217.67
505.71	189.58
505.88	271.50
506.06	264.48
506.23	259.80
506.41	285.55
506.58	252.78
506.76	283.20
506.93	222.35
507.11	205.97
507.28	238.73
507.46	170.86
507.63	220.01
507.81	212.99
507.98	252.78
508.16	227.03
508.33	259.80
508.50	243.42
508.68	245.76
508.85	215.33
509.03	210.65
509.20	187.24
509.38	201.29
509.55	224.69
509.73	238.73
509.90	273.84
510.08	252.78
510.25	238.73
510.42	222.35
510.60	168.52
510.77	231.71
510.95	266.82
511.12	280.86
511.30	264.48
511.47	313.63
511.64	250.44
511.82	330.02
511.99	205.97
512.17	196.60
512.34	229.37
512.51	224.69
512.69	236.39
512.86	280.86
513.04	212.99
513.21	285.55
513.38	248.10
513.56	250.44
513.73	208.31
513.90	210.65
514.08	283.20
514.25	313.63
514.43	318.31
514.60	248.10
514.77	234.05
514.95	243.42
515.12	180.22
515.29	238.73
515.47	250.44
515.64	271.50
515.81	278.52
515.99	262.14
516.16	252.78
516.33	220.01
516.51	210.65
516.68	215.33
516.85	170.86
517.03	152.13
517.20	266.82
517.37	187.24
517.54	194.26
517.72	252.78
517.89	196.60
518.06	203.63
518.24	220.01
518.41	236.39
518.58	215.33
518.75	201.29
518.93	131.07
519.10	189.58
519.27	276.18
519.45	227.03
519.62	238.73
519.79	243.42
519.96	234.05
520.14	189.58
520.31	229.37
520.48	215.33
520.65	205.97
520.83	287.89
521.00	262.14
521.17	243.42
521.34	262.14
521.52	203.63
521.69	203.63
521.86	212.99
522.03	236.39
522.20	294.91
522.38	198.95
522.55	156.82
522.72	182.56
522.89	227.03
523.07	236.39
523.24	248.10
523.41	201.29
523.58	180.22
523.75	168.52
523.92	238.73
524.10	250.44
524.27	243.42
524.44	196.60
524.61	301.93
524.78	271.50
524.96	257.46
525.13	248.10
525.30	220.01
525.47	322.99
525.64	273.84
525.81	332.36
525.98	196.60
526.16	252.78
526.33	271.50
526.50	198.95
526.67	203.63
526.84	212.99
527.01	248.10
527.18	229.37
527.36	180.22
527.53	220.01
527.70	325.33
527.87	189.58
528.04	210.65
528.21	280.86
528.38	264.48
528.55	203.63
528.72	215.33
528.89	262.14
529.07	201.29
529.24	255.12
529.41	301.93
529.58	292.57
529.75	346.40
529.92	280.86
530.09	245.76
530.26	210.65
530.43	234.05
530.60	196.60
530.77	308.95
530.94	318.31
531.11	290.23
531.28	269.16
531.46	259.80
531.63	271.50
531.80	180.22
531.97	266.82
532.14	234.05
532.31	341.72
532.48	262.14
532.65	358.10
532.82	252.78
532.99	243.42
533.16	337.04
533.33	362.78
533.50	327.68
533.67	332.36
533.84	287.89
534.01	255.12
534.18	290.23
534.35	308.95
534.52	313.63
534.69	318.31
534.86	318.31
535.03	243.42
535.20	276.18
535.37	252.78
535.54	292.57
535.71	308.95
535.88	248.10
536.05	245.76
536.22	285.55
536.38	278.52
536.55	372.15
536.72	372.15
536.89	229.37
537.06	360.44
537.23	334.70
537.40	327.68
537.57	397.89
537.74	365.12
537.91	416.62
538.08	365.12
538.25	365.12
538.42	348.74
538.59	447.04
538.75	414.27
538.92	404.91
539.09	489.17
539.26	414.27
539.43	517.26
539.60	571.09
539.77	566.41
539.94	557.05
540.11	622.58
540.28	620.24
540.44	732.59
540.61	727.91
540.78	830.89
540.95	835.57
541.12	1153.88
541.29	1118.78
541.46	1315.38
541.62	1296.66
541.79	1259.21
541.96	1107.07
542.13	1144.52
542.30	1116.44
542.47	1086.01
542.63	1020.47
542.80	1076.65
542.97	1050.90
543.14	929.19
543.31	1032.18
543.48	933.87
543.64	966.64
543.81	1057.92
543.98	992.39
544.15	976.00
544.32	994.73
544.48	1022.81
544.65	950.26
544.82	992.39
544.99	1025.15
545.16	1029.84
545.32	1104.73
545.49	1699.23
545.66	2340.54
545.83	2839.07
546.00	2539.48
546.16	1818.60
546.33	1320.06
546.50	1086.01
546.67	1029.84
546.83	830.89
547.00	788.76
547.17	688.12
547.34	770.04
547.50	713.86
547.67	669.39
547.84	695.14
548.00	723.23
548.17	660.03
548.34	592.16
548.51	702.16
548.67	709.18
548.84	620.24
549.01	585.13
549.18	592.16
549.34	610.88
549.51	592.16
549.68	486.83
549.84	568.75
550.01	425.98
550.18	624.92
550.34	568.75
550.51	416.62
550.68	498.53
550.84	484.49
551.01	489.17
551.18	393.21
551.34	491.51
551.51	397.89
551.68	386.19
551.84	372.15
552.01	379.17
552.18	430.66
552.34	416.62
552.51	313.63
552.68	397.89
552.84	344.06
553.01	393.21
553.18	383.85
553.34	369.80
553.51	264.48
553.67	407.25
553.84	381.51
554.01	341.72
554.17	294.91
554.34	315.97
554.51	269.16
554.67	400.23
554.84	315.97
555.00	311.29
555.17	220.01
555.33	241.08
555.50	313.63
555.67	290.23
555.83	315.97
556.00	262.14
556.16	421.30
556.33	301.93
556.50	264.48
556.66	262.14
556.83	283.20
556.99	297.25
557.16	318.31
557.32	285.55
557.49	163.84
557.65	299.59
557.82	259.80
557.98	210.65
558.15	238.73
558.32	271.50
558.48	227.03
558.65	201.29
558.81	311.29
558.98	227.03
559.14	278.52
559.31	273.84
559.47	236.39
559.64	231.71
559.80	255.12
559.97	248.10
560.13	325.33
560.30	264.48
560.46	184.90
560.63	255.12
560.79	227.03
560.96	177.88
561.12	264.48
561.29	234.05
561.45	259.80
561.61	299.59
561.78	393.21
561.94	222.35
562.11	231.71
562.27	243.42
562.44	327.68
562.60	215.33
562.77	234.05
562.93	311.29
563.10	278.52
563.26	236.39
563.42	301.93
563.59	250.44
563.75	250.44
563.92	227.03
564.08	327.68
564.24	262.14
564.41	241.08
564.57	339.38
564.74	236.39
564.90	264.48
565.07	269.16
565.23	266.82
565.39	177.88
565.56	248.10
565.72	177.88
565.88	283.20
566.05	262.14
566.21	189.58
566.38	285.55
566.54	227.03
566.70	280.86
566.87	203.63
567.03	248.10
567.19	215.33
567.36	196.60
567.52	250.44
567.68	189.58
567.85	182.56
568.01	250.44
568.17	184.90
568.34	175.54
568.50	283.20
568.66	194.26
568.83	337.04
568.99	262.14
569.15	339.38
569.32	138.09
569.48	294.91
569.64	273.84
569.81	269.16
569.97	245.76
570.13	280.86
570.30	257.46
570.46	236.39
570.62	269.16
570.78	252.78
570.95	257.46
571.11	271.50
571.27	248.10
571.43	222.35
571.60	224.69
571.76	201.29
571.92	220.01
572.09	257.46
572.25	266.82
572.41	264.48
572.57	212.99
572.74	234.05
572.90	236.39
573.06	229.37
573.22	285.55
573.38	269.16
573.55	229.37
573.71	264.48
573.87	264.48
574.03	189.58
574.20	285.55
574.36	248.10
574.52	294.91
574.68	280.86
574.84	264.48
575.01	241.08
575.17	264.48
575.33	266.82
575.49	292.57
575.65	248.10
575.82	224.69
575.98	351.08
576.14	351.08
576.30	304.27
576.46	538.32
576.62	561.73
576.79	788.76
576.95	601.52
577.11	486.83
577.27	397.89
577.43	386.19
577.59	334.70
577.75	262.14
577.92	173.20
578.08	276.18
578.24	257.46
578.40	318.31
578.56	514.92
578.72	603.86
578.88	655.35
579.04	514.92
579.21	512.58
579.37	461.09
579.53	339.38
579.69	344.06
579.85	360.44
580.01	428.32
580.17	369.80
580.33	397.89
580.49	362.78
580.65	383.85
580.82	372.15
580.98	271.50
581.14	255.12
581.30	390.87
581.46	416.62
581.62	444.70
581.78	379.17
581.94	376.83
582.10	327.68
582.26	393.21
582.42	358.10
582.58	461.09
582.74	390.87
582.90	395.55
583.06	517.26
583.22	447.04
583.38	327.68
583.54	435.34
583.70	461.09
583.86	444.70
584.02	428.32
584.18	404.91
584.34	435.34
584.50	386.19
584.66	425.98
584.82	362.78
584.98	299.59
585.14	409.59
585.30	297.25
585.46	362.78
585.62	407.25
585.78	440.02
585.94	379.17
586.10	388.53
586.26	395.55
586.42	423.64
586.58	484.49
586.74	507.90
586.90	566.41
587.06	573.43
587.22	599.18
587.38	458.74
587.54	444.70
587.70	547.69
587.86	409.59
588.02	423.64
588.18	428.32
588.34	376.83
588.49	311.29
588.65	318.31
588.81	311.29
588.97	327.68
589.13	327.68
589.29	365.12
589.45	313.63
589.61	285.55
589.77	325.33
589.93	257.46
590.08	351.08
590.24	315.97
590.40	411.93
590.56	266.82
590.72	280.86
590.88	266.82
591.04	330.02
591.20	388.53
591.35	395.55
591.51	278.52
591.67	299.59
591.83	355.76
591.99	313.63
592.15	418.96
592.31	381.51
592.46	489.17
592.62	435.34
592.78	475.13
592.94	458.74
593.10	428.32
593.26	397.89
593.41	383.85
593.57	278.52
593.73	411.93
593.89	358.10
594.05	304.27
594.20	304.27
594.36	297.25
594.52	315.97
594.68	241.08
594.84	269.16
594.99	262.14
595.15	266.82
595.31	273.84
595.47	264.48
595.62	358.10
595.78	283.20
595.94	285.55
596.10	344.06
596.25	255.12
596.41	278.52
596.57	278.52
596.73	283.20
596.88	285.55
597.04	330.02
597.20	367.46
597.36	318.31
597.51	365.12
597.67	311.29
597.83	299.59
597.99	320.65
598.14	320.65
598.30	386.19
598.46	334.70
598.61	348.74
598.77	358.10
598.93	292.57
599.09	322.99
599.24	311.29
599.40	388.53
599.56	306.61
599.71	299.59
599.87	292.57
600.03	351.08
600.18	320.65
600.34	311.29
600.50	332.36
600.65	407.25
600.81	334.70
600.97	276.18
601.12	332.36
601.28	339.38
601.44	248.10
601.59	266.82
601.75	276.18
601.91	238.73
602.06	243.42
602.22	344.06
602.37	283.20
602.53	285.55
602.69	339.38
602.84	217.67
603.00	278.52
603.16	250.44
603.31	238.73
603.47	250.44
603.62	166.18
603.78	248.10
603.94	325.33
604.09	245.76
604.25	264.48
604.40	205.97
604.56	264.48
604.71	278.52
604.87	210.65
605.03	241.08
605.18	236.39
605.34	273.84
605.49	241.08
605.65	273.84
605.80	184.90
605.96	229.37
606.12	315.97
606.27	287.89
606.43	283.20
606.58	362.78
606.74	360.44
606.89	304.27
607.05	271.50
607.20	418.96
607.36	278.52
607.51	355.76
607.67	374.49
607.82	390.87
607.98	346.40
608.13	318.31
608.29	390.87
608.44	388.53
608.60	400.23
608.75	388.53
608.91	421.30
609.06	475.13
609.22	554.71
609.37	554.71
609.53	559.39
609.68	603.86
609.84	594.50
609.99	737.27
610.15	898.77
610.30	1104.73
610.46	1362.19
610.61	1703.91
610.76	1989.46
610.92	2436.50
611.07	2607.36
611.23	2761.83
611.38	2530.12
