SpectraSuite Data File
++++++++++++++++++++++++++++++++++++
Date: Fri Oct 04 11:42:17 GMT-05:00 2013
User: price-jones
Dark Spectrum Present: No
Reference Spectrum Present: No
Number of Sampled Component Spectra: 1
Spectrometers: USB2+H05261
Integration Time (usec): 100000 (USB2+H05261)
Spectra Averaged: 1 (USB2+H05261)
Boxcar Smoothing: 0 (USB2+H05261)
Correct for Electrical Dark: No (USB2+H05261)
Strobe/Lamp Enabled: No (USB2+H05261)
Correct for Detector Non-linearity: No (USB2+H05261)
Correct for Stray Light: No (USB2+H05261)
Number of Pixels in Processed Spectrum: 2048
>>>>>Begin Processed Spectral Data<<<<<
365.73	23.41
365.92	23.41
366.12	23.41
366.32	25.75
366.52	0.00
366.72	0.00
366.91	0.00
367.11	0.00
367.31	0.00
367.51	0.00
367.70	0.00
367.90	0.00
368.10	0.00
368.30	0.00
368.49	0.00
368.69	0.00
368.89	0.00
369.09	0.00
369.28	0.00
369.48	0.00
369.68	0.00
369.87	0.00
370.07	0.00
370.27	28.09
370.47	95.96
370.66	393.21
370.86	388.53
371.06	547.69
371.25	454.06
371.45	416.62
371.65	423.64
371.84	397.89
372.04	440.02
372.24	468.11
372.44	538.32
372.63	521.94
372.83	528.96
373.03	435.34
373.22	416.62
373.42	421.30
373.62	475.13
373.81	538.32
374.01	571.09
374.21	482.15
374.40	451.72
374.60	521.94
374.79	470.45
374.99	496.19
375.19	667.05
375.38	720.88
375.58	594.50
375.78	596.84
375.97	613.22
376.17	648.33
376.37	629.60
376.56	681.10
376.76	629.60
376.95	638.97
377.15	739.61
377.35	716.20
377.54	744.29
377.74	692.80
377.93	814.51
378.13	772.38
378.33	758.33
378.52	660.03
378.72	638.97
378.91	683.44
379.11	648.33
379.31	568.75
379.50	564.07
379.70	816.85
379.89	784.08
380.09	744.29
380.28	795.78
380.48	781.74
380.68	741.95
380.87	725.57
381.07	695.14
381.26	636.63
381.46	641.31
381.65	566.41
381.85	521.94
382.04	561.73
382.24	557.05
382.43	514.92
382.63	461.09
382.83	458.74
383.02	592.16
383.22	510.24
383.41	458.74
383.61	566.41
383.80	653.01
384.00	648.33
384.19	725.57
384.39	737.27
384.58	690.46
384.78	734.93
384.97	786.42
385.17	575.77
385.36	608.54
385.56	582.79
385.75	634.29
385.95	669.39
386.14	767.70
386.34	746.63
386.53	702.16
386.72	767.70
386.92	669.39
387.11	711.52
387.31	723.23
387.50	674.07
387.70	685.78
387.89	662.37
388.09	657.69
388.28	685.78
388.48	751.31
388.67	699.82
388.86	716.20
389.06	844.93
389.25	926.85
389.45	954.94
389.64	884.72
389.84	929.19
390.03	851.96
390.22	887.06
390.42	915.15
390.61	990.05
390.81	947.92
391.00	1034.52
391.19	1039.20
391.39	1074.31
391.58	910.47
391.78	926.85
391.97	938.55
392.16	798.12
392.36	805.14
392.55	662.37
392.75	550.03
392.94	402.57
393.13	531.30
393.33	524.28
393.52	613.22
393.71	748.97
393.91	763.01
394.10	959.62
394.29	973.66
394.49	980.68
394.68	1064.94
394.88	1046.22
395.07	1135.16
395.26	1123.46
395.46	1013.45
395.65	983.02
395.84	901.11
396.04	842.59
396.23	692.80
396.42	667.05
396.62	641.31
396.81	732.59
397.00	727.91
397.19	889.40
397.39	1011.11
397.58	1170.27
397.77	1256.87
397.97	1238.14
398.16	1315.38
398.35	1306.02
398.55	1430.07
398.74	1448.79
398.93	1411.34
399.12	1493.26
399.32	1277.93
399.51	1472.20
399.70	1547.09
399.90	1528.37
400.09	1411.34
400.28	1502.62
400.47	1350.49
400.67	1469.86
400.86	1593.90
401.05	1469.86
401.24	1629.01
401.44	1668.80
401.63	1713.27
401.82	1739.02
402.01	1636.03
402.21	1556.46
402.40	1535.39
402.59	1568.16
402.78	1409.00
402.97	1523.69
403.17	1603.27
403.36	1624.33
403.55	1614.97
403.74	1746.04
403.93	1727.32
404.13	1596.25
404.32	1596.25
404.51	1600.93
404.70	1722.63
404.89	1673.48
405.09	1659.44
405.28	1533.05
405.47	1544.75
405.66	1561.14
405.85	1563.48
406.05	1533.05
406.24	1469.86
406.43	1544.75
406.62	1600.93
406.81	1671.14
407.00	1519.01
407.20	1617.31
407.39	1645.40
407.58	1741.36
407.77	1678.16
407.96	1813.92
408.15	1732.00
408.34	1776.47
408.54	1832.64
408.73	1694.55
408.92	1774.13
409.11	1755.40
409.30	1806.89
409.49	1600.93
409.68	1607.95
409.87	1437.09
410.07	1549.43
410.26	1610.29
410.45	1706.25
410.64	1844.34
410.83	1839.66
411.02	1774.13
411.21	1926.26
411.40	1879.45
411.59	1956.69
411.78	1818.60
411.98	1820.94
412.17	1830.30
412.36	1802.21
412.55	1888.81
412.74	1823.28
412.93	1849.02
413.12	1724.97
413.31	1982.43
413.50	2024.56
413.69	1973.07
413.88	1989.46
414.07	1802.21
414.26	1944.99
414.45	1989.46
414.64	1980.09
414.83	1982.43
415.02	1994.14
415.22	1984.77
415.41	2001.16
415.60	2038.61
415.79	2050.31
415.98	2167.34
416.17	2160.31
416.36	2022.22
416.55	2033.93
416.74	2115.84
416.93	2022.22
417.12	1975.41
417.31	1996.48
417.50	1987.11
417.69	2195.42
417.88	1963.71
418.07	2033.93
418.26	2029.24
418.45	1942.64
418.64	2094.78
418.83	2169.68
419.02	2083.08
419.21	2190.74
419.39	2097.12
419.58	2092.44
419.77	1849.02
419.96	2015.20
420.15	2150.95
420.34	2181.38
420.53	2377.98
420.72	2394.37
420.91	2221.17
421.10	2286.70
421.29	2289.04
421.48	2134.57
421.67	2244.57
421.86	2211.81
422.05	2127.55
422.24	1909.88
422.43	1935.62
422.61	1994.14
422.80	2251.60
422.99	2146.27
423.18	2083.08
423.37	2090.10
423.56	2080.74
423.75	2108.82
423.94	2036.27
424.13	2047.97
424.32	2129.89
424.50	2057.33
424.69	2113.50
424.88	2054.99
425.07	2026.90
425.26	2092.44
425.45	1982.43
425.64	1961.37
425.83	1959.03
426.01	2120.53
426.20	2038.61
426.39	2076.06
426.58	1832.64
426.77	1884.13
426.96	1790.51
427.15	1888.81
427.33	1968.39
427.52	2033.93
427.71	2188.40
427.90	2062.01
428.09	2085.42
428.28	1966.05
428.46	1858.39
428.65	1933.28
428.84	1877.11
429.03	1970.73
429.22	1942.64
429.40	1872.43
429.59	1708.59
429.78	1537.73
429.97	1507.30
430.16	1411.34
430.34	1472.20
430.53	1474.54
430.72	1586.88
430.91	1715.61
431.10	1813.92
431.28	2225.85
431.47	2420.11
431.66	2375.64
431.85	2235.21
432.03	2120.53
432.22	2038.61
432.41	2024.56
432.60	2338.20
432.79	2368.62
432.97	2382.67
433.16	2406.07
433.35	2197.76
433.54	2005.84
433.72	1893.49
433.91	1984.77
434.10	2043.29
434.28	2335.85
434.47	2352.24
434.66	2265.64
434.85	2221.17
435.03	2415.43
435.22	2586.29
435.41	3026.31
435.59	3016.95
435.78	2981.84
435.97	2752.47
436.16	2612.04
436.34	2499.69
436.53	2499.69
436.72	2413.09
436.90	2441.18
437.09	2345.22
437.28	2237.55
437.46	2338.20
437.65	2310.11
437.84	2310.11
438.02	1970.73
438.21	2062.01
438.40	2139.25
438.58	2363.94
438.77	2382.67
438.96	2436.50
439.14	2534.80
439.33	2586.29
439.52	2546.50
439.70	2483.31
439.89	2466.92
440.08	2427.14
440.26	2392.03
440.45	2420.11
440.63	2487.99
440.82	2654.17
441.01	2600.34
441.19	2717.36
441.38	2698.64
441.57	2832.05
441.75	2782.90
441.94	2836.73
442.12	2806.30
442.31	2801.62
442.50	2792.26
442.68	2818.00
442.87	2766.51
443.05	2778.22
443.24	2789.92
443.43	2862.48
443.61	2913.97
443.80	2867.16
443.98	2712.68
444.17	2752.47
444.35	2827.37
444.54	2869.50
444.73	2892.90
444.91	2759.49
445.10	2682.25
445.28	2705.66
445.47	2590.97
445.65	2581.61
445.84	2654.17
446.02	2754.81
446.21	2794.60
446.39	2724.38
446.58	2904.60
446.77	2789.92
446.95	2775.88
447.14	3059.08
447.32	3045.04
447.51	2803.96
447.69	2850.77
447.88	2726.72
448.06	2820.35
448.25	2888.22
448.43	2794.60
448.62	2832.05
448.80	2888.22
448.99	2857.79
449.17	2902.26
449.36	2930.35
449.54	2869.50
449.73	2981.84
449.91	3023.97
450.10	3115.25
450.28	3337.60
450.46	3171.43
450.65	3243.98
450.83	3082.49
451.02	3112.91
451.20	3110.57
451.39	3000.57
451.57	2984.18
451.76	3021.63
451.94	3075.46
452.13	3094.19
452.31	2810.98
452.49	2764.17
452.68	2745.45
452.86	2803.96
453.05	2796.94
453.23	2803.96
453.42	2902.26
453.60	3098.87
453.78	3063.76
453.97	2869.50
454.15	3009.93
454.34	2993.55
454.52	2871.84
454.70	2850.77
454.89	3005.25
455.07	2878.86
455.26	3023.97
455.44	3075.46
455.62	3105.89
455.81	3103.55
455.99	3098.87
456.17	2993.55
456.36	3077.80
456.54	3047.38
456.73	3178.45
456.91	3180.79
457.09	3218.24
457.28	3215.90
457.46	3164.40
457.64	3241.64
457.83	2988.86
458.01	2977.16
458.19	3171.43
458.38	3091.85
458.56	3218.24
458.74	3070.78
458.93	3122.27
459.11	3201.85
459.29	3082.49
459.48	3098.87
459.66	3112.91
459.84	3038.02
460.03	3225.26
460.21	3281.43
460.39	3220.58
460.57	3255.69
460.76	3201.85
460.94	3321.22
461.12	3077.80
461.31	3180.79
461.49	3162.06
461.67	3197.17
461.85	3236.96
462.04	3253.34
462.22	3496.76
462.40	3272.07
462.59	3253.34
462.77	3384.41
462.95	3251.00
463.13	3229.94
463.32	3220.58
463.50	3215.90
463.68	3393.78
463.86	3222.92
464.05	3129.30
464.23	3283.77
464.41	3215.90
464.59	3042.70
464.78	3279.09
464.96	3183.13
465.14	3323.56
465.32	3148.02
465.50	3218.24
465.69	3363.35
465.87	3300.16
466.05	3234.62
466.23	2979.50
466.41	2928.01
466.60	3040.36
466.78	3077.80
466.96	3084.83
467.14	3091.85
467.32	3225.26
467.51	3353.99
467.69	3122.27
467.87	3253.34
468.05	3185.47
468.23	3080.14
468.41	3311.86
468.60	3183.13
468.78	3316.54
468.96	3150.36
469.14	3283.77
469.32	3150.36
469.50	3155.04
469.69	3213.56
469.87	3098.87
470.05	3026.31
470.23	3061.42
470.41	3052.06
470.59	3229.94
470.77	3124.62
470.95	3335.26
471.14	3272.07
471.32	3309.52
471.50	3424.20
471.68	3424.20
471.86	3447.61
472.04	3440.59
472.22	3478.04
472.40	3274.41
472.58	3335.26
472.77	3276.75
472.95	3342.28
473.13	3391.44
473.31	3276.75
473.49	3344.63
473.67	3321.22
473.85	3454.63
474.03	3473.36
474.21	3566.98
474.39	3480.38
474.57	3534.21
474.75	3524.85
474.93	3410.16
475.12	3424.20
475.30	3414.84
475.48	3365.69
475.66	3475.70
475.84	3494.42
476.02	3323.56
476.20	3473.36
476.38	3318.88
476.56	3604.42
476.74	3564.64
476.92	3527.19
477.10	3599.74
477.28	3721.45
477.46	3669.96
477.64	3824.44
477.82	3758.90
478.00	3801.03
478.18	3775.28
478.36	3660.60
478.54	3770.60
478.72	3674.64
478.90	3730.81
479.08	3922.74
479.26	4140.41
479.44	4051.47
479.62	3960.19
479.80	4025.72
479.98	4004.66
480.16	3929.76
480.34	4042.11
480.52	3899.33
480.70	4079.55
480.88	4138.07
481.06	4170.83
481.24	4163.81
481.41	4313.61
481.59	4351.06
481.77	4369.78
481.95	4189.56
482.13	4271.48
482.31	4166.15
482.49	4339.35
482.67	4477.44
482.85	4255.09
483.03	4358.08
483.21	4421.27
483.39	4421.27
483.57	4252.75
483.74	4241.05
483.92	4315.95
484.10	4320.63
484.28	4468.08
484.46	4386.16
484.64	4484.47
484.82	4428.29
485.00	4407.23
485.18	4402.55
485.35	4311.27
485.53	4016.36
485.71	3552.93
485.89	3548.25
486.07	3730.81
486.25	4072.53
486.43	4210.62
486.61	4315.95
486.78	4297.22
486.96	4231.69
487.14	4514.89
487.32	4437.66
487.50	4723.20
487.68	4762.99
487.85	4994.70
488.03	4901.08
488.21	4854.27
488.39	4667.03
488.57	4758.31
488.75	4723.20
488.92	5067.26
489.10	4922.15
489.28	5397.28
489.46	5357.49
489.64	5397.28
489.81	5458.13
489.99	5310.68
490.17	5413.66
490.35	5497.92
490.53	5327.06
490.70	5308.34
490.88	5245.14
491.06	5387.91
491.24	5268.55
491.41	5144.50
491.59	4957.25
491.77	4851.93
491.95	4926.83
492.13	5188.97
492.30	5448.77
492.48	5420.68
492.66	5572.82
492.84	5542.39
493.01	5554.09
493.19	5448.77
493.37	5437.06
493.54	5214.71
493.72	5535.37
493.90	5809.21
494.08	5811.55
494.25	5795.17
494.43	5865.38
494.61	5858.36
494.79	5940.28
494.96	5832.62
495.14	5797.51
495.32	5664.10
495.49	5577.50
495.67	5818.57
495.85	5856.02
496.02	6040.92
496.20	6188.38
496.38	5846.66
496.55	5806.87
496.73	6223.48
496.91	6024.54
497.09	6167.31
497.26	6277.32
497.44	6153.27
497.62	6099.44
497.79	5949.64
497.97	5593.88
498.14	5542.39
498.32	5713.25
498.50	5834.96
498.67	6090.07
498.85	6090.07
499.03	6066.67
499.20	6024.54
499.38	6193.06
499.56	6141.57
499.73	6038.58
499.91	5982.41
500.08	5741.33
500.26	5750.70
500.44	5867.72
500.61	5867.72
500.79	6003.47
500.97	5767.08
501.14	5703.89
501.32	5544.73
501.49	5729.63
501.67	5734.31
501.84	5781.12
502.02	5804.53
502.20	5975.39
502.37	6047.94
502.55	6005.81
502.72	5935.60
502.90	6104.12
503.07	5930.92
503.25	5774.10
503.43	5593.88
503.60	5493.24
503.78	5406.64
503.95	5497.92
504.13	5881.77
504.30	5994.11
504.48	6160.29
504.65	6022.20
504.83	5984.75
505.01	6031.56
505.18	6104.12
505.36	6326.47
505.53	6244.55
505.71	6399.02
505.88	6487.96
506.06	6272.64
506.23	6317.11
506.41	6043.26
506.58	6080.71
506.76	6155.61
506.93	6200.08
507.11	5961.34
507.28	5966.03
507.46	6104.12
507.63	5820.91
507.81	5846.66
507.98	5816.23
508.16	6197.74
508.33	6108.80
508.50	6277.32
508.68	6457.54
508.85	6527.75
509.03	6455.20
509.20	6562.86
509.38	6389.66
509.55	6300.72
509.73	6214.12
509.90	6265.61
510.08	6359.24
510.25	6312.42
510.42	6312.42
510.60	6272.64
510.77	6361.58
510.95	6417.75
511.12	6450.52
511.30	6817.98
511.47	6649.46
511.64	6665.85
511.82	6595.63
511.99	6490.31
512.17	6202.42
512.34	6422.43
512.51	6239.87
512.69	6225.82
512.86	6375.62
513.04	6104.12
513.21	6345.19
513.38	6286.68
513.56	6321.79
513.73	6136.88
513.90	6195.40
514.08	6181.35
514.25	6328.81
514.43	6225.82
514.60	6260.93
514.77	6298.38
514.95	6356.90
515.12	6263.27
515.29	6399.02
515.47	6705.63
515.64	6380.30
515.81	6413.07
515.99	6347.53
516.16	6188.38
516.33	5853.68
516.51	5179.61
516.68	5242.80
516.85	5128.11
517.03	5252.16
517.20	5755.38
517.37	6125.18
517.54	6249.23
517.72	6377.96
517.89	5900.49
518.06	5308.34
518.24	5305.99
518.41	5827.93
518.58	6017.52
518.75	6057.31
518.93	6190.72
519.10	6179.01
519.27	6214.12
519.45	6249.23
519.62	6434.13
519.79	6586.27
519.96	6483.28
520.14	6494.99
520.31	6331.15
520.48	6331.15
520.65	6171.99
520.83	6445.84
521.00	6579.25
521.17	6523.07
521.34	6422.43
521.52	6642.44
521.69	6621.38
521.86	6609.67
522.03	6675.21
522.20	6457.54
522.38	6052.63
522.55	6200.08
522.72	6160.29
522.89	6326.47
523.07	6314.77
523.24	6321.79
523.41	6581.59
523.58	6609.67
523.75	6869.47
523.92	6729.04
524.10	6722.02
524.27	6757.13
524.44	6731.38
524.61	6693.93
524.78	6466.90
524.96	6459.88
525.13	6628.40
525.30	6759.47
525.47	6597.97
525.64	6722.02
525.81	6455.20
525.98	6363.92
526.16	5928.58
526.33	5760.06
526.50	5731.97
526.67	5504.94
526.84	5654.73
527.01	5806.87
527.18	6080.71
527.36	6406.05
527.53	6401.37
527.70	6509.03
527.87	6420.09
528.04	6314.77
528.21	6504.35
528.38	6729.04
528.55	6764.15
528.72	6927.99
528.89	6963.09
529.07	6860.11
529.24	6726.70
529.41	6616.69
529.58	6326.47
529.75	6406.05
529.92	6462.22
530.09	6434.13
530.26	6448.18
530.43	6707.98
530.60	6855.43
530.77	6686.91
530.94	6736.06
531.11	6878.83
531.28	6717.34
531.46	6476.26
531.63	6637.76
531.80	6658.82
531.97	6663.51
532.14	6466.90
532.31	6244.55
532.48	6146.25
532.65	6047.94
532.82	6141.57
532.99	6469.24
533.16	6494.99
533.33	6658.82
533.50	6705.63
533.67	6647.12
533.84	6349.87
534.01	6527.75
534.18	6417.75
534.35	6633.08
534.52	6349.87
534.69	6499.67
534.86	6705.63
535.03	6621.38
535.20	6836.70
535.37	7023.95
535.54	7087.14
535.71	6768.83
535.88	6693.93
536.05	6642.44
536.22	6647.12
536.38	6565.20
536.55	6370.94
536.72	6317.11
536.89	6237.53
537.06	6211.78
537.23	6633.08
537.40	6504.35
537.57	6698.61
537.74	6689.25
537.91	6698.61
538.08	6537.12
538.25	6654.14
538.42	6841.39
538.59	6637.76
538.75	6345.19
538.92	6464.56
539.09	6333.49
539.26	6314.77
539.43	6427.11
539.60	6448.18
539.77	6544.14
539.94	6408.39
540.11	6434.13
540.28	6333.49
540.44	6225.82
540.61	6441.15
540.78	6424.77
540.95	6502.01
541.12	6740.74
541.29	6778.19
541.46	6862.45
541.62	6778.19
541.79	6972.46
541.96	6773.51
542.13	6684.57
542.30	6609.67
542.47	6803.94
542.63	6743.08
542.80	6668.19
542.97	6722.02
543.14	6548.82
543.31	6670.53
543.48	6787.55
543.64	7096.50
543.81	7033.31
543.98	6986.50
544.15	6963.09
544.32	6853.09
544.48	6703.29
544.65	6782.87
544.82	6780.53
544.99	6902.24
545.16	6738.40
545.32	6778.19
545.49	7300.13
545.66	7985.91
545.83	8140.38
546.00	7777.60
546.16	7033.31
546.33	6986.50
546.50	6810.96
546.67	6808.62
546.83	6707.98
547.00	6698.61
547.17	6497.33
547.34	6424.77
547.50	6424.77
547.67	6572.22
547.84	6619.04
548.00	6572.22
548.17	6616.69
548.34	6588.61
548.51	6729.04
548.67	6340.51
548.84	6623.72
549.01	6494.99
549.18	6516.05
549.34	6480.94
549.51	6574.56
549.68	6403.71
549.84	6375.62
550.01	6408.39
550.18	6314.77
550.34	6532.44
550.51	6429.45
550.68	6352.21
550.84	6162.63
551.01	6153.27
551.18	6279.66
551.34	6324.13
551.51	6473.92
551.68	6396.68
551.84	6647.12
552.01	6562.86
552.18	6349.87
552.34	6143.91
552.51	6069.01
552.68	6083.05
552.84	6230.51
553.01	6010.50
553.18	6370.94
553.34	6216.46
553.51	6237.53
553.67	6387.32
553.84	6574.56
554.01	6293.70
554.17	6382.64
554.34	6258.59
554.51	6282.00
554.67	6384.98
554.84	6483.28
555.00	6445.84
555.17	6307.74
555.33	6347.53
555.50	6083.05
555.67	6399.02
555.83	6022.20
556.00	6094.76
556.16	6207.10
556.33	5935.60
556.50	5884.11
556.66	5970.71
556.83	5914.53
556.99	5982.41
557.16	5921.56
557.32	6171.99
557.49	5977.73
557.65	6029.22
557.82	6179.01
557.98	6150.93
558.15	5937.94
558.32	5975.39
558.48	5624.31
558.65	5830.27
558.81	5703.89
558.98	5776.44
559.14	5823.25
559.31	5722.61
559.47	6012.84
559.64	5893.47
559.80	5666.44
559.97	5657.07
560.13	5870.06
560.30	5940.28
560.46	5935.60
560.63	6045.60
560.79	6190.72
560.96	6001.13
561.12	5935.60
561.29	5736.65
561.45	5790.49
561.61	5837.30
561.78	5947.30
561.94	5863.04
562.11	5781.12
562.27	5762.40
562.44	6008.16
562.60	5872.40
562.77	5933.26
562.93	6267.95
563.10	5980.07
563.26	5839.64
563.42	5919.21
563.59	5788.14
563.75	5734.31
563.92	5790.49
564.08	5809.21
564.24	6033.90
564.41	5907.51
564.57	5701.54
564.74	5750.70
564.90	5750.70
565.07	5818.57
565.23	5547.07
565.39	5724.95
565.56	5556.43
565.72	5408.98
565.88	5465.15
566.05	5439.40
566.21	5598.56
566.38	5619.63
566.54	5790.49
566.70	5743.67
566.87	5727.29
567.03	5722.61
567.19	5849.00
567.36	5715.59
567.52	5750.70
567.68	5678.14
567.85	5516.64
568.01	5308.34
568.17	5408.98
568.34	5296.63
568.50	5165.56
568.66	5203.01
568.83	5289.61
568.99	5387.91
569.15	5411.32
569.32	5394.93
569.48	5219.39
569.64	5135.14
569.81	5203.01
569.97	5313.02
570.13	5331.74
570.30	5186.63
570.46	5221.74
570.62	5001.72
570.78	5100.03
570.95	4954.91
571.11	5151.52
571.27	5128.11
571.43	5317.70
571.60	5263.86
571.76	5277.91
571.92	5336.42
572.09	5547.07
572.25	5334.08
572.41	5397.28
572.57	5350.46
572.74	5423.02
572.90	5238.12
573.06	5231.10
573.22	5399.62
573.38	5261.52
573.55	5273.23
573.71	5322.38
573.87	5341.10
574.03	5217.05
574.20	5137.48
574.36	5029.81
574.52	5125.77
574.68	5212.37
574.84	5130.45
575.01	5064.92
575.17	5242.80
575.33	4994.70
575.49	4973.64
575.65	5151.52
575.82	5130.45
575.98	5036.83
576.14	5116.41
576.30	5317.70
576.46	5392.59
576.62	5502.60
576.79	5577.50
576.95	5366.85
577.11	5184.29
577.27	5247.48
577.43	5132.79
577.59	5125.77
577.75	5071.94
577.92	4975.98
578.08	4943.21
578.24	4938.53
578.40	4943.21
578.56	5050.88
578.72	5329.40
578.88	5348.12
579.04	5156.20
579.21	5259.18
579.37	5315.36
579.53	5282.59
579.69	5128.11
579.85	5291.95
580.01	5336.42
580.17	5261.52
580.33	5170.24
580.49	5219.39
580.65	5151.52
580.82	5270.89
580.98	5296.63
581.14	5289.61
581.30	5247.48
581.46	5135.14
581.62	5268.55
581.78	5432.38
581.94	5334.08
582.10	5352.81
582.26	5275.57
582.42	5430.04
582.58	5364.51
582.74	5301.31
582.90	5397.28
583.06	5261.52
583.22	5188.97
583.38	5205.35
583.54	5205.35
583.70	5195.99
583.86	5261.52
584.02	5177.26
584.18	5125.77
584.34	5069.60
584.50	5327.06
584.66	5191.31
584.82	5226.42
584.98	5062.58
585.14	5039.17
585.30	4961.94
585.46	5015.77
585.62	4945.55
585.78	4868.31
585.94	4983.00
586.10	5055.56
586.26	5022.79
586.42	5097.69
586.58	5018.11
586.74	5163.22
586.90	5151.52
587.06	5093.01
587.22	5011.09
587.38	4994.70
587.54	4873.00
587.70	4779.37
587.86	4662.35
588.02	4339.35
588.18	4285.52
588.34	4180.20
588.49	3772.94
588.65	3707.41
588.81	3574.00
588.97	3669.96
589.13	3627.83
589.29	3574.00
589.45	3588.04
589.61	3794.01
589.77	3866.56
589.93	3822.09
590.08	4051.47
590.24	4152.11
590.40	4217.65
590.56	4224.67
590.72	4306.59
590.88	4227.01
591.04	4177.86
591.20	4215.30
591.35	3976.57
591.51	4107.64
591.67	4077.21
591.83	4063.17
591.99	4032.74
592.15	4252.75
592.31	4215.30
592.46	4449.36
592.62	4390.84
592.78	4346.37
592.94	4442.34
593.10	4358.08
593.26	4470.42
593.41	4465.74
593.57	4475.10
593.73	4170.83
593.89	4114.66
594.05	3922.74
594.20	3817.41
594.36	3868.91
594.52	3946.14
594.68	3920.40
594.84	4037.42
594.99	4245.73
595.15	4222.33
595.31	4292.54
595.47	4351.06
595.62	4222.33
595.78	4430.63
595.94	4294.88
596.10	4440.00
596.25	4376.80
596.41	4266.80
596.57	4180.20
596.73	4222.33
596.88	4215.30
597.04	4365.10
597.20	4236.37
597.36	4081.89
597.51	4177.86
597.67	4262.12
597.83	4383.82
