SpectraSuite Data File
++++++++++++++++++++++++++++++++++++
Date: Fri Oct 04 11:44:19 GMT-05:00 2013
User: price-jones
Dark Spectrum Present: No
Reference Spectrum Present: No
Number of Sampled Component Spectra: 1
Spectrometers: USB2+H05261
Integration Time (usec): 100000 (USB2+H05261)
Spectra Averaged: 1 (USB2+H05261)
Boxcar Smoothing: 0 (USB2+H05261)
Correct for Electrical Dark: No (USB2+H05261)
Strobe/Lamp Enabled: No (USB2+H05261)
Correct for Detector Non-linearity: No (USB2+H05261)
Correct for Stray Light: No (USB2+H05261)
Number of Pixels in Processed Spectrum: 2048
>>>>>Begin Processed Spectral Data<<<<<
365.73	65.54
365.92	65.54
366.12	65.54
366.32	0.00
366.52	0.00
366.72	0.00
366.91	0.00
367.11	0.00
367.31	0.00
367.51	0.00
367.70	0.00
367.90	0.00
368.10	0.00
368.30	0.00
368.49	0.00
368.69	0.00
368.89	0.00
369.09	0.00
369.28	0.00
369.48	0.00
369.68	0.00
369.87	0.00
370.07	0.00
370.27	0.00
370.47	114.69
370.66	198.95
370.86	306.61
371.06	365.12
371.25	337.04
371.45	327.68
371.65	290.23
371.84	266.82
372.04	383.85
372.24	374.49
372.44	334.70
372.63	395.55
372.83	351.08
373.03	308.95
373.22	351.08
373.42	372.15
373.62	351.08
373.81	327.68
374.01	374.49
374.21	337.04
374.40	355.76
374.60	442.36
374.79	339.38
374.99	435.34
375.19	461.09
375.38	442.36
375.58	423.64
375.78	421.30
375.97	475.13
376.17	557.05
376.37	468.11
376.56	414.27
376.76	414.27
376.95	526.62
377.15	514.92
377.35	531.30
377.54	535.98
377.74	500.87
377.93	538.32
378.13	613.22
378.33	524.28
378.52	510.24
378.72	535.98
378.91	388.53
379.11	470.45
379.31	386.19
379.50	372.15
379.70	447.04
379.89	550.03
380.09	430.66
380.28	500.87
380.48	538.32
380.68	498.53
380.87	482.15
381.07	500.87
381.26	479.81
381.46	376.83
381.65	454.06
381.85	414.27
382.04	390.87
382.24	376.83
382.43	416.62
382.63	327.68
382.83	386.19
383.02	383.85
383.22	379.17
383.41	337.04
383.61	341.72
383.80	416.62
384.00	486.83
384.19	517.26
384.39	507.90
384.58	540.66
384.78	470.45
384.97	573.43
385.17	514.92
385.36	510.24
385.56	486.83
385.75	447.04
385.95	531.30
386.14	573.43
386.34	512.58
386.53	507.90
386.72	456.40
386.92	547.69
387.11	489.17
387.31	601.52
387.50	585.13
387.70	472.79
387.89	550.03
388.09	510.24
388.28	484.49
388.48	500.87
388.67	526.62
388.86	582.79
389.06	622.58
389.25	648.33
389.45	650.67
389.64	615.56
389.84	669.39
390.03	676.41
390.22	535.98
390.42	631.94
390.61	634.29
390.81	676.41
391.00	779.40
391.19	739.61
391.39	713.86
391.58	638.97
391.78	648.33
391.97	669.39
392.16	482.15
392.36	634.29
392.55	484.49
392.75	362.78
392.94	339.38
393.13	358.10
393.33	301.93
393.52	498.53
393.71	552.37
393.91	566.41
394.10	648.33
394.29	608.54
394.49	681.10
394.68	786.42
394.88	744.29
395.07	755.99
395.26	734.93
395.46	692.80
395.65	800.46
395.84	615.56
396.04	741.95
396.23	533.64
396.42	365.12
396.62	470.45
396.81	517.26
397.00	613.22
397.19	657.69
397.39	725.57
397.58	819.19
397.77	887.06
397.97	858.98
398.16	929.19
398.35	1121.12
398.55	971.32
398.74	926.85
398.93	1055.58
399.12	1041.54
399.32	924.51
399.51	987.71
399.70	1071.97
399.90	1020.47
400.09	1025.15
400.28	1055.58
400.47	1055.58
400.67	1118.78
400.86	1104.73
401.05	1104.73
401.24	1123.46
401.44	1165.59
401.63	1163.25
401.82	1179.63
402.01	1174.95
402.21	1193.67
402.40	1203.04
402.59	1114.10
402.78	1093.03
402.97	1027.50
403.17	1160.91
403.36	1167.93
403.55	1219.42
403.74	1245.16
403.93	1196.01
404.13	1160.91
404.32	1198.35
404.51	1167.93
404.70	1174.95
404.89	1149.20
405.09	1184.31
405.28	1139.84
405.47	1109.41
405.66	1109.41
405.85	1093.03
406.05	1060.26
406.24	1090.69
406.43	1128.14
406.62	1203.04
406.81	1217.08
407.00	1128.14
407.20	1057.92
407.39	1064.94
407.58	1118.78
407.77	1114.10
407.96	1224.10
408.15	1219.42
408.34	1097.71
408.54	1294.32
408.73	1315.38
408.92	1277.93
409.11	1308.36
409.30	1123.46
409.49	1057.92
409.68	1064.94
409.87	1067.28
410.07	1095.37
410.26	1191.33
410.45	1224.10
410.64	1322.40
410.83	1263.89
411.02	1369.21
411.21	1385.60
411.40	1364.53
411.59	1287.29
411.78	1324.74
411.98	1378.58
412.17	1359.85
412.36	1406.66
412.55	1376.24
412.74	1409.00
412.93	1324.74
413.12	1299.00
413.31	1406.66
413.50	1490.92
413.69	1451.13
413.88	1378.58
414.07	1287.29
414.26	1359.85
414.45	1369.21
414.64	1444.11
414.83	1406.66
415.02	1345.81
415.22	1378.58
415.41	1427.73
415.60	1397.30
415.79	1565.82
415.98	1603.27
416.17	1589.22
416.36	1481.56
416.55	1420.71
416.74	1472.20
416.93	1420.71
417.12	1397.30
417.31	1486.24
417.50	1441.77
417.69	1549.43
417.88	1495.60
418.07	1455.81
418.26	1453.47
418.45	1411.34
418.64	1483.90
418.83	1516.67
419.02	1483.90
419.21	1481.56
419.39	1387.94
419.58	1406.66
419.77	1345.81
419.96	1455.81
420.15	1465.18
420.34	1591.56
420.53	1638.38
420.72	1678.16
420.91	1558.80
421.10	1650.08
421.29	1598.59
421.48	1561.14
421.67	1750.72
421.86	1652.42
422.05	1469.86
422.24	1362.19
422.43	1345.81
422.61	1446.45
422.80	1469.86
422.99	1596.25
423.18	1540.07
423.37	1502.62
423.56	1495.60
423.75	1542.41
423.94	1568.16
424.13	1455.81
424.32	1418.36
424.50	1558.80
424.69	1568.16
424.88	1535.39
425.07	1511.99
425.26	1453.47
425.45	1418.36
425.64	1364.53
425.83	1509.65
426.01	1472.20
426.20	1558.80
426.39	1411.34
426.58	1430.07
426.77	1355.17
426.96	1366.87
427.15	1247.51
427.33	1334.11
427.52	1392.62
427.71	1523.69
427.90	1514.33
428.09	1490.92
428.28	1458.15
428.46	1355.17
428.65	1397.30
428.84	1425.39
429.03	1563.48
429.22	1338.79
429.40	1320.06
429.59	1217.08
429.78	1125.80
429.97	1121.12
430.16	992.39
430.34	1118.78
430.53	1118.78
430.72	1034.52
430.91	1219.42
431.10	1266.23
431.28	1533.05
431.47	1682.85
431.66	1748.38
431.85	1509.65
432.03	1488.58
432.22	1430.07
432.41	1584.54
432.60	1657.10
432.79	1736.68
432.97	1668.80
433.16	1678.16
433.35	1549.43
433.54	1423.05
433.72	1376.24
433.91	1334.11
434.10	1465.18
434.28	1544.75
434.47	1720.29
434.66	1729.66
434.85	1638.38
435.03	1652.42
435.22	1867.75
435.41	2181.38
435.59	2197.76
435.78	2099.46
435.97	1968.39
436.16	1778.81
436.34	1816.26
436.53	1783.49
436.72	1825.62
436.90	1703.91
437.09	1729.66
437.28	1666.46
437.46	1755.40
437.65	1729.66
437.84	1596.25
438.02	1483.90
438.21	1523.69
438.40	1476.88
438.58	1720.29
438.77	1746.04
438.96	1680.50
439.14	1732.00
439.33	1755.40
439.52	1935.62
439.70	1802.21
439.89	1736.68
440.08	1682.85
440.26	1844.34
440.45	1760.08
440.63	1811.57
440.82	1902.86
441.01	1863.07
441.19	1823.28
441.38	1947.33
441.57	1935.62
441.75	2019.88
441.94	2008.18
442.12	1949.67
442.31	1968.39
442.50	1930.94
442.68	2036.27
442.87	1905.20
443.05	1940.30
443.24	2045.63
443.43	1998.82
443.61	2104.14
443.80	2097.12
443.98	1970.73
444.17	1902.86
444.35	2125.21
444.54	2073.71
444.73	2087.76
444.91	2026.90
445.10	1905.20
445.28	1907.54
445.47	1856.04
445.65	1961.37
445.84	1870.09
446.02	1879.45
446.21	1975.41
446.39	1851.36
446.58	1991.80
446.77	2059.67
446.95	2047.97
447.14	2050.31
447.32	2235.21
447.51	2113.50
447.69	2076.06
447.88	2057.33
448.06	2153.29
448.25	2094.78
448.43	2019.88
448.62	1963.71
448.80	1973.07
448.99	2122.87
449.17	2038.61
449.36	2148.61
449.54	2188.40
449.73	2118.18
449.91	2076.06
450.10	2296.07
450.28	2317.13
450.46	2270.32
450.65	2270.32
450.83	2256.28
451.02	2214.15
451.20	2214.15
451.39	2125.21
451.57	2275.00
451.76	2195.42
451.94	2122.87
452.13	2157.97
452.31	2080.74
452.49	1893.49
452.68	1947.33
452.86	1921.58
453.05	2003.50
453.23	2059.67
453.42	2040.95
453.60	2104.14
453.78	2143.93
453.97	2106.48
454.15	2167.34
454.34	2106.48
454.52	1973.07
454.70	2059.67
454.89	2059.67
455.07	2087.76
455.26	2167.34
455.44	2195.42
455.62	2127.55
455.81	2160.31
455.99	2200.10
456.17	2157.97
456.36	2106.48
456.54	2275.00
456.73	2195.42
456.91	2368.62
457.09	2253.94
457.28	2373.30
457.46	2239.89
457.64	2277.34
457.83	2253.94
458.01	2319.47
458.19	2146.27
458.38	2172.02
458.56	2291.38
458.74	2265.64
458.93	2321.81
459.11	2277.34
459.29	2172.02
459.48	2270.32
459.66	2228.19
459.84	2296.07
460.03	2296.07
460.21	2279.68
460.39	2251.60
460.57	2279.68
460.76	2314.79
460.94	2253.94
461.12	2321.81
461.31	2251.60
461.49	2338.20
461.67	2242.23
461.85	2310.11
462.04	2356.92
462.22	2906.95
462.40	2450.54
462.59	2375.64
462.77	2310.11
462.95	2375.64
463.13	2253.94
463.32	2197.76
463.50	2401.39
463.68	2277.34
463.86	2359.26
464.05	2223.51
464.23	2326.49
464.41	2307.77
464.59	2179.04
464.78	2312.45
464.96	2380.32
465.14	2251.60
465.32	2239.89
465.50	2345.22
465.69	2431.82
465.87	2223.51
466.05	2232.87
466.23	2094.78
466.41	2169.68
466.60	2092.44
466.78	2120.53
466.96	2193.08
467.14	2317.13
467.32	2298.41
467.51	2392.03
467.69	2092.44
467.87	2239.89
468.05	2230.53
468.23	2258.62
468.41	2169.68
468.60	2225.85
468.78	2356.92
468.96	2321.81
469.14	2356.92
469.32	2251.60
469.50	2111.16
469.69	2160.31
469.87	2193.08
470.05	2221.17
470.23	2239.89
470.41	2242.23
470.59	2218.83
470.77	2221.17
470.95	2321.81
471.14	2251.60
471.32	2239.89
471.50	2324.15
471.68	2413.09
471.86	2502.03
472.04	2422.45
472.22	2448.20
472.40	2359.26
472.58	2258.62
472.77	2310.11
472.95	2310.11
473.13	2462.24
473.31	2406.07
473.49	2349.90
473.67	2370.96
473.85	2410.75
474.03	2588.63
474.21	2413.09
474.39	2534.80
474.57	2511.39
474.75	2518.42
474.93	2422.45
475.12	2438.84
475.30	2370.96
475.48	2438.84
475.66	2480.97
475.84	2544.16
476.02	2305.43
476.20	2427.14
476.38	2413.09
476.56	2539.48
476.74	2420.11
476.92	2544.16
477.10	2534.80
477.28	2712.68
477.46	2668.21
477.64	2813.32
477.82	2619.06
478.00	2682.25
478.18	2677.57
478.36	2661.19
478.54	2621.40
478.72	2759.49
478.90	2736.09
479.08	2738.43
479.26	2801.62
479.44	2806.30
479.62	2750.13
479.80	2885.88
479.98	2757.15
480.16	2839.07
480.34	2822.69
480.52	2832.05
480.70	2984.18
480.88	2899.92
481.06	2977.16
481.24	2846.09
481.41	3028.65
481.59	3098.87
481.77	3033.33
481.95	2981.84
482.13	2890.56
482.31	2981.84
482.49	3026.31
482.67	2993.55
482.85	2974.82
483.03	3192.49
483.21	3052.06
483.39	3141.00
483.57	3129.30
483.74	3091.85
483.92	3028.65
484.10	3131.64
484.28	3103.55
484.46	3218.24
484.64	3283.77
484.82	3325.90
485.00	3019.29
485.18	3126.96
485.35	2984.18
485.53	2829.71
485.71	2621.40
485.89	2478.63
486.07	2607.36
486.25	2897.58
486.43	3112.91
486.61	3143.34
486.78	3178.45
486.96	2991.20
487.14	3155.04
487.32	3304.84
487.50	3414.84
487.68	3361.01
487.85	3492.08
488.03	3471.01
488.21	3473.36
488.39	3375.05
488.57	3356.33
488.75	3194.83
488.92	3637.19
489.10	3562.30
489.28	3822.09
489.46	3723.79
489.64	3719.11
489.81	3716.77
489.99	3733.15
490.17	3620.81
490.35	3751.88
490.53	3794.01
490.70	3726.13
490.88	3803.37
491.06	3826.78
491.24	3770.60
491.41	3709.75
491.59	3595.06
491.77	3351.65
491.95	3459.31
492.13	3634.85
492.30	3840.82
492.48	3868.91
492.66	3786.99
492.84	4007.00
493.01	4098.28
493.19	3794.01
493.37	3932.10
493.54	3939.12
493.72	3819.75
493.90	4016.36
494.08	4002.32
494.25	4173.18
494.43	4105.30
494.61	4248.07
494.79	4215.30
494.96	4210.62
495.14	4168.49
495.32	4042.11
495.49	3887.63
495.67	3911.04
495.85	4037.42
496.02	4348.72
496.20	4203.60
496.38	4271.48
496.55	4093.60
496.73	4262.12
496.91	4124.02
497.09	4315.95
497.26	4329.99
497.44	4250.41
497.62	4219.99
497.79	4138.07
497.97	4021.04
498.14	4119.34
498.32	4067.85
498.50	4322.97
498.67	4100.62
498.85	4322.97
499.03	4351.06
499.20	4416.59
499.38	4367.44
499.56	4423.61
499.73	4224.67
499.91	4112.32
500.08	4189.56
500.26	4234.03
500.44	4044.45
500.61	4212.96
500.79	3988.27
500.97	4077.21
501.14	4133.39
501.32	4084.23
501.49	3981.25
501.67	3955.51
501.84	4112.32
502.02	4168.49
502.20	4077.21
502.37	4245.73
502.55	4231.69
502.72	4250.41
502.90	4390.84
503.07	4135.73
503.25	4189.56
503.43	4023.38
503.60	4072.53
503.78	3815.07
503.95	3843.16
504.13	4025.72
504.30	4079.55
504.48	4423.61
504.65	4313.61
504.83	4227.01
505.01	4404.89
505.18	4390.84
505.36	4332.33
505.53	4475.10
505.71	4468.08
505.88	4545.32
506.06	4507.87
506.23	4325.31
506.41	4217.65
506.58	4301.90
506.76	4231.69
506.93	4224.67
507.11	4290.20
507.28	4416.59
507.46	4166.15
507.63	4109.98
507.81	4154.45
507.98	4105.30
508.16	4327.65
508.33	4388.50
508.50	4372.12
508.68	4533.62
508.85	4608.51
509.03	4631.92
509.20	4723.20
509.38	4362.76
509.55	4294.88
509.73	4507.87
509.90	4430.63
510.08	4685.75
510.25	4449.36
510.42	4421.27
510.60	4505.53
510.77	4608.51
510.95	4589.79
511.12	4559.36
511.30	4620.22
511.47	4800.44
511.64	4716.18
511.82	4795.76
511.99	4545.32
512.17	4599.15
512.34	4383.82
512.51	4582.77
512.69	4407.23
512.86	4430.63
513.04	4589.79
513.21	4664.69
513.38	4421.27
513.56	4442.34
513.73	4437.66
513.90	4273.82
514.08	4432.97
514.25	4397.87
514.43	4470.42
514.60	4409.57
514.77	4554.68
514.95	4397.87
515.12	4482.13
515.29	4465.74
515.47	4610.86
515.64	4514.89
515.81	4554.68
515.99	4470.42
516.16	4400.21
516.33	4044.45
516.51	3833.80
516.68	3749.54
516.85	3747.20
517.03	3709.75
517.20	3925.08
517.37	4273.82
517.54	4531.28
517.72	4393.19
517.89	4142.75
518.06	3864.22
518.24	3878.27
518.41	4147.43
518.58	4404.89
518.75	4306.59
518.93	4351.06
519.10	4308.93
519.27	4374.46
519.45	4407.23
519.62	4674.05
519.79	4498.51
519.96	4521.92
520.14	4437.66
520.31	4383.82
520.48	4283.18
520.65	4243.39
520.83	4641.28
521.00	4772.35
521.17	4706.82
521.34	4512.55
521.52	4589.79
521.69	4730.22
521.86	4826.18
522.03	4772.35
522.20	4660.01
522.38	4318.29
522.55	4430.63
522.72	4348.72
522.89	4521.92
523.07	4524.26
523.24	4617.88
523.41	4645.96
523.58	4585.11
523.75	4739.58
523.92	4849.59
524.10	4770.01
524.27	4765.33
524.44	4631.92
524.61	4636.60
524.78	4582.77
524.96	4617.88
525.13	4638.94
525.30	4793.42
525.47	4823.84
525.64	4734.90
525.81	4599.15
525.98	4489.15
526.16	4273.82
526.33	4280.84
526.50	4205.94
526.67	4081.89
526.84	4053.81
527.01	4215.30
527.18	4348.72
527.36	4400.21
527.53	4594.47
527.70	4702.14
527.87	4596.81
528.04	4425.95
528.21	4599.15
528.38	4809.80
528.55	4809.80
528.72	4880.02
528.89	5036.83
529.07	4964.28
529.24	4844.91
529.41	4674.05
529.58	4510.21
529.75	4573.41
529.92	4606.17
530.09	4814.48
530.26	4840.23
530.43	4809.80
530.60	4905.76
530.77	5081.30
530.94	4908.10
531.11	4983.00
531.28	4688.09
531.46	4798.10
531.63	4826.18
531.80	4746.61
531.97	4777.03
532.14	4751.29
532.31	4510.21
532.48	4447.02
532.65	4339.35
532.82	4510.21
532.99	4505.53
533.16	4624.90
533.33	4798.10
533.50	4770.01
533.67	4620.22
533.84	4484.47
534.01	4662.35
534.18	4727.88
534.35	4725.54
534.52	4557.02
534.69	4655.33
534.86	4765.33
535.03	4816.82
535.20	4823.84
535.37	4891.72
535.54	4795.76
535.71	4844.91
535.88	4943.21
536.05	4887.04
536.22	4671.71
536.38	4575.75
536.55	4620.22
536.72	4484.47
536.89	4374.46
537.06	4578.09
537.23	4674.05
537.40	4847.25
537.57	4711.50
537.74	4952.57
537.91	4882.36
538.08	4800.44
538.25	4652.98
538.42	4830.87
538.59	4606.17
538.75	4856.61
538.92	4779.37
539.09	4652.98
539.26	4617.88
539.43	4613.20
539.60	4540.64
539.77	4561.70
539.94	4695.11
540.11	4592.13
540.28	4613.20
540.44	4620.22
540.61	4657.67
540.78	4753.63
540.95	4777.03
541.12	4835.55
541.29	4854.27
541.46	4957.25
541.62	4940.87
541.79	4999.38
541.96	4908.10
542.13	4819.16
542.30	4933.85
542.47	4990.02
542.63	4908.10
542.80	4856.61
542.97	4837.89
543.14	4760.65
543.31	4772.35
543.48	4877.68
543.64	4992.36
543.81	5146.84
543.98	5032.15
544.15	4896.40
544.32	4753.63
544.48	4929.17
544.65	4858.95
544.82	5107.05
544.99	4985.34
545.16	4807.46
545.32	4849.59
545.49	5313.02
545.66	5614.95
545.83	5949.64
546.00	5816.23
546.16	5303.65
546.33	5076.62
546.50	4833.21
546.67	4931.51
546.83	4830.87
547.00	4915.12
547.17	4730.22
547.34	4631.92
547.50	4559.36
547.67	4599.15
547.84	4521.92
548.00	4718.52
548.17	4706.82
548.34	4671.71
548.51	4669.37
548.67	4718.52
548.84	4746.61
549.01	4688.09
549.18	4671.71
549.34	4690.43
549.51	4727.88
549.68	4657.67
549.84	4641.28
550.01	4826.18
550.18	4613.20
550.34	4711.50
550.51	4610.86
550.68	4802.78
550.84	4456.38
551.01	4484.47
551.18	4575.75
551.34	4596.81
551.51	4685.75
551.68	4613.20
551.84	4802.78
552.01	4634.26
552.18	4603.83
552.34	4486.81
552.51	4369.78
552.68	4381.48
552.84	4432.97
553.01	4531.28
553.18	4568.73
553.34	4550.00
553.51	4505.53
553.67	4531.28
553.84	4468.08
554.01	4550.00
554.17	4538.30
554.34	4538.30
554.51	4500.85
554.67	4545.32
554.84	4634.26
555.00	4505.53
555.17	4559.36
555.33	4517.23
555.50	4475.10
555.67	4376.80
555.83	4498.51
556.00	4390.84
556.16	4592.13
556.33	4402.55
556.50	4393.19
556.66	4337.01
556.83	4109.98
556.99	4163.81
557.16	4238.71
557.32	4264.46
557.49	4329.99
557.65	4280.84
557.82	4351.06
557.98	4152.11
558.15	4227.01
558.32	4189.56
558.48	4074.87
558.65	4114.66
558.81	4025.72
558.98	4205.94
559.14	4203.60
559.31	4177.86
559.47	4243.39
559.64	4191.90
559.80	4217.65
559.97	4109.98
560.13	4100.62
560.30	4236.37
560.46	4318.29
560.63	4550.00
560.79	4329.99
560.96	4351.06
561.12	4105.30
561.29	4039.76
561.45	4201.26
561.61	4182.54
561.78	4369.78
561.94	4095.94
562.11	4035.08
562.27	4159.13
562.44	4154.45
562.60	4227.01
562.77	4250.41
562.93	4294.88
563.10	4234.03
563.26	4180.20
563.42	4238.71
563.59	4203.60
563.75	4210.62
563.92	4182.54
564.08	4140.41
564.24	4269.14
564.41	4428.29
564.57	4145.09
564.74	4168.49
564.90	4337.01
565.07	4262.12
565.23	4147.43
565.39	3997.64
565.56	3983.59
565.72	3843.16
565.88	4086.58
566.05	3922.74
566.21	3929.76
566.38	3983.59
566.54	4067.85
566.70	4025.72
566.87	4163.81
567.03	4065.51
567.19	4133.39
567.36	3943.80
567.52	4114.66
567.68	4058.49
567.85	3889.97
568.01	3847.84
568.17	3861.88
568.34	3822.09
568.50	3864.22
568.66	3744.86
568.83	3754.22
568.99	3756.56
569.15	3812.73
569.32	3779.97
569.48	3831.46
569.64	3637.19
569.81	3754.22
569.97	3737.84
570.13	3896.99
570.30	3740.18
570.46	3648.90
570.62	3641.87
570.78	3623.15
570.95	3597.40
571.11	3789.33
571.27	3868.91
571.43	3723.79
571.60	3875.93
571.76	3796.35
571.92	3866.56
572.09	3833.80
572.25	3901.67
572.41	3691.02
572.57	3761.24
572.74	3817.41
572.90	3808.05
573.06	3852.52
573.22	3852.52
573.38	3786.99
573.55	3719.11
573.71	3669.96
573.87	3791.67
574.03	3733.15
574.20	3698.05
574.36	3791.67
574.52	3698.05
574.68	3695.71
574.84	3684.00
575.01	3581.02
575.17	3665.28
575.33	3672.30
575.49	3681.66
575.65	3632.51
575.82	3620.81
575.98	3630.17
576.14	3618.47
576.30	3716.77
576.46	3932.10
576.62	4028.06
576.79	4014.02
576.95	3885.29
577.11	3744.86
577.27	3660.60
577.43	3730.81
577.59	3658.26
577.75	3623.15
577.92	3566.98
578.08	3510.80
578.24	3545.91
578.40	3585.70
578.56	3761.24
578.72	3836.14
578.88	3892.31
579.04	3782.31
579.21	3782.31
579.37	3833.80
579.53	3695.71
579.69	3604.42
579.85	3782.31
580.01	3775.28
580.17	3733.15
580.33	3772.94
580.49	3796.35
580.65	3868.91
580.82	3609.11
580.98	3817.41
581.14	3763.58
581.30	3662.94
581.46	3669.96
581.62	3721.45
581.78	3777.62
581.94	3693.37
582.10	3808.05
582.26	3911.04
582.42	3819.75
582.58	3737.84
582.74	3803.37
582.90	3840.82
583.06	3918.06
583.22	3789.33
583.38	3707.41
583.54	3735.50
583.70	3871.25
583.86	3749.54
584.02	3597.40
584.18	3845.50
584.34	3679.32
584.50	3721.45
584.66	3768.26
584.82	3695.71
584.98	3679.32
585.14	3634.85
585.30	3641.87
585.46	3435.91
585.62	3421.86
585.78	3407.82
585.94	3583.36
586.10	3592.72
586.26	3660.60
586.42	3574.00
586.58	3597.40
586.74	3592.72
586.90	3665.28
587.06	3620.81
587.22	3637.19
587.38	3510.80
587.54	3562.30
587.70	3396.12
587.86	3288.45
588.02	3148.02
588.18	3176.11
588.34	2906.95
588.49	2930.35
588.65	2609.70
588.81	2722.04
588.97	2621.40
589.13	2530.12
589.29	2544.16
589.45	2672.89
589.61	2593.31
589.77	2766.51
589.93	2832.05
590.08	2881.20
590.24	3112.91
590.40	3070.78
590.56	3012.27
590.72	3007.59
590.88	3007.59
591.04	3035.67
591.20	3054.40
591.35	2869.50
591.51	2850.77
591.67	2988.86
591.83	2902.26
591.99	2986.52
592.15	2942.05
592.31	2944.39
592.46	3061.42
592.62	3234.62
592.78	3162.06
592.94	3155.04
593.10	3208.87
593.26	3288.45
593.41	3183.13
593.57	3150.36
593.73	3110.57
593.89	3014.61
594.05	2925.67
594.20	2719.70
594.36	2682.25
594.52	2703.32
594.68	2972.48
594.84	2972.48
594.99	2946.73
595.15	2998.23
595.31	3007.59
595.47	3115.25
595.62	3009.93
595.78	3073.12
595.94	3061.42
596.10	3098.87
596.25	3129.30
596.41	3038.02
596.57	3007.59
596.73	2984.18
596.88	2923.33
597.04	3155.04
597.20	3059.08
597.36	3005.25
597.51	3066.10
597.67	3169.09
597.83	3077.80
597.99	3211.22
