SpectraSuite Data File
++++++++++++++++++++++++++++++++++++
Date: Fri Oct 04 11:44:27 GMT-05:00 2013
User: price-jones
Dark Spectrum Present: No
Reference Spectrum Present: No
Number of Sampled Component Spectra: 1
Spectrometers: USB2+H05261
Integration Time (usec): 100000 (USB2+H05261)
Spectra Averaged: 1 (USB2+H05261)
Boxcar Smoothing: 0 (USB2+H05261)
Correct for Electrical Dark: No (USB2+H05261)
Strobe/Lamp Enabled: No (USB2+H05261)
Correct for Detector Non-linearity: No (USB2+H05261)
Correct for Stray Light: No (USB2+H05261)
Number of Pixels in Processed Spectrum: 2048
>>>>>Begin Processed Spectral Data<<<<<
365.73	74.90
365.92	74.90
366.12	74.90
366.32	0.00
366.52	0.00
366.72	0.00
366.91	0.00
367.11	0.00
367.31	0.00
367.51	0.00
367.70	0.00
367.90	0.00
368.10	0.00
368.30	0.00
368.49	0.00
368.69	0.00
368.89	0.00
369.09	0.00
369.28	0.00
369.48	0.00
369.68	11.70
369.87	0.00
370.07	30.43
370.27	16.38
370.47	95.96
370.66	468.11
370.86	657.69
371.06	613.22
371.25	706.84
371.45	648.33
371.65	589.82
371.84	559.39
372.04	580.45
372.24	580.45
372.44	681.10
372.63	636.63
372.83	704.50
373.03	580.45
373.22	500.87
373.42	503.22
373.62	601.52
373.81	627.26
374.01	599.18
374.21	599.18
374.40	622.58
374.60	517.26
374.79	615.56
374.99	653.01
375.19	751.31
375.38	751.31
375.58	688.12
375.78	748.97
375.97	767.70
376.17	835.57
376.37	751.31
376.56	835.57
376.76	833.23
376.95	835.57
377.15	952.60
377.35	933.87
377.54	990.05
377.74	968.98
377.93	940.90
378.13	980.68
378.33	954.94
378.52	861.32
378.72	905.79
378.91	826.21
379.11	858.98
379.31	894.08
379.50	788.76
379.70	706.84
379.89	933.87
380.09	922.17
380.28	898.77
380.48	880.04
380.68	877.70
380.87	826.21
381.07	842.59
381.26	854.30
381.46	791.10
381.65	716.20
381.85	753.65
382.04	660.03
382.24	681.10
382.43	653.01
382.63	573.43
382.83	629.60
383.02	655.35
383.22	648.33
383.41	683.44
383.61	645.99
383.80	760.67
384.00	765.36
384.19	849.61
384.39	929.19
384.58	910.47
384.78	891.74
384.97	926.85
385.17	875.36
385.36	779.40
385.56	880.04
385.75	828.55
385.95	978.34
386.14	908.13
386.34	919.83
386.53	973.66
386.72	877.70
386.92	968.98
387.11	873.02
387.31	961.96
387.50	961.96
387.70	1001.75
387.89	894.08
388.09	1006.43
388.28	924.51
388.48	985.37
388.67	933.87
388.86	1100.05
389.06	1151.54
389.25	1160.91
389.45	1266.23
389.64	1247.51
389.84	1221.76
390.03	1231.12
390.22	1254.53
390.42	1315.38
390.61	1238.14
390.81	1329.42
391.00	1380.92
391.19	1430.07
391.39	1280.27
391.58	1289.64
391.78	1256.87
391.97	1048.56
392.16	1013.45
392.36	1053.24
392.55	894.08
392.75	770.04
392.94	592.16
393.13	589.82
393.33	641.31
393.52	816.85
393.71	1022.81
393.91	1036.86
394.10	1142.18
394.29	1231.12
394.49	1366.87
394.68	1406.66
394.88	1483.90
395.07	1500.28
395.26	1418.36
395.46	1390.28
395.65	1401.98
395.84	1158.57
396.04	1153.88
396.23	880.04
396.42	835.57
396.62	720.88
396.81	884.72
397.00	1055.58
397.19	1249.85
397.39	1409.00
397.58	1570.50
397.77	1661.78
397.97	1816.26
398.16	1755.40
398.35	1806.89
398.55	1863.07
398.74	1937.96
398.93	1954.35
399.12	2036.27
399.32	1863.07
399.51	1870.09
399.70	1982.43
399.90	1919.24
400.09	1968.39
400.28	2012.86
400.47	1966.05
400.67	2160.31
400.86	2111.16
401.05	2033.93
401.24	2148.61
401.44	2057.33
401.63	2183.72
401.82	2141.59
402.01	2204.78
402.21	2165.00
402.40	2179.04
402.59	2087.76
402.78	1933.28
402.97	2087.76
403.17	2153.29
403.36	2017.54
403.55	2246.91
403.74	2333.51
403.93	2321.81
404.13	2307.77
404.32	2113.50
404.51	2157.97
404.70	2270.32
404.89	2207.13
405.09	2300.75
405.28	2190.74
405.47	2186.06
405.66	2057.33
405.85	2045.63
406.05	2141.59
406.24	2136.91
406.43	2113.50
406.62	2174.36
406.81	2256.28
407.00	2204.78
407.20	2069.03
407.39	2195.42
407.58	2221.17
407.77	2279.68
407.96	2356.92
408.15	2342.88
408.34	2277.34
408.54	2427.14
408.73	2495.01
408.92	2520.76
409.11	2319.47
409.30	2312.45
409.49	2225.85
409.68	1926.26
409.87	2008.18
410.07	2186.06
410.26	2258.62
410.45	2352.24
410.64	2307.77
410.83	2450.54
411.02	2422.45
411.21	2553.52
411.40	2733.75
411.59	2630.76
411.78	2656.51
411.98	2576.93
412.17	2647.15
412.36	2558.21
412.55	2497.35
412.74	2480.97
412.93	2513.74
413.12	2417.77
413.31	2719.70
413.50	2752.47
413.69	2773.53
413.88	2661.19
414.07	2588.63
414.26	2609.70
414.45	2635.44
414.64	2750.13
414.83	2738.43
415.02	2665.87
415.22	2644.81
415.41	2747.79
415.60	2665.87
415.79	2867.16
415.98	2963.12
416.17	2818.00
416.36	2904.60
416.55	2850.77
416.74	2745.45
416.93	2661.19
417.12	2693.96
417.31	2712.68
417.50	2768.85
417.69	2998.23
417.88	2871.84
418.07	2892.90
418.26	2736.09
418.45	2832.05
418.64	2949.08
418.83	2965.46
419.02	2923.33
419.21	2981.84
419.39	2719.70
419.58	2759.49
419.77	2717.36
419.96	2771.19
420.15	2939.71
420.34	2993.55
420.53	3103.55
420.72	3232.28
420.91	3045.04
421.10	3091.85
421.29	3199.51
421.48	2981.84
421.67	2930.35
421.86	2972.48
422.05	2916.31
422.24	2642.46
422.43	2595.65
422.61	2782.90
422.80	2909.29
422.99	2841.41
423.18	2986.52
423.37	2827.37
423.56	2888.22
423.75	2937.37
423.94	2869.50
424.13	2822.69
424.32	2874.18
424.50	2766.51
424.69	2878.86
424.88	2829.71
425.07	2700.98
425.26	2743.11
425.45	2757.15
425.64	2651.83
425.83	2691.62
426.01	2928.01
426.20	2904.60
426.39	2892.90
426.58	2630.76
426.77	2537.14
426.96	2361.60
427.15	2562.89
427.33	2747.79
427.52	2703.32
427.71	2836.73
427.90	2789.92
428.09	2810.98
428.28	2803.96
428.46	2595.65
428.65	2541.82
428.84	2593.31
429.03	2682.25
429.22	2583.95
429.40	2429.48
429.59	2282.02
429.78	2064.35
429.97	1851.36
430.16	1989.46
430.34	2087.76
430.53	2059.67
430.72	2085.42
430.91	2282.02
431.10	2525.44
431.28	2918.65
431.47	3215.90
431.66	3164.40
431.85	3075.46
432.03	2935.03
432.22	2794.60
432.41	2768.85
432.60	3016.95
432.79	3150.36
432.97	3241.64
433.16	3131.64
433.35	2930.35
433.54	2750.13
433.72	2621.40
433.91	2579.27
434.10	2871.84
434.28	3061.42
434.47	3150.36
434.66	3103.55
434.85	3148.02
435.03	3267.39
435.22	3496.76
435.41	4175.52
435.59	4255.09
435.78	4056.15
435.97	3595.06
436.16	3508.46
436.34	3393.78
436.53	3225.26
436.72	3391.44
436.90	3265.05
437.09	3136.32
437.28	3066.10
437.46	3091.85
437.65	3225.26
437.84	3002.91
438.02	2895.24
438.21	2794.60
438.40	2827.37
438.58	3016.95
438.77	3206.53
438.96	3185.47
439.14	3454.63
439.33	3417.18
439.52	3534.21
439.70	3421.86
439.89	3353.99
440.08	3260.37
440.26	3307.18
440.45	3368.03
440.63	3417.18
440.82	3740.18
441.01	3618.47
441.19	3503.78
441.38	3705.07
441.57	3826.78
441.75	3882.95
441.94	3791.67
442.12	3721.45
442.31	3880.61
442.50	3758.90
442.68	3801.03
442.87	3679.32
443.05	3768.26
443.24	3768.26
443.43	3925.08
443.61	3925.08
443.80	4016.36
443.98	3829.12
444.17	3782.31
444.35	3971.89
444.54	4021.04
444.73	3892.31
444.91	3913.38
445.10	3686.34
445.28	3576.34
445.47	3503.78
445.65	3564.64
445.84	3456.97
446.02	3641.87
446.21	3840.82
446.39	3859.54
446.58	3829.12
446.77	3737.84
446.95	3899.33
447.14	4147.43
447.32	4320.63
447.51	4074.87
447.69	3875.93
447.88	3932.10
448.06	3908.69
448.25	4042.11
448.43	3875.93
448.62	3861.88
448.80	3988.27
448.99	3918.06
449.17	4014.02
449.36	3957.85
449.54	4091.26
449.73	4051.47
449.91	4215.30
450.10	4259.78
450.28	4404.89
450.46	4484.47
450.65	4428.29
450.83	4416.59
451.02	4337.01
451.20	4175.52
451.39	4198.92
451.57	4102.96
451.76	4133.39
451.94	4037.42
452.13	4070.19
452.31	3878.27
452.49	3882.95
452.68	3684.00
452.86	3812.73
453.05	3932.10
453.23	3978.91
453.42	4166.15
453.60	4093.60
453.78	4180.20
453.97	4271.48
454.15	4095.94
454.34	3946.14
454.52	3955.51
454.70	3932.10
454.89	3985.93
455.07	4025.72
455.26	3999.98
455.44	4231.69
455.62	4287.86
455.81	4219.99
455.99	4147.43
456.17	4168.49
456.36	4266.80
456.54	4367.44
456.73	4311.27
456.91	4381.48
457.09	4489.15
457.28	4484.47
457.46	4257.43
457.64	4297.22
457.83	4114.66
458.01	4032.74
458.19	4196.58
458.38	4269.14
458.56	4259.78
458.74	4297.22
458.93	4175.52
459.11	4236.37
459.29	4236.37
459.48	4236.37
459.66	4156.79
459.84	4327.65
460.03	4400.21
460.21	4217.65
460.39	4484.47
460.57	4552.34
460.76	4418.93
460.94	4320.63
461.12	4325.31
461.31	4423.61
461.49	4400.21
461.67	4461.06
461.85	4580.43
462.04	4456.38
462.22	4844.91
462.40	4578.09
462.59	4547.66
462.77	4437.66
462.95	4559.36
463.13	4526.60
463.32	4430.63
463.50	4320.63
463.68	4383.82
463.86	4414.25
464.05	4217.65
464.23	4269.14
464.41	4400.21
464.59	4187.22
464.78	4489.15
464.96	4329.99
465.14	4355.74
465.32	4344.03
465.50	4451.70
465.69	4664.69
465.87	4337.01
466.05	4351.06
466.23	4182.54
466.41	4039.76
466.60	4182.54
466.78	4250.41
466.96	4175.52
467.14	4322.97
467.32	4386.16
467.51	4402.55
467.69	4154.45
467.87	4248.07
468.05	4304.25
468.23	4318.29
468.41	4388.50
468.60	4222.33
468.78	4414.25
468.96	4262.12
469.14	4346.37
469.32	4386.16
469.50	4201.26
469.69	4238.71
469.87	4208.28
470.05	4266.80
470.23	4198.92
470.41	4290.20
470.59	4187.22
470.77	4285.52
470.95	4456.38
471.14	4444.68
471.32	4432.97
471.50	4709.16
471.68	4678.73
471.86	4678.73
472.04	4582.77
472.22	4648.30
472.40	4447.02
472.58	4400.21
472.77	4465.74
472.95	4432.97
473.13	4477.44
473.31	4524.26
473.49	4404.89
473.67	4552.34
473.85	4585.11
474.03	4823.84
474.21	4753.63
474.39	4865.97
474.57	4828.53
474.75	4903.42
474.93	4835.55
475.12	4662.35
475.30	4599.15
475.48	4791.08
475.66	4734.90
475.84	4798.10
476.02	4617.88
476.20	4503.19
476.38	4610.86
476.56	4727.88
476.74	4978.32
476.92	4870.65
477.10	4847.25
477.28	5090.67
477.46	4915.12
477.64	5245.14
477.82	5142.16
478.00	5284.93
478.18	5121.09
478.36	5228.76
478.54	4994.70
478.72	5160.88
478.90	5273.23
479.08	5423.02
479.26	5401.96
479.44	5488.56
479.62	5603.24
479.80	5465.15
479.98	5607.92
480.16	5453.45
480.34	5336.42
480.52	5467.49
480.70	5626.65
480.88	5650.05
481.06	5682.82
481.24	5645.37
481.41	5865.38
481.59	5907.51
481.77	5820.91
481.95	5792.83
482.13	5886.45
482.31	5811.55
482.49	5631.33
482.67	5748.36
482.85	5968.37
483.03	5912.19
483.21	6106.46
483.39	6188.38
483.57	5961.34
483.74	6099.44
483.92	5914.53
484.10	5874.74
484.28	6094.76
484.46	6169.65
484.64	6148.59
484.82	6071.35
485.00	6085.39
485.18	6012.84
485.35	5863.04
485.53	5469.83
485.71	4933.85
485.89	4908.10
486.07	5055.56
486.25	5376.21
486.43	5708.57
486.61	6026.88
486.78	5984.75
486.96	6111.14
487.14	6176.67
487.32	6434.13
487.50	6366.26
487.68	6572.22
487.85	6663.51
488.03	6696.27
488.21	6752.45
488.39	6527.75
488.57	6331.15
488.75	6164.97
488.92	6820.32
489.10	6862.45
489.28	7234.60
489.46	7258.00
489.64	7220.55
489.81	7321.20
489.99	7295.45
490.17	7372.69
490.35	7449.93
490.53	7288.43
490.70	7091.82
490.88	7117.57
491.06	7337.58
491.24	7445.24
491.41	7187.79
491.59	6801.60
491.77	6782.87
491.95	6799.26
492.13	7119.91
492.30	7304.81
492.48	7473.33
492.66	7648.87
492.84	7723.77
493.01	7707.38
493.19	7438.22
493.37	7463.97
493.54	7363.33
493.72	7372.69
493.90	7543.55
494.08	8030.38
494.25	7943.78
494.43	7957.82
494.61	8060.80
494.79	8093.57
494.96	8119.32
495.14	8138.04
495.32	7721.43
495.49	7655.89
495.67	7894.63
495.85	8056.12
496.02	8383.80
496.20	8313.58
496.38	8095.91
496.55	8011.65
496.73	8318.26
496.91	8327.63
497.09	8322.94
497.26	8273.79
497.44	8182.51
497.62	8203.58
497.79	7936.76
497.97	7569.29
498.14	7583.34
498.32	7896.97
498.50	8222.30
498.67	8243.37
498.85	8336.99
499.03	8311.24
499.20	8091.23
499.38	8409.54
499.56	8348.69
499.73	8318.26
499.91	8173.15
500.08	7929.74
500.26	7597.38
500.44	8142.72
500.61	8147.40
500.79	8133.36
500.97	7899.31
501.14	7964.84
501.32	7819.73
501.49	7782.28
501.67	7908.67
501.84	7946.12
502.02	8049.10
502.20	8208.26
502.37	8191.88
502.55	8102.93
502.72	8245.71
502.90	8348.69
503.07	8318.26
503.25	8046.76
503.43	7761.22
503.60	7478.01
503.78	7506.10
503.95	7431.20
504.13	7747.17
504.30	8243.37
504.48	8351.03
504.65	8301.88
504.83	8224.64
505.01	8374.44
505.18	8512.53
505.36	8603.81
505.53	8514.87
505.71	8786.37
505.88	8791.05
506.06	8430.61
506.23	8510.19
506.41	8435.29
506.58	8334.65
506.76	8374.44
506.93	8430.61
507.11	8226.98
507.28	8400.18
507.46	8184.85
507.63	8044.42
507.81	7981.23
507.98	8320.60
508.16	8439.97
508.33	8383.80
508.50	8634.24
508.68	8769.99
508.85	8762.97
509.03	8791.05
509.20	8816.80
509.38	8725.52
509.55	8320.60
509.73	8306.56
509.90	8468.06
510.08	8901.06
510.25	8851.91
510.42	8659.98
510.60	8606.15
510.77	8589.77
510.95	8762.97
511.12	8678.71
511.30	8994.68
511.47	9214.69
511.64	9188.94
511.82	9071.92
511.99	8872.97
512.17	8641.26
512.34	8795.73
512.51	8702.11
512.69	8650.62
512.86	8877.65
513.04	8821.48
513.21	8744.24
513.38	8760.63
513.56	8559.34
513.73	8259.75
513.90	8458.70
514.08	8376.78
514.25	8339.33
514.43	8830.84
514.60	8753.60
514.77	8746.58
514.95	8779.35
515.12	8582.74
515.29	8697.43
515.47	8779.35
515.64	8997.02
515.81	8800.41
515.99	8814.46
516.16	8439.97
516.33	7782.28
516.51	7356.30
516.68	7066.08
516.85	7136.29
517.03	6967.77
517.20	7595.04
517.37	8177.83
517.54	8608.49
517.72	8809.78
517.89	8140.38
518.06	7360.98
518.24	7538.87
518.41	7901.65
518.58	8346.35
518.75	8411.89
518.93	8528.91
519.10	8215.28
519.27	8287.84
519.45	8627.21
519.62	8683.39
519.79	8858.93
519.96	8802.75
520.14	8624.87
520.31	8428.27
520.48	8318.26
520.65	8535.93
520.83	8856.59
521.00	8926.80
521.17	8894.04
521.34	8791.05
521.52	8720.84
521.69	9116.39
521.86	8952.55
522.03	9088.30
522.20	8674.03
522.38	8365.07
522.55	8198.90
522.72	8339.33
522.89	8624.87
523.07	8683.39
523.24	8718.50
523.41	8887.01
523.58	8954.89
523.75	9053.19
523.92	9245.12
524.10	9128.09
524.27	9088.30
524.44	9240.44
524.61	9146.81
524.78	8891.70
524.96	8966.59
525.13	8980.64
525.30	9008.72
525.47	9085.96
525.64	9282.56
525.81	9029.79
525.98	8517.21
526.16	8229.32
526.33	7861.86
526.50	7716.75
526.67	7688.66
526.84	7810.37
527.01	8180.17
527.18	8346.35
527.36	8430.61
527.53	8844.88
527.70	8990.00
527.87	8975.95
528.04	8730.20
528.21	8669.34
528.38	9151.49
528.55	9334.06
528.72	9205.33
528.89	9530.66
529.07	9439.38
529.24	9305.97
529.41	8999.36
529.58	8739.56
529.75	8699.77
529.92	8774.67
530.09	9062.55
530.26	9266.18
530.43	9167.88
530.60	9369.16
530.77	9413.63
530.94	9535.34
531.11	9357.46
531.28	9186.60
531.46	9088.30
531.63	9320.01
531.80	9015.74
531.97	9048.51
532.14	8816.80
532.31	8503.17
532.48	8154.43
532.65	8241.03
532.82	8320.60
532.99	8573.38
533.16	8999.36
533.33	9160.86
533.50	9139.79
533.67	8952.55
533.84	8582.74
534.01	8685.73
534.18	8765.31
534.35	8980.64
534.52	8947.87
534.69	9036.81
534.86	9109.36
535.03	9001.70
535.20	9191.28
535.37	9392.57
535.54	9301.29
535.71	9207.67
535.88	9268.52
536.05	8968.93
536.22	8875.31
536.38	8814.46
536.55	8713.81
536.72	8559.34
536.89	8423.59
537.06	8718.50
537.23	9050.85
537.40	9238.09
537.57	9107.02
537.74	9270.86
537.91	8954.89
538.08	8772.33
538.25	9191.28
538.42	9090.64
538.59	9268.52
538.75	8657.64
538.92	8727.86
539.09	8931.48
539.26	8784.03
539.43	8748.92
539.60	8774.67
539.77	8945.53
539.94	9076.60
540.11	8781.69
540.28	8533.59
540.44	8568.70
540.61	8662.32
540.78	8667.00
540.95	8875.31
541.12	9146.81
541.29	9385.55
541.46	9692.16
541.62	9472.15
541.79	9432.36
541.96	9137.45
542.13	9291.93
542.30	9088.30
542.47	9387.89
542.63	9067.24
542.80	9043.83
542.97	9118.73
543.14	8957.23
543.31	8968.93
543.48	9022.77
543.64	9500.23
543.81	9444.06
543.98	9453.42
544.15	9369.16
544.32	9130.43
544.48	9090.64
544.65	9118.73
544.82	9275.54
544.99	9202.99
545.16	9195.96
545.32	9041.49
545.49	9914.51
545.66	10752.42
545.83	11063.71
546.00	10822.64
546.16	9902.81
546.33	9554.07
546.50	9210.01
546.67	9291.93
546.83	9207.67
547.00	9102.34
547.17	8865.95
547.34	8821.48
547.50	8711.47
547.67	8695.09
547.84	8891.70
548.00	8816.80
548.17	9050.85
548.34	8926.80
548.51	9015.74
548.67	8889.35
548.84	8985.32
549.01	9041.49
549.18	8982.98
549.34	8933.82
549.51	8863.61
549.68	8713.81
549.84	8596.79
550.01	8748.92
550.18	8636.58
550.34	8961.91
550.51	8769.99
550.68	8814.46
550.84	8674.03
551.01	8517.21
551.18	8435.29
551.34	8711.47
551.51	8669.34
551.68	8744.24
551.84	9008.72
552.01	8739.56
552.18	8865.95
552.34	8428.27
552.51	8297.20
552.68	8271.45
552.84	8301.88
553.01	8439.97
553.18	8596.79
553.34	8678.71
553.51	8652.96
553.67	8674.03
553.84	8681.05
554.01	8528.91
554.17	8505.51
554.34	8472.74
554.51	8725.52
554.67	8758.28
554.84	8575.72
555.00	8414.23
555.17	8615.51
555.33	8475.08
555.50	8407.20
555.67	8503.17
555.83	8332.31
556.00	8308.90
556.16	8383.80
556.33	8194.22
556.50	8360.39
556.66	8086.55
556.83	8128.68
556.99	8037.40
557.16	8119.32
557.32	8245.71
557.49	8205.92
557.65	8234.00
557.82	8243.37
557.98	8208.26
558.15	8011.65
558.32	7953.14
558.48	7618.44
558.65	7543.55
558.81	7735.47
558.98	7714.41
559.14	7843.14
559.31	7744.83
559.47	7911.01
559.64	8138.04
559.80	7913.35
559.97	7939.10
560.13	7847.82
560.30	8028.04
560.46	8280.82
560.63	8243.37
560.79	8414.23
560.96	8208.26
561.12	8088.89
561.29	7822.07
561.45	7810.37
561.61	8009.31
561.78	7976.55
561.94	8030.38
562.11	7971.86
562.27	8105.28
562.44	7990.59
562.60	8039.74
562.77	7974.21
562.93	8102.93
563.10	7964.84
563.26	7946.12
563.42	7892.29
563.59	7786.96
563.75	7906.33
563.92	7826.75
564.08	7833.77
564.24	7892.29
564.41	8044.42
564.57	8021.02
564.74	7838.45
564.90	7882.92
565.07	7955.48
565.23	7964.84
565.39	7613.76
565.56	7456.95
565.72	7569.29
565.88	7435.88
566.05	7517.80
566.21	7606.74
566.38	7634.83
566.54	7513.12
566.70	7733.13
566.87	7840.79
567.03	7829.09
567.19	7918.03
567.36	7700.36
567.52	7723.77
567.68	7627.81
567.85	7494.40
568.01	7288.43
568.17	7157.36
568.34	7225.23
568.50	7143.32
568.66	7101.19
568.83	7255.66
568.99	7101.19
569.15	7225.23
569.32	7407.80
569.48	7096.50
569.64	7068.42
569.81	7056.72
569.97	7211.19
570.13	7323.54
570.30	7164.38
570.46	6918.62
570.62	6841.39
570.78	6904.58
570.95	6958.41
571.11	7089.48
571.27	7091.82
571.43	7028.63
571.60	7131.61
571.76	7227.57
571.92	7213.53
572.09	7276.73
572.25	7288.43
572.41	7358.64
572.57	7066.08
572.74	7241.62
572.90	7316.51
573.06	7321.20
573.22	7082.46
573.38	7234.60
573.55	7159.70
573.71	7342.26
573.87	7267.36
574.03	7056.72
574.20	7040.33
574.36	6979.48
574.52	6986.50
574.68	7073.10
574.84	6984.16
575.01	6911.60
575.17	6906.92
575.33	6869.47
575.49	6949.05
575.65	6937.35
575.82	6806.28
575.98	6736.06
576.14	6775.85
576.30	7143.32
576.46	7382.05
576.62	7602.06
576.79	7438.22
576.95	7293.11
577.11	7077.78
577.27	7089.48
577.43	6946.71
577.59	6796.92
577.75	7016.93
577.92	6572.22
578.08	6740.74
578.24	6597.97
578.40	6895.22
578.56	6956.07
578.72	7105.87
578.88	7173.74
579.04	7199.49
579.21	6991.18
579.37	7133.95
579.53	7108.21
579.69	7059.06
579.85	7133.95
580.01	7087.14
580.17	7042.67
580.33	7012.24
580.49	7096.50
580.65	7054.37
580.82	7206.51
580.98	6923.30
581.14	7077.78
581.30	7133.95
581.46	7063.74
581.62	7052.03
581.78	7192.47
581.94	7199.49
582.10	7131.61
582.26	7002.88
582.42	7222.89
582.58	7232.26
582.74	7211.19
582.90	7215.87
583.06	7215.87
583.22	7180.76
583.38	7164.38
583.54	6998.20
583.70	7192.47
583.86	7307.15
584.02	6988.84
584.18	7117.57
584.34	7098.84
584.50	7082.46
584.66	6925.65
584.82	6848.41
584.98	6869.47
585.14	6935.01
585.30	6740.74
585.46	6684.57
585.62	6633.08
585.78	6684.57
585.94	6670.53
586.10	6661.16
586.26	6546.48
586.42	6799.26
586.58	6860.11
586.74	6848.41
586.90	6850.75
587.06	6860.11
587.22	6651.80
587.38	6581.59
587.54	6600.31
587.70	6389.66
587.86	6239.87
588.02	5996.45
588.18	5797.51
588.34	5530.69
588.49	5231.10
588.65	4926.83
588.81	4826.18
588.97	4919.81
589.13	4901.08
589.29	4805.12
589.45	4760.65
589.61	5006.41
589.77	5029.81
589.93	5195.99
590.08	5441.75
590.24	5502.60
590.40	5778.78
590.56	5593.88
590.72	5509.62
590.88	5554.09
591.04	5638.35
591.20	5584.52
591.35	5500.26
591.51	5540.05
591.67	5343.44
591.83	5376.21
591.99	5589.20
592.15	5589.20
592.31	5792.83
592.46	5837.30
592.62	5940.28
592.78	5879.43
592.94	5895.81
593.10	6174.33
593.26	6076.03
593.41	6040.92
593.57	5975.39
593.73	5753.04
593.89	5472.17
594.05	5261.52
594.20	5266.21
594.36	5259.18
594.52	5114.07
594.68	5149.18
594.84	5530.69
594.99	5717.93
595.15	5811.55
595.31	5741.33
595.47	5495.58
595.62	5638.35
595.78	5696.86
595.94	5956.66
596.10	5874.74
596.25	5762.40
596.41	5577.50
596.57	5563.45
596.73	5628.99
596.88	5930.92
597.04	5856.02
597.20	5905.17
597.36	5701.54
597.51	5722.61
