SpectraSuite Data File
++++++++++++++++++++++++++++++++++++
Date: Fri Oct 04 11:44:13 GMT-05:00 2013
User: price-jones
Dark Spectrum Present: No
Reference Spectrum Present: No
Number of Sampled Component Spectra: 1
Spectrometers: USB2+H05261
Integration Time (usec): 100000 (USB2+H05261)
Spectra Averaged: 1 (USB2+H05261)
Boxcar Smoothing: 0 (USB2+H05261)
Correct for Electrical Dark: No (USB2+H05261)
Strobe/Lamp Enabled: No (USB2+H05261)
Correct for Detector Non-linearity: No (USB2+H05261)
Correct for Stray Light: No (USB2+H05261)
Number of Pixels in Processed Spectrum: 2048
>>>>>Begin Processed Spectral Data<<<<<
365.73	16.38
365.92	16.38
366.12	16.38
366.32	0.00
366.52	0.00
366.72	0.00
366.91	0.00
367.11	0.00
367.31	0.00
367.51	0.00
367.70	0.00
367.90	0.00
368.10	0.00
368.30	0.00
368.49	0.00
368.69	0.00
368.89	0.00
369.09	0.00
369.28	0.00
369.48	0.00
369.68	0.00
369.87	0.00
370.07	0.00
370.27	28.09
370.47	166.18
370.66	657.69
370.86	788.76
371.06	842.59
371.25	856.64
371.45	840.25
371.65	753.65
371.84	699.82
372.04	709.18
372.24	716.20
372.44	821.53
372.63	828.55
372.83	849.61
373.03	753.65
373.22	650.67
373.42	669.39
373.62	842.59
373.81	905.79
374.01	868.34
374.21	866.00
374.40	737.27
374.60	786.42
374.79	851.96
374.99	922.17
375.19	1029.84
375.38	990.05
375.58	985.37
375.78	980.68
375.97	997.07
376.17	1050.90
376.37	997.07
376.56	950.26
376.76	1107.07
376.95	1048.56
377.15	1198.35
377.35	1245.16
377.54	1401.98
377.74	1303.68
377.93	1289.64
378.13	1179.63
378.33	1181.97
378.52	1172.61
378.72	1160.91
378.91	1137.50
379.11	1013.45
379.31	933.87
379.50	1034.52
379.70	1041.54
379.89	1207.72
380.09	1163.25
380.28	1231.12
380.48	1254.53
380.68	1146.86
380.87	1184.31
381.07	1196.01
381.26	1118.78
381.46	1118.78
381.65	912.81
381.85	997.07
382.04	1015.79
382.24	837.91
382.43	887.06
382.63	887.06
382.83	858.98
383.02	795.78
383.22	931.53
383.41	800.46
383.61	821.53
383.80	950.26
384.00	992.39
384.19	1102.39
384.39	1184.31
384.58	1217.08
384.78	1146.86
384.97	1263.89
385.17	1067.28
385.36	1151.54
385.56	1102.39
385.75	1020.47
385.95	1163.25
386.14	1291.98
386.34	1245.16
386.53	1270.91
386.72	1158.57
386.92	1226.44
387.11	1247.51
387.31	1179.63
387.50	1254.53
387.70	1219.42
387.89	1214.74
388.09	1214.74
388.28	1121.12
388.48	1254.53
388.67	1345.81
388.86	1406.66
389.06	1551.78
389.25	1418.36
389.45	1572.84
389.64	1526.03
389.84	1629.01
390.03	1549.43
390.22	1554.12
390.42	1563.48
390.61	1778.81
390.81	1783.49
391.00	1846.68
391.19	1739.02
391.39	1645.40
391.58	1685.19
391.78	1575.18
391.97	1490.92
392.16	1420.71
392.36	1348.15
392.55	1121.12
392.75	877.70
392.94	777.06
393.13	748.97
393.33	830.89
393.52	1078.99
393.71	1275.59
393.91	1378.58
394.10	1476.88
394.29	1586.88
394.49	1799.87
394.68	1804.55
394.88	1947.33
395.07	1935.62
395.26	2010.52
395.46	1928.60
395.65	1792.85
395.84	1556.46
396.04	1523.69
396.23	1118.78
396.42	992.39
396.62	968.98
396.81	1107.07
397.00	1254.53
397.19	1568.16
397.39	1781.15
397.58	1991.80
397.77	2153.29
397.97	2265.64
398.16	2345.22
398.35	2422.45
398.55	2356.92
398.74	2539.48
398.93	2555.86
399.12	2583.95
399.32	2541.82
399.51	2516.08
399.70	2630.76
399.90	2633.10
400.09	2605.02
400.28	2539.48
400.47	2715.02
400.67	2792.26
400.86	2820.35
401.05	2918.65
401.24	2782.90
401.44	2878.86
401.63	2944.39
401.82	2855.45
402.01	2775.88
402.21	2991.20
402.40	2937.37
402.59	2939.71
402.78	2745.45
402.97	2719.70
403.17	2782.90
403.36	2909.29
403.55	2867.16
403.74	2986.52
403.93	3045.04
404.13	2935.03
404.32	2857.79
404.51	2731.41
404.70	2953.76
404.89	3000.57
405.09	2944.39
405.28	2988.86
405.47	2778.22
405.66	2799.28
405.85	2775.88
406.05	2729.06
406.24	2740.77
406.43	2815.66
406.62	2977.16
406.81	3080.14
407.00	2799.28
407.20	2841.41
407.39	2970.14
407.58	2974.82
407.77	3073.12
407.96	3073.12
408.15	3070.78
408.34	3236.96
408.54	3293.13
408.73	3361.01
408.92	3295.47
409.11	3098.87
409.30	2986.52
409.49	2984.18
409.68	2738.43
409.87	2516.08
410.07	2778.22
410.26	3014.61
410.45	3119.93
410.64	3236.96
410.83	3276.75
411.02	3361.01
411.21	3396.12
411.40	3421.86
411.59	3449.95
411.78	3370.37
411.98	3304.84
412.17	3309.52
412.36	3424.20
412.55	3290.79
412.74	3330.58
412.93	3342.28
413.12	3281.43
413.31	3578.68
413.50	3662.94
413.69	3599.74
413.88	3679.32
414.07	3475.70
414.26	3344.63
414.45	3592.72
414.64	3609.11
414.83	3571.66
415.02	3485.06
415.22	3534.21
415.41	3705.07
415.60	3667.62
415.79	3836.14
415.98	4065.51
416.17	3885.29
416.36	3854.86
416.55	3698.05
416.74	3620.81
416.93	3721.45
417.12	3529.53
417.31	3597.40
417.50	3749.54
417.69	3836.14
417.88	3801.03
418.07	3634.85
418.26	3768.26
418.45	3740.18
418.64	3791.67
418.83	3782.31
419.02	3847.84
419.21	3822.09
419.39	3723.79
419.58	3562.30
419.77	3597.40
419.96	3695.71
420.15	4009.34
420.34	3976.57
420.53	4107.64
420.72	4208.28
420.91	4173.18
421.10	4138.07
421.29	3925.08
421.48	3955.51
421.67	4191.90
421.86	4056.15
422.05	3817.41
422.24	3438.25
422.43	3473.36
422.61	3609.11
422.80	4046.79
422.99	3946.14
423.18	3946.14
423.37	3864.22
423.56	3782.31
423.75	3901.67
423.94	3985.93
424.13	3747.20
424.32	3726.13
424.50	3747.20
424.69	3714.43
424.88	3831.46
425.07	3707.41
425.26	3775.28
425.45	3613.79
425.64	3557.61
425.83	3588.04
426.01	3833.80
426.20	3978.91
426.39	3861.88
426.58	3679.32
426.77	3349.31
426.96	3159.72
427.15	3314.20
427.33	3471.01
427.52	3847.84
427.71	3770.60
427.90	3847.84
428.09	3810.39
428.28	3625.49
428.46	3524.85
428.65	3368.03
428.84	3599.74
429.03	3506.12
429.22	3471.01
429.40	3290.79
429.59	3052.06
429.78	2705.66
429.97	2595.65
430.16	2595.65
430.34	2771.19
430.53	2726.72
430.72	2745.45
430.91	2876.52
431.10	3412.50
431.28	3946.14
431.47	4147.43
431.66	4465.74
431.85	4138.07
432.03	3822.09
432.22	3756.56
432.41	3770.60
432.60	4133.39
432.79	4243.39
432.97	4210.62
433.16	4292.54
433.35	4016.36
433.54	3653.58
433.72	3440.59
433.91	3435.91
434.10	3756.56
434.28	4053.81
434.47	4269.14
434.66	4287.86
434.85	4119.34
435.03	4203.60
435.22	4652.98
435.41	5078.96
435.59	5167.90
435.78	4950.23
435.97	4695.11
436.16	4638.94
436.34	4638.94
436.53	4503.19
436.72	4669.37
436.90	4308.93
437.09	4447.02
437.28	4187.22
437.46	4304.25
437.65	4346.37
437.84	4081.89
438.02	3794.01
438.21	3634.85
438.40	3786.99
438.58	4175.52
438.77	4159.13
438.96	4273.82
439.14	4461.06
439.33	4617.88
439.52	4601.49
439.70	4517.23
439.89	4475.10
440.08	4355.74
440.26	4355.74
440.45	4428.29
440.63	4678.73
440.82	4915.12
441.01	4908.10
441.19	4931.51
441.38	4898.74
441.57	5151.52
441.75	5146.84
441.94	5219.39
442.12	5078.96
442.31	5188.97
442.50	5198.33
442.68	5158.54
442.87	5163.22
443.05	5149.18
443.24	5064.92
443.43	5142.16
443.61	5308.34
443.80	5320.04
443.98	5200.67
444.17	5228.76
444.35	5268.55
444.54	5303.65
444.73	5378.55
444.91	5266.21
445.10	4975.98
445.28	4854.27
445.47	4636.60
445.65	4620.22
445.84	4807.46
446.02	5020.45
446.21	5015.77
446.39	5109.39
446.58	5034.49
446.77	5228.76
446.95	5343.44
447.14	5619.63
447.32	5540.05
447.51	5479.19
447.69	5406.64
447.88	5212.37
448.06	5156.20
448.25	5226.42
448.43	5533.03
448.62	5249.82
448.80	5268.55
448.99	5298.97
449.17	5392.59
449.36	5235.78
449.54	5500.26
449.73	5589.20
449.91	5582.18
450.10	5881.77
450.28	5982.41
450.46	6010.50
450.65	5696.86
450.83	5898.15
451.02	5713.25
451.20	5692.18
451.39	5701.54
451.57	5544.73
451.76	5570.48
451.94	5556.43
452.13	5579.84
452.31	5331.74
452.49	5191.31
452.68	5137.48
452.86	5050.88
453.05	5348.12
453.23	5289.61
453.42	5366.85
453.60	5507.28
453.78	5640.69
453.97	5654.73
454.15	5554.09
454.34	5472.17
454.52	5535.37
454.70	5214.71
454.89	5509.62
455.07	5275.57
455.26	5383.23
455.44	5809.21
455.62	5888.79
455.81	5837.30
455.99	5661.76
456.17	5666.44
456.36	5619.63
456.54	5841.98
456.73	5804.53
456.91	5912.19
457.09	5928.58
457.28	6047.94
457.46	5881.77
457.64	5907.51
457.83	5682.82
458.01	5493.24
458.19	5540.05
458.38	5636.01
458.56	5853.68
458.74	5867.72
458.93	5898.15
459.11	5806.87
459.29	5717.93
459.48	5631.33
459.66	5736.65
459.84	5767.08
460.03	5879.43
460.21	5874.74
460.39	5930.92
460.57	5870.06
460.76	5951.98
460.94	5968.37
461.12	5975.39
461.31	5973.05
461.49	5888.79
461.67	5664.10
461.85	5975.39
462.04	6221.14
462.22	6490.31
462.40	6249.23
462.59	6024.54
462.77	6090.07
462.95	6157.95
463.13	5973.05
463.32	5895.81
463.50	5858.36
463.68	6038.58
463.86	5937.94
464.05	5912.19
464.23	5731.97
464.41	5738.99
464.59	5563.45
464.78	5750.70
464.96	5933.26
465.14	5816.23
465.32	5975.39
465.50	5961.34
465.69	6097.10
465.87	5973.05
466.05	5912.19
466.23	5771.76
466.41	5544.73
466.60	5671.12
466.78	5687.50
466.96	5755.38
467.14	5937.94
467.32	5858.36
467.51	5935.60
467.69	5650.05
467.87	5720.27
468.05	5912.19
468.23	5893.47
468.41	6015.18
468.60	5980.07
468.78	5827.93
468.96	5774.10
469.14	5736.65
469.32	6008.16
469.50	5809.21
469.69	5795.17
469.87	5631.33
470.05	5701.54
470.23	5589.20
470.41	5750.70
470.59	5811.55
470.77	5788.14
470.95	5954.32
471.14	6169.65
471.32	5891.13
471.50	6375.62
471.68	6289.02
471.86	6260.93
472.04	6242.21
472.22	6445.84
472.40	6099.44
472.58	6038.58
472.77	6040.92
472.95	6207.10
473.13	6333.49
473.31	6157.95
473.49	6171.99
473.67	6216.46
473.85	6303.06
474.03	6387.32
474.21	6534.78
474.39	6457.54
474.57	6597.97
474.75	6539.46
474.93	6494.99
475.12	6361.58
475.30	6354.55
475.48	6380.30
475.66	6485.62
475.84	6466.90
476.02	6424.77
476.20	6289.02
476.38	6445.84
476.56	6436.47
476.74	6633.08
476.92	6628.40
477.10	6752.45
477.28	6839.05
477.46	6885.86
477.64	6991.18
477.82	6991.18
478.00	7162.04
478.18	6960.75
478.36	6862.45
478.54	7030.97
478.72	6867.13
478.90	7152.68
479.08	7375.03
479.26	7522.48
479.44	7557.59
479.62	7314.17
479.80	7332.90
479.98	7449.93
480.16	7531.84
480.34	7463.97
480.52	7550.57
480.70	7620.78
480.88	7339.92
481.06	7665.25
481.24	7824.41
481.41	7815.05
481.59	7997.61
481.77	7812.71
481.95	7845.48
482.13	7698.02
482.31	7770.58
482.49	7941.44
482.67	7964.84
482.85	8140.38
483.03	8116.98
483.21	8318.26
483.39	8362.73
483.57	8025.70
483.74	7985.91
483.92	8028.04
484.10	8095.91
484.28	8238.69
484.46	8573.38
484.64	8400.18
484.82	8301.88
485.00	8060.80
485.18	8091.23
485.35	7932.08
485.53	7485.03
485.71	6696.27
485.89	6717.34
486.07	6906.92
486.25	7421.84
486.43	7908.67
486.61	7974.21
486.78	8084.21
486.96	7901.65
487.14	8351.03
487.32	8355.71
487.50	8664.66
487.68	9111.71
487.85	9130.43
488.03	9125.75
488.21	9067.24
488.39	8858.93
488.57	8851.91
488.75	8587.43
488.92	9013.40
489.10	9406.61
489.28	9954.30
489.46	10057.28
489.64	9956.64
489.81	10164.95
489.99	9912.17
490.17	9907.49
490.35	10022.17
490.53	10122.82
490.70	9734.29
490.88	9724.93
491.06	10073.67
491.24	10092.39
491.41	9731.95
491.59	9572.79
491.77	9050.85
491.95	9312.99
492.13	9589.17
492.30	9961.32
492.48	10305.38
492.66	10391.98
492.84	10415.38
493.01	10445.81
493.19	10214.10
493.37	10277.29
493.54	10090.05
493.72	10366.23
493.90	10485.60
494.08	10752.42
494.25	10988.82
494.43	10860.09
494.61	11129.25
494.79	11194.78
494.96	10977.11
495.14	11023.92
495.32	10569.86
495.49	10068.98
495.67	10717.31
495.85	11260.32
496.02	11332.87
496.20	11171.38
496.38	11016.90
496.55	10988.82
496.73	11293.08
496.91	11412.45
497.09	11393.73
497.26	11548.20
497.44	11349.26
497.62	11206.48
497.79	10881.15
497.97	10689.23
498.14	10576.88
498.32	10848.38
498.50	11283.72
498.67	11452.24
498.85	11398.41
499.03	11363.30
499.20	11482.67
499.38	11751.83
499.56	11627.78
499.73	11580.97
499.91	11180.74
500.08	10995.84
500.26	10548.79
500.44	10885.83
500.61	11061.37
500.79	11122.23
500.97	11014.56
501.14	11077.76
501.32	10607.31
501.49	10668.16
501.67	10595.61
501.84	10939.66
502.02	11052.01
502.20	11136.27
502.37	11187.76
502.55	11044.99
502.72	11286.06
502.90	11761.19
503.07	11213.51
503.25	10899.87
503.43	10644.76
503.60	10422.41
503.78	10113.45
503.95	10317.08
504.13	10707.95
504.30	11321.17
504.48	11363.30
504.65	11236.91
504.83	11683.95
505.01	11595.01
505.18	11534.16
505.36	11875.88
505.53	11728.42
505.71	12131.00
505.88	12147.38
506.06	11815.02
506.23	11983.54
506.41	11552.88
506.58	11323.51
506.76	11325.85
506.93	11367.98
507.11	11419.47
507.28	11456.92
507.46	11419.47
507.63	11150.31
507.81	11061.37
507.98	11204.14
508.16	11435.86
508.33	11609.06
508.50	11894.60
508.68	11990.56
508.85	12215.26
509.03	12072.48
509.20	12109.93
509.38	12002.27
509.55	11606.72
509.73	11576.29
509.90	12086.53
510.08	11939.07
510.25	11903.96
510.42	11777.58
510.60	11967.16
510.77	12035.03
510.95	12334.62
511.12	12205.89
511.30	12376.75
511.47	12514.84
511.64	12905.71
511.82	12437.61
511.99	12224.62
512.17	11845.45
512.34	11644.17
512.51	11861.84
512.69	11960.14
512.86	11913.33
513.04	11981.20
513.21	12030.35
513.38	12018.65
513.56	11836.09
513.73	11805.66
513.90	11669.91
514.08	11730.76
514.25	11915.67
514.43	11939.07
514.60	12060.78
514.77	11967.16
514.95	11985.88
515.12	12018.65
515.29	11873.54
515.47	12325.26
515.64	12435.27
515.81	12170.79
515.99	12042.06
516.16	11396.07
516.33	10574.54
516.51	10157.92
516.68	9809.19
516.85	9771.74
517.03	9701.52
517.20	10431.77
517.37	11597.35
517.54	11887.58
517.72	11922.69
517.89	11150.31
518.06	10054.94
518.24	9877.06
518.41	10897.53
518.58	11349.26
518.75	11328.19
518.93	11637.14
519.10	11358.62
519.27	11513.10
519.45	11688.64
519.62	12212.92
519.79	12166.10
519.96	12250.36
520.14	12341.64
520.31	11843.11
520.48	11836.09
520.65	11751.83
520.83	12086.53
521.00	12250.36
521.17	12372.07
521.34	11981.20
521.52	12166.10
521.69	12510.16
521.86	12624.85
522.03	12678.68
522.20	12119.29
522.38	11557.57
522.55	11454.58
522.72	11705.02
522.89	12065.46
523.07	12241.00
523.24	11974.18
523.41	12336.96
523.58	12311.22
523.75	12975.93
523.92	12739.54
524.10	12636.55
524.27	12524.21
524.44	12430.59
524.61	12446.97
524.78	12360.37
524.96	12205.89
525.13	12269.09
525.30	12638.89
525.47	12678.68
525.64	12690.38
525.81	12510.16
525.98	11936.73
526.16	11157.33
526.33	10836.68
526.50	10565.18
526.67	10567.52
526.84	10930.30
527.01	11173.72
527.18	11683.95
527.36	11915.67
527.53	12383.77
527.70	12531.23
527.87	12273.77
528.04	12189.51
528.21	12138.02
528.38	12608.47
528.55	13081.25
528.72	12971.25
528.89	13202.96
529.07	13011.04
529.24	12688.04
529.41	12318.24
529.58	11967.16
529.75	12168.45
529.92	12191.85
530.09	12409.52
530.26	12627.19
530.43	12999.34
530.60	12692.73
530.77	12912.74
530.94	12915.08
531.11	12828.48
531.28	12355.69
531.46	12390.80
531.63	12709.11
531.80	12585.06
531.97	12238.66
532.14	12088.87
532.31	11655.87
532.48	11267.34
532.65	11363.30
532.82	11517.78
532.99	12060.78
533.16	12465.69
533.33	12507.82
533.50	12627.19
533.67	12358.03
533.84	11868.86
534.01	11988.22
534.18	12205.89
534.35	12297.17
534.52	12126.32
534.69	12245.68
534.86	12439.95
535.03	12395.48
535.20	12767.62
535.37	12973.59
535.54	12884.65
535.71	12943.16
535.88	13165.51
536.05	12608.47
536.22	12315.90
536.38	12046.74
536.55	11899.28
536.72	11803.32
536.89	11658.21
537.06	11976.52
537.23	12397.82
537.40	12568.68
537.57	12290.15
537.74	12545.27
537.91	12634.21
538.08	12425.90
538.25	12395.48
538.42	12489.10
538.59	12695.07
538.75	12229.30
538.92	12156.74
539.09	11941.41
539.26	11861.84
539.43	11896.94
539.60	11655.87
539.77	12037.38
539.94	12051.42
540.11	11939.07
540.28	11496.71
540.44	11632.46
540.61	11531.82
540.78	11658.21
540.95	11971.84
541.12	12411.86
541.29	12191.85
541.46	12418.88
541.62	12643.57
541.79	12564.00
541.96	12465.69
542.13	12229.30
542.30	12428.24
542.47	12524.21
542.63	12493.78
542.80	12182.49
542.97	12306.54
543.14	12121.63
543.31	12088.87
543.48	12421.22
543.64	12727.83
543.81	13142.11
543.98	12989.97
544.15	12842.52
544.32	12505.48
544.48	12273.77
544.65	12547.61
544.82	12685.70
544.99	12390.80
545.16	12210.57
545.32	12212.92
545.49	12870.61
545.66	13888.74
545.83	14312.38
546.00	13474.46
546.16	12727.83
546.33	12657.62
546.50	12622.51
546.67	12379.09
546.83	12217.60
547.00	12203.55
547.17	12091.21
547.34	11880.56
547.50	11595.01
547.67	11880.56
547.84	11826.73
548.00	11892.26
548.17	12187.17
548.34	12327.60
548.51	12194.19
548.67	12444.63
548.84	12367.39
549.01	12332.28
549.18	12091.21
549.34	12042.06
549.51	12079.50
549.68	12131.00
549.84	12098.23
550.01	11985.88
550.18	11885.24
550.34	12070.14
550.51	11936.73
550.68	12072.48
550.84	11641.82
551.01	11707.36
551.18	11885.24
551.34	11922.69
551.51	12070.14
551.68	11913.33
551.84	11936.73
552.01	11978.86
552.18	12093.55
552.34	11630.12
552.51	11602.04
552.68	11438.20
552.84	11580.97
553.01	11641.82
553.18	11602.04
553.34	11875.88
553.51	11889.92
553.67	11803.32
553.84	12020.99
554.01	12025.67
554.17	11761.19
554.34	11726.08
554.51	11831.41
554.67	12039.72
554.84	11992.90
555.00	11967.16
555.17	11709.70
555.33	11761.19
555.50	11637.14
555.67	11777.58
555.83	11716.72
556.00	11576.29
556.16	11531.82
556.33	11360.96
556.50	11124.57
556.66	11248.61
556.83	11171.38
556.99	11283.72
557.16	11229.89
557.32	11232.23
557.49	11426.50
557.65	11524.80
557.82	11283.72
557.98	11398.41
558.15	11279.04
558.32	11005.20
558.48	10684.55
558.65	10637.73
558.81	10902.22
558.98	10883.49
559.14	10993.50
559.31	11035.63
559.47	11126.91
559.64	10806.25
559.80	11147.97
559.97	10703.27
560.13	10899.87
560.30	11115.20
560.46	11417.13
560.63	11503.73
560.79	11468.62
560.96	11625.44
561.12	11129.25
561.29	10593.26
561.45	10686.89
561.61	10855.40
561.78	11070.73
561.94	11044.99
562.11	10927.96
562.27	11000.52
562.44	10920.94
562.60	11026.26
562.77	11080.10
562.93	11187.76
563.10	11255.64
563.26	10937.32
563.42	10934.98
563.59	10916.26
563.75	11143.29
563.92	10906.90
564.08	10855.40
564.24	10988.82
564.41	11080.10
564.57	10848.38
564.74	10726.68
564.90	10759.44
565.07	10874.13
565.23	10644.76
565.39	10326.44
565.56	10338.15
565.72	10279.63
565.88	10387.30
566.05	10441.13
566.21	10286.65
566.38	10576.88
566.54	10698.59
566.70	10682.20
566.87	10885.83
567.03	10892.85
567.19	10862.43
567.36	10553.48
567.52	10707.95
567.68	10717.31
567.85	10265.59
568.01	10073.67
568.17	9970.68
568.34	9844.29
568.50	9872.38
568.66	9720.24
568.83	9809.19
568.99	10003.45
569.15	10115.80
569.32	9994.09
569.48	9956.64
569.64	9811.53
569.81	9799.82
569.97	9724.93
570.13	10127.50
570.30	9963.66
570.46	9713.22
570.62	9626.62
570.78	9582.15
570.95	9626.62
571.11	9706.20
571.27	9769.40
571.43	9888.76
571.60	9713.22
571.76	9834.93
571.92	9942.60
572.09	9996.43
572.25	10218.78
572.41	10218.78
572.57	9998.77
572.74	10045.58
572.90	9856.00
573.06	10064.30
573.22	9898.13
573.38	10033.88
573.55	9837.27
573.71	10043.24
573.87	9905.15
574.03	9734.29
574.20	9673.43
574.36	9701.52
574.52	9652.37
574.68	9923.87
574.84	9563.43
575.01	9710.88
575.17	9586.83
575.33	9565.77
575.49	9678.12
575.65	9570.45
575.82	9577.47
575.98	9385.55
576.14	9694.50
576.30	9720.24
576.46	9982.38
576.62	10052.60
576.79	9980.04
576.95	9741.31
577.11	9729.61
577.27	9792.80
577.43	9603.22
577.59	9661.73
577.75	9460.45
577.92	9462.79
578.08	9256.82
578.24	9224.05
578.40	9254.48
578.56	9605.56
578.72	9717.90
578.88	9844.29
579.04	9870.04
579.21	9607.90
579.37	9657.05
579.53	9619.60
579.69	9486.19
579.85	9631.30
580.01	9551.73
580.17	9661.73
580.33	9633.64
580.49	9565.77
580.65	9687.48
580.82	9523.64
580.98	9870.04
581.14	9741.31
581.30	9582.15
581.46	9703.86
581.62	9797.48
581.78	9806.84
581.94	9834.93
582.10	9818.55
582.26	9802.16
582.42	9685.14
582.58	9987.07
582.74	9769.40
582.90	9895.78
583.06	9860.68
583.22	9984.73
583.38	9659.39
583.54	9724.93
583.70	9834.93
583.86	9682.80
584.02	9984.73
584.18	9839.61
584.34	9743.65
584.50	9617.26
584.66	9406.61
584.82	9462.79
584.98	9467.47
585.14	9469.81
585.30	9202.99
585.46	9249.80
585.62	9160.86
585.78	9085.96
585.94	9202.99
586.10	9228.73
586.26	9090.64
586.42	9427.68
586.58	9348.10
586.74	9406.61
586.90	9369.16
587.06	9277.88
587.22	9240.44
587.38	9121.07
587.54	9069.58
587.70	8641.26
587.86	8369.76
588.02	8116.98
588.18	8070.17
588.34	7786.96
588.49	7265.02
588.65	7066.08
588.81	6590.95
588.97	6654.14
589.13	6836.70
589.29	6839.05
589.45	6530.09
589.61	6736.06
589.77	7176.08
589.93	7061.40
590.08	7503.76
590.24	7786.96
590.40	7868.88
590.56	7583.34
590.72	7786.96
590.88	7529.50
591.04	7700.36
591.20	7723.77
591.35	7761.22
591.51	7620.78
591.67	7473.33
591.83	7325.88
591.99	7307.15
592.15	7454.61
