SpectraSuite Data File
++++++++++++++++++++++++++++++++++++
Date: Fri Oct 04 11:44:25 GMT-05:00 2013
User: price-jones
Dark Spectrum Present: No
Reference Spectrum Present: No
Number of Sampled Component Spectra: 1
Spectrometers: USB2+H05261
Integration Time (usec): 100000 (USB2+H05261)
Spectra Averaged: 1 (USB2+H05261)
Boxcar Smoothing: 0 (USB2+H05261)
Correct for Electrical Dark: No (USB2+H05261)
Strobe/Lamp Enabled: No (USB2+H05261)
Correct for Detector Non-linearity: No (USB2+H05261)
Correct for Stray Light: No (USB2+H05261)
Number of Pixels in Processed Spectrum: 2048
>>>>>Begin Processed Spectral Data<<<<<
365.73	42.13
365.92	42.13
366.12	42.13
366.32	0.00
366.52	0.00
366.72	0.00
366.91	0.00
367.11	0.00
367.31	0.00
367.51	0.00
367.70	0.00
367.90	0.00
368.10	0.00
368.30	0.00
368.49	0.00
368.69	0.00
368.89	0.00
369.09	0.00
369.28	0.00
369.48	0.00
369.68	0.00
369.87	0.00
370.07	0.00
370.27	32.77
370.47	126.39
370.66	280.86
370.86	290.23
371.06	362.78
371.25	409.59
371.45	271.50
371.65	344.06
371.84	196.60
372.04	353.42
372.24	409.59
372.44	395.55
372.63	395.55
372.83	379.17
373.03	367.46
373.22	276.18
373.42	320.65
373.62	334.70
373.81	395.55
374.01	400.23
374.21	400.23
374.40	418.96
374.60	393.21
374.79	315.97
374.99	416.62
375.19	435.34
375.38	447.04
375.58	414.27
375.78	491.51
375.97	458.74
376.17	451.72
376.37	482.15
376.56	463.43
376.76	482.15
376.95	477.47
377.15	533.64
377.35	631.94
377.54	521.94
377.74	582.79
377.93	564.07
378.13	484.49
378.33	543.00
378.52	456.40
378.72	519.60
378.91	500.87
379.11	545.34
379.31	440.02
379.50	496.19
379.70	559.39
379.89	531.30
380.09	540.66
380.28	552.37
380.48	568.75
380.68	543.00
380.87	512.58
381.07	472.79
381.26	484.49
381.46	479.81
381.65	397.89
381.85	327.68
382.04	421.30
382.24	383.85
382.43	365.12
382.63	353.42
382.83	358.10
383.02	393.21
383.22	379.17
383.41	379.17
383.61	402.57
383.80	414.27
384.00	496.19
384.19	538.32
384.39	550.03
384.58	517.26
384.78	608.54
384.97	491.51
385.17	543.00
385.36	468.11
385.56	449.38
385.75	489.17
385.95	496.19
386.14	521.94
386.34	500.87
386.53	524.28
386.72	535.98
386.92	566.41
387.11	545.34
387.31	552.37
387.50	540.66
387.70	547.69
387.89	505.56
388.09	517.26
388.28	458.74
388.48	540.66
388.67	669.39
388.86	634.29
389.06	521.94
389.25	716.20
389.45	671.73
389.64	603.86
389.84	688.12
390.03	643.65
390.22	594.50
390.42	645.99
390.61	755.99
390.81	730.25
391.00	746.63
391.19	746.63
391.39	711.52
391.58	648.33
391.78	641.31
391.97	608.54
392.16	559.39
392.36	624.92
392.55	454.06
392.75	458.74
392.94	407.25
393.13	393.21
393.33	320.65
393.52	451.72
393.71	601.52
393.91	615.56
394.10	631.94
394.29	678.76
394.49	748.97
394.68	842.59
394.88	723.23
395.07	875.36
395.26	807.48
395.46	823.87
395.65	734.93
395.84	662.37
396.04	674.07
396.23	503.22
396.42	454.06
396.62	404.91
396.81	528.96
397.00	624.92
397.19	695.14
397.39	784.08
397.58	940.90
397.77	880.04
397.97	919.83
398.16	1015.79
398.35	947.92
398.55	957.28
398.74	1029.84
398.93	1090.69
399.12	992.39
399.32	1046.22
399.51	980.68
399.70	1158.57
399.90	1100.05
400.09	1107.07
400.28	1027.50
400.47	1132.82
400.67	1174.95
400.86	1144.52
401.05	1186.65
401.24	1093.03
401.44	1198.35
401.63	1224.10
401.82	1254.53
402.01	1130.48
402.21	1142.18
402.40	1130.48
402.59	1118.78
402.78	1130.48
402.97	1039.20
403.17	1114.10
403.36	1249.85
403.55	1205.38
403.74	1238.14
403.93	1266.23
404.13	1205.38
404.32	1111.75
404.51	1184.31
404.70	1188.99
404.89	1095.37
405.09	1249.85
405.28	1167.93
405.47	1102.39
405.66	1086.01
405.85	1100.05
406.05	1114.10
406.24	1093.03
406.43	1125.80
406.62	1144.52
406.81	1226.44
407.00	1231.12
407.20	1137.50
407.39	1090.69
407.58	1170.27
407.77	1254.53
407.96	1315.38
408.15	1315.38
408.34	1268.57
408.54	1341.13
408.73	1329.42
408.92	1383.26
409.11	1306.02
409.30	1235.80
409.49	1116.44
409.68	1130.48
409.87	1125.80
410.07	1144.52
410.26	1181.97
410.45	1282.61
410.64	1348.15
410.83	1320.06
411.02	1385.60
411.21	1366.87
411.40	1420.71
411.59	1409.00
411.78	1401.98
411.98	1362.19
412.17	1458.15
412.36	1345.81
412.55	1371.55
412.74	1425.39
412.93	1378.58
413.12	1343.47
413.31	1437.09
413.50	1453.47
413.69	1451.13
413.88	1577.52
414.07	1362.19
414.26	1317.72
414.45	1533.05
414.64	1425.39
414.83	1556.46
415.02	1366.87
415.22	1504.96
415.41	1488.58
415.60	1516.67
415.79	1551.78
415.98	1575.18
416.17	1481.56
416.36	1554.12
416.55	1533.05
416.74	1486.24
416.93	1383.26
417.12	1451.13
417.31	1533.05
417.50	1434.75
417.69	1474.54
417.88	1514.33
418.07	1535.39
418.26	1533.05
418.45	1490.92
418.64	1516.67
418.83	1486.24
419.02	1586.88
419.21	1556.46
419.39	1430.07
419.58	1392.62
419.77	1437.09
419.96	1511.99
420.15	1591.56
420.34	1598.59
420.53	1507.30
420.72	1673.48
420.91	1668.80
421.10	1645.40
421.29	1629.01
421.48	1563.48
421.67	1755.40
421.86	1675.82
422.05	1561.14
422.24	1238.14
422.43	1385.60
422.61	1439.43
422.80	1619.65
422.99	1614.97
423.18	1600.93
423.37	1544.75
423.56	1570.50
423.75	1619.65
423.94	1519.01
424.13	1521.35
424.32	1476.88
424.50	1537.73
424.69	1481.56
424.88	1619.65
425.07	1418.36
425.26	1488.58
425.45	1399.64
425.64	1441.77
425.83	1476.88
426.01	1638.38
426.20	1544.75
426.39	1469.86
426.58	1451.13
426.77	1469.86
426.96	1345.81
427.15	1390.28
427.33	1404.32
427.52	1530.71
427.71	1530.71
427.90	1453.47
428.09	1511.99
428.28	1479.22
428.46	1413.68
428.65	1371.55
428.84	1530.71
429.03	1544.75
429.22	1404.32
429.40	1320.06
429.59	1270.91
429.78	1121.12
429.97	1081.33
430.16	1062.60
430.34	1088.35
430.53	1107.07
430.72	1100.05
430.91	1224.10
431.10	1366.87
431.28	1582.20
431.47	1692.21
431.66	1739.02
431.85	1743.70
432.03	1561.14
432.22	1481.56
432.41	1495.60
432.60	1549.43
432.79	1652.42
432.97	1755.40
433.16	1657.10
433.35	1636.03
433.54	1420.71
433.72	1479.22
433.91	1383.26
434.10	1558.80
434.28	1493.26
434.47	1778.81
434.66	1748.38
434.85	1678.16
435.03	1729.66
435.22	2005.84
435.41	2256.28
435.59	2399.05
435.78	2218.83
435.97	2022.22
436.16	1776.47
436.34	1872.43
436.53	1811.57
436.72	1778.81
436.90	1701.57
437.09	1652.42
437.28	1703.91
437.46	1687.53
437.65	1694.55
437.84	1619.65
438.02	1568.16
438.21	1577.52
438.40	1668.80
438.58	1715.61
438.77	1741.36
438.96	1706.25
439.14	1743.70
439.33	1750.72
439.52	1895.83
439.70	1762.42
439.89	1832.64
440.08	1933.28
440.26	1696.89
440.45	1820.94
440.63	1909.88
440.82	1926.26
441.01	1980.09
441.19	1944.99
441.38	2003.50
441.57	2076.06
441.75	2127.55
441.94	2085.42
442.12	2012.86
442.31	1952.01
442.50	2080.74
442.68	2064.35
442.87	1935.62
443.05	2106.48
443.24	2136.91
443.43	2031.58
443.61	2101.80
443.80	2216.49
443.98	2059.67
444.17	2017.54
444.35	2218.83
444.54	2200.10
444.73	2125.21
444.91	2115.84
445.10	2001.16
445.28	1884.13
445.47	1973.07
445.65	1902.86
445.84	1949.67
446.02	1966.05
446.21	2040.95
446.39	2083.08
446.58	2066.69
446.77	2064.35
446.95	2038.61
447.14	2179.04
447.32	2122.87
447.51	2071.37
447.69	2054.99
447.88	2017.54
448.06	2169.68
448.25	2270.32
448.43	2127.55
448.62	2111.16
448.80	2071.37
448.99	2085.42
449.17	2230.53
449.36	2139.25
449.54	2277.34
449.73	2108.82
449.91	2284.36
450.10	2270.32
450.28	2338.20
450.46	2485.65
450.65	2331.17
450.83	2284.36
451.02	2235.21
451.20	2169.68
451.39	2223.51
451.57	2207.13
451.76	2228.19
451.94	2331.17
452.13	2069.03
452.31	2239.89
452.49	1921.58
452.68	2071.37
452.86	2125.21
453.05	2174.36
453.23	2099.46
453.42	2134.57
453.60	2200.10
453.78	2298.41
453.97	2242.23
454.15	2125.21
454.34	2169.68
454.52	2162.66
454.70	2108.82
454.89	2221.17
455.07	2260.96
455.26	2150.95
455.44	2244.57
455.62	2307.77
455.81	2296.07
455.99	2207.13
456.17	2087.76
456.36	2246.91
456.54	2307.77
456.73	2324.15
456.91	2399.05
457.09	2244.57
457.28	2349.90
457.46	2312.45
457.64	2260.96
457.83	2298.41
458.01	2176.70
458.19	2193.08
458.38	2260.96
458.56	2335.85
458.74	2361.60
458.93	2181.38
459.11	2211.81
459.29	2249.25
459.48	2249.25
459.66	2354.58
459.84	2284.36
460.03	2450.54
460.21	2473.95
460.39	2464.58
460.57	2377.98
460.76	2382.67
460.94	2359.26
461.12	2464.58
461.31	2422.45
461.49	2385.01
461.67	2300.75
461.85	2473.95
462.04	2392.03
462.22	2944.39
462.40	2499.69
462.59	2406.07
462.77	2368.62
462.95	2480.97
463.13	2487.99
463.32	2396.71
463.50	2363.94
463.68	2328.83
463.86	2406.07
464.05	2392.03
464.23	2284.36
464.41	2134.57
464.59	2312.45
464.78	2356.92
464.96	2370.96
465.14	2338.20
465.32	2272.66
465.50	2338.20
465.69	2434.16
465.87	2314.79
466.05	2356.92
466.23	2200.10
466.41	2186.06
466.60	2235.21
466.78	2223.51
466.96	2246.91
467.14	2382.67
467.32	2312.45
467.51	2436.50
467.69	2307.77
467.87	2195.42
468.05	2375.64
468.23	2422.45
468.41	2303.09
468.60	2300.75
468.78	2305.43
468.96	2307.77
469.14	2345.22
469.32	2345.22
469.50	2375.64
469.69	2296.07
469.87	2349.90
470.05	2167.34
470.23	2150.95
470.41	2256.28
470.59	2410.75
470.77	2300.75
470.95	2380.32
471.14	2377.98
471.32	2509.05
471.50	2537.14
471.68	2422.45
471.86	2473.95
472.04	2525.44
472.22	2555.86
472.40	2417.77
472.58	2480.97
472.77	2338.20
472.95	2448.20
473.13	2537.14
473.31	2518.42
473.49	2499.69
473.67	2448.20
473.85	2448.20
474.03	2473.95
474.21	2516.08
474.39	2546.50
474.57	2518.42
474.75	2434.16
474.93	2492.67
475.12	2464.58
475.30	2434.16
475.48	2511.39
475.66	2555.86
475.84	2553.52
476.02	2452.88
476.20	2513.74
476.38	2551.18
476.56	2534.80
476.74	2715.02
476.92	2574.59
477.10	2642.46
477.28	2693.96
477.46	2752.47
477.64	2832.05
477.82	2888.22
478.00	2815.66
478.18	2822.69
478.36	2672.89
478.54	2642.46
478.72	2612.04
478.90	2916.31
479.08	2883.54
479.26	2972.48
479.44	2984.18
479.62	2871.84
479.80	2958.44
479.98	2818.00
480.16	2841.41
480.34	2778.22
480.52	2888.22
480.70	2920.99
480.88	2885.88
481.06	3012.27
481.24	2899.92
481.41	2951.42
481.59	3215.90
481.77	3080.14
481.95	3122.27
482.13	3227.60
482.31	3150.36
482.49	3218.24
482.67	3150.36
482.85	3173.77
483.03	3222.92
483.21	3105.89
483.39	3143.34
483.57	3255.69
483.74	3103.55
483.92	3283.77
484.10	3122.27
484.28	3281.43
484.46	3283.77
484.64	3262.71
484.82	3274.41
485.00	3304.84
485.18	3279.09
485.35	3173.77
485.53	2906.95
485.71	2654.17
485.89	2593.31
486.07	2789.92
486.25	2949.08
486.43	3192.49
486.61	3229.94
486.78	3211.22
486.96	3227.60
487.14	3211.22
487.32	3262.71
487.50	3321.22
487.68	3576.34
487.85	3648.90
488.03	3679.32
488.21	3702.73
488.39	3435.91
488.57	3449.95
488.75	3407.82
488.92	3728.47
489.10	3585.70
489.28	3843.16
489.46	3801.03
489.64	3896.99
489.81	3854.86
489.99	3815.07
490.17	3948.48
490.35	3829.12
490.53	3946.14
490.70	3749.54
490.88	3871.25
491.06	3882.95
491.24	3960.19
491.41	3904.01
491.59	3637.19
491.77	3552.93
491.95	3684.00
492.13	3707.41
492.30	3716.77
492.48	3920.40
492.66	4105.30
492.84	4009.34
493.01	4053.81
493.19	3957.85
493.37	4032.74
493.54	4016.36
493.72	3941.46
493.90	4114.66
494.08	4255.09
494.25	4243.39
494.43	4276.16
494.61	4339.35
494.79	4395.53
494.96	4311.27
495.14	4273.82
495.32	4166.15
495.49	4133.39
495.67	4252.75
495.85	4372.12
496.02	4461.06
496.20	4358.08
496.38	4409.57
496.55	4208.28
496.73	4348.72
496.91	4386.16
497.09	4505.53
497.26	4374.46
497.44	4320.63
497.62	4294.88
497.79	4217.65
497.97	4072.53
498.14	4051.47
498.32	4173.18
498.50	4421.27
498.67	4468.08
498.85	4454.04
499.03	4535.96
499.20	4566.39
499.38	4477.44
499.56	4414.25
499.73	4493.83
499.91	4428.29
500.08	4355.74
500.26	4180.20
500.44	4191.90
500.61	4339.35
500.79	4198.92
500.97	4093.60
501.14	4255.09
501.32	4133.39
501.49	4177.86
501.67	4215.30
501.84	4266.80
502.02	4341.69
502.20	4374.46
502.37	4489.15
502.55	4290.20
502.72	4313.61
502.90	4468.08
503.07	4287.86
503.25	4219.99
503.43	4074.87
503.60	4011.68
503.78	3908.69
503.95	4044.45
504.13	4114.66
504.30	4344.03
504.48	4147.43
504.65	4428.29
504.83	4468.08
505.01	4432.97
505.18	4444.68
505.36	4517.23
505.53	4631.92
505.71	4652.98
505.88	4657.67
506.06	4526.60
506.23	4512.55
506.41	4266.80
506.58	4517.23
506.76	4531.28
506.93	4339.35
507.11	4507.87
507.28	4458.72
507.46	4294.88
507.63	4208.28
507.81	4236.37
507.98	4278.50
508.16	4367.44
508.33	4374.46
508.50	4512.55
508.68	4678.73
508.85	4652.98
509.03	4674.05
509.20	4856.61
509.38	4716.18
509.55	4475.10
509.73	4620.22
509.90	4592.13
510.08	4524.26
510.25	4683.41
510.42	4449.36
510.60	4592.13
510.77	4711.50
510.95	4784.06
511.12	4561.70
511.30	4854.27
511.47	4706.82
511.64	4999.38
511.82	4814.48
511.99	4770.01
512.17	4690.43
512.34	4718.52
512.51	4454.04
512.69	4643.62
512.86	4685.75
513.04	4746.61
513.21	4606.17
513.38	4615.54
513.56	4538.30
513.73	4631.92
513.90	4449.36
514.08	4475.10
514.25	4683.41
514.43	4664.69
514.60	4606.17
514.77	4615.54
514.95	4753.63
515.12	4542.98
515.29	4587.45
515.47	4833.21
515.64	4781.71
515.81	4784.06
515.99	4617.88
516.16	4477.44
516.33	4236.37
516.51	3925.08
516.68	3922.74
516.85	3882.95
517.03	3721.45
517.20	4088.92
517.37	4526.60
517.54	4526.60
517.72	4664.69
517.89	4348.72
518.06	4091.26
518.24	3960.19
518.41	4159.13
518.58	4500.85
518.75	4332.33
518.93	4568.73
519.10	4461.06
519.27	4440.00
519.45	4564.04
519.62	4720.86
519.79	4734.90
519.96	4695.11
520.14	4828.53
520.31	4503.19
520.48	4650.64
520.65	4505.53
520.83	4702.14
521.00	4777.03
521.17	4772.35
521.34	4786.40
521.52	4816.82
521.69	4795.76
521.86	4880.02
522.03	4791.08
522.20	4760.65
522.38	4479.79
522.55	4645.96
522.72	4716.18
522.89	4622.56
523.07	4711.50
523.24	4528.94
523.41	4842.57
523.58	4723.20
523.75	4978.32
523.92	5055.56
524.10	4889.38
524.27	4833.21
524.44	4830.87
524.61	4800.44
524.78	4744.27
524.96	4795.76
525.13	4861.29
525.30	4919.81
525.47	4847.25
525.64	4880.02
525.81	4891.72
525.98	4725.54
526.16	4493.83
526.33	4348.72
526.50	4180.20
526.67	4152.11
526.84	4198.92
527.01	4393.19
527.18	4400.21
527.36	4566.39
527.53	4762.99
527.70	4954.91
527.87	4807.46
528.04	4793.42
528.21	4816.82
528.38	4844.91
528.55	5123.43
528.72	5074.28
528.89	5008.75
529.07	5198.33
529.24	4884.70
529.41	4772.35
529.58	4781.71
529.75	4709.16
529.92	4849.59
530.09	4828.53
530.26	5029.81
530.43	4936.19
530.60	4858.95
530.77	4933.85
530.94	5132.79
531.11	4865.97
531.28	4973.64
531.46	4905.76
531.63	4922.15
531.80	4931.51
531.97	4823.84
532.14	4784.06
532.31	4463.40
532.48	4418.93
532.65	4344.03
532.82	4681.07
532.99	4695.11
533.16	4910.44
533.33	4992.36
533.50	4947.89
533.67	4842.57
533.84	4709.16
534.01	4660.01
534.18	4793.42
534.35	4837.89
534.52	4938.53
534.69	4978.32
534.86	4699.80
535.03	4931.51
535.20	4959.60
535.37	4983.00
535.54	5111.73
535.71	5055.56
535.88	5050.88
536.05	4844.91
536.22	5036.83
536.38	4697.46
536.55	4610.86
536.72	4526.60
536.89	4648.30
537.06	4711.50
537.23	4896.40
537.40	4933.85
537.57	4814.48
537.74	4835.55
537.91	4945.55
538.08	4987.68
538.25	4767.67
538.42	4713.84
538.59	4943.21
538.75	4873.00
538.92	4971.30
539.09	4774.69
539.26	4814.48
539.43	4596.81
539.60	4873.00
539.77	4774.69
539.94	4896.40
540.11	4723.20
540.28	4725.54
540.44	4557.02
540.61	4674.05
540.78	4685.75
540.95	4849.59
541.12	5128.11
541.29	5015.77
541.46	5170.24
541.62	5095.35
541.79	5043.85
541.96	5067.26
542.13	5041.51
542.30	5102.37
542.47	5071.94
542.63	4983.00
542.80	4968.96
542.97	5006.41
543.14	4980.66
543.31	5020.45
543.48	5001.72
543.64	5107.05
543.81	5270.89
543.98	5394.93
544.15	5078.96
544.32	5071.94
544.48	4994.70
544.65	5184.29
544.82	5200.67
544.99	4964.28
545.16	5149.18
545.32	4901.08
545.49	5383.23
545.66	5830.27
545.83	6078.37
546.00	5830.27
546.16	5359.83
546.33	5289.61
546.50	4950.23
546.67	5104.71
546.83	5041.51
547.00	4873.00
547.17	4807.46
547.34	4795.76
547.50	4744.27
547.67	4865.97
547.84	4732.56
548.00	4718.52
548.17	4849.59
548.34	4936.19
548.51	5043.85
548.67	4950.23
548.84	4877.68
549.01	4943.21
549.18	4863.63
549.34	4802.78
549.51	4858.95
549.68	4718.52
549.84	4688.09
550.01	4704.48
550.18	4943.21
550.34	4737.24
550.51	4826.18
550.68	4816.82
550.84	4744.27
551.01	4875.34
551.18	4638.94
551.34	4704.48
551.51	4800.44
551.68	4842.57
551.84	4851.93
552.01	4847.25
552.18	4568.73
552.34	4784.06
552.51	4514.89
552.68	4503.19
552.84	4564.04
553.01	4587.45
553.18	4545.32
553.34	4720.86
553.51	4671.71
553.67	4770.01
553.84	4849.59
554.01	4821.50
554.17	4664.69
554.34	4727.88
554.51	4564.04
554.67	4798.10
554.84	4674.05
555.00	4629.58
555.17	4648.30
555.33	4624.90
555.50	4564.04
555.67	4601.49
555.83	4479.79
556.00	4617.88
556.16	4613.20
556.33	4390.84
556.50	4374.46
556.66	4393.19
556.83	4461.06
556.99	4444.68
557.16	4318.29
557.32	4390.84
557.49	4582.77
557.65	4456.38
557.82	4442.34
557.98	4440.00
558.15	4447.02
558.32	4304.25
558.48	4210.62
558.65	4201.26
558.81	4322.97
558.98	4287.86
559.14	4348.72
559.31	4297.22
559.47	4428.29
559.64	4187.22
559.80	4372.12
559.97	4292.54
560.13	4313.61
560.30	4299.56
560.46	4564.04
560.63	4393.19
560.79	4386.16
560.96	4428.29
561.12	4287.86
561.29	4229.35
561.45	4145.09
561.61	4318.29
561.78	4477.44
561.94	4402.55
562.11	4428.29
562.27	4182.54
562.44	4189.56
562.60	4409.57
562.77	4404.89
562.93	4461.06
563.10	4372.12
563.26	4379.14
563.42	4400.21
563.59	4222.33
563.75	4234.03
563.92	4297.22
564.08	4386.16
564.24	4444.68
564.41	4381.48
564.57	4388.50
564.74	4292.54
564.90	4334.67
565.07	4337.01
565.23	4187.22
565.39	4098.28
565.56	4077.21
565.72	4175.52
565.88	4084.23
566.05	4109.98
566.21	4145.09
566.38	4128.70
566.54	4156.79
566.70	4252.75
566.87	4189.56
567.03	4124.02
567.19	4369.78
567.36	4222.33
567.52	4152.11
567.68	4128.70
567.85	4077.21
568.01	4107.64
568.17	3927.42
568.34	4028.06
568.50	3920.40
568.66	3875.93
568.83	3946.14
568.99	3871.25
569.15	4002.32
569.32	3946.14
569.48	4102.96
569.64	3817.41
569.81	3871.25
569.97	3887.63
570.13	3941.46
570.30	3751.88
570.46	3742.52
570.62	3791.67
570.78	3679.32
570.95	3758.90
571.11	3744.86
571.27	3904.01
571.43	3875.93
571.60	3932.10
571.76	3971.89
571.92	3962.53
572.09	3976.57
572.25	3899.33
572.41	3936.78
572.57	4060.83
572.74	3927.42
572.90	4021.04
573.06	4063.17
573.22	4016.36
573.38	3843.16
573.55	4004.66
573.71	3971.89
573.87	3946.14
574.03	3810.39
574.20	3763.58
574.36	3700.39
574.52	3852.52
574.68	3707.41
574.84	3693.37
575.01	3681.66
575.17	3740.18
575.33	3679.32
575.49	3833.80
575.65	3772.94
575.82	3854.86
575.98	3763.58
576.14	3733.15
576.30	3899.33
576.46	3955.51
576.62	3946.14
576.79	4063.17
576.95	4007.00
577.11	3894.65
577.27	3875.93
577.43	3803.37
577.59	3988.27
577.75	3775.28
577.92	3679.32
578.08	3599.74
578.24	3831.46
578.40	3684.00
578.56	3854.86
578.72	4046.79
578.88	4028.06
579.04	3936.78
579.21	3843.16
579.37	3896.99
579.53	3777.62
579.69	3836.14
579.85	3833.80
580.01	3967.21
580.17	3936.78
580.33	3747.20
580.49	3789.33
580.65	3833.80
580.82	3796.35
580.98	3899.33
581.14	3969.55
581.30	3922.74
581.46	3899.33
581.62	3894.65
581.78	3850.18
581.94	3983.59
582.10	3824.44
582.26	3904.01
582.42	3875.93
582.58	3992.95
582.74	3946.14
582.90	3946.14
583.06	3955.51
583.22	3997.64
583.38	3997.64
583.54	3894.65
583.70	3843.16
583.86	3925.08
584.02	3911.04
584.18	3843.16
584.34	3962.53
584.50	4004.66
584.66	3857.20
584.82	3794.01
584.98	3719.11
585.14	3812.73
585.30	3763.58
585.46	3632.51
585.62	3475.70
585.78	3625.49
585.94	3676.98
586.10	3740.18
586.26	3756.56
586.42	3784.65
586.58	3758.90
586.74	3840.82
586.90	3723.79
587.06	3791.67
587.22	3737.84
587.38	3555.27
587.54	3543.57
587.70	3506.12
587.86	3377.39
588.02	3293.13
588.18	3117.59
588.34	3000.57
588.49	2895.24
588.65	2801.62
588.81	2712.68
588.97	2780.56
589.13	2675.23
589.29	2626.08
589.45	2651.83
589.61	2766.51
589.77	2913.97
589.93	2864.82
590.08	3016.95
590.24	3152.70
590.40	3143.34
590.56	3054.40
590.72	3126.96
590.88	3094.19
591.04	3045.04
591.20	3227.60
591.35	3091.85
591.51	3035.67
591.67	2970.14
591.83	2918.65
591.99	3021.63
592.15	3012.27
592.31	3220.58
592.46	3267.39
592.62	3199.51
592.78	3419.52
592.94	3297.81
593.10	3243.98
593.26	3279.09
593.41	3290.79
593.57	3297.81
593.73	3171.43
593.89	3087.17
594.05	2963.12
594.20	2876.52
594.36	2895.24
594.52	2906.95
594.68	2825.03
594.84	2979.50
594.99	3045.04
595.15	3131.64
595.31	3105.89
595.47	3246.32
595.62	3225.26
595.78	3049.72
595.94	3164.40
596.10	3215.90
596.25	3316.54
596.41	3159.72
596.57	3077.80
596.73	3150.36
596.88	3145.68
597.04	3187.81
597.20	3033.33
597.36	3105.89
597.51	2993.55
597.67	3098.87
597.83	3133.98
597.99	3243.98
