SpectraSuite Data File
++++++++++++++++++++++++++++++++++++
Date: Fri Oct 04 11:44:15 GMT-05:00 2013
User: price-jones
Dark Spectrum Present: No
Reference Spectrum Present: No
Number of Sampled Component Spectra: 1
Spectrometers: USB2+H05261
Integration Time (usec): 100000 (USB2+H05261)
Spectra Averaged: 1 (USB2+H05261)
Boxcar Smoothing: 0 (USB2+H05261)
Correct for Electrical Dark: No (USB2+H05261)
Strobe/Lamp Enabled: No (USB2+H05261)
Correct for Detector Non-linearity: No (USB2+H05261)
Correct for Stray Light: No (USB2+H05261)
Number of Pixels in Processed Spectrum: 2048
>>>>>Begin Processed Spectral Data<<<<<
365.73	0.00
365.92	0.00
366.12	0.00
366.32	0.00
366.52	0.00
366.72	0.00
366.91	0.00
367.11	0.00
367.31	0.00
367.51	0.00
367.70	0.00
367.90	0.00
368.10	0.00
368.30	0.00
368.49	0.00
368.69	0.00
368.89	0.00
369.09	0.00
369.28	0.00
369.48	0.00
369.68	0.00
369.87	0.00
370.07	14.04
370.27	0.00
370.47	210.65
370.66	699.82
370.86	894.08
371.06	1001.75
371.25	917.49
371.45	933.87
371.65	758.33
371.84	805.14
372.04	854.30
372.24	863.66
372.44	1004.09
372.63	891.74
372.83	976.00
373.03	786.42
373.22	709.18
373.42	835.57
373.62	898.77
373.81	868.34
374.01	929.19
374.21	835.57
374.40	781.74
374.60	851.96
374.79	933.87
374.99	1004.09
375.19	994.73
375.38	1172.61
375.58	1102.39
375.78	1029.84
375.97	1128.14
376.17	1118.78
376.37	1034.52
376.56	1081.33
376.76	1160.91
376.95	1198.35
377.15	1284.95
377.35	1275.59
377.54	1350.49
377.74	1373.89
377.93	1430.07
378.13	1350.49
378.33	1238.14
378.52	1287.29
378.72	1245.16
378.91	1177.29
379.11	1116.44
379.31	1053.24
379.50	1153.88
379.70	1217.08
379.89	1313.04
380.09	1301.34
380.28	1418.36
380.48	1371.55
380.68	1469.86
380.87	1252.19
381.07	1198.35
381.26	1165.59
381.46	1212.40
381.65	1093.03
381.85	1107.07
382.04	1025.15
382.24	910.47
382.43	915.15
382.63	877.70
382.83	840.25
383.02	940.90
383.22	837.91
383.41	919.83
383.61	973.66
383.80	1132.82
384.00	1165.59
384.19	1301.34
384.39	1376.24
384.58	1291.98
384.78	1387.94
384.97	1235.80
385.17	1277.93
385.36	1214.74
385.56	1212.40
385.75	1214.74
385.95	1289.64
386.14	1327.08
386.34	1345.81
386.53	1434.75
386.72	1259.21
386.92	1362.19
387.11	1338.79
387.31	1317.72
387.50	1299.00
387.70	1343.47
387.89	1254.53
388.09	1282.61
388.28	1259.21
388.48	1284.95
388.67	1336.45
388.86	1561.14
389.06	1561.14
389.25	1785.83
389.45	1776.47
389.64	1748.38
389.84	1785.83
390.03	1729.66
390.22	1682.85
390.42	1774.13
390.61	1846.68
390.81	1940.30
391.00	2031.58
391.19	2012.86
391.39	1919.24
391.58	1811.57
391.78	1771.79
391.97	1554.12
392.16	1519.01
392.36	1558.80
392.55	1240.48
392.75	1006.43
392.94	894.08
393.13	800.46
393.33	957.28
393.52	1160.91
393.71	1383.26
393.91	1519.01
394.10	1638.38
394.29	1816.26
394.49	1834.98
394.68	1989.46
394.88	2029.24
395.07	2139.25
395.26	2033.93
395.46	2062.01
395.65	1970.73
395.84	1715.61
396.04	1500.28
396.23	1362.19
396.42	1149.20
396.62	985.37
396.81	1207.72
397.00	1371.55
397.19	1757.74
397.39	2010.52
397.58	2361.60
397.77	2373.30
397.97	2415.43
398.16	2619.06
398.35	2607.36
398.55	2523.10
398.74	2836.73
398.93	2874.18
399.12	2796.94
399.32	2738.43
399.51	2883.54
399.70	2846.09
399.90	2967.80
400.09	2878.86
400.28	2825.03
400.47	2892.90
400.67	3108.23
400.86	3148.02
401.05	3080.14
401.24	3152.70
401.44	3169.09
401.63	3103.55
401.82	3155.04
402.01	3126.96
402.21	3091.85
402.40	3236.96
402.59	3208.87
402.78	3089.51
402.97	2864.82
403.17	3073.12
403.36	3054.40
403.55	3251.00
403.74	3365.69
403.93	3246.32
404.13	3222.92
404.32	3194.83
404.51	3346.97
404.70	3513.14
404.89	3412.50
405.09	3370.37
405.28	3124.62
405.47	3101.21
405.66	3133.98
405.85	3117.59
406.05	2979.50
406.24	3068.44
406.43	3023.97
406.62	3262.71
406.81	3204.19
407.00	3096.53
407.20	3220.58
407.39	3094.19
407.58	3262.71
407.77	3332.92
407.96	3396.12
408.15	3456.97
408.34	3513.14
408.54	3695.71
408.73	3611.45
408.92	3529.53
409.11	3506.12
409.30	3361.01
409.49	3014.61
409.68	2953.76
409.87	2846.09
410.07	2986.52
410.26	3213.56
410.45	3452.29
410.64	3627.83
410.83	3562.30
411.02	3634.85
411.21	3817.41
411.40	3742.52
411.59	3775.28
411.78	3721.45
411.98	3747.20
412.17	3833.80
412.36	3836.14
412.55	3765.92
412.74	3667.62
412.93	3585.70
413.12	3499.10
413.31	3969.55
413.50	3943.80
413.69	3936.78
413.88	3850.18
414.07	3812.73
414.26	3831.46
414.45	3927.42
414.64	3974.23
414.83	3983.59
415.02	3896.99
415.22	3936.78
415.41	3976.57
415.60	4009.34
415.79	4119.34
415.98	4411.91
416.17	4245.73
416.36	4208.28
416.55	3992.95
416.74	4159.13
416.93	3950.82
417.12	3939.12
417.31	3908.69
417.50	4042.11
417.69	4091.26
417.88	4187.22
418.07	4011.68
418.26	4126.36
418.45	4109.98
418.64	4180.20
418.83	4250.41
419.02	4297.22
419.21	4360.42
419.39	4002.32
419.58	3892.31
419.77	3840.82
419.96	4077.21
420.15	4264.46
420.34	4400.21
420.53	4435.32
420.72	4627.24
420.91	4517.23
421.10	4650.64
421.29	4540.64
421.48	4334.67
421.67	4519.57
421.86	4365.10
422.05	4234.03
422.24	3749.54
422.43	3688.68
422.61	3983.59
422.80	4318.29
422.99	4362.76
423.18	4203.60
423.37	4166.15
423.56	4124.02
423.75	4138.07
423.94	4191.90
424.13	4124.02
424.32	4102.96
424.50	4065.51
424.69	4175.52
424.88	4105.30
425.07	3971.89
425.26	4056.15
425.45	4091.26
425.64	4049.13
425.83	3920.40
426.01	4236.37
426.20	4325.31
426.39	4131.05
426.58	4095.94
426.77	3714.43
426.96	3588.04
427.15	3709.75
427.33	3971.89
427.52	4072.53
427.71	4166.15
427.90	4117.00
428.09	4077.21
428.28	3962.53
428.46	3723.79
428.65	3765.92
428.84	3829.12
429.03	3964.87
429.22	3801.03
429.40	3606.77
429.59	3258.03
429.78	2899.92
429.97	2857.79
430.16	2885.88
430.34	2977.16
430.53	2832.05
430.72	3030.99
430.91	3239.30
431.10	3712.09
431.28	4360.42
431.47	4781.71
431.66	4830.87
431.85	4489.15
432.03	4227.01
432.22	4095.94
432.41	4191.90
432.60	4526.60
432.79	4531.28
432.97	4727.88
433.16	4580.43
433.35	4341.69
433.54	3957.85
433.72	3735.50
433.91	3805.71
434.10	4147.43
434.28	4353.40
434.47	4732.56
434.66	4681.07
434.85	4566.39
435.03	4737.24
435.22	5245.14
435.41	6136.88
435.59	6186.04
435.78	5867.72
435.97	5465.15
436.16	5184.29
436.34	5111.73
436.53	5015.77
436.72	4868.31
436.90	4652.98
437.09	4610.86
437.28	4610.86
437.46	4669.37
437.65	4751.29
437.84	4435.32
438.02	4191.90
438.21	3882.95
438.40	4140.41
438.58	4437.66
438.77	4798.10
438.96	4784.06
439.14	4922.15
439.33	4924.49
439.52	5036.83
439.70	5088.32
439.89	5050.88
440.08	4718.52
440.26	4692.77
440.45	4945.55
440.63	5207.69
440.82	5462.81
441.01	5373.87
441.19	5427.70
441.38	5486.22
441.57	5507.28
441.75	5834.96
441.94	5568.13
442.12	5549.41
442.31	5816.23
442.50	5607.92
442.68	5741.33
442.87	5551.75
443.05	5561.11
443.24	5617.29
443.43	5621.97
443.61	5872.40
443.80	5980.07
443.98	5537.71
444.17	5378.55
444.35	5942.62
444.54	5940.28
444.73	5886.45
444.91	5652.39
445.10	5350.46
445.28	5137.48
445.47	5193.65
445.65	5277.91
445.84	5336.42
446.02	5518.98
446.21	5526.00
446.39	5633.67
446.58	5547.07
446.77	5708.57
446.95	5722.61
447.14	5926.24
447.32	6038.58
447.51	5856.02
447.69	5778.78
447.88	5586.86
448.06	5853.68
448.25	5832.62
448.43	5738.99
448.62	5628.99
448.80	5825.59
448.99	5738.99
449.17	5809.21
449.36	5818.57
449.54	6031.56
449.73	6176.67
449.91	6155.61
450.10	6216.46
450.28	6410.73
450.46	6448.18
450.65	6211.78
450.83	6263.27
451.02	6218.80
451.20	6244.55
451.39	6235.19
451.57	5914.53
451.76	6069.01
451.94	6162.63
452.13	6106.46
452.31	5823.25
452.49	5479.19
452.68	5441.75
452.86	5387.91
453.05	5598.56
453.23	5827.93
453.42	5839.64
453.60	6040.92
453.78	6125.18
453.97	6033.90
454.15	6080.71
454.34	5937.94
454.52	6106.46
454.70	5811.55
454.89	5879.43
455.07	5865.38
455.26	5975.39
455.44	6183.70
455.62	6258.59
455.81	6195.40
455.99	6326.47
456.17	6237.53
456.36	6249.23
456.54	6237.53
456.73	6333.49
456.91	6656.48
457.09	6410.73
457.28	6593.29
457.46	6473.92
457.64	6363.92
457.83	6319.45
458.01	5874.74
458.19	6106.46
458.38	6122.84
458.56	6459.88
458.74	6246.89
458.93	6256.25
459.11	6366.26
459.29	6183.70
459.48	6197.74
459.66	6375.62
459.84	6363.92
460.03	6429.45
460.21	6637.76
460.39	6422.43
460.57	6511.37
460.76	6663.51
460.94	6752.45
461.12	6616.69
461.31	6600.31
461.49	6562.86
461.67	6590.95
461.85	6614.35
462.04	6560.52
462.22	7288.43
462.40	6747.76
462.59	6782.87
462.77	6492.65
462.95	6654.14
463.13	6551.16
463.32	6593.29
463.50	6520.73
463.68	6408.39
463.86	6410.73
464.05	6499.67
464.23	6239.87
464.41	6296.04
464.59	6120.50
464.78	6413.07
464.96	6431.79
465.14	6307.74
465.32	6663.51
465.50	6553.50
465.69	6743.08
465.87	6656.48
466.05	6443.49
466.23	6183.70
466.41	5970.71
466.60	6204.76
466.78	6265.61
466.96	6270.30
467.14	6265.61
467.32	6487.96
467.51	6389.66
467.69	6249.23
467.87	6457.54
468.05	6548.82
468.23	6441.15
468.41	6289.02
468.60	6457.54
468.78	6434.13
468.96	6340.51
469.14	6581.59
469.32	6530.09
469.50	6277.32
469.69	6314.77
469.87	6118.16
470.05	6235.19
470.23	6155.61
470.41	6209.44
470.59	6186.04
470.77	6258.59
470.95	6403.71
471.14	6572.22
471.32	6551.16
471.50	6902.24
471.68	6906.92
471.86	6841.39
472.04	6923.30
472.22	7014.59
472.40	6560.52
472.58	6443.49
472.77	6541.80
472.95	6527.75
473.13	6878.83
473.31	6717.34
473.49	6670.53
473.67	6810.96
473.85	6946.71
474.03	6979.48
474.21	6991.18
474.39	6984.16
474.57	7246.30
474.75	7068.42
474.93	7220.55
475.12	7091.82
475.30	6946.71
475.48	6911.60
475.66	7124.59
475.84	6862.45
476.02	6979.48
476.20	6693.93
476.38	7037.99
476.56	7033.31
476.74	7045.01
476.92	7215.87
477.10	7356.30
477.28	7655.89
477.46	7576.31
477.64	7576.31
477.82	7569.29
478.00	7581.00
478.18	7569.29
478.36	7573.97
478.54	7510.78
478.72	7824.41
478.90	7899.31
479.08	7988.25
479.26	8187.19
479.44	8088.89
479.62	8028.04
479.80	8196.56
479.98	8051.44
480.16	8138.04
480.34	8116.98
480.52	8159.11
480.70	8336.99
480.88	8098.25
481.06	8376.78
481.24	8472.74
481.41	8479.76
481.59	8774.67
481.77	8709.13
481.95	8692.75
482.13	8727.86
482.31	8765.31
482.49	8816.80
482.67	8678.71
482.85	8997.02
483.03	8851.91
483.21	9104.68
483.39	8854.25
483.57	8870.63
483.74	8781.69
483.92	8837.86
484.10	8905.74
484.28	9123.41
484.46	9055.53
484.64	9221.71
484.82	9095.32
485.00	9207.67
485.18	8737.22
485.35	8760.63
485.53	8278.47
485.71	7508.44
485.89	7173.74
486.07	7648.87
486.25	8294.86
486.43	8531.25
486.61	8606.15
486.78	8922.12
486.96	8905.74
487.14	9100.00
487.32	9364.48
487.50	9525.98
487.68	9757.69
487.85	9774.08
488.03	9795.14
488.21	9949.62
488.39	9839.61
488.57	9533.00
488.75	9495.55
488.92	9687.48
489.10	10181.33
489.28	10588.58
489.46	10785.19
489.64	10977.11
489.81	11094.14
489.99	10995.84
490.17	10717.31
490.35	11124.57
490.53	10733.70
490.70	10693.91
490.88	10663.48
491.06	10822.64
491.24	10888.17
491.41	10853.06
491.59	10265.59
491.77	9886.42
491.95	10171.97
492.13	10684.55
492.30	10815.62
492.48	11232.23
492.66	11405.43
492.84	11543.52
493.01	11265.00
493.19	11147.97
493.37	11234.57
493.54	10883.49
493.72	11016.90
493.90	11346.92
494.08	11845.45
494.25	11995.25
494.43	12060.78
494.61	12224.62
494.79	11978.86
494.96	12023.33
495.14	12163.76
495.32	11564.59
495.49	11342.24
495.67	11866.52
495.85	12114.61
496.02	12498.46
496.20	12503.14
496.38	12299.52
496.55	11988.22
496.73	12222.28
496.91	12332.28
497.09	12819.11
497.26	12870.61
497.44	12416.54
497.62	12088.87
497.79	11978.86
497.97	11688.64
498.14	11384.37
498.32	11866.52
498.50	12547.61
498.67	12248.02
498.85	12769.96
499.03	12547.61
499.20	12596.76
499.38	12732.51
499.56	12896.35
499.73	12051.42
499.91	12168.45
500.08	12079.50
500.26	11768.21
500.44	11782.26
500.61	12016.31
500.79	12098.23
500.97	11992.90
501.14	11690.98
501.32	11602.04
501.49	11669.91
501.67	11784.60
501.84	12053.76
502.02	12070.14
502.20	12304.20
502.37	12166.10
502.55	12456.33
502.72	12559.31
502.90	12800.39
503.07	12351.01
503.25	12065.46
503.43	11595.01
503.60	11262.66
503.78	11068.39
503.95	11265.00
504.13	11929.71
504.30	12428.24
504.48	12456.33
504.65	12332.28
504.83	12411.86
505.01	12477.40
505.18	12903.37
505.36	13008.70
505.53	12437.61
505.71	12868.27
505.88	13275.52
506.06	12819.11
506.23	12868.27
506.41	12521.87
506.58	12910.40
506.76	12659.96
506.93	12947.84
507.11	12437.61
507.28	12617.83
507.46	12416.54
507.63	12086.53
507.81	12348.67
507.98	12458.67
508.16	12453.99
508.33	12723.15
508.50	12807.41
508.68	13043.81
508.85	13504.89
509.03	13343.39
509.20	13280.20
509.38	13097.64
509.55	12727.83
509.73	12428.24
509.90	12996.99
510.08	13088.28
510.25	13179.56
510.42	13111.68
510.60	13074.23
510.77	13097.64
510.95	13465.10
511.12	13516.59
511.30	13628.94
511.47	13678.09
511.64	13832.57
511.82	13963.64
511.99	13327.01
512.17	12929.12
512.34	12739.54
512.51	12865.92
512.69	12676.34
512.86	13092.96
513.04	13167.85
513.21	13444.04
513.38	13266.16
513.56	12683.36
513.73	12535.91
513.90	12737.20
514.08	12496.12
514.25	12798.05
514.43	12692.73
514.60	13139.77
514.77	12933.80
514.95	13149.13
515.12	13137.43
515.29	13231.05
515.47	13446.38
515.64	13762.35
515.81	13472.12
515.99	13062.53
516.16	12521.87
516.33	11740.13
516.51	10953.71
516.68	10714.97
516.85	10616.67
517.03	10473.90
517.20	11606.72
517.37	12468.03
517.54	13099.98
517.72	12905.71
517.89	11824.39
518.06	11119.89
518.24	11035.63
518.41	11819.71
518.58	12409.52
518.75	12711.45
518.93	12929.12
519.10	12409.52
519.27	12819.11
519.45	12954.87
519.62	13184.24
519.79	13310.63
519.96	13317.65
520.14	13116.36
520.31	12650.60
520.48	12624.85
520.65	12566.34
520.83	13348.08
521.00	13500.21
521.17	13193.60
521.34	12982.95
521.52	13228.71
521.69	13336.37
521.86	13776.39
522.03	13666.39
522.20	13125.72
522.38	12400.16
522.55	12514.84
522.72	12814.43
522.89	12875.29
523.07	12896.35
523.24	13041.46
523.41	13619.58
523.58	13465.10
523.75	13809.16
523.92	13830.23
524.10	13916.83
524.27	13919.17
524.44	13827.88
524.61	13755.33
524.78	13554.04
524.96	13614.90
525.13	13399.57
525.30	13584.47
525.47	13748.31
525.64	13802.14
525.81	13476.80
525.98	13116.36
526.16	12138.02
526.33	11847.79
526.50	11765.87
526.67	11550.54
526.84	11702.68
527.01	12037.38
527.18	12683.36
527.36	12961.89
527.53	13191.26
527.70	13380.84
527.87	13345.73
528.04	13036.78
528.21	13165.51
528.38	13607.87
528.55	13928.53
528.72	13968.32
528.89	14279.61
529.07	14202.37
529.24	13839.59
529.41	13540.00
529.58	13308.29
529.75	13287.22
529.92	13516.59
530.09	13577.45
530.26	13755.33
530.43	14012.79
530.60	14001.08
530.77	14033.85
530.94	14356.85
531.11	13518.93
531.28	13633.62
531.46	13631.28
531.63	13891.08
531.80	13830.23
531.97	13460.42
532.14	13212.32
532.31	12606.13
532.48	12360.37
532.65	12304.20
532.82	12688.04
532.99	13036.78
533.16	13228.71
533.33	13500.21
533.50	13774.05
533.67	13319.99
533.84	13132.75
534.01	13385.52
534.18	13165.51
534.35	13427.65
534.52	13261.48
534.69	13577.45
534.86	13617.24
535.03	13568.09
535.20	13748.31
535.37	14083.00
535.54	14291.31
535.71	14043.21
535.88	14073.64
536.05	13514.25
536.22	13514.25
536.38	13146.79
536.55	13095.30
536.72	12917.42
536.89	12725.49
537.06	13083.59
537.23	13535.32
537.40	13884.06
537.57	14054.92
537.74	13816.18
537.91	13671.07
538.08	13509.57
538.25	13640.64
538.42	13734.26
538.59	13680.43
538.75	13542.34
538.92	13235.73
539.09	12989.97
539.26	13046.15
539.43	13055.51
539.60	13209.98
539.77	13193.60
539.94	13362.12
540.11	12996.99
540.28	12896.35
540.44	12657.62
540.61	13088.28
540.78	13130.41
540.95	13165.51
541.12	13752.99
541.29	14087.68
541.46	14153.22
541.62	14174.28
541.79	14031.51
541.96	13816.18
542.13	14059.60
542.30	13708.52
542.47	13720.22
542.63	13713.20
542.80	13823.20
542.97	13586.81
543.14	13387.86
543.31	13275.52
543.48	13844.27
543.64	14068.96
543.81	14291.31
543.98	13844.27
544.15	14101.73
544.32	13486.17
544.48	13547.02
544.65	13664.05
544.82	13912.14
544.99	13844.27
545.16	13752.99
545.32	13865.33
545.49	14743.03
545.66	15976.50
545.83	16664.61
546.00	15887.56
546.16	14846.02
546.33	14073.64
546.50	13973.00
546.67	13954.27
546.83	13549.36
547.00	13785.76
547.17	13319.99
547.34	13128.06
547.50	13076.57
547.67	13153.81
547.84	13202.96
548.00	13198.28
548.17	13383.18
548.34	13944.91
548.51	13427.65
548.67	13511.91
548.84	13593.83
549.01	13392.55
549.18	13184.24
549.34	13270.84
549.51	13268.50
549.68	13432.33
549.84	13224.03
550.01	12936.14
550.18	13207.64
550.34	13224.03
550.51	13116.36
550.68	13025.08
550.84	12807.41
551.01	12755.92
551.18	12793.37
551.34	12748.90
551.51	13301.26
551.68	13137.43
551.84	13235.73
552.01	13401.91
552.18	13114.02
552.34	12842.52
552.51	12528.89
552.68	12444.63
552.84	12697.41
553.01	12931.46
553.18	12884.65
553.34	12931.46
553.51	12894.01
553.67	12999.34
553.84	13064.87
554.01	12954.87
554.17	12987.63
554.34	12875.29
554.51	12908.05
554.67	12847.20
554.84	12912.74
555.00	12985.29
555.17	12936.14
555.33	12755.92
555.50	12875.29
555.67	12697.41
555.83	12671.66
556.00	12484.42
556.16	12741.88
556.33	12498.46
556.50	12318.24
556.66	12198.87
556.83	12201.21
556.99	12189.51
557.16	12184.83
557.32	12264.41
557.49	12280.79
557.65	12184.83
557.82	12336.96
557.98	12269.09
558.15	12444.63
558.32	11908.65
558.48	11630.12
558.65	11653.53
558.81	11705.02
558.98	11798.64
559.14	11838.43
559.31	11758.85
559.47	11943.75
559.64	11950.78
559.80	11690.98
559.97	11662.89
560.13	11997.59
560.30	12100.57
560.46	12500.80
560.63	12372.07
560.79	12582.72
560.96	12524.21
561.12	11878.22
561.29	11424.15
561.45	11534.16
561.61	11674.59
561.78	12255.04
561.94	11854.81
562.11	12109.93
562.27	11866.52
562.44	11990.56
562.60	12131.00
562.77	12229.30
562.93	12170.79
563.10	12205.89
563.26	12119.29
563.42	12149.72
563.59	11634.80
563.75	11829.07
563.92	11852.47
564.08	11761.19
564.24	11878.22
564.41	11840.77
564.57	11831.41
564.74	11796.30
564.90	11751.83
565.07	11726.08
565.23	11716.72
565.39	11314.15
565.56	11246.27
565.72	11044.99
565.88	11192.44
566.05	11335.21
566.21	11433.52
566.38	11370.32
566.54	11522.46
566.70	11552.88
566.87	11826.73
567.03	11660.55
567.19	11866.52
567.36	11595.01
567.52	11407.77
567.68	11452.24
567.85	11108.18
568.01	10864.77
568.17	10707.95
568.34	10558.16
568.50	10600.29
568.66	10576.88
568.83	10979.45
568.99	10771.15
569.15	10934.98
569.32	10890.51
569.48	10850.72
569.64	10677.52
569.81	10656.46
569.97	10642.42
570.13	11033.29
570.30	10953.71
570.46	10820.30
570.62	10317.08
570.78	10429.43
570.95	10356.87
571.11	10506.66
571.27	10759.44
571.43	10602.63
571.60	10429.43
571.76	10553.48
571.92	10829.66
572.09	10927.96
572.25	10855.40
572.41	10857.75
572.57	10787.53
572.74	10925.62
572.90	10815.62
573.06	10654.12
573.22	10747.74
573.38	10658.80
573.55	10628.37
573.71	10850.72
573.87	10853.06
574.03	10698.59
574.20	10623.69
574.36	10614.33
574.52	10424.75
574.68	10431.77
574.84	10380.28
575.01	10228.14
575.17	10380.28
575.33	10509.01
575.49	10464.54
575.65	10373.25
575.82	10235.16
575.98	10178.99
576.14	10478.58
576.30	10509.01
576.46	10672.84
576.62	11145.63
576.79	11232.23
576.95	10815.62
577.11	10682.20
577.27	10572.20
577.43	10590.92
577.59	10389.64
577.75	10434.11
577.92	10319.42
578.08	10174.31
578.24	10120.48
578.40	10291.34
578.56	10635.39
578.72	10780.51
578.88	11016.90
579.04	10860.09
579.21	10569.86
579.37	10513.69
579.53	10677.52
579.69	10462.19
579.85	10729.02
580.01	10740.72
580.17	10679.86
580.33	10485.60
580.49	10628.37
580.65	10567.52
580.82	10565.18
580.98	10698.59
581.14	10415.38
581.30	10752.42
581.46	10796.89
581.62	10661.14
581.78	10562.84
581.94	10693.91
582.10	10881.15
582.26	11037.97
582.42	10555.82
582.58	10815.62
582.74	10675.18
582.90	10923.28
583.06	10782.85
583.22	10352.19
583.38	10640.08
583.54	10665.82
583.70	10721.99
583.86	10714.97
584.02	10420.06
584.18	10813.28
584.34	10626.03
584.50	10567.52
584.66	10642.42
584.82	10396.66
584.98	10415.38
585.14	10204.74
585.30	10146.22
585.46	10092.39
585.62	9912.17
585.78	10024.51
585.94	9930.89
586.10	10225.80
586.26	9846.63
586.42	10214.10
586.58	10267.93
586.74	10136.86
586.90	10171.97
587.06	10279.63
587.22	10221.12
587.38	9827.91
587.54	9909.83
587.70	9713.22
587.86	9144.47
588.02	8945.53
588.18	8840.20
588.34	8496.14
588.49	7838.45
588.65	7431.20
588.81	7243.96
588.97	7375.03
589.13	7332.90
589.29	7056.72
589.45	7262.68
589.61	7421.84
589.77	7609.08
589.93	7971.86
590.08	8210.60
590.24	8549.98
590.40	8491.46
590.56	8390.82
590.72	8423.59
