SpectraSuite Data File
++++++++++++++++++++++++++++++++++++
Date: Fri Oct 04 11:44:15 GMT-05:00 2013
User: price-jones
Dark Spectrum Present: No
Reference Spectrum Present: No
Number of Sampled Component Spectra: 1
Spectrometers: USB2+H05261
Integration Time (usec): 100000 (USB2+H05261)
Spectra Averaged: 1 (USB2+H05261)
Boxcar Smoothing: 0 (USB2+H05261)
Correct for Electrical Dark: No (USB2+H05261)
Strobe/Lamp Enabled: No (USB2+H05261)
Correct for Detector Non-linearity: No (USB2+H05261)
Correct for Stray Light: No (USB2+H05261)
Number of Pixels in Processed Spectrum: 2048
>>>>>Begin Processed Spectral Data<<<<<
365.73	49.15
365.92	49.15
366.12	49.15
366.32	0.00
366.52	0.00
366.72	0.00
366.91	7.02
367.11	0.00
367.31	0.00
367.51	0.00
367.70	0.00
367.90	0.00
368.10	14.04
368.30	0.00
368.49	0.00
368.69	0.00
368.89	0.00
369.09	0.00
369.28	0.00
369.48	0.00
369.68	0.00
369.87	42.13
370.07	0.00
370.27	0.00
370.47	173.20
370.66	751.31
370.86	842.59
371.06	882.38
371.25	868.34
371.45	821.53
371.65	660.03
371.84	697.48
372.04	734.93
372.24	725.57
372.44	866.00
372.63	800.46
372.83	777.06
373.03	683.44
373.22	648.33
373.42	720.88
373.62	741.95
373.81	856.64
374.01	856.64
374.21	777.06
374.40	697.48
374.60	837.91
374.79	912.81
374.99	938.55
375.19	1011.11
375.38	957.28
375.58	959.62
375.78	917.49
375.97	924.51
376.17	945.58
376.37	1001.75
376.56	990.05
376.76	1083.67
376.95	1116.44
377.15	1196.01
377.35	1137.50
377.54	1256.87
377.74	1296.66
377.93	1219.42
378.13	1158.57
378.33	1064.94
378.52	1111.75
378.72	1071.97
378.91	1020.47
379.11	929.19
379.31	1034.52
379.50	922.17
379.70	997.07
379.89	1200.69
380.09	1156.22
380.28	1132.82
380.48	1177.29
380.68	1158.57
380.87	1170.27
381.07	1064.94
381.26	1071.97
381.46	987.71
381.65	987.71
381.85	880.04
382.04	957.28
382.24	830.89
382.43	858.98
382.63	788.76
382.83	758.33
383.02	830.89
383.22	861.32
383.41	819.19
383.61	819.19
383.80	926.85
384.00	1032.18
384.19	1146.86
384.39	1156.22
384.58	1114.10
384.78	1193.67
384.97	1214.74
385.17	1123.46
385.36	1062.60
385.56	1057.92
385.75	1055.58
385.95	1203.04
386.14	1266.23
386.34	1284.95
386.53	1170.27
386.72	1055.58
386.92	1219.42
387.11	1226.44
387.31	1235.80
387.50	1233.46
387.70	1125.80
387.89	1217.08
388.09	1060.26
388.28	1186.65
388.48	1121.12
388.67	1334.11
388.86	1425.39
389.06	1533.05
389.25	1453.47
389.45	1526.03
389.64	1533.05
389.84	1540.07
390.03	1511.99
390.22	1519.01
390.42	1671.14
390.61	1579.86
390.81	1724.97
391.00	1722.63
391.19	1781.15
391.39	1806.89
391.58	1624.33
391.78	1612.63
391.97	1444.11
392.16	1425.39
392.36	1275.59
392.55	1135.16
392.75	826.21
392.94	741.95
393.13	772.38
393.33	980.68
393.52	1118.78
393.71	1256.87
393.91	1397.30
394.10	1366.87
394.29	1584.54
394.49	1741.36
394.68	1874.77
394.88	1898.17
395.07	1806.89
395.26	1893.49
395.46	1813.92
395.65	1823.28
395.84	1570.50
396.04	1430.07
396.23	1050.90
396.42	1015.79
396.62	987.71
396.81	1093.03
397.00	1329.42
397.19	1629.01
397.39	1818.60
397.58	1952.01
397.77	2202.44
397.97	2221.17
398.16	2186.06
398.35	2293.72
398.55	2408.41
398.74	2518.42
398.93	2490.33
399.12	2551.18
399.32	2492.67
399.51	2427.14
399.70	2588.63
399.90	2553.52
400.09	2658.85
400.28	2612.04
400.47	2619.06
400.67	2719.70
400.86	2691.62
401.05	2808.64
401.24	2869.50
401.44	2832.05
401.63	2883.54
401.82	2857.79
402.01	2757.15
402.21	2820.35
402.40	2843.75
402.59	2778.22
402.78	2658.85
402.97	2614.38
403.17	2698.64
403.36	2864.82
403.55	3042.70
403.74	2949.08
403.93	2977.16
404.13	2932.69
404.32	2853.11
404.51	2972.48
404.70	3028.65
404.89	2939.71
405.09	2935.03
405.28	2780.56
405.47	2773.53
405.66	2759.49
405.85	2745.45
406.05	2612.04
406.24	2799.28
406.43	2810.98
406.62	2888.22
406.81	2813.32
407.00	2820.35
407.20	2677.57
407.39	2813.32
407.58	2895.24
407.77	2958.44
407.96	3073.12
408.15	2988.86
408.34	3131.64
408.54	3169.09
408.73	3180.79
408.92	3171.43
409.11	3023.97
409.30	3002.91
409.49	2799.28
409.68	2712.68
409.87	2551.18
410.07	2778.22
410.26	2780.56
410.45	3094.19
410.64	3101.21
410.83	3246.32
411.02	3410.16
411.21	3332.92
411.40	3386.76
411.59	3382.07
411.78	3459.31
411.98	3365.69
412.17	3344.63
412.36	3405.48
412.55	3351.65
412.74	3346.97
412.93	3162.06
413.12	3274.41
413.31	3414.84
413.50	3536.55
413.69	3508.46
413.88	3471.01
414.07	3342.28
414.26	3508.46
414.45	3471.01
414.64	3569.32
414.83	3606.77
415.02	3531.87
415.22	3424.20
415.41	3698.05
415.60	3681.66
415.79	3920.40
415.98	3779.97
416.17	3847.84
416.36	3882.95
416.55	3815.07
416.74	3648.90
416.93	3564.64
417.12	3438.25
417.31	3630.17
417.50	3641.87
417.69	3723.79
417.88	3702.73
418.07	3641.87
418.26	3669.96
418.45	3597.40
418.64	3716.77
418.83	3929.76
419.02	3768.26
419.21	3805.71
419.39	3726.13
419.58	3529.53
419.77	3595.06
419.96	3620.81
420.15	3826.78
420.34	4030.40
420.53	4093.60
420.72	4053.81
420.91	4138.07
421.10	4095.94
421.29	4102.96
421.48	3927.42
421.67	4028.06
421.86	3896.99
422.05	3702.73
422.24	3351.65
422.43	3449.95
422.61	3515.48
422.80	3899.33
422.99	3864.22
423.18	3791.67
423.37	3777.62
423.56	3808.05
423.75	3768.26
423.94	3730.81
424.13	3634.85
424.32	3714.43
424.50	3641.87
424.69	3674.64
424.88	3735.50
425.07	3667.62
425.26	3648.90
425.45	3571.66
425.64	3407.82
425.83	3492.08
426.01	3616.13
426.20	3822.09
426.39	3943.80
426.58	3492.08
426.77	3445.27
426.96	3321.22
427.15	3265.05
427.33	3531.87
427.52	3620.81
427.71	3726.13
427.90	3646.55
428.09	3627.83
428.28	3641.87
428.46	3339.94
428.65	3351.65
428.84	3466.33
429.03	3520.17
429.22	3346.97
429.40	3126.96
429.59	3014.61
429.78	2693.96
429.97	2722.04
430.16	2614.38
430.34	2705.66
430.53	2630.76
430.72	2539.48
430.91	2972.48
431.10	3337.60
431.28	3901.67
431.47	4196.58
431.66	4273.82
431.85	4067.85
432.03	3714.43
432.22	3578.68
432.41	3861.88
432.60	4032.74
432.79	4086.58
432.97	4077.21
433.16	4266.80
433.35	3864.22
433.54	3513.14
433.72	3438.25
433.91	3529.53
434.10	3817.41
434.28	3927.42
434.47	4201.26
434.66	4112.32
434.85	4170.83
435.03	4189.56
435.22	4744.27
435.41	5722.61
435.59	5561.11
435.78	5193.65
435.97	5060.24
436.16	4660.01
436.34	4601.49
436.53	4451.70
436.72	4444.68
436.90	4229.35
437.09	4212.96
437.28	4058.49
437.46	4191.90
437.65	4229.35
437.84	3992.95
438.02	3698.05
438.21	3693.37
438.40	3812.73
438.58	4018.70
438.77	4255.09
438.96	4238.71
439.14	4451.70
439.33	4524.26
439.52	4472.76
439.70	4592.13
439.89	4477.44
440.08	4308.93
440.26	4210.62
440.45	4493.83
440.63	4615.54
440.82	4849.59
441.01	4795.76
441.19	4844.91
441.38	4847.25
441.57	5032.15
441.75	5085.98
441.94	5142.16
442.12	5022.79
442.31	4945.55
442.50	5179.61
442.68	5013.43
442.87	5032.15
443.05	5043.85
443.24	5043.85
443.43	5095.35
443.61	5214.71
443.80	5369.19
443.98	4922.15
444.17	4999.38
444.35	5186.63
444.54	5329.40
444.73	5153.86
444.91	5036.83
445.10	4807.46
445.28	4681.07
445.47	4758.31
445.65	4669.37
445.84	4826.18
446.02	4947.89
446.21	4821.50
446.39	4997.04
446.58	5163.22
446.77	5100.03
446.95	5156.20
447.14	5107.05
447.32	5509.62
447.51	5233.44
447.69	5130.45
447.88	5139.82
448.06	5132.79
448.25	5177.26
448.43	5289.61
448.62	5078.96
448.80	5214.71
448.99	5254.50
449.17	5205.35
449.36	5074.28
449.54	5404.30
449.73	5502.60
449.91	5687.50
450.10	5757.72
450.28	5694.52
450.46	5671.12
450.65	5750.70
450.83	5666.44
451.02	5617.29
451.20	5596.22
451.39	5661.76
451.57	5584.52
451.76	5404.30
451.94	5460.47
452.13	5439.40
452.31	5331.74
452.49	4936.19
452.68	5022.79
452.86	5041.51
453.05	5125.77
453.23	5198.33
453.42	5142.16
453.60	5383.23
453.78	5425.36
453.97	5467.49
454.15	5418.34
454.34	5245.14
454.52	5238.12
454.70	5280.25
454.89	5432.38
455.07	5378.55
455.26	5448.77
455.44	5521.32
455.62	5834.96
455.81	5799.85
455.99	5458.13
456.17	5572.82
456.36	5762.40
456.54	5612.60
456.73	5912.19
456.91	5867.72
457.09	5961.34
457.28	5921.56
457.46	5877.09
457.64	5731.97
457.83	5542.39
458.01	5504.94
458.19	5614.95
458.38	5502.60
458.56	5776.44
458.74	5746.02
458.93	5661.76
459.11	5652.39
459.29	5607.92
459.48	5706.23
459.66	5682.82
459.84	5717.93
460.03	5811.55
460.21	5689.84
460.39	5872.40
460.57	5902.83
460.76	5923.90
460.94	5940.28
461.12	5813.89
461.31	5806.87
461.49	5970.71
461.67	5830.27
461.85	6047.94
462.04	6029.22
462.22	6546.48
462.40	6045.60
462.59	6052.63
462.77	5994.11
462.95	5996.45
463.13	5830.27
463.32	5783.46
463.50	5888.79
463.68	5851.34
463.86	5830.27
464.05	5809.21
464.23	5631.33
464.41	5640.69
464.59	5446.43
464.78	5877.09
464.96	5746.02
465.14	5603.24
465.32	5870.06
465.50	5937.94
465.69	6080.71
465.87	5959.00
466.05	5748.36
466.23	5572.82
466.41	5394.93
466.60	5486.22
466.78	5607.92
466.96	5694.52
467.14	5729.63
467.32	5902.83
467.51	5916.87
467.69	5579.84
467.87	5682.82
468.05	5982.41
468.23	5696.86
468.41	5771.76
468.60	5729.63
468.78	5853.68
468.96	5582.18
469.14	5930.92
469.32	5858.36
469.50	5500.26
469.69	5675.80
469.87	5537.71
470.05	5495.58
470.23	5460.47
470.41	5537.71
470.59	5582.18
470.77	5764.74
470.95	5863.04
471.14	5966.03
471.32	5893.47
471.50	6176.67
471.68	6249.23
471.86	6274.98
472.04	6347.53
472.22	6267.95
472.40	5900.49
472.58	5809.21
472.77	5781.12
472.95	6045.60
473.13	6253.91
473.31	6101.78
473.49	6071.35
473.67	6139.23
473.85	6202.42
474.03	6382.64
474.21	6359.24
474.39	6429.45
474.57	6361.58
474.75	6382.64
474.93	6406.05
475.12	6214.12
475.30	6277.32
475.48	6195.40
475.66	6342.85
475.84	6132.20
476.02	6179.01
476.20	6139.23
476.38	6284.34
476.56	6480.94
476.74	6546.48
476.92	6616.69
477.10	6609.67
477.28	6839.05
477.46	6792.23
477.64	6846.07
477.82	7056.72
478.00	6988.84
478.18	6740.74
478.36	6745.42
478.54	6848.41
478.72	6846.07
478.90	7061.40
479.08	7227.57
479.26	7435.88
479.44	7248.64
479.62	7157.36
479.80	7204.17
479.98	7368.01
480.16	7283.75
480.34	7346.94
480.52	7456.95
480.70	7349.28
480.88	7358.64
481.06	7421.84
481.24	7714.41
481.41	7833.77
481.59	7908.67
481.77	7756.54
481.95	7740.15
482.13	7978.89
482.31	7796.32
482.49	7679.30
482.67	7786.96
482.85	7988.25
483.03	7946.12
483.21	8156.77
483.39	8039.74
483.57	7997.61
483.74	7878.24
483.92	7964.84
484.10	7786.96
484.28	8205.92
484.46	8402.52
484.64	8475.08
484.82	8121.66
485.00	7962.50
485.18	7911.01
485.35	7557.59
485.53	7398.43
485.71	6626.06
485.89	6452.86
486.07	6761.81
486.25	7407.80
486.43	7695.68
486.61	7960.16
486.78	7854.84
486.96	7992.93
487.14	8217.62
487.32	8472.74
487.50	8732.54
487.68	8870.63
487.85	9025.11
488.03	8994.68
488.21	9036.81
488.39	8926.80
488.57	8746.58
488.75	8477.42
488.92	8835.52
489.10	9217.03
489.28	9804.50
489.46	9961.32
489.64	9530.66
489.81	9771.74
489.99	9802.16
490.17	9525.98
490.35	10017.49
490.53	9926.21
490.70	9591.52
490.88	9776.42
491.06	9860.68
491.24	9778.76
491.41	9619.60
491.59	9029.79
491.77	8936.17
491.95	8992.34
492.13	9301.29
492.30	9652.37
492.48	10197.71
492.66	10181.33
492.84	10384.96
493.01	10265.59
493.19	10001.11
493.37	9900.47
493.54	9958.98
493.72	9949.62
493.90	10441.13
494.08	10588.58
494.25	10897.53
494.43	10661.14
494.61	10885.83
494.79	10824.98
494.96	10958.39
495.14	10686.89
495.32	10487.94
495.49	10272.61
495.67	10289.00
495.85	10942.00
496.02	11239.25
496.20	10953.71
496.38	10932.64
496.55	10796.89
496.73	10916.26
496.91	10930.30
497.09	11550.54
497.26	11159.67
497.44	11084.78
497.62	11206.48
497.79	10614.33
497.97	10246.87
498.14	10164.95
498.32	10539.43
498.50	11084.78
498.67	11302.45
498.85	11183.08
499.03	11412.45
499.20	11349.26
499.38	11344.58
499.56	11257.98
499.73	11262.66
499.91	11201.80
500.08	10944.34
500.26	10677.52
500.44	10691.57
500.61	11124.57
500.79	10815.62
500.97	10757.10
501.14	10789.87
501.32	10663.48
501.49	10574.54
501.67	10415.38
501.84	10764.12
502.02	11066.05
502.20	11222.87
502.37	10958.39
502.55	10909.24
502.72	11136.27
502.90	11115.20
503.07	10972.43
503.25	10736.04
503.43	10487.94
503.60	10122.82
503.78	9898.13
503.95	9989.41
504.13	10682.20
504.30	11152.65
504.48	11171.38
504.65	11183.08
504.83	11105.84
505.01	11236.91
505.18	11473.31
505.36	11620.76
505.53	11667.57
505.71	11756.51
505.88	11761.19
506.06	11726.08
506.23	11351.60
506.41	11424.15
506.58	11239.25
506.76	11485.01
506.93	11164.36
507.11	11389.05
507.28	11311.81
507.46	11176.06
507.63	10991.16
507.81	10832.00
507.98	10932.64
508.16	11309.47
508.33	11552.88
508.50	11513.10
508.68	11850.13
508.85	12095.89
509.03	11857.15
509.20	11967.16
509.38	11871.20
509.55	11405.43
509.73	11276.70
509.90	11534.16
510.08	11747.15
510.25	11772.89
510.42	11733.11
510.60	11321.17
510.77	11843.11
510.95	12116.95
511.12	11957.80
511.30	12070.14
511.47	12383.77
511.64	12156.74
511.82	12444.63
511.99	11997.59
512.17	11651.19
512.34	11559.91
512.51	11744.81
512.69	11508.41
512.86	11768.21
513.04	11887.58
513.21	11960.14
513.38	11688.64
513.56	11765.87
513.73	11365.64
513.90	11229.89
514.08	11466.28
514.25	11536.50
514.43	11541.18
514.60	11880.56
514.77	11822.05
514.95	11688.64
515.12	12013.97
515.29	11700.34
515.47	12229.30
515.64	12152.06
515.81	11934.39
515.99	11566.93
516.16	11080.10
516.33	10445.81
516.51	9975.36
516.68	9577.47
516.85	9504.92
517.03	9652.37
517.20	10368.57
517.37	11398.41
517.54	11585.65
517.72	11693.32
517.89	10801.57
518.06	9867.70
518.24	9916.85
518.41	10597.95
518.58	11199.46
518.75	11239.25
518.93	11262.66
519.10	11580.97
519.27	11377.34
519.45	11784.60
519.62	11920.35
519.79	12077.16
519.96	12042.06
520.14	12046.74
520.31	11379.68
520.48	11468.62
520.65	11435.86
520.83	11808.00
521.00	12262.07
521.17	12020.99
521.34	11925.03
521.52	11932.05
521.69	12339.30
521.86	12395.48
522.03	12367.39
522.20	11850.13
522.38	11463.94
522.55	11265.00
522.72	11644.17
522.89	11510.75
523.07	11686.29
523.24	11730.76
523.41	11861.84
523.58	12432.93
523.75	12369.73
523.92	12299.52
524.10	12556.97
524.27	12325.26
524.44	12489.10
524.61	12049.08
524.78	12173.13
524.96	11990.56
525.13	12142.70
525.30	12430.59
525.47	12533.57
525.64	12343.99
525.81	12217.60
525.98	11398.41
526.16	11112.86
526.33	10731.36
526.50	10583.90
526.67	10200.05
526.84	10555.82
527.01	10909.24
527.18	11442.88
527.36	11580.97
527.53	12109.93
527.70	12145.04
527.87	12016.31
528.04	11683.95
528.21	11943.75
528.38	12245.68
528.55	12631.87
528.72	12631.87
528.89	12765.28
529.07	12592.08
529.24	12264.41
529.41	12203.55
529.58	11815.02
529.75	11660.55
529.92	12226.96
530.09	12327.60
530.26	12196.53
530.43	12669.32
530.60	12517.18
530.77	12739.54
530.94	12868.27
531.11	12449.31
531.28	12292.49
531.46	12475.06
531.63	12437.61
531.80	12510.16
531.97	12121.63
532.14	11894.60
532.31	11524.80
532.48	11171.38
532.65	11358.62
532.82	11489.69
532.99	11850.13
533.16	12121.63
533.33	12453.99
533.50	12456.33
533.67	11882.90
533.84	11705.02
534.01	12028.01
534.18	12238.66
534.35	12238.66
534.52	11815.02
534.69	12016.31
534.86	12212.92
535.03	12166.10
535.20	12683.36
535.37	12676.34
535.54	12833.16
535.71	12599.10
535.88	12711.45
536.05	12184.83
536.22	12187.17
536.38	12063.12
536.55	11676.93
536.72	11541.18
536.89	11590.33
537.06	11660.55
537.23	12133.34
537.40	12365.05
537.57	12578.04
537.74	12404.84
537.91	12243.34
538.08	12409.52
538.25	12325.26
538.42	12135.68
538.59	12107.59
538.75	11936.73
538.92	12093.55
539.09	11880.56
539.26	11829.07
539.43	11662.89
539.60	11843.11
539.77	12030.35
539.94	11836.09
540.11	11791.62
540.28	11489.69
540.44	11431.18
540.61	11887.58
540.78	11824.39
540.95	11866.52
541.12	12343.99
541.29	12554.63
541.46	12755.92
541.62	12725.49
541.79	12727.83
541.96	12383.77
542.13	12367.39
542.30	12086.53
542.47	12418.88
542.63	12248.02
542.80	12292.49
542.97	12182.49
543.14	11941.41
543.31	12028.01
543.48	12156.74
543.64	12947.84
543.81	12791.03
543.98	12769.96
544.15	12517.18
544.32	12451.65
544.48	12273.77
544.65	12498.46
544.82	12507.82
544.99	12498.46
545.16	12451.65
545.32	12088.87
545.49	13521.27
545.66	14604.94
545.83	14593.24
546.00	14008.11
546.16	13158.49
546.33	12734.85
546.50	12416.54
546.67	12674.00
546.83	12203.55
547.00	12526.55
547.17	12081.85
547.34	11826.73
547.50	12028.01
547.67	11953.12
547.84	11660.55
548.00	11889.92
548.17	12273.77
548.34	12142.70
548.51	12100.57
548.67	12156.74
548.84	12093.55
549.01	12245.68
549.18	11957.80
549.34	11983.54
549.51	11913.33
549.68	11868.86
549.84	11693.32
550.01	11906.31
550.18	11943.75
550.34	11761.19
550.51	11889.92
550.68	11765.87
550.84	11768.21
551.01	11463.94
551.18	11721.40
551.34	11838.43
551.51	11833.75
551.68	12018.65
551.84	11913.33
552.01	12032.69
552.18	11831.41
552.34	11566.93
552.51	11384.37
552.68	11157.33
552.84	11463.94
553.01	11669.91
553.18	11555.22
553.34	11667.57
553.51	11480.33
553.67	11585.65
553.84	12002.27
554.01	11555.22
554.17	11531.82
554.34	11548.20
554.51	11843.11
554.67	11943.75
554.84	11545.86
555.00	11712.04
555.17	11569.27
555.33	11536.50
555.50	11627.78
555.67	11475.65
555.83	11365.64
556.00	11571.61
556.16	11475.65
556.33	11082.44
556.50	11094.14
556.66	11002.86
556.83	11012.22
556.99	10876.47
557.16	11098.82
557.32	11265.00
557.49	11386.71
557.65	11208.83
557.82	11070.73
557.98	11274.36
558.15	10761.78
558.32	11054.35
558.48	10286.65
558.65	10558.16
558.81	10623.69
558.98	10621.35
559.14	10764.12
559.31	10541.77
559.47	10672.84
559.64	10761.78
559.80	10611.99
559.97	10396.66
560.13	10537.09
560.30	11063.71
560.46	11136.27
560.63	11241.59
560.79	11431.18
560.96	11487.35
561.12	10846.04
561.29	10429.43
561.45	10565.18
561.61	10869.45
561.78	10815.62
561.94	10635.39
562.11	10698.59
562.27	10607.31
562.44	10579.22
562.60	10843.70
562.77	10834.34
562.93	10906.90
563.10	11059.03
563.26	10930.30
563.42	10993.50
563.59	10771.15
563.75	10595.61
563.92	10668.16
564.08	10534.75
564.24	10693.91
564.41	10752.42
564.57	10754.76
564.74	10647.10
564.90	10747.74
565.07	10487.94
565.23	10637.73
565.39	10513.69
565.56	10242.18
565.72	9830.25
565.88	10221.12
566.05	10167.29
566.21	10408.36
566.38	10509.01
566.54	10401.34
566.70	10565.18
566.87	10665.82
567.03	10602.63
567.19	10719.65
567.36	10431.77
567.52	10546.45
567.68	10303.04
567.85	10181.33
568.01	9851.31
568.17	9853.66
568.34	9699.18
568.50	9701.52
568.66	9507.26
568.83	9710.88
568.99	9841.95
569.15	9792.80
569.32	9844.29
569.48	9745.99
569.64	9635.99
569.81	9490.87
569.97	9731.95
570.13	9947.28
570.30	9612.58
570.46	9673.43
570.62	9369.16
570.78	9474.49
570.95	9214.69
571.11	9678.12
571.27	9603.22
571.43	9640.67
571.60	9706.20
571.76	9666.41
571.92	9834.93
572.09	10003.45
572.25	9902.81
572.41	9823.23
572.57	9708.54
572.74	9757.69
572.90	9736.63
573.06	9621.94
573.22	9738.97
573.38	9921.53
573.55	9762.37
573.71	9760.03
573.87	9741.31
574.03	9614.92
574.20	9783.44
574.36	9392.57
574.52	9497.89
574.68	9467.47
574.84	9565.77
575.01	9509.60
575.17	9172.56
575.33	9256.82
575.49	9235.75
575.65	9418.32
575.82	9434.70
575.98	9390.23
576.14	9502.58
576.30	9535.34
576.46	9792.80
576.62	10005.79
576.79	10223.46
576.95	9715.56
577.11	9624.28
577.27	9521.30
577.43	9387.89
577.59	9474.49
577.75	9390.23
577.92	9165.54
578.08	9048.51
578.24	9095.32
578.40	9254.48
578.56	9521.30
578.72	9769.40
578.88	9827.91
579.04	9731.95
579.21	9542.36
579.37	9497.89
579.53	9502.58
579.69	9551.73
579.85	9692.16
580.01	9722.59
580.17	9645.35
580.33	9554.07
580.49	9617.26
580.65	9706.20
580.82	9596.20
580.98	9425.34
581.14	9469.81
581.30	9598.54
581.46	9600.88
581.62	9589.17
581.78	9603.22
581.94	9706.20
582.10	9675.77
582.26	9685.14
582.42	9734.29
582.58	9928.55
582.74	9750.67
582.90	9799.82
583.06	9692.16
583.22	9561.09
583.38	9671.09
583.54	9378.53
583.70	9696.84
583.86	9788.12
584.02	9830.25
584.18	9481.51
584.34	9579.81
584.50	9614.92
584.66	9568.11
584.82	9453.42
584.98	9303.63
585.14	9102.34
585.30	9261.50
585.46	9048.51
585.62	9053.19
585.78	8964.25
585.94	8968.93
586.10	9041.49
586.26	9261.50
586.42	9174.90
586.58	9469.81
586.74	9357.46
586.90	9200.65
587.06	9404.27
587.22	9125.75
587.38	8957.23
587.54	8795.73
587.70	8613.17
587.86	8208.26
588.02	8170.81
588.18	7864.20
588.34	7655.89
588.49	7124.59
588.65	6647.12
588.81	6492.65
588.97	6539.46
589.13	6544.14
589.29	6427.11
589.45	6558.18
589.61	6712.66
589.77	6946.71
589.93	7241.62
590.08	7445.24
590.24	7592.70
590.40	7815.05
590.56	7538.87
590.72	7651.21
590.88	7543.55
591.04	7578.65
591.20	7585.68
591.35	7548.23
591.51	7681.64
591.67	7487.37
591.83	7407.80
591.99	7332.90
592.15	7618.44
592.31	7674.62
