SpectraSuite Data File
++++++++++++++++++++++++++++++++++++
Date: Fri Oct 04 11:44:23 GMT-05:00 2013
User: price-jones
Dark Spectrum Present: No
Reference Spectrum Present: No
Number of Sampled Component Spectra: 1
Spectrometers: USB2+H05261
Integration Time (usec): 100000 (USB2+H05261)
Spectra Averaged: 1 (USB2+H05261)
Boxcar Smoothing: 0 (USB2+H05261)
Correct for Electrical Dark: No (USB2+H05261)
Strobe/Lamp Enabled: No (USB2+H05261)
Correct for Detector Non-linearity: No (USB2+H05261)
Correct for Stray Light: No (USB2+H05261)
Number of Pixels in Processed Spectrum: 2048
>>>>>Begin Processed Spectral Data<<<<<
365.73	74.90
365.92	74.90
366.12	74.90
366.32	0.00
366.52	0.00
366.72	0.00
366.91	0.00
367.11	0.00
367.31	0.00
367.51	0.00
367.70	0.00
367.90	0.00
368.10	0.00
368.30	0.00
368.49	0.00
368.69	0.00
368.89	0.00
369.09	0.00
369.28	0.00
369.48	0.00
369.68	0.00
369.87	0.00
370.07	2.34
370.27	77.24
370.47	93.62
370.66	421.30
370.86	526.62
371.06	610.88
371.25	732.59
371.45	622.58
371.65	660.03
371.84	566.41
372.04	486.83
372.24	624.92
372.44	601.52
372.63	674.07
372.83	667.05
373.03	507.90
373.22	484.49
373.42	538.32
373.62	660.03
373.81	645.99
374.01	662.37
374.21	648.33
374.40	528.96
374.60	568.75
374.79	720.88
374.99	739.61
375.19	784.08
375.38	737.27
375.58	713.86
375.78	704.50
375.97	805.14
376.17	753.65
376.37	716.20
376.56	727.91
376.76	842.59
376.95	765.36
377.15	936.21
377.35	912.81
377.54	929.19
377.74	985.37
377.93	1055.58
378.13	985.37
378.33	938.55
378.52	849.61
378.72	772.38
378.91	763.01
379.11	786.42
379.31	711.52
379.50	758.33
379.70	788.76
379.89	781.74
380.09	959.62
380.28	887.06
380.48	908.13
380.68	905.79
380.87	856.64
381.07	887.06
381.26	809.83
381.46	772.38
381.65	765.36
381.85	662.37
382.04	662.37
382.24	655.35
382.43	655.35
382.63	631.94
382.83	608.54
383.02	669.39
383.22	599.18
383.41	557.05
383.61	688.12
383.80	748.97
384.00	873.02
384.19	889.40
384.39	882.38
384.58	931.53
384.78	908.13
384.97	971.32
385.17	870.68
385.36	844.93
385.56	856.64
385.75	821.53
385.95	875.36
386.14	912.81
386.34	933.87
386.53	868.34
386.72	830.89
386.92	891.74
387.11	842.59
387.31	844.93
387.50	868.34
387.70	891.74
387.89	931.53
388.09	791.10
388.28	795.78
388.48	844.93
388.67	968.98
388.86	1071.97
389.06	1163.25
389.25	1233.46
389.45	1081.33
389.64	1128.14
389.84	1081.33
390.03	1177.29
390.22	1163.25
390.42	1217.08
390.61	1273.25
390.81	1245.16
391.00	1341.13
391.19	1401.98
391.39	1284.95
391.58	1238.14
391.78	1123.46
391.97	1090.69
392.16	957.28
392.36	957.28
392.55	814.51
392.75	685.78
392.94	587.47
393.13	606.20
393.33	653.01
393.52	823.87
393.71	983.02
393.91	1057.92
394.10	1203.04
394.29	1193.67
394.49	1254.53
394.68	1329.42
394.88	1275.59
395.07	1444.11
395.26	1348.15
395.46	1338.79
395.65	1228.78
395.84	1107.07
396.04	1062.60
396.23	753.65
396.42	774.72
396.62	739.61
396.81	866.00
397.00	983.02
397.19	1256.87
397.39	1416.02
397.58	1483.90
397.77	1640.72
397.97	1816.26
398.16	1724.97
398.35	1724.97
398.55	1689.87
398.74	1872.43
398.93	1825.62
399.12	1823.28
399.32	1785.83
399.51	1823.28
399.70	1860.73
399.90	1923.92
400.09	1884.13
400.28	1926.26
400.47	1888.81
400.67	1949.67
400.86	1994.14
401.05	2057.33
401.24	1961.37
401.44	2104.14
401.63	2108.82
401.82	2101.80
402.01	2076.06
402.21	2127.55
402.40	2017.54
402.59	2066.69
402.78	1991.80
402.97	1818.60
403.17	1982.43
403.36	2069.03
403.55	2090.10
403.74	2076.06
403.93	2099.46
404.13	2202.44
404.32	2188.40
404.51	2314.79
404.70	2282.02
404.89	2174.36
405.09	2174.36
405.28	2008.18
405.47	1942.64
405.66	2132.23
405.85	1994.14
406.05	1987.11
406.24	1905.20
406.43	2040.95
406.62	2118.18
406.81	2071.37
407.00	2047.97
407.20	2054.99
407.39	2115.84
407.58	2122.87
407.77	2277.34
407.96	2305.43
408.15	2202.44
408.34	2225.85
408.54	2307.77
408.73	2399.05
408.92	2270.32
409.11	2260.96
409.30	2181.38
409.49	2064.35
409.68	1867.75
409.87	1797.53
410.07	2003.50
410.26	2148.61
410.45	2256.28
410.64	2277.34
410.83	2291.38
411.02	2387.35
411.21	2396.71
411.40	2466.92
411.59	2424.80
411.78	2403.73
411.98	2457.56
412.17	2431.82
412.36	2338.20
412.55	2471.61
412.74	2464.58
412.93	2237.55
413.12	2296.07
413.31	2537.14
413.50	2560.55
413.69	2612.04
413.88	2602.68
414.07	2415.43
414.26	2417.77
414.45	2588.63
414.64	2551.18
414.83	2565.23
415.02	2616.72
415.22	2445.86
415.41	2551.18
415.60	2490.33
415.79	2759.49
415.98	2864.82
416.17	2818.00
416.36	2710.34
416.55	2691.62
416.74	2626.08
416.93	2546.50
417.12	2478.63
417.31	2565.23
417.50	2693.96
417.69	2825.03
417.88	2630.76
418.07	2651.83
418.26	2588.63
418.45	2684.59
418.64	2719.70
418.83	2715.02
419.02	2771.19
419.21	2761.83
419.39	2750.13
419.58	2555.86
419.77	2562.89
419.96	2715.02
420.15	2888.22
420.34	2883.54
420.53	2960.78
420.72	3007.59
420.91	2839.07
421.10	2839.07
421.29	2818.00
421.48	2916.31
421.67	2911.63
421.86	2848.43
422.05	2700.98
422.24	2539.48
422.43	2413.09
422.61	2614.38
422.80	2686.94
422.99	2956.10
423.18	2679.91
423.37	2757.15
423.56	2691.62
423.75	2752.47
423.94	2796.94
424.13	2757.15
424.32	2717.36
424.50	2658.85
424.69	2675.23
424.88	2693.96
425.07	2626.08
425.26	2675.23
425.45	2637.78
425.64	2497.35
425.83	2579.27
426.01	2766.51
426.20	2738.43
426.39	2719.70
426.58	2511.39
426.77	2459.90
426.96	2445.86
427.15	2420.11
427.33	2558.21
427.52	2647.15
427.71	2719.70
427.90	2684.59
428.09	2525.44
428.28	2495.01
428.46	2382.67
428.65	2399.05
428.84	2480.97
429.03	2424.80
429.22	2354.58
429.40	2275.00
429.59	2015.20
429.78	1905.20
429.97	1781.15
430.16	1884.13
430.34	1874.77
430.53	1907.54
430.72	1963.71
430.91	2193.08
431.10	2457.56
431.28	2780.56
431.47	3150.36
431.66	3101.21
431.85	2918.65
432.03	2675.23
432.22	2649.49
432.41	2668.21
432.60	2869.50
432.79	3026.31
432.97	3141.00
433.16	3016.95
433.35	2794.60
433.54	2485.65
433.72	2349.90
433.91	2499.69
434.10	2605.02
434.28	2963.12
434.47	2871.84
434.66	3066.10
434.85	2902.26
435.03	3042.70
435.22	3541.23
435.41	4409.57
435.59	4531.28
435.78	4255.09
435.97	3749.54
436.16	3433.57
436.34	3318.88
436.53	3267.39
436.72	3201.85
436.90	3094.19
437.09	2951.42
437.28	2899.92
437.46	2995.89
437.65	3096.53
437.84	2778.22
438.02	2612.04
438.21	2644.81
438.40	2647.15
438.58	2874.18
438.77	3066.10
438.96	3197.17
439.14	3098.87
439.33	3262.71
439.52	3185.47
439.70	3124.62
439.89	3108.23
440.08	3094.19
440.26	3068.44
440.45	3155.04
440.63	3346.97
440.82	3506.12
441.01	3492.08
441.19	3370.37
441.38	3396.12
441.57	3620.81
441.75	3620.81
441.94	3653.58
442.12	3569.32
442.31	3630.17
442.50	3576.34
442.68	3684.00
442.87	3538.89
443.05	3559.95
443.24	3581.02
443.43	3639.53
443.61	3709.75
443.80	3782.31
443.98	3557.61
444.17	3513.14
444.35	3789.33
444.54	3801.03
444.73	3726.13
444.91	3658.26
445.10	3370.37
445.28	3405.48
445.47	3342.28
445.65	3274.41
445.84	3510.80
446.02	3461.65
446.21	3637.19
446.39	3508.46
446.58	3588.04
446.77	3599.74
446.95	3726.13
447.14	3854.86
447.32	3840.82
447.51	3742.52
447.69	3688.68
447.88	3527.19
448.06	3693.37
448.25	3667.62
448.43	3836.14
448.62	3730.81
448.80	3737.84
448.99	3808.05
449.17	3712.09
449.36	3709.75
449.54	3875.93
449.73	3805.71
449.91	3784.65
450.10	4072.53
450.28	4241.05
450.46	4105.30
450.65	4154.45
450.83	3934.44
451.02	4004.66
451.20	3929.76
451.39	3911.04
451.57	3981.25
451.76	3772.94
451.94	3784.65
452.13	3904.01
452.31	3585.70
452.49	3372.71
452.68	3625.49
452.86	3632.51
453.05	3529.53
453.23	3646.55
453.42	3786.99
453.60	3698.05
453.78	3859.54
453.97	3915.72
454.15	3845.50
454.34	3751.88
454.52	3716.77
454.70	3721.45
454.89	3620.81
455.07	3684.00
455.26	3899.33
455.44	3918.06
455.62	4042.11
455.81	4044.45
455.99	3911.04
456.17	4004.66
456.36	3896.99
456.54	4032.74
456.73	4070.19
456.91	4091.26
457.09	4257.43
457.28	4142.75
457.46	3873.59
457.64	3978.91
457.83	3887.63
458.01	3918.06
458.19	4018.70
458.38	3990.61
458.56	4032.74
458.74	4023.38
458.93	3946.14
459.11	4042.11
459.29	3960.19
459.48	3995.29
459.66	4009.34
459.84	3976.57
460.03	4077.21
460.21	4086.58
460.39	4107.64
460.57	4098.28
460.76	4042.11
460.94	4156.79
461.12	4182.54
461.31	4217.65
461.49	4182.54
461.67	4142.75
461.85	4301.90
462.04	4212.96
462.22	4702.14
462.40	4252.75
462.59	4173.18
462.77	4229.35
462.95	4236.37
463.13	4191.90
463.32	4173.18
463.50	4189.56
463.68	4042.11
463.86	4098.28
464.05	4128.70
464.23	4182.54
464.41	4042.11
464.59	3939.12
464.78	4173.18
464.96	4133.39
465.14	4025.72
465.32	4109.98
465.50	4238.71
465.69	4191.90
465.87	4184.88
466.05	4072.53
466.23	3857.20
466.41	3765.92
466.60	3981.25
466.78	3803.37
466.96	4058.49
467.14	4004.66
467.32	4077.21
467.51	4173.18
467.69	3939.12
467.87	4170.83
468.05	4191.90
468.23	4021.04
468.41	4095.94
468.60	4072.53
468.78	4016.36
468.96	4154.45
469.14	4114.66
469.32	4100.62
469.50	4039.76
469.69	4079.55
469.87	3918.06
470.05	3999.98
470.23	3981.25
470.41	3815.07
470.59	4051.47
470.77	3878.27
470.95	4161.47
471.14	4149.77
471.32	4056.15
471.50	4458.72
471.68	4297.22
471.86	4344.03
472.04	4287.86
472.22	4386.16
472.40	4231.69
472.58	4028.06
472.77	3988.27
472.95	4301.90
473.13	4269.14
473.31	4084.23
473.49	4273.82
473.67	4264.46
473.85	4271.48
474.03	4388.50
474.21	4428.29
474.39	4596.81
474.57	4496.17
474.75	4411.91
474.93	4397.87
475.12	4397.87
475.30	4379.14
475.48	4507.87
475.66	4507.87
475.84	4374.46
476.02	4372.12
476.20	4470.42
476.38	4463.40
476.56	4449.36
476.74	4601.49
476.92	4479.79
477.10	4631.92
477.28	4732.56
477.46	4690.43
477.64	4744.27
477.82	4894.06
478.00	4947.89
478.18	4758.31
478.36	4720.86
478.54	4830.87
478.72	4887.04
478.90	5053.22
479.08	5022.79
479.26	5125.77
479.44	5198.33
479.62	5121.09
479.80	5142.16
479.98	5053.22
480.16	5163.22
480.34	5165.56
480.52	5256.84
480.70	5331.74
480.88	5254.50
481.06	5434.72
481.24	5291.95
481.41	5472.17
481.59	5535.37
481.77	5462.81
481.95	5394.93
482.13	5287.27
482.31	5427.70
482.49	5558.77
482.67	5411.32
482.85	5558.77
483.03	5650.05
483.21	5554.09
483.39	5568.13
483.57	5479.19
483.74	5610.26
483.92	5500.26
484.10	5699.20
484.28	5816.23
484.46	5748.36
484.64	5951.98
484.82	5689.84
485.00	5554.09
485.18	5427.70
485.35	5399.62
485.53	5210.03
485.71	4638.94
485.89	4517.23
486.07	4716.18
486.25	5261.52
486.43	5488.56
486.61	5607.92
486.78	5586.86
486.96	5579.84
487.14	5792.83
487.32	5804.53
487.50	6045.60
487.68	6289.02
487.85	6417.75
488.03	6441.15
488.21	6338.17
488.39	6179.01
488.57	6087.73
488.75	6029.22
488.92	6354.55
489.10	6583.93
489.28	6761.81
489.46	6841.39
489.64	6890.54
489.81	6913.94
489.99	6881.18
490.17	6932.67
490.35	6827.34
490.53	6825.00
490.70	6853.09
490.88	6862.45
491.06	6991.18
491.24	7023.95
491.41	6810.96
491.59	6340.51
491.77	6230.51
491.95	6354.55
492.13	6679.89
492.30	6766.49
492.48	7112.89
492.66	7248.64
492.84	7070.76
493.01	7143.32
493.19	6958.41
493.37	7103.53
493.54	6825.00
493.72	6927.99
493.90	7314.17
494.08	7253.32
494.25	7595.04
494.43	7485.03
494.61	7705.04
494.79	7824.41
494.96	7597.38
495.14	7581.00
495.32	7363.33
495.49	7241.62
495.67	7349.28
495.85	7681.64
496.02	7796.32
496.20	7578.65
496.38	7447.58
496.55	7449.93
496.73	7735.47
496.91	7662.91
497.09	7878.24
497.26	7906.33
497.44	7826.75
497.62	7588.02
497.79	7524.82
497.97	7337.58
498.14	7096.50
498.32	7379.71
498.50	7742.49
498.67	7812.71
498.85	7709.72
499.03	7967.18
499.20	7873.56
499.38	7859.52
499.56	7669.94
499.73	7712.07
499.91	7676.96
500.08	7693.34
500.26	7332.90
500.44	7391.41
500.61	7445.24
500.79	7414.82
500.97	7328.22
501.14	7410.14
501.32	7358.64
501.49	7332.90
501.67	7335.24
501.84	7536.52
502.02	7786.96
502.20	7658.23
502.37	7503.76
502.55	7536.52
502.72	7756.54
502.90	7852.50
503.07	7648.87
503.25	7597.38
503.43	7080.12
503.60	7143.32
503.78	6974.80
503.95	7019.27
504.13	7494.40
504.30	7824.41
504.48	7808.03
504.65	7735.47
504.83	7803.35
505.01	7733.13
505.18	7911.01
505.36	8184.85
505.53	7964.84
505.71	7976.55
505.88	8109.96
506.06	8051.44
506.23	7999.95
506.41	7836.11
506.58	7957.82
506.76	7810.37
506.93	7712.07
507.11	7714.41
507.28	7803.35
507.46	7662.91
507.63	7669.94
507.81	7573.97
507.98	7410.14
508.16	7555.25
508.33	7829.09
508.50	8236.35
508.68	8149.75
508.85	8217.62
509.03	8189.53
509.20	8070.17
509.38	7997.61
509.55	8053.78
509.73	7798.66
509.90	8060.80
510.08	8234.00
510.25	8077.19
510.42	8044.42
510.60	7925.05
510.77	8042.08
510.95	8285.50
511.12	8376.78
511.30	8341.67
511.47	8496.14
511.64	8479.76
511.82	8416.57
511.99	8035.06
512.17	7999.95
512.34	7901.65
512.51	7899.31
512.69	8065.49
512.86	8086.55
513.04	8217.62
513.21	8297.20
513.38	8028.04
513.56	7936.76
513.73	7761.22
513.90	7976.55
514.08	8088.89
514.25	7957.82
514.43	8095.91
514.60	8191.88
514.77	8116.98
514.95	8070.17
515.12	8091.23
515.29	8044.42
515.47	8386.14
515.64	8372.10
515.81	8416.57
515.99	8315.92
516.16	7707.38
516.33	7281.41
516.51	7075.44
516.68	6642.44
516.85	6696.27
517.03	6551.16
517.20	7335.24
517.37	7772.92
517.54	8152.09
517.72	7908.67
517.89	7452.27
518.06	6782.87
518.24	6986.50
518.41	7475.67
518.58	7810.37
518.75	7714.41
518.93	7955.48
519.10	7836.11
519.27	7922.71
519.45	7978.89
519.62	8248.05
519.79	8362.73
519.96	8397.84
520.14	7999.95
520.31	7845.48
520.48	7955.48
520.65	8095.91
520.83	8315.92
521.00	8301.88
521.17	8306.56
521.34	8138.04
521.52	8131.02
521.69	8320.60
521.86	8564.02
522.03	8477.42
522.20	8259.75
522.38	7620.78
522.55	7962.50
522.72	8023.36
522.89	8032.72
523.07	8004.63
523.24	8248.05
523.41	8477.42
523.58	8425.93
523.75	8608.49
523.92	8559.34
524.10	8444.65
524.27	8489.12
524.44	8608.49
524.61	8435.29
524.78	8386.14
524.96	8414.23
525.13	8435.29
525.30	8470.40
525.47	8514.87
525.64	8491.46
525.81	8334.65
525.98	7903.99
526.16	7688.66
526.33	7368.01
526.50	7272.04
526.67	7129.27
526.84	7253.32
527.01	7616.10
527.18	7777.60
527.36	8126.34
527.53	8327.63
527.70	8360.39
527.87	8177.83
528.04	8046.76
528.21	7911.01
528.38	8446.99
528.55	8449.33
528.72	8720.84
528.89	8833.18
529.07	8606.15
529.24	8652.96
529.41	8439.97
529.58	8116.98
529.75	8217.62
529.92	8128.68
530.09	8454.02
530.26	8575.72
530.43	8695.09
530.60	8631.90
530.77	8662.32
530.94	8711.47
531.11	8662.32
531.28	8514.87
531.46	8294.86
531.63	8505.51
531.80	8400.18
531.97	8250.39
532.14	8156.77
532.31	7953.14
532.48	7676.96
532.65	7604.40
532.82	7796.32
532.99	8131.02
533.16	8264.43
533.33	8566.36
533.50	8566.36
533.67	8301.88
533.84	8234.00
534.01	8135.70
534.18	8283.16
534.35	8369.76
534.52	8304.22
534.69	8430.61
534.86	8636.58
535.03	8498.49
535.20	8659.98
535.37	8744.24
535.54	8751.26
535.71	8748.92
535.88	8451.67
536.05	8362.73
536.22	8177.83
536.38	8299.54
536.55	8173.15
536.72	7918.03
536.89	7922.71
537.06	8283.16
537.23	8383.80
537.40	8318.26
537.57	8692.75
537.74	8353.37
537.91	8542.96
538.08	8566.36
538.25	8351.03
538.42	8519.55
538.59	8547.64
538.75	8336.99
538.92	8372.10
539.09	8311.24
539.26	8212.94
539.43	8315.92
539.60	8191.88
539.77	8205.92
539.94	8432.95
540.11	8091.23
540.28	8210.60
540.44	8065.49
540.61	8100.59
540.78	8376.78
540.95	8365.07
541.12	9025.11
541.29	9125.75
541.46	9291.93
541.62	9322.35
541.79	9322.35
541.96	9125.75
542.13	8997.02
542.30	8945.53
542.47	9083.62
542.63	8982.98
542.80	8795.73
542.97	8641.26
543.14	8610.83
543.31	8737.22
543.48	8882.33
543.64	9312.99
543.81	9327.03
543.98	9275.54
544.15	9156.18
544.32	8943.19
544.48	8791.05
544.65	9036.81
544.82	9088.30
544.99	8917.44
545.16	8887.01
545.32	8847.22
545.49	9537.68
545.66	10988.82
545.83	12025.67
546.00	11550.54
546.16	10221.12
546.33	9596.20
546.50	8924.46
546.67	8990.00
546.83	8917.44
547.00	8791.05
547.17	8505.51
547.34	8346.35
547.50	8411.89
547.67	8631.90
547.84	8489.12
548.00	8545.30
548.17	8624.87
548.34	8458.70
548.51	8601.47
548.67	8446.99
548.84	8505.51
549.01	8692.75
549.18	8313.58
549.34	8362.73
549.51	8601.47
549.68	8381.46
549.84	8339.33
550.01	8222.30
550.18	8362.73
550.34	8442.31
550.51	8241.03
550.68	8142.72
550.84	8145.06
551.01	8018.68
551.18	8088.89
551.34	7927.39
551.51	7971.86
551.68	8042.08
551.84	8327.63
552.01	8236.35
552.18	8006.97
552.34	8042.08
552.51	7674.62
552.68	7623.12
552.84	7999.95
553.01	7817.39
553.18	7793.98
553.34	8016.33
553.51	7868.88
553.67	8088.89
553.84	7875.90
554.01	8088.89
554.17	7918.03
554.34	8037.40
554.51	7988.25
554.67	8287.84
554.84	8056.12
555.00	7927.39
555.17	7817.39
555.33	7953.14
555.50	7756.54
555.67	7793.98
555.83	7709.72
556.00	7545.89
556.16	7894.63
556.33	7747.17
556.50	7543.55
556.66	7510.78
556.83	7501.42
556.99	7536.52
557.16	7438.22
557.32	7400.77
557.49	7719.09
557.65	7578.65
557.82	7541.21
557.98	7569.29
558.15	7585.68
558.32	7431.20
558.48	7267.36
558.65	7178.42
558.81	7288.43
558.98	7199.49
559.14	7281.41
559.31	7447.58
559.47	7487.37
559.64	7311.83
559.80	7063.74
559.97	7302.47
560.13	7363.33
560.30	7468.65
560.46	7564.61
560.63	7578.65
560.79	7730.79
560.96	7903.99
561.12	7330.56
561.29	7236.94
561.45	7239.28
561.61	7145.66
561.78	7449.93
561.94	7412.48
562.11	7288.43
562.27	7269.70
562.44	7440.56
562.60	7482.69
562.77	7581.00
562.93	7616.10
563.10	7428.86
563.26	7246.30
563.42	7349.28
563.59	7208.85
563.75	7187.79
563.92	7236.94
564.08	7157.36
564.24	7236.94
564.41	7419.50
564.57	7356.30
564.74	7206.51
564.90	7288.43
565.07	7283.75
565.23	7171.40
565.39	7054.37
565.56	7000.54
565.72	6839.05
565.88	6768.83
566.05	6937.35
566.21	6991.18
566.38	7225.23
566.54	7080.12
566.70	7215.87
566.87	7215.87
567.03	7234.60
567.19	7382.05
567.36	7236.94
567.52	7068.42
567.68	7150.34
567.85	6815.64
568.01	6661.16
568.17	6548.82
568.34	6532.44
568.50	6518.39
568.66	6551.16
568.83	6633.08
568.99	6597.97
569.15	6621.38
569.32	6722.02
569.48	6502.01
569.64	6593.29
569.81	6516.05
569.97	6644.78
570.13	6729.04
570.30	6429.45
570.46	6602.65
570.62	6328.81
570.78	6193.06
570.95	6300.72
571.11	6445.84
571.27	6511.37
571.43	6483.28
571.60	6670.53
571.76	6670.53
571.92	6644.78
572.09	6530.09
572.25	6722.02
572.41	6565.20
572.57	6551.16
572.74	6586.27
572.90	6656.48
573.06	6654.14
573.22	6743.08
573.38	6747.76
573.55	6698.61
573.71	6703.29
573.87	6604.99
574.03	6658.82
574.20	6452.86
574.36	6609.67
574.52	6520.73
574.68	6375.62
574.84	6403.71
575.01	6342.85
575.17	6270.30
575.33	6335.83
575.49	6396.68
575.65	6427.11
575.82	6401.37
575.98	6361.58
576.14	6384.98
576.30	6558.18
576.46	6672.87
576.62	6965.43
576.79	7185.44
576.95	6825.00
577.11	6588.61
577.27	6586.27
577.43	6612.01
577.59	6473.92
577.75	6335.83
577.92	6237.53
578.08	6239.87
578.24	6300.72
578.40	6413.07
578.56	6466.90
578.72	6775.85
578.88	6991.18
579.04	6918.62
579.21	6693.93
579.37	6698.61
579.53	6471.58
579.69	6647.12
579.85	6691.59
580.01	6551.16
580.17	6597.97
580.33	6569.88
580.49	6700.95
580.65	6654.14
580.82	6504.35
580.98	6541.80
581.14	6558.18
581.30	6558.18
581.46	6590.95
581.62	6555.84
581.78	6541.80
581.94	6745.42
582.10	6658.82
582.26	6553.50
582.42	6626.06
582.58	6703.29
582.74	6789.89
582.90	6574.56
583.06	6722.02
583.22	6464.56
583.38	6679.89
583.54	6726.70
583.70	6794.58
583.86	6640.10
584.02	6607.33
584.18	6642.44
584.34	6724.36
584.50	6850.75
584.66	6534.78
584.82	6541.80
584.98	6366.26
585.14	6436.47
585.30	6277.32
585.46	6345.19
585.62	6239.87
585.78	6356.90
585.94	6195.40
586.10	6314.77
586.26	6258.59
586.42	6314.77
586.58	6436.47
586.74	6480.94
586.90	6363.92
587.06	6368.60
587.22	6420.09
587.38	6260.93
587.54	6129.86
587.70	5867.72
587.86	5809.21
588.02	5504.94
588.18	5320.04
588.34	5210.03
588.49	4821.50
588.65	4603.83
588.81	4542.98
588.97	4627.24
589.13	4547.66
589.29	4615.54
589.45	4489.15
589.61	4716.18
589.77	4882.36
589.93	4938.53
590.08	5104.71
590.24	5369.19
590.40	5369.19
590.56	5219.39
590.72	5142.16
590.88	5282.59
591.04	5242.80
591.20	5308.34
591.35	5128.11
591.51	5081.30
591.67	5036.83
591.83	5128.11
591.99	5088.32
592.15	5245.14
592.31	5338.76
592.46	5416.00
592.62	5659.42
592.78	5614.95
592.94	5561.11
593.10	5575.16
593.26	5582.18
593.41	5778.78
593.57	5673.46
593.73	5416.00
593.89	5179.61
594.05	5095.35
594.20	4833.21
594.36	4676.39
594.52	4767.67
594.68	4802.78
594.84	4884.70
594.99	5263.86
595.15	5193.65
595.31	5207.69
595.47	5289.61
595.62	5348.12
595.78	5317.70
595.94	5331.74
596.10	5528.35
596.25	5355.15
596.41	5242.80
596.57	5151.52
596.73	5214.71
596.88	5376.21
597.04	5350.46
597.20	5493.24
597.36	5235.78
597.51	5357.49
