SpectraSuite Data File
++++++++++++++++++++++++++++++++++++
Date: Fri Oct 04 11:44:17 GMT-05:00 2013
User: price-jones
Dark Spectrum Present: No
Reference Spectrum Present: No
Number of Sampled Component Spectra: 1
Spectrometers: USB2+H05261
Integration Time (usec): 100000 (USB2+H05261)
Spectra Averaged: 1 (USB2+H05261)
Boxcar Smoothing: 0 (USB2+H05261)
Correct for Electrical Dark: No (USB2+H05261)
Strobe/Lamp Enabled: No (USB2+H05261)
Correct for Detector Non-linearity: No (USB2+H05261)
Correct for Stray Light: No (USB2+H05261)
Number of Pixels in Processed Spectrum: 2048
>>>>>Begin Processed Spectral Data<<<<<
365.73	37.45
365.92	37.45
366.12	37.45
366.32	0.00
366.52	0.00
366.72	0.00
366.91	0.00
367.11	0.00
367.31	0.00
367.51	0.00
367.70	0.00
367.90	0.00
368.10	16.38
368.30	0.00
368.49	0.00
368.69	0.00
368.89	0.00
369.09	0.00
369.28	0.00
369.48	0.00
369.68	0.00
369.87	0.00
370.07	0.00
370.27	0.00
370.47	222.35
370.66	837.91
370.86	983.02
371.06	1095.37
371.25	1069.62
371.45	973.66
371.65	858.98
371.84	884.72
372.04	884.72
372.24	1015.79
372.44	1036.86
372.63	990.05
372.83	1011.11
373.03	875.36
373.22	812.17
373.42	966.64
373.62	912.81
373.81	992.39
374.01	1083.67
374.21	875.36
374.40	924.51
374.60	894.08
374.79	933.87
374.99	1123.46
375.19	1196.01
375.38	1217.08
375.58	1217.08
375.78	1121.12
375.97	1149.20
376.17	1252.19
376.37	1196.01
376.56	1156.22
376.76	1207.72
376.95	1331.76
377.15	1392.62
377.35	1439.43
377.54	1488.58
377.74	1416.02
377.93	1535.39
378.13	1483.90
378.33	1413.68
378.52	1380.92
378.72	1270.91
378.91	1373.89
379.11	1228.78
379.31	1217.08
379.50	1212.40
379.70	1282.61
379.89	1460.49
380.09	1462.83
380.28	1509.65
380.48	1446.45
380.68	1535.39
380.87	1373.89
381.07	1366.87
381.26	1320.06
381.46	1207.72
381.65	1221.76
381.85	1275.59
382.04	1050.90
382.24	1104.73
382.43	978.34
382.63	971.32
382.83	971.32
383.02	1057.92
383.22	1036.86
383.41	994.73
383.61	1078.99
383.80	1132.82
384.00	1331.76
384.19	1425.39
384.39	1502.62
384.58	1451.13
384.78	1490.92
384.97	1441.77
385.17	1397.30
385.36	1291.98
385.56	1317.72
385.75	1369.21
385.95	1493.26
386.14	1556.46
386.34	1551.78
386.53	1540.07
386.72	1355.17
386.92	1439.43
387.11	1458.15
387.31	1528.37
387.50	1448.79
387.70	1425.39
387.89	1490.92
388.09	1483.90
388.28	1465.18
388.48	1399.64
388.67	1563.48
388.86	1832.64
389.06	1870.09
389.25	1874.77
389.45	1987.11
389.64	2003.50
389.84	1870.09
390.03	1795.19
390.22	1928.60
390.42	1874.77
390.61	1959.03
390.81	2181.38
391.00	2097.12
391.19	2157.97
391.39	2092.44
391.58	1912.22
391.78	1870.09
391.97	1818.60
392.16	1614.97
392.36	1664.12
392.55	1254.53
392.75	1069.62
392.94	957.28
393.13	903.45
393.33	1001.75
393.52	1247.51
393.71	1507.30
393.91	1617.31
394.10	1813.92
394.29	1886.47
394.49	2150.95
394.68	2221.17
394.88	2251.60
395.07	2232.87
395.26	2375.64
395.46	2291.38
395.65	2228.19
395.84	1902.86
396.04	1687.53
396.23	1331.76
396.42	1196.01
396.62	1191.33
396.81	1327.08
397.00	1572.84
397.19	1877.11
397.39	2267.98
397.58	2590.97
397.77	2661.19
397.97	2761.83
398.16	2731.41
398.35	2740.77
398.55	2986.52
398.74	2855.45
398.93	3227.60
399.12	3000.57
399.32	2942.05
399.51	3045.04
399.70	3220.58
399.90	3122.27
400.09	3152.70
400.28	3155.04
400.47	3197.17
400.67	3288.45
400.86	3337.60
401.05	3337.60
401.24	3440.59
401.44	3536.55
401.63	3318.88
401.82	3501.44
402.01	3414.84
402.21	3531.87
402.40	3447.61
402.59	3405.48
402.78	3365.69
402.97	3260.37
403.17	3403.14
403.36	3468.67
403.55	3506.12
403.74	3433.57
403.93	3487.40
404.13	3389.10
404.32	3290.79
404.51	3316.54
404.70	3571.66
404.89	3552.93
405.09	3510.80
405.28	3386.76
405.47	3400.80
405.66	3389.10
405.85	3407.82
406.05	3229.94
406.24	3227.60
406.43	3279.09
406.62	3459.31
406.81	3571.66
407.00	3449.95
407.20	3349.31
407.39	3431.23
407.58	3499.10
407.77	3592.72
407.96	3768.26
408.15	3833.80
408.34	3730.81
408.54	3843.16
408.73	3875.93
408.92	3859.54
409.11	3908.69
409.30	3716.77
409.49	3377.39
409.68	3353.99
409.87	3084.83
410.07	3361.01
410.26	3557.61
410.45	3536.55
410.64	3791.67
410.83	3964.87
411.02	4177.86
411.21	4149.77
411.40	4037.42
411.59	4173.18
411.78	4102.96
411.98	4035.08
412.17	4163.81
412.36	4095.94
412.55	4086.58
412.74	3950.82
412.93	3779.97
413.12	3857.20
413.31	4297.22
413.50	4215.30
413.69	4348.72
413.88	4180.20
414.07	4252.75
414.26	4245.73
414.45	4278.50
414.64	4299.56
414.83	4306.59
415.02	4276.16
415.22	4117.00
415.41	4245.73
415.60	4280.84
415.79	4683.41
415.98	4732.56
416.17	4606.17
416.36	4475.10
416.55	4531.28
416.74	4454.04
416.93	4273.82
417.12	4278.50
417.31	4257.43
417.50	4418.93
417.69	4519.57
417.88	4489.15
418.07	4369.78
418.26	4297.22
418.45	4435.32
418.64	4568.73
418.83	4840.23
419.02	4662.35
419.21	4465.74
419.39	4421.27
419.58	4180.20
419.77	4332.33
419.96	4500.85
420.15	4622.56
420.34	4690.43
420.53	4880.02
420.72	5053.22
420.91	4997.04
421.10	4931.51
421.29	4873.00
421.48	4737.24
421.67	4800.44
421.86	4807.46
422.05	4416.59
422.24	4107.64
422.43	4145.09
422.61	4292.54
422.80	4681.07
422.99	4779.37
423.18	4617.88
423.37	4507.87
423.56	4526.60
423.75	4575.75
423.94	4566.39
424.13	4381.48
424.32	4358.08
424.50	4542.98
424.69	4482.13
424.88	4477.44
425.07	4456.38
425.26	4393.19
425.45	4409.57
425.64	4285.52
425.83	4346.37
426.01	4568.73
426.20	4695.11
426.39	4461.06
426.58	4306.59
426.77	4044.45
426.96	3985.93
427.15	4030.40
427.33	4222.33
427.52	4416.59
427.71	4404.89
427.90	4571.07
428.09	4484.47
428.28	4177.86
428.46	4044.45
428.65	3999.98
428.84	4250.41
429.03	4243.39
429.22	4053.81
429.40	3829.12
429.59	3576.34
429.78	3246.32
429.97	3138.66
430.16	3248.66
430.34	3204.19
430.53	3082.49
430.72	3288.45
430.91	3428.88
431.10	4098.28
431.28	4748.95
431.47	5179.61
431.66	5156.20
431.85	4819.16
432.03	4437.66
432.22	4322.97
432.41	4409.57
432.60	4755.97
432.79	5032.15
432.97	5081.30
433.16	5043.85
433.35	4667.03
433.54	4292.54
433.72	4121.68
433.91	4215.30
434.10	4561.70
434.28	4723.20
434.47	5081.30
434.66	4968.96
434.85	4940.87
435.03	4915.12
435.22	5305.99
435.41	5504.94
435.59	5614.95
435.78	5661.76
435.97	5495.58
436.16	5425.36
436.34	5575.16
436.53	5394.93
436.72	5238.12
436.90	5184.29
437.09	5060.24
437.28	4887.04
437.46	4994.70
437.65	5111.73
437.84	4795.76
438.02	4456.38
438.21	4409.57
438.40	4587.45
438.58	5043.85
438.77	5046.20
438.96	5118.75
439.14	5359.83
439.33	5462.81
439.52	5385.57
439.70	5256.84
439.89	5380.89
440.08	5170.24
440.26	5181.95
440.45	5296.63
440.63	5497.92
440.82	5914.53
441.01	5886.45
441.19	5755.38
441.38	5921.56
441.57	5984.75
441.75	6150.93
441.94	6066.67
442.12	6085.39
442.31	6221.14
442.50	5959.00
442.68	5963.68
442.87	5951.98
443.05	5991.77
443.24	6080.71
443.43	6141.57
443.61	6377.96
443.80	6319.45
443.98	6022.20
444.17	6026.88
444.35	6230.51
444.54	6511.37
444.73	6282.00
444.91	6022.20
445.10	5748.36
445.28	5813.89
445.47	5621.97
445.65	5572.82
445.84	5961.34
446.02	5928.58
446.21	6024.54
446.39	6052.63
446.58	6125.18
446.77	6113.48
446.95	6211.78
447.14	6258.59
447.32	6335.83
447.51	6417.75
447.69	6122.84
447.88	6045.60
448.06	6101.78
448.25	6235.19
448.43	6284.34
448.62	6267.95
448.80	6221.14
448.99	6286.68
449.17	6162.63
449.36	6298.38
449.54	6630.74
449.73	6562.86
449.91	6656.48
450.10	6991.18
450.28	7040.33
450.46	6820.32
450.65	6803.94
450.83	6897.56
451.02	6663.51
451.20	6764.15
451.39	6583.93
451.57	6628.40
451.76	6651.80
451.94	6691.59
452.13	6579.25
452.31	6167.31
452.49	5935.60
452.68	5893.47
452.86	6050.28
453.05	6080.71
453.23	6197.74
453.42	6438.81
453.60	6565.20
453.78	6520.73
453.97	6476.26
454.15	6310.08
454.34	6321.79
454.52	6333.49
454.70	6443.49
454.89	6274.98
455.07	6319.45
455.26	6597.97
455.44	6773.51
455.62	6892.88
455.81	6743.08
455.99	6757.13
456.17	6665.85
456.36	6679.89
456.54	6892.88
456.73	6583.93
456.91	6946.71
457.09	7012.24
457.28	7246.30
457.46	6888.20
457.64	6789.89
457.83	6595.63
458.01	6607.33
458.19	6719.68
458.38	6572.22
458.56	6967.77
458.74	6953.73
458.93	6719.68
459.11	6743.08
459.29	6691.59
459.48	6967.77
459.66	6782.87
459.84	6864.79
460.03	6963.09
460.21	6878.83
460.39	7059.06
460.57	7176.08
460.76	7232.26
460.94	7166.72
461.12	7000.54
461.31	6984.16
461.49	6885.86
461.67	7026.29
461.85	7178.42
462.04	7061.40
462.22	7714.41
462.40	7295.45
462.59	7220.55
462.77	7281.41
462.95	7091.82
463.13	7131.61
463.32	7042.67
463.50	6927.99
463.68	7033.31
463.86	7059.06
464.05	6993.52
464.23	6693.93
464.41	6569.88
464.59	6719.68
464.78	7047.35
464.96	6904.58
465.14	6736.06
465.32	7119.91
465.50	7246.30
465.69	7246.30
465.87	7131.61
466.05	6993.52
466.23	6740.74
466.41	6452.86
466.60	6750.10
466.78	6607.33
466.96	6661.16
467.14	6803.94
467.32	6862.45
467.51	6909.26
467.69	6743.08
467.87	6843.73
468.05	6841.39
468.23	6892.88
468.41	6857.77
468.60	6736.06
468.78	6923.30
468.96	6761.81
469.14	6946.71
469.32	6794.58
469.50	6696.27
469.69	6775.85
469.87	6747.76
470.05	6665.85
470.23	6445.84
470.41	6623.72
470.59	6623.72
470.77	6803.94
470.95	6853.09
471.14	7258.00
471.32	7056.72
471.50	7363.33
471.68	7269.70
471.86	7494.40
472.04	7566.95
472.22	7545.89
472.40	7248.64
472.58	7157.36
472.77	7047.35
472.95	7014.59
473.13	7370.35
473.31	7199.49
473.49	7173.74
473.67	7260.34
473.85	7344.60
474.03	7559.93
474.21	7459.29
474.39	7595.04
474.57	7735.47
474.75	7662.91
474.93	7630.15
475.12	7496.74
475.30	7470.99
475.48	7431.20
475.66	7648.87
475.84	7456.95
476.02	7379.71
476.20	7522.48
476.38	7475.67
476.56	7529.50
476.74	7639.51
476.92	7836.11
477.10	7857.18
477.28	8266.77
477.46	8105.28
477.64	8388.48
477.82	8404.86
478.00	8016.33
478.18	8238.69
478.36	8124.00
478.54	8210.60
478.72	8196.56
478.90	8379.12
479.08	8496.14
479.26	8681.05
479.44	8636.58
479.62	8620.19
479.80	8699.77
479.98	8826.16
480.16	8994.68
480.34	8737.22
480.52	8695.09
480.70	8929.14
480.88	8865.95
481.06	8952.55
481.24	8894.04
481.41	9273.20
481.59	9411.29
481.77	9437.04
481.95	9263.84
482.13	9247.46
482.31	9214.69
482.49	9432.36
482.67	9261.50
482.85	9514.28
483.03	9607.90
483.21	9778.76
483.39	9446.40
483.57	9408.95
483.74	9392.57
483.92	9373.85
484.10	9315.33
484.28	9626.62
484.46	9610.24
484.64	10012.81
484.82	9708.54
485.00	9633.64
485.18	9528.32
485.35	9158.52
485.53	8608.49
485.71	7878.24
485.89	7653.55
486.07	8086.55
486.25	8566.36
486.43	9191.28
486.61	9305.97
486.78	9256.82
486.96	9404.27
487.14	9659.39
487.32	9923.87
487.50	10111.11
487.68	10473.90
487.85	10794.55
488.03	10614.33
488.21	10525.39
488.39	10321.76
488.57	10178.99
488.75	10289.00
488.92	10649.44
489.10	10761.78
489.28	11346.92
489.46	11613.74
489.64	11693.32
489.81	11796.30
489.99	11492.03
490.17	11391.39
490.35	11775.24
490.53	11555.22
490.70	11445.22
490.88	11477.99
491.06	11552.88
491.24	11676.93
491.41	11396.07
491.59	10850.72
491.77	10523.05
491.95	10967.75
492.13	11108.18
492.30	11662.89
492.48	11941.41
492.66	12322.92
492.84	12372.07
493.01	12276.11
493.19	11800.98
493.37	11810.34
493.54	11634.80
493.72	11929.71
493.90	12278.45
494.08	12542.93
494.25	12812.09
494.43	12858.90
494.61	13076.57
494.79	13015.72
494.96	13123.38
495.14	12886.99
495.32	12489.10
495.49	12233.98
495.67	12531.23
495.85	13186.58
496.02	13235.73
496.20	13383.18
496.38	13048.49
496.55	13029.76
496.73	13444.04
496.91	13364.46
497.09	13558.72
497.26	13530.64
497.44	13446.38
497.62	13167.85
497.79	12748.90
497.97	12435.27
498.14	12411.86
498.32	12800.39
498.50	13195.94
498.67	13359.78
498.85	13280.20
499.03	13617.24
499.20	13598.51
499.38	13497.87
499.56	13589.15
499.73	13287.22
499.91	13177.22
500.08	12863.58
500.26	12819.11
500.44	12720.81
500.61	13137.43
500.79	13144.45
500.97	12837.84
501.14	12769.96
501.32	12765.28
501.49	12416.54
501.67	12571.02
501.84	12786.35
502.02	12912.74
502.20	13137.43
502.37	13116.36
502.55	13020.40
502.72	13404.25
502.90	13359.78
503.07	13034.44
503.25	12744.22
503.43	12369.73
503.60	12154.40
503.78	11948.43
503.95	11583.31
504.13	12629.53
504.30	13282.54
504.48	13455.74
504.65	13343.39
504.83	13341.05
505.01	13544.68
505.18	13642.98
505.36	13769.37
505.53	13909.80
505.71	14178.97
505.88	14083.00
506.06	14038.53
506.23	13745.97
506.41	13493.19
506.58	13638.30
506.76	13565.74
506.93	13523.62
507.11	13551.70
507.28	13408.93
507.46	13373.82
507.63	13088.28
507.81	12812.09
507.98	13102.32
508.16	13170.19
508.33	13579.79
508.50	13884.06
508.68	14012.79
508.85	14363.87
509.03	14047.90
509.20	14265.57
509.38	14127.47
509.55	13734.26
509.73	13504.89
509.90	13881.72
510.08	14108.75
510.25	14211.73
510.42	14178.97
510.60	13825.54
510.77	14024.49
510.95	14335.78
511.12	14284.29
511.30	14534.73
511.47	14817.93
511.64	14689.20
511.82	14654.09
511.99	14157.90
512.17	14115.77
512.34	13811.50
512.51	14008.11
512.69	13923.85
512.86	14008.11
513.04	14193.01
513.21	14120.45
513.38	14134.50
513.56	13832.57
513.73	13584.47
513.90	13551.70
514.08	13715.54
514.25	13717.88
514.43	13879.38
514.60	14185.99
514.77	14146.20
514.95	14160.24
515.12	13699.16
515.29	13865.33
515.47	14366.21
515.64	14389.61
515.81	14389.61
515.99	14094.71
516.16	13348.08
516.33	12451.65
516.51	11789.28
516.68	11410.11
516.85	11262.66
517.03	11391.39
517.20	12226.96
517.37	13312.97
517.54	13848.95
517.72	13572.77
517.89	12849.54
518.06	11705.02
518.24	11885.24
518.41	12690.38
518.58	13357.44
518.75	13315.31
518.93	13483.83
519.10	13151.47
519.27	13713.20
519.45	13685.11
519.62	14036.19
519.79	14288.97
519.96	14377.91
520.14	14125.13
520.31	13774.05
520.48	13551.70
520.65	13825.54
520.83	14244.50
521.00	14490.26
521.17	14431.74
521.34	14066.62
521.52	14270.25
521.69	14600.26
521.86	14764.10
522.03	14572.18
522.20	14228.12
522.38	13640.64
522.55	13336.37
522.72	13954.27
522.89	13841.93
523.07	13940.23
523.24	14038.53
523.41	14527.71
523.58	14555.79
523.75	14801.55
523.92	14609.62
524.10	14813.25
524.27	14869.42
524.44	14773.46
524.61	14747.72
524.78	14462.17
524.96	14251.52
525.13	14391.95
525.30	14771.12
525.47	14815.59
525.64	14930.28
525.81	14558.13
525.98	13771.71
526.16	13181.90
526.33	12861.24
526.50	12449.31
526.67	12566.34
526.84	12564.00
527.01	13198.28
527.18	13542.34
527.36	13715.54
527.53	14160.24
527.70	14485.58
527.87	14457.49
528.04	14059.60
528.21	14090.02
528.38	14506.64
528.55	14927.94
528.72	15152.63
528.89	15157.31
529.07	14916.23
529.24	14583.88
529.41	14548.77
529.58	13891.08
529.75	13872.36
529.92	14436.42
530.09	14483.24
530.26	14768.78
530.43	14771.12
530.60	14792.19
530.77	15026.24
530.94	15295.40
531.11	14932.62
531.28	14757.08
531.46	14738.35
531.63	14834.32
531.80	14703.25
531.97	14581.54
532.14	14078.32
532.31	13369.14
532.48	13245.09
532.65	13362.12
532.82	13289.56
532.99	14132.15
533.16	14345.14
533.33	14710.27
533.50	14789.85
533.67	14115.77
533.84	14085.34
534.01	14167.26
534.18	14024.49
534.35	14249.18
534.52	14176.62
534.69	14434.08
534.86	14565.15
535.03	14555.79
535.20	15023.90
535.37	15033.26
535.54	15208.80
535.71	14956.02
535.88	15047.30
536.05	14530.05
536.22	14307.69
536.38	14178.97
536.55	14066.62
536.72	13640.64
536.89	13593.83
537.06	13968.32
537.23	14310.04
537.40	14534.73
537.57	14389.61
537.74	14604.94
537.91	14511.32
538.08	14483.24
538.25	14523.02
538.42	14476.21
538.59	14656.43
538.75	14054.92
538.92	13942.57
539.09	14068.96
539.26	13832.57
539.43	13551.70
539.60	13666.39
539.77	13710.86
539.94	13738.94
540.11	13635.96
540.28	13385.52
540.44	13053.17
540.61	13408.93
540.78	13282.54
540.95	13563.40
541.12	13687.45
541.29	13729.58
541.46	14008.11
541.62	14118.11
541.79	14040.87
541.96	13900.44
542.13	13778.73
542.30	14073.64
542.47	13977.68
542.63	13958.96
542.80	13994.06
542.97	14157.90
543.14	13582.13
543.31	13734.26
543.48	13851.29
543.64	14324.08
543.81	14675.16
543.98	14895.17
544.15	14324.08
544.32	14012.79
544.48	13867.67
544.65	13954.27
544.82	14391.95
544.99	13996.40
545.16	14045.55
545.32	14038.53
545.49	14424.72
545.66	14677.50
545.83	14834.32
546.00	14305.35
546.16	14024.49
546.33	13984.70
546.50	14078.32
546.67	14029.17
546.83	14078.32
547.00	13881.72
547.17	13589.15
547.34	13593.83
547.50	13530.64
547.67	13633.62
547.84	13657.03
548.00	13404.25
548.17	13956.61
548.34	14120.45
548.51	13792.78
548.67	14216.41
548.84	14153.22
549.01	13970.66
549.18	14001.08
549.34	14160.24
549.51	13860.65
549.68	13825.54
549.84	13877.04
550.01	13659.37
550.18	13752.99
550.34	14129.81
550.51	13589.15
550.68	13715.54
550.84	13713.20
551.01	13535.32
551.18	13275.52
551.34	13659.37
551.51	14160.24
551.68	14139.18
551.84	14111.09
552.01	13827.88
552.18	13696.82
552.34	13600.85
552.51	13296.58
552.68	12987.63
552.84	13228.71
553.01	13661.71
553.18	13547.02
553.34	13448.72
553.51	13647.66
553.67	13752.99
553.84	13781.07
554.01	13832.57
554.17	13685.11
554.34	13617.24
554.51	13776.39
554.67	13825.54
554.84	13818.52
555.00	13783.41
555.17	13542.34
555.33	13591.49
555.50	13448.72
555.67	13472.12
555.83	13509.57
556.00	13252.11
556.16	13516.59
556.33	13151.47
556.50	13348.08
556.66	13231.05
556.83	12896.35
556.99	13055.51
557.16	12999.34
557.32	12964.23
557.49	13343.39
557.65	13247.43
557.82	13095.30
557.98	13277.86
558.15	12957.21
558.32	12634.21
558.48	12430.59
558.65	12241.00
558.81	12547.61
558.98	12636.55
559.14	12648.26
559.31	12833.16
559.47	12929.12
559.64	12671.66
559.80	12589.74
559.97	12676.34
560.13	12840.18
560.30	13020.40
560.46	13163.17
560.63	13432.33
560.79	13359.78
560.96	13165.51
561.12	12793.37
561.29	12594.42
561.45	12475.06
561.61	12812.09
561.78	12961.89
561.94	12891.67
562.11	12870.61
562.27	12507.82
562.44	12713.79
562.60	12861.24
562.77	12788.69
562.93	13060.19
563.10	13088.28
563.26	12739.54
563.42	12978.27
563.59	12674.00
563.75	12730.17
563.92	12561.66
564.08	12767.62
564.24	12805.07
564.41	12772.30
564.57	12683.36
564.74	12837.84
564.90	12552.29
565.07	12854.22
565.23	12421.22
565.39	12264.41
565.56	12009.29
565.72	12011.63
565.88	11899.28
566.05	11971.84
566.21	12023.33
566.38	12325.26
566.54	12404.84
566.70	12404.84
566.87	12868.27
567.03	12348.67
567.19	12587.40
567.36	12355.69
567.52	12212.92
567.68	12252.70
567.85	11831.41
568.01	11587.99
568.17	11360.96
568.34	11604.38
568.50	11337.56
568.66	11279.04
568.83	11449.90
568.99	11569.27
569.15	11571.61
569.32	11531.82
569.48	11501.39
569.64	11304.79
569.81	11337.56
569.97	11440.54
570.13	11569.27
570.30	11169.04
570.46	11281.38
570.62	11014.56
570.78	11002.86
570.95	11070.73
571.11	11166.70
571.27	11459.26
571.43	11346.92
571.60	11358.62
571.76	11396.07
571.92	11555.22
572.09	11709.70
572.25	11826.73
572.41	11576.29
572.57	11492.03
572.74	11597.35
572.90	11431.18
573.06	11440.54
573.22	11660.55
573.38	11337.56
573.55	11447.56
573.71	11445.22
573.87	11377.34
574.03	11356.28
574.20	11101.16
574.36	11140.95
574.52	11087.12
574.68	11157.33
574.84	11222.87
575.01	11037.97
575.17	10977.11
575.33	10930.30
575.49	11234.57
575.65	11019.24
575.82	10888.17
575.98	10897.53
576.14	11044.99
576.30	11365.64
576.46	11344.58
576.62	11405.43
576.79	11145.63
576.95	11190.10
577.11	11164.36
577.27	11110.52
577.43	11129.25
577.59	11007.54
577.75	10867.11
577.92	10677.52
578.08	10544.11
578.24	10485.60
578.40	10853.06
578.56	11211.17
578.72	10967.75
578.88	10904.56
579.04	11241.59
579.21	11101.16
579.37	11257.98
579.53	11101.16
579.69	11204.14
579.85	11143.29
580.01	11330.53
580.17	11073.07
580.33	11152.65
580.49	10981.79
580.65	10890.51
580.82	11222.87
580.98	11323.51
581.14	11091.80
581.30	11192.44
581.46	11136.27
581.62	11250.96
581.78	11365.64
581.94	11328.19
582.10	11176.06
582.26	11499.05
582.42	11335.21
582.58	11337.56
582.74	10993.50
582.90	11302.45
583.06	11375.00
583.22	11183.08
583.38	11117.54
583.54	10906.90
583.70	11133.93
583.86	11082.44
584.02	11286.06
584.18	11257.98
584.34	11288.40
584.50	11164.36
584.66	10977.11
584.82	11150.31
584.98	10848.38
585.14	10670.50
585.30	10633.05
585.46	10614.33
585.62	10342.83
585.78	10537.09
585.94	10499.64
586.10	10471.56
586.26	10600.29
586.42	10654.12
586.58	10490.28
586.74	10717.31
586.90	10558.16
587.06	10382.62
587.22	10569.86
587.38	10200.05
587.54	10087.71
587.70	9961.32
587.86	9582.15
588.02	9404.27
588.18	9067.24
588.34	8706.79
588.49	8381.46
588.65	7681.64
588.81	7569.29
588.97	7786.96
589.13	7569.29
589.29	7613.76
589.45	7442.90
589.61	7672.28
589.77	8070.17
589.93	8194.22
590.08	8641.26
590.24	8858.93
590.40	9057.87
