SpectraSuite Data File
++++++++++++++++++++++++++++++++++++
Date: Fri Oct 04 11:44:24 GMT-05:00 2013
User: price-jones
Dark Spectrum Present: No
Reference Spectrum Present: No
Number of Sampled Component Spectra: 1
Spectrometers: USB2+H05261
Integration Time (usec): 100000 (USB2+H05261)
Spectra Averaged: 1 (USB2+H05261)
Boxcar Smoothing: 0 (USB2+H05261)
Correct for Electrical Dark: No (USB2+H05261)
Strobe/Lamp Enabled: No (USB2+H05261)
Correct for Detector Non-linearity: No (USB2+H05261)
Correct for Stray Light: No (USB2+H05261)
Number of Pixels in Processed Spectrum: 2048
>>>>>Begin Processed Spectral Data<<<<<
365.73	0.00
365.92	0.00
366.12	0.00
366.32	0.00
366.52	0.00
366.72	0.00
366.91	0.00
367.11	0.00
367.31	0.00
367.51	0.00
367.70	0.00
367.90	0.00
368.10	0.00
368.30	0.00
368.49	0.00
368.69	0.00
368.89	0.00
369.09	0.00
369.28	0.00
369.48	0.00
369.68	0.00
369.87	0.00
370.07	0.00
370.27	18.72
370.47	121.71
370.66	526.62
370.86	566.41
371.06	678.76
371.25	725.57
371.45	610.88
371.65	524.28
371.84	545.34
372.04	559.39
372.24	596.84
372.44	685.78
372.63	688.12
372.83	550.03
373.03	634.29
373.22	496.19
373.42	521.94
373.62	634.29
373.81	725.57
374.01	662.37
374.21	613.22
374.40	561.73
374.60	650.67
374.79	667.05
374.99	704.50
375.19	823.87
375.38	713.86
375.58	772.38
375.78	767.70
375.97	781.74
376.17	765.36
376.37	760.67
376.56	802.80
376.76	858.98
376.95	809.83
377.15	952.60
377.35	940.90
377.54	1006.43
377.74	1046.22
377.93	971.32
378.13	952.60
378.33	950.26
378.52	786.42
378.72	915.15
378.91	868.34
379.11	751.31
379.31	709.18
379.50	791.10
379.70	915.15
379.89	889.40
380.09	1020.47
380.28	868.34
380.48	990.05
380.68	880.04
380.87	821.53
381.07	910.47
381.26	763.01
381.46	828.55
381.65	711.52
381.85	720.88
382.04	706.84
382.24	683.44
382.43	608.54
382.63	617.90
382.83	706.84
383.02	622.58
383.22	751.31
383.41	608.54
383.61	664.71
383.80	755.99
384.00	877.70
384.19	938.55
384.39	964.30
384.58	938.55
384.78	954.94
384.97	945.58
385.17	858.98
385.36	875.36
385.56	863.66
385.75	807.48
385.95	889.40
386.14	992.39
386.34	973.66
386.53	908.13
386.72	945.58
386.92	924.51
387.11	830.89
387.31	976.00
387.50	966.64
387.70	973.66
387.89	954.94
388.09	887.06
388.28	903.45
388.48	891.74
388.67	1064.94
388.86	971.32
389.06	1132.82
389.25	1249.85
389.45	1188.99
389.64	1221.76
389.84	1240.48
390.03	1142.18
390.22	1125.80
390.42	1149.20
390.61	1273.25
390.81	1313.04
391.00	1301.34
391.19	1362.19
391.39	1275.59
391.58	1238.14
391.78	1163.25
391.97	1086.01
392.16	999.41
392.36	1027.50
392.55	833.23
392.75	748.97
392.94	617.90
393.13	641.31
393.33	704.50
393.52	805.14
393.71	1011.11
393.91	992.39
394.10	1130.48
394.29	1210.06
394.49	1238.14
394.68	1404.32
394.88	1444.11
395.07	1490.92
395.26	1401.98
395.46	1418.36
395.65	1284.95
395.84	1263.89
396.04	1090.69
396.23	798.12
396.42	777.06
396.62	751.31
396.81	786.42
397.00	1032.18
397.19	1196.01
397.39	1411.34
397.58	1664.12
397.77	1638.38
397.97	1593.90
398.16	1694.55
398.35	1900.52
398.55	1959.03
398.74	1893.49
398.93	1895.83
399.12	1865.41
399.32	1842.00
399.51	1884.13
399.70	1895.83
399.90	1994.14
400.09	1940.30
400.28	1996.48
400.47	2010.52
400.67	2115.84
400.86	2047.97
401.05	2078.40
401.24	2059.67
401.44	2122.87
401.63	2108.82
401.82	2181.38
402.01	2134.57
402.21	2069.03
402.40	2183.72
402.59	2127.55
402.78	1998.82
402.97	1959.03
403.17	2024.56
403.36	2143.93
403.55	2232.87
403.74	2244.57
403.93	2232.87
404.13	2181.38
404.32	2317.13
404.51	2267.98
404.70	2413.09
404.89	2139.25
405.09	2267.98
405.28	2155.63
405.47	2059.67
405.66	2047.97
405.85	2129.89
406.05	1970.73
406.24	2036.27
406.43	2040.95
406.62	2176.70
406.81	2246.91
407.00	2153.29
407.20	2101.80
407.39	2087.76
407.58	2237.55
407.77	2293.72
407.96	2345.22
408.15	2394.37
408.34	2331.17
408.54	2429.48
408.73	2361.60
408.92	2356.92
409.11	2382.67
409.30	2321.81
409.49	2052.65
409.68	1930.94
409.87	2010.52
410.07	2017.54
410.26	2207.13
410.45	2342.88
410.64	2387.35
410.83	2382.67
411.02	2476.29
411.21	2616.72
411.40	2548.84
411.59	2574.59
411.78	2471.61
411.98	2441.18
412.17	2450.54
412.36	2368.62
412.55	2499.69
412.74	2593.31
412.93	2417.77
413.12	2441.18
413.31	2705.66
413.50	2696.30
413.69	2619.06
413.88	2670.55
414.07	2436.50
414.26	2640.12
414.45	2597.99
414.64	2691.62
414.83	2581.61
415.02	2600.34
415.22	2630.76
415.41	2583.95
415.60	2691.62
415.79	2825.03
415.98	2942.05
416.17	2939.71
416.36	2722.04
416.55	2869.50
416.74	2803.96
416.93	2633.10
417.12	2595.65
417.31	2726.72
417.50	2647.15
417.69	2855.45
417.88	2663.53
418.07	2679.91
418.26	2583.95
418.45	2808.64
418.64	2871.84
418.83	2841.41
419.02	2958.44
419.21	2803.96
419.39	2750.13
419.58	2640.12
419.77	2630.76
419.96	2771.19
420.15	2904.60
420.34	2869.50
420.53	2951.42
420.72	2946.73
420.91	3124.62
421.10	3002.91
421.29	2970.14
421.48	2984.18
421.67	2951.42
421.86	2888.22
422.05	2862.48
422.24	2516.08
422.43	2520.76
422.61	2663.53
422.80	2855.45
422.99	2878.86
423.18	2848.43
423.37	2841.41
423.56	2832.05
423.75	2836.73
423.94	2836.73
424.13	2696.30
424.32	2789.92
424.50	2754.81
424.69	2633.10
424.88	2801.62
425.07	2710.34
425.26	2710.34
425.45	2647.15
425.64	2581.61
425.83	2647.15
426.01	2871.84
426.20	2773.53
426.39	2825.03
426.58	2609.70
426.77	2436.50
426.96	2417.77
427.15	2541.82
427.33	2633.10
427.52	2700.98
427.71	2705.66
427.90	2775.88
428.09	2722.04
428.28	2691.62
428.46	2459.90
428.65	2445.86
428.84	2614.38
429.03	2738.43
429.22	2518.42
429.40	2275.00
429.59	2270.32
429.78	2054.99
429.97	1944.99
430.16	2022.22
430.34	2052.65
430.53	2045.63
430.72	2104.14
430.91	2277.34
431.10	2555.86
431.28	2984.18
431.47	3129.30
431.66	3248.66
431.85	3009.93
432.03	2722.04
432.22	2729.06
432.41	2806.30
432.60	2984.18
432.79	2949.08
432.97	3185.47
433.16	3061.42
433.35	2860.13
433.54	2684.59
433.72	2600.34
433.91	2523.10
434.10	2808.64
434.28	2984.18
434.47	3075.46
434.66	3258.03
434.85	3073.12
435.03	3150.36
435.22	3695.71
435.41	4423.61
435.59	4629.58
435.78	4486.81
435.97	3810.39
436.16	3578.68
436.34	3478.04
436.53	3288.45
436.72	3251.00
436.90	3073.12
437.09	3157.38
437.28	3054.40
437.46	3206.53
437.65	3115.25
437.84	3019.29
438.02	2740.77
438.21	2740.77
438.40	2803.96
438.58	3033.33
438.77	3190.15
438.96	3059.08
439.14	3220.58
439.33	3295.47
439.52	3417.18
439.70	3251.00
439.89	3251.00
440.08	3150.36
440.26	3131.64
440.45	3206.53
440.63	3524.85
440.82	3721.45
441.01	3595.06
441.19	3468.67
441.38	3616.13
441.57	3590.38
441.75	3698.05
441.94	3761.24
442.12	3679.32
442.31	3669.96
442.50	3761.24
442.68	3662.94
442.87	3700.39
443.05	3679.32
443.24	3658.26
443.43	3770.60
443.61	3962.53
443.80	3861.88
443.98	3765.92
444.17	3712.09
444.35	3962.53
444.54	3875.93
444.73	3815.07
444.91	3740.18
445.10	3515.48
445.28	3426.54
445.47	3543.57
445.65	3543.57
445.84	3578.68
446.02	3669.96
446.21	3644.21
446.39	3796.35
446.58	3775.28
446.77	3789.33
446.95	3796.35
447.14	3901.67
447.32	4049.13
447.51	3964.87
447.69	3728.47
447.88	3672.30
448.06	3761.24
448.25	3880.61
448.43	3901.67
448.62	3913.38
448.80	3861.88
448.99	3784.65
449.17	3822.09
449.36	3894.65
449.54	4037.42
449.73	4112.32
449.91	4201.26
450.10	4161.47
450.28	4311.27
450.46	4257.43
450.65	4315.95
450.83	4189.56
451.02	4117.00
451.20	4065.51
451.39	4147.43
451.57	4065.51
451.76	4126.36
451.94	4004.66
452.13	3981.25
452.31	3894.65
452.49	3782.31
452.68	3557.61
452.86	3751.88
453.05	3761.24
453.23	3922.74
453.42	3918.06
453.60	4011.68
453.78	4109.98
453.97	3904.01
454.15	3911.04
454.34	3906.35
454.52	4100.62
454.70	3964.87
454.89	3850.18
455.07	3985.93
455.26	4187.22
455.44	4074.87
455.62	4072.53
455.81	4105.30
455.99	4163.81
456.17	3953.16
456.36	4154.45
456.54	4252.75
456.73	4276.16
456.91	4215.30
457.09	4290.20
457.28	4526.60
457.46	4248.07
457.64	4325.31
457.83	4121.68
458.01	3936.78
458.19	4217.65
458.38	4084.23
458.56	4161.47
458.74	4135.73
458.93	4217.65
459.11	3962.53
459.29	4168.49
459.48	4161.47
459.66	4140.41
459.84	4117.00
460.03	4262.12
460.21	4243.39
460.39	4219.99
460.57	4372.12
460.76	4365.10
460.94	4397.87
461.12	4311.27
461.31	4273.82
461.49	4252.75
461.67	4383.82
461.85	4491.49
462.04	4388.50
462.22	4772.35
462.40	4297.22
462.59	4383.82
462.77	4315.95
462.95	4341.69
463.13	4421.27
463.32	4212.96
463.50	4283.18
463.68	4224.67
463.86	4294.88
464.05	4217.65
464.23	4112.32
464.41	4241.05
464.59	4133.39
464.78	4250.41
464.96	4332.33
465.14	4124.02
465.32	4346.37
465.50	4456.38
465.69	4440.00
465.87	4259.78
466.05	4306.59
466.23	4128.70
466.41	3857.20
466.60	4032.74
466.78	4079.55
466.96	4004.66
467.14	4280.84
467.32	4458.72
467.51	4304.25
467.69	4065.51
467.87	4222.33
468.05	4140.41
468.23	4252.75
468.41	4294.88
468.60	4184.88
468.78	4224.67
468.96	4262.12
469.14	4271.48
469.32	4285.52
469.50	4100.62
469.69	4175.52
469.87	4168.49
470.05	4189.56
470.23	4067.85
470.41	4126.36
470.59	4196.58
470.77	4072.53
470.95	4182.54
471.14	4367.44
471.32	4222.33
471.50	4414.25
471.68	4617.88
471.86	4519.57
472.04	4526.60
472.22	4585.11
472.40	4418.93
472.58	4311.27
472.77	4271.48
472.95	4435.32
473.13	4594.47
473.31	4351.06
473.49	4393.19
473.67	4379.14
473.85	4482.13
474.03	4652.98
474.21	4683.41
474.39	4596.81
474.57	4774.69
474.75	4695.11
474.93	4641.28
475.12	4463.40
475.30	4545.32
475.48	4669.37
475.66	4723.20
475.84	4777.03
476.02	4568.73
476.20	4505.53
476.38	4652.98
476.56	4800.44
476.74	4753.63
476.92	4788.74
477.10	4762.99
477.28	4854.27
477.46	4699.80
477.64	5020.45
477.82	4990.02
478.00	5172.58
478.18	5062.58
478.36	4851.93
478.54	4964.28
478.72	5039.17
478.90	5226.42
479.08	5275.57
479.26	5331.74
479.44	5352.81
479.62	5247.48
479.80	5336.42
479.98	5268.55
480.16	5439.40
480.34	5427.70
480.52	5401.96
480.70	5483.88
480.88	5322.38
481.06	5533.03
481.24	5493.24
481.41	5652.39
481.59	5734.31
481.77	5633.67
481.95	5781.12
482.13	5741.33
482.31	5638.35
482.49	5708.57
482.67	5654.73
482.85	5891.13
483.03	5888.79
483.21	5994.11
483.39	5839.64
483.57	5809.21
483.74	5806.87
483.92	5935.60
484.10	5783.46
484.28	6047.94
484.46	6059.65
484.64	6120.50
484.82	6090.07
485.00	5942.62
485.18	5710.91
485.35	5834.96
485.53	5284.93
485.71	4983.00
485.89	4865.97
486.07	5022.79
486.25	5343.44
486.43	5626.65
486.61	5741.33
486.78	5785.80
486.96	5717.93
487.14	5951.98
487.32	6169.65
487.50	6417.75
487.68	6544.14
487.85	6534.78
488.03	6518.39
488.21	6497.33
488.39	6359.24
488.57	6237.53
488.75	6202.42
488.92	6682.23
489.10	6743.08
489.28	7115.23
489.46	7091.82
489.64	7152.68
489.81	7019.27
489.99	7220.55
490.17	7204.17
490.35	7463.97
490.53	7171.40
490.70	6825.00
490.88	7026.29
491.06	7243.96
491.24	7318.86
491.41	6988.84
491.59	6803.94
491.77	6490.31
491.95	6628.40
492.13	7012.24
492.30	7239.28
492.48	7501.42
492.66	7618.44
492.84	7637.17
493.01	7272.04
493.19	7180.76
493.37	7463.97
493.54	7101.19
493.72	7360.98
493.90	7468.65
494.08	7611.42
494.25	7770.58
494.43	7978.89
494.61	8009.31
494.79	7976.55
494.96	7770.58
495.14	7761.22
495.32	7676.96
495.49	7545.89
495.67	7744.83
495.85	8212.94
496.02	8159.11
496.20	7950.80
496.38	7999.95
496.55	7892.29
496.73	8163.79
496.91	8102.93
497.09	8217.62
497.26	8372.10
497.44	8147.40
497.62	8018.68
497.79	7758.88
497.97	7646.53
498.14	7623.12
498.32	7562.27
498.50	7913.35
498.67	8243.37
498.85	8102.93
499.03	8210.60
499.20	8365.07
499.38	8376.78
499.56	8215.28
499.73	8016.33
499.91	7864.20
500.08	7866.54
500.26	7775.26
500.44	7878.24
500.61	7733.13
500.79	7793.98
500.97	7939.10
501.14	7803.35
501.32	7583.34
501.49	7683.98
501.67	7681.64
501.84	7665.25
502.02	7779.94
502.20	7899.31
502.37	7850.16
502.55	7882.92
502.72	8013.99
502.90	8063.15
503.07	7887.61
503.25	7791.64
503.43	7529.50
503.60	7428.86
503.78	7091.82
503.95	7155.02
504.13	7658.23
504.30	8142.72
504.48	8177.83
504.65	8203.58
504.83	8166.13
505.01	8294.86
505.18	8266.77
505.36	8535.93
505.53	8224.64
505.71	8301.88
505.88	8727.86
506.06	8168.47
506.23	8032.72
506.41	8159.11
506.58	8205.92
506.76	8159.11
506.93	8329.97
507.11	8018.68
507.28	8088.89
507.46	7850.16
507.63	7889.95
507.81	7838.45
507.98	7964.84
508.16	8124.00
508.33	8360.39
508.50	8514.87
508.68	8372.10
508.85	8643.60
509.03	8704.45
509.20	8578.06
509.38	8400.18
509.55	8084.21
509.73	8355.71
509.90	8442.31
510.08	8250.39
510.25	8395.50
510.42	8528.91
510.60	8297.20
510.77	8491.46
510.95	8472.74
511.12	8468.06
511.30	8910.42
511.47	8908.08
511.64	8898.72
511.82	8800.41
511.99	8634.24
512.17	8540.61
512.34	8428.27
512.51	8187.19
512.69	8491.46
512.86	8439.97
513.04	8498.49
513.21	8622.53
513.38	8585.08
513.56	8475.08
513.73	8051.44
513.90	8126.34
514.08	8145.06
514.25	8297.20
514.43	8341.67
514.60	8535.93
514.77	8545.30
514.95	8461.04
515.12	8404.86
515.29	8463.38
515.47	8540.61
515.64	8760.63
515.81	8475.08
515.99	8477.42
516.16	7906.33
516.33	7405.46
516.51	7145.66
516.68	6935.01
516.85	6932.67
517.03	7014.59
517.20	7304.81
517.37	8084.21
517.54	8285.50
517.72	8336.99
517.89	7721.43
518.06	7260.34
518.24	7166.72
518.41	7829.09
518.58	7969.52
518.75	8056.12
518.93	8166.13
519.10	8219.96
519.27	8332.31
519.45	8325.29
519.62	8596.79
519.79	8697.43
519.96	8641.26
520.14	8458.70
520.31	8332.31
520.48	8215.28
520.65	8334.65
520.83	8662.32
521.00	8746.58
521.17	8589.77
521.34	8603.81
521.52	8540.61
521.69	8786.37
521.86	8968.93
522.03	8851.91
522.20	8461.04
522.38	8016.33
522.55	8269.11
522.72	8203.58
522.89	8219.96
523.07	8547.64
523.24	8542.96
523.41	8608.49
523.58	8610.83
523.75	8795.73
523.92	8842.54
524.10	8905.74
524.27	8908.08
524.44	8769.99
524.61	8737.22
524.78	8823.82
524.96	8564.02
525.13	8662.32
525.30	8786.37
525.47	8877.65
525.64	9046.17
525.81	8643.60
525.98	8407.20
526.16	8044.42
526.33	7810.37
526.50	7658.23
526.67	7506.10
526.84	7541.21
527.01	7836.11
527.18	8077.19
527.36	8390.82
527.53	8725.52
527.70	8781.69
527.87	8535.93
528.04	8430.61
528.21	8449.33
528.38	8851.91
528.55	9092.98
528.72	9181.92
528.89	9226.39
529.07	9252.14
529.24	8727.86
529.41	8741.90
529.58	8472.74
529.75	8542.96
529.92	8727.86
530.09	8765.31
530.26	8945.53
530.43	9088.30
530.60	9018.08
530.77	9160.86
530.94	9116.39
531.11	9092.98
531.28	8929.14
531.46	8844.88
531.63	8915.10
531.80	8788.71
531.97	8718.50
532.14	8386.14
532.31	8329.97
532.48	8016.33
532.65	8121.66
532.82	8131.02
532.99	8606.15
533.16	8659.98
533.33	8844.88
533.50	8767.65
533.67	8454.02
533.84	8503.17
534.01	8650.62
534.18	8531.25
534.35	8531.25
534.52	8498.49
534.69	8788.71
534.86	8919.78
535.03	8840.20
535.20	8898.72
535.37	9144.47
535.54	9355.12
535.71	9055.53
535.88	8943.19
536.05	8716.16
536.22	8566.36
536.38	8582.74
536.55	8421.25
536.72	8156.77
536.89	8344.01
537.06	8437.63
537.23	8877.65
537.40	8840.20
537.57	8795.73
537.74	8830.84
537.91	8964.25
538.08	8779.35
538.25	8875.31
538.42	8891.70
538.59	8835.52
538.75	8655.30
538.92	8620.19
539.09	8374.44
539.26	8322.94
539.43	8578.06
539.60	8344.01
539.77	8489.12
539.94	8695.09
540.11	8444.65
540.28	8332.31
540.44	8400.18
540.61	8538.27
540.78	8479.76
540.95	8641.26
541.12	9027.45
541.29	9469.81
541.46	9568.11
541.62	9898.13
541.79	9586.83
541.96	9458.10
542.13	9177.24
542.30	9210.01
542.47	9521.30
542.63	9235.75
542.80	9191.28
542.97	9102.34
543.14	9224.05
543.31	8950.21
543.48	9125.75
543.64	9413.63
543.81	9647.69
543.98	9635.99
544.15	9362.14
544.32	9282.56
544.48	9076.60
544.65	9111.71
544.82	9528.32
544.99	9446.40
545.16	9172.56
545.32	9245.12
545.49	9856.00
545.66	11257.98
545.83	12023.33
546.00	11667.57
546.16	10335.81
546.33	9930.89
546.50	9437.04
546.67	9345.76
546.83	9020.42
547.00	9083.62
547.17	8926.80
547.34	8692.75
547.50	8655.30
547.67	8858.93
547.84	8711.47
548.00	8933.82
548.17	8863.61
548.34	8926.80
548.51	8889.35
548.67	8971.27
548.84	9048.51
549.01	8704.45
549.18	8784.03
549.34	8894.04
549.51	8622.53
549.68	8596.79
549.84	8461.04
550.01	8603.81
550.18	8674.03
550.34	8772.33
550.51	8596.79
550.68	8594.45
550.84	8437.63
551.01	8336.99
551.18	8528.91
551.34	8437.63
551.51	8505.51
551.68	8549.98
551.84	8655.30
552.01	8538.27
552.18	8512.53
552.34	8428.27
552.51	8119.32
552.68	8245.71
552.84	8180.17
553.01	8318.26
553.18	8210.60
553.34	8023.36
553.51	8215.28
553.67	8423.59
553.84	8449.33
554.01	8290.18
554.17	8273.79
554.34	8219.96
554.51	8304.22
554.67	8339.33
554.84	8454.02
555.00	8615.51
555.17	8184.85
555.33	8376.78
555.50	8072.51
555.67	8135.70
555.83	8145.06
556.00	7990.59
556.16	8269.11
556.33	7929.74
556.50	7822.07
556.66	7882.92
556.83	7751.85
556.99	7744.83
557.16	7920.37
557.32	7903.99
557.49	8278.47
557.65	7964.84
557.82	7957.82
557.98	8013.99
558.15	7995.27
558.32	7683.98
558.48	7623.12
558.65	7501.42
558.81	7681.64
558.98	7447.58
559.14	7646.53
559.31	7515.46
559.47	7686.32
559.64	7625.47
559.80	7604.40
559.97	7644.19
560.13	7616.10
560.30	7859.52
560.46	7929.74
560.63	8013.99
560.79	8187.19
560.96	7880.58
561.12	7648.87
561.29	7478.01
561.45	7396.09
561.61	7548.23
561.78	7847.82
561.94	7653.55
562.11	7585.68
562.27	7683.98
562.44	7508.44
562.60	7742.49
562.77	7749.51
562.93	7840.79
563.10	7845.48
563.26	7396.09
563.42	7679.30
563.59	7637.17
563.75	7499.08
563.92	7583.34
564.08	7503.76
564.24	7681.64
564.41	7681.64
564.57	7606.74
564.74	7559.93
564.90	7368.01
565.07	7468.65
565.23	7431.20
565.39	7428.86
565.56	7215.87
565.72	7115.23
565.88	7274.38
566.05	7222.89
566.21	7157.36
566.38	7407.80
566.54	7454.61
566.70	7496.74
566.87	7639.51
567.03	7480.35
567.19	7529.50
567.36	7445.24
567.52	7499.08
567.68	7332.90
567.85	7187.79
568.01	7026.29
568.17	6951.39
568.34	6916.28
568.50	6874.15
568.66	6960.75
568.83	7108.21
568.99	6899.90
569.15	7234.60
569.32	7131.61
569.48	6923.30
569.64	6890.54
569.81	7084.80
569.97	6827.34
570.13	6853.09
570.30	6916.28
570.46	6780.53
570.62	6637.76
570.78	6736.06
570.95	6565.20
571.11	6693.93
571.27	6733.72
571.43	6782.87
571.60	6942.03
571.76	6822.66
571.92	7028.63
572.09	7138.63
572.25	7126.93
572.41	7084.80
572.57	6799.26
572.74	6899.90
572.90	6951.39
573.06	7035.65
573.22	6757.13
573.38	6916.28
573.55	6998.20
573.71	7047.35
573.87	6881.18
574.03	6850.75
574.20	6876.49
574.36	6743.08
574.52	6686.91
574.68	6778.19
574.84	6696.27
575.01	6546.48
575.17	6609.67
575.33	6679.89
575.49	6504.35
575.65	6850.75
575.82	6569.88
575.98	6672.87
576.14	6689.25
576.30	6932.67
576.46	7124.59
576.62	7351.62
576.79	7356.30
576.95	7117.57
577.11	6946.71
577.27	6984.16
577.43	6799.26
577.59	6895.22
577.75	6612.01
577.92	6586.27
578.08	6607.33
578.24	6434.13
578.40	6654.14
578.56	6832.02
578.72	7166.72
578.88	7255.66
579.04	7080.12
579.21	6867.13
579.37	6820.32
579.53	6857.77
579.69	6878.83
579.85	6988.84
580.01	6918.62
580.17	6949.05
580.33	6768.83
580.49	6848.41
580.65	7063.74
580.82	6981.82
580.98	6771.17
581.14	6874.15
581.30	6810.96
581.46	6867.13
581.62	6857.77
581.78	6832.02
581.94	7026.29
582.10	7042.67
582.26	7098.84
582.42	7019.27
582.58	6942.03
582.74	6881.18
582.90	7133.95
583.06	6970.12
583.22	7119.91
583.38	6984.16
583.54	6881.18
583.70	7023.95
583.86	6949.05
584.02	6970.12
584.18	6843.73
584.34	6874.15
584.50	6883.52
584.66	6909.26
584.82	6698.61
584.98	6846.07
585.14	6696.27
585.30	6616.69
585.46	6464.56
585.62	6380.30
585.78	6520.73
585.94	6492.65
586.10	6394.34
586.26	6413.07
586.42	6607.33
586.58	6703.29
586.74	6689.25
586.90	6604.99
587.06	6846.07
587.22	6705.63
587.38	6593.29
587.54	6429.45
587.70	6352.21
587.86	6160.29
588.02	5804.53
588.18	5650.05
588.34	5636.01
588.49	5095.35
588.65	4952.57
588.81	4746.61
588.97	4802.78
589.13	4739.58
589.29	4692.77
589.45	4718.52
589.61	4865.97
589.77	5249.82
589.93	5100.03
590.08	5392.59
590.24	5497.92
590.40	5453.45
590.56	5467.49
590.72	5420.68
590.88	5329.40
591.04	5380.89
591.20	5352.81
591.35	5228.76
591.51	5521.32
591.67	5392.59
591.83	5298.97
591.99	5301.31
592.15	5334.08
592.31	5701.54
592.46	5586.86
592.62	5937.94
592.78	5935.60
592.94	5870.06
593.10	5940.28
593.26	5928.58
593.41	6015.18
593.57	5930.92
593.73	5680.48
593.89	5394.93
594.05	5378.55
594.20	5090.67
594.36	4961.94
594.52	5062.58
594.68	5177.26
594.84	5238.12
594.99	5472.17
595.15	5605.58
595.31	5605.58
595.47	5561.11
595.62	5383.23
595.78	5568.13
595.94	5696.86
596.10	5867.72
596.25	5561.11
596.41	5418.34
596.57	5261.52
596.73	5476.85
596.88	5785.80
597.04	5727.29
597.20	5488.56
597.36	5502.60
597.51	5617.29
