SpectraSuite Data File
++++++++++++++++++++++++++++++++++++
Date: Fri Oct 04 11:44:28 GMT-05:00 2013
User: price-jones
Dark Spectrum Present: No
Reference Spectrum Present: No
Number of Sampled Component Spectra: 1
Spectrometers: USB2+H05261
Integration Time (usec): 100000 (USB2+H05261)
Spectra Averaged: 1 (USB2+H05261)
Boxcar Smoothing: 0 (USB2+H05261)
Correct for Electrical Dark: No (USB2+H05261)
Strobe/Lamp Enabled: No (USB2+H05261)
Correct for Detector Non-linearity: No (USB2+H05261)
Correct for Stray Light: No (USB2+H05261)
Number of Pixels in Processed Spectrum: 2048
>>>>>Begin Processed Spectral Data<<<<<
365.73	35.11
365.92	35.11
366.12	35.11
366.32	0.00
366.52	0.00
366.72	0.00
366.91	0.00
367.11	0.00
367.31	0.00
367.51	0.00
367.70	0.00
367.90	0.00
368.10	0.00
368.30	0.00
368.49	0.00
368.69	0.00
368.89	0.00
369.09	0.00
369.28	0.00
369.48	0.00
369.68	0.00
369.87	0.00
370.07	0.00
370.27	30.43
370.47	0.00
370.66	49.15
370.86	77.24
371.06	91.28
371.25	208.31
371.45	117.03
371.65	135.75
371.84	124.05
372.04	114.69
372.24	131.07
372.44	168.52
372.63	124.05
372.83	205.97
373.03	227.03
373.22	145.11
373.42	220.01
373.62	163.84
373.81	133.41
374.01	203.63
374.21	234.05
374.40	100.64
374.60	196.60
374.79	149.79
374.99	98.30
375.19	210.65
375.38	215.33
375.58	198.95
375.78	201.29
375.97	273.84
376.17	217.67
376.37	175.54
376.56	238.73
376.76	119.37
376.95	175.54
377.15	229.37
377.35	173.20
377.54	161.50
377.74	191.92
377.93	262.14
378.13	135.75
378.33	205.97
378.52	191.92
378.72	170.86
378.91	166.18
379.11	227.03
379.31	102.98
379.50	166.18
379.70	210.65
379.89	217.67
380.09	149.79
380.28	177.88
380.48	210.65
380.68	156.82
380.87	208.31
381.07	257.46
381.26	241.08
381.46	147.45
381.65	166.18
381.85	149.79
382.04	128.73
382.24	205.97
382.43	231.71
382.63	177.88
382.83	187.24
383.02	147.45
383.22	138.09
383.41	124.05
383.61	189.58
383.80	145.11
384.00	187.24
384.19	177.88
384.39	236.39
384.58	191.92
384.78	222.35
384.97	140.43
385.17	18.72
385.36	161.50
385.56	259.80
385.75	163.84
385.95	182.56
386.14	128.73
386.34	175.54
386.53	217.67
386.72	170.86
386.92	276.18
387.11	217.67
387.31	208.31
387.50	131.07
387.70	182.56
387.89	170.86
388.09	189.58
388.28	180.22
388.48	198.95
388.67	198.95
388.86	210.65
389.06	241.08
389.25	238.73
389.45	182.56
389.64	198.95
389.84	229.37
390.03	220.01
390.22	170.86
390.42	255.12
390.61	245.76
390.81	140.43
391.00	266.82
391.19	285.55
391.39	245.76
391.58	290.23
391.78	175.54
391.97	170.86
392.16	147.45
392.36	248.10
392.55	222.35
392.75	156.82
392.94	175.54
393.13	100.64
393.33	149.79
393.52	201.29
393.71	212.99
393.91	140.43
394.10	217.67
394.29	257.46
394.49	168.52
394.68	191.92
394.88	290.23
395.07	227.03
395.26	278.52
395.46	208.31
395.65	285.55
395.84	152.13
396.04	266.82
396.23	166.18
396.42	224.69
396.62	166.18
396.81	215.33
397.00	271.50
397.19	229.37
397.39	297.25
397.58	351.08
397.77	355.76
397.97	271.50
398.16	304.27
398.35	283.20
398.55	278.52
398.74	278.52
398.93	308.95
399.12	266.82
399.32	285.55
399.51	283.20
399.70	362.78
399.90	290.23
400.09	276.18
400.28	346.40
400.47	306.61
400.67	308.95
400.86	334.70
401.05	278.52
401.24	362.78
401.44	332.36
401.63	290.23
401.82	421.30
402.01	241.08
402.21	280.86
402.40	358.10
402.59	404.91
402.78	304.27
402.97	304.27
403.17	322.99
403.36	362.78
403.55	388.53
403.74	341.72
403.93	344.06
404.13	451.72
404.32	390.87
404.51	451.72
404.70	395.55
404.89	383.85
405.09	294.91
405.28	348.74
405.47	334.70
405.66	402.57
405.85	400.23
406.05	332.36
406.24	320.65
406.43	397.89
406.62	355.76
406.81	430.66
407.00	369.80
407.20	369.80
407.39	360.44
407.58	376.83
407.77	369.80
407.96	451.72
408.15	358.10
408.34	383.85
408.54	386.19
408.73	433.00
408.92	386.19
409.11	397.89
409.30	372.15
409.49	344.06
409.68	264.48
409.87	318.31
410.07	348.74
410.26	334.70
410.45	313.63
410.64	315.97
410.83	416.62
411.02	472.79
411.21	344.06
411.40	428.32
411.59	325.33
411.78	297.25
411.98	365.12
412.17	397.89
412.36	304.27
412.55	411.93
412.74	367.46
412.93	463.43
413.12	355.76
413.31	395.55
413.50	402.57
413.69	463.43
413.88	461.09
414.07	425.98
414.26	341.72
414.45	346.40
414.64	435.34
414.83	440.02
415.02	402.57
415.22	414.27
415.41	365.12
415.60	463.43
415.79	472.79
415.98	388.53
416.17	397.89
416.36	430.66
416.55	449.38
416.74	451.72
416.93	465.77
417.12	402.57
417.31	414.27
417.50	440.02
417.69	379.17
417.88	437.68
418.07	416.62
418.26	430.66
418.45	449.38
418.64	447.04
418.83	514.92
419.02	489.17
419.21	433.00
419.39	489.17
419.58	379.17
419.77	416.62
419.96	440.02
420.15	458.74
420.34	475.13
420.53	433.00
420.72	519.60
420.91	458.74
421.10	430.66
421.29	423.64
421.48	442.36
421.67	475.13
421.86	433.00
422.05	475.13
422.24	402.57
422.43	421.30
422.61	451.72
422.80	407.25
422.99	524.28
423.18	486.83
423.37	543.00
423.56	482.15
423.75	435.34
423.94	337.04
424.13	428.32
424.32	475.13
424.50	433.00
424.69	423.64
424.88	447.04
425.07	376.83
425.26	346.40
425.45	388.53
425.64	397.89
425.83	496.19
426.01	451.72
426.20	435.34
426.39	395.55
426.58	423.64
426.77	411.93
426.96	383.85
427.15	369.80
427.33	472.79
427.52	348.74
427.71	447.04
427.90	423.64
428.09	414.27
428.28	332.36
428.46	395.55
428.65	416.62
428.84	360.44
429.03	437.68
429.22	393.21
429.40	381.51
429.59	320.65
429.78	388.53
429.97	400.23
430.16	278.52
430.34	341.72
430.53	325.33
430.72	369.80
430.91	358.10
431.10	428.32
431.28	437.68
431.47	388.53
431.66	458.74
431.85	367.46
432.03	400.23
432.22	423.64
432.41	430.66
432.60	440.02
432.79	561.73
432.97	433.00
433.16	451.72
433.35	425.98
433.54	430.66
433.72	414.27
433.91	411.93
434.10	433.00
434.28	433.00
434.47	538.32
434.66	528.96
434.85	418.96
435.03	566.41
435.22	870.68
435.41	1329.42
435.59	1380.92
435.78	1015.79
435.97	770.04
436.16	624.92
436.34	559.39
436.53	559.39
436.72	486.83
436.90	440.02
437.09	503.22
437.28	468.11
437.46	449.38
437.65	517.26
437.84	475.13
438.02	437.68
438.21	397.89
438.40	407.25
438.58	461.09
438.77	531.30
438.96	507.90
439.14	505.56
439.33	526.62
439.52	491.51
439.70	507.90
439.89	479.81
440.08	465.77
440.26	594.50
440.45	624.92
440.63	627.26
440.82	526.62
441.01	552.37
441.19	461.09
441.38	535.98
441.57	601.52
441.75	510.24
441.94	603.86
442.12	578.11
442.31	491.51
442.50	517.26
442.68	547.69
442.87	491.51
443.05	514.92
443.24	608.54
443.43	547.69
443.61	578.11
443.80	571.09
443.98	566.41
444.17	557.05
444.35	655.35
444.54	554.71
444.73	575.77
444.91	578.11
445.10	571.09
445.28	524.28
445.47	526.62
445.65	496.19
445.84	601.52
446.02	550.03
446.21	561.73
446.39	524.28
446.58	575.77
446.77	589.82
446.95	580.45
447.14	587.47
447.32	491.51
447.51	505.56
447.69	528.96
447.88	498.53
448.06	615.56
448.25	599.18
448.43	528.96
448.62	526.62
448.80	594.50
448.99	709.18
449.17	585.13
449.36	573.43
449.54	615.56
449.73	538.32
449.91	653.01
450.10	624.92
450.28	629.60
450.46	667.05
450.65	585.13
450.83	587.47
451.02	585.13
451.20	620.24
451.39	587.47
451.57	601.52
451.76	631.94
451.94	571.09
452.13	557.05
452.31	568.75
452.49	554.71
452.68	519.60
452.86	550.03
453.05	575.77
453.23	622.58
453.42	575.77
453.60	592.16
453.78	594.50
453.97	528.96
454.15	561.73
454.34	503.22
454.52	636.63
454.70	650.67
454.89	638.97
455.07	566.41
455.26	594.50
455.44	643.65
455.62	578.11
455.81	660.03
455.99	601.52
456.17	578.11
456.36	610.88
456.54	660.03
456.73	653.01
456.91	617.90
457.09	643.65
457.28	676.41
457.46	631.94
457.64	638.97
457.83	568.75
458.01	561.73
458.19	695.14
458.38	631.94
458.56	653.01
458.74	603.86
458.93	664.71
459.11	624.92
459.29	594.50
459.48	528.96
459.66	706.84
459.84	587.47
460.03	751.31
460.21	629.60
460.39	636.63
460.57	653.01
460.76	617.90
460.94	608.54
461.12	690.46
461.31	669.39
461.49	645.99
461.67	559.39
461.85	601.52
462.04	599.18
462.22	1095.37
462.40	629.60
462.59	699.82
462.77	627.26
462.95	657.69
463.13	657.69
463.32	641.31
463.50	594.50
463.68	580.45
463.86	641.31
464.05	699.82
464.23	610.88
464.41	601.52
464.59	528.96
464.78	561.73
464.96	594.50
465.14	596.84
465.32	580.45
465.50	648.33
465.69	587.47
465.87	620.24
466.05	650.67
466.23	559.39
466.41	636.63
466.60	524.28
466.78	634.29
466.96	704.50
467.14	636.63
467.32	657.69
467.51	669.39
467.69	664.71
467.87	620.24
468.05	585.13
468.23	667.05
468.41	561.73
468.60	610.88
468.78	648.33
468.96	685.78
469.14	627.26
469.32	634.29
469.50	608.54
469.69	596.84
469.87	641.31
470.05	554.71
470.23	617.90
470.41	575.77
470.59	610.88
470.77	627.26
470.95	664.71
471.14	662.37
471.32	624.92
471.50	793.44
471.68	664.71
471.86	641.31
472.04	636.63
472.22	718.54
472.40	634.29
472.58	578.11
472.77	610.88
472.95	594.50
473.13	706.84
473.31	688.12
473.49	676.41
473.67	610.88
473.85	643.65
474.03	709.18
474.21	702.16
474.39	732.59
474.57	699.82
474.75	622.58
474.93	664.71
475.12	692.80
475.30	648.33
475.48	601.52
475.66	594.50
475.84	578.11
476.02	650.67
476.20	627.26
476.38	655.35
476.56	788.76
476.74	676.41
476.92	634.29
477.10	622.58
477.28	664.71
477.46	786.42
477.64	699.82
477.82	751.31
478.00	697.48
478.18	723.23
478.36	760.67
478.54	704.50
478.72	634.29
478.90	723.23
479.08	802.80
479.26	795.78
479.44	753.65
479.62	777.06
479.80	706.84
479.98	739.61
480.16	685.78
480.34	751.31
480.52	816.85
480.70	774.72
480.88	755.99
481.06	704.50
481.24	763.01
481.41	739.61
481.59	751.31
481.77	870.68
481.95	760.67
482.13	823.87
482.31	772.38
482.49	896.43
482.67	772.38
482.85	842.59
483.03	770.04
483.21	793.44
483.39	891.74
483.57	835.57
483.74	858.98
483.92	772.38
484.10	908.13
484.28	884.72
484.46	908.13
484.64	891.74
484.82	840.25
485.00	847.27
485.18	800.46
485.35	807.48
485.53	683.44
485.71	819.19
485.89	758.33
486.07	861.32
486.25	915.15
486.43	950.26
486.61	922.17
486.78	868.34
486.96	851.96
487.14	826.21
487.32	856.64
487.50	990.05
487.68	915.15
487.85	1006.43
488.03	980.68
488.21	1013.45
488.39	968.98
488.57	917.49
488.75	884.72
488.92	1196.01
489.10	976.00
489.28	1013.45
489.46	994.73
489.64	1076.65
489.81	1015.79
489.99	1078.99
490.17	1069.62
490.35	1128.14
490.53	1015.79
490.70	990.05
490.88	1069.62
491.06	1104.73
491.24	1046.22
491.41	1071.97
491.59	884.72
491.77	1062.60
491.95	1062.60
492.13	1020.47
492.30	1015.79
492.48	990.05
492.66	1074.31
492.84	1095.37
493.01	1039.20
493.19	1043.88
493.37	1064.94
493.54	1025.15
493.72	1057.92
493.90	1125.80
494.08	1156.22
494.25	1046.22
494.43	1109.41
494.61	1196.01
494.79	1090.69
494.96	1125.80
495.14	1116.44
495.32	1060.26
495.49	1008.77
495.67	1224.10
495.85	1067.28
496.02	1153.88
496.20	1142.18
496.38	1174.95
496.55	1078.99
496.73	1111.75
496.91	1118.78
497.09	1083.67
497.26	1165.59
497.44	1104.73
497.62	1088.35
497.79	1046.22
497.97	997.07
498.14	987.71
498.32	1027.50
498.50	1109.41
498.67	1114.10
498.85	1093.03
499.03	1095.37
499.20	1146.86
499.38	1144.52
499.56	1165.59
499.73	1128.14
499.91	1114.10
500.08	1116.44
500.26	1071.97
500.44	1078.99
500.61	1008.77
500.79	1034.52
500.97	1090.69
501.14	1177.29
501.32	1097.71
501.49	1090.69
501.67	1018.13
501.84	1090.69
502.02	997.07
502.20	1121.12
502.37	1050.90
502.55	1041.54
502.72	1104.73
502.90	1132.82
503.07	1130.48
503.25	1125.80
503.43	1011.11
503.60	957.28
503.78	1022.81
503.95	1034.52
504.13	1074.31
504.30	1163.25
504.48	1205.38
504.65	1116.44
504.83	1097.71
505.01	1086.01
505.18	1102.39
505.36	1139.84
505.53	1088.35
505.71	1167.93
505.88	1249.85
506.06	1116.44
506.23	1102.39
506.41	1064.94
506.58	1069.62
506.76	1132.82
506.93	1034.52
507.11	1071.97
507.28	1053.24
507.46	1118.78
507.63	1071.97
507.81	966.64
507.98	1088.35
508.16	1104.73
508.33	1123.46
508.50	1135.16
508.68	1172.61
508.85	1170.27
509.03	1048.56
509.20	1181.97
509.38	1142.18
509.55	1128.14
509.73	1165.59
509.90	1118.78
510.08	1102.39
510.25	1130.48
510.42	1123.46
510.60	1137.50
510.77	1165.59
510.95	1153.88
511.12	1235.80
511.30	1203.04
511.47	1123.46
511.64	1338.79
511.82	1205.38
511.99	1196.01
512.17	1104.73
512.34	1067.28
512.51	1083.67
512.69	1102.39
512.86	1224.10
513.04	1142.18
513.21	1165.59
513.38	1170.27
513.56	1076.65
513.73	1104.73
513.90	1111.75
514.08	1048.56
514.25	1121.12
514.43	1224.10
514.60	1093.03
514.77	1142.18
514.95	1191.33
515.12	1217.08
515.29	1053.24
515.47	1144.52
515.64	1165.59
515.81	1184.31
515.99	1181.97
516.16	1139.84
516.33	1102.39
516.51	915.15
516.68	990.05
516.85	922.17
517.03	931.53
517.20	1043.88
517.37	1142.18
517.54	1102.39
517.72	1067.28
517.89	1048.56
518.06	1004.09
518.24	1071.97
518.41	1022.81
518.58	997.07
518.75	1097.71
518.93	1097.71
519.10	1064.94
519.27	1071.97
519.45	1114.10
519.62	1165.59
519.79	1090.69
519.96	1144.52
520.14	1186.65
520.31	1188.99
520.48	1036.86
520.65	1083.67
520.83	1137.50
521.00	1184.31
521.17	1172.61
521.34	1205.38
521.52	1226.44
521.69	1123.46
521.86	1249.85
522.03	1074.31
522.20	1186.65
522.38	1102.39
522.55	1259.21
522.72	1142.18
522.89	1149.20
523.07	1114.10
523.24	1153.88
523.41	1165.59
523.58	1210.06
523.75	1156.22
523.92	1196.01
524.10	1249.85
524.27	1149.20
524.44	1167.93
524.61	1193.67
524.78	1132.82
524.96	1203.04
525.13	1153.88
525.30	1217.08
525.47	1188.99
525.64	1137.50
525.81	1135.16
525.98	1097.71
526.16	1083.67
526.33	1060.26
526.50	1095.37
526.67	943.24
526.84	976.00
527.01	1050.90
527.18	1064.94
527.36	1165.59
527.53	1078.99
527.70	1200.69
527.87	1200.69
528.04	1172.61
528.21	1210.06
528.38	1207.72
528.55	1254.53
528.72	1224.10
528.89	1352.83
529.07	1170.27
529.24	1191.33
529.41	1165.59
529.58	1095.37
529.75	1048.56
529.92	1226.44
530.09	1224.10
530.26	1233.46
530.43	1212.40
530.60	1214.74
530.77	1203.04
530.94	1320.06
531.11	1238.14
531.28	1263.89
531.46	1165.59
531.63	1259.21
531.80	1193.67
531.97	1160.91
532.14	1165.59
532.31	1111.75
532.48	1074.31
532.65	1111.75
532.82	1149.20
532.99	1125.80
533.16	1217.08
533.33	1188.99
533.50	1233.46
533.67	1078.99
533.84	1149.20
534.01	1254.53
534.18	1254.53
534.35	1233.46
534.52	1186.65
534.69	1146.86
534.86	1146.86
535.03	1284.95
535.20	1203.04
535.37	1313.04
535.54	1193.67
535.71	1181.97
535.88	1254.53
536.05	1233.46
536.22	1193.67
536.38	1254.53
536.55	1041.54
536.72	1228.78
536.89	1214.74
537.06	1291.98
537.23	1170.27
537.40	1254.53
537.57	1270.91
537.74	1373.89
537.91	1254.53
538.08	1315.38
538.25	1261.55
538.42	1345.81
538.59	1259.21
538.75	1268.57
538.92	1284.95
539.09	1394.96
539.26	1240.48
539.43	1359.85
539.60	1362.19
539.77	1392.62
539.94	1345.81
540.11	1371.55
540.28	1502.62
540.44	1502.62
540.61	1490.92
540.78	1544.75
540.95	1652.42
541.12	1881.79
541.29	1973.07
541.46	1853.70
541.62	1947.33
541.79	1970.73
541.96	1916.90
542.13	1977.75
542.30	1952.01
542.47	1785.83
542.63	1884.13
542.80	1746.04
542.97	1832.64
543.14	1778.81
543.31	1891.15
543.48	1774.13
543.64	1937.96
543.81	1877.11
543.98	1785.83
544.15	1811.57
544.32	1750.72
544.48	1724.97
544.65	1624.33
544.82	1668.80
544.99	1795.19
545.16	1741.36
545.32	1764.76
545.49	2328.83
545.66	3045.04
545.83	3283.77
546.00	3009.93
546.16	2392.03
546.33	2106.48
546.50	1842.00
546.67	1743.70
546.83	1614.97
547.00	1575.18
547.17	1600.93
547.34	1504.96
547.50	1549.43
547.67	1579.86
547.84	1413.68
548.00	1488.58
548.17	1453.47
548.34	1439.43
548.51	1511.99
548.67	1462.83
548.84	1483.90
549.01	1427.73
549.18	1444.11
549.34	1467.52
549.51	1444.11
549.68	1437.09
549.84	1334.11
550.01	1315.38
550.18	1376.24
550.34	1315.38
550.51	1413.68
550.68	1348.15
550.84	1282.61
551.01	1268.57
551.18	1275.59
551.34	1270.91
551.51	1231.12
551.68	1270.91
551.84	1231.12
552.01	1200.69
552.18	1191.33
552.34	1219.42
552.51	1153.88
552.68	1289.64
552.84	1235.80
553.01	1238.14
553.18	1259.21
553.34	1207.72
553.51	1149.20
553.67	1277.93
553.84	1210.06
554.01	1193.67
554.17	1170.27
554.34	1093.03
554.51	1184.31
554.67	1214.74
554.84	1280.27
555.00	1198.35
555.17	1039.20
555.33	1132.82
555.50	1100.05
555.67	1196.01
555.83	1078.99
556.00	1114.10
556.16	1233.46
556.33	1114.10
556.50	1107.07
556.66	1160.91
556.83	1053.24
556.99	1053.24
557.16	992.39
557.32	1090.69
557.49	1104.73
557.65	1034.52
557.82	1060.26
557.98	1102.39
558.15	1114.10
558.32	1090.69
558.48	999.41
558.65	1055.58
558.81	1088.35
558.98	1020.47
559.14	1053.24
559.31	1006.43
559.47	1046.22
559.64	1048.56
559.80	1001.75
559.97	1078.99
560.13	1090.69
560.30	1121.12
560.46	1081.33
560.63	1139.84
560.79	1153.88
560.96	1062.60
561.12	1036.86
561.29	1013.45
561.45	1057.92
561.61	1043.88
561.78	1114.10
561.94	1046.22
562.11	1001.75
562.27	1025.15
562.44	1025.15
562.60	994.73
562.77	1053.24
562.93	1076.65
563.10	1137.50
563.26	1135.16
563.42	1128.14
563.59	1011.11
563.75	1034.52
563.92	1076.65
564.08	985.37
564.24	990.05
564.41	1107.07
564.57	1041.54
564.74	1064.94
564.90	1004.09
565.07	1078.99
565.23	1043.88
565.39	1053.24
565.56	1008.77
565.72	940.90
565.88	961.96
566.05	997.07
566.21	950.26
566.38	1060.26
566.54	1078.99
566.70	905.79
566.87	875.36
567.03	1076.65
567.19	1069.62
567.36	950.26
567.52	966.64
567.68	1032.18
567.85	1057.92
568.01	1046.22
568.17	889.40
568.34	877.70
568.50	1018.13
568.66	887.06
568.83	971.32
568.99	971.32
569.15	1029.84
569.32	922.17
569.48	971.32
569.64	933.87
569.81	1006.43
569.97	943.24
570.13	1001.75
570.30	915.15
570.46	1004.09
570.62	912.81
570.78	896.43
570.95	861.32
571.11	910.47
571.27	954.94
571.43	976.00
571.60	938.55
571.76	957.28
571.92	961.96
572.09	1036.86
572.25	952.60
572.41	957.28
572.57	994.73
572.74	950.26
572.90	973.66
573.06	919.83
573.22	954.94
573.38	1006.43
573.55	997.07
573.71	957.28
573.87	966.64
574.03	950.26
574.20	1015.79
574.36	933.87
574.52	1008.77
574.68	1041.54
574.84	896.43
575.01	964.30
575.17	898.77
575.33	835.57
575.49	1041.54
575.65	922.17
575.82	990.05
575.98	997.07
576.14	891.74
576.30	950.26
576.46	1153.88
576.62	1355.17
576.79	1411.34
576.95	1287.29
577.11	1018.13
577.27	1004.09
577.43	964.30
577.59	976.00
577.75	903.45
577.92	983.02
578.08	929.19
578.24	1034.52
578.40	1097.71
578.56	1231.12
578.72	1301.34
578.88	1240.48
579.04	1196.01
579.21	1132.82
579.37	1001.75
579.53	985.37
579.69	1064.94
579.85	1041.54
580.01	1128.14
580.17	1069.62
580.33	1132.82
580.49	1029.84
580.65	1057.92
580.82	947.92
580.98	1039.20
581.14	976.00
581.30	1015.79
581.46	1041.54
581.62	1135.16
581.78	1088.35
581.94	1064.94
582.10	999.41
582.26	1093.03
582.42	1121.12
582.58	1128.14
582.74	1114.10
582.90	1139.84
583.06	1128.14
583.22	1050.90
583.38	1071.97
583.54	1050.90
583.70	1177.29
583.86	1160.91
584.02	1121.12
584.18	999.41
584.34	1081.33
584.50	1139.84
584.66	1132.82
584.82	1015.79
584.98	1036.86
585.14	1011.11
585.30	1109.41
585.46	1034.52
585.62	1015.79
585.78	957.28
585.94	929.19
586.10	1074.31
586.26	1139.84
586.42	1020.47
586.58	1076.65
586.74	1132.82
586.90	1151.54
587.06	1228.78
587.22	1071.97
587.38	1055.58
587.54	1039.20
587.70	1055.58
587.86	1081.33
588.02	1013.45
588.18	945.58
588.34	915.15
588.49	795.78
588.65	748.97
588.81	748.97
588.97	751.31
589.13	739.61
589.29	755.99
589.45	753.65
589.61	772.38
589.77	795.78
589.93	849.61
590.08	702.16
590.24	891.74
590.40	798.12
590.56	861.32
590.72	863.66
590.88	847.27
591.04	926.85
591.20	933.87
591.35	891.74
591.51	912.81
591.67	910.47
591.83	844.93
591.99	936.21
592.15	922.17
592.31	940.90
592.46	983.02
592.62	968.98
592.78	999.41
592.94	863.66
593.10	983.02
593.26	1041.54
593.41	1001.75
593.57	971.32
593.73	1076.65
593.89	807.48
594.05	873.02
594.20	772.38
594.36	805.14
594.52	739.61
594.68	828.55
594.84	809.83
594.99	819.19
595.15	807.48
595.31	844.93
595.47	833.23
595.62	866.00
595.78	875.36
595.94	912.81
596.10	915.15
596.25	816.85
596.41	863.66
596.57	809.83
596.73	840.25
596.88	854.30
597.04	851.96
597.20	898.77
597.36	809.83
597.51	891.74
597.67	800.46
597.83	910.47
597.99	915.15
598.14	891.74
598.30	880.04
598.46	945.58
598.61	882.38
598.77	856.64
598.93	957.28
599.09	954.94
599.24	924.51
599.40	894.08
599.56	851.96
599.71	943.24
599.87	952.60
600.03	915.15
600.18	891.74
600.34	905.79
600.50	905.79
600.65	884.72
600.81	938.55
600.97	870.68
601.12	882.38
601.28	842.59
601.44	816.85
601.59	819.19
601.75	795.78
601.91	814.51
602.06	910.47
602.22	887.06
602.37	760.67
602.53	816.85
602.69	770.04
602.84	898.77
603.00	851.96
603.16	866.00
603.31	840.25
603.47	812.17
603.62	828.55
603.78	823.87
603.94	854.30
604.09	922.17
604.25	861.32
604.40	875.36
604.56	835.57
604.71	924.51
604.87	814.51
605.03	835.57
