SpectraSuite Data File
++++++++++++++++++++++++++++++++++++
Date: Fri Oct 04 11:44:28 GMT-05:00 2013
User: price-jones
Dark Spectrum Present: No
Reference Spectrum Present: No
Number of Sampled Component Spectra: 1
Spectrometers: USB2+H05261
Integration Time (usec): 100000 (USB2+H05261)
Spectra Averaged: 1 (USB2+H05261)
Boxcar Smoothing: 0 (USB2+H05261)
Correct for Electrical Dark: No (USB2+H05261)
Strobe/Lamp Enabled: No (USB2+H05261)
Correct for Detector Non-linearity: No (USB2+H05261)
Correct for Stray Light: No (USB2+H05261)
Number of Pixels in Processed Spectrum: 2048
>>>>>Begin Processed Spectral Data<<<<<
365.73	44.47
365.92	44.47
366.12	44.47
366.32	0.00
366.52	0.00
366.72	0.00
366.91	0.00
367.11	0.00
367.31	0.00
367.51	0.00
367.70	0.00
367.90	0.00
368.10	0.00
368.30	0.00
368.49	0.00
368.69	0.00
368.89	0.00
369.09	0.00
369.28	0.00
369.48	0.00
369.68	0.00
369.87	0.00
370.07	0.00
370.27	25.75
370.47	0.00
370.66	121.71
370.86	149.79
371.06	196.60
371.25	196.60
371.45	201.29
371.65	238.73
371.84	217.67
372.04	119.37
372.24	156.82
372.44	210.65
372.63	170.86
372.83	220.01
373.03	196.60
373.22	224.69
373.42	163.84
373.62	241.08
373.81	231.71
374.01	243.42
374.21	259.80
374.40	250.44
374.60	212.99
374.79	257.46
374.99	210.65
375.19	243.42
375.38	264.48
375.58	215.33
375.78	245.76
375.97	205.97
376.17	313.63
376.37	215.33
376.56	184.90
376.76	191.92
376.95	208.31
377.15	313.63
377.35	287.89
377.54	294.91
377.74	252.78
377.93	287.89
378.13	311.29
378.33	294.91
378.52	276.18
378.72	271.50
378.91	285.55
379.11	238.73
379.31	208.31
379.50	222.35
379.70	203.63
379.89	262.14
380.09	262.14
380.28	311.29
380.48	238.73
380.68	273.84
380.87	203.63
381.07	273.84
381.26	280.86
381.46	182.56
381.65	184.90
381.85	224.69
382.04	278.52
382.24	262.14
382.43	266.82
382.63	229.37
382.83	168.52
383.02	248.10
383.22	215.33
383.41	196.60
383.61	194.26
383.80	198.95
384.00	203.63
384.19	278.52
384.39	301.93
384.58	257.46
384.78	248.10
384.97	255.12
385.17	241.08
385.36	252.78
385.56	257.46
385.75	203.63
385.95	273.84
386.14	264.48
386.34	250.44
386.53	248.10
386.72	170.86
386.92	269.16
387.11	196.60
387.31	252.78
387.50	287.89
387.70	227.03
387.89	266.82
388.09	280.86
388.28	301.93
388.48	203.63
388.67	287.89
388.86	255.12
389.06	234.05
389.25	308.95
389.45	348.74
389.64	250.44
389.84	353.42
390.03	273.84
390.22	355.76
390.42	397.89
390.61	348.74
390.81	294.91
391.00	318.31
391.19	313.63
391.39	297.25
391.58	372.15
391.78	285.55
391.97	411.93
392.16	304.27
392.36	276.18
392.55	287.89
392.75	168.52
392.94	154.48
393.13	184.90
393.33	133.41
393.52	208.31
393.71	367.46
393.91	311.29
394.10	259.80
394.29	337.04
394.49	341.72
394.68	397.89
394.88	386.19
395.07	362.78
395.26	404.91
395.46	442.36
395.65	395.55
395.84	322.99
396.04	269.16
396.23	259.80
396.42	271.50
396.62	222.35
396.81	266.82
397.00	301.93
397.19	449.38
397.39	411.93
397.58	447.04
397.77	386.19
397.97	416.62
398.16	390.87
398.35	540.66
398.55	580.45
398.74	437.68
398.93	486.83
399.12	500.87
399.32	407.25
399.51	500.87
399.70	493.85
399.90	526.62
400.09	498.53
400.28	461.09
400.47	470.45
400.67	594.50
400.86	514.92
401.05	528.96
401.24	638.97
401.44	629.60
401.63	498.53
401.82	610.88
402.01	566.41
402.21	552.37
402.40	566.41
402.59	517.26
402.78	500.87
402.97	538.32
403.17	503.22
403.36	589.82
403.55	573.43
403.74	521.94
403.93	587.47
404.13	685.78
404.32	608.54
404.51	622.58
404.70	580.45
404.89	535.98
405.09	557.05
405.28	500.87
405.47	444.70
405.66	561.73
405.85	552.37
406.05	510.24
406.24	592.16
406.43	531.30
406.62	582.79
406.81	657.69
407.00	571.09
407.20	514.92
407.39	524.28
407.58	613.22
407.77	603.86
407.96	620.24
408.15	669.39
408.34	697.48
408.54	547.69
408.73	592.16
408.92	622.58
409.11	608.54
409.30	599.18
409.49	461.09
409.68	571.09
409.87	578.11
410.07	507.90
410.26	564.07
410.45	603.86
410.64	571.09
410.83	620.24
411.02	615.56
411.21	627.26
411.40	657.69
411.59	683.44
411.78	648.33
411.98	566.41
412.17	629.60
412.36	594.50
412.55	505.56
412.74	620.24
412.93	629.60
413.12	653.01
413.31	713.86
413.50	653.01
413.69	674.07
413.88	692.80
414.07	571.09
414.26	641.31
414.45	615.56
414.64	692.80
414.83	645.99
415.02	643.65
415.22	645.99
415.41	784.08
415.60	725.57
415.79	727.91
415.98	753.65
416.17	706.84
416.36	655.35
416.55	650.67
416.74	713.86
416.93	800.46
417.12	660.03
417.31	664.71
417.50	613.22
417.69	751.31
417.88	695.14
418.07	737.27
418.26	674.07
418.45	751.31
418.64	692.80
418.83	758.33
419.02	685.78
419.21	674.07
419.39	732.59
419.58	620.24
419.77	720.88
419.96	800.46
420.15	755.99
420.34	730.25
420.53	823.87
420.72	727.91
420.91	734.93
421.10	774.72
421.29	763.01
421.48	763.01
421.67	739.61
421.86	699.82
422.05	685.78
422.24	596.84
422.43	718.54
422.61	685.78
422.80	706.84
422.99	784.08
423.18	669.39
423.37	713.86
423.56	716.20
423.75	723.23
423.94	601.52
424.13	671.73
424.32	739.61
424.50	688.12
424.69	641.31
424.88	821.53
425.07	638.97
425.26	620.24
425.45	704.50
425.64	692.80
425.83	688.12
426.01	739.61
426.20	653.01
426.39	676.41
426.58	631.94
426.77	557.05
426.96	648.33
427.15	648.33
427.33	648.33
427.52	641.31
427.71	702.16
427.90	748.97
428.09	690.46
428.28	671.73
428.46	699.82
428.65	676.41
428.84	753.65
429.03	681.10
429.22	643.65
429.40	613.22
429.59	512.58
429.78	524.28
429.97	489.17
430.16	461.09
430.34	589.82
430.53	517.26
430.72	538.32
430.91	587.47
431.10	695.14
431.28	784.08
431.47	793.44
431.66	772.38
431.85	765.36
432.03	727.91
432.22	755.99
432.41	688.12
432.60	748.97
432.79	795.78
432.97	802.80
433.16	807.48
433.35	692.80
433.54	702.16
433.72	695.14
433.91	648.33
434.10	734.93
434.28	786.42
434.47	758.33
434.66	805.14
434.85	833.23
435.03	840.25
435.22	1177.29
435.41	1488.58
435.59	1577.52
435.78	1355.17
435.97	1076.65
436.16	1001.75
436.34	936.21
436.53	875.36
436.72	851.96
436.90	866.00
437.09	755.99
437.28	786.42
437.46	826.21
437.65	816.85
437.84	744.29
438.02	737.27
438.21	802.80
438.40	683.44
438.58	737.27
438.77	795.78
438.96	814.51
439.14	814.51
439.33	919.83
439.52	826.21
439.70	856.64
439.89	861.32
440.08	746.63
440.26	755.99
440.45	854.30
440.63	821.53
440.82	915.15
441.01	863.66
441.19	985.37
441.38	856.64
441.57	901.11
441.75	919.83
441.94	889.40
442.12	858.98
442.31	901.11
442.50	952.60
442.68	990.05
442.87	924.51
443.05	901.11
443.24	863.66
443.43	940.90
443.61	1053.24
443.80	929.19
443.98	908.13
444.17	938.55
444.35	999.41
444.54	968.98
444.73	968.98
444.91	915.15
445.10	992.39
445.28	926.85
445.47	802.80
445.65	863.66
445.84	866.00
446.02	954.94
446.21	940.90
446.39	877.70
446.58	922.17
446.77	933.87
446.95	901.11
447.14	980.68
447.32	1020.47
447.51	976.00
447.69	976.00
447.88	933.87
448.06	870.68
448.25	992.39
448.43	943.24
448.62	889.40
448.80	966.64
448.99	968.98
449.17	950.26
449.36	997.07
449.54	950.26
449.73	1020.47
449.91	971.32
450.10	1128.14
450.28	1149.20
450.46	1081.33
450.65	1078.99
450.83	985.37
451.02	922.17
451.20	1046.22
451.39	1015.79
451.57	1050.90
451.76	950.26
451.94	1048.56
452.13	973.66
452.31	926.85
452.49	1008.77
452.68	809.83
452.86	947.92
453.05	910.47
453.23	1043.88
453.42	999.41
453.60	978.34
453.78	1060.26
453.97	971.32
454.15	952.60
454.34	903.45
454.52	1013.45
454.70	919.83
454.89	1034.52
455.07	950.26
455.26	971.32
455.44	990.05
455.62	964.30
455.81	1090.69
455.99	1053.24
456.17	1020.47
456.36	1004.09
456.54	983.02
456.73	1020.47
456.91	1086.01
457.09	1057.92
457.28	1086.01
457.46	997.07
457.64	1188.99
457.83	1034.52
458.01	1027.50
458.19	983.02
458.38	973.66
458.56	1048.56
458.74	990.05
458.93	1034.52
459.11	1022.81
459.29	1090.69
459.48	1013.45
459.66	1046.22
459.84	1006.43
460.03	1198.35
460.21	1170.27
460.39	1025.15
460.57	1121.12
460.76	1034.52
460.94	1081.33
461.12	1050.90
461.31	1069.62
461.49	1053.24
461.67	1088.35
461.85	1057.92
462.04	1109.41
462.22	1577.52
462.40	1121.12
462.59	1095.37
462.77	1104.73
462.95	1067.28
463.13	1111.75
463.32	1104.73
463.50	1029.84
463.68	1027.50
463.86	1111.75
464.05	1097.71
464.23	1095.37
464.41	1020.47
464.59	1041.54
464.78	1001.75
464.96	1001.75
465.14	1001.75
465.32	1071.97
465.50	1107.07
465.69	1132.82
465.87	1137.50
466.05	1067.28
466.23	968.98
466.41	917.49
466.60	983.02
466.78	983.02
466.96	1064.94
467.14	1086.01
467.32	1086.01
467.51	1097.71
467.69	1034.52
467.87	1083.67
468.05	1043.88
468.23	1041.54
468.41	994.73
468.60	1048.56
468.78	1100.05
468.96	1036.86
469.14	1132.82
469.32	1067.28
469.50	997.07
469.69	1048.56
469.87	1013.45
470.05	987.71
470.23	985.37
470.41	1018.13
470.59	1116.44
470.77	1055.58
470.95	1053.24
471.14	1086.01
471.32	1055.58
471.50	1188.99
471.68	1158.57
471.86	1144.52
472.04	1081.33
472.22	1196.01
472.40	1088.35
472.58	1050.90
472.77	1116.44
472.95	1109.41
473.13	1130.48
473.31	1114.10
473.49	1160.91
473.67	1153.88
473.85	1069.62
474.03	1104.73
474.21	1132.82
474.39	1139.84
474.57	1256.87
474.75	1235.80
474.93	1104.73
475.12	1149.20
475.30	1041.54
475.48	1090.69
475.66	1163.25
475.84	1130.48
476.02	1132.82
476.20	1186.65
476.38	1144.52
476.56	1198.35
476.74	1214.74
476.92	1158.57
477.10	1170.27
477.28	1212.40
477.46	1186.65
477.64	1233.46
477.82	1303.68
478.00	1301.34
478.18	1184.31
478.36	1226.44
478.54	1245.16
478.72	1142.18
478.90	1181.97
479.08	1226.44
479.26	1376.24
479.44	1294.32
479.62	1240.48
479.80	1310.70
479.98	1322.40
480.16	1245.16
480.34	1350.49
480.52	1280.27
480.70	1315.38
480.88	1299.00
481.06	1299.00
481.24	1343.47
481.41	1369.21
481.59	1348.15
481.77	1317.72
481.95	1387.94
482.13	1439.43
482.31	1455.81
482.49	1352.83
482.67	1495.60
482.85	1455.81
483.03	1579.86
483.21	1476.88
483.39	1423.05
483.57	1352.83
483.74	1451.13
483.92	1453.47
484.10	1399.64
484.28	1575.18
484.46	1535.39
484.64	1493.26
484.82	1509.65
485.00	1483.90
485.18	1469.86
485.35	1439.43
485.53	1303.68
485.71	1371.55
485.89	1256.87
486.07	1275.59
486.25	1359.85
486.43	1472.20
486.61	1439.43
486.78	1533.05
486.96	1458.15
487.14	1582.20
487.32	1490.92
487.50	1563.48
487.68	1565.82
487.85	1720.29
488.03	1643.06
488.21	1596.25
488.39	1563.48
488.57	1530.71
488.75	1547.09
488.92	1851.36
489.10	1589.22
489.28	1692.21
489.46	1783.49
489.64	1678.16
489.81	1790.51
489.99	1774.13
490.17	1755.40
490.35	1797.53
490.53	1729.66
490.70	1638.38
490.88	1755.40
491.06	1741.36
491.24	1825.62
491.41	1760.08
491.59	1593.90
491.77	1577.52
491.95	1640.72
492.13	1710.93
492.30	1640.72
492.48	1732.00
492.66	1790.51
492.84	1687.53
493.01	1809.23
493.19	1741.36
493.37	1783.49
493.54	1685.19
493.72	1781.15
493.90	1778.81
494.08	1886.47
494.25	1907.54
494.43	1863.07
494.61	1809.23
494.79	1872.43
494.96	1870.09
495.14	1959.03
495.32	1806.89
495.49	1764.76
495.67	1837.32
495.85	1750.72
496.02	1923.92
496.20	1977.75
496.38	1912.22
496.55	1895.83
496.73	1928.60
496.91	1888.81
497.09	1975.41
497.26	2026.90
497.44	1916.90
497.62	1900.52
497.79	1827.96
497.97	1823.28
498.14	1809.23
498.32	1853.70
498.50	1907.54
498.67	1884.13
498.85	1923.92
499.03	1940.30
499.20	1973.07
499.38	2012.86
499.56	1956.69
499.73	2010.52
499.91	1968.39
500.08	1762.42
500.26	1823.28
500.44	1788.17
500.61	1968.39
500.79	1837.32
500.97	1900.52
501.14	1860.73
501.32	1832.64
501.49	1914.56
501.67	1867.75
501.84	1813.92
502.02	1968.39
502.20	1921.58
502.37	1907.54
502.55	1839.66
502.72	1907.54
502.90	1942.64
503.07	1879.45
503.25	1991.80
503.43	1771.79
503.60	1771.79
503.78	1586.88
503.95	1673.48
504.13	1867.75
504.30	1982.43
504.48	1984.77
504.65	1940.30
504.83	1956.69
505.01	1987.11
505.18	1959.03
505.36	1987.11
505.53	1966.05
505.71	2010.52
505.88	1984.77
506.06	1982.43
506.23	1907.54
506.41	1987.11
506.58	2033.93
506.76	1879.45
506.93	1818.60
507.11	2038.61
507.28	2043.29
507.46	1844.34
507.63	1888.81
507.81	1881.79
507.98	1914.56
508.16	1940.30
508.33	1991.80
508.50	1982.43
508.68	1980.09
508.85	2038.61
509.03	2099.46
509.20	2015.20
509.38	2019.88
509.55	1905.20
509.73	2062.01
509.90	1996.48
510.08	2050.31
510.25	2043.29
510.42	1961.37
510.60	1987.11
510.77	2071.37
510.95	2015.20
511.12	2012.86
511.30	2080.74
511.47	2094.78
511.64	2136.91
511.82	2120.53
511.99	2062.01
512.17	1949.67
512.34	1987.11
512.51	1893.49
512.69	2087.76
512.86	1928.60
513.04	2069.03
513.21	2008.18
513.38	2115.84
513.56	1923.92
513.73	1905.20
513.90	1977.75
514.08	1987.11
514.25	1928.60
514.43	2003.50
514.60	1982.43
514.77	1942.64
514.95	2024.56
515.12	2031.58
515.29	2076.06
515.47	2092.44
515.64	2031.58
515.81	2033.93
515.99	2129.89
516.16	2054.99
516.33	1846.68
516.51	1708.59
516.68	1626.67
516.85	1596.25
517.03	1638.38
517.20	1830.30
517.37	1977.75
517.54	2040.95
517.72	1949.67
517.89	1799.87
518.06	1710.93
518.24	1907.54
518.41	1914.56
518.58	1928.60
518.75	1973.07
518.93	1872.43
519.10	1959.03
519.27	1980.09
519.45	1959.03
519.62	2024.56
519.79	2069.03
519.96	1956.69
520.14	2043.29
520.31	1987.11
520.48	1982.43
520.65	1970.73
520.83	2040.95
521.00	2160.31
521.17	2026.90
521.34	2017.54
521.52	2052.65
521.69	2099.46
521.86	2097.12
522.03	2064.35
522.20	2132.23
522.38	1937.96
522.55	1963.71
522.72	1865.41
522.89	2136.91
523.07	2040.95
523.24	2015.20
523.41	2181.38
523.58	2087.76
523.75	2256.28
523.92	2066.69
524.10	2207.13
524.27	2101.80
524.44	2092.44
524.61	2141.59
524.78	2148.61
524.96	2069.03
525.13	2120.53
525.30	2162.66
525.47	2101.80
525.64	2113.50
525.81	2080.74
525.98	2043.29
526.16	1870.09
526.33	1874.77
526.50	1813.92
526.67	1834.98
526.84	1727.32
527.01	1926.26
527.18	1935.62
527.36	2092.44
527.53	2019.88
527.70	2132.23
527.87	2106.48
528.04	2162.66
528.21	2001.16
528.38	2223.51
528.55	2176.70
528.72	2157.97
528.89	2347.56
529.07	2101.80
529.24	2052.65
529.41	2073.71
529.58	2015.20
529.75	2024.56
529.92	2047.97
530.09	2057.33
530.26	2071.37
530.43	2134.57
530.60	2118.18
530.77	2186.06
530.94	2256.28
531.11	2050.31
531.28	2139.25
531.46	2167.34
531.63	2157.97
531.80	2157.97
531.97	2186.06
532.14	2083.08
532.31	2038.61
532.48	1937.96
532.65	1916.90
532.82	1987.11
532.99	2150.95
533.16	2169.68
533.33	2038.61
533.50	2176.70
533.67	2106.48
533.84	2033.93
534.01	2083.08
534.18	2031.58
534.35	2106.48
534.52	2045.63
534.69	2129.89
534.86	2054.99
535.03	2143.93
535.20	2239.89
535.37	2207.13
535.54	2162.66
535.71	2193.08
535.88	2284.36
536.05	2134.57
536.22	2139.25
536.38	2143.93
536.55	2038.61
536.72	2001.16
536.89	2043.29
537.06	2008.18
537.23	2111.16
537.40	2258.62
537.57	2232.87
537.74	2188.40
537.91	2338.20
538.08	2235.21
538.25	2146.27
538.42	2139.25
538.59	2115.84
538.75	2162.66
538.92	2113.50
539.09	2113.50
539.26	2260.96
539.43	2083.08
539.60	2188.40
539.77	2312.45
539.94	2232.87
540.11	2197.76
540.28	2251.60
540.44	2359.26
540.61	2356.92
540.78	2363.94
540.95	2483.31
541.12	2661.19
541.29	2733.75
541.46	2841.41
541.62	2801.62
541.79	2729.06
541.96	2665.87
542.13	2841.41
542.30	2633.10
542.47	2738.43
542.63	2520.76
542.80	2612.04
542.97	2642.46
543.14	2567.57
543.31	2466.92
543.48	2626.08
543.64	2717.36
543.81	2677.57
543.98	2796.94
544.15	2534.80
544.32	2642.46
544.48	2607.36
544.65	2658.85
544.82	2513.74
544.99	2621.40
545.16	2644.81
545.32	2733.75
545.49	3141.00
545.66	3845.50
545.83	4245.73
546.00	3826.78
546.16	3171.43
546.33	2899.92
546.50	2626.08
546.67	2600.34
546.83	2326.49
547.00	2345.22
547.17	2389.69
547.34	2305.43
547.50	2321.81
547.67	2326.49
547.84	2256.28
548.00	2296.07
548.17	2263.30
548.34	2415.43
548.51	2359.26
548.67	2253.94
548.84	2267.98
549.01	2314.79
549.18	2289.04
549.34	2242.23
549.51	2345.22
549.68	2260.96
549.84	2125.21
550.01	2087.76
550.18	2317.13
550.34	2354.58
550.51	2176.70
550.68	2174.36
550.84	2157.97
551.01	2155.63
551.18	2169.68
551.34	2106.48
551.51	2176.70
551.68	2099.46
551.84	2148.61
552.01	2087.76
552.18	2139.25
552.34	2062.01
552.51	2057.33
552.68	2073.71
552.84	2057.33
553.01	2108.82
553.18	2120.53
553.34	2045.63
553.51	2040.95
553.67	2045.63
553.84	2195.42
554.01	2005.84
554.17	2073.71
554.34	2050.31
554.51	2038.61
554.67	2120.53
554.84	2008.18
555.00	2076.06
555.17	1982.43
555.33	2015.20
555.50	2050.31
555.67	2026.90
555.83	1893.49
556.00	1884.13
556.16	2090.10
556.33	1982.43
556.50	1928.60
556.66	1879.45
556.83	1991.80
556.99	1860.73
557.16	2024.56
557.32	1863.07
557.49	1867.75
557.65	1830.30
557.82	1919.24
557.98	1980.09
558.15	1959.03
558.32	1870.09
558.48	1881.79
558.65	1774.13
558.81	1837.32
558.98	1825.62
559.14	1961.37
559.31	1818.60
559.47	1813.92
559.64	1785.83
559.80	1746.04
559.97	1769.44
560.13	1823.28
560.30	2017.54
560.46	1947.33
560.63	1937.96
560.79	2022.22
560.96	1867.75
561.12	1849.02
561.29	1884.13
561.45	1811.57
561.61	1760.08
561.78	1919.24
561.94	1937.96
562.11	1895.83
562.27	1874.77
562.44	1757.74
562.60	1842.00
562.77	1886.47
562.93	1935.62
563.10	1947.33
563.26	1888.81
563.42	1839.66
563.59	1909.88
563.75	1853.70
563.92	1909.88
564.08	1884.13
564.24	1839.66
564.41	1820.94
564.57	1818.60
564.74	1832.64
564.90	1914.56
565.07	1874.77
565.23	1743.70
565.39	1818.60
565.56	1804.55
565.72	1687.53
565.88	1760.08
566.05	1748.38
566.21	1820.94
566.38	1771.79
566.54	1762.42
566.70	1781.15
566.87	1813.92
567.03	1832.64
567.19	1825.62
567.36	1797.53
567.52	1856.04
567.68	1696.89
567.85	1795.19
568.01	1689.87
568.17	1748.38
568.34	1713.27
568.50	1643.06
568.66	1600.93
568.83	1788.17
568.99	1668.80
569.15	1701.57
569.32	1729.66
569.48	1671.14
569.64	1685.19
569.81	1703.91
569.97	1727.32
570.13	1750.72
570.30	1727.32
570.46	1603.27
570.62	1629.01
570.78	1619.65
570.95	1540.07
571.11	1629.01
571.27	1610.29
571.43	1757.74
571.60	1621.99
571.76	1626.67
571.92	1661.78
572.09	1666.46
572.25	1722.63
572.41	1633.69
572.57	1645.40
572.74	1760.08
572.90	1596.25
573.06	1724.97
573.22	1748.38
573.38	1771.79
573.55	1710.93
573.71	1739.02
573.87	1701.57
574.03	1675.82
574.20	1593.90
574.36	1760.08
574.52	1619.65
574.68	1598.59
574.84	1561.14
575.01	1551.78
575.17	1645.40
575.33	1659.44
575.49	1708.59
575.65	1685.19
575.82	1636.03
575.98	1650.08
576.14	1533.05
576.30	1664.12
576.46	1839.66
576.62	2008.18
576.79	2134.57
576.95	2019.88
577.11	1898.17
577.27	1776.47
577.43	1760.08
577.59	1645.40
577.75	1734.34
577.92	1633.69
578.08	1504.96
578.24	1519.01
578.40	1706.25
578.56	1832.64
578.72	1952.01
578.88	2125.21
579.04	1930.94
579.21	1921.58
579.37	1783.49
579.53	1813.92
579.69	1626.67
579.85	1689.87
580.01	1755.40
580.17	1692.21
580.33	1722.63
580.49	1788.17
580.65	1724.97
580.82	1830.30
580.98	1785.83
581.14	1708.59
581.30	1771.79
581.46	1809.23
581.62	1689.87
581.78	1757.74
581.94	1827.96
582.10	1834.98
582.26	1703.91
582.42	1867.75
582.58	1799.87
582.74	1750.72
582.90	1760.08
583.06	1792.85
583.22	1696.89
583.38	1788.17
583.54	1809.23
583.70	1746.04
583.86	1785.83
584.02	1816.26
584.18	1811.57
584.34	1741.36
584.50	1767.10
584.66	1771.79
584.82	1687.53
584.98	1724.97
585.14	1654.76
585.30	1692.21
585.46	1603.27
585.62	1668.80
585.78	1673.48
585.94	1666.46
586.10	1760.08
586.26	1776.47
586.42	1746.04
586.58	1736.68
586.74	1797.53
586.90	1755.40
587.06	1764.76
587.22	1820.94
587.38	1689.87
587.54	1713.27
587.70	1612.63
587.86	1554.12
588.02	1497.94
588.18	1516.67
588.34	1434.75
588.49	1341.13
588.65	1275.59
588.81	1273.25
588.97	1224.10
589.13	1102.39
589.29	1179.63
589.45	1322.40
589.61	1212.40
589.77	1369.21
589.93	1336.45
590.08	1317.72
590.24	1348.15
590.40	1460.49
590.56	1364.53
590.72	1462.83
590.88	1366.87
591.04	1432.41
591.20	1416.02
591.35	1401.98
591.51	1369.21
591.67	1390.28
591.83	1282.61
591.99	1448.79
592.15	1385.60
592.31	1570.50
592.46	1444.11
592.62	1556.46
592.78	1551.78
592.94	1544.75
593.10	1654.76
593.26	1568.16
593.41	1568.16
593.57	1591.56
593.73	1490.92
593.89	1439.43
594.05	1390.28
594.20	1385.60
594.36	1376.24
594.52	1263.89
594.68	1348.15
594.84	1390.28
594.99	1399.64
595.15	1383.26
595.31	1439.43
595.47	1495.60
595.62	1399.64
595.78	1366.87
595.94	1437.09
596.10	1493.26
596.25	1455.81
596.41	1320.06
596.57	1439.43
596.73	1427.73
596.88	1469.86
597.04	1432.41
597.20	1432.41
597.36	1416.02
597.51	1483.90
597.67	1399.64
597.83	1425.39
597.99	1511.99
598.14	1448.79
598.30	1495.60
598.46	1451.13
598.61	1488.58
598.77	1446.45
598.93	1437.09
599.09	1437.09
599.24	1514.33
599.40	1603.27
599.56	1549.43
599.71	1519.01
599.87	1462.83
600.03	1533.05
600.18	1481.56
600.34	1483.90
600.50	1458.15
600.65	1530.71
600.81	1549.43
600.97	1507.30
