SpectraSuite Data File
++++++++++++++++++++++++++++++++++++
Date: Fri Oct 04 11:44:22 GMT-05:00 2013
User: price-jones
Dark Spectrum Present: No
Reference Spectrum Present: No
Number of Sampled Component Spectra: 1
Spectrometers: USB2+H05261
Integration Time (usec): 100000 (USB2+H05261)
Spectra Averaged: 1 (USB2+H05261)
Boxcar Smoothing: 0 (USB2+H05261)
Correct for Electrical Dark: No (USB2+H05261)
Strobe/Lamp Enabled: No (USB2+H05261)
Correct for Detector Non-linearity: No (USB2+H05261)
Correct for Stray Light: No (USB2+H05261)
Number of Pixels in Processed Spectrum: 2048
>>>>>Begin Processed Spectral Data<<<<<
365.73	102.98
365.92	102.98
366.12	102.98
366.32	39.79
366.52	0.00
366.72	0.00
366.91	0.00
367.11	0.00
367.31	0.00
367.51	0.00
367.70	0.00
367.90	0.00
368.10	0.00
368.30	0.00
368.49	0.00
368.69	0.00
368.89	0.00
369.09	0.00
369.28	0.00
369.48	0.00
369.68	0.00
369.87	16.38
370.07	0.00
370.27	32.77
370.47	74.90
370.66	386.19
370.86	456.40
371.06	510.24
371.25	587.47
371.45	341.72
371.65	458.74
371.84	362.78
372.04	397.89
372.24	482.15
372.44	484.49
372.63	507.90
372.83	517.26
373.03	498.53
373.22	358.10
373.42	430.66
373.62	463.43
373.81	500.87
374.01	500.87
374.21	468.11
374.40	365.12
374.60	491.51
374.79	505.56
374.99	512.58
375.19	660.03
375.38	592.16
375.58	585.13
375.78	629.60
375.97	596.84
376.17	594.50
376.37	545.34
376.56	500.87
376.76	636.63
376.95	688.12
377.15	734.93
377.35	650.67
377.54	662.37
377.74	699.82
377.93	706.84
378.13	739.61
378.33	741.95
378.52	606.20
378.72	641.31
378.91	650.67
379.11	589.82
379.31	580.45
379.50	486.83
379.70	564.07
379.89	699.82
380.09	655.35
380.28	650.67
380.48	685.78
380.68	624.92
380.87	667.05
381.07	578.11
381.26	585.13
381.46	592.16
381.65	634.29
381.85	498.53
382.04	437.68
382.24	498.53
382.43	428.32
382.63	482.15
382.83	411.93
383.02	524.28
383.22	491.51
383.41	416.62
383.61	454.06
383.80	535.98
384.00	559.39
384.19	709.18
384.39	648.33
384.58	645.99
384.78	671.73
384.97	653.01
385.17	636.63
385.36	610.88
385.56	587.47
385.75	606.20
385.95	608.54
386.14	674.07
386.34	683.44
386.53	704.50
386.72	629.60
386.92	655.35
387.11	716.20
387.31	713.86
387.50	678.76
387.70	653.01
387.89	709.18
388.09	648.33
388.28	727.91
388.48	627.26
388.67	748.97
388.86	716.20
389.06	866.00
389.25	880.04
389.45	894.08
389.64	889.40
389.84	880.04
390.03	748.97
390.22	826.21
390.42	828.55
390.61	840.25
390.81	1001.75
391.00	1046.22
391.19	1025.15
391.39	901.11
391.58	936.21
391.78	835.57
391.97	861.32
392.16	758.33
392.36	709.18
392.55	662.37
392.75	571.09
392.94	517.26
393.13	507.90
393.33	447.04
393.52	613.22
393.71	763.01
393.91	770.04
394.10	847.27
394.29	826.21
394.49	898.77
394.68	971.32
394.88	1008.77
395.07	1062.60
395.26	1064.94
395.46	1029.84
395.65	924.51
395.84	905.79
396.04	816.85
396.23	585.13
396.42	582.79
396.62	559.39
396.81	678.76
397.00	786.42
397.19	849.61
397.39	1036.86
397.58	1118.78
397.77	1137.50
397.97	1224.10
398.16	1249.85
398.35	1352.83
398.55	1327.08
398.74	1224.10
398.93	1376.24
399.12	1306.02
399.32	1261.55
399.51	1401.98
399.70	1444.11
399.90	1458.15
400.09	1387.94
400.28	1493.26
400.47	1387.94
400.67	1453.47
400.86	1493.26
401.05	1453.47
401.24	1460.49
401.44	1514.33
401.63	1462.83
401.82	1547.09
402.01	1535.39
402.21	1535.39
402.40	1582.20
402.59	1486.24
402.78	1444.11
402.97	1406.66
403.17	1376.24
403.36	1537.73
403.55	1511.99
403.74	1610.29
403.93	1540.07
404.13	1495.60
404.32	1418.36
404.51	1397.30
404.70	1547.09
404.89	1497.94
405.09	1568.16
405.28	1554.12
405.47	1409.00
405.66	1383.26
405.85	1472.20
406.05	1472.20
406.24	1516.67
406.43	1469.86
406.62	1636.03
406.81	1568.16
407.00	1430.07
407.20	1455.81
407.39	1621.99
407.58	1497.94
407.77	1572.84
407.96	1643.06
408.15	1626.67
408.34	1654.76
408.54	1685.19
408.73	1767.10
408.92	1603.27
409.11	1680.50
409.30	1675.82
409.49	1458.15
409.68	1526.03
409.87	1320.06
410.07	1418.36
410.26	1474.54
410.45	1582.20
410.64	1591.56
410.83	1734.34
411.02	1720.29
411.21	1769.44
411.40	1830.30
411.59	1853.70
411.78	1699.23
411.98	1839.66
412.17	1872.43
412.36	1797.53
412.55	1732.00
412.74	1687.53
412.93	1736.68
413.12	1689.87
413.31	1940.30
413.50	1874.77
413.69	1905.20
413.88	1729.66
414.07	1816.26
414.26	1844.34
414.45	1769.44
414.64	1937.96
414.83	1900.52
415.02	1851.36
415.22	1809.23
415.41	1895.83
415.60	1952.01
415.79	1919.24
415.98	1989.46
416.17	2087.76
416.36	1975.41
416.55	1923.92
416.74	2052.65
416.93	1905.20
417.12	1863.07
417.31	1937.96
417.50	1963.71
417.69	1907.54
417.88	2066.69
418.07	1940.30
418.26	1914.56
418.45	1982.43
418.64	1902.86
418.83	2043.29
419.02	1984.77
419.21	2026.90
419.39	1975.41
419.58	1837.32
419.77	1820.94
419.96	1905.20
420.15	1987.11
420.34	2078.40
420.53	2085.42
420.72	2101.80
420.91	2312.45
421.10	2136.91
421.29	2134.57
421.48	2078.40
421.67	2097.12
421.86	2099.46
422.05	1900.52
422.24	1764.76
422.43	1820.94
422.61	1884.13
422.80	1994.14
422.99	1996.48
423.18	2012.86
423.37	1998.82
423.56	2050.31
423.75	1994.14
423.94	2005.84
424.13	1926.26
424.32	1970.73
424.50	1916.90
424.69	1966.05
424.88	1930.94
425.07	1888.81
425.26	1844.34
425.45	1905.20
425.64	1865.41
425.83	1921.58
426.01	1956.69
426.20	2078.40
426.39	1919.24
426.58	1898.17
426.77	1790.51
426.96	1734.34
427.15	1729.66
427.33	2015.20
427.52	1956.69
427.71	1834.98
427.90	1923.92
428.09	1949.67
428.28	1921.58
428.46	1816.26
428.65	1834.98
428.84	1834.98
429.03	1947.33
429.22	1748.38
429.40	1621.99
429.59	1610.29
429.78	1420.71
429.97	1441.77
430.16	1451.13
430.34	1430.07
430.53	1390.28
430.72	1488.58
430.91	1504.96
431.10	1888.81
431.28	2019.88
431.47	2359.26
431.66	2267.98
431.85	2099.46
432.03	1895.83
432.22	1863.07
432.41	1930.94
432.60	2174.36
432.79	2101.80
432.97	2272.66
433.16	2235.21
433.35	1977.75
433.54	1823.28
433.72	1764.76
433.91	1797.53
434.10	1975.41
434.28	2022.22
434.47	2197.76
434.66	2321.81
434.85	2101.80
435.03	2298.41
435.22	2427.14
435.41	2668.21
435.59	2705.66
435.78	2558.21
435.97	2551.18
436.16	2392.03
436.34	2340.54
436.53	2246.91
436.72	2333.51
436.90	2317.13
437.09	2190.74
437.28	2181.38
437.46	2260.96
437.65	2256.28
437.84	2094.78
438.02	1881.79
438.21	1872.43
438.40	2026.90
438.58	2125.21
438.77	2115.84
438.96	2284.36
439.14	2228.19
439.33	2415.43
439.52	2420.11
439.70	2359.26
439.89	2277.34
440.08	2291.38
440.26	2204.78
440.45	2312.45
440.63	2415.43
440.82	2551.18
441.01	2443.52
441.19	2710.34
441.38	2438.84
441.57	2600.34
441.75	2586.29
441.94	2752.47
442.12	2509.05
442.31	2546.50
442.50	2729.06
442.68	2733.75
442.87	2630.76
443.05	2569.91
443.24	2661.19
443.43	2619.06
443.61	2775.88
443.80	2848.43
443.98	2548.84
444.17	2663.53
444.35	2759.49
444.54	2733.75
444.73	2867.16
444.91	2689.28
445.10	2661.19
445.28	2345.22
445.47	2394.37
445.65	2356.92
445.84	2525.44
446.02	2551.18
446.21	2569.91
446.39	2715.02
446.58	2593.31
446.77	2637.78
446.95	2726.72
447.14	2822.69
447.32	2853.11
447.51	2665.87
447.69	2698.64
447.88	2656.51
448.06	2717.36
448.25	2670.55
448.43	2787.58
448.62	2719.70
448.80	2654.17
448.99	2736.09
449.17	2743.11
449.36	2651.83
449.54	2780.56
449.73	2768.85
449.91	2890.56
450.10	2892.90
450.28	3012.27
450.46	3066.10
450.65	3038.02
450.83	3005.25
451.02	2928.01
451.20	3030.99
451.39	2855.45
451.57	2902.26
451.76	2808.64
451.94	2827.37
452.13	2857.79
452.31	2794.60
452.49	2602.68
452.68	2593.31
452.86	2607.36
453.05	2637.78
453.23	2644.81
453.42	2836.73
453.60	2731.41
453.78	2810.98
453.97	2787.58
454.15	2787.58
454.34	2754.81
454.52	2759.49
454.70	2867.16
454.89	2644.81
455.07	2750.13
455.26	2794.60
455.44	2923.33
455.62	2906.95
455.81	2913.97
455.99	2850.77
456.17	2965.46
456.36	2890.56
456.54	3007.59
456.73	3023.97
456.91	2911.63
457.09	3019.29
457.28	3056.74
457.46	3061.42
457.64	2918.65
457.83	2888.22
458.01	2855.45
458.19	2771.19
458.38	2801.62
458.56	2930.35
458.74	2935.03
458.93	2998.23
459.11	2834.39
459.29	2916.31
459.48	2850.77
459.66	2874.18
459.84	3028.65
460.03	3019.29
460.21	2860.13
460.39	3155.04
460.57	3005.25
460.76	3096.53
460.94	3101.21
461.12	3089.51
461.31	2991.20
461.49	2995.89
461.67	3016.95
461.85	3131.64
462.04	3110.57
462.22	3508.46
462.40	3187.81
462.59	3089.51
462.77	3063.76
462.95	3052.06
463.13	3112.91
463.32	3042.70
463.50	3101.21
463.68	3042.70
463.86	2918.65
464.05	3098.87
464.23	2909.29
464.41	2923.33
464.59	3026.31
464.78	3026.31
464.96	3042.70
465.14	3075.46
465.32	3148.02
465.50	3183.13
465.69	3042.70
465.87	3009.93
466.05	3047.38
466.23	2897.58
466.41	2928.01
466.60	2815.66
466.78	2951.42
466.96	2911.63
467.14	2937.37
467.32	3047.38
467.51	3070.78
467.69	2956.10
467.87	2902.26
468.05	3045.04
468.23	3082.49
468.41	2890.56
468.60	2928.01
468.78	3103.55
468.96	3014.61
469.14	3091.85
469.32	3082.49
469.50	2902.26
469.69	3002.91
469.87	2867.16
470.05	2848.43
470.23	2867.16
470.41	2785.24
470.59	3023.97
470.77	2909.29
470.95	2899.92
471.14	2970.14
471.32	3075.46
471.50	3117.59
471.68	3272.07
471.86	3265.05
472.04	3187.81
472.22	3396.12
472.40	3126.96
472.58	3075.46
472.77	3192.49
472.95	3077.80
473.13	3148.02
473.31	3019.29
473.49	3162.06
473.67	3110.57
473.85	3258.03
474.03	3197.17
474.21	3267.39
474.39	3346.97
474.57	3349.31
474.75	3351.65
474.93	3300.16
475.12	3169.09
475.30	3398.46
475.48	3173.77
475.66	3201.85
475.84	3241.64
476.02	3236.96
476.20	3192.49
476.38	3225.26
476.56	3454.63
476.74	3276.75
476.92	3424.20
477.10	3293.13
477.28	3487.40
477.46	3571.66
477.64	3524.85
477.82	3588.04
478.00	3503.78
478.18	3616.13
478.36	3510.80
478.54	3449.95
478.72	3524.85
478.90	3651.24
479.08	3665.28
479.26	3770.60
479.44	3723.79
479.62	3892.31
479.80	3880.61
479.98	3779.97
480.16	3726.13
480.34	3796.35
480.52	3822.09
480.70	3789.33
480.88	3686.34
481.06	3918.06
481.24	3911.04
481.41	3899.33
481.59	3985.93
481.77	3948.48
481.95	4014.02
482.13	4025.72
482.31	3946.14
482.49	4180.20
482.67	3950.82
482.85	4163.81
483.03	4156.79
483.21	4196.58
483.39	4159.13
483.57	4081.89
483.74	4189.56
483.92	4030.40
484.10	4133.39
484.28	4203.60
484.46	4243.39
484.64	4290.20
484.82	4126.36
485.00	4114.66
485.18	4039.76
485.35	3889.97
485.53	3707.41
485.71	3445.27
485.89	3279.09
486.07	3426.54
486.25	3719.11
486.43	3894.65
486.61	3985.93
486.78	4046.79
486.96	4060.83
487.14	4227.01
487.32	4395.53
487.50	4187.22
487.68	4568.73
487.85	4540.64
488.03	4692.77
488.21	4449.36
488.39	4390.84
488.57	4329.99
488.75	4264.46
488.92	4627.24
489.10	4685.75
489.28	4793.42
489.46	5041.51
489.64	5050.88
489.81	5069.60
489.99	5060.24
490.17	4952.57
490.35	5057.90
490.53	4802.78
490.70	4772.35
490.88	4926.83
491.06	5111.73
491.24	4987.68
491.41	5036.83
491.59	4826.18
491.77	4638.94
491.95	4695.11
492.13	4917.47
492.30	4938.53
492.48	5008.75
492.66	5291.95
492.84	5310.68
493.01	5313.02
493.19	5210.03
493.37	5097.69
493.54	5081.30
493.72	5203.01
493.90	5371.53
494.08	5476.85
494.25	5598.56
494.43	5554.09
494.61	5444.09
494.79	5799.85
494.96	5584.52
495.14	5533.03
495.32	5399.62
495.49	5151.52
495.67	5308.34
495.85	5678.14
496.02	5666.44
496.20	5645.37
496.38	5544.73
496.55	5406.64
496.73	5685.16
496.91	5568.13
497.09	5795.17
497.26	5804.53
497.44	5675.80
497.62	5722.61
497.79	5441.75
497.97	5413.66
498.14	5385.57
498.32	5619.63
498.50	5647.71
498.67	5781.12
498.85	5682.82
499.03	5783.46
499.20	5849.00
499.38	5685.16
499.56	5785.80
499.73	5680.48
499.91	5657.07
500.08	5619.63
500.26	5413.66
500.44	5366.85
500.61	5572.82
500.79	5497.92
500.97	5572.82
501.14	5493.24
501.32	5479.19
501.49	5221.74
501.67	5437.06
501.84	5537.71
502.02	5561.11
502.20	5692.18
502.37	5664.10
502.55	5626.65
502.72	5645.37
502.90	5856.02
503.07	5647.71
503.25	5570.48
503.43	5263.86
503.60	5210.03
503.78	5022.79
503.95	5172.58
504.13	5310.68
504.30	5626.65
504.48	5694.52
504.65	5795.17
504.83	5680.48
505.01	5753.04
505.18	5788.14
505.36	5783.46
505.53	5837.30
505.71	5858.36
505.88	6050.28
506.06	5970.71
506.23	5795.17
506.41	5703.89
506.58	5853.68
506.76	5799.85
506.93	5703.89
507.11	5699.20
507.28	5771.76
507.46	5568.13
507.63	5511.96
507.81	5619.63
507.98	5638.35
508.16	5643.03
508.33	5837.30
508.50	5874.74
508.68	5968.37
508.85	6115.82
509.03	6148.59
509.20	6176.67
509.38	6066.67
509.55	5856.02
509.73	5680.48
509.90	5961.34
510.08	6092.41
510.25	6083.05
510.42	5977.73
510.60	5973.05
510.77	5951.98
510.95	6237.53
511.12	6218.80
511.30	6216.46
511.47	6153.27
511.64	6361.58
511.82	6179.01
511.99	6099.44
512.17	5935.60
512.34	5851.34
512.51	5907.51
512.69	5935.60
512.86	5804.53
513.04	6141.57
513.21	5944.96
513.38	6015.18
513.56	6080.71
513.73	5867.72
513.90	5870.06
514.08	5809.21
514.25	5949.64
514.43	6080.71
514.60	6057.31
514.77	5966.03
514.95	5959.00
515.12	6071.35
515.29	6181.35
515.47	6111.14
515.64	6160.29
515.81	6036.24
515.99	6010.50
516.16	5818.57
516.33	5446.43
516.51	5156.20
516.68	5050.88
516.85	5048.54
517.03	4786.40
517.20	5313.02
517.37	5872.40
517.54	6127.52
517.72	6129.86
517.89	5626.65
518.06	5074.28
518.24	5247.48
518.41	5509.62
518.58	5760.06
518.75	5888.79
518.93	5771.76
519.10	5923.90
519.27	5994.11
519.45	5837.30
519.62	6331.15
519.79	6380.30
519.96	6181.35
520.14	6246.89
520.31	5998.79
520.48	5902.83
520.65	5900.49
520.83	6073.69
521.00	6345.19
521.17	6221.14
521.34	6097.10
521.52	6211.78
521.69	6202.42
521.86	6366.26
522.03	6480.94
522.20	6083.05
522.38	5816.23
522.55	5783.46
522.72	5900.49
522.89	6003.47
523.07	6085.39
523.24	6085.39
523.41	6228.17
523.58	6218.80
523.75	6279.66
523.92	6328.81
524.10	6473.92
524.27	6534.78
524.44	6424.77
524.61	6410.73
524.78	6211.78
524.96	6230.51
525.13	6134.54
525.30	6139.23
525.47	6345.19
525.64	6707.98
525.81	6157.95
525.98	6097.10
526.16	5673.46
526.33	5720.27
526.50	5558.77
526.67	5432.38
526.84	5453.45
527.01	5701.54
527.18	5790.49
527.36	5991.77
527.53	6293.70
527.70	6265.61
527.87	6230.51
528.04	6244.55
528.21	6237.53
528.38	6200.08
528.55	6359.24
528.72	6473.92
528.89	6590.95
529.07	6525.41
529.24	6324.13
529.41	6265.61
529.58	6092.41
529.75	5951.98
529.92	6174.33
530.09	6321.79
530.26	6333.49
530.43	6380.30
530.60	6696.27
530.77	6506.69
530.94	6630.74
531.11	6586.27
531.28	6452.86
531.46	6459.88
531.63	6466.90
531.80	6502.01
531.97	6331.15
532.14	6354.55
532.31	5853.68
532.48	5935.60
532.65	5834.96
532.82	5858.36
532.99	6279.66
533.16	6396.68
533.33	6263.27
533.50	6352.21
533.67	6260.93
533.84	6043.26
534.01	6139.23
534.18	6375.62
534.35	6232.85
534.52	6277.32
534.69	6354.55
534.86	6321.79
535.03	6366.26
535.20	6347.53
535.37	6492.65
535.54	6729.04
535.71	6487.96
535.88	6356.90
536.05	6305.40
536.22	6296.04
536.38	6080.71
536.55	6200.08
536.72	6061.99
536.89	6010.50
537.06	5870.06
537.23	6459.88
537.40	6403.71
537.57	6296.04
537.74	6319.45
537.91	6335.83
538.08	6136.88
538.25	6232.85
538.42	6443.49
538.59	6246.89
538.75	6223.48
538.92	6417.75
539.09	6197.74
539.26	6085.39
539.43	6228.17
539.60	6167.31
539.77	6153.27
539.94	6080.71
540.11	6015.18
540.28	6078.37
540.44	5893.47
540.61	6026.88
540.78	5926.24
540.95	6069.01
541.12	6129.86
541.29	6270.30
541.46	6455.20
541.62	6485.62
541.79	6298.38
541.96	6291.36
542.13	6235.19
542.30	6314.77
542.47	6352.21
542.63	6394.34
542.80	6272.64
542.97	6136.88
543.14	6211.78
543.31	6113.48
543.48	6338.17
543.64	6403.71
543.81	6604.99
543.98	6614.35
544.15	6354.55
544.32	6289.02
544.48	6106.46
544.65	6370.94
544.82	6633.08
544.99	6455.20
545.16	6392.00
545.32	6221.14
545.49	6911.60
545.66	6981.82
545.83	7045.01
546.00	6862.45
546.16	6696.27
546.33	6558.18
546.50	6347.53
546.67	6408.39
546.83	6272.64
547.00	6251.57
547.17	6204.76
547.34	6012.84
547.50	6132.20
547.67	6171.99
547.84	6003.47
548.00	6202.42
548.17	6162.63
548.34	6239.87
548.51	6300.72
548.67	6310.08
548.84	6324.13
549.01	6169.65
549.18	6228.17
549.34	6097.10
549.51	6200.08
549.68	6326.47
549.84	6164.97
550.01	6153.27
550.18	6073.69
550.34	6106.46
550.51	6115.82
550.68	6153.27
550.84	6097.10
551.01	6157.95
551.18	5989.43
551.34	6019.86
551.51	6164.97
551.68	6216.46
551.84	6370.94
552.01	6197.74
552.18	6090.07
552.34	5867.72
552.51	5902.83
552.68	5914.53
552.84	5820.91
553.01	5947.30
553.18	5937.94
553.34	6003.47
553.51	6085.39
553.67	6038.58
553.84	6230.51
554.01	6169.65
554.17	6125.18
554.34	5926.24
554.51	6026.88
554.67	6331.15
554.84	6293.70
555.00	6085.39
555.17	5984.75
555.33	6120.50
555.50	6038.58
555.67	5940.28
555.83	5940.28
556.00	6052.63
556.16	6069.01
556.33	5916.87
556.50	5900.49
556.66	5834.96
556.83	5703.89
556.99	5694.52
557.16	5717.93
557.32	5802.19
557.49	5961.34
557.65	5902.83
557.82	5834.96
557.98	5834.96
558.15	5654.73
558.32	5577.50
558.48	5633.67
558.65	5584.52
558.81	5621.97
558.98	5554.09
559.14	5458.13
559.31	5563.45
559.47	5551.75
559.64	5617.29
559.80	5607.92
559.97	5631.33
560.13	5668.78
560.30	5703.89
560.46	5898.15
560.63	5764.74
560.79	5865.38
560.96	5956.66
561.12	5743.67
561.29	5628.99
561.45	5528.35
561.61	5582.18
561.78	5694.52
561.94	5544.73
562.11	5757.72
562.27	5509.62
562.44	5572.82
562.60	5652.39
562.77	5827.93
562.93	5795.17
563.10	5682.82
563.26	5647.71
563.42	5687.50
563.59	5563.45
563.75	5460.47
563.92	5643.03
564.08	5568.13
564.24	5586.86
564.41	5689.84
564.57	5516.64
564.74	5731.97
564.90	5619.63
565.07	5607.92
565.23	5584.52
565.39	5394.93
565.56	5406.64
565.72	5177.26
565.88	5416.00
566.05	5416.00
566.21	5392.59
566.38	5357.49
566.54	5507.28
566.70	5533.03
566.87	5493.24
567.03	5479.19
567.19	5607.92
567.36	5507.28
567.52	5465.15
567.68	5425.36
567.85	5327.06
568.01	5170.24
568.17	5074.28
568.34	5060.24
568.50	4968.96
568.66	4905.76
568.83	5212.37
568.99	5074.28
569.15	5104.71
569.32	5135.14
569.48	5144.50
569.64	4959.60
569.81	5170.24
569.97	4992.36
570.13	5221.74
570.30	5039.17
570.46	5036.83
570.62	4947.89
570.78	4891.72
570.95	4943.21
571.11	5069.60
571.27	5097.69
571.43	5036.83
571.60	5062.58
571.76	5121.09
571.92	5022.79
572.09	5177.26
572.25	5121.09
572.41	5057.90
572.57	5165.56
572.74	5041.51
572.90	4973.64
573.06	5207.69
573.22	5076.62
573.38	5280.25
573.55	5018.11
573.71	5158.54
573.87	4990.02
574.03	4865.97
574.20	4910.44
574.36	4961.94
574.52	4814.48
574.68	5055.56
574.84	5034.49
575.01	4741.93
575.17	5001.72
575.33	4903.42
575.49	4887.04
575.65	5027.47
575.82	4858.95
575.98	4849.59
576.14	4971.30
576.30	4919.81
576.46	5020.45
576.62	5249.82
576.79	5036.83
576.95	5074.28
577.11	4908.10
577.27	4894.06
577.43	5022.79
577.59	5046.20
577.75	4959.60
577.92	4863.63
578.08	4716.18
578.24	4669.37
578.40	4896.40
578.56	4999.38
578.72	5121.09
578.88	4971.30
579.04	5116.41
579.21	4936.19
579.37	4882.36
579.53	5060.24
579.69	5006.41
579.85	5172.58
580.01	5001.72
580.17	4865.97
580.33	5062.58
580.49	4880.02
580.65	4975.98
580.82	4994.70
580.98	5064.92
581.14	4940.87
581.30	5104.71
581.46	4985.34
581.62	4842.57
581.78	5011.09
581.94	4950.23
582.10	5078.96
582.26	5104.71
582.42	5107.05
582.58	5093.01
582.74	5163.22
582.90	5151.52
583.06	5074.28
583.22	5032.15
583.38	5062.58
583.54	5053.22
583.70	4966.62
583.86	5022.79
584.02	5167.90
584.18	5207.69
584.34	5123.43
584.50	4973.64
584.66	4884.70
584.82	4926.83
584.98	4943.21
585.14	4863.63
585.30	4856.61
585.46	4734.90
585.62	4564.04
585.78	4854.27
585.94	4727.88
586.10	4891.72
586.26	4765.33
586.42	4697.46
586.58	4851.93
586.74	4655.33
586.90	4840.23
587.06	4828.53
587.22	4685.75
587.38	4671.71
587.54	4479.79
587.70	4496.17
587.86	4252.75
588.02	4248.07
588.18	4201.26
588.34	3971.89
588.49	3705.07
588.65	3548.25
588.81	3358.67
588.97	3492.08
589.13	3522.51
589.29	3632.51
589.45	3480.38
589.61	3531.87
589.77	3599.74
589.93	3646.55
590.08	3889.97
590.24	3992.95
590.40	3990.61
590.56	4128.70
590.72	4002.32
590.88	4044.45
591.04	4117.00
591.20	3950.82
591.35	3911.04
591.51	3922.74
591.67	3808.05
591.83	3707.41
591.99	3840.82
592.15	3957.85
592.31	4065.51
592.46	4035.08
592.62	4229.35
592.78	4170.83
592.94	4182.54
593.10	4187.22
593.26	4344.03
593.41	4287.86
593.57	4234.03
593.73	4051.47
593.89	3859.54
594.05	3716.77
594.20	3658.26
594.36	3791.67
594.52	3552.93
594.68	3571.66
594.84	3894.65
594.99	4072.53
595.15	4173.18
595.31	4124.02
595.47	4009.34
595.62	3908.69
595.78	4056.15
595.94	4147.43
596.10	4166.15
596.25	4236.37
596.41	4105.30
596.57	3812.73
596.73	3887.63
596.88	3969.55
597.04	4177.86
597.20	4074.87
597.36	3967.21
597.51	3960.19
597.67	4002.32
597.83	4044.45
