SpectraSuite Data File
++++++++++++++++++++++++++++++++++++
Date: Fri Oct 04 11:44:24 GMT-05:00 2013
User: price-jones
Dark Spectrum Present: No
Reference Spectrum Present: No
Number of Sampled Component Spectra: 1
Spectrometers: USB2+H05261
Integration Time (usec): 100000 (USB2+H05261)
Spectra Averaged: 1 (USB2+H05261)
Boxcar Smoothing: 0 (USB2+H05261)
Correct for Electrical Dark: No (USB2+H05261)
Strobe/Lamp Enabled: No (USB2+H05261)
Correct for Detector Non-linearity: No (USB2+H05261)
Correct for Stray Light: No (USB2+H05261)
Number of Pixels in Processed Spectrum: 2048
>>>>>Begin Processed Spectral Data<<<<<
365.73	49.15
365.92	49.15
366.12	49.15
366.32	0.00
366.52	0.00
366.72	0.00
366.91	0.00
367.11	0.00
367.31	0.00
367.51	0.00
367.70	2.34
367.90	0.00
368.10	0.00
368.30	0.00
368.49	0.00
368.69	0.00
368.89	0.00
369.09	0.00
369.28	0.00
369.48	0.00
369.68	0.00
369.87	4.68
370.07	14.04
370.27	0.00
370.47	147.45
370.66	454.06
370.86	550.03
371.06	568.75
371.25	622.58
371.45	620.24
371.65	435.34
371.84	486.83
372.04	484.49
372.24	636.63
372.44	603.86
372.63	599.18
372.83	599.18
373.03	510.24
373.22	477.47
373.42	512.58
373.62	573.43
373.81	653.01
374.01	624.92
374.21	543.00
374.40	526.62
374.60	631.94
374.79	594.50
374.99	624.92
375.19	725.57
375.38	697.48
375.58	636.63
375.78	660.03
375.97	660.03
376.17	685.78
376.37	751.31
376.56	791.10
376.76	781.74
376.95	760.67
377.15	828.55
377.35	798.12
377.54	866.00
377.74	870.68
377.93	887.06
378.13	875.36
378.33	837.91
378.52	798.12
378.72	692.80
378.91	777.06
379.11	706.84
379.31	704.50
379.50	662.37
379.70	767.70
379.89	812.17
380.09	861.32
380.28	849.61
380.48	842.59
380.68	716.20
380.87	826.21
381.07	786.42
381.26	753.65
381.46	688.12
381.65	725.57
381.85	664.71
382.04	690.46
382.24	580.45
382.43	589.82
382.63	575.77
382.83	521.94
383.02	608.54
383.22	601.52
383.41	601.52
383.61	650.67
383.80	582.79
384.00	753.65
384.19	823.87
384.39	861.32
384.58	812.17
384.78	809.83
384.97	908.13
385.17	821.53
385.36	835.57
385.56	767.70
385.75	676.41
385.95	873.02
386.14	952.60
386.34	753.65
386.53	856.64
386.72	718.54
386.92	765.36
387.11	819.19
387.31	847.27
387.50	821.53
387.70	784.08
387.89	781.74
388.09	784.08
388.28	814.51
388.48	826.21
388.67	938.55
388.86	950.26
389.06	1086.01
389.25	1163.25
389.45	1181.97
389.64	1074.31
389.84	1027.50
390.03	985.37
390.22	1067.28
390.42	1048.56
390.61	1116.44
390.81	1210.06
391.00	1233.46
391.19	1135.16
391.39	1139.84
391.58	1018.13
391.78	1039.20
391.97	994.73
392.16	903.45
392.36	1022.81
392.55	784.08
392.75	627.26
392.94	585.13
393.13	557.05
393.33	636.63
393.52	706.84
393.71	772.38
393.91	973.66
394.10	968.98
394.29	1048.56
394.49	1170.27
394.68	1245.16
394.88	1249.85
395.07	1345.81
395.26	1268.57
395.46	1263.89
395.65	1156.22
395.84	1076.65
396.04	889.40
396.23	730.25
396.42	711.52
396.62	702.16
396.81	713.86
397.00	912.81
397.19	1043.88
397.39	1163.25
397.58	1418.36
397.77	1441.77
397.97	1528.37
398.16	1472.20
398.35	1577.52
398.55	1659.44
398.74	1657.10
398.93	1732.00
399.12	1570.50
399.32	1565.82
399.51	1633.69
399.70	1865.41
399.90	1739.02
400.09	1884.13
400.28	1701.57
400.47	1727.32
400.67	1830.30
400.86	1863.07
401.05	1860.73
401.24	1898.17
401.44	1989.46
401.63	1975.41
401.82	1982.43
402.01	2008.18
402.21	1818.60
402.40	1900.52
402.59	1870.09
402.78	1816.26
402.97	1671.14
403.17	1769.44
403.36	1923.92
403.55	1893.49
403.74	1902.86
403.93	1970.73
404.13	2052.65
404.32	1989.46
404.51	2101.80
404.70	2076.06
404.89	2036.27
405.09	1811.57
405.28	1900.52
405.47	1909.88
405.66	1900.52
405.85	1834.98
406.05	1748.38
406.24	1849.02
406.43	1935.62
406.62	1900.52
406.81	2045.63
407.00	1853.70
407.20	1844.34
407.39	1902.86
407.58	1959.03
407.77	2090.10
407.96	2054.99
408.15	2071.37
408.34	2186.06
408.54	2071.37
408.73	2239.89
408.92	2160.31
409.11	2026.90
409.30	1998.82
409.49	1984.77
409.68	1741.36
409.87	1781.15
410.07	1771.79
410.26	1907.54
410.45	1975.41
410.64	2090.10
410.83	2263.30
411.02	2251.60
411.21	2282.02
411.40	2265.64
411.59	2300.75
411.78	2169.68
411.98	2143.93
412.17	2197.76
412.36	2160.31
412.55	2209.47
412.74	2071.37
412.93	2202.44
413.12	2127.55
413.31	2246.91
413.50	2333.51
413.69	2464.58
413.88	2275.00
414.07	2375.64
414.26	2333.51
414.45	2324.15
414.64	2478.63
414.83	2417.77
415.02	2361.60
415.22	2347.56
415.41	2377.98
415.60	2370.96
415.79	2513.74
415.98	2656.51
416.17	2710.34
416.36	2607.36
416.55	2490.33
416.74	2555.86
416.93	2490.33
417.12	2246.91
417.31	2338.20
417.50	2410.75
417.69	2525.44
417.88	2408.41
418.07	2495.01
418.26	2408.41
418.45	2497.35
418.64	2518.42
418.83	2436.50
419.02	2633.10
419.21	2593.31
419.39	2490.33
419.58	2354.58
419.77	2284.36
419.96	2438.84
420.15	2541.82
420.34	2637.78
420.53	2729.06
420.72	2715.02
420.91	2691.62
421.10	2778.22
421.29	2708.00
421.48	2544.16
421.67	2764.17
421.86	2623.74
422.05	2399.05
422.24	2307.77
422.43	2286.70
422.61	2401.39
422.80	2684.59
422.99	2619.06
423.18	2520.76
423.37	2600.34
423.56	2422.45
423.75	2574.59
423.94	2459.90
424.13	2492.67
424.32	2476.29
424.50	2490.33
424.69	2586.29
424.88	2495.01
425.07	2392.03
425.26	2410.75
425.45	2406.07
425.64	2368.62
425.83	2324.15
426.01	2609.70
426.20	2551.18
426.39	2492.67
426.58	2303.09
426.77	2244.57
426.96	2167.34
427.15	2174.36
427.33	2338.20
427.52	2457.56
427.71	2516.08
427.90	2509.05
428.09	2431.82
428.28	2312.45
428.46	2242.23
428.65	2284.36
428.84	2258.62
429.03	2420.11
429.22	2260.96
429.40	2071.37
429.59	1928.60
429.78	1921.58
429.97	1699.23
430.16	1734.34
430.34	1865.41
430.53	1788.17
430.72	1809.23
430.91	1872.43
431.10	2249.25
431.28	2612.04
431.47	2729.06
431.66	2822.69
431.85	2593.31
432.03	2567.57
432.22	2422.45
432.41	2410.75
432.60	2677.57
432.79	2759.49
432.97	2918.65
433.16	2705.66
433.35	2539.48
433.54	2420.11
433.72	2253.94
433.91	2347.56
434.10	2523.10
434.28	2794.60
434.47	2860.13
434.66	2780.56
434.85	2764.17
435.03	2813.32
435.22	3260.37
435.41	3913.38
435.59	4238.71
435.78	3843.16
435.97	3368.03
436.16	3192.49
436.34	3075.46
436.53	2771.19
436.72	3014.61
436.90	2768.85
437.09	2752.47
437.28	2789.92
437.46	2771.19
437.65	2876.52
437.84	2658.85
438.02	2553.52
438.21	2434.16
438.40	2525.44
438.58	2871.84
438.77	2820.35
438.96	2869.50
439.14	2970.14
439.33	3105.89
439.52	3009.93
439.70	2958.44
439.89	2913.97
440.08	2869.50
440.26	2775.88
440.45	2916.31
440.63	3171.43
440.82	3176.11
441.01	3222.92
441.19	3033.33
441.38	3215.90
441.57	3363.35
441.75	3304.84
441.94	3325.90
442.12	3323.56
442.31	3314.20
442.50	3410.16
442.68	3428.88
442.87	3351.65
443.05	3281.43
443.24	3412.50
443.43	3382.07
443.61	3375.05
443.80	3583.36
443.98	3302.50
444.17	3236.96
444.35	3536.55
444.54	3517.83
444.73	3400.80
444.91	3300.16
445.10	3208.87
445.28	3185.47
445.47	3108.23
445.65	3138.66
445.84	3138.66
446.02	3286.11
446.21	3344.63
446.39	3215.90
446.58	3356.33
446.77	3300.16
446.95	3452.29
447.14	3576.34
447.32	3691.02
447.51	3494.42
447.69	3358.67
447.88	3353.99
448.06	3410.16
448.25	3283.77
448.43	3513.14
448.62	3478.04
448.80	3435.91
448.99	3536.55
449.17	3571.66
449.36	3456.97
449.54	3684.00
449.73	3595.06
449.91	3768.26
450.10	3669.96
450.28	3957.85
450.46	3829.12
450.65	3843.16
450.83	3756.56
451.02	3707.41
451.20	3562.30
451.39	3735.50
451.57	3686.34
451.76	3744.86
451.94	3588.04
452.13	3611.45
452.31	3325.90
452.49	3297.81
452.68	3417.18
452.86	3351.65
453.05	3382.07
453.23	3506.12
453.42	3602.08
453.60	3522.51
453.78	3510.80
453.97	3634.85
454.15	3534.21
454.34	3482.72
454.52	3445.27
454.70	3344.63
454.89	3407.82
455.07	3375.05
455.26	3719.11
455.44	3672.30
455.62	3723.79
455.81	3857.20
455.99	3702.73
456.17	3705.07
456.36	3676.98
456.54	3866.56
456.73	3786.99
456.91	3859.54
457.09	3796.35
457.28	3939.12
457.46	3824.44
457.64	3803.37
457.83	3686.34
458.01	3555.27
458.19	3719.11
458.38	3728.47
458.56	3861.88
458.74	3754.22
458.93	3859.54
459.11	3786.99
459.29	3730.81
459.48	3667.62
459.66	3735.50
459.84	3805.71
460.03	3899.33
460.21	3747.20
460.39	3847.84
460.57	4046.79
460.76	3889.97
460.94	3857.20
461.12	3786.99
461.31	3922.74
461.49	3953.16
461.67	3899.33
461.85	4051.47
462.04	3845.50
462.22	4423.61
462.40	4086.58
462.59	4084.23
462.77	3880.61
462.95	3990.61
463.13	4018.70
463.32	3887.63
463.50	3936.78
463.68	3775.28
463.86	3967.21
464.05	3864.22
464.23	3861.88
464.41	3789.33
464.59	3662.94
464.78	3826.78
464.96	3751.88
465.14	3749.54
465.32	3812.73
465.50	3812.73
465.69	3976.57
465.87	3950.82
466.05	3976.57
466.23	3604.42
466.41	3569.32
466.60	3646.55
466.78	3623.15
466.96	3653.58
467.14	3887.63
467.32	3894.65
467.51	3960.19
467.69	3763.58
467.87	3719.11
468.05	3829.12
468.23	3815.07
468.41	3918.06
468.60	3719.11
468.78	3948.48
468.96	3719.11
469.14	3822.09
469.32	3749.54
469.50	3695.71
469.69	3712.09
469.87	3735.50
470.05	3604.42
470.23	3637.19
470.41	3602.08
470.59	3616.13
470.77	3810.39
470.95	3880.61
471.14	3946.14
471.32	3962.53
471.50	4067.85
471.68	4112.32
471.86	4044.45
472.04	4124.02
472.22	3974.23
472.40	3997.64
472.58	4102.96
472.77	3829.12
472.95	4007.00
473.13	4051.47
473.31	3955.51
473.49	3854.86
473.67	3941.46
473.85	4032.74
474.03	4205.94
474.21	4264.46
474.39	4252.75
474.57	4287.86
474.75	4236.37
474.93	4203.60
475.12	4058.49
475.30	4093.60
475.48	4063.17
475.66	4128.70
475.84	4007.00
476.02	4011.68
476.20	4086.58
476.38	4119.34
476.56	4315.95
476.74	4301.90
476.92	4404.89
477.10	4365.10
477.28	4351.06
477.46	4550.00
477.64	4568.73
477.82	4599.15
478.00	4718.52
478.18	4376.80
478.36	4400.21
478.54	4493.83
478.72	4566.39
478.90	4662.35
479.08	4699.80
479.26	4669.37
479.44	4807.46
479.62	4812.14
479.80	4842.57
479.98	4814.48
480.16	4727.88
480.34	4636.60
480.52	4690.43
480.70	4943.21
480.88	4940.87
481.06	4999.38
481.24	5107.05
481.41	5245.14
481.59	5322.38
481.77	5071.94
481.95	5095.35
482.13	5064.92
482.31	5144.50
482.49	5121.09
482.67	5256.84
482.85	5144.50
483.03	5310.68
483.21	5275.57
483.39	5324.72
483.57	5228.76
483.74	5254.50
483.92	5380.89
484.10	5167.90
484.28	5287.27
484.46	5612.60
484.64	5720.27
484.82	5376.21
485.00	5221.74
485.18	5226.42
485.35	5032.15
485.53	4779.37
485.71	4390.84
485.89	4248.07
486.07	4442.34
486.25	4966.62
486.43	5151.52
486.61	5121.09
486.78	5210.03
486.96	5298.97
487.14	5488.56
487.32	5563.45
487.50	5668.78
487.68	5785.80
487.85	5977.73
488.03	5893.47
488.21	5980.07
488.39	5827.93
488.57	5640.69
488.75	5678.14
488.92	6047.94
489.10	6040.92
489.28	6312.42
489.46	6546.48
489.64	6537.12
489.81	6576.91
489.99	6541.80
490.17	6352.21
490.35	6586.27
490.53	6284.34
490.70	6354.55
490.88	6183.70
491.06	6408.39
491.24	6464.56
491.41	6225.82
491.59	5987.09
491.77	6031.56
491.95	6052.63
492.13	6345.19
492.30	6319.45
492.48	6532.44
492.66	6745.42
492.84	6785.21
493.01	6523.07
493.19	6597.97
493.37	6684.57
493.54	6436.47
493.72	6654.14
493.90	6731.38
494.08	7005.22
494.25	7068.42
494.43	7047.35
494.61	7084.80
494.79	7300.13
494.96	7059.06
495.14	7119.91
495.32	6719.68
495.49	6562.86
495.67	6846.07
495.85	7197.15
496.02	7363.33
496.20	7368.01
496.38	7218.21
496.55	7108.21
496.73	7126.93
496.91	7075.44
497.09	7482.69
497.26	7573.97
497.44	7342.26
497.62	7288.43
497.79	7002.88
497.97	6778.19
498.14	6885.86
498.32	6951.39
498.50	7140.97
498.67	7241.62
498.85	7307.15
499.03	7478.01
499.20	7421.84
499.38	7323.54
499.56	7478.01
499.73	7419.50
499.91	7222.89
500.08	7007.56
500.26	6860.11
500.44	6972.46
500.61	7206.51
500.79	7073.10
500.97	6930.33
501.14	7068.42
501.32	6820.32
501.49	6796.92
501.67	6956.07
501.84	7073.10
502.02	7049.69
502.20	7208.85
502.37	7253.32
502.55	7293.11
502.72	7295.45
502.90	7328.22
503.07	7075.44
503.25	6876.49
503.43	6733.72
503.60	6626.06
503.78	6633.08
503.95	6569.88
504.13	6949.05
504.30	7248.64
504.48	7356.30
504.65	7236.94
504.83	7232.26
505.01	7463.97
505.18	7606.74
505.36	7611.42
505.53	7630.15
505.71	7721.43
505.88	7843.14
506.06	7658.23
506.23	7552.91
506.41	7351.62
506.58	7407.80
506.76	7349.28
506.93	7360.98
507.11	7302.47
507.28	7255.66
507.46	7377.37
507.63	7077.78
507.81	7035.65
507.98	6979.48
508.16	7213.53
508.33	7557.59
508.50	7627.81
508.68	7693.34
508.85	7733.13
509.03	7784.62
509.20	7662.91
509.38	7513.12
509.55	7604.40
509.73	7485.03
509.90	7705.04
510.08	7609.08
510.25	7653.55
510.42	7632.49
510.60	7503.76
510.77	7527.16
510.95	7595.04
511.12	7796.32
511.30	8039.74
511.47	7831.43
511.64	7995.27
511.82	7812.71
511.99	7754.19
512.17	7646.53
512.34	7538.87
512.51	7548.23
512.69	7620.78
512.86	7667.60
513.04	7716.75
513.21	7726.11
513.38	7529.50
513.56	7513.12
513.73	7222.89
513.90	7351.62
514.08	7470.99
514.25	7609.08
514.43	7611.42
514.60	7555.25
514.77	7620.78
514.95	7611.42
515.12	7522.48
515.29	7679.30
515.47	7796.32
515.64	7978.89
515.81	7822.07
515.99	7578.65
516.16	7325.88
516.33	6668.19
516.51	6370.94
516.68	6188.38
516.85	6239.87
517.03	6270.30
517.20	6663.51
517.37	7281.41
517.54	7744.83
517.72	7473.33
517.89	7033.31
518.06	6607.33
518.24	6473.92
518.41	6829.68
518.58	7112.89
518.75	7400.77
518.93	7400.77
519.10	7393.75
519.27	7543.55
519.45	7714.41
519.62	7651.21
519.79	7857.18
519.96	7777.60
520.14	7714.41
520.31	7660.57
520.48	7595.04
520.65	7489.71
520.83	7541.21
521.00	7796.32
521.17	7744.83
521.34	7925.05
521.52	7676.96
521.69	7688.66
521.86	7974.21
522.03	8301.88
522.20	7775.26
522.38	7227.57
522.55	7220.55
522.72	7749.51
522.89	7637.17
523.07	7719.09
523.24	7527.16
523.41	7875.90
523.58	7826.75
523.75	8091.23
523.92	8081.87
524.10	8208.26
524.27	8327.63
524.44	8161.45
524.61	7831.43
524.78	8025.70
524.96	7847.82
525.13	7770.58
525.30	8025.70
525.47	8030.38
525.64	8124.00
525.81	7939.10
525.98	7473.33
526.16	7073.10
526.33	7005.22
526.50	7005.22
526.67	6789.89
526.84	6876.49
527.01	7033.31
527.18	7407.80
527.36	7604.40
527.53	7915.69
527.70	7791.64
527.87	7756.54
528.04	7660.57
528.21	7882.92
528.38	7829.09
528.55	8301.88
528.72	8126.34
528.89	8163.79
529.07	8070.17
529.24	7920.37
529.41	7660.57
529.58	7571.63
529.75	7573.97
529.92	7929.74
530.09	7742.49
530.26	8077.19
530.43	8081.87
530.60	8135.70
530.77	8131.02
530.94	8276.13
531.11	8095.91
531.28	8102.93
531.46	7934.42
531.63	7934.42
531.80	8163.79
531.97	7957.82
532.14	7702.70
532.31	7403.11
532.48	7157.36
532.65	7171.40
532.82	7382.05
532.99	7744.83
533.16	7854.84
533.33	8067.83
533.50	8044.42
533.67	7779.94
533.84	7688.66
534.01	7712.07
534.18	7831.43
534.35	7833.77
534.52	7857.18
534.69	7808.03
534.86	7946.12
535.03	7901.65
535.20	8028.04
535.37	8292.52
535.54	8170.81
535.71	8079.53
535.88	8255.07
536.05	7971.86
536.22	7850.16
536.38	7756.54
536.55	7618.44
536.72	7548.23
536.89	7527.16
537.06	7686.32
537.23	7758.88
537.40	7779.94
537.57	8042.08
537.74	8009.31
537.91	7950.80
538.08	7941.44
538.25	8044.42
538.42	8093.57
538.59	8138.04
538.75	8006.97
538.92	7861.86
539.09	7726.11
539.26	7552.91
539.43	7602.06
539.60	7747.17
539.77	8002.29
539.94	7873.56
540.11	7808.03
540.28	7508.44
540.44	7648.87
540.61	7658.23
540.78	7857.18
540.95	7967.18
541.12	8374.44
541.29	8489.12
541.46	8667.00
541.62	8486.78
541.79	8573.38
541.96	8463.38
542.13	8301.88
542.30	8339.33
542.47	8416.57
542.63	8355.71
542.80	8252.73
542.97	8152.09
543.14	8196.56
543.31	8138.04
543.48	8346.35
543.64	8248.05
543.81	8500.83
543.98	8688.07
544.15	8479.76
544.32	8238.69
544.48	8297.20
544.65	8362.73
544.82	8411.89
544.99	8393.16
545.16	8095.91
545.32	8173.15
545.49	8912.76
545.66	10113.45
545.83	10724.33
546.00	10345.17
546.16	9100.00
546.33	8695.09
546.50	8559.34
546.67	8657.64
546.83	8304.22
547.00	8224.64
547.17	7726.11
547.34	7634.83
547.50	7744.83
547.67	7995.27
547.84	7941.44
548.00	8112.30
548.17	7871.22
548.34	8177.83
548.51	8032.72
548.67	7948.46
548.84	8203.58
549.01	7955.48
549.18	7859.52
549.34	7864.20
549.51	7946.12
549.68	7798.66
549.84	7936.76
550.01	7585.68
550.18	7815.05
550.34	7756.54
550.51	7789.30
550.68	7833.77
550.84	7700.36
551.01	7555.25
551.18	7655.89
551.34	7524.82
551.51	7857.18
551.68	7857.18
551.84	7866.54
552.01	7705.04
552.18	7641.85
552.34	7712.07
552.51	7253.32
552.68	7211.19
552.84	7412.48
553.01	7597.38
553.18	7618.44
553.34	7583.34
553.51	7597.38
553.67	7623.12
553.84	7740.15
554.01	7681.64
554.17	7749.51
554.34	7520.14
554.51	7513.12
554.67	7744.83
554.84	7517.80
555.00	7419.50
555.17	7393.75
555.33	7466.31
555.50	7382.05
555.67	7482.69
555.83	7447.58
556.00	7241.62
556.16	7428.86
556.33	7295.45
556.50	7190.13
556.66	7166.72
556.83	7124.59
556.99	7119.91
557.16	7115.23
557.32	7173.74
557.49	7246.30
557.65	7363.33
557.82	7126.93
557.98	7218.21
558.15	7164.38
558.32	7054.37
558.48	6825.00
558.65	6782.87
558.81	6888.20
558.98	6768.83
559.14	6876.49
559.31	6944.37
559.47	7033.31
559.64	6970.12
559.80	6918.62
559.97	6827.34
560.13	6984.16
560.30	7185.44
560.46	7178.42
560.63	7241.62
560.79	7215.87
560.96	7365.67
561.12	7105.87
561.29	6689.25
561.45	6846.07
561.61	7047.35
561.78	7075.44
561.94	7037.99
562.11	7040.33
562.27	7014.59
562.44	6993.52
562.60	7169.06
562.77	7075.44
562.93	7094.16
563.10	7192.47
563.26	6836.70
563.42	7000.54
563.59	7045.01
563.75	6909.26
563.92	6832.02
564.08	6764.15
564.24	6935.01
564.41	6904.58
564.57	6815.64
564.74	6977.14
564.90	7152.68
565.07	7119.91
565.23	6867.13
565.39	6597.97
565.56	6738.40
565.72	6597.97
565.88	6583.93
566.05	6551.16
566.21	6724.36
566.38	6539.46
566.54	6942.03
566.70	6759.47
566.87	6752.45
567.03	6846.07
567.19	6820.32
567.36	6867.13
567.52	6654.14
567.68	6588.61
567.85	6630.74
568.01	6459.88
568.17	6218.80
568.34	6277.32
568.50	6274.98
568.66	6097.10
568.83	6303.06
568.99	6232.85
569.15	6441.15
569.32	6469.24
569.48	6157.95
569.64	6319.45
569.81	6272.64
569.97	6305.40
570.13	6490.31
570.30	6305.40
570.46	6230.51
570.62	6167.31
570.78	5973.05
570.95	6076.03
571.11	6225.82
571.27	6183.70
571.43	6169.65
571.60	6319.45
571.76	6146.25
571.92	6228.17
572.09	6321.79
572.25	6366.26
572.41	6363.92
572.57	6352.21
572.74	6349.87
572.90	6228.17
573.06	6417.75
573.22	6282.00
573.38	6347.53
573.55	6328.81
573.71	6417.75
573.87	6424.77
574.03	6256.25
574.20	6347.53
574.36	6017.52
574.52	6136.88
574.68	6230.51
574.84	6195.40
575.01	6090.07
575.17	5984.75
575.33	6071.35
575.49	6225.82
575.65	6225.82
575.82	6031.56
575.98	6038.58
576.14	6120.50
576.30	6399.02
576.46	6363.92
576.62	6509.03
576.79	6663.51
576.95	6396.68
577.11	6427.11
577.27	6155.61
577.43	6225.82
577.59	6134.54
577.75	6108.80
577.92	5867.72
578.08	6057.31
578.24	5888.79
578.40	6038.58
578.56	6244.55
578.72	6492.65
578.88	6621.38
579.04	6415.41
579.21	6209.44
579.37	6258.59
579.53	6160.29
579.69	6221.14
579.85	6317.11
580.01	6331.15
580.17	6218.80
580.33	6242.21
580.49	6289.02
580.65	6298.38
580.82	6260.93
580.98	6230.51
581.14	6099.44
581.30	6286.68
581.46	6176.67
581.62	6221.14
581.78	6347.53
581.94	6413.07
582.10	6260.93
582.26	6406.05
582.42	6333.49
582.58	6469.24
582.74	6289.02
582.90	6415.41
583.06	6408.39
583.22	6228.17
583.38	6377.96
583.54	6340.51
583.70	6293.70
583.86	6305.40
584.02	6162.63
584.18	6237.53
584.34	6230.51
584.50	6333.49
584.66	6139.23
584.82	6169.65
584.98	6092.41
585.14	6015.18
585.30	6076.03
585.46	5900.49
585.62	5781.12
585.78	5982.41
585.94	6024.54
586.10	5951.98
586.26	5774.10
586.42	6108.80
586.58	6111.14
586.74	6052.63
586.90	6015.18
587.06	6076.03
587.22	6253.91
587.38	5909.85
587.54	5930.92
587.70	5774.10
587.86	5444.09
588.02	5296.63
588.18	5226.42
588.34	4933.85
588.49	4655.33
588.65	4461.06
588.81	4297.22
588.97	4276.16
589.13	4341.69
589.29	4304.25
589.45	4257.43
589.61	4292.54
589.77	4681.07
589.93	4755.97
590.08	4938.53
590.24	5001.72
590.40	5011.09
590.56	4933.85
590.72	5083.64
590.88	4919.81
591.04	5071.94
591.20	5039.17
591.35	4887.04
591.51	4898.74
591.67	4770.01
591.83	4812.14
591.99	4805.12
592.15	4896.40
592.31	5043.85
592.46	5256.84
592.62	5317.70
592.78	5357.49
592.94	5348.12
593.10	5420.68
593.26	5392.59
593.41	5383.23
593.57	5275.57
593.73	5053.22
593.89	4844.91
594.05	4751.29
594.20	4793.42
594.36	4615.54
594.52	4531.28
594.68	4599.15
594.84	4821.50
594.99	5116.41
595.15	5170.24
595.31	4929.17
595.47	5151.52
595.62	5107.05
595.78	5055.56
595.94	5296.63
596.10	5317.70
596.25	5259.18
596.41	5114.07
596.57	4922.15
596.73	5018.11
596.88	5074.28
597.04	5062.58
597.20	5102.37
597.36	5013.43
597.51	5078.96
