SpectraSuite Data File
++++++++++++++++++++++++++++++++++++
Date: Fri Oct 04 11:44:11 GMT-05:00 2013
User: price-jones
Dark Spectrum Present: No
Reference Spectrum Present: No
Number of Sampled Component Spectra: 1
Spectrometers: USB2+H05261
Integration Time (usec): 100000 (USB2+H05261)
Spectra Averaged: 1 (USB2+H05261)
Boxcar Smoothing: 0 (USB2+H05261)
Correct for Electrical Dark: No (USB2+H05261)
Strobe/Lamp Enabled: No (USB2+H05261)
Correct for Detector Non-linearity: No (USB2+H05261)
Correct for Stray Light: No (USB2+H05261)
Number of Pixels in Processed Spectrum: 2048
>>>>>Begin Processed Spectral Data<<<<<
365.73	0.00
365.92	0.00
366.12	0.00
366.32	0.00
366.52	0.00
366.72	0.00
366.91	0.00
367.11	0.00
367.31	0.00
367.51	0.00
367.70	7.02
367.90	0.00
368.10	0.00
368.30	0.00
368.49	0.00
368.69	0.00
368.89	0.00
369.09	0.00
369.28	0.00
369.48	0.00
369.68	0.00
369.87	0.00
370.07	0.00
370.27	11.70
370.47	105.32
370.66	407.25
370.86	447.04
371.06	500.87
371.25	524.28
371.45	498.53
371.65	411.93
371.84	374.49
372.04	407.25
372.24	489.17
372.44	545.34
372.63	571.09
372.83	512.58
373.03	393.21
373.22	416.62
373.42	465.77
373.62	500.87
373.81	559.39
374.01	524.28
374.21	552.37
374.40	411.93
374.60	496.19
374.79	447.04
374.99	564.07
375.19	608.54
375.38	596.84
375.58	545.34
375.78	575.77
375.97	561.73
376.17	702.16
376.37	550.03
376.56	662.37
376.76	620.24
376.95	732.59
377.15	669.39
377.35	655.35
377.54	711.52
377.74	713.86
377.93	688.12
378.13	725.57
378.33	683.44
378.52	676.41
378.72	681.10
378.91	603.86
379.11	624.92
379.31	615.56
379.50	664.71
379.70	589.82
379.89	711.52
380.09	734.93
380.28	662.37
380.48	840.25
380.68	732.59
380.87	711.52
381.07	613.22
381.26	690.46
381.46	624.92
381.65	543.00
381.85	566.41
382.04	559.39
382.24	564.07
382.43	547.69
382.63	463.43
382.83	486.83
383.02	423.64
383.22	440.02
383.41	496.19
383.61	512.58
383.80	582.79
384.00	711.52
384.19	718.54
384.39	732.59
384.58	737.27
384.78	667.05
384.97	812.17
385.17	695.14
385.36	723.23
385.56	657.69
385.75	676.41
385.95	732.59
386.14	800.46
386.34	734.93
386.53	741.95
386.72	667.05
386.92	739.61
387.11	802.80
387.31	723.23
387.50	793.44
387.70	589.82
387.89	667.05
388.09	669.39
388.28	667.05
388.48	725.57
388.67	770.04
388.86	835.57
389.06	863.66
389.25	931.53
389.45	978.34
389.64	973.66
389.84	957.28
390.03	973.66
390.22	915.15
390.42	964.30
390.61	992.39
390.81	1062.60
391.00	1109.41
391.19	1039.20
391.39	922.17
391.58	971.32
391.78	983.02
391.97	858.98
392.16	798.12
392.36	732.59
392.55	739.61
392.75	535.98
392.94	454.06
393.13	482.15
393.33	512.58
393.52	758.33
393.71	791.10
393.91	877.70
394.10	851.96
394.29	952.60
394.49	1025.15
394.68	990.05
394.88	1095.37
395.07	1179.63
395.26	1111.75
395.46	1050.90
395.65	1055.58
395.84	976.00
396.04	938.55
396.23	690.46
396.42	514.92
396.62	653.01
396.81	573.43
397.00	791.10
397.19	999.41
397.39	1081.33
397.58	1266.23
397.77	1284.95
397.97	1378.58
398.16	1263.89
398.35	1313.04
398.55	1397.30
398.74	1493.26
398.93	1547.09
399.12	1563.48
399.32	1380.92
399.51	1533.05
399.70	1579.86
399.90	1481.56
400.09	1495.60
400.28	1516.67
400.47	1502.62
400.67	1643.06
400.86	1689.87
401.05	1603.27
401.24	1652.42
401.44	1600.93
401.63	1715.61
401.82	1790.51
402.01	1598.59
402.21	1654.76
402.40	1715.61
402.59	1640.72
402.78	1619.65
402.97	1511.99
403.17	1582.20
403.36	1699.23
403.55	1823.28
403.74	1813.92
403.93	1727.32
404.13	1678.16
404.32	1647.74
404.51	1755.40
404.70	1762.42
404.89	1783.49
405.09	1703.91
405.28	1659.44
405.47	1657.10
405.66	1640.72
405.85	1675.82
406.05	1432.41
406.24	1563.48
406.43	1533.05
406.62	1652.42
406.81	1762.42
407.00	1771.79
407.20	1710.93
407.39	1710.93
407.58	1748.38
407.77	1762.42
407.96	1816.26
408.15	1748.38
408.34	1846.68
408.54	1998.82
408.73	1816.26
408.92	1937.96
409.11	1870.09
409.30	1809.23
409.49	1596.25
409.68	1584.54
409.87	1530.71
410.07	1600.93
410.26	1837.32
410.45	1858.39
410.64	1837.32
410.83	1827.96
411.02	1795.19
411.21	2090.10
411.40	2045.63
411.59	1935.62
411.78	1982.43
411.98	1977.75
412.17	2106.48
412.36	2047.97
412.55	1998.82
412.74	1940.30
412.93	1991.80
413.12	1863.07
413.31	2157.97
413.50	2162.66
413.69	2134.57
413.88	2141.59
414.07	2038.61
414.26	2005.84
414.45	2080.74
414.64	2162.66
414.83	1984.77
415.02	2078.40
415.22	2015.20
415.41	2040.95
415.60	2108.82
415.79	2258.62
415.98	2291.38
416.17	2326.49
416.36	2207.13
416.55	2094.78
416.74	2108.82
416.93	2001.16
417.12	2092.44
417.31	1982.43
417.50	2129.89
417.69	2200.10
417.88	2244.57
418.07	2064.35
418.26	2160.31
418.45	2197.76
418.64	2225.85
418.83	2181.38
419.02	2172.02
419.21	2209.47
419.39	2232.87
419.58	2029.24
419.77	2054.99
419.96	2153.29
420.15	2282.02
420.34	2275.00
420.53	2342.88
420.72	2392.03
420.91	2385.01
421.10	2333.51
421.29	2242.23
421.48	2284.36
421.67	2326.49
421.86	2282.02
422.05	2221.17
422.24	2038.61
422.43	2050.31
422.61	2118.18
422.80	2251.60
422.99	2310.11
423.18	2207.13
423.37	2174.36
423.56	2204.78
423.75	2338.20
423.94	2282.02
424.13	2066.69
424.32	2120.53
424.50	2136.91
424.69	2223.51
424.88	2190.74
425.07	1994.14
425.26	2146.27
425.45	2155.63
425.64	2150.95
425.83	2097.12
426.01	2249.25
426.20	2265.64
426.39	2132.23
426.58	2253.94
426.77	2001.16
426.96	1872.43
427.15	1902.86
427.33	1998.82
427.52	2071.37
427.71	2108.82
427.90	2141.59
428.09	2101.80
428.28	2108.82
428.46	2120.53
428.65	2118.18
428.84	2071.37
429.03	2080.74
429.22	1947.33
429.40	1879.45
429.59	1797.53
429.78	1523.69
429.97	1509.65
430.16	1643.06
430.34	1614.97
430.53	1629.01
430.72	1643.06
430.91	1673.48
431.10	2005.84
431.28	2258.62
431.47	2450.54
431.66	2452.88
431.85	2373.30
432.03	2263.30
432.22	2202.44
432.41	2111.16
432.60	2204.78
432.79	2392.03
432.97	2642.46
433.16	2499.69
433.35	2193.08
433.54	2022.22
433.72	2064.35
433.91	2106.48
434.10	2214.15
434.28	2342.88
434.47	2450.54
434.66	2466.92
434.85	2450.54
435.03	2263.30
435.22	2675.23
435.41	2876.52
435.59	2818.00
435.78	2853.11
435.97	2738.43
436.16	2619.06
436.34	2583.95
436.53	2588.63
436.72	2633.10
436.90	2546.50
437.09	2445.86
437.28	2417.77
437.46	2567.57
437.65	2476.29
437.84	2366.28
438.02	2172.02
438.21	2172.02
438.40	2132.23
438.58	2464.58
438.77	2406.07
438.96	2534.80
439.14	2588.63
439.33	2649.49
439.52	2628.42
439.70	2661.19
439.89	2590.97
440.08	2452.88
440.26	2434.16
440.45	2539.48
440.63	2738.43
440.82	2892.90
441.01	2799.28
441.19	2684.59
441.38	2883.54
441.57	2916.31
441.75	3038.02
441.94	3068.44
442.12	3056.74
442.31	2949.08
442.50	3007.59
442.68	2939.71
442.87	2911.63
443.05	2925.67
443.24	2963.12
443.43	3033.33
443.61	2967.80
443.80	3042.70
443.98	2878.86
444.17	2801.62
444.35	3014.61
444.54	3164.40
444.73	3035.67
444.91	3049.72
445.10	2984.18
445.28	2867.16
445.47	2595.65
445.65	2689.28
445.84	2693.96
446.02	2792.26
446.21	2892.90
446.39	2850.77
446.58	2813.32
446.77	2953.76
446.95	2993.55
447.14	3169.09
447.32	3126.96
447.51	3087.17
447.69	2939.71
447.88	2918.65
448.06	2913.97
448.25	2984.18
448.43	2995.89
448.62	3061.42
448.80	3014.61
448.99	3108.23
449.17	3098.87
449.36	3091.85
449.54	3204.19
449.73	3283.77
449.91	3206.53
450.10	3267.39
450.28	3445.27
450.46	3321.22
450.65	3339.94
450.83	3269.73
451.02	3126.96
451.20	3297.81
451.39	3295.47
451.57	3126.96
451.76	3269.73
451.94	3281.43
452.13	3253.34
452.31	3150.36
452.49	3073.12
452.68	2883.54
452.86	2801.62
453.05	2974.82
453.23	3049.72
453.42	3082.49
453.60	3141.00
453.78	3243.98
453.97	3201.85
454.15	3084.83
454.34	3021.63
454.52	3243.98
454.70	3054.40
454.89	3148.02
455.07	2944.39
455.26	3117.59
455.44	3255.69
455.62	3267.39
455.81	3379.73
455.99	3356.33
456.17	3328.24
456.36	3344.63
456.54	3232.28
456.73	3363.35
456.91	3391.44
457.09	3421.86
457.28	3501.44
457.46	3412.50
457.64	3396.12
457.83	3218.24
458.01	3159.72
458.19	3272.07
458.38	3225.26
458.56	3421.86
458.74	3253.34
458.93	3246.32
459.11	3283.77
459.29	3194.83
459.48	3077.80
459.66	3307.18
459.84	3290.79
460.03	3365.69
460.21	3262.71
460.39	3412.50
460.57	3531.87
460.76	3461.65
460.94	3405.48
461.12	3693.37
461.31	3630.17
461.49	3335.26
461.67	3480.38
461.85	3632.51
462.04	3513.14
462.22	4014.02
462.40	3604.42
462.59	3522.51
462.77	3581.02
462.95	3456.97
463.13	3522.51
463.32	3449.95
463.50	3318.88
463.68	3370.37
463.86	3356.33
464.05	3384.41
464.23	3379.73
464.41	3318.88
464.59	3246.32
464.78	3389.10
464.96	3302.50
465.14	3382.07
465.32	3351.65
465.50	3485.06
465.69	3559.95
465.87	3513.14
466.05	3194.83
466.23	3342.28
466.41	3283.77
466.60	3265.05
466.78	3248.66
466.96	3173.77
467.14	3323.56
467.32	3447.61
467.51	3445.27
467.69	3346.97
467.87	3426.54
468.05	3428.88
468.23	3297.81
468.41	3274.41
468.60	3370.37
468.78	3482.72
468.96	3337.60
469.14	3391.44
469.32	3375.05
469.50	3314.20
469.69	3274.41
469.87	3276.75
470.05	3180.79
470.23	3260.37
470.41	3323.56
470.59	3133.98
470.77	3382.07
470.95	3391.44
471.14	3407.82
471.32	3524.85
471.50	3630.17
471.68	3634.85
471.86	3627.83
472.04	3651.24
472.22	3552.93
472.40	3531.87
472.58	3506.12
472.77	3295.47
472.95	3555.27
473.13	3632.51
473.31	3433.57
473.49	3513.14
473.67	3515.48
473.85	3454.63
474.03	3662.94
474.21	3641.87
474.39	3768.26
474.57	3742.52
474.75	3660.60
474.93	3819.75
475.12	3604.42
475.30	3730.81
475.48	3616.13
475.66	3606.77
475.84	3609.11
476.02	3672.30
476.20	3611.45
476.38	3744.86
476.56	3735.50
476.74	3796.35
476.92	3955.51
477.10	3880.61
477.28	3941.46
477.46	3992.95
477.64	4004.66
477.82	4042.11
478.00	4002.32
478.18	4018.70
478.36	4109.98
478.54	4011.68
478.72	4058.49
478.90	4056.15
479.08	4189.56
479.26	4203.60
479.44	4156.79
479.62	4112.32
479.80	4159.13
479.98	4308.93
480.16	4292.54
480.34	4306.59
480.52	4205.94
480.70	4351.06
480.88	4297.22
481.06	4421.27
481.24	4334.67
481.41	4425.95
481.59	4547.66
481.77	4475.10
481.95	4540.64
482.13	4470.42
482.31	4526.60
482.49	4697.46
482.67	4489.15
482.85	4535.96
483.03	4746.61
483.21	4638.94
483.39	4505.53
483.57	4587.45
483.74	4498.51
483.92	4624.90
484.10	4734.90
484.28	4809.80
484.46	4629.58
484.64	4814.48
484.82	4706.82
485.00	4634.26
485.18	4613.20
485.35	4531.28
485.53	4222.33
485.71	3852.52
485.89	3705.07
486.07	3794.01
486.25	4205.94
486.43	4381.48
486.61	4514.89
486.78	4533.62
486.96	4510.21
487.14	4636.60
487.32	4922.15
487.50	4877.68
487.68	5167.90
487.85	5104.71
488.03	5191.31
488.21	5142.16
488.39	4950.23
488.57	4973.64
488.75	4938.53
488.92	5219.39
489.10	5245.14
489.28	5544.73
489.46	5703.89
489.64	5657.07
489.81	5689.84
489.99	5703.89
490.17	5596.22
490.35	5652.39
490.53	5610.26
490.70	5575.16
490.88	5458.13
491.06	5591.54
491.24	5722.61
491.41	5556.43
491.59	5336.42
491.77	5125.77
491.95	5226.42
492.13	5504.94
492.30	5671.12
492.48	5731.97
492.66	5926.24
492.84	5830.27
493.01	5982.41
493.19	5598.56
493.37	5673.46
493.54	5664.10
493.72	5720.27
493.90	5942.62
494.08	6036.24
494.25	6179.01
494.43	6216.46
494.61	6307.74
494.79	6239.87
494.96	6228.17
495.14	6066.67
495.32	5970.71
495.49	5884.11
495.67	5909.85
495.85	6164.97
496.02	6265.61
496.20	6490.31
496.38	6305.40
496.55	6190.72
496.73	6399.02
496.91	6392.00
497.09	6534.78
497.26	6604.99
497.44	6399.02
497.62	6321.79
497.79	6319.45
497.97	6047.94
498.14	6160.29
498.32	6106.46
498.50	6321.79
498.67	6377.96
498.85	6429.45
499.03	6459.88
499.20	6427.11
499.38	6644.78
499.56	6661.16
499.73	6544.14
499.91	6497.33
500.08	6223.48
500.26	6045.60
500.44	6202.42
500.61	6169.65
500.79	6150.93
500.97	6106.46
501.14	6202.42
501.32	6101.78
501.49	6043.26
501.67	6101.78
501.84	6132.20
502.02	6293.70
502.20	6274.98
502.37	6303.06
502.55	6181.35
502.72	6548.82
502.90	6661.16
503.07	6361.58
503.25	6150.93
503.43	6015.18
503.60	5895.81
503.78	5734.31
503.95	5867.72
504.13	6214.12
504.30	6539.46
504.48	6551.16
504.65	6551.16
504.83	6429.45
505.01	6518.39
505.18	6520.73
505.36	6675.21
505.53	6656.48
505.71	6719.68
505.88	6764.15
506.06	6621.38
506.23	6640.10
506.41	6548.82
506.58	6513.71
506.76	6459.88
506.93	6532.44
507.11	6469.24
507.28	6656.48
507.46	6469.24
507.63	6349.87
507.81	6242.21
507.98	6181.35
508.16	6354.55
508.33	6663.51
508.50	6827.34
508.68	6778.19
508.85	7122.25
509.03	6878.83
509.20	6862.45
509.38	6595.63
509.55	6462.22
509.73	6452.86
509.90	6663.51
510.08	6813.30
510.25	6616.69
510.42	6642.44
510.60	6906.92
510.77	6981.82
510.95	6960.75
511.12	7061.40
511.30	7098.84
511.47	7211.19
511.64	7227.57
511.82	6958.41
511.99	6963.09
512.17	6764.15
512.34	6740.74
512.51	6724.36
512.69	6754.79
512.86	6698.61
513.04	6970.12
513.21	6722.02
513.38	6747.76
513.56	6663.51
513.73	6565.20
513.90	6431.79
514.08	6534.78
514.25	6612.01
514.43	6649.46
514.60	6595.63
514.77	6855.43
514.95	6640.10
515.12	6733.72
515.29	6719.68
515.47	6988.84
515.64	6981.82
515.81	6857.77
515.99	6972.46
516.16	6417.75
516.33	6115.82
516.51	5797.51
516.68	5685.16
516.85	5533.03
517.03	5507.28
517.20	5900.49
517.37	6567.54
517.54	6839.05
517.72	6590.95
517.89	6274.98
518.06	5682.82
518.24	5900.49
518.41	6118.16
518.58	6534.78
518.75	6462.22
518.93	6684.57
519.10	6408.39
519.27	6682.23
519.45	6621.38
519.62	6785.21
519.79	6902.24
519.96	7026.29
520.14	6810.96
520.31	6684.57
520.48	6665.85
520.65	6633.08
520.83	6794.58
521.00	7007.56
521.17	7021.61
521.34	6743.08
521.52	6974.80
521.69	6946.71
521.86	7096.50
522.03	7140.97
522.20	6782.87
522.38	6583.93
522.55	6595.63
522.72	6553.50
522.89	6754.79
523.07	6808.62
523.24	6843.73
523.41	6939.69
523.58	6998.20
523.75	6967.77
523.92	7098.84
524.10	7269.70
524.27	7227.57
524.44	7258.00
524.61	7227.57
524.78	7068.42
524.96	6925.65
525.13	6984.16
525.30	7307.15
525.47	7087.14
525.64	7185.44
525.81	6956.07
525.98	6612.01
526.16	6384.98
526.33	6132.20
526.50	6108.80
526.67	6085.39
526.84	6061.99
527.01	6260.93
527.18	6546.48
527.36	6658.82
527.53	7082.46
527.70	7108.21
527.87	6946.71
528.04	6815.64
528.21	6932.67
528.38	6967.77
528.55	7229.91
528.72	7281.41
528.89	7426.52
529.07	7262.68
529.24	7171.40
529.41	7005.22
529.58	6953.73
529.75	6715.00
529.92	6979.48
530.09	7002.88
530.26	7094.16
530.43	7309.49
530.60	7424.18
530.77	7190.13
530.94	7311.83
531.11	7250.98
531.28	7316.51
531.46	6972.46
531.63	7155.02
531.80	7047.35
531.97	7211.19
532.14	6979.48
532.31	6663.51
532.48	6513.71
532.65	6450.52
532.82	6668.19
532.99	6867.13
533.16	6939.69
533.33	7101.19
533.50	7112.89
533.67	7110.55
533.84	6647.12
534.01	6956.07
534.18	6768.83
534.35	7056.72
534.52	6960.75
534.69	7075.44
534.86	7089.48
535.03	7201.83
535.20	7166.72
535.37	7267.36
535.54	7440.56
535.71	7300.13
535.88	7192.47
536.05	7178.42
536.22	6988.84
536.38	6972.46
536.55	6923.30
536.72	6740.74
536.89	6738.40
537.06	6750.10
537.23	7129.27
537.40	7073.10
537.57	6944.37
537.74	7075.44
537.91	7054.37
538.08	7052.03
538.25	7005.22
538.42	7105.87
538.59	6918.62
538.75	6970.12
538.92	6803.94
539.09	6932.67
539.26	6754.79
539.43	6977.14
539.60	6757.13
539.77	6883.52
539.94	6698.61
540.11	6551.16
540.28	6506.69
540.44	6612.01
540.61	6555.84
540.78	6724.36
540.95	6895.22
541.12	6986.50
541.29	6904.58
541.46	7162.04
541.62	7077.78
541.79	7208.85
541.96	7082.46
542.13	7122.25
542.30	7115.23
542.47	7194.81
542.63	7054.37
542.80	6939.69
542.97	6970.12
543.14	7047.35
543.31	6974.80
543.48	6988.84
543.64	7337.58
543.81	7370.35
543.98	7295.45
544.15	7066.08
544.32	6895.22
544.48	6874.15
544.65	7054.37
544.82	7117.57
544.99	7030.97
545.16	7054.37
545.32	6956.07
545.49	7356.30
545.66	7712.07
545.83	7754.19
546.00	7529.50
546.16	7220.55
546.33	6967.77
546.50	6796.92
546.67	7103.53
546.83	6913.94
547.00	6967.77
547.17	6913.94
547.34	6757.13
547.50	6661.16
547.67	6597.97
547.84	6719.68
548.00	7063.74
548.17	6878.83
548.34	6949.05
548.51	7068.42
548.67	6881.18
548.84	6853.09
549.01	6841.39
549.18	6923.30
549.34	6834.36
549.51	6944.37
549.68	6808.62
549.84	6633.08
550.01	6750.10
550.18	6836.70
550.34	6848.41
550.51	6686.91
550.68	6808.62
550.84	6682.23
551.01	6534.78
551.18	6530.09
551.34	6850.75
551.51	6829.68
551.68	6970.12
551.84	6820.32
552.01	6918.62
552.18	6785.21
552.34	6562.86
552.51	6499.67
552.68	6560.52
552.84	6626.06
553.01	6874.15
553.18	6691.59
553.34	6745.42
553.51	6717.34
553.67	6785.21
553.84	6970.12
554.01	6918.62
554.17	6665.85
554.34	6761.81
554.51	6731.38
554.67	6764.15
554.84	6757.13
555.00	6808.62
555.17	6764.15
555.33	6722.02
555.50	6686.91
555.67	6853.09
555.83	6544.14
556.00	6537.12
556.16	6736.06
556.33	6504.35
556.50	6422.43
556.66	6349.87
556.83	6303.06
556.99	6452.86
557.16	6443.49
557.32	6506.69
557.49	6588.61
557.65	6506.69
557.82	6506.69
557.98	6504.35
558.15	6455.20
558.32	6282.00
558.48	6043.26
558.65	5954.32
558.81	6141.57
558.98	6122.84
559.14	6246.89
559.31	6122.84
559.47	6307.74
559.64	6232.85
559.80	6258.59
559.97	6298.38
560.13	6104.12
560.30	6403.71
560.46	6452.86
560.63	6731.38
560.79	6677.55
560.96	6422.43
561.12	6401.37
561.29	6146.25
561.45	6054.97
561.61	6218.80
561.78	6345.19
561.94	6008.16
562.11	6186.04
562.27	6188.38
562.44	6253.91
562.60	6312.42
562.77	6513.71
562.93	6420.09
563.10	6396.68
563.26	6380.30
563.42	6277.32
563.59	6106.46
563.75	6216.46
563.92	6286.68
564.08	6244.55
564.24	6265.61
564.41	6174.33
564.57	6230.51
564.74	6317.11
564.90	6272.64
565.07	6214.12
565.23	6244.55
565.39	6050.28
565.56	6076.03
565.72	5849.00
565.88	5954.32
566.05	5982.41
566.21	6022.20
566.38	6047.94
566.54	6054.97
566.70	6099.44
566.87	6125.18
567.03	6230.51
567.19	6094.76
567.36	5937.94
567.52	5994.11
567.68	6001.13
567.85	5975.39
568.01	5893.47
568.17	5685.16
568.34	5643.03
568.50	5488.56
568.66	5526.00
568.83	5703.89
568.99	5652.39
569.15	5919.21
569.32	5734.31
569.48	5572.82
569.64	5453.45
569.81	5586.86
569.97	5600.90
570.13	5603.24
570.30	5547.07
570.46	5638.35
570.62	5434.72
570.78	5439.40
570.95	5355.15
571.11	5631.33
571.27	5598.56
571.43	5657.07
571.60	5710.91
571.76	5760.06
571.92	5617.29
572.09	5659.42
572.25	5598.56
572.41	5785.80
572.57	5722.61
572.74	5785.80
572.90	5764.74
573.06	5778.78
573.22	5809.21
573.38	5804.53
573.55	5654.73
573.71	5806.87
573.87	5621.97
574.03	5507.28
574.20	5603.24
574.36	5603.24
574.52	5523.66
574.68	5350.46
574.84	5554.09
575.01	5439.40
575.17	5345.78
575.33	5418.34
575.49	5610.26
575.65	5631.33
575.82	5390.25
575.98	5554.09
576.14	5514.30
576.30	5584.52
576.46	5645.37
576.62	5722.61
576.79	5657.07
576.95	5593.88
577.11	5556.43
577.27	5446.43
577.43	5598.56
577.59	5355.15
577.75	5273.23
577.92	5287.27
578.08	5280.25
578.24	5188.97
578.40	5219.39
578.56	5383.23
578.72	5715.59
578.88	5511.96
579.04	5598.56
579.21	5474.51
579.37	5547.07
579.53	5540.05
579.69	5535.37
579.85	5731.97
580.01	5713.25
580.17	5633.67
580.33	5411.32
580.49	5575.16
580.65	5540.05
580.82	5617.29
580.98	5537.71
581.14	5533.03
581.30	5614.95
581.46	5530.69
581.62	5509.62
581.78	5556.43
581.94	5757.72
582.10	5404.30
582.26	5682.82
582.42	5607.92
582.58	5783.46
582.74	5678.14
582.90	5565.79
583.06	5699.20
583.22	5472.17
583.38	5542.39
583.54	5631.33
583.70	5526.00
583.86	5600.90
584.02	5504.94
584.18	5645.37
584.34	5504.94
584.50	5509.62
584.66	5533.03
584.82	5479.19
584.98	5511.96
585.14	5460.47
585.30	5284.93
585.46	5179.61
585.62	5217.05
585.78	5249.82
585.94	5186.63
586.10	5277.91
586.26	5420.68
586.42	5343.44
586.58	5390.25
586.74	5263.86
586.90	5345.78
587.06	5184.29
587.22	5247.48
587.38	5062.58
587.54	5160.88
587.70	5011.09
587.86	4819.16
588.02	4882.36
588.18	4589.79
588.34	4421.27
588.49	4210.62
588.65	3836.14
588.81	3826.78
588.97	3747.20
589.13	3861.88
589.29	3913.38
589.45	3829.12
589.61	3751.88
589.77	3974.23
589.93	4152.11
590.08	4348.72
590.24	4442.34
590.40	4580.43
590.56	4475.10
590.72	4461.06
590.88	4369.78
591.04	4512.55
591.20	4418.93
591.35	4348.72
591.51	4435.32
591.67	4208.28
591.83	4313.61
591.99	4339.35
592.15	4395.53
592.31	4369.78
592.46	4681.07
592.62	4636.60
592.78	4755.97
592.94	4662.35
593.10	4664.69
593.26	4575.75
593.41	4891.72
593.57	4800.44
593.73	4627.24
593.89	4311.27
594.05	4163.81
594.20	4074.87
594.36	4109.98
594.52	4159.13
594.68	4051.47
594.84	4299.56
594.99	4610.86
595.15	4388.50
595.31	4692.77
595.47	4531.28
595.62	4432.97
595.78	4489.15
595.94	4669.37
596.10	4844.91
596.25	4634.26
596.41	4390.84
596.57	4423.61
596.73	4400.21
596.88	4559.36
597.04	4447.02
597.20	4538.30
597.36	4465.74
597.51	4531.28
597.67	4428.29
597.83	4634.26
