SpectraSuite Data File
++++++++++++++++++++++++++++++++++++
Date: Fri Oct 04 11:44:24 GMT-05:00 2013
User: price-jones
Dark Spectrum Present: No
Reference Spectrum Present: No
Number of Sampled Component Spectra: 1
Spectrometers: USB2+H05261
Integration Time (usec): 100000 (USB2+H05261)
Spectra Averaged: 1 (USB2+H05261)
Boxcar Smoothing: 0 (USB2+H05261)
Correct for Electrical Dark: No (USB2+H05261)
Strobe/Lamp Enabled: No (USB2+H05261)
Correct for Detector Non-linearity: No (USB2+H05261)
Correct for Stray Light: No (USB2+H05261)
Number of Pixels in Processed Spectrum: 2048
>>>>>Begin Processed Spectral Data<<<<<
365.73	9.36
365.92	9.36
366.12	9.36
366.32	0.00
366.52	0.00
366.72	0.00
366.91	0.00
367.11	0.00
367.31	0.00
367.51	0.00
367.70	0.00
367.90	0.00
368.10	0.00
368.30	0.00
368.49	0.00
368.69	0.00
368.89	0.00
369.09	0.00
369.28	0.00
369.48	0.00
369.68	0.00
369.87	0.00
370.07	0.00
370.27	21.06
370.47	46.81
370.66	580.45
370.86	657.69
371.06	643.65
371.25	648.33
371.45	617.90
371.65	526.62
371.84	519.60
372.04	524.28
372.24	547.69
372.44	648.33
372.63	631.94
372.83	681.10
373.03	521.94
373.22	524.28
373.42	573.43
373.62	596.84
373.81	634.29
374.01	674.07
374.21	627.26
374.40	543.00
374.60	631.94
374.79	653.01
374.99	685.78
375.19	765.36
375.38	891.74
375.58	758.33
375.78	807.48
375.97	816.85
376.17	828.55
376.37	734.93
376.56	786.42
376.76	741.95
376.95	873.02
377.15	868.34
377.35	912.81
377.54	915.15
377.74	940.90
377.93	987.71
378.13	870.68
378.33	959.62
378.52	903.45
378.72	819.19
378.91	858.98
379.11	765.36
379.31	795.78
379.50	741.95
379.70	856.64
379.89	882.38
380.09	908.13
380.28	964.30
380.48	887.06
380.68	1011.11
380.87	849.61
381.07	898.77
381.26	835.57
381.46	779.40
381.65	697.48
381.85	758.33
382.04	648.33
382.24	631.94
382.43	662.37
382.63	638.97
382.83	601.52
383.02	634.29
383.22	653.01
383.41	697.48
383.61	608.54
383.80	645.99
384.00	755.99
384.19	844.93
384.39	945.58
384.58	898.77
384.78	798.12
384.97	922.17
385.17	866.00
385.36	798.12
385.56	814.51
385.75	755.99
385.95	847.27
386.14	971.32
386.34	882.38
386.53	866.00
386.72	875.36
386.92	954.94
387.11	931.53
387.31	987.71
387.50	847.27
387.70	889.40
387.89	894.08
388.09	870.68
388.28	894.08
388.48	943.24
388.67	947.92
388.86	1020.47
389.06	1146.86
389.25	1142.18
389.45	1132.82
389.64	1179.63
389.84	1177.29
390.03	1172.61
390.22	1210.06
390.42	1174.95
390.61	1247.51
390.81	1256.87
391.00	1331.76
391.19	1310.70
391.39	1284.95
391.58	1219.42
391.78	1196.01
391.97	1111.75
392.16	987.71
392.36	968.98
392.55	842.59
392.75	683.44
392.94	645.99
393.13	601.52
393.33	629.60
393.52	720.88
393.71	945.58
393.91	1102.39
394.10	1135.16
394.29	1207.72
394.49	1315.38
394.68	1270.91
394.88	1385.60
395.07	1345.81
395.26	1441.77
395.46	1287.29
395.65	1268.57
395.84	1174.95
396.04	968.98
396.23	737.27
396.42	683.44
396.62	744.29
396.81	884.72
397.00	987.71
397.19	1186.65
397.39	1350.49
397.58	1533.05
397.77	1516.67
397.97	1652.42
398.16	1673.48
398.35	1774.13
398.55	1689.87
398.74	1870.09
398.93	1966.05
399.12	1844.34
399.32	1816.26
399.51	1797.53
399.70	1898.17
399.90	1895.83
400.09	1825.62
400.28	1886.47
400.47	1867.75
400.67	1970.73
400.86	1926.26
401.05	1996.48
401.24	2071.37
401.44	2181.38
401.63	2076.06
401.82	2155.63
402.01	2010.52
402.21	2111.16
402.40	2083.08
402.59	1982.43
402.78	1982.43
402.97	1952.01
403.17	2015.20
403.36	2127.55
403.55	2195.42
403.74	2286.70
403.93	2207.13
404.13	2207.13
404.32	2174.36
404.51	2331.17
404.70	2331.17
404.89	2118.18
405.09	2162.66
405.28	2057.33
405.47	2085.42
405.66	2036.27
405.85	2010.52
406.05	2083.08
406.24	2050.31
406.43	2087.76
406.62	2115.84
406.81	2188.40
407.00	2052.65
407.20	2085.42
407.39	2038.61
407.58	2085.42
407.77	2359.26
407.96	2186.06
408.15	2377.98
408.34	2326.49
408.54	2438.84
408.73	2396.71
408.92	2396.71
409.11	2326.49
409.30	2214.15
409.49	2094.78
409.68	1902.86
409.87	1952.01
410.07	2038.61
410.26	2080.74
410.45	2267.98
410.64	2335.85
410.83	2480.97
411.02	2394.37
411.21	2544.16
411.40	2574.59
411.59	2558.21
411.78	2525.44
411.98	2466.92
412.17	2511.39
412.36	2443.52
412.55	2441.18
412.74	2452.88
412.93	2431.82
413.12	2380.32
413.31	2593.31
413.50	2665.87
413.69	2630.76
413.88	2663.53
414.07	2476.29
414.26	2663.53
414.45	2527.78
414.64	2607.36
414.83	2635.44
415.02	2612.04
415.22	2572.25
415.41	2614.38
415.60	2644.81
415.79	2726.72
415.98	2885.88
416.17	2846.09
416.36	2693.96
416.55	2771.19
416.74	2658.85
416.93	2588.63
417.12	2630.76
417.31	2724.38
417.50	2693.96
417.69	2759.49
417.88	2780.56
418.07	2672.89
418.26	2703.32
418.45	2726.72
418.64	2832.05
418.83	2871.84
419.02	2846.09
419.21	2745.45
419.39	2766.51
419.58	2527.78
419.77	2565.23
419.96	2766.51
420.15	2991.20
420.34	2883.54
420.53	2890.56
420.72	3141.00
420.91	2988.86
421.10	3009.93
421.29	2850.77
421.48	2848.43
421.67	2986.52
421.86	3012.27
422.05	2605.02
422.24	2511.39
422.43	2438.84
422.61	2691.62
422.80	2724.38
422.99	2867.16
423.18	2771.19
423.37	2691.62
423.56	2855.45
423.75	2759.49
423.94	2780.56
424.13	2642.46
424.32	2586.29
424.50	2729.06
424.69	2867.16
424.88	2682.25
425.07	2715.02
425.26	2731.41
425.45	2640.12
425.64	2572.25
425.83	2684.59
426.01	2747.79
426.20	2771.19
426.39	2572.25
426.58	2539.48
426.77	2532.46
426.96	2492.67
427.15	2420.11
427.33	2649.49
427.52	2747.79
427.71	2813.32
427.90	2722.04
428.09	2693.96
428.28	2572.25
428.46	2546.50
428.65	2516.08
428.84	2504.37
429.03	2523.10
429.22	2518.42
429.40	2455.22
429.59	2237.55
429.78	2012.86
429.97	1865.41
430.16	2017.54
430.34	2073.71
430.53	2001.16
430.72	2012.86
430.91	2153.29
431.10	2576.93
431.28	2789.92
431.47	3052.06
431.66	3304.84
431.85	2918.65
432.03	2773.53
432.22	2684.59
432.41	2733.75
432.60	2979.50
432.79	3026.31
432.97	3075.46
433.16	2937.37
433.35	2796.94
433.54	2572.25
433.72	2396.71
433.91	2602.68
434.10	2825.03
434.28	2965.46
434.47	2993.55
434.66	3033.33
434.85	2986.52
435.03	3082.49
435.22	3632.51
435.41	4390.84
435.59	4566.39
435.78	4145.09
435.97	3712.09
436.16	3550.59
436.34	3356.33
436.53	3159.72
436.72	3346.97
436.90	3148.02
437.09	3141.00
437.28	3014.61
437.46	3052.06
437.65	3063.76
437.84	2864.82
438.02	2705.66
438.21	2677.57
438.40	2738.43
438.58	2949.08
438.77	3141.00
438.96	2967.80
439.14	3194.83
439.33	3239.30
439.52	3241.64
439.70	3382.07
439.89	3101.21
440.08	3155.04
440.26	3115.25
440.45	3325.90
440.63	3435.91
440.82	3545.91
441.01	3440.59
441.19	3503.78
441.38	3655.92
441.57	3679.32
441.75	3665.28
441.94	3695.71
442.12	3658.26
442.31	3791.67
442.50	3705.07
442.68	3632.51
442.87	3630.17
443.05	3508.46
443.24	3625.49
443.43	3768.26
443.61	3864.22
443.80	3768.26
443.98	3585.70
444.17	3534.21
444.35	3906.35
444.54	3953.16
444.73	3864.22
444.91	3688.68
445.10	3592.72
445.28	3503.78
445.47	3375.05
445.65	3372.71
445.84	3613.79
446.02	3562.30
446.21	3634.85
446.39	3763.58
446.58	3735.50
446.77	3721.45
446.95	3920.40
447.14	4016.36
447.32	4070.19
447.51	3934.44
447.69	3871.25
447.88	3791.67
448.06	3896.99
448.25	3838.48
448.43	3796.35
448.62	3658.26
448.80	3726.13
448.99	3786.99
449.17	3679.32
449.36	3782.31
449.54	4025.72
449.73	4095.94
449.91	3962.53
450.10	4234.03
450.28	4292.54
450.46	4217.65
450.65	4135.73
450.83	4114.66
451.02	4016.36
451.20	4049.13
451.39	3948.48
451.57	4093.60
451.76	3971.89
451.94	3967.21
452.13	3852.52
452.31	3730.81
452.49	3527.19
452.68	3585.70
452.86	3611.45
453.05	3723.79
453.23	3749.54
453.42	3794.01
453.60	3962.53
453.78	3880.61
453.97	3812.73
454.15	3873.59
454.34	3779.97
454.52	3908.69
454.70	3826.78
454.89	3880.61
455.07	3871.25
455.26	3995.29
455.44	4152.11
455.62	4117.00
455.81	4234.03
455.99	3981.25
456.17	4063.17
456.36	3913.38
456.54	4058.49
456.73	4124.02
456.91	4318.29
457.09	4138.07
457.28	4299.56
457.46	4198.92
457.64	4205.94
457.83	3988.27
458.01	3819.75
458.19	4037.42
458.38	3976.57
458.56	4194.24
458.74	4035.08
458.93	3955.51
459.11	4119.34
459.29	4039.76
459.48	4084.23
459.66	4067.85
459.84	4182.54
460.03	4133.39
460.21	4142.75
460.39	4219.99
460.57	4124.02
460.76	4273.82
460.94	4325.31
461.12	4283.18
461.31	4222.33
461.49	4222.33
461.67	4358.08
461.85	4365.10
462.04	4423.61
462.22	4833.21
462.40	4297.22
462.59	4257.43
462.77	4248.07
462.95	4383.82
463.13	4341.69
463.32	4259.78
463.50	4311.27
463.68	4124.02
463.86	4170.83
464.05	4217.65
464.23	4217.65
464.41	4037.42
464.59	4067.85
464.78	4175.52
464.96	4191.90
465.14	4229.35
465.32	4266.80
465.50	4187.22
465.69	4355.74
465.87	4341.69
466.05	4149.77
466.23	4086.58
466.41	3913.38
466.60	4086.58
466.78	3957.85
466.96	4100.62
467.14	4107.64
467.32	4173.18
467.51	4236.37
467.69	4145.09
467.87	4135.73
468.05	4224.67
468.23	4194.24
468.41	4156.79
468.60	4182.54
468.78	4367.44
468.96	4014.02
469.14	4227.01
469.32	4140.41
469.50	4140.41
469.69	4135.73
469.87	4088.92
470.05	4060.83
470.23	4102.96
470.41	4030.40
470.59	4170.83
470.77	4170.83
470.95	4109.98
471.14	4252.75
471.32	4229.35
471.50	4414.25
471.68	4449.36
471.86	4369.78
472.04	4397.87
472.22	4379.14
472.40	4418.93
472.58	4264.46
472.77	4191.90
472.95	4227.01
473.13	4514.89
473.31	4250.41
473.49	4318.29
473.67	4400.21
473.85	4428.29
474.03	4582.77
474.21	4615.54
474.39	4585.11
474.57	4718.52
474.75	4610.86
474.93	4500.85
475.12	4465.74
475.30	4374.46
475.48	4458.72
475.66	4557.02
475.84	4430.63
476.02	4418.93
476.20	4454.04
476.38	4461.06
476.56	4662.35
476.74	4770.01
476.92	4725.54
477.10	4641.28
477.28	4835.55
477.46	4936.19
477.64	5025.13
477.82	5034.49
478.00	4894.06
478.18	4861.29
478.36	4908.10
478.54	4877.68
478.72	4933.85
478.90	5205.35
479.08	5184.29
479.26	5247.48
479.44	5348.12
479.62	5268.55
479.80	5273.23
479.98	5317.70
480.16	5217.05
480.34	5224.08
480.52	5219.39
480.70	5399.62
480.88	5284.93
481.06	5416.00
481.24	5563.45
481.41	5610.26
481.59	5657.07
481.77	5713.25
481.95	5626.65
482.13	5568.13
482.31	5605.58
482.49	5614.95
482.67	5636.01
482.85	5708.57
483.03	5863.04
483.21	5856.02
483.39	5879.43
483.57	5785.80
483.74	5781.12
483.92	5802.19
484.10	5743.67
484.28	5977.73
484.46	5935.60
484.64	5987.09
484.82	5937.94
485.00	5944.96
485.18	5790.49
485.35	5769.42
485.53	5310.68
485.71	4873.00
485.89	4858.95
486.07	4978.32
486.25	5327.06
486.43	5722.61
486.61	5659.42
486.78	5762.40
486.96	5769.42
487.14	6043.26
487.32	6050.28
487.50	6155.61
487.68	6375.62
487.85	6558.18
488.03	6544.14
488.21	6406.05
488.39	6319.45
488.57	6164.97
488.75	6118.16
488.92	6438.81
489.10	6700.95
489.28	6902.24
489.46	7178.42
489.64	6932.67
489.81	7204.17
489.99	7016.93
490.17	6906.92
490.35	7094.16
490.53	7103.53
490.70	6857.77
490.88	6771.17
491.06	7007.56
491.24	7211.19
491.41	6932.67
491.59	6530.09
491.77	6452.86
491.95	6808.62
492.13	6951.39
492.30	6960.75
492.48	7124.59
492.66	7468.65
492.84	7466.31
493.01	7307.15
493.19	7199.49
493.37	7056.72
493.54	7098.84
493.72	7026.29
493.90	7379.71
494.08	7527.16
494.25	7714.41
494.43	7878.24
494.61	7812.71
494.79	7873.56
494.96	7749.51
495.14	7749.51
495.32	7485.03
495.49	7225.23
495.67	7215.87
495.85	7805.69
496.02	8060.80
496.20	7906.33
496.38	7822.07
496.55	7793.98
496.73	7772.92
496.91	7810.37
497.09	8018.68
497.26	8205.92
497.44	8149.75
497.62	7852.50
497.79	7808.03
497.97	7449.93
498.14	7318.86
498.32	7679.30
498.50	7648.87
498.67	7932.08
498.85	7967.18
499.03	8079.53
499.20	8177.83
499.38	8140.38
499.56	7978.89
499.73	7995.27
499.91	8009.31
500.08	7730.79
500.26	7499.08
500.44	7485.03
500.61	7873.56
500.79	7742.49
500.97	7698.02
501.14	7735.47
501.32	7576.31
501.49	7440.56
501.67	7489.71
501.84	7702.70
502.02	7845.48
502.20	7859.52
502.37	7815.05
502.55	7712.07
502.72	7896.97
502.90	8016.33
503.07	7929.74
503.25	7620.78
503.43	7480.35
503.60	7262.68
503.78	7087.14
503.95	7274.38
504.13	7573.97
504.30	7866.54
504.48	8067.83
504.65	7995.27
504.83	8084.21
505.01	8112.30
505.18	8198.90
505.36	8229.32
505.53	8215.28
505.71	8245.71
505.88	8514.87
506.06	8294.86
506.23	8184.85
506.41	7976.55
506.58	8145.06
506.76	8215.28
506.93	8121.66
507.11	7932.08
507.28	7960.16
507.46	7822.07
507.63	7644.19
507.81	7801.01
507.98	7911.01
508.16	7955.48
508.33	8079.53
508.50	8325.29
508.68	8606.15
508.85	8400.18
509.03	8418.91
509.20	8685.73
509.38	8449.33
509.55	8065.49
509.73	8131.02
509.90	8201.24
510.08	8414.23
510.25	8243.37
510.42	8276.13
510.60	8152.09
510.77	8463.38
510.95	8571.04
511.12	8470.40
511.30	8748.92
511.47	8697.43
511.64	8769.99
511.82	8739.56
511.99	8423.59
512.17	8404.86
512.34	8224.64
512.51	8439.97
512.69	8131.02
512.86	8528.91
513.04	8596.79
513.21	8463.38
513.38	8393.16
513.56	7946.12
513.73	8182.51
513.90	8077.19
514.08	8011.65
514.25	8241.03
514.43	8329.97
514.60	8327.63
514.77	8423.59
514.95	8245.71
515.12	8329.97
515.29	8421.25
515.47	8650.62
515.64	8571.04
515.81	8358.05
515.99	8322.94
516.16	7866.54
516.33	7349.28
516.51	7068.42
516.68	6733.72
516.85	6614.35
517.03	6766.49
517.20	7370.35
517.37	8067.83
517.54	8407.20
517.72	8287.84
517.89	7557.59
518.06	6946.71
518.24	7103.53
518.41	7590.36
518.58	7770.58
518.75	8060.80
518.93	8037.40
519.10	8159.11
519.27	8009.31
519.45	8241.03
519.62	8425.93
519.79	8746.58
519.96	8615.51
520.14	8423.59
520.31	8114.64
520.48	8042.08
520.65	8135.70
520.83	8594.45
521.00	8575.72
521.17	8327.63
521.34	8372.10
521.52	8545.30
521.69	8657.64
521.86	8879.99
522.03	8650.62
522.20	8451.67
522.38	8042.08
522.55	8084.21
522.72	8194.22
522.89	8259.75
523.07	8149.75
523.24	8397.84
523.41	8664.66
523.58	8594.45
523.75	8557.00
523.92	8814.46
524.10	8723.18
524.27	8875.31
524.44	8734.88
524.61	8585.08
524.78	8528.91
524.96	8573.38
525.13	8421.25
525.30	8805.10
525.47	8812.12
525.64	8753.60
525.81	8690.41
525.98	8362.73
526.16	7873.56
526.33	7470.99
526.50	7370.35
526.67	7185.44
526.84	7550.57
527.01	7894.63
527.18	7988.25
527.36	8212.94
527.53	8648.28
527.70	8678.71
527.87	8397.84
528.04	8409.54
528.21	8369.76
528.38	8774.67
528.55	9107.02
528.72	9067.24
528.89	8947.87
529.07	8931.48
529.24	8674.03
529.41	8758.28
529.58	8306.56
529.75	8269.11
529.92	8557.00
530.09	8765.31
530.26	8674.03
530.43	9032.13
530.60	8816.80
530.77	9001.70
530.94	8957.23
531.11	8943.19
531.28	8702.11
531.46	8774.67
531.63	8650.62
531.80	8737.22
531.97	8571.04
532.14	8353.37
532.31	8140.38
532.48	7875.90
532.65	7927.39
532.82	8077.19
532.99	8531.25
533.16	8662.32
533.33	8758.28
533.50	8643.60
533.67	8439.97
533.84	8571.04
534.01	8367.42
534.18	8465.72
534.35	8688.07
534.52	8610.83
534.69	8631.90
534.86	8652.96
535.03	8748.92
535.20	8877.65
535.37	8957.23
535.54	9018.08
535.71	8786.37
535.88	8847.22
536.05	8718.50
536.22	8587.43
536.38	8521.89
536.55	8229.32
536.72	8184.85
536.89	8095.91
537.06	8163.79
537.23	8772.33
537.40	8592.11
537.57	8842.54
537.74	8809.78
537.91	8638.92
538.08	8594.45
538.25	8674.03
538.42	8788.71
538.59	8622.53
538.75	8667.00
538.92	8437.63
539.09	8528.91
539.26	8545.30
539.43	8519.55
539.60	8418.91
539.77	8386.14
539.94	8704.45
540.11	8173.15
540.28	8386.14
540.44	8334.65
540.61	8266.77
540.78	8585.08
540.95	8868.29
541.12	8987.66
541.29	9359.80
541.46	9547.05
541.62	9525.98
541.79	9390.23
541.96	9350.44
542.13	9128.09
542.30	9193.62
542.47	9149.15
542.63	9057.87
542.80	9053.19
542.97	8830.84
543.14	8901.06
543.31	8788.71
543.48	9261.50
543.64	9472.15
543.81	9495.55
543.98	9469.81
544.15	9345.76
544.32	9069.58
544.48	8936.17
544.65	9214.69
544.82	9100.00
544.99	9151.49
545.16	9078.94
545.32	9008.72
545.49	9830.25
545.66	11007.54
545.83	11894.60
546.00	11445.22
546.16	10136.86
546.33	9558.75
546.50	9172.56
546.67	9174.90
546.83	8961.91
547.00	8990.00
547.17	8769.99
547.34	8709.13
547.50	8589.77
547.67	8585.08
547.84	8578.06
548.00	8833.18
548.17	8919.78
548.34	8915.10
548.51	8800.41
548.67	8737.22
548.84	8662.32
549.01	8608.49
549.18	8512.53
549.34	8524.23
549.51	8603.81
549.68	8645.94
549.84	8638.92
550.01	8589.77
550.18	8503.17
550.34	8365.07
550.51	8315.92
550.68	8444.65
550.84	8044.42
551.01	8425.93
551.18	8299.54
551.34	8463.38
551.51	8465.72
551.68	8444.65
551.84	8648.28
552.01	8444.65
552.18	8552.32
552.34	8201.24
552.51	8135.70
552.68	8079.53
552.84	8152.09
553.01	8241.03
553.18	8201.24
553.34	8191.88
553.51	8287.84
553.67	8425.93
553.84	8255.07
554.01	8266.77
554.17	8131.02
554.34	8152.09
554.51	8205.92
554.67	8285.50
554.84	8456.36
555.00	8114.64
555.17	8187.19
555.33	8205.92
555.50	8053.78
555.67	7976.55
555.83	7929.74
556.00	7833.77
556.16	8098.25
556.33	7669.94
556.50	7831.43
556.66	7644.19
556.83	7810.37
556.99	7595.04
557.16	7623.12
557.32	7714.41
557.49	7906.33
557.65	7824.41
557.82	7756.54
557.98	7950.80
558.15	7836.11
558.32	7529.50
558.48	7442.90
558.65	7335.24
558.81	7501.42
558.98	7496.74
559.14	7527.16
559.31	7658.23
559.47	7705.04
559.64	7456.95
559.80	7588.02
559.97	7623.12
560.13	7396.09
560.30	7754.19
560.46	7873.56
560.63	8060.80
560.79	7878.24
560.96	7889.95
561.12	7688.66
561.29	7302.47
561.45	7396.09
561.61	7606.74
561.78	7630.15
561.94	7510.78
562.11	7606.74
562.27	7290.77
562.44	7576.31
562.60	7721.43
562.77	7796.32
562.93	7716.75
563.10	7653.55
563.26	7431.20
563.42	7597.38
563.59	7599.72
563.75	7435.88
563.92	7393.75
564.08	7358.64
564.24	7742.49
564.41	7686.32
564.57	7599.72
564.74	7569.29
564.90	7550.57
565.07	7419.50
565.23	7447.58
565.39	7234.60
565.56	7265.02
565.72	7119.91
565.88	7133.95
566.05	7140.97
566.21	7302.47
566.38	7323.54
566.54	7550.57
566.70	7585.68
566.87	7545.89
567.03	7330.56
567.19	7201.83
567.36	7576.31
567.52	7524.82
567.68	7152.68
567.85	7131.61
568.01	6881.18
568.17	6670.53
568.34	6796.92
568.50	6846.07
568.66	6511.37
568.83	6724.36
568.99	6888.20
569.15	6944.37
569.32	7019.27
569.48	6878.83
569.64	6743.08
569.81	6612.01
569.97	6892.88
570.13	6867.13
570.30	6834.36
570.46	6663.51
570.62	6518.39
570.78	6607.33
570.95	6523.07
571.11	6843.73
571.27	6895.22
571.43	6782.87
571.60	6871.81
571.76	6745.42
571.92	6787.55
572.09	7066.08
572.25	6927.99
572.41	7030.97
572.57	6874.15
572.74	6834.36
572.90	6951.39
573.06	7143.32
573.22	6855.43
573.38	6855.43
573.55	7021.61
573.71	6857.77
573.87	6799.26
574.03	6686.91
574.20	6604.99
574.36	6703.29
574.52	6738.40
574.68	6722.02
574.84	6661.16
575.01	6583.93
575.17	6513.71
575.33	6396.68
575.49	6675.21
575.65	6494.99
575.82	6583.93
575.98	6555.84
576.14	6759.47
576.30	6810.96
576.46	6970.12
576.62	7243.96
576.79	7332.90
576.95	7094.16
577.11	6813.30
577.27	6738.40
577.43	6803.94
577.59	6635.42
577.75	6541.80
577.92	6347.53
578.08	6654.14
578.24	6490.31
578.40	6420.09
578.56	6853.09
578.72	6881.18
578.88	7159.70
579.04	6956.07
579.21	6864.79
579.37	6801.60
579.53	6724.36
579.69	6684.57
579.85	6813.30
580.01	6836.70
580.17	6951.39
580.33	6649.46
580.49	6733.72
580.65	6885.86
580.82	6759.47
580.98	6700.95
581.14	6539.46
581.30	6815.64
581.46	6675.21
581.62	6750.10
581.78	6841.39
581.94	7045.01
582.10	6796.92
582.26	6883.52
582.42	6937.35
582.58	6960.75
582.74	6883.52
582.90	6911.60
583.06	6827.34
583.22	6712.66
583.38	6736.06
583.54	6892.88
583.70	6855.43
583.86	6888.20
584.02	6792.23
584.18	6956.07
584.34	6761.81
584.50	6782.87
584.66	6696.27
584.82	6602.65
584.98	6712.66
585.14	6600.31
585.30	6480.94
585.46	6452.86
585.62	6417.75
585.78	6347.53
585.94	6438.81
586.10	6497.33
586.26	6509.03
586.42	6654.14
586.58	6710.32
586.74	6583.93
586.90	6569.88
587.06	6677.55
587.22	6616.69
587.38	6223.48
587.54	6303.06
587.70	6118.16
587.86	5867.72
588.02	5872.40
588.18	5528.35
588.34	5413.66
588.49	5128.11
588.65	4727.88
588.81	4657.67
588.97	4650.64
589.13	4816.82
589.29	4617.88
589.45	4678.73
589.61	4709.16
589.77	4847.25
589.93	5165.56
590.08	5270.89
590.24	5411.32
590.40	5378.55
590.56	5495.58
590.72	5394.93
590.88	5453.45
591.04	5210.03
591.20	5390.25
591.35	5376.21
591.51	5273.23
591.67	5298.97
591.83	5277.91
591.99	5214.71
592.15	5523.66
592.31	5474.51
592.46	5654.73
592.62	5720.27
592.78	5645.37
592.94	5839.64
593.10	5746.02
593.26	5921.56
593.41	5980.07
593.57	5717.93
593.73	5561.11
593.89	5378.55
594.05	5135.14
594.20	4954.91
594.36	4891.72
594.52	4910.44
594.68	4999.38
594.84	5067.26
594.99	5350.46
595.15	5315.36
595.31	5343.44
595.47	5425.36
595.62	5542.39
595.78	5610.26
595.94	5645.37
596.10	5575.16
596.25	5526.00
596.41	5528.35
596.57	5205.35
596.73	5413.66
596.88	5474.51
597.04	5673.46
597.20	5540.05
597.36	5345.78
597.51	5469.83
