SpectraSuite Data File
++++++++++++++++++++++++++++++++++++
Date: Fri Oct 04 11:44:27 GMT-05:00 2013
User: price-jones
Dark Spectrum Present: No
Reference Spectrum Present: No
Number of Sampled Component Spectra: 1
Spectrometers: USB2+H05261
Integration Time (usec): 100000 (USB2+H05261)
Spectra Averaged: 1 (USB2+H05261)
Boxcar Smoothing: 0 (USB2+H05261)
Correct for Electrical Dark: No (USB2+H05261)
Strobe/Lamp Enabled: No (USB2+H05261)
Correct for Detector Non-linearity: No (USB2+H05261)
Correct for Stray Light: No (USB2+H05261)
Number of Pixels in Processed Spectrum: 2048
>>>>>Begin Processed Spectral Data<<<<<
365.73	74.90
365.92	74.90
366.12	74.90
366.32	0.00
366.52	0.00
366.72	23.41
366.91	0.00
367.11	0.00
367.31	0.00
367.51	0.00
367.70	0.00
367.90	0.00
368.10	0.00
368.30	0.00
368.49	0.00
368.69	0.00
368.89	0.00
369.09	0.00
369.28	0.00
369.48	0.00
369.68	0.00
369.87	16.38
370.07	0.00
370.27	0.00
370.47	70.22
370.66	290.23
370.86	470.45
371.06	414.27
371.25	500.87
371.45	304.27
371.65	337.04
371.84	266.82
372.04	376.83
372.24	395.55
372.44	428.32
372.63	442.36
372.83	447.04
373.03	390.87
373.22	351.08
373.42	290.23
373.62	346.40
373.81	440.02
374.01	456.40
374.21	468.11
374.40	390.87
374.60	454.06
374.79	414.27
374.99	519.60
375.19	589.82
375.38	554.71
375.58	512.58
375.78	552.37
375.97	550.03
376.17	568.75
376.37	545.34
376.56	634.29
376.76	664.71
376.95	613.22
377.15	664.71
377.35	571.09
377.54	664.71
377.74	653.01
377.93	580.45
378.13	636.63
378.33	660.03
378.52	571.09
378.72	592.16
378.91	564.07
379.11	606.20
379.31	503.22
379.50	498.53
379.70	653.01
379.89	580.45
380.09	636.63
380.28	676.41
380.48	587.47
380.68	636.63
380.87	624.92
381.07	482.15
381.26	594.50
381.46	613.22
381.65	528.96
381.85	519.60
382.04	463.43
382.24	411.93
382.43	428.32
382.63	428.32
382.83	421.30
383.02	414.27
383.22	407.25
383.41	346.40
383.61	454.06
383.80	463.43
384.00	554.71
384.19	617.90
384.39	634.29
384.58	606.20
384.78	676.41
384.97	573.43
385.17	596.84
385.36	587.47
385.56	550.03
385.75	578.11
385.95	535.98
386.14	676.41
386.34	589.82
386.53	660.03
386.72	688.12
386.92	702.16
387.11	631.94
387.31	629.60
387.50	683.44
387.70	582.79
387.89	580.45
388.09	629.60
388.28	706.84
388.48	528.96
388.67	594.50
388.86	737.27
389.06	727.91
389.25	781.74
389.45	774.72
389.64	774.72
389.84	819.19
390.03	812.17
390.22	823.87
390.42	809.83
390.61	922.17
390.81	931.53
391.00	912.81
391.19	917.49
391.39	765.36
391.58	826.21
391.78	807.48
391.97	849.61
392.16	734.93
392.36	685.78
392.55	634.29
392.75	524.28
392.94	484.49
393.13	454.06
393.33	482.15
393.52	533.64
393.71	681.10
393.91	753.65
394.10	730.25
394.29	856.64
394.49	816.85
394.68	997.07
394.88	917.49
395.07	966.64
395.26	1036.86
395.46	929.19
395.65	959.62
395.84	793.44
396.04	793.44
396.23	636.63
396.42	512.58
396.62	437.68
396.81	617.90
397.00	685.78
397.19	847.27
397.39	908.13
397.58	1022.81
397.77	1064.94
397.97	1130.48
398.16	1149.20
398.35	1240.48
398.55	1165.59
398.74	1329.42
398.93	1301.34
399.12	1212.40
399.32	1207.72
399.51	1228.78
399.70	1444.11
399.90	1174.95
400.09	1254.53
400.28	1385.60
400.47	1320.06
400.67	1472.20
400.86	1413.68
401.05	1430.07
401.24	1409.00
401.44	1366.87
401.63	1490.92
401.82	1355.17
402.01	1394.96
402.21	1511.99
402.40	1308.36
402.59	1519.01
402.78	1416.02
402.97	1313.04
403.17	1427.73
403.36	1458.15
403.55	1434.75
403.74	1535.39
403.93	1483.90
404.13	1423.05
404.32	1329.42
404.51	1357.51
404.70	1462.83
404.89	1476.88
405.09	1458.15
405.28	1474.54
405.47	1350.49
405.66	1425.39
405.85	1418.36
406.05	1343.47
406.24	1254.53
406.43	1336.45
406.62	1453.47
406.81	1537.73
407.00	1350.49
407.20	1455.81
407.39	1404.32
407.58	1465.18
407.77	1448.79
407.96	1528.37
408.15	1535.39
408.34	1547.09
408.54	1577.52
408.73	1596.25
408.92	1497.94
409.11	1598.59
409.30	1371.55
409.49	1411.34
409.68	1397.30
409.87	1404.32
410.07	1299.00
410.26	1404.32
410.45	1521.35
410.64	1544.75
410.83	1582.20
411.02	1661.78
411.21	1701.57
411.40	1790.51
411.59	1732.00
411.78	1743.70
411.98	1610.29
412.17	1671.14
412.36	1551.78
412.55	1753.06
412.74	1638.38
412.93	1570.50
413.12	1652.42
413.31	1774.13
413.50	1710.93
413.69	1804.55
413.88	1858.39
414.07	1617.31
414.26	1769.44
414.45	1746.04
414.64	1788.17
414.83	1837.32
415.02	1797.53
415.22	1774.13
415.41	1877.11
415.60	1799.87
415.79	1937.96
415.98	1914.56
416.17	1975.41
416.36	1874.77
416.55	1849.02
416.74	1816.26
416.93	1813.92
417.12	1661.78
417.31	1741.36
417.50	1771.79
417.69	1809.23
417.88	1813.92
418.07	1863.07
418.26	1774.13
418.45	1797.53
418.64	1893.49
418.83	1989.46
419.02	1926.26
419.21	1937.96
419.39	1839.66
419.58	1734.34
419.77	1764.76
419.96	1849.02
420.15	1937.96
420.34	1914.56
420.53	2012.86
420.72	2174.36
420.91	2010.52
421.10	1968.39
421.29	1973.07
421.48	1856.04
421.67	2066.69
421.86	2080.74
422.05	1856.04
422.24	1767.10
422.43	1638.38
422.61	1785.83
422.80	1933.28
422.99	1973.07
423.18	1933.28
423.37	1959.03
423.56	1947.33
423.75	1968.39
423.94	1947.33
424.13	1767.10
424.32	1853.70
424.50	1893.49
424.69	1935.62
424.88	1823.28
425.07	1872.43
425.26	1844.34
425.45	1778.81
425.64	1785.83
425.83	1724.97
426.01	1900.52
426.20	1827.96
426.39	1930.94
426.58	1741.36
426.77	1659.44
426.96	1638.38
427.15	1685.19
427.33	1806.89
427.52	1891.15
427.71	1900.52
427.90	1799.87
428.09	1762.42
428.28	1703.91
428.46	1687.53
428.65	1540.07
428.84	1788.17
429.03	1753.06
429.22	1657.10
429.40	1638.38
429.59	1404.32
429.78	1373.89
429.97	1324.74
430.16	1352.83
430.34	1338.79
430.53	1385.60
430.72	1399.64
430.91	1334.11
431.10	1586.88
431.28	1909.88
431.47	2045.63
431.66	2111.16
431.85	2118.18
432.03	1799.87
432.22	1834.98
432.41	1837.32
432.60	2015.20
432.79	2127.55
432.97	2143.93
433.16	2092.44
433.35	1905.20
433.54	1769.44
433.72	1664.12
433.91	1722.63
434.10	1750.72
434.28	1909.88
434.47	2090.10
434.66	2087.76
434.85	2029.24
435.03	2183.72
435.22	2246.91
435.41	2429.48
435.59	2523.10
435.78	2471.61
435.97	2366.28
436.16	2260.96
436.34	2246.91
436.53	2099.46
436.72	2188.40
436.90	2031.58
437.09	2134.57
437.28	2012.86
437.46	2038.61
437.65	2120.53
437.84	1923.92
438.02	1827.96
438.21	1795.19
438.40	1954.35
438.58	2022.22
438.77	2148.61
438.96	2143.93
439.14	2143.93
439.33	2188.40
439.52	2235.21
439.70	2277.34
439.89	2275.00
440.08	2148.61
440.26	2092.44
440.45	2150.95
440.63	2284.36
440.82	2417.77
441.01	2342.88
441.19	2270.32
441.38	2483.31
441.57	2502.03
441.75	2593.31
441.94	2532.46
442.12	2605.02
442.31	2534.80
442.50	2424.80
442.68	2626.08
442.87	2466.92
443.05	2462.24
443.24	2366.28
443.43	2513.74
443.61	2586.29
443.80	2539.48
443.98	2469.27
444.17	2312.45
444.35	2567.57
444.54	2548.84
444.73	2544.16
444.91	2537.14
445.10	2417.77
445.28	2284.36
445.47	2310.11
445.65	2338.20
445.84	2555.86
446.02	2462.24
446.21	2380.32
446.39	2443.52
446.58	2455.22
446.77	2551.18
446.95	2537.14
447.14	2696.30
447.32	2602.68
447.51	2656.51
447.69	2511.39
447.88	2408.41
448.06	2551.18
448.25	2544.16
448.43	2651.83
448.62	2546.50
448.80	2553.52
448.99	2462.24
449.17	2635.44
449.36	2483.31
449.54	2691.62
449.73	2602.68
449.91	2747.79
450.10	2787.58
450.28	2899.92
450.46	2862.48
450.65	2712.68
450.83	2843.75
451.02	2724.38
451.20	2820.35
451.39	2677.57
451.57	2600.34
451.76	2682.25
451.94	2731.41
452.13	2658.85
452.31	2619.06
452.49	2448.20
452.68	2480.97
452.86	2469.27
453.05	2565.23
453.23	2544.16
453.42	2541.82
453.60	2703.32
453.78	2801.62
453.97	2637.78
454.15	2670.55
454.34	2670.55
454.52	2691.62
454.70	2600.34
454.89	2581.61
455.07	2579.27
455.26	2607.36
455.44	2729.06
455.62	2719.70
455.81	2799.28
455.99	2785.24
456.17	2693.96
456.36	2651.83
456.54	2780.56
456.73	2768.85
456.91	2850.77
457.09	2881.20
457.28	2977.16
457.46	2899.92
457.64	2717.36
457.83	2775.88
458.01	2663.53
458.19	2691.62
458.38	2672.89
458.56	2869.50
458.74	2785.24
458.93	2766.51
459.11	2663.53
459.29	2740.77
459.48	2815.66
459.66	2855.45
459.84	2808.64
460.03	2832.05
460.21	2785.24
460.39	2949.08
460.57	2857.79
460.76	2942.05
460.94	2860.13
461.12	2876.52
461.31	2855.45
461.49	2738.43
461.67	2810.98
461.85	2965.46
462.04	2916.31
462.22	3323.56
462.40	3009.93
462.59	2904.60
462.77	2899.92
462.95	2967.80
463.13	2909.29
463.32	2885.88
463.50	2836.73
463.68	2974.82
463.86	2841.41
464.05	2752.47
464.23	2808.64
464.41	2789.92
464.59	2661.19
464.78	2818.00
464.96	2740.77
465.14	2869.50
465.32	2836.73
465.50	2974.82
465.69	3002.91
465.87	2841.41
466.05	2892.90
466.23	2724.38
466.41	2686.94
466.60	2789.92
466.78	2665.87
466.96	2810.98
467.14	2846.09
467.32	2878.86
467.51	2815.66
467.69	2815.66
467.87	2799.28
468.05	2876.52
468.23	2906.95
468.41	2848.43
468.60	2871.84
468.78	2829.71
468.96	2836.73
469.14	2904.60
469.32	2829.71
469.50	2801.62
469.69	2862.48
469.87	2752.47
470.05	2626.08
470.23	2747.79
470.41	2703.32
470.59	2820.35
470.77	2794.60
470.95	2803.96
471.14	2871.84
471.32	2920.99
471.50	3124.62
471.68	3101.21
471.86	3019.29
472.04	2967.80
472.22	3103.55
472.40	3000.57
472.58	2960.78
472.77	2822.69
472.95	2853.11
473.13	3021.63
473.31	2979.50
473.49	2913.97
473.67	2981.84
473.85	3094.19
474.03	3084.83
474.21	3124.62
474.39	3307.18
474.57	3148.02
474.75	3178.45
474.93	3042.70
475.12	3005.25
475.30	3047.38
475.48	3045.04
475.66	3145.68
475.84	3124.62
476.02	3068.44
476.20	3061.42
476.38	3033.33
476.56	3094.19
476.74	3148.02
476.92	3218.24
477.10	3290.79
477.28	3398.46
477.46	3309.52
477.64	3403.14
477.82	3351.65
478.00	3468.67
478.18	3281.43
478.36	3321.22
478.54	3386.76
478.72	3356.33
478.90	3431.23
479.08	3531.87
479.26	3632.51
479.44	3478.04
479.62	3620.81
479.80	3684.00
479.98	3569.32
480.16	3798.69
480.34	3653.58
480.52	3466.33
480.70	3611.45
480.88	3541.23
481.06	3749.54
481.24	3744.86
481.41	3756.56
481.59	3798.69
481.77	3901.67
481.95	3826.78
482.13	3763.58
482.31	3803.37
482.49	3791.67
482.67	3833.80
482.85	3714.43
483.03	3941.46
483.21	3955.51
483.39	3971.89
483.57	3927.42
483.74	3908.69
483.92	3962.53
484.10	3772.94
484.28	4046.79
484.46	4039.76
484.64	4119.34
484.82	3915.72
485.00	3918.06
485.18	3983.59
485.35	3679.32
485.53	3562.30
485.71	3328.24
485.89	3199.51
486.07	3377.39
486.25	3545.91
486.43	3852.52
486.61	3716.77
486.78	3875.93
486.96	3927.42
487.14	3941.46
487.32	4053.81
487.50	4138.07
487.68	4212.96
487.85	4311.27
488.03	4418.93
488.21	4400.21
488.39	4301.90
488.57	4304.25
488.75	4210.62
488.92	4442.34
489.10	4521.92
489.28	4774.69
489.46	4758.31
489.64	4737.24
489.81	4844.91
489.99	4767.67
490.17	4645.96
490.35	4826.18
490.53	4674.05
490.70	4573.41
490.88	4634.26
491.06	4755.97
491.24	4917.47
491.41	4671.71
491.59	4444.68
491.77	4264.46
491.95	4440.00
492.13	4477.44
492.30	4713.84
492.48	4851.93
492.66	5050.88
492.84	5008.75
493.01	4713.84
493.19	4945.55
493.37	4924.49
493.54	4802.78
493.72	5001.72
493.90	5013.43
494.08	5177.26
494.25	5210.03
494.43	5188.97
494.61	5369.19
494.79	5226.42
494.96	5210.03
495.14	5158.54
495.32	4940.87
495.49	4957.25
495.67	5111.73
495.85	5369.19
496.02	5434.72
496.20	5296.63
496.38	5352.81
496.55	5111.73
496.73	5348.12
496.91	5380.89
497.09	5497.92
497.26	5336.42
497.44	5584.52
497.62	5420.68
497.79	5261.52
497.97	5053.22
498.14	5029.81
498.32	5160.88
498.50	5242.80
498.67	5369.19
498.85	5392.59
499.03	5324.72
499.20	5497.92
499.38	5511.96
499.56	5472.17
499.73	5465.15
499.91	5327.06
500.08	5242.80
500.26	4997.04
500.44	5163.22
500.61	5238.12
500.79	5238.12
500.97	5093.01
501.14	5212.37
501.32	5100.03
501.49	5013.43
501.67	5095.35
501.84	5191.31
502.02	5210.03
502.20	5380.89
502.37	5331.74
502.55	5158.54
502.72	5392.59
502.90	5631.33
503.07	5437.06
503.25	5181.95
503.43	5186.63
503.60	4924.49
503.78	4732.56
503.95	4849.59
504.13	5025.13
504.30	5465.15
504.48	5413.66
504.65	5373.87
504.83	5446.43
505.01	5636.01
505.18	5547.07
505.36	5755.38
505.53	5650.05
505.71	5607.92
505.88	5722.61
506.06	5680.48
506.23	5685.16
506.41	5329.40
506.58	5448.77
506.76	5526.00
506.93	5621.97
507.11	5476.85
507.28	5427.70
507.46	5474.51
507.63	5327.06
507.81	5317.70
507.98	5254.50
508.16	5500.26
508.33	5582.18
508.50	5626.65
508.68	5603.24
508.85	5902.83
509.03	5823.25
509.20	5741.33
509.38	5633.67
509.55	5561.11
509.73	5556.43
509.90	5713.25
510.08	5858.36
510.25	5750.70
510.42	5717.93
510.60	5710.91
510.77	5612.60
510.95	5797.51
511.12	5881.77
511.30	5818.57
511.47	6167.31
511.64	6050.28
511.82	5886.45
511.99	5933.26
512.17	5720.27
512.34	5497.92
512.51	5715.59
512.69	5584.52
512.86	5664.10
513.04	5907.51
513.21	5720.27
513.38	5680.48
513.56	5788.14
513.73	5495.58
513.90	5547.07
514.08	5502.60
514.25	5638.35
514.43	5671.12
514.60	5589.20
514.77	5572.82
514.95	5647.71
515.12	5612.60
515.29	5673.46
515.47	5806.87
515.64	5947.30
515.81	5867.72
515.99	5900.49
516.16	5804.53
516.33	5207.69
516.51	4929.17
516.68	4727.88
516.85	4585.11
517.03	4697.46
517.20	5006.41
517.37	5416.00
517.54	5631.33
517.72	5748.36
517.89	5364.51
518.06	4880.02
518.24	4915.12
518.41	5263.86
518.58	5420.68
518.75	5540.05
518.93	5584.52
519.10	5495.58
519.27	5734.31
519.45	5565.79
519.62	5841.98
519.79	6045.60
519.96	5816.23
520.14	5701.54
520.31	5591.54
520.48	5659.42
520.65	5563.45
520.83	5921.56
521.00	5916.87
521.17	5849.00
521.34	5724.95
521.52	5832.62
521.69	6019.86
521.86	6104.12
522.03	5980.07
522.20	5937.94
522.38	5699.20
522.55	5507.28
522.72	5556.43
522.89	5788.14
523.07	5748.36
523.24	5675.80
523.41	5989.43
523.58	5944.96
523.75	6066.67
523.92	6188.38
524.10	6160.29
524.27	6200.08
524.44	6071.35
524.61	6061.99
524.78	5977.73
524.96	6076.03
525.13	5933.26
525.30	6003.47
525.47	5994.11
525.64	5942.62
525.81	5926.24
525.98	5867.72
526.16	5451.11
526.33	5291.95
526.50	5191.31
526.67	5214.71
526.84	5296.63
527.01	5420.68
527.18	5500.26
527.36	5809.21
527.53	6012.84
527.70	6008.16
527.87	5827.93
528.04	5771.76
528.21	5916.87
528.38	5982.41
528.55	6136.88
528.72	6338.17
528.89	6223.48
529.07	6225.82
529.24	6207.10
529.41	5994.11
529.58	5856.02
529.75	5888.79
529.92	5937.94
530.09	5879.43
530.26	6148.59
530.43	6057.31
530.60	6179.01
530.77	6197.74
530.94	6204.76
531.11	6106.46
531.28	5947.30
531.46	6045.60
531.63	5909.85
531.80	6146.25
531.97	5987.09
532.14	5872.40
532.31	5631.33
532.48	5570.48
532.65	5455.79
532.82	5699.20
532.99	5987.09
533.16	5870.06
533.33	6134.54
533.50	5900.49
533.67	6066.67
533.84	5727.29
534.01	5760.06
534.18	5809.21
534.35	6064.33
534.52	6026.88
534.69	5834.96
534.86	6015.18
535.03	6167.31
535.20	6157.95
535.37	6235.19
535.54	6338.17
535.71	6300.72
535.88	6239.87
536.05	6029.22
536.22	5818.57
536.38	5956.66
536.55	5783.46
536.72	5741.33
536.89	5486.22
537.06	5778.78
537.23	6038.58
537.40	5916.87
537.57	6132.20
537.74	6061.99
537.91	6113.48
538.08	5921.56
538.25	6017.52
538.42	6001.13
538.59	6174.33
538.75	5977.73
538.92	5790.49
539.09	5853.68
539.26	5783.46
539.43	5830.27
539.60	5769.42
539.77	5713.25
539.94	5743.67
540.11	5586.86
540.28	5650.05
540.44	5547.07
540.61	5668.78
540.78	5572.82
540.95	5851.34
541.12	5914.53
541.29	6197.74
541.46	6141.57
541.62	6059.65
541.79	6015.18
541.96	6094.76
542.13	5895.81
542.30	6059.65
542.47	6218.80
542.63	6113.48
542.80	5989.43
542.97	6031.56
543.14	5783.46
543.31	5956.66
543.48	6050.28
543.64	6204.76
543.81	6274.98
543.98	6363.92
544.15	6195.40
544.32	5973.05
544.48	6022.20
544.65	6274.98
544.82	6141.57
544.99	6244.55
545.16	6080.71
545.32	6122.84
545.49	6473.92
545.66	6796.92
545.83	6883.52
546.00	6654.14
546.16	6253.91
546.33	6111.14
546.50	6057.31
546.67	6120.50
546.83	6127.52
547.00	5996.45
547.17	5989.43
547.34	5636.01
547.50	5731.97
547.67	5930.92
547.84	5687.50
548.00	6001.13
548.17	6005.81
548.34	5900.49
548.51	5930.92
548.67	5940.28
548.84	6090.07
549.01	5895.81
549.18	5984.75
549.34	5844.32
549.51	5849.00
549.68	5788.14
549.84	5856.02
550.01	5853.68
550.18	5895.81
550.34	5909.85
550.51	5757.72
550.68	5682.82
550.84	5628.99
551.01	5643.03
551.18	5851.34
551.34	5827.93
551.51	5722.61
551.68	6003.47
551.84	5949.64
552.01	5846.66
552.18	5937.94
552.34	5799.85
552.51	5699.20
552.68	5575.16
552.84	5715.59
553.01	5661.76
553.18	5804.53
553.34	5694.52
553.51	5921.56
553.67	5813.89
553.84	5954.32
554.01	5809.21
554.17	5701.54
554.34	5722.61
554.51	5832.62
554.67	5895.81
554.84	5736.65
555.00	5804.53
555.17	5813.89
555.33	5668.78
555.50	5760.06
555.67	5614.95
555.83	5633.67
556.00	5692.18
556.16	5760.06
556.33	5746.02
556.50	5390.25
556.66	5582.18
556.83	5263.86
556.99	5392.59
557.16	5607.92
557.32	5612.60
557.49	5577.50
557.65	5451.11
557.82	5584.52
557.98	5650.05
558.15	5486.22
558.32	5448.77
558.48	5270.89
558.65	5207.69
558.81	5371.53
558.98	5301.31
559.14	5387.91
559.31	5221.74
559.47	5425.36
559.64	5483.88
559.80	5221.74
559.97	5289.61
560.13	5401.96
560.30	5476.85
560.46	5703.89
560.63	5645.37
560.79	5565.79
560.96	5687.50
561.12	5338.76
561.29	5277.91
561.45	5303.65
561.61	5448.77
561.78	5420.68
561.94	5376.21
562.11	5378.55
562.27	5249.82
562.44	5240.46
562.60	5352.81
562.77	5453.45
562.93	5631.33
563.10	5416.00
563.26	5413.66
563.42	5516.64
563.59	5303.65
563.75	5308.34
563.92	5336.42
564.08	5369.19
564.24	5322.38
564.41	5291.95
564.57	5315.36
564.74	5348.12
564.90	5308.34
565.07	5359.83
565.23	5383.23
565.39	5013.43
565.56	5078.96
565.72	4938.53
565.88	5074.28
566.05	5224.08
566.21	5137.48
566.38	5130.45
566.54	5123.43
566.70	5203.01
566.87	5369.19
567.03	5317.70
567.19	5163.22
567.36	5142.16
567.52	5132.79
567.68	5130.45
567.85	4940.87
568.01	5022.79
568.17	4865.97
568.34	4718.52
568.50	4758.31
568.66	4720.86
568.83	4894.06
568.99	4950.23
569.15	5081.30
569.32	4896.40
569.48	4880.02
569.64	4861.29
569.81	4777.03
569.97	4793.42
570.13	4762.99
570.30	4812.14
570.46	4798.10
570.62	4681.07
570.78	4552.34
570.95	4702.14
571.11	4849.59
571.27	4877.68
571.43	4760.65
571.60	4823.84
571.76	4734.90
571.92	4798.10
572.09	4865.97
572.25	4943.21
572.41	4933.85
572.57	4961.94
572.74	4894.06
572.90	4884.70
573.06	4835.55
573.22	4798.10
573.38	4877.68
573.55	4814.48
573.71	4844.91
573.87	4844.91
574.03	4821.50
574.20	4816.82
574.36	4727.88
574.52	4744.27
574.68	4732.56
574.84	4690.43
575.01	4767.67
575.17	4496.17
575.33	4760.65
575.49	4638.94
575.65	4758.31
575.82	4660.01
575.98	4692.77
576.14	4709.16
576.30	4858.95
576.46	4741.93
576.62	4987.68
576.79	4901.08
576.95	4809.80
577.11	4674.05
577.27	4725.54
577.43	4819.16
577.59	4725.54
577.75	4613.20
577.92	4557.02
578.08	4475.10
578.24	4660.01
578.40	4545.32
578.56	4716.18
578.72	4830.87
578.88	4840.23
579.04	4741.93
579.21	4645.96
579.37	4685.75
579.53	4727.88
579.69	4741.93
579.85	4667.03
580.01	4844.91
580.17	4671.71
580.33	4652.98
580.49	4805.12
580.65	4748.95
580.82	4816.82
580.98	4819.16
581.14	4739.58
581.30	4903.42
581.46	4777.03
581.62	4858.95
581.78	4697.46
581.94	4770.01
582.10	4674.05
582.26	4882.36
582.42	4798.10
582.58	4924.49
582.74	4667.03
582.90	4770.01
583.06	4823.84
583.22	4847.25
583.38	4898.74
583.54	4828.53
583.70	4865.97
583.86	4791.08
584.02	4645.96
584.18	4777.03
584.34	4762.99
584.50	4753.63
584.66	4777.03
584.82	4674.05
584.98	4767.67
585.14	4535.96
585.30	4557.02
585.46	4554.68
585.62	4482.13
585.78	4514.89
585.94	4580.43
586.10	4437.66
586.26	4491.49
586.42	4629.58
586.58	4615.54
586.74	4709.16
586.90	4699.80
587.06	4519.57
587.22	4624.90
587.38	4486.81
587.54	4425.95
587.70	4264.46
587.86	4245.73
588.02	4084.23
588.18	3964.87
588.34	3735.50
588.49	3545.91
588.65	3379.73
588.81	3304.84
588.97	3220.58
589.13	3314.20
589.29	3185.47
589.45	3187.81
589.61	3276.75
589.77	3466.33
589.93	3508.46
590.08	3737.84
590.24	3824.44
590.40	3763.58
590.56	3932.10
590.72	3784.65
590.88	3726.13
591.04	3871.25
591.20	3723.79
591.35	3798.69
591.51	3733.15
591.67	3742.52
591.83	3691.02
591.99	3637.19
592.15	3665.28
592.31	3918.06
592.46	3955.51
592.62	3967.21
592.78	4053.81
592.94	3983.59
593.10	4067.85
593.26	4067.85
593.41	4105.30
593.57	4121.68
593.73	3836.14
593.89	3688.68
594.05	3744.86
594.20	3463.99
594.36	3426.54
594.52	3459.31
594.68	3330.58
594.84	3676.98
594.99	3847.84
595.15	3889.97
595.31	3854.86
595.47	3702.73
595.62	3822.09
595.78	3829.12
595.94	3990.61
596.10	4011.68
596.25	3908.69
596.41	3894.65
596.57	3817.41
596.73	3847.84
596.88	3964.87
597.04	3925.08
597.20	3826.78
597.36	3838.48
597.51	3840.82
597.67	3901.67
597.83	3829.12
