SpectraSuite Data File
++++++++++++++++++++++++++++++++++++
Date: Fri Oct 04 11:44:15 GMT-05:00 2013
User: price-jones
Dark Spectrum Present: No
Reference Spectrum Present: No
Number of Sampled Component Spectra: 1
Spectrometers: USB2+H05261
Integration Time (usec): 100000 (USB2+H05261)
Spectra Averaged: 1 (USB2+H05261)
Boxcar Smoothing: 0 (USB2+H05261)
Correct for Electrical Dark: No (USB2+H05261)
Strobe/Lamp Enabled: No (USB2+H05261)
Correct for Detector Non-linearity: No (USB2+H05261)
Correct for Stray Light: No (USB2+H05261)
Number of Pixels in Processed Spectrum: 2048
>>>>>Begin Processed Spectral Data<<<<<
365.73	23.41
365.92	23.41
366.12	23.41
366.32	0.00
366.52	0.00
366.72	0.00
366.91	0.00
367.11	0.00
367.31	0.00
367.51	0.00
367.70	0.00
367.90	0.00
368.10	0.00
368.30	0.00
368.49	0.00
368.69	0.00
368.89	0.00
369.09	0.00
369.28	0.00
369.48	0.00
369.68	0.00
369.87	0.00
370.07	0.00
370.27	0.00
370.47	133.41
370.66	557.05
370.86	681.10
371.06	732.59
371.25	777.06
371.45	660.03
371.65	608.54
371.84	589.82
372.04	596.84
372.24	643.65
372.44	645.99
372.63	746.63
372.83	807.48
373.03	613.22
373.22	650.67
373.42	601.52
373.62	751.31
373.81	739.61
374.01	653.01
374.21	723.23
374.40	671.73
374.60	711.52
374.79	753.65
374.99	889.40
375.19	842.59
375.38	884.72
375.58	938.55
375.78	866.00
375.97	842.59
376.17	952.60
376.37	875.36
376.56	798.12
376.76	891.74
376.95	926.85
377.15	1090.69
377.35	1074.31
377.54	1163.25
377.74	1095.37
377.93	964.30
378.13	976.00
378.33	1057.92
378.52	973.66
378.72	919.83
378.91	959.62
379.11	868.34
379.31	877.70
379.50	861.32
379.70	1034.52
379.89	1027.50
380.09	1046.22
380.28	1050.90
380.48	1093.03
380.68	1034.52
380.87	1015.79
381.07	947.92
381.26	1032.18
381.46	866.00
381.65	844.93
381.85	866.00
382.04	800.46
382.24	718.54
382.43	692.80
382.63	681.10
382.83	669.39
383.02	760.67
383.22	746.63
383.41	685.78
383.61	692.80
383.80	772.38
384.00	917.49
384.19	990.05
384.39	1053.24
384.58	1043.88
384.78	1074.31
384.97	968.98
385.17	992.39
385.36	994.73
385.56	971.32
385.75	922.17
385.95	887.06
386.14	1025.15
386.34	1146.86
386.53	997.07
386.72	924.51
386.92	1036.86
387.11	987.71
387.31	1142.18
387.50	1102.39
387.70	1022.81
387.89	1022.81
388.09	1022.81
388.28	1011.11
388.48	1074.31
388.67	1100.05
388.86	1214.74
389.06	1334.11
389.25	1366.87
389.45	1385.60
389.64	1390.28
389.84	1352.83
390.03	1266.23
390.22	1275.59
390.42	1409.00
390.61	1401.98
390.81	1479.22
391.00	1561.14
391.19	1420.71
391.39	1514.33
391.58	1394.96
391.78	1308.36
391.97	1235.80
392.16	1097.71
392.36	1142.18
392.55	943.24
392.75	767.70
392.94	748.97
393.13	711.52
393.33	718.54
393.52	924.51
393.71	1074.31
393.91	1252.19
394.10	1383.26
394.29	1401.98
394.49	1479.22
394.68	1568.16
394.88	1607.95
395.07	1589.22
395.26	1579.86
395.46	1598.59
395.65	1488.58
395.84	1425.39
396.04	1231.12
396.23	1015.79
396.42	858.98
396.62	823.87
396.81	968.98
397.00	1135.16
397.19	1320.06
397.39	1610.29
397.58	1750.72
397.77	1834.98
397.97	1952.01
398.16	1921.58
398.35	1991.80
398.55	2092.44
398.74	2038.61
398.93	2160.31
399.12	2223.51
399.32	2134.57
399.51	2069.03
399.70	2204.78
399.90	2260.96
400.09	2307.77
400.28	2284.36
400.47	2282.02
400.67	2314.79
400.86	2396.71
401.05	2312.45
401.24	2464.58
401.44	2476.29
401.63	2492.67
401.82	2530.12
402.01	2394.37
402.21	2452.88
402.40	2548.84
402.59	2401.39
402.78	2485.65
402.97	2211.81
403.17	2354.58
403.36	2492.67
403.55	2487.99
403.74	2696.30
403.93	2504.37
404.13	2499.69
404.32	2455.22
404.51	2560.55
404.70	2637.78
404.89	2588.63
405.09	2473.95
405.28	2443.52
405.47	2349.90
405.66	2415.43
405.85	2345.22
406.05	2354.58
406.24	2310.11
406.43	2361.60
406.62	2523.10
406.81	2612.04
407.00	2399.05
407.20	2335.85
407.39	2422.45
407.58	2399.05
407.77	2628.42
407.96	2722.04
408.15	2651.83
408.34	2801.62
408.54	2724.38
408.73	2733.75
408.92	2810.98
409.11	2719.70
409.30	2712.68
409.49	2427.14
409.68	2174.36
409.87	2277.34
410.07	2298.41
410.26	2487.99
410.45	2581.61
410.64	2628.42
410.83	2843.75
411.02	2857.79
411.21	2977.16
411.40	2836.73
411.59	2803.96
411.78	3005.25
411.98	2736.09
412.17	2885.88
412.36	2897.58
412.55	2792.26
412.74	2787.58
412.93	2736.09
413.12	2850.77
413.31	2984.18
413.50	3026.31
413.69	3047.38
413.88	3119.93
414.07	2899.92
414.26	2965.46
414.45	3019.29
414.64	3197.17
414.83	3124.62
415.02	3103.55
415.22	3007.59
415.41	3199.51
415.60	3197.17
415.79	3276.75
415.98	3452.29
416.17	3426.54
416.36	3365.69
416.55	3199.51
416.74	3201.85
416.93	3021.63
417.12	3033.33
417.31	2935.03
417.50	3091.85
417.69	3225.26
417.88	3290.79
418.07	3204.19
418.26	3262.71
418.45	3234.62
418.64	3262.71
418.83	3323.56
419.02	3241.64
419.21	3365.69
419.39	3136.32
419.58	3073.12
419.77	3080.14
419.96	3164.40
420.15	3276.75
420.34	3379.73
420.53	3492.08
420.72	3599.74
420.91	3456.97
421.10	3564.64
421.29	3391.44
421.48	3384.41
421.67	3529.53
421.86	3524.85
422.05	3178.45
422.24	2937.37
422.43	2949.08
422.61	3112.91
422.80	3213.56
422.99	3531.87
423.18	3227.60
423.37	3176.11
423.56	3295.47
423.75	3337.60
423.94	3353.99
424.13	3131.64
424.32	3075.46
424.50	3185.47
424.69	3169.09
424.88	3211.22
425.07	3206.53
425.26	3124.62
425.45	3171.43
425.64	2981.84
425.83	3115.25
426.01	3353.99
426.20	3269.73
426.39	3295.47
426.58	3087.17
426.77	2939.71
426.96	2839.07
427.15	2895.24
427.33	2974.82
427.52	3211.22
427.71	3337.60
427.90	3075.46
428.09	3187.81
428.28	3052.06
428.46	2928.01
428.65	2897.58
428.84	3084.83
429.03	3150.36
429.22	3000.57
429.40	2876.52
429.59	2698.64
429.78	2459.90
429.97	2174.36
430.16	2293.72
430.34	2289.04
430.53	2328.83
430.72	2275.00
430.91	2572.25
431.10	2963.12
431.28	3398.46
431.47	3651.24
431.66	3655.92
431.85	3459.31
432.03	3227.60
432.22	3150.36
432.41	3229.94
432.60	3555.27
432.79	3733.15
432.97	3665.28
433.16	3625.49
433.35	3325.90
433.54	3026.31
433.72	2904.60
433.91	2988.86
434.10	3171.43
434.28	3517.83
434.47	3723.79
434.66	3609.11
434.85	3543.57
435.03	3566.98
435.22	4168.49
435.41	4512.55
435.59	4603.83
435.78	4273.82
435.97	4079.55
436.16	4009.34
436.34	3915.72
436.53	3803.37
436.72	3901.67
436.90	3576.34
437.09	3606.77
437.28	3566.98
437.46	3590.38
437.65	3644.21
437.84	3447.61
438.02	3162.06
438.21	3213.56
438.40	3386.76
438.58	3555.27
438.77	3541.23
438.96	3695.71
439.14	3744.86
439.33	3873.59
439.52	4030.40
439.70	3817.41
439.89	3754.22
440.08	3684.00
440.26	3758.90
440.45	3911.04
440.63	4028.06
440.82	4257.43
441.01	4224.67
441.19	4175.52
441.38	4264.46
441.57	4315.95
441.75	4435.32
441.94	4358.08
442.12	4386.16
442.31	4362.76
442.50	4402.55
442.68	4369.78
442.87	4421.27
443.05	4404.89
443.24	4365.10
443.43	4470.42
443.61	4517.23
443.80	4564.04
443.98	4341.69
444.17	4219.99
444.35	4688.09
444.54	4596.81
444.73	4367.44
444.91	4503.19
445.10	4234.03
445.28	4032.74
445.47	4112.32
445.65	3953.16
445.84	4149.77
446.02	4205.94
446.21	4304.25
446.39	4299.56
446.58	4456.38
446.77	4603.83
446.95	4617.88
447.14	4594.47
447.32	4713.84
447.51	4683.41
447.69	4423.61
447.88	4386.16
448.06	4278.50
448.25	4482.13
448.43	4545.32
448.62	4615.54
448.80	4512.55
448.99	4407.23
449.17	4444.68
449.36	4573.41
449.54	4711.50
449.73	4674.05
449.91	4889.38
450.10	4912.78
450.28	5043.85
450.46	4802.78
450.65	4938.53
450.83	4959.60
451.02	4903.42
451.20	4620.22
451.39	4814.48
451.57	4744.27
451.76	4709.16
451.94	4814.48
452.13	4730.22
452.31	4568.73
452.49	4285.52
452.68	4395.53
452.86	4383.82
453.05	4283.18
453.23	4472.76
453.42	4545.32
453.60	4807.46
453.78	4737.24
453.97	4697.46
454.15	4657.67
454.34	4697.46
454.52	4561.70
454.70	4699.80
454.89	4603.83
455.07	4620.22
455.26	4596.81
455.44	4901.08
455.62	4830.87
455.81	4901.08
455.99	4873.00
456.17	4795.76
456.36	4894.06
456.54	4973.64
456.73	4910.44
456.91	4966.62
457.09	5102.37
457.28	5153.86
457.46	4887.04
457.64	4933.85
457.83	4828.53
458.01	4585.11
458.19	4784.06
458.38	4849.59
458.56	5226.42
458.74	4983.00
458.93	4959.60
459.11	4915.12
459.29	4802.78
459.48	4858.95
459.66	4725.54
459.84	4973.64
460.03	5011.09
460.21	5001.72
460.39	5160.88
460.57	5048.54
460.76	5097.69
460.94	5053.22
461.12	5041.51
461.31	5060.24
461.49	5036.83
461.67	5029.81
461.85	5308.34
462.04	5188.97
462.22	5713.25
462.40	5057.90
462.59	5270.89
462.77	5144.50
462.95	5067.26
463.13	5146.84
463.32	5130.45
463.50	4978.32
463.68	5137.48
463.86	5085.98
464.05	4929.17
464.23	5069.60
464.41	4915.12
464.59	4894.06
464.78	4945.55
464.96	5100.03
465.14	4929.17
465.32	5015.77
465.50	5163.22
465.69	5231.10
465.87	5156.20
466.05	4968.96
466.23	4795.76
466.41	4631.92
466.60	4816.82
466.78	4702.14
466.96	4887.04
467.14	4971.30
467.32	5006.41
467.51	5032.15
467.69	4875.34
467.87	4891.72
468.05	4961.94
468.23	5048.54
468.41	5046.20
468.60	5083.64
468.78	5057.90
468.96	4947.89
469.14	5055.56
469.32	5057.90
469.50	4943.21
469.69	4844.91
469.87	4901.08
470.05	4802.78
470.23	4821.50
470.41	4873.00
470.59	4940.87
470.77	4887.04
470.95	5107.05
471.14	5170.24
471.32	5102.37
471.50	5226.42
471.68	5467.49
471.86	5385.57
472.04	5437.06
472.22	5490.90
472.40	5188.97
472.58	5146.84
472.77	5135.14
472.95	5132.79
473.13	5291.95
473.31	5198.33
473.49	5350.46
473.67	5315.36
473.85	5294.29
474.03	5359.83
474.21	5486.22
474.39	5570.48
474.57	5579.84
474.75	5657.07
474.93	5390.25
475.12	5432.38
475.30	5462.81
475.48	5275.57
475.66	5467.49
475.84	5334.08
476.02	5467.49
476.20	5282.59
476.38	5380.89
476.56	5504.94
476.74	5650.05
476.92	5678.14
477.10	5748.36
477.28	5888.79
477.46	5959.00
477.64	5994.11
477.82	5884.11
478.00	5947.30
478.18	5951.98
478.36	5909.85
478.54	5954.32
478.72	6061.99
478.90	6146.25
479.08	6127.52
479.26	6394.34
479.44	6237.53
479.62	6277.32
479.80	6249.23
479.98	6490.31
480.16	6331.15
480.34	6445.84
480.52	6305.40
480.70	6347.53
480.88	6443.49
481.06	6553.50
481.24	6665.85
481.41	6633.08
481.59	6825.00
481.77	6897.56
481.95	6703.29
482.13	6743.08
482.31	6672.87
482.49	6661.16
482.67	6703.29
482.85	6843.73
483.03	6874.15
483.21	7037.99
483.39	7059.06
483.57	6752.45
483.74	6846.07
483.92	6862.45
484.10	7005.22
484.28	6991.18
484.46	7129.27
484.64	7190.13
484.82	7068.42
485.00	7045.01
485.18	7007.56
485.35	6583.93
485.53	6282.00
485.71	5806.87
485.89	5518.98
486.07	5701.54
486.25	6242.21
486.43	6583.93
486.61	6761.81
486.78	6722.02
486.96	6836.70
487.14	7148.00
487.32	7246.30
487.50	7494.40
487.68	7756.54
487.85	7765.90
488.03	7850.16
488.21	7852.50
488.39	7499.08
488.57	7293.11
488.75	7335.24
488.92	7815.05
489.10	7875.90
489.28	8290.18
489.46	8388.48
489.64	8278.47
489.81	8395.50
489.99	8421.25
490.17	8369.76
490.35	8622.53
490.53	8491.46
490.70	8203.58
490.88	8205.92
491.06	8486.78
491.24	8533.59
491.41	8411.89
491.59	7901.65
491.77	7871.22
491.95	7892.29
492.13	8116.98
492.30	8479.76
492.48	8957.23
492.66	8828.50
492.84	8908.08
493.01	8840.20
493.19	8718.50
493.37	8662.32
493.54	8351.03
493.72	8613.17
493.90	8919.78
494.08	9135.11
494.25	9128.09
494.43	9357.46
494.61	9547.05
494.79	9549.39
494.96	9476.83
495.14	9179.58
495.32	8926.80
495.49	8718.50
495.67	9085.96
495.85	9589.17
496.02	9556.41
496.20	9596.20
496.38	9387.89
496.55	9341.08
496.73	9657.05
496.91	9476.83
497.09	9923.87
497.26	9795.14
497.44	9650.03
497.62	9502.58
497.79	9303.63
497.97	9013.40
498.14	9020.42
498.32	9048.51
498.50	9479.17
498.67	9495.55
498.85	9895.78
499.03	9769.40
499.20	9867.70
499.38	9781.10
499.56	9748.33
499.73	9603.22
499.91	9434.70
500.08	9521.30
500.26	8975.95
500.44	9259.16
500.61	9516.62
500.79	9495.55
500.97	9184.26
501.14	9008.72
501.32	9111.71
501.49	9128.09
501.67	9057.87
501.84	9383.21
502.02	9142.13
502.20	9544.70
502.37	9533.00
502.55	9151.49
502.72	9724.93
502.90	9809.19
503.07	9465.13
503.25	9451.08
503.43	8905.74
503.60	8578.06
503.78	8414.23
503.95	8706.79
504.13	9125.75
504.30	9682.80
504.48	9928.55
504.65	9724.93
504.83	9764.72
505.01	9799.82
505.18	9689.82
505.36	10050.26
505.53	10097.07
505.71	10181.33
505.88	10373.25
506.06	10129.84
506.23	10076.01
506.41	9626.62
506.58	9729.61
506.76	9818.55
506.93	9884.08
507.11	9624.28
507.28	9722.59
507.46	9624.28
507.63	9327.03
507.81	9387.89
507.98	9446.40
508.16	9565.77
508.33	9727.27
508.50	10132.18
508.68	10249.21
508.85	10427.09
509.03	10277.29
509.20	10333.47
509.38	10263.25
509.55	9832.59
509.73	9710.88
509.90	10141.54
510.08	10101.75
510.25	10061.96
510.42	10029.20
510.60	9994.09
510.77	10176.65
510.95	10431.77
511.12	10352.19
511.30	10703.27
511.47	10700.93
511.64	10609.65
511.82	10523.05
511.99	10193.03
512.17	9930.89
512.34	9813.87
512.51	10045.58
512.69	10120.48
512.86	10157.92
513.04	10237.50
513.21	10296.02
513.38	10195.37
513.56	9722.59
513.73	9760.03
513.90	9708.54
514.08	9865.36
514.25	9846.63
514.43	9893.44
514.60	10162.61
514.77	10190.69
514.95	10249.21
515.12	10246.87
515.29	10160.27
515.47	10539.43
515.64	10532.41
515.81	10214.10
515.99	10167.29
516.16	9657.05
516.33	9015.74
516.51	8760.63
516.68	8500.83
516.85	8308.90
517.03	8152.09
517.20	8748.92
517.37	9703.86
517.54	10097.07
517.72	10031.54
517.89	9324.69
518.06	8643.60
518.24	8535.93
518.41	9032.13
518.58	9701.52
518.75	9591.52
518.93	9942.60
519.10	9633.64
519.27	9991.75
519.45	9872.38
519.62	10370.91
519.79	10251.55
519.96	10202.40
520.14	10265.59
520.31	10108.77
520.48	9769.40
520.65	9916.85
520.83	10293.68
521.00	10286.65
521.17	10464.54
521.34	10340.49
521.52	10504.32
521.69	10410.70
521.86	10637.73
522.03	10534.75
522.20	10235.16
522.38	9612.58
522.55	9675.77
522.72	9813.87
522.89	9895.78
523.07	10092.39
523.24	10361.55
523.41	10382.62
523.58	10635.39
523.75	10513.69
523.92	10633.05
524.10	10576.88
524.27	10637.73
524.44	10558.16
524.61	10768.80
524.78	10413.04
524.96	10471.56
525.13	10389.64
525.30	10546.45
525.47	10691.57
525.64	10684.55
525.81	10661.14
525.98	10057.28
526.16	9408.95
526.33	9060.21
526.50	9219.37
526.67	8716.16
526.84	9011.06
527.01	9277.88
527.18	9809.19
527.36	10202.40
527.53	10284.31
527.70	10527.73
527.87	10293.68
528.04	9994.09
528.21	10326.44
528.38	10717.31
528.55	11021.58
528.72	11075.42
528.89	11133.93
529.07	11119.89
529.24	10686.89
529.41	10347.51
529.58	10265.59
529.75	10106.43
529.92	10256.23
530.09	10574.54
530.26	10586.24
530.43	10867.11
530.60	10822.64
530.77	11077.76
530.94	11211.17
531.11	10984.13
531.28	10862.43
531.46	10565.18
531.63	10874.13
531.80	10588.58
531.97	10356.87
532.14	10373.25
532.31	9921.53
532.48	9692.16
532.65	9488.53
532.82	9767.06
532.99	10216.44
533.16	10218.78
533.33	10796.89
533.50	10693.91
533.67	10434.11
533.84	10272.61
534.01	10244.52
534.18	10530.07
534.35	10342.83
534.52	10448.15
534.69	10487.94
534.86	10494.96
535.03	10682.20
535.20	10780.51
535.37	10792.21
535.54	11019.24
535.71	10867.11
535.88	10822.64
536.05	10513.69
536.22	10260.91
536.38	10274.95
536.55	10106.43
536.72	10045.58
536.89	9788.12
537.06	10134.52
537.23	10296.02
537.40	10464.54
537.57	10569.86
537.74	10567.52
537.91	10698.59
538.08	10775.83
538.25	10443.47
538.42	10794.55
538.59	10560.50
538.75	10235.16
538.92	10251.55
539.09	10188.35
539.26	10057.28
539.43	10073.67
539.60	10106.43
539.77	10310.06
539.94	10221.12
540.11	9905.15
540.28	9781.10
540.44	9776.42
540.61	9893.44
540.78	10050.26
540.95	10279.63
541.12	10480.92
541.29	10731.36
541.46	10827.32
541.62	11023.92
541.79	10864.77
541.96	10532.41
542.13	10527.73
542.30	10691.57
542.47	10700.93
542.63	10520.71
542.80	10286.65
542.97	10356.87
543.14	10445.81
543.31	10190.69
543.48	10492.62
543.64	10850.72
543.81	11063.71
543.98	10846.04
544.15	10731.36
544.32	10644.76
544.48	10448.15
544.65	10658.80
544.82	10773.49
544.99	10726.68
545.16	10619.01
545.32	10604.97
545.49	11190.10
545.66	12311.22
545.83	12343.99
546.00	11707.36
546.16	10974.77
546.33	10815.62
546.50	10647.10
546.67	10588.58
546.83	10637.73
547.00	10565.18
547.17	10363.89
547.34	10253.89
547.50	10033.88
547.67	10097.07
547.84	10134.52
548.00	10132.18
548.17	10230.48
548.34	10406.02
548.51	10434.11
548.67	10424.75
548.84	10501.98
549.01	10483.26
549.18	10354.53
549.34	10167.29
549.51	10284.31
549.68	10237.50
549.84	10136.86
550.01	10361.55
550.18	10223.46
550.34	10214.10
550.51	10244.52
550.68	10249.21
550.84	9858.34
551.01	9879.40
551.18	10090.05
551.34	10085.37
551.51	10211.76
551.68	10340.49
551.84	10303.04
552.01	10265.59
552.18	10202.40
552.34	9825.57
552.51	9834.93
552.68	9797.48
552.84	9745.99
553.01	10059.62
553.18	10146.22
553.34	10167.29
553.51	10101.75
553.67	10148.56
553.84	10221.12
554.01	9982.38
554.17	10120.48
554.34	9947.28
554.51	10111.11
554.67	10244.52
554.84	10071.33
555.00	9926.21
555.17	10181.33
555.33	9818.55
555.50	10012.81
555.67	9877.06
555.83	9804.50
556.00	9895.78
556.16	9706.20
556.33	9579.81
556.50	9563.43
556.66	9481.51
556.83	9509.60
556.99	9394.91
557.16	9657.05
557.32	9621.94
557.49	9799.82
557.65	9652.37
557.82	9900.47
557.98	9544.70
558.15	9579.81
558.32	9310.65
558.48	8931.48
558.65	8861.27
558.81	9104.68
558.98	9053.19
559.14	9315.33
559.31	9240.44
559.47	9500.23
559.64	9156.18
559.80	9015.74
559.97	9076.60
560.13	9181.92
560.30	9500.23
560.46	9591.52
560.63	9605.56
560.79	9811.53
560.96	9743.65
561.12	9202.99
561.29	9247.46
561.45	9104.68
561.61	9202.99
561.78	9462.79
561.94	9345.76
562.11	9231.07
562.27	9270.86
562.44	9214.69
562.60	9455.76
562.77	9481.51
562.93	9617.26
563.10	9671.09
563.26	9369.16
563.42	9437.04
563.59	9256.82
563.75	9427.68
563.92	9132.77
564.08	9050.85
564.24	9252.14
564.41	9343.42
564.57	9217.03
564.74	9378.53
564.90	9172.56
565.07	9205.33
565.23	9078.94
565.39	8793.39
565.56	8767.65
565.72	8748.92
565.88	8854.25
566.05	8795.73
566.21	8732.54
566.38	8753.60
566.54	9074.26
566.70	8968.93
566.87	8943.19
567.03	9245.12
567.19	9128.09
567.36	9064.89
567.52	8947.87
567.68	9074.26
567.85	8683.39
568.01	8521.89
568.17	8273.79
568.34	8278.47
568.50	8381.46
568.66	8224.64
568.83	8273.79
568.99	8271.45
569.15	8423.59
569.32	8519.55
569.48	8496.14
569.64	8308.90
569.81	8320.60
569.97	8465.72
570.13	8547.64
570.30	8269.11
570.46	8301.88
570.62	8030.38
570.78	8056.12
570.95	8016.33
571.11	8135.70
571.27	8042.08
571.43	8138.04
571.60	8437.63
571.76	8439.97
571.92	8468.06
572.09	8596.79
572.25	8587.43
572.41	8468.06
572.57	8292.52
572.74	8362.73
572.90	8290.18
573.06	8400.18
573.22	8437.63
573.38	8444.65
573.55	8353.37
573.71	8582.74
573.87	8601.47
574.03	8336.99
574.20	8308.90
574.36	8030.38
574.52	8142.72
574.68	8236.35
574.84	8229.32
575.01	8196.56
575.17	8098.25
575.33	7911.01
575.49	7983.57
575.65	8109.96
575.82	8182.51
575.98	7854.84
576.14	8133.36
576.30	8322.94
576.46	8512.53
576.62	8524.23
576.79	8690.41
576.95	8344.01
577.11	8278.47
577.27	8231.66
577.43	8402.52
577.59	8109.96
577.75	8030.38
577.92	7978.89
578.08	7796.32
578.24	7976.55
578.40	8056.12
578.56	8219.96
578.72	8559.34
578.88	8414.23
579.04	8187.19
579.21	8248.05
579.37	8163.79
579.53	8079.53
579.69	8341.67
579.85	8180.17
580.01	8404.86
580.17	8301.88
580.33	8161.45
580.49	8039.74
580.65	8276.13
580.82	8269.11
580.98	8353.37
581.14	8234.00
581.30	8119.32
581.46	8149.75
581.62	8180.17
581.78	8276.13
581.94	8358.05
582.10	8184.85
582.26	8514.87
582.42	8320.60
582.58	8365.07
582.74	8231.66
582.90	8421.25
583.06	8542.96
583.22	8358.05
583.38	8273.79
583.54	8336.99
583.70	8278.47
583.86	8446.99
584.02	8327.63
584.18	8369.76
584.34	8269.11
584.50	8161.45
584.66	8205.92
584.82	8168.47
584.98	8257.41
585.14	7957.82
585.30	7880.58
585.46	7878.24
585.62	7445.24
585.78	7885.26
585.94	7859.52
586.10	7740.15
586.26	8039.74
586.42	7857.18
586.58	7981.23
586.74	7957.82
586.90	7875.90
587.06	7887.61
587.22	7826.75
587.38	7683.98
587.54	7449.93
587.70	7761.22
587.86	7185.44
588.02	6689.25
588.18	6871.81
588.34	6459.88
588.49	6080.71
588.65	5907.51
588.81	5643.03
588.97	5731.97
589.13	5724.95
589.29	5699.20
589.45	5584.52
589.61	5788.14
589.77	6054.97
589.93	6190.72
590.08	6352.21
590.24	6677.55
590.40	6572.22
590.56	6684.57
590.72	6768.83
590.88	6654.14
591.04	6504.35
591.20	6658.82
591.35	6586.27
591.51	6619.04
591.67	6282.00
591.83	6319.45
591.99	6267.95
592.15	6420.09
592.31	6593.29
592.46	6738.40
592.62	6925.65
592.78	6817.98
592.94	6909.26
593.10	7040.33
593.26	7157.36
593.41	7150.34
593.57	7021.61
593.73	6651.80
593.89	6417.75
594.05	6356.90
594.20	6029.22
594.36	6141.57
594.52	5937.94
594.68	6150.93
594.84	6293.70
