SpectraSuite Data File
++++++++++++++++++++++++++++++++++++
Date: Fri Oct 04 11:44:17 GMT-05:00 2013
User: price-jones
Dark Spectrum Present: No
Reference Spectrum Present: No
Number of Sampled Component Spectra: 1
Spectrometers: USB2+H05261
Integration Time (usec): 100000 (USB2+H05261)
Spectra Averaged: 1 (USB2+H05261)
Boxcar Smoothing: 0 (USB2+H05261)
Correct for Electrical Dark: No (USB2+H05261)
Strobe/Lamp Enabled: No (USB2+H05261)
Correct for Detector Non-linearity: No (USB2+H05261)
Correct for Stray Light: No (USB2+H05261)
Number of Pixels in Processed Spectrum: 2048
>>>>>Begin Processed Spectral Data<<<<<
365.73	25.75
365.92	25.75
366.12	25.75
366.32	0.00
366.52	0.00
366.72	0.00
366.91	0.00
367.11	0.00
367.31	0.00
367.51	0.00
367.70	0.00
367.90	0.00
368.10	0.00
368.30	0.00
368.49	0.00
368.69	0.00
368.89	0.00
369.09	0.00
369.28	0.00
369.48	0.00
369.68	0.00
369.87	23.41
370.07	7.02
370.27	74.90
370.47	140.43
370.66	449.38
370.86	631.94
371.06	638.97
371.25	777.06
371.45	578.11
371.65	578.11
371.84	587.47
372.04	533.64
372.24	716.20
372.44	667.05
372.63	674.07
372.83	636.63
373.03	531.30
373.22	517.26
373.42	594.50
373.62	545.34
373.81	653.01
374.01	711.52
374.21	601.52
374.40	582.79
374.60	671.73
374.79	638.97
374.99	725.57
375.19	828.55
375.38	779.40
375.58	650.67
375.78	723.23
375.97	704.50
376.17	748.97
376.37	809.83
376.56	786.42
376.76	861.32
376.95	830.89
377.15	978.34
377.35	926.85
377.54	957.28
377.74	1015.79
377.93	964.30
378.13	1050.90
378.33	1006.43
378.52	844.93
378.72	826.21
378.91	826.21
379.11	805.14
379.31	819.19
379.50	748.97
379.70	945.58
379.89	1011.11
380.09	947.92
380.28	985.37
380.48	940.90
380.68	990.05
380.87	842.59
381.07	905.79
381.26	854.30
381.46	751.31
381.65	723.23
381.85	746.63
382.04	688.12
382.24	634.29
382.43	641.31
382.63	622.58
382.83	653.01
383.02	606.20
383.22	667.05
383.41	671.73
383.61	664.71
383.80	706.84
384.00	809.83
384.19	816.85
384.39	908.13
384.58	936.21
384.78	880.04
384.97	1053.24
385.17	936.21
385.36	805.14
385.56	873.02
385.75	816.85
385.95	961.96
386.14	990.05
386.34	926.85
386.53	917.49
386.72	922.17
386.92	856.64
387.11	870.68
387.31	1022.81
387.50	957.28
387.70	959.62
387.89	849.61
388.09	894.08
388.28	854.30
388.48	959.62
388.67	968.98
388.86	1095.37
389.06	1111.75
389.25	1242.82
389.45	1144.52
389.64	1184.31
389.84	1226.44
390.03	1198.35
390.22	1203.04
390.42	1233.46
390.61	1242.82
390.81	1437.09
391.00	1355.17
391.19	1327.08
391.39	1324.74
391.58	1158.57
391.78	1163.25
391.97	1170.27
392.16	1158.57
392.36	936.21
392.55	814.51
392.75	678.76
392.94	613.22
393.13	599.18
393.33	629.60
393.52	833.23
393.71	992.39
393.91	1114.10
394.10	1135.16
394.29	1254.53
394.49	1352.83
394.68	1416.02
394.88	1488.58
395.07	1404.32
395.26	1434.75
395.46	1341.13
395.65	1336.45
395.84	1207.72
396.04	1043.88
396.23	922.17
396.42	718.54
396.62	706.84
396.81	819.19
397.00	1025.15
397.19	1291.98
397.39	1523.69
397.58	1568.16
397.77	1654.76
397.97	1664.12
398.16	1748.38
398.35	1851.36
398.55	1806.89
398.74	1912.22
398.93	1947.33
399.12	1853.70
399.32	1799.87
399.51	1905.20
399.70	1907.54
399.90	2029.24
400.09	2029.24
400.28	2019.88
400.47	1994.14
400.67	2143.93
400.86	2078.40
401.05	2118.18
401.24	1998.82
401.44	2146.27
401.63	2148.61
401.82	2195.42
402.01	2211.81
402.21	2263.30
402.40	2172.02
402.59	2078.40
402.78	2050.31
402.97	2022.22
403.17	2097.12
403.36	2090.10
403.55	2167.34
403.74	2368.62
403.93	2319.47
404.13	2443.52
404.32	2759.49
404.51	2722.04
404.70	2663.53
404.89	2363.94
405.09	2162.66
405.28	2090.10
405.47	2099.46
405.66	2001.16
405.85	2087.76
406.05	1989.46
406.24	2026.90
406.43	2092.44
406.62	2111.16
406.81	2139.25
407.00	2050.31
407.20	2097.12
407.39	2260.96
407.58	2223.51
407.77	2242.23
407.96	2289.04
408.15	2335.85
408.34	2368.62
408.54	2553.52
408.73	2370.96
408.92	2359.26
409.11	2345.22
409.30	2249.25
409.49	2069.03
409.68	1973.07
409.87	2052.65
410.07	2059.67
410.26	2113.50
410.45	2242.23
410.64	2307.77
410.83	2441.18
411.02	2415.43
411.21	2464.58
411.40	2485.65
411.59	2497.35
411.78	2555.86
411.98	2415.43
412.17	2574.59
412.36	2441.18
412.55	2506.71
412.74	2497.35
412.93	2354.58
413.12	2441.18
413.31	2677.57
413.50	2745.45
413.69	2700.98
413.88	2696.30
414.07	2495.01
414.26	2511.39
414.45	2696.30
414.64	2576.93
414.83	2525.44
415.02	2743.11
415.22	2682.25
415.41	2595.65
415.60	2726.72
415.79	2766.51
415.98	2839.07
416.17	2773.53
416.36	2705.66
416.55	2642.46
416.74	2635.44
416.93	2490.33
417.12	2766.51
417.31	2623.74
417.50	2642.46
417.69	2670.55
417.88	2729.06
418.07	2696.30
418.26	2743.11
418.45	2761.83
418.64	2899.92
418.83	2764.17
419.02	2818.00
419.21	2745.45
419.39	2693.96
419.58	2581.61
419.77	2513.74
419.96	2700.98
420.15	2920.99
420.34	2881.20
420.53	3030.99
420.72	3082.49
420.91	3117.59
421.10	2960.78
421.29	3016.95
421.48	2733.75
421.67	3042.70
421.86	2932.69
422.05	2581.61
422.24	2544.16
422.43	2466.92
422.61	2710.34
422.80	2888.22
422.99	2972.48
423.18	2822.69
423.37	2775.88
423.56	2698.64
423.75	2799.28
423.94	2902.26
424.13	2593.31
424.32	2717.36
424.50	2752.47
424.69	2729.06
424.88	2754.81
425.07	2684.59
425.26	2614.38
425.45	2642.46
425.64	2658.85
425.83	2616.72
426.01	2736.09
426.20	2808.64
426.39	2860.13
426.58	2581.61
426.77	2354.58
426.96	2469.27
427.15	2476.29
427.33	2649.49
427.52	2719.70
427.71	2679.91
427.90	2813.32
428.09	2649.49
428.28	2567.57
428.46	2509.05
428.65	2588.63
428.84	2649.49
429.03	2616.72
429.22	2612.04
429.40	2333.51
429.59	2223.51
429.78	1923.92
429.97	1949.67
430.16	1996.48
430.34	1905.20
430.53	1940.30
430.72	2113.50
430.91	2267.98
431.10	2471.61
431.28	2729.06
431.47	3192.49
431.66	3215.90
431.85	2958.44
432.03	2888.22
432.22	2583.95
432.41	2813.32
432.60	2984.18
432.79	3082.49
432.97	3073.12
433.16	3164.40
433.35	2792.26
433.54	2647.15
433.72	2509.05
433.91	2668.21
434.10	2792.26
434.28	2949.08
434.47	3084.83
434.66	3148.02
434.85	3077.80
435.03	3389.10
435.22	4198.92
435.41	6150.93
435.59	6974.80
435.78	5673.46
435.97	4741.93
436.16	3786.99
436.34	3393.78
436.53	3251.00
436.72	3208.87
436.90	3141.00
437.09	3246.32
437.28	3159.72
437.46	3159.72
437.65	3103.55
437.84	3028.65
438.02	2705.66
438.21	2715.02
438.40	3026.31
438.58	2864.82
438.77	3201.85
438.96	3098.87
439.14	3204.19
439.33	3236.96
439.52	3417.18
439.70	3382.07
439.89	3211.22
440.08	3185.47
440.26	3115.25
440.45	3260.37
440.63	3337.60
440.82	3625.49
441.01	3604.42
441.19	3543.57
441.38	3541.23
441.57	3756.56
441.75	3691.02
441.94	3709.75
442.12	3761.24
442.31	3805.71
442.50	3702.73
442.68	3786.99
442.87	3686.34
443.05	3569.32
443.24	3552.93
443.43	3716.77
443.61	3847.84
443.80	3847.84
443.98	3761.24
444.17	3648.90
444.35	3871.25
444.54	3819.75
444.73	3852.52
444.91	3763.58
445.10	3618.47
445.28	3454.63
445.47	3403.14
445.65	3344.63
445.84	3648.90
446.02	3616.13
446.21	3489.74
446.39	3618.47
446.58	3672.30
446.77	3845.50
446.95	3702.73
447.14	3950.82
447.32	4037.42
447.51	3988.27
447.69	3733.15
447.88	3625.49
448.06	3810.39
448.25	3840.82
448.43	3822.09
448.62	3765.92
448.80	3782.31
448.99	3892.31
449.17	3616.13
449.36	3854.86
449.54	3815.07
449.73	4025.72
449.91	4079.55
450.10	4109.98
450.28	4149.77
450.46	4332.33
450.65	4182.54
450.83	4191.90
451.02	4124.02
451.20	4201.26
451.39	4042.11
451.57	4046.79
451.76	3934.44
451.94	3985.93
452.13	3925.08
452.31	3782.31
452.49	3618.47
452.68	3723.79
452.86	3660.60
453.05	3833.80
453.23	3805.71
453.42	3871.25
453.60	3875.93
453.78	3934.44
453.97	3943.80
454.15	4009.34
454.34	3911.04
454.52	3770.60
454.70	3824.44
454.89	3833.80
455.07	3740.18
455.26	3960.19
455.44	4102.96
455.62	4126.36
455.81	4102.96
455.99	4028.06
456.17	4014.02
456.36	4009.34
456.54	4177.86
456.73	4170.83
456.91	4184.88
457.09	4147.43
457.28	4318.29
457.46	4353.40
457.64	4149.77
457.83	3962.53
458.01	3950.82
458.19	3997.64
458.38	4039.76
458.56	4173.18
458.74	4184.88
458.93	3955.51
459.11	4161.47
459.29	4112.32
459.48	4133.39
459.66	4095.94
459.84	4154.45
460.03	4140.41
460.21	4264.46
460.39	4294.88
460.57	4194.24
460.76	4416.59
460.94	4280.84
461.12	4241.05
461.31	4210.62
461.49	4205.94
461.67	4175.52
461.85	4292.54
462.04	4222.33
462.22	4809.80
462.40	4428.29
462.59	4346.37
462.77	4374.46
462.95	4407.23
463.13	4437.66
463.32	4346.37
463.50	4133.39
463.68	4250.41
463.86	4292.54
464.05	4135.73
464.23	4175.52
464.41	4049.13
464.59	3939.12
464.78	4081.89
464.96	4147.43
465.14	4018.70
465.32	4229.35
465.50	4292.54
465.69	4411.91
465.87	4217.65
466.05	4269.14
466.23	4004.66
466.41	3953.16
466.60	4063.17
466.78	4021.04
466.96	4004.66
467.14	4173.18
467.32	4224.67
467.51	4198.92
467.69	4086.58
467.87	4189.56
468.05	4187.22
468.23	4173.18
468.41	4124.02
468.60	4198.92
468.78	4257.43
468.96	4166.15
469.14	4196.58
469.32	4227.01
469.50	3932.10
469.69	3983.59
469.87	4049.13
470.05	4070.19
470.23	4170.83
470.41	4091.26
470.59	4159.13
470.77	3997.64
470.95	4212.96
471.14	4196.58
471.32	4327.65
471.50	4432.97
471.68	4489.15
471.86	4542.98
472.04	4507.87
472.22	4531.28
472.40	4278.50
472.58	4383.82
472.77	4198.92
472.95	4327.65
473.13	4442.34
473.31	4407.23
473.49	4346.37
473.67	4414.25
473.85	4458.72
474.03	4620.22
474.21	4681.07
474.39	4655.33
474.57	4732.56
474.75	4622.56
474.93	4484.47
475.12	4498.51
475.30	4468.08
475.48	4519.57
475.66	4601.49
475.84	4587.45
476.02	4470.42
476.20	4255.09
476.38	4554.68
476.56	4664.69
476.74	4615.54
476.92	4690.43
477.10	4755.97
477.28	5039.17
477.46	4830.87
477.64	4957.25
477.82	4901.08
478.00	5181.95
478.18	4936.19
478.36	5004.07
478.54	4851.93
478.72	4875.34
478.90	5163.22
479.08	5252.16
479.26	5399.62
479.44	5294.29
479.62	5263.86
479.80	5451.11
479.98	5130.45
480.16	5261.52
480.34	5277.91
480.52	5329.40
480.70	5371.53
480.88	5249.82
481.06	5516.64
481.24	5453.45
481.41	5530.69
481.59	5760.06
481.77	5664.10
481.95	5544.73
482.13	5530.69
482.31	5603.24
482.49	5610.26
482.67	5713.25
482.85	5717.93
483.03	5921.56
483.21	5928.58
483.39	6010.50
483.57	5832.62
483.74	5757.72
483.92	5877.09
484.10	5830.27
484.28	6040.92
484.46	6143.91
484.64	6216.46
484.82	5947.30
485.00	6029.22
485.18	5832.62
485.35	5715.59
485.53	5305.99
485.71	5029.81
485.89	4889.38
486.07	5130.45
486.25	5584.52
486.43	5731.97
486.61	5863.04
486.78	5888.79
486.96	5970.71
487.14	6258.59
487.32	6282.00
487.50	6382.64
487.68	6532.44
487.85	6593.29
488.03	6729.04
488.21	6541.80
488.39	6347.53
488.57	6267.95
488.75	6310.08
488.92	6537.12
489.10	6698.61
489.28	7213.53
489.46	7089.48
489.64	7148.00
489.81	7199.49
489.99	7246.30
490.17	7262.68
490.35	7108.21
490.53	7208.85
490.70	7112.89
490.88	7133.95
491.06	7300.13
491.24	7300.13
491.41	7105.87
491.59	6696.27
491.77	6640.10
491.95	6726.70
492.13	6991.18
492.30	7059.06
492.48	7459.29
492.66	7494.40
492.84	7473.33
493.01	7386.73
493.19	7337.58
493.37	7157.36
493.54	7056.72
493.72	7162.04
493.90	7545.89
494.08	7737.81
494.25	7896.97
494.43	7791.64
494.61	7918.03
494.79	8042.08
494.96	7838.45
495.14	7833.77
495.32	7625.47
495.49	7382.05
495.67	7648.87
495.85	7836.11
496.02	8002.29
496.20	7925.05
496.38	7892.29
496.55	7801.01
496.73	8145.06
496.91	8006.97
497.09	8128.68
497.26	8278.47
497.44	7941.44
497.62	7903.99
497.79	7831.43
497.97	7377.37
498.14	7545.89
498.32	7929.74
498.50	7779.94
498.67	8011.65
498.85	7885.26
499.03	8093.57
499.20	8224.64
499.38	8421.25
499.56	8252.73
499.73	7964.84
499.91	8147.40
500.08	7592.70
500.26	7496.74
500.44	7686.32
500.61	7784.62
500.79	7836.11
500.97	7932.08
501.14	7609.08
501.32	7566.95
501.49	7475.67
501.67	7707.38
501.84	7623.12
502.02	7903.99
502.20	7740.15
502.37	7894.63
502.55	7812.71
502.72	8016.33
502.90	8102.93
503.07	7789.30
503.25	7798.66
503.43	7557.59
503.60	7311.83
503.78	7208.85
503.95	7344.60
504.13	7623.12
504.30	8011.65
504.48	7960.16
504.65	7948.46
504.83	8102.93
505.01	7969.52
505.18	8278.47
505.36	8299.54
505.53	8280.82
505.71	8332.31
505.88	8514.87
506.06	8210.60
506.23	8205.92
506.41	8035.06
506.58	8056.12
506.76	8140.38
506.93	8035.06
507.11	7997.61
507.28	8042.08
507.46	7911.01
507.63	7875.90
507.81	7728.45
507.98	7838.45
508.16	7852.50
508.33	8051.44
508.50	8229.32
508.68	8587.43
508.85	8386.14
509.03	8510.19
509.20	8491.46
509.38	8273.79
509.55	8285.50
509.73	8114.64
509.90	8283.16
510.08	8208.26
510.25	8526.57
510.42	8388.48
510.60	8224.64
510.77	8297.20
510.95	8393.16
511.12	8463.38
511.30	8823.82
511.47	8875.31
511.64	8875.31
511.82	8582.74
511.99	8500.83
512.17	8234.00
512.34	8280.82
512.51	8114.64
512.69	8184.85
512.86	8402.52
513.04	8423.59
513.21	8667.00
513.38	8259.75
513.56	8231.66
513.73	7929.74
513.90	7999.95
514.08	8177.83
514.25	8224.64
514.43	8367.42
514.60	8322.94
514.77	8334.65
514.95	8269.11
515.12	8329.97
515.29	8161.45
515.47	8500.83
515.64	8622.53
515.81	8442.31
515.99	8519.55
516.16	7829.09
516.33	7442.90
516.51	6951.39
516.68	6871.81
516.85	6586.27
517.03	6787.55
517.20	7541.21
517.37	8102.93
517.54	8187.19
517.72	8189.53
517.89	7679.30
518.06	6998.20
518.24	7293.11
518.41	7817.39
518.58	7878.24
518.75	7885.26
518.93	8095.91
519.10	8222.30
519.27	8037.40
519.45	8077.19
519.62	8435.29
519.79	8685.73
519.96	8559.34
520.14	8262.09
520.31	8098.25
520.48	8187.19
520.65	8189.53
520.83	8336.99
521.00	8657.64
521.17	8636.58
521.34	8411.89
521.52	8493.80
521.69	8585.08
521.86	8667.00
522.03	8475.08
522.20	8336.99
522.38	7948.46
522.55	7969.52
522.72	7983.57
522.89	8292.52
523.07	8425.93
523.24	8439.97
523.41	8652.96
523.58	8695.09
523.75	8816.80
523.92	8599.13
524.10	8812.12
524.27	8943.19
524.44	8814.46
524.61	8596.79
524.78	8610.83
524.96	8624.87
525.13	8568.70
525.30	8622.53
525.47	8791.05
525.64	8854.25
525.81	8538.27
525.98	8023.36
526.16	7637.17
526.33	7627.81
526.50	7440.56
526.67	7353.96
526.84	7487.37
527.01	7864.20
527.18	8084.21
527.36	8044.42
527.53	8620.19
527.70	8891.70
527.87	8627.21
528.04	8465.72
528.21	8643.60
528.38	8585.08
528.55	8795.73
528.72	8987.66
528.89	8891.70
529.07	8704.45
529.24	8781.69
529.41	8423.59
529.58	8489.12
529.75	8561.68
529.92	8655.30
530.09	8580.40
530.26	8751.26
530.43	8971.27
530.60	8961.91
530.77	8784.03
530.94	9041.49
531.11	8830.84
531.28	8732.54
531.46	8608.49
531.63	8669.34
531.80	8657.64
531.97	8648.28
532.14	8432.95
532.31	8163.79
532.48	8053.78
532.65	7861.86
532.82	8255.07
532.99	8383.80
533.16	8674.03
533.33	8889.35
533.50	8657.64
533.67	8596.79
533.84	8439.97
534.01	8472.74
534.18	8582.74
534.35	8461.04
534.52	8720.84
534.69	8610.83
534.86	8596.79
535.03	8760.63
535.20	8837.86
535.37	8999.36
535.54	9067.24
535.71	9036.81
535.88	8865.95
536.05	8734.88
536.22	8514.87
536.38	8645.94
536.55	8362.73
536.72	8538.27
536.89	8353.37
537.06	8571.04
537.23	8882.33
537.40	8980.64
537.57	9153.84
537.74	8971.27
537.91	9266.18
538.08	8891.70
538.25	8938.51
538.42	8898.72
538.59	8891.70
538.75	8798.07
538.92	8798.07
539.09	8901.06
539.26	8648.28
539.43	9095.32
539.60	8863.61
539.77	9020.42
539.94	9226.39
540.11	9301.29
540.28	9102.34
540.44	9188.94
540.61	9193.62
540.78	9626.62
540.95	10111.11
541.12	10520.71
541.29	11063.71
541.46	11096.48
541.62	10888.17
541.79	10974.77
541.96	10707.95
542.13	10391.98
542.30	10569.86
542.47	10438.79
542.63	10286.65
542.80	10012.81
542.97	10033.88
543.14	10113.45
543.31	9966.00
543.48	10279.63
543.64	10497.30
543.81	10422.41
543.98	10340.49
544.15	10377.94
544.32	10251.55
544.48	10195.37
544.65	10202.40
544.82	10466.88
544.99	10286.65
545.16	10134.52
545.32	10324.10
545.49	11676.93
545.66	14478.55
545.83	16872.92
546.00	16009.26
546.16	12924.44
546.33	11534.16
546.50	10675.18
546.67	10370.91
546.83	9958.98
547.00	9846.63
547.17	9755.35
547.34	9610.24
547.50	9437.04
547.67	9371.50
547.84	9727.27
548.00	9598.54
548.17	9460.45
548.34	9514.28
548.51	9301.29
548.67	9350.44
548.84	9268.52
549.01	9221.71
549.18	9277.88
549.34	9186.60
549.51	9160.86
549.68	9144.47
549.84	9231.07
550.01	8980.64
550.18	8950.21
550.34	8987.66
550.51	8699.77
550.68	8964.25
550.84	8720.84
551.01	8573.38
551.18	8498.49
551.34	8554.66
551.51	8795.73
551.68	8725.52
551.84	8645.94
552.01	8753.60
552.18	8835.52
552.34	8276.13
552.51	8252.73
552.68	8166.13
552.84	8285.50
553.01	8451.67
553.18	8498.49
553.34	8470.40
553.51	8243.37
553.67	8339.33
553.84	8367.42
554.01	8379.12
554.17	8414.23
554.34	8290.18
554.51	8306.56
554.67	8472.74
554.84	8437.63
555.00	8252.73
555.17	8285.50
555.33	8334.65
555.50	8189.53
555.67	8205.92
555.83	7948.46
556.00	8004.63
556.16	8327.63
556.33	8079.53
556.50	7953.14
556.66	7761.22
556.83	7782.28
556.99	7719.09
557.16	7709.72
557.32	7981.23
557.49	7824.41
557.65	7824.41
557.82	7815.05
557.98	7606.74
558.15	7866.54
558.32	7403.11
558.48	7337.58
558.65	7407.80
558.81	7522.48
558.98	7459.29
559.14	7627.81
559.31	7550.57
559.47	7536.52
559.64	7641.85
559.80	7524.82
559.97	7501.42
560.13	7531.84
560.30	7838.45
560.46	7878.24
560.63	8049.10
560.79	8212.94
560.96	7859.52
561.12	7646.53
561.29	7478.01
561.45	7475.67
561.61	7613.76
561.78	7693.34
561.94	7573.97
562.11	7627.81
562.27	7461.63
562.44	7595.04
562.60	7485.03
562.77	7630.15
562.93	7719.09
563.10	7908.67
563.26	7541.21
563.42	7534.18
563.59	7445.24
563.75	7382.05
563.92	7407.80
564.08	7356.30
564.24	7545.89
564.41	7548.23
564.57	7487.37
564.74	7454.61
564.90	7646.53
565.07	7377.37
565.23	7468.65
565.39	7297.79
565.56	7290.77
565.72	7162.04
565.88	7030.97
566.05	7194.81
566.21	7187.79
566.38	7297.79
566.54	7302.47
566.70	7389.07
566.87	7660.57
567.03	7566.95
567.19	7655.89
567.36	7297.79
567.52	7318.86
567.68	7290.77
567.85	6956.07
568.01	7052.03
568.17	6817.98
568.34	6778.19
568.50	6832.02
568.66	6656.48
568.83	6848.41
568.99	7087.14
569.15	6892.88
569.32	6956.07
569.48	6813.30
569.64	6752.45
569.81	6740.74
569.97	6782.87
570.13	6885.86
570.30	6691.59
570.46	6750.10
570.62	6572.22
570.78	6487.96
570.95	6483.28
571.11	6773.51
571.27	6796.92
571.43	6857.77
571.60	6855.43
571.76	6799.26
571.92	6932.67
572.09	6949.05
572.25	6876.49
572.41	6916.28
572.57	6768.83
572.74	6963.09
572.90	6850.75
573.06	6855.43
573.22	6825.00
573.38	6871.81
573.55	6913.94
573.71	6839.05
573.87	6745.42
574.03	6663.51
574.20	6722.02
574.36	6422.43
574.52	6441.15
574.68	6799.26
574.84	6553.50
575.01	6583.93
575.17	6513.71
575.33	6555.84
575.49	6511.37
575.65	6612.01
575.82	6665.85
575.98	6546.48
576.14	6736.06
576.30	6876.49
576.46	7346.94
576.62	7927.39
576.79	8252.73
576.95	7801.01
577.11	7136.29
577.27	6984.16
577.43	6871.81
577.59	6750.10
577.75	6464.56
577.92	6408.39
578.08	6436.47
578.24	6548.82
578.40	6621.38
578.56	7176.08
578.72	7669.94
578.88	7983.57
579.04	7611.42
579.21	7220.55
579.37	7229.91
579.53	7115.23
579.69	6869.47
579.85	6841.39
580.01	7094.16
580.17	7030.97
580.33	7103.53
580.49	6899.90
580.65	6876.49
580.82	7033.31
580.98	6949.05
581.14	6869.47
581.30	6848.41
581.46	6937.35
581.62	7075.44
581.78	6970.12
581.94	7096.50
582.10	6981.82
582.26	7248.64
582.42	7262.68
582.58	7321.20
582.74	7105.87
582.90	7112.89
583.06	7194.81
583.22	7045.01
583.38	7063.74
583.54	7103.53
583.70	7187.79
583.86	7176.08
584.02	7009.90
584.18	7119.91
584.34	7068.42
584.50	7084.80
584.66	7028.63
584.82	6909.26
584.98	6956.07
585.14	6609.67
585.30	6707.98
585.46	6675.21
585.62	6637.76
585.78	6719.68
585.94	6642.44
586.10	6668.19
586.26	6850.75
586.42	6927.99
586.58	6951.39
586.74	6902.24
586.90	7157.36
587.06	7162.04
587.22	7265.02
587.38	6960.75
587.54	6815.64
587.70	6574.56
587.86	6230.51
588.02	5940.28
588.18	5970.71
588.34	5420.68
588.49	5151.52
588.65	4966.62
588.81	4732.56
588.97	4791.08
589.13	4992.36
589.29	4727.88
589.45	4760.65
589.61	4868.31
589.77	5013.43
589.93	5238.12
590.08	5628.99
590.24	5547.07
590.40	5753.04
590.56	5738.99
590.72	5638.35
590.88	5404.30
591.04	5696.86
591.20	5668.78
591.35	5614.95
591.51	5474.51
591.67	5474.51
591.83	5481.53
591.99	5462.81
592.15	5483.88
592.31	5851.34
592.46	5860.70
592.62	6061.99
592.78	6066.67
592.94	6024.54
593.10	6050.28
593.26	6307.74
593.41	6307.74
593.57	6015.18
593.73	5621.97
593.89	5483.88
594.05	5364.51
594.20	5317.70
594.36	5149.18
594.52	5004.07
594.68	5093.01
594.84	5355.15
594.99	5408.98
595.15	5605.58
595.31	5516.64
595.47	5619.63
595.62	5563.45
595.78	5645.37
595.94	5699.20
596.10	5933.26
596.25	5713.25
596.41	5614.95
596.57	5584.52
596.73	5612.60
596.88	5509.62
597.04	5755.38
