SpectraSuite Data File
++++++++++++++++++++++++++++++++++++
Date: Fri Oct 04 11:44:19 GMT-05:00 2013
User: price-jones
Dark Spectrum Present: No
Reference Spectrum Present: No
Number of Sampled Component Spectra: 1
Spectrometers: USB2+H05261
Integration Time (usec): 100000 (USB2+H05261)
Spectra Averaged: 1 (USB2+H05261)
Boxcar Smoothing: 0 (USB2+H05261)
Correct for Electrical Dark: No (USB2+H05261)
Strobe/Lamp Enabled: No (USB2+H05261)
Correct for Detector Non-linearity: No (USB2+H05261)
Correct for Stray Light: No (USB2+H05261)
Number of Pixels in Processed Spectrum: 2048
>>>>>Begin Processed Spectral Data<<<<<
365.73	7.02
365.92	7.02
366.12	7.02
366.32	0.00
366.52	0.00
366.72	0.00
366.91	0.00
367.11	0.00
367.31	0.00
367.51	0.00
367.70	0.00
367.90	0.00
368.10	0.00
368.30	0.00
368.49	0.00
368.69	0.00
368.89	0.00
369.09	0.00
369.28	0.00
369.48	14.04
369.68	0.00
369.87	0.00
370.07	0.00
370.27	0.00
370.47	56.17
370.66	388.53
370.86	510.24
371.06	402.57
371.25	463.43
371.45	409.59
371.65	400.23
371.84	330.02
372.04	393.21
372.24	416.62
372.44	498.53
372.63	430.66
372.83	433.00
373.03	320.65
373.22	397.89
373.42	430.66
373.62	493.85
373.81	489.17
374.01	444.70
374.21	433.00
374.40	353.42
374.60	486.83
374.79	470.45
374.99	521.94
375.19	615.56
375.38	512.58
375.58	512.58
375.78	526.62
375.97	554.71
376.17	550.03
376.37	566.41
376.56	592.16
376.76	585.13
376.95	580.45
377.15	662.37
377.35	608.54
377.54	737.27
377.74	641.31
377.93	713.86
378.13	608.54
378.33	638.97
378.52	599.18
378.72	582.79
378.91	624.92
379.11	524.28
379.31	554.71
379.50	545.34
379.70	643.65
379.89	660.03
380.09	610.88
380.28	671.73
380.48	622.58
380.68	676.41
380.87	650.67
381.07	683.44
381.26	528.96
381.46	528.96
381.65	498.53
381.85	425.98
382.04	496.19
382.24	482.15
382.43	491.51
382.63	447.04
382.83	395.55
383.02	512.58
383.22	447.04
383.41	451.72
383.61	477.47
383.80	507.90
384.00	496.19
384.19	660.03
384.39	624.92
384.58	655.35
384.78	634.29
384.97	620.24
385.17	608.54
385.36	641.31
385.56	566.41
385.75	547.69
385.95	667.05
386.14	657.69
386.34	657.69
386.53	657.69
386.72	564.07
386.92	608.54
387.11	650.67
387.31	674.07
387.50	608.54
387.70	615.56
387.89	685.78
388.09	620.24
388.28	622.58
388.48	662.37
388.67	681.10
388.86	770.04
389.06	821.53
389.25	877.70
389.45	751.31
389.64	800.46
389.84	830.89
390.03	765.36
390.22	746.63
390.42	777.06
390.61	870.68
390.81	924.51
391.00	933.87
391.19	898.77
391.39	938.55
391.58	758.33
391.78	755.99
391.97	753.65
392.16	718.54
392.36	631.94
392.55	543.00
392.75	468.11
392.94	367.46
393.13	447.04
393.33	454.06
393.52	524.28
393.71	713.86
393.91	725.57
394.10	716.20
394.29	901.11
394.49	964.30
394.68	1055.58
394.88	929.19
395.07	1076.65
395.26	877.70
395.46	964.30
395.65	922.17
395.84	786.42
396.04	725.57
396.23	564.07
396.42	505.56
396.62	517.26
396.81	610.88
397.00	692.80
397.19	856.64
397.39	947.92
397.58	1109.41
397.77	1067.28
397.97	1067.28
398.16	1170.27
398.35	1184.31
398.55	1231.12
398.74	1254.53
398.93	1301.34
399.12	1252.19
399.32	1200.69
399.51	1254.53
399.70	1320.06
399.90	1275.59
400.09	1299.00
400.28	1254.53
400.47	1324.74
400.67	1441.77
400.86	1352.83
401.05	1448.79
401.24	1441.77
401.44	1469.86
401.63	1401.98
401.82	1418.36
402.01	1390.28
402.21	1437.09
402.40	1357.51
402.59	1359.85
402.78	1266.23
402.97	1259.21
403.17	1270.91
403.36	1519.01
403.55	1462.83
403.74	1458.15
403.93	1383.26
404.13	1439.43
404.32	1467.52
404.51	1591.56
404.70	1479.22
404.89	1497.94
405.09	1432.41
405.28	1474.54
405.47	1437.09
405.66	1392.62
405.85	1348.15
406.05	1273.25
406.24	1315.38
406.43	1301.34
406.62	1413.68
406.81	1502.62
407.00	1476.88
407.20	1291.98
407.39	1366.87
407.58	1387.94
407.77	1537.73
407.96	1469.86
408.15	1528.37
408.34	1554.12
408.54	1528.37
408.73	1572.84
408.92	1547.09
409.11	1488.58
409.30	1362.19
409.49	1331.76
409.68	1359.85
409.87	1263.89
410.07	1469.86
410.26	1364.53
410.45	1394.96
410.64	1519.01
410.83	1554.12
411.02	1636.03
411.21	1715.61
411.40	1621.99
411.59	1619.65
411.78	1739.02
411.98	1624.33
412.17	1661.78
412.36	1659.44
412.55	1589.22
412.74	1631.35
412.93	1659.44
413.12	1582.20
413.31	1827.96
413.50	1710.93
413.69	1750.72
413.88	1706.25
414.07	1710.93
414.26	1666.46
414.45	1612.63
414.64	1661.78
414.83	1727.32
415.02	1760.08
415.22	1767.10
415.41	1839.66
415.60	1802.21
415.79	1834.98
415.98	1886.47
416.17	1877.11
416.36	1748.38
416.55	1804.55
416.74	1781.15
416.93	1708.59
417.12	1748.38
417.31	1769.44
417.50	1804.55
417.69	1806.89
417.88	1804.55
418.07	1720.29
418.26	1722.63
418.45	1804.55
418.64	1858.39
418.83	1856.04
419.02	1900.52
419.21	1940.30
419.39	1790.51
419.58	1589.22
419.77	1664.12
419.96	1753.06
420.15	1856.04
420.34	1886.47
420.53	1870.09
420.72	1970.73
420.91	1870.09
421.10	2022.22
421.29	1996.48
421.48	1877.11
421.67	1912.22
421.86	1825.62
422.05	1785.83
422.24	1577.52
422.43	1633.69
422.61	1748.38
422.80	1776.47
422.99	1881.79
423.18	1872.43
423.37	1783.49
423.56	1870.09
423.75	1781.15
423.94	1827.96
424.13	1802.21
424.32	1706.25
424.50	1743.70
424.69	1816.26
424.88	1769.44
425.07	1753.06
425.26	1891.15
425.45	1790.51
425.64	1694.55
425.83	1717.95
426.01	1863.07
426.20	1820.94
426.39	1764.76
426.58	1713.27
426.77	1673.48
426.96	1636.03
427.15	1722.63
427.33	1732.00
427.52	1776.47
427.71	1706.25
427.90	1741.36
428.09	1764.76
428.28	1715.61
428.46	1605.61
428.65	1729.66
428.84	1813.92
429.03	1790.51
429.22	1724.97
429.40	1540.07
429.59	1427.73
429.78	1369.21
429.97	1294.32
430.16	1306.02
430.34	1448.79
430.53	1226.44
430.72	1404.32
430.91	1507.30
431.10	1732.00
431.28	1860.73
431.47	2047.97
431.66	2087.76
431.85	1853.70
432.03	1755.40
432.22	1825.62
432.41	1790.51
432.60	1937.96
432.79	1970.73
432.97	1989.46
433.16	2001.16
433.35	1909.88
433.54	1739.02
433.72	1605.61
433.91	1673.48
434.10	1720.29
434.28	1942.64
434.47	2001.16
434.66	2012.86
434.85	1944.99
435.03	2052.65
435.22	2593.31
435.41	3023.97
435.59	3098.87
435.78	2871.84
435.97	2478.63
436.16	2331.17
436.34	2157.97
436.53	2108.82
436.72	2202.44
436.90	2003.50
437.09	1970.73
437.28	1998.82
437.46	2087.76
437.65	2008.18
437.84	1937.96
438.02	1748.38
438.21	1898.17
438.40	1856.04
438.58	1994.14
438.77	2017.54
438.96	2019.88
439.14	2101.80
439.33	2153.29
439.52	2207.13
439.70	2148.61
439.89	2120.53
440.08	2080.74
440.26	1987.11
440.45	2125.21
440.63	2286.70
440.82	2279.68
441.01	2242.23
441.19	2188.40
441.38	2347.56
441.57	2445.86
441.75	2399.05
441.94	2478.63
442.12	2361.60
442.31	2445.86
442.50	2450.54
442.68	2312.45
442.87	2324.15
443.05	2413.09
443.24	2417.77
443.43	2487.99
443.61	2457.56
443.80	2422.45
443.98	2361.60
444.17	2387.35
444.35	2448.20
444.54	2562.89
444.73	2530.12
444.91	2431.82
445.10	2249.25
445.28	2246.91
445.47	2190.74
445.65	2275.00
445.84	2291.38
446.02	2340.54
446.21	2385.01
446.39	2345.22
446.58	2476.29
446.77	2382.67
446.95	2443.52
447.14	2466.92
447.32	2509.05
447.51	2420.11
447.69	2462.24
447.88	2422.45
448.06	2490.33
448.25	2471.61
448.43	2408.41
448.62	2399.05
448.80	2284.36
448.99	2480.97
449.17	2455.22
449.36	2574.59
449.54	2548.84
449.73	2654.17
449.91	2595.65
450.10	2656.51
450.28	2696.30
450.46	2738.43
450.65	2834.39
450.83	2726.72
451.02	2619.06
451.20	2675.23
451.39	2583.95
451.57	2555.86
451.76	2532.46
451.94	2511.39
452.13	2553.52
452.31	2469.27
452.49	2289.04
452.68	2403.73
452.86	2335.85
453.05	2300.75
453.23	2445.86
453.42	2434.16
453.60	2511.39
453.78	2633.10
453.97	2560.55
454.15	2609.70
454.34	2380.32
454.52	2375.64
454.70	2553.52
454.89	2576.93
455.07	2548.84
455.26	2506.71
455.44	2541.82
455.62	2616.72
455.81	2813.32
455.99	2637.78
456.17	2686.94
456.36	2682.25
456.54	2593.31
456.73	2630.76
456.91	2801.62
457.09	2761.83
457.28	2810.98
457.46	2682.25
457.64	2548.84
457.83	2663.53
458.01	2558.21
458.19	2661.19
458.38	2588.63
458.56	2705.66
458.74	2715.02
458.93	2705.66
459.11	2621.40
459.29	2656.51
459.48	2649.49
459.66	2644.81
459.84	2703.32
460.03	2682.25
460.21	2818.00
460.39	2689.28
460.57	2733.75
460.76	2810.98
460.94	2818.00
461.12	2658.85
461.31	2733.75
461.49	2626.08
461.67	2731.41
461.85	2747.79
462.04	2806.30
462.22	3204.19
462.40	2902.26
462.59	2752.47
462.77	2808.64
462.95	2778.22
463.13	2846.09
463.32	2747.79
463.50	2710.34
463.68	2679.91
463.86	2724.38
464.05	2663.53
464.23	2649.49
464.41	2619.06
464.59	2511.39
464.78	2708.00
464.96	2614.38
465.14	2658.85
465.32	2700.98
465.50	2878.86
465.69	2902.26
465.87	2743.11
466.05	2705.66
466.23	2590.97
466.41	2654.17
466.60	2572.25
466.78	2672.89
466.96	2736.09
467.14	2810.98
467.32	2670.55
467.51	2778.22
467.69	2600.34
467.87	2656.51
468.05	2757.15
468.23	2682.25
468.41	2693.96
468.60	2628.42
468.78	2661.19
468.96	2764.17
469.14	2726.72
469.32	2768.85
469.50	2682.25
469.69	2757.15
469.87	2576.93
470.05	2642.46
470.23	2616.72
470.41	2623.74
470.59	2616.72
470.77	2708.00
470.95	2686.94
471.14	2644.81
471.32	2827.37
471.50	2747.79
471.68	2829.71
471.86	2841.41
472.04	2857.79
472.22	2986.52
472.40	2775.88
472.58	2841.41
472.77	2745.45
472.95	2747.79
473.13	2855.45
473.31	2717.36
473.49	2883.54
473.67	2850.77
473.85	2871.84
474.03	2862.48
474.21	2951.42
474.39	2902.26
474.57	2888.22
474.75	3047.38
474.93	2848.43
475.12	2806.30
475.30	2827.37
475.48	2930.35
475.66	2930.35
475.84	2923.33
476.02	2799.28
476.20	2841.41
476.38	2881.20
476.56	3012.27
476.74	2937.37
476.92	3026.31
477.10	3038.02
477.28	3229.94
477.46	3225.26
477.64	3169.09
477.82	3269.73
478.00	3222.92
478.18	3148.02
478.36	3115.25
478.54	3103.55
478.72	3178.45
478.90	3169.09
479.08	3339.94
479.26	3389.10
479.44	3260.37
479.62	3330.58
479.80	3417.18
479.98	3309.52
480.16	3351.65
480.34	3368.03
480.52	3382.07
480.70	3253.34
480.88	3391.44
481.06	3372.71
481.24	3417.18
481.41	3562.30
481.59	3597.40
481.77	3513.14
481.95	3421.86
482.13	3604.42
482.31	3576.34
482.49	3541.23
482.67	3524.85
482.85	3576.34
483.03	3798.69
483.21	3693.37
483.39	3768.26
483.57	3515.48
483.74	3632.51
483.92	3679.32
484.10	3768.26
484.28	3751.88
484.46	3861.88
484.64	3927.42
484.82	3749.54
485.00	3471.01
485.18	3641.87
485.35	3583.36
485.53	3382.07
485.71	3042.70
485.89	3103.55
486.07	3211.22
486.25	3435.91
486.43	3501.44
486.61	3630.17
486.78	3796.35
486.96	3681.66
487.14	3815.07
487.32	3927.42
487.50	4072.53
487.68	4095.94
487.85	4133.39
488.03	4046.79
488.21	4159.13
488.39	3967.21
488.57	4039.76
488.75	3918.06
488.92	4416.59
489.10	4337.01
489.28	4379.14
489.46	4416.59
489.64	4519.57
489.81	4557.02
489.99	4411.91
490.17	4470.42
490.35	4468.08
490.53	4432.97
490.70	4456.38
490.88	4381.48
491.06	4559.36
491.24	4636.60
491.41	4512.55
491.59	4320.63
491.77	4077.21
491.95	4372.12
492.13	4315.95
492.30	4472.76
492.48	4655.33
492.66	4702.14
492.84	4652.98
493.01	4784.06
493.19	4638.94
493.37	4652.98
493.54	4533.62
493.72	4512.55
493.90	4685.75
494.08	4690.43
494.25	4910.44
494.43	4938.53
494.61	4891.72
494.79	5046.20
494.96	4929.17
495.14	4884.70
495.32	4753.63
495.49	4582.77
495.67	4723.20
495.85	4884.70
496.02	5036.83
496.20	5144.50
496.38	5013.43
496.55	4954.91
496.73	5121.09
496.91	4943.21
497.09	5315.36
497.26	5298.97
497.44	5163.22
497.62	4968.96
497.79	4924.49
497.97	4805.12
498.14	4622.56
498.32	4798.10
498.50	5027.47
498.67	5149.18
498.85	5046.20
499.03	5144.50
499.20	5071.94
499.38	5123.43
499.56	5069.60
499.73	4910.44
499.91	4957.25
500.08	4931.51
500.26	4631.92
500.44	4753.63
500.61	5020.45
500.79	4816.82
500.97	4945.55
501.14	4877.68
501.32	4746.61
501.49	4791.08
501.67	4777.03
501.84	4943.21
502.02	5008.75
502.20	4875.34
502.37	5018.11
502.55	4980.66
502.72	4985.34
502.90	5062.58
503.07	4884.70
503.25	4919.81
503.43	4662.35
503.60	4454.04
503.78	4554.68
503.95	4643.62
504.13	4849.59
504.30	4947.89
504.48	4901.08
504.65	5088.32
504.83	5046.20
505.01	5226.42
505.18	5198.33
505.36	5177.26
505.53	5125.77
505.71	5291.95
505.88	5392.59
506.06	5177.26
506.23	5228.76
506.41	5231.10
506.58	5011.09
506.76	5060.24
506.93	5142.16
507.11	5207.69
507.28	5174.92
507.46	4945.55
507.63	4973.64
507.81	4877.68
507.98	4898.74
508.16	5093.01
508.33	5214.71
508.50	5235.78
508.68	5238.12
508.85	5444.09
509.03	5327.06
509.20	5355.15
509.38	5270.89
509.55	5263.86
509.73	5085.98
509.90	5254.50
510.08	5303.65
510.25	5177.26
510.42	5188.97
510.60	5111.73
510.77	5228.76
510.95	5483.88
511.12	5483.88
511.30	5582.18
511.47	5556.43
511.64	5572.82
511.82	5406.64
511.99	5153.86
512.17	5280.25
512.34	5205.35
512.51	5195.99
512.69	5179.61
512.86	5303.65
513.04	5453.45
513.21	5238.12
513.38	5392.59
513.56	5156.20
513.73	4943.21
513.90	4985.34
514.08	5130.45
514.25	5210.03
514.43	5214.71
514.60	5296.63
514.77	5392.59
514.95	5348.12
515.12	5289.61
515.29	5432.38
515.47	5392.59
515.64	5579.84
515.81	5406.64
515.99	5366.85
516.16	4943.21
516.33	4526.60
516.51	4514.89
516.68	4432.97
516.85	4255.09
517.03	4287.86
517.20	4805.12
517.37	5118.75
517.54	5317.70
517.72	5289.61
517.89	4821.50
518.06	4437.66
518.24	4676.39
518.41	4720.86
518.58	5025.13
518.75	5043.85
518.93	5163.22
519.10	5088.32
519.27	5205.35
519.45	5341.10
519.62	5284.93
519.79	5376.21
519.96	5303.65
520.14	5259.18
520.31	5214.71
520.48	5001.72
520.65	5158.54
520.83	5315.36
521.00	5270.89
521.17	5336.42
521.34	5338.76
521.52	5521.32
521.69	5439.40
521.86	5430.04
522.03	5495.58
522.20	5221.74
522.38	5039.17
522.55	5160.88
522.72	5181.95
522.89	5085.98
523.07	5408.98
523.24	5305.99
523.41	5441.75
523.58	5434.72
523.75	5568.13
523.92	5465.15
524.10	5514.30
524.27	5652.39
524.44	5565.79
524.61	5460.47
524.78	5434.72
524.96	5352.81
525.13	5493.24
525.30	5430.04
525.47	5572.82
525.64	5565.79
525.81	5432.38
525.98	5282.59
526.16	4973.64
526.33	4940.87
526.50	4685.75
526.67	4807.46
526.84	4795.76
527.01	4947.89
527.18	5100.03
527.36	5280.25
527.53	5320.04
527.70	5397.28
527.87	5364.51
528.04	5191.31
528.21	5266.21
528.38	5493.24
528.55	5540.05
528.72	5748.36
528.89	5638.35
529.07	5638.35
529.24	5504.94
529.41	5441.75
529.58	5261.52
529.75	5200.67
529.92	5383.23
530.09	5551.75
530.26	5547.07
530.43	5692.18
530.60	5483.88
530.77	5668.78
530.94	5720.27
531.11	5607.92
531.28	5577.50
531.46	5495.58
531.63	5504.94
531.80	5558.77
531.97	5317.70
532.14	5329.40
532.31	5104.71
532.48	5008.75
532.65	5102.37
532.82	5067.26
532.99	5425.36
533.16	5362.17
533.33	5523.66
533.50	5392.59
533.67	5385.57
533.84	5294.29
534.01	5472.17
534.18	5355.15
534.35	5547.07
534.52	5495.58
534.69	5617.29
534.86	5502.60
535.03	5701.54
535.20	5713.25
535.37	5738.99
535.54	5682.82
535.71	5678.14
535.88	5636.01
536.05	5568.13
536.22	5385.57
536.38	5329.40
536.55	5284.93
536.72	5158.54
536.89	5249.82
537.06	5362.17
537.23	5523.66
537.40	5577.50
537.57	5568.13
537.74	5570.48
537.91	5544.73
538.08	5570.48
538.25	5556.43
538.42	5547.07
538.59	5631.33
538.75	5364.51
538.92	5661.76
539.09	5383.23
539.26	5444.09
539.43	5151.52
539.60	5458.13
539.77	5556.43
539.94	5579.84
540.11	5315.36
540.28	5497.92
540.44	5437.06
540.61	5514.30
540.78	5469.83
540.95	5731.97
541.12	5832.62
541.29	6101.78
541.46	6443.49
541.62	6349.87
541.79	6101.78
541.96	5959.00
542.13	5874.74
542.30	6064.33
542.47	5928.58
542.63	5919.21
542.80	5940.28
542.97	5944.96
543.14	5860.70
543.31	5731.97
543.48	5710.91
543.64	6296.04
543.81	6122.84
543.98	6207.10
544.15	5998.79
544.32	5870.06
544.48	5877.09
544.65	5928.58
544.82	5989.43
544.99	5975.39
545.16	5834.96
545.32	5870.06
545.49	6544.14
545.66	7449.93
545.83	8018.68
546.00	7433.54
546.16	6743.08
546.33	6209.44
546.50	5982.41
546.67	5870.06
546.83	5748.36
547.00	5727.29
547.17	5474.51
547.34	5617.29
547.50	5502.60
547.67	5540.05
547.84	5355.15
548.00	5462.81
548.17	5593.88
548.34	5687.50
548.51	5558.77
548.67	5666.44
548.84	5425.36
549.01	5626.65
549.18	5401.96
549.34	5577.50
549.51	5490.90
549.68	5432.38
549.84	5598.56
550.01	5408.98
550.18	5362.17
550.34	5380.89
550.51	5315.36
550.68	5401.96
550.84	5266.21
551.01	5287.27
551.18	5263.86
551.34	5242.80
551.51	5322.38
551.68	5235.78
551.84	5345.78
552.01	5327.06
552.18	5327.06
552.34	5013.43
552.51	5050.88
552.68	5149.18
552.84	5252.16
553.01	5158.54
553.18	4975.98
553.34	5102.37
553.51	5163.22
553.67	5146.84
553.84	5233.44
554.01	5348.12
554.17	5252.16
554.34	5341.10
554.51	5144.50
554.67	5387.91
554.84	5144.50
555.00	5294.29
555.17	5156.20
555.33	5217.05
555.50	5078.96
555.67	4985.34
555.83	5050.88
556.00	5057.90
556.16	5093.01
556.33	5067.26
556.50	5090.67
556.66	4922.15
556.83	4840.23
556.99	4833.21
557.16	4830.87
557.32	4975.98
557.49	4898.74
557.65	4971.30
557.82	4992.36
557.98	5048.54
558.15	4917.47
558.32	4849.59
558.48	4650.64
558.65	4582.77
558.81	4812.14
558.98	4760.65
559.14	4779.37
559.31	4765.33
559.47	4835.55
559.64	4830.87
559.80	4755.97
559.97	4727.88
560.13	4912.78
560.30	4940.87
560.46	5076.62
560.63	4891.72
560.79	5046.20
560.96	4851.93
561.12	4753.63
561.29	4709.16
561.45	4636.60
561.61	4915.12
561.78	4805.12
561.94	4674.05
562.11	4861.29
562.27	4828.53
562.44	4844.91
562.60	4873.00
562.77	4798.10
562.93	4844.91
563.10	4809.80
563.26	4816.82
563.42	4877.68
563.59	4753.63
563.75	4779.37
563.92	4840.23
564.08	4812.14
564.24	4784.06
564.41	4753.63
564.57	4798.10
564.74	4786.40
564.90	4781.71
565.07	4814.48
565.23	4552.34
565.39	4512.55
565.56	4568.73
565.72	4606.17
565.88	4526.60
566.05	4468.08
566.21	4683.41
566.38	4791.08
566.54	4709.16
566.70	4550.00
566.87	4683.41
567.03	4631.92
567.19	4809.80
567.36	4615.54
567.52	4603.83
567.68	4620.22
567.85	4468.08
568.01	4425.95
568.17	4320.63
568.34	4315.95
568.50	4320.63
568.66	4236.37
568.83	4381.48
568.99	4292.54
569.15	4337.01
569.32	4346.37
569.48	4360.42
569.64	4255.09
569.81	4219.99
569.97	4430.63
570.13	4180.20
570.30	4351.06
570.46	4152.11
570.62	4236.37
570.78	4124.02
570.95	4161.47
571.11	4248.07
571.27	4355.74
571.43	4236.37
571.60	4360.42
571.76	4203.60
571.92	4262.12
572.09	4353.40
572.25	4358.08
572.41	4449.36
572.57	4332.33
572.74	4334.67
572.90	4430.63
573.06	4262.12
573.22	4322.97
573.38	4369.78
573.55	4227.01
573.71	4283.18
573.87	4248.07
574.03	4198.92
574.20	4154.45
574.36	4252.75
574.52	4229.35
574.68	4124.02
574.84	4245.73
575.01	4170.83
575.17	4177.86
575.33	4241.05
575.49	4072.53
575.65	4212.96
575.82	4072.53
575.98	4107.64
576.14	4030.40
576.30	4351.06
576.46	4423.61
576.62	4690.43
576.79	4699.80
576.95	4571.07
577.11	4301.90
577.27	4346.37
577.43	4175.52
577.59	4250.41
577.75	4196.58
577.92	4014.02
578.08	4028.06
578.24	3978.91
578.40	4032.74
578.56	4257.43
578.72	4559.36
578.88	4737.24
579.04	4395.53
579.21	4358.08
579.37	4444.68
579.53	4367.44
579.69	4311.27
579.85	4224.67
580.01	4367.44
580.17	4276.16
580.33	4428.29
580.49	4301.90
580.65	4201.26
580.82	4269.14
580.98	4273.82
581.14	4262.12
581.30	4376.80
581.46	4351.06
581.62	4327.65
581.78	4278.50
581.94	4344.03
582.10	4367.44
582.26	4425.95
582.42	4329.99
582.58	4381.48
582.74	4318.29
582.90	4339.35
583.06	4273.82
583.22	4264.46
583.38	4262.12
583.54	4386.16
583.70	4416.59
583.86	4318.29
584.02	4325.31
584.18	4472.76
584.34	4407.23
584.50	4390.84
584.66	4435.32
584.82	4325.31
584.98	4285.52
585.14	4269.14
585.30	4128.70
585.46	3978.91
585.62	4035.08
585.78	3913.38
585.94	4049.13
586.10	4091.26
586.26	4194.24
586.42	4163.81
586.58	4205.94
586.74	4255.09
586.90	4217.65
587.06	4252.75
587.22	4283.18
587.38	4086.58
587.54	4088.92
587.70	3936.78
587.86	3751.88
588.02	3730.81
588.18	3482.72
588.34	3574.00
588.49	3281.43
588.65	3000.57
588.81	3016.95
588.97	3061.42
589.13	2942.05
589.29	2974.82
589.45	3045.04
589.61	3136.32
589.77	3166.74
589.93	3265.05
590.08	3471.01
590.24	3517.83
590.40	3468.67
590.56	3337.60
590.72	3501.44
590.88	3236.96
591.04	3442.93
591.20	3396.12
591.35	3349.31
591.51	3349.31
591.67	3379.73
591.83	3279.09
591.99	3309.52
592.15	3646.55
592.31	3557.61
592.46	3686.34
592.62	3578.68
592.78	3632.51
592.94	3599.74
593.10	3646.55
593.26	3672.30
593.41	3808.05
593.57	3714.43
593.73	3534.21
593.89	3377.39
594.05	3274.41
594.20	3094.19
594.36	3178.45
594.52	3075.46
594.68	3133.98
594.84	3269.73
594.99	3520.17
595.15	3407.82
595.31	3311.86
595.47	3590.38
595.62	3426.54
595.78	3588.04
595.94	3562.30
596.10	3564.64
596.25	3564.64
596.41	3431.23
596.57	3414.84
596.73	3424.20
596.88	3548.25
597.04	3522.51
597.20	3492.08
597.36	3396.12
597.51	3426.54
597.67	3503.78
597.83	3559.95
