SpectraSuite Data File
++++++++++++++++++++++++++++++++++++
Date: Fri Oct 04 11:44:13 GMT-05:00 2013
User: price-jones
Dark Spectrum Present: No
Reference Spectrum Present: No
Number of Sampled Component Spectra: 1
Spectrometers: USB2+H05261
Integration Time (usec): 100000 (USB2+H05261)
Spectra Averaged: 1 (USB2+H05261)
Boxcar Smoothing: 0 (USB2+H05261)
Correct for Electrical Dark: No (USB2+H05261)
Strobe/Lamp Enabled: No (USB2+H05261)
Correct for Detector Non-linearity: No (USB2+H05261)
Correct for Stray Light: No (USB2+H05261)
Number of Pixels in Processed Spectrum: 2048
>>>>>Begin Processed Spectral Data<<<<<
365.73	0.00
365.92	0.00
366.12	0.00
366.32	0.00
366.52	0.00
366.72	0.00
366.91	0.00
367.11	0.00
367.31	0.00
367.51	0.00
367.70	0.00
367.90	0.00
368.10	0.00
368.30	0.00
368.49	0.00
368.69	0.00
368.89	0.00
369.09	0.00
369.28	0.00
369.48	0.00
369.68	0.00
369.87	23.41
370.07	0.00
370.27	37.45
370.47	152.13
370.66	540.66
370.86	660.03
371.06	777.06
371.25	835.57
371.45	650.67
371.65	613.22
371.84	601.52
372.04	608.54
372.24	685.78
372.44	678.76
372.63	767.70
372.83	758.33
373.03	669.39
373.22	580.45
373.42	660.03
373.62	627.26
373.81	821.53
374.01	765.36
374.21	688.12
374.40	620.24
374.60	718.54
374.79	816.85
374.99	910.47
375.19	933.87
375.38	840.25
375.58	858.98
375.78	917.49
375.97	870.68
376.17	830.89
376.37	954.94
376.56	898.77
376.76	936.21
376.95	957.28
377.15	1029.84
377.35	1109.41
377.54	1135.16
377.74	1095.37
377.93	1011.11
378.13	1060.26
378.33	1043.88
378.52	978.34
378.72	919.83
378.91	933.87
379.11	943.24
379.31	854.30
379.50	866.00
379.70	915.15
379.89	1004.09
380.09	1090.69
380.28	1088.35
380.48	1095.37
380.68	1039.20
380.87	1043.88
381.07	994.73
381.26	858.98
381.46	866.00
381.65	870.68
381.85	858.98
382.04	744.29
382.24	814.51
382.43	725.57
382.63	823.87
382.83	692.80
383.02	741.95
383.22	793.44
383.41	624.92
383.61	671.73
383.80	854.30
384.00	973.66
384.19	1025.15
384.39	1095.37
384.58	1076.65
384.78	1020.47
384.97	1062.60
385.17	950.26
385.36	938.55
385.56	924.51
385.75	1006.43
385.95	1046.22
386.14	1090.69
386.34	917.49
386.53	1055.58
386.72	880.04
386.92	1020.47
387.11	1076.65
387.31	1102.39
387.50	1074.31
387.70	980.68
387.89	1039.20
388.09	1111.75
388.28	1123.46
388.48	1041.54
388.67	1132.82
388.86	1135.16
389.06	1259.21
389.25	1306.02
389.45	1275.59
389.64	1287.29
389.84	1310.70
390.03	1329.42
390.22	1418.36
390.42	1399.64
390.61	1324.74
390.81	1448.79
391.00	1455.81
391.19	1533.05
391.39	1535.39
391.58	1507.30
391.78	1364.53
391.97	1430.07
392.16	1191.33
392.36	1074.31
392.55	1001.75
392.75	669.39
392.94	664.71
393.13	732.59
393.33	711.52
393.52	851.96
393.71	1050.90
393.91	1146.86
394.10	1315.38
394.29	1331.76
394.49	1458.15
394.68	1605.61
394.88	1577.52
395.07	1659.44
395.26	1659.44
395.46	1621.99
395.65	1432.41
395.84	1397.30
396.04	1146.86
396.23	1043.88
396.42	882.38
396.62	894.08
396.81	915.15
397.00	1210.06
397.19	1441.77
397.39	1610.29
397.58	1788.17
397.77	1898.17
397.97	1877.11
398.16	2005.84
398.35	2122.87
398.55	2038.61
398.74	2097.12
398.93	2197.76
399.12	2099.46
399.32	2146.27
399.51	2153.29
399.70	2305.43
399.90	2134.57
400.09	2179.04
400.28	2186.06
400.47	2328.83
400.67	2298.41
400.86	2377.98
401.05	2389.69
401.24	2520.76
401.44	2441.18
401.63	2448.20
401.82	2450.54
402.01	2492.67
402.21	2476.29
402.40	2427.14
402.59	2385.01
402.78	2382.67
402.97	2282.02
403.17	2312.45
403.36	2541.82
403.55	2457.56
403.74	2670.55
403.93	2459.90
404.13	2527.78
404.32	2516.08
404.51	2640.12
404.70	2768.85
404.89	2602.68
405.09	2476.29
405.28	2434.16
405.47	2291.38
405.66	2389.69
405.85	2202.44
406.05	2340.54
406.24	2244.57
406.43	2413.09
406.62	2438.84
406.81	2530.12
407.00	2377.98
407.20	2256.28
407.39	2356.92
407.58	2490.33
407.77	2492.67
407.96	2759.49
408.15	2605.02
408.34	2609.70
408.54	2785.24
408.73	2862.48
408.92	2792.26
409.11	2595.65
409.30	2483.31
409.49	2394.37
409.68	2282.02
409.87	2190.74
410.07	2326.49
410.26	2466.92
410.45	2640.12
410.64	2679.91
410.83	2920.99
411.02	2846.09
411.21	2988.86
411.40	2862.48
411.59	2895.24
411.78	2888.22
411.98	2881.20
412.17	2902.26
412.36	2766.51
412.55	2883.54
412.74	2841.41
412.93	2888.22
413.12	2785.24
413.31	2937.37
413.50	2960.78
413.69	3061.42
413.88	3061.42
414.07	2951.42
414.26	2862.48
414.45	3136.32
414.64	3087.17
414.83	3119.93
415.02	2825.03
415.22	2984.18
415.41	3014.61
415.60	3052.06
415.79	3255.69
415.98	3410.16
416.17	3318.88
416.36	3091.85
416.55	3096.53
416.74	3035.67
416.93	3028.65
417.12	3070.78
417.31	3030.99
417.50	3173.77
417.69	3227.60
417.88	3213.56
418.07	3103.55
418.26	3148.02
418.45	3077.80
418.64	3314.20
418.83	3215.90
419.02	3225.26
419.21	3293.13
419.39	3178.45
419.58	2874.18
419.77	2932.69
419.96	3066.10
420.15	3258.03
420.34	3302.50
420.53	3323.56
420.72	3513.14
420.91	3609.11
421.10	3463.99
421.29	3382.07
421.48	3148.02
421.67	3435.91
421.86	3414.84
422.05	3201.85
422.24	2925.67
422.43	2876.52
422.61	3026.31
422.80	3159.72
422.99	3489.74
423.18	3309.52
423.37	3211.22
423.56	3215.90
423.75	3260.37
423.94	3262.71
424.13	3084.83
424.32	3002.91
424.50	2988.86
424.69	3087.17
424.88	3267.39
425.07	3122.27
425.26	3038.02
425.45	3016.95
425.64	2967.80
425.83	3042.70
426.01	3265.05
426.20	3213.56
426.39	3192.49
426.58	2977.16
426.77	2759.49
426.96	2820.35
427.15	2700.98
427.33	2956.10
427.52	3194.83
427.71	3000.57
427.90	3112.91
428.09	2949.08
428.28	2963.12
428.46	2995.89
428.65	2794.60
428.84	3061.42
429.03	2972.48
429.22	2904.60
429.40	2850.77
429.59	2473.95
429.78	2408.41
429.97	2179.04
430.16	2389.69
430.34	2321.81
430.53	2162.66
430.72	2347.56
430.91	2513.74
431.10	2829.71
431.28	3328.24
431.47	3599.74
431.66	3669.96
431.85	3379.73
432.03	3112.91
432.22	3077.80
432.41	3164.40
432.60	3400.80
432.79	3534.21
432.97	3691.02
433.16	3611.45
433.35	3290.79
433.54	2963.12
433.72	2885.88
433.91	2881.20
434.10	3059.08
434.28	3456.97
434.47	3641.87
434.66	3487.40
434.85	3375.05
435.03	3639.53
435.22	4131.05
435.41	4889.38
435.59	5310.68
435.78	4765.33
435.97	4491.49
436.16	4049.13
436.34	3885.29
436.53	3805.71
436.72	3815.07
436.90	3618.47
437.09	3510.80
437.28	3442.93
437.46	3552.93
437.65	3510.80
437.84	3391.44
438.02	3070.78
438.21	3103.55
438.40	3302.50
438.58	3445.27
438.77	3590.38
438.96	3658.26
439.14	3651.24
439.33	3838.48
439.52	3892.31
439.70	3768.26
439.89	3709.75
440.08	3602.08
440.26	3648.90
440.45	3555.27
440.63	3974.23
440.82	4170.83
441.01	4109.98
441.19	4117.00
441.38	4229.35
441.57	4222.33
441.75	4290.20
441.94	4248.07
442.12	4287.86
442.31	4423.61
442.50	4327.65
442.68	4159.13
442.87	4231.69
443.05	4212.96
443.24	4203.60
443.43	4540.64
443.61	4411.91
443.80	4477.44
443.98	4266.80
444.17	4205.94
444.35	4493.83
444.54	4517.23
444.73	4402.55
444.91	4238.71
445.10	4028.06
445.28	3911.04
445.47	3927.42
445.65	3880.61
445.84	4133.39
446.02	4147.43
446.21	4198.92
446.39	4236.37
446.58	4278.50
446.77	4306.59
446.95	4409.57
447.14	4634.26
447.32	4533.62
447.51	4519.57
447.69	4393.19
447.88	4294.88
448.06	4311.27
448.25	4360.42
448.43	4498.51
448.62	4416.59
448.80	4381.48
448.99	4315.95
449.17	4301.90
449.36	4374.46
449.54	4524.26
449.73	4851.93
449.91	4620.22
450.10	4690.43
450.28	4847.25
450.46	4753.63
450.65	4961.94
450.83	4762.99
451.02	4861.29
451.20	4660.01
451.39	4645.96
451.57	4685.75
451.76	4613.20
451.94	4517.23
452.13	4554.68
452.31	4449.36
452.49	4212.96
452.68	4266.80
452.86	4234.03
453.05	4304.25
453.23	4423.61
453.42	4447.02
453.60	4564.04
453.78	4566.39
453.97	4650.64
454.15	4578.09
454.34	4395.53
454.52	4540.64
454.70	4421.27
454.89	4638.94
455.07	4372.12
455.26	4458.72
455.44	4786.40
455.62	4938.53
455.81	4908.10
455.99	4674.05
456.17	4793.42
456.36	4720.86
456.54	4781.71
456.73	4779.37
456.91	4908.10
457.09	4774.69
457.28	5074.28
457.46	4873.00
457.64	4774.69
457.83	4720.86
458.01	4641.28
458.19	4727.88
458.38	4638.94
458.56	4924.49
458.74	4795.76
458.93	4737.24
459.11	4788.74
459.29	4685.75
459.48	4540.64
459.66	4713.84
459.84	4830.87
460.03	4851.93
460.21	4880.02
460.39	4957.25
460.57	4929.17
460.76	4908.10
460.94	4933.85
461.12	4945.55
461.31	4880.02
461.49	5025.13
461.67	4929.17
461.85	5205.35
462.04	5081.30
462.22	5586.86
462.40	5184.29
462.59	5046.20
462.77	4985.34
462.95	5214.71
463.13	4952.57
463.32	4931.51
463.50	4835.55
463.68	4947.89
463.86	4973.64
464.05	4748.95
464.23	4830.87
464.41	4826.18
464.59	4645.96
464.78	4741.93
464.96	4706.82
465.14	4819.16
465.32	4929.17
465.50	4940.87
465.69	5071.94
465.87	4912.78
466.05	4842.57
466.23	4702.14
466.41	4451.70
466.60	4746.61
466.78	4629.58
466.96	4791.08
467.14	4882.36
467.32	4901.08
467.51	4915.12
467.69	4617.88
467.87	4704.48
468.05	4833.21
468.23	4908.10
468.41	4844.91
468.60	4798.10
468.78	4901.08
468.96	4882.36
469.14	4858.95
469.32	4889.38
469.50	4816.82
469.69	4645.96
469.87	4844.91
470.05	4650.64
470.23	4648.30
470.41	4690.43
470.59	4730.22
470.77	4875.34
470.95	4802.78
471.14	4922.15
471.32	4966.62
471.50	5238.12
471.68	5081.30
471.86	5294.29
472.04	5118.75
472.22	5263.86
472.40	5013.43
472.58	4898.74
472.77	4833.21
472.95	4978.32
473.13	5177.26
473.31	4905.76
473.49	4919.81
473.67	5172.58
473.85	5280.25
474.03	5298.97
474.21	5268.55
474.39	5411.32
474.57	5467.49
474.75	5437.06
474.93	5343.44
475.12	5102.37
475.30	5238.12
475.48	5195.99
475.66	5235.78
475.84	5132.79
476.02	5146.84
476.20	5153.86
476.38	5160.88
476.56	5387.91
476.74	5238.12
476.92	5591.54
477.10	5533.03
477.28	5720.27
477.46	5621.97
477.64	5603.24
477.82	5547.07
478.00	5830.27
478.18	5753.04
478.36	5575.16
478.54	5767.08
478.72	5755.38
478.90	6083.05
479.08	5977.73
479.26	6153.27
479.44	6052.63
479.62	5996.45
479.80	6050.28
479.98	6136.88
480.16	6134.54
480.34	6078.37
480.52	5987.09
480.70	6256.25
480.88	6087.73
481.06	6214.12
481.24	6143.91
481.41	6225.82
481.59	6494.99
481.77	6729.04
481.95	6408.39
482.13	6434.13
482.31	6502.01
482.49	6670.53
482.67	6520.73
482.85	6494.99
483.03	6576.91
483.21	6981.82
483.39	6675.21
483.57	6544.14
483.74	6637.76
483.92	6506.69
484.10	6698.61
484.28	6944.37
484.46	6836.70
484.64	7059.06
484.82	6794.58
485.00	6696.27
485.18	6649.46
485.35	6595.63
485.53	5959.00
485.71	5664.10
485.89	5448.77
486.07	5729.63
486.25	6064.33
486.43	6459.88
486.61	6523.07
486.78	6675.21
486.96	6682.23
487.14	6815.64
487.32	7014.59
487.50	7192.47
487.68	7470.99
487.85	7494.40
488.03	7569.29
488.21	7428.86
488.39	7382.05
488.57	6960.75
488.75	7068.42
488.92	7456.95
489.10	7822.07
489.28	7995.27
489.46	8074.85
489.64	8152.09
489.81	8205.92
489.99	8173.15
490.17	8102.93
490.35	8294.86
490.53	8145.06
490.70	8093.57
490.88	7894.63
491.06	8114.64
491.24	8203.58
491.41	8077.19
491.59	7744.83
491.77	7576.31
491.95	7517.80
492.13	7838.45
492.30	8198.90
492.48	8306.56
492.66	8514.87
492.84	8519.55
493.01	8442.31
493.19	8386.14
493.37	8280.82
493.54	8112.30
493.72	8255.07
493.90	8355.71
494.08	8751.26
494.25	8961.91
494.43	8938.51
494.61	9060.21
494.79	9128.09
494.96	9137.45
495.14	8826.16
495.32	8685.73
495.49	8615.51
495.67	8734.88
495.85	9160.86
496.02	9217.03
496.20	9228.73
496.38	9011.06
496.55	9018.08
496.73	9046.17
496.91	9221.71
497.09	9420.66
497.26	9493.21
497.44	9062.55
497.62	9006.38
497.79	8933.82
497.97	8564.02
498.14	8662.32
498.32	8945.53
498.50	9186.60
498.67	9352.78
498.85	9394.91
499.03	9273.20
499.20	9294.27
499.38	9418.32
499.56	9188.94
499.73	9167.88
499.91	9053.19
500.08	8851.91
500.26	8573.38
500.44	8856.59
500.61	9067.24
500.79	8940.85
500.97	8786.37
501.14	8655.30
501.32	8678.71
501.49	8615.51
501.67	8645.94
501.84	8938.51
502.02	8905.74
502.20	9233.41
502.37	9039.15
502.55	9039.15
502.72	9174.90
502.90	9460.45
503.07	8945.53
503.25	9163.20
503.43	8627.21
503.60	8334.65
503.78	8205.92
503.95	8245.71
504.13	8702.11
504.30	9020.42
504.48	9329.38
504.65	9018.08
504.83	9200.65
505.01	9348.10
505.18	9352.78
505.36	9490.87
505.53	9764.72
505.71	9841.95
505.88	9912.17
506.06	9479.17
506.23	9502.58
506.41	9144.47
506.58	9378.53
506.76	9448.74
506.93	9366.82
507.11	9118.73
507.28	9249.80
507.46	9090.64
507.63	9104.68
507.81	9029.79
507.98	9298.95
508.16	9160.86
508.33	9291.93
508.50	9790.46
508.68	9741.31
508.85	9778.76
509.03	9860.68
509.20	9755.35
509.38	9631.30
509.55	9357.46
509.73	9392.57
509.90	9673.43
510.08	9682.80
510.25	9493.21
510.42	9605.56
510.60	9469.81
510.77	9724.93
510.95	9668.75
511.12	9895.78
511.30	9799.82
511.47	10281.97
511.64	10155.58
511.82	9888.76
511.99	9863.02
512.17	9643.01
512.34	9357.46
512.51	9357.46
512.69	9453.42
512.86	9610.24
513.04	9628.96
513.21	10038.56
513.38	9785.78
513.56	9624.28
513.73	9231.07
513.90	9303.63
514.08	9392.57
514.25	9666.41
514.43	9570.45
514.60	9598.54
514.77	9603.22
514.95	9610.24
515.12	9542.36
515.29	9610.24
515.47	9619.60
515.64	9804.50
515.81	9958.98
515.99	9619.60
516.16	9273.20
516.33	8524.23
516.51	8191.88
516.68	7932.08
516.85	7836.11
517.03	7927.39
517.20	8454.02
517.37	9242.78
517.54	9678.12
517.72	9614.92
517.89	8812.12
518.06	8177.83
518.24	8313.58
518.41	8809.78
518.58	9004.04
518.75	9022.77
518.93	9451.08
519.10	9214.69
519.27	9387.89
519.45	9565.77
519.62	9762.37
519.79	10036.22
519.96	9748.33
520.14	9729.61
520.31	9378.53
520.48	9376.19
520.65	9366.82
520.83	9839.61
521.00	9902.81
521.17	9856.00
521.34	9879.40
521.52	9760.03
521.69	10019.83
521.86	10038.56
522.03	9928.55
522.20	9664.07
522.38	9158.52
522.55	9146.81
522.72	9509.60
522.89	9542.36
523.07	9427.68
523.24	9659.39
523.41	9790.46
523.58	10031.54
523.75	10214.10
523.92	10178.99
524.10	10200.05
524.27	9975.36
524.44	10150.90
524.61	10267.93
524.78	9881.74
524.96	10031.54
525.13	9848.97
525.30	9982.38
525.47	10312.40
525.64	10368.57
525.81	9886.42
525.98	9607.90
526.16	8875.31
526.33	8903.40
526.50	8713.81
526.67	8374.44
526.84	8629.56
527.01	8931.48
527.18	9303.63
527.36	9320.01
527.53	9809.19
527.70	9891.10
527.87	9661.73
528.04	9596.20
528.21	9685.14
528.38	9982.38
528.55	10190.69
528.72	10448.15
528.89	10434.11
529.07	10244.52
529.24	10139.20
529.41	9865.36
529.58	9738.97
529.75	9544.70
529.92	9898.13
530.09	10153.24
530.26	10296.02
530.43	10162.61
530.60	10225.80
530.77	10473.90
530.94	10321.76
531.11	10415.38
531.28	9987.07
531.46	10094.73
531.63	9919.19
531.80	10209.42
531.97	9954.30
532.14	9689.82
532.31	9430.02
532.48	9165.54
532.65	9114.05
532.82	9170.22
532.99	9816.21
533.16	10047.92
533.33	10003.45
533.50	10258.57
533.67	9741.31
533.84	9647.69
534.01	9788.12
534.18	9809.19
534.35	9745.99
534.52	9837.27
534.69	9947.28
534.86	9977.70
535.03	9980.04
535.20	10319.42
535.37	10267.93
535.54	10518.37
535.71	10211.76
535.88	10139.20
536.05	9844.29
536.22	9860.68
536.38	9776.42
536.55	9614.92
536.72	9577.47
536.89	9280.22
537.06	9481.51
537.23	10202.40
537.40	10017.49
537.57	10148.56
537.74	10040.90
537.91	10022.17
538.08	10160.27
538.25	10047.92
538.42	10118.14
538.59	10270.27
538.75	9853.66
538.92	9626.62
539.09	9860.68
539.26	9720.24
539.43	9612.58
539.60	9727.27
539.77	9783.44
539.94	9984.73
540.11	9563.43
540.28	9408.95
540.44	9701.52
540.61	9647.69
540.78	9940.26
540.95	10153.24
541.12	10665.82
541.29	10700.93
541.46	10642.42
541.62	10661.14
541.79	10682.20
541.96	10534.75
542.13	10448.15
542.30	10380.28
542.47	10546.45
542.63	10539.43
542.80	10504.32
542.97	10324.10
543.14	10162.61
543.31	10115.80
543.48	10272.61
543.64	10806.25
543.81	10658.80
543.98	10775.83
544.15	10717.31
544.32	10389.64
544.48	10235.16
544.65	10345.17
544.82	10595.61
544.99	10443.47
545.16	10291.34
545.32	10249.21
545.49	11349.26
545.66	12416.54
545.83	13357.44
546.00	12954.87
546.16	11513.10
546.33	11166.70
546.50	10604.97
546.67	10487.94
546.83	10328.78
547.00	10314.74
547.17	9944.94
547.34	9802.16
547.50	9881.74
547.67	10047.92
547.84	9919.19
548.00	9811.53
548.17	9968.34
548.34	9994.09
548.51	9982.38
548.67	10122.82
548.84	9916.85
549.01	9966.00
549.18	10003.45
549.34	9895.78
549.51	9799.82
549.68	10054.94
549.84	9804.50
550.01	9596.20
550.18	9720.24
550.34	9748.33
550.51	9617.26
550.68	9654.71
550.84	9525.98
551.01	9502.58
551.18	9724.93
551.34	9397.25
551.51	9764.72
551.68	9879.40
551.84	9832.59
552.01	9722.59
552.18	9593.86
552.34	9362.14
552.51	9231.07
552.68	9207.67
552.84	9462.79
553.01	9460.45
553.18	9561.09
553.34	9528.32
553.51	9418.32
553.67	9411.29
553.84	9598.54
554.01	9701.52
554.17	9476.83
554.34	9277.88
554.51	9523.64
554.67	9556.41
554.84	9635.99
555.00	9425.34
555.17	9418.32
555.33	9408.95
555.50	9177.24
555.67	9310.65
555.83	9441.72
556.00	9114.05
556.16	9191.28
556.33	9186.60
556.50	9015.74
556.66	9135.11
556.83	8908.08
556.99	8856.59
557.16	8968.93
557.32	9338.74
557.49	9090.64
557.65	9029.79
557.82	8840.20
557.98	9195.96
558.15	9025.11
558.32	8807.44
558.48	8367.42
558.65	8407.20
558.81	8688.07
558.98	8669.34
559.14	8739.56
559.31	8610.83
559.47	8713.81
559.64	8760.63
559.80	8713.81
559.97	8592.11
560.13	8624.87
560.30	8964.25
560.46	9043.83
560.63	9135.11
560.79	9057.87
560.96	8933.82
561.12	8704.45
561.29	8699.77
561.45	8524.23
561.61	8765.31
561.78	8716.16
561.94	8674.03
562.11	8641.26
562.27	8772.33
562.44	8875.31
562.60	8772.33
562.77	8849.57
562.93	9006.38
563.10	8987.66
563.26	8760.63
563.42	8842.54
563.59	8641.26
563.75	8762.97
563.92	8444.65
564.08	8489.12
564.24	8802.75
564.41	8589.77
564.57	8762.97
564.74	8828.50
564.90	8699.77
565.07	8641.26
565.23	8512.53
565.39	8351.03
565.56	8189.53
565.72	8201.24
565.88	8217.62
566.05	8278.47
566.21	8348.69
566.38	8353.37
566.54	8355.71
566.70	8826.16
566.87	8540.61
567.03	8549.98
567.19	8545.30
567.36	8250.39
567.52	8262.09
567.68	8332.31
567.85	8114.64
568.01	7946.12
568.17	7985.91
568.34	7819.73
568.50	7723.77
568.66	7676.96
568.83	7751.85
568.99	7845.48
569.15	7882.92
569.32	8112.30
569.48	7845.48
569.64	7852.50
569.81	7829.09
569.97	7871.22
570.13	8013.99
570.30	7822.07
570.46	7653.55
570.62	7747.17
570.78	7548.23
570.95	7618.44
571.11	7712.07
571.27	7740.15
571.43	7997.61
571.60	7756.54
571.76	7906.33
571.92	8112.30
572.09	8116.98
572.25	7878.24
572.41	7838.45
572.57	7903.99
572.74	7843.14
572.90	7915.69
573.06	7960.16
573.22	7955.48
573.38	7793.98
573.55	7648.87
573.71	7981.23
573.87	8013.99
574.03	7566.95
574.20	7737.81
574.36	7637.17
574.52	7751.85
574.68	7672.28
574.84	7719.09
575.01	7499.08
575.17	7438.22
575.33	7583.34
575.49	7672.28
575.65	7674.62
575.82	7349.28
575.98	7639.51
576.14	7693.34
576.30	7885.26
576.46	7918.03
576.62	7927.39
576.79	8245.71
576.95	8142.72
577.11	7850.16
577.27	7815.05
577.43	7793.98
577.59	7665.25
577.75	7578.65
577.92	7447.58
578.08	7405.46
578.24	7370.35
578.40	7295.45
578.56	7676.96
578.72	8004.63
578.88	8203.58
579.04	7953.14
579.21	7875.90
579.37	7789.30
579.53	7751.85
579.69	7875.90
579.85	7964.84
580.01	8088.89
580.17	7791.64
580.33	7662.91
580.49	7646.53
580.65	7871.22
580.82	7812.71
580.98	7662.91
581.14	7723.77
581.30	7791.64
581.46	7693.34
581.62	7637.17
581.78	7801.01
581.94	7784.62
582.10	7765.90
582.26	7868.88
582.42	7927.39
582.58	7761.22
582.74	8152.09
582.90	8016.33
583.06	7850.16
583.22	7967.18
583.38	7943.78
583.54	7892.29
583.70	7927.39
583.86	7857.18
584.02	8023.36
584.18	7981.23
584.34	7808.03
584.50	8002.29
584.66	7716.75
584.82	7550.57
584.98	7573.97
585.14	7527.16
585.30	7550.57
585.46	7487.37
585.62	7288.43
585.78	7389.07
585.94	7410.14
586.10	7637.17
586.26	7360.98
586.42	7646.53
586.58	7655.89
586.74	7702.70
586.90	7613.76
587.06	7707.38
587.22	7595.04
587.38	7428.86
587.54	7222.89
587.70	7042.67
587.86	6754.79
588.02	6572.22
588.18	6534.78
588.34	6146.25
588.49	5849.00
588.65	5462.81
588.81	5343.44
588.97	5352.81
589.13	5533.03
589.29	5322.38
589.45	5352.81
589.61	5338.76
589.77	5596.22
589.93	5832.62
590.08	5963.68
590.24	6094.76
590.40	6214.12
590.56	6277.32
590.72	6090.07
590.88	6125.18
591.04	6101.78
591.20	6076.03
591.35	6216.46
591.51	6115.82
591.67	6125.18
591.83	6085.39
591.99	5973.05
592.15	6181.35
592.31	6347.53
592.46	6340.51
592.62	6649.46
592.78	6567.54
592.94	6715.00
593.10	6656.48
593.26	6668.19
593.41	6949.05
593.57	6579.25
593.73	6291.36
593.89	6167.31
594.05	5830.27
594.20	5809.21
594.36	5628.99
594.52	5652.39
594.68	5898.15
594.84	6024.54
594.99	6333.49
595.15	6207.10
595.31	6083.05
595.47	6420.09
595.62	6174.33
595.78	6443.49
595.94	6516.05
596.10	6494.99
596.25	6373.28
