SpectraSuite Data File
++++++++++++++++++++++++++++++++++++
Date: Fri Oct 04 11:44:15 GMT-05:00 2013
User: price-jones
Dark Spectrum Present: No
Reference Spectrum Present: No
Number of Sampled Component Spectra: 1
Spectrometers: USB2+H05261
Integration Time (usec): 100000 (USB2+H05261)
Spectra Averaged: 1 (USB2+H05261)
Boxcar Smoothing: 0 (USB2+H05261)
Correct for Electrical Dark: No (USB2+H05261)
Strobe/Lamp Enabled: No (USB2+H05261)
Correct for Detector Non-linearity: No (USB2+H05261)
Correct for Stray Light: No (USB2+H05261)
Number of Pixels in Processed Spectrum: 2048
>>>>>Begin Processed Spectral Data<<<<<
365.73	0.00
365.92	0.00
366.12	0.00
366.32	0.00
366.52	0.00
366.72	42.13
366.91	0.00
367.11	0.00
367.31	0.00
367.51	0.00
367.70	0.00
367.90	0.00
368.10	0.00
368.30	0.00
368.49	0.00
368.69	0.00
368.89	0.00
369.09	0.00
369.28	0.00
369.48	0.00
369.68	2.34
369.87	0.00
370.07	0.00
370.27	0.00
370.47	121.71
370.66	451.72
370.86	575.77
371.06	603.86
371.25	667.05
371.45	601.52
371.65	610.88
371.84	571.09
372.04	566.41
372.24	674.07
372.44	671.73
372.63	622.58
372.83	564.07
373.03	475.13
373.22	519.60
373.42	519.60
373.62	603.86
373.81	671.73
374.01	622.58
374.21	547.69
374.40	589.82
374.60	641.31
374.79	620.24
374.99	725.57
375.19	645.99
375.38	802.80
375.58	690.46
375.78	765.36
375.97	713.86
376.17	744.29
376.37	786.42
376.56	734.93
376.76	798.12
376.95	812.17
377.15	926.85
377.35	842.59
377.54	940.90
377.74	875.36
377.93	950.26
378.13	947.92
378.33	971.32
378.52	821.53
378.72	828.55
378.91	795.78
379.11	685.78
379.31	779.40
379.50	788.76
379.70	840.25
379.89	884.72
380.09	924.51
380.28	851.96
380.48	976.00
380.68	896.43
380.87	880.04
381.07	826.21
381.26	861.32
381.46	760.67
381.65	697.48
381.85	695.14
382.04	685.78
382.24	664.71
382.43	535.98
382.63	524.28
382.83	655.35
383.02	580.45
383.22	631.94
383.41	638.97
383.61	627.26
383.80	690.46
384.00	772.38
384.19	887.06
384.39	910.47
384.58	882.38
384.78	772.38
384.97	779.40
385.17	931.53
385.36	718.54
385.56	781.74
385.75	849.61
385.95	863.66
386.14	922.17
386.34	854.30
386.53	971.32
386.72	882.38
386.92	805.14
387.11	891.74
387.31	983.02
387.50	828.55
387.70	924.51
387.89	924.51
388.09	863.66
388.28	777.06
388.48	908.13
388.67	889.40
388.86	968.98
389.06	1074.31
389.25	1132.82
389.45	1151.54
389.64	1146.86
389.84	1142.18
390.03	1170.27
390.22	1109.41
390.42	1252.19
390.61	1219.42
390.81	1226.44
391.00	1306.02
391.19	1359.85
391.39	1186.65
391.58	1235.80
391.78	1203.04
391.97	1116.44
392.16	1022.81
392.36	919.83
392.55	816.85
392.75	603.86
392.94	535.98
393.13	575.77
393.33	596.84
393.52	772.38
393.71	924.51
393.91	1041.54
394.10	1142.18
394.29	1233.46
394.49	1247.51
394.68	1366.87
394.88	1399.64
395.07	1399.64
395.26	1380.92
395.46	1320.06
395.65	1259.21
395.84	1132.82
396.04	1088.35
396.23	856.64
396.42	784.08
396.62	739.61
396.81	770.04
397.00	1001.75
397.19	1240.48
397.39	1247.51
397.58	1500.28
397.77	1540.07
397.97	1657.10
398.16	1724.97
398.35	1689.87
398.55	1717.95
398.74	1724.97
398.93	1809.23
399.12	1846.68
399.32	1701.57
399.51	1823.28
399.70	1966.05
399.90	1795.19
400.09	1895.83
400.28	1933.28
400.47	1930.94
400.67	1963.71
400.86	2031.58
401.05	2019.88
401.24	1947.33
401.44	2071.37
401.63	2155.63
401.82	2097.12
402.01	1975.41
402.21	2008.18
402.40	2122.87
402.59	2092.44
402.78	1977.75
402.97	1832.64
403.17	2066.69
403.36	2150.95
403.55	2172.02
403.74	2085.42
403.93	2080.74
404.13	2073.71
404.32	2008.18
404.51	2179.04
404.70	2202.44
404.89	2111.16
405.09	2169.68
405.28	1973.07
405.47	1956.69
405.66	2019.88
405.85	1916.90
406.05	1877.11
406.24	1942.64
406.43	1963.71
406.62	2076.06
406.81	2078.40
407.00	1949.67
407.20	2062.01
407.39	2099.46
407.58	2087.76
407.77	2141.59
407.96	2256.28
408.15	2286.70
408.34	2160.31
408.54	2366.28
408.73	2370.96
408.92	2359.26
409.11	2260.96
409.30	2216.49
409.49	2050.31
409.68	1900.52
409.87	1804.55
410.07	2045.63
410.26	2033.93
410.45	2214.15
410.64	2272.66
410.83	2438.84
411.02	2352.24
411.21	2558.21
411.40	2296.07
411.59	2462.24
411.78	2385.01
411.98	2377.98
412.17	2366.28
412.36	2326.49
412.55	2373.30
412.74	2375.64
412.93	2312.45
413.12	2382.67
413.31	2614.38
413.50	2565.23
413.69	2539.48
413.88	2464.58
414.07	2485.65
414.26	2333.51
414.45	2502.03
414.64	2583.95
414.83	2574.59
415.02	2621.40
415.22	2476.29
415.41	2534.80
415.60	2665.87
415.79	2565.23
415.98	2738.43
416.17	2822.69
416.36	2649.49
416.55	2595.65
416.74	2717.36
416.93	2541.82
417.12	2394.37
417.31	2619.06
417.50	2588.63
417.69	2691.62
417.88	2565.23
418.07	2541.82
418.26	2546.50
418.45	2530.12
418.64	2738.43
418.83	2792.26
419.02	2698.64
419.21	2729.06
419.39	2607.36
419.58	2583.95
419.77	2544.16
419.96	2619.06
420.15	2808.64
420.34	2717.36
420.53	2981.84
420.72	2949.08
420.91	2846.09
421.10	2902.26
421.29	2827.37
421.48	2743.11
421.67	2850.77
421.86	2759.49
422.05	2583.95
422.24	2349.90
422.43	2385.01
422.61	2509.05
422.80	2775.88
422.99	2869.50
423.18	2768.85
423.37	2719.70
423.56	2750.13
423.75	2686.94
423.94	2715.02
424.13	2616.72
424.32	2569.91
424.50	2670.55
424.69	2663.53
424.88	2700.98
425.07	2597.99
425.26	2649.49
425.45	2530.12
425.64	2495.01
425.83	2551.18
426.01	2656.51
426.20	2684.59
426.39	2794.60
426.58	2565.23
426.77	2392.03
426.96	2307.77
427.15	2312.45
427.33	2394.37
427.52	2511.39
427.71	2614.38
427.90	2562.89
428.09	2686.94
428.28	2544.16
428.46	2408.41
428.65	2385.01
428.84	2558.21
429.03	2541.82
429.22	2342.88
429.40	2363.94
429.59	2080.74
429.78	1947.33
429.97	1867.75
430.16	1928.60
430.34	1912.22
430.53	1825.62
430.72	1874.77
430.91	2162.66
431.10	2445.86
431.28	2743.11
431.47	3014.61
431.66	2878.86
431.85	2820.35
432.03	2520.76
432.22	2583.95
432.41	2551.18
432.60	2857.79
432.79	2949.08
432.97	2960.78
433.16	2995.89
433.35	2693.96
433.54	2394.37
433.72	2558.21
433.91	2434.16
434.10	2609.70
434.28	2761.83
434.47	2991.20
434.66	2923.33
434.85	2794.60
435.03	3056.74
435.22	3335.26
435.41	3873.59
435.59	4081.89
435.78	3861.88
435.97	3332.92
436.16	3400.80
436.34	3131.64
436.53	3066.10
436.72	3089.51
436.90	2988.86
437.09	2958.44
437.28	2836.73
437.46	3068.44
437.65	2981.84
437.84	2913.97
438.02	2686.94
438.21	2698.64
438.40	2626.08
438.58	2792.26
438.77	2892.90
438.96	3028.65
439.14	3117.59
439.33	3143.34
439.52	3206.53
439.70	2965.46
439.89	3080.14
440.08	3075.46
440.26	3115.25
440.45	3141.00
440.63	3314.20
440.82	3461.65
441.01	3379.73
441.19	3389.10
441.38	3368.03
441.57	3468.67
441.75	3531.87
441.94	3508.46
442.12	3550.59
442.31	3665.28
442.50	3487.40
442.68	3534.21
442.87	3421.86
443.05	3517.83
443.24	3517.83
443.43	3384.41
443.61	3585.70
443.80	3599.74
443.98	3400.80
444.17	3550.59
444.35	3623.15
444.54	3719.11
444.73	3604.42
444.91	3609.11
445.10	3396.12
445.28	3265.05
445.47	3187.81
445.65	3185.47
445.84	3295.47
446.02	3379.73
446.21	3508.46
446.39	3471.01
446.58	3475.70
446.77	3616.13
446.95	3693.37
447.14	3691.02
447.32	3885.29
447.51	3894.65
447.69	3588.04
447.88	3515.48
448.06	3672.30
448.25	3763.58
448.43	3733.15
448.62	3543.57
448.80	3630.17
448.99	3669.96
449.17	3475.70
449.36	3520.17
449.54	3808.05
449.73	3934.44
449.91	3882.95
450.10	3950.82
450.28	3981.25
450.46	3953.16
450.65	3995.29
450.83	3901.67
451.02	3826.78
451.20	3978.91
451.39	3946.14
451.57	3915.72
451.76	3845.50
451.94	3822.09
452.13	3751.88
452.31	3592.72
452.49	3435.91
452.68	3466.33
452.86	3545.91
453.05	3466.33
453.23	3524.85
453.42	3665.28
453.60	3714.43
453.78	3691.02
453.97	3857.20
454.15	3819.75
454.34	3735.50
454.52	3772.94
454.70	3644.21
454.89	3691.02
455.07	3796.35
455.26	3779.97
455.44	3892.31
455.62	3826.78
455.81	3950.82
455.99	3875.93
456.17	3880.61
456.36	4042.11
456.54	3859.54
456.73	4004.66
456.91	4014.02
457.09	4046.79
457.28	4105.30
457.46	4095.94
457.64	4009.34
457.83	3866.56
458.01	3847.84
458.19	4025.72
458.38	3948.48
458.56	3960.19
458.74	3981.25
458.93	4042.11
459.11	3925.08
459.29	3808.05
459.48	3962.53
459.66	3927.42
459.84	3955.51
460.03	4079.55
460.21	4035.08
460.39	4049.13
460.57	4060.83
460.76	4149.77
460.94	4065.51
461.12	4002.32
461.31	4023.38
461.49	4166.15
461.67	4121.68
461.85	4212.96
462.04	4187.22
462.22	4643.62
462.40	4182.54
462.59	4196.58
462.77	4145.09
462.95	4086.58
463.13	4004.66
463.32	4147.43
463.50	4023.38
463.68	4070.19
463.86	4051.47
464.05	3974.23
464.23	3953.16
464.41	3906.35
464.59	3779.97
464.78	3941.46
464.96	3969.55
465.14	3812.73
465.32	3962.53
465.50	4217.65
465.69	4145.09
465.87	4018.70
466.05	4081.89
466.23	3896.99
466.41	3611.45
466.60	3871.25
466.78	3892.31
466.96	3852.52
467.14	3967.21
467.32	4126.36
467.51	4067.85
467.69	3782.31
467.87	3920.40
468.05	3875.93
468.23	3925.08
468.41	3995.29
468.60	3957.85
468.78	3836.14
468.96	3992.95
469.14	3999.98
469.32	3990.61
469.50	3822.09
469.69	4014.02
469.87	3962.53
470.05	3803.37
470.23	3840.82
470.41	3845.50
470.59	3918.06
470.77	3922.74
470.95	3934.44
471.14	4241.05
471.32	4028.06
471.50	4292.54
471.68	4182.54
471.86	4348.72
472.04	4238.71
472.22	4489.15
472.40	4114.66
472.58	3997.64
472.77	4007.00
472.95	4107.64
473.13	4353.40
473.31	4177.86
473.49	4166.15
473.67	4170.83
473.85	4273.82
474.03	4411.91
474.21	4409.57
474.39	4329.99
474.57	4376.80
474.75	4386.16
474.93	4383.82
475.12	4346.37
475.30	4376.80
475.48	4273.82
475.66	4325.31
475.84	4285.52
476.02	4269.14
476.20	4187.22
476.38	4131.05
476.56	4489.15
476.74	4578.09
476.92	4554.68
477.10	4521.92
477.28	4709.16
477.46	4643.62
477.64	4784.06
477.82	4739.58
478.00	4716.18
478.18	4617.88
478.36	4772.35
478.54	4594.47
478.72	4751.29
478.90	4812.14
479.08	5088.32
479.26	5135.14
479.44	4994.70
479.62	5076.62
479.80	4821.50
479.98	4917.47
480.16	5123.43
480.34	5083.64
480.52	4980.66
480.70	5008.75
480.88	5036.83
481.06	5111.73
481.24	5118.75
481.41	5493.24
481.59	5287.27
481.77	5289.61
481.95	5336.42
482.13	5259.18
482.31	5338.76
482.49	5577.50
482.67	5327.06
482.85	5444.09
483.03	5451.11
483.21	5577.50
483.39	5636.01
483.57	5472.17
483.74	5472.17
483.92	5437.06
484.10	5455.79
484.28	5533.03
484.46	5703.89
484.64	5605.58
484.82	5521.32
485.00	5495.58
485.18	5380.89
485.35	5261.52
485.53	4910.44
485.71	4568.73
485.89	4449.36
486.07	4713.84
486.25	4994.70
486.43	5249.82
486.61	5277.91
486.78	5500.26
486.96	5371.53
487.14	5584.52
487.32	5610.26
487.50	5902.83
487.68	6118.16
487.85	6193.06
488.03	6200.08
488.21	6043.26
488.39	5802.19
488.57	5678.14
488.75	5872.40
488.92	6179.01
489.10	6389.66
489.28	6619.04
489.46	6761.81
489.64	6590.95
489.81	6621.38
489.99	6504.35
490.17	6607.33
490.35	6906.92
490.53	6661.16
490.70	6499.67
490.88	6541.80
491.06	6689.25
491.24	6764.15
491.41	6431.79
491.59	6424.77
491.77	6118.16
491.95	6345.19
492.13	6572.22
492.30	6773.51
492.48	6761.81
492.66	7033.31
492.84	6930.33
493.01	7110.55
493.19	6771.17
493.37	6932.67
493.54	6670.53
493.72	6572.22
493.90	7108.21
494.08	7091.82
494.25	7295.45
494.43	7248.64
494.61	7562.27
494.79	7316.51
494.96	7396.09
495.14	7241.62
495.32	7040.33
495.49	6813.30
495.67	7140.97
495.85	7265.02
496.02	7433.54
496.20	7466.31
496.38	7522.48
496.55	7323.54
496.73	7602.06
496.91	7632.49
497.09	7744.83
497.26	7817.39
497.44	7571.63
497.62	7543.55
497.79	7393.75
497.97	6888.20
498.14	7176.08
498.32	7267.36
498.50	7494.40
498.67	7667.60
498.85	7545.89
499.03	7562.27
499.20	7644.19
499.38	7590.36
499.56	7581.00
499.73	7618.44
499.91	7449.93
500.08	7478.01
500.26	7040.33
500.44	7087.14
500.61	7428.86
500.79	7421.84
500.97	7325.88
501.14	7375.03
501.32	7091.82
501.49	7178.42
501.67	7098.84
501.84	7297.79
502.02	7351.62
502.20	7545.89
502.37	7449.93
502.55	7405.46
502.72	7616.10
502.90	7588.02
503.07	7323.54
503.25	7250.98
503.43	7246.30
503.60	7009.90
503.78	6867.13
503.95	6885.86
504.13	7300.13
504.30	7447.58
504.48	7637.17
504.65	7632.49
504.83	7506.10
505.01	7740.15
505.18	7662.91
505.36	7751.85
505.53	7871.22
505.71	7747.17
505.88	8004.63
506.06	7957.82
506.23	7838.45
506.41	7590.36
506.58	7536.52
506.76	7555.25
506.93	7595.04
507.11	7531.84
507.28	7552.91
507.46	7262.68
507.63	7339.92
507.81	7307.15
507.98	7335.24
508.16	7625.47
508.33	7688.66
508.50	7901.65
508.68	8060.80
508.85	8070.17
509.03	8091.23
509.20	7962.50
509.38	7866.54
509.55	7758.88
509.73	7686.32
509.90	7772.92
510.08	7962.50
510.25	7934.42
510.42	7728.45
510.60	7805.69
510.77	7962.50
510.95	8035.06
511.12	8138.04
511.30	8184.85
511.47	8215.28
511.64	8285.50
511.82	8084.21
511.99	8182.51
512.17	7981.23
512.34	7765.90
512.51	7999.95
512.69	7918.03
512.86	7801.01
513.04	7967.18
513.21	8147.40
513.38	7918.03
513.56	7707.38
513.73	7730.79
513.90	7688.66
514.08	7871.22
514.25	7918.03
514.43	7698.02
514.60	7817.39
514.77	8044.42
514.95	7896.97
515.12	8035.06
515.29	7843.14
515.47	8105.28
515.64	8168.47
515.81	7971.86
515.99	7911.01
516.16	7386.73
516.33	6953.73
516.51	6607.33
516.68	6654.14
516.85	6377.96
517.03	6476.26
517.20	6785.21
517.37	7761.22
517.54	7756.54
517.72	7822.07
517.89	7349.28
518.06	6595.63
518.24	6869.47
518.41	7414.82
518.58	7536.52
518.75	7449.93
518.93	7625.47
519.10	7552.91
519.27	7604.40
519.45	8028.04
519.62	7819.73
519.79	8098.25
519.96	7925.05
520.14	7896.97
520.31	7637.17
520.48	7726.11
520.65	7716.75
520.83	8086.55
521.00	8021.02
521.17	8063.15
521.34	8011.65
521.52	8056.12
521.69	8079.53
521.86	8266.77
522.03	8170.81
522.20	8046.76
522.38	7564.61
522.55	7552.91
522.72	7693.34
522.89	7896.97
523.07	7908.67
523.24	8042.08
523.41	8070.17
523.58	8306.56
523.75	8404.86
523.92	8496.14
524.10	8315.92
524.27	8369.76
524.44	8210.60
524.61	8283.16
524.78	8149.75
524.96	8035.06
525.13	8243.37
525.30	8142.72
525.47	8365.07
525.64	8444.65
525.81	8222.30
525.98	7588.02
526.16	7534.18
526.33	7148.00
526.50	7199.49
526.67	6841.39
526.84	7229.91
527.01	7253.32
527.18	7475.67
527.36	7716.75
527.53	8049.10
527.70	8243.37
527.87	7960.16
528.04	7978.89
528.21	7871.22
528.38	8257.41
528.55	8294.86
528.72	8430.61
528.89	8519.55
529.07	8414.23
529.24	8219.96
529.41	8077.19
529.58	7733.13
529.75	7822.07
529.92	8145.06
530.09	8198.90
530.26	8301.88
530.43	8451.67
530.60	8484.44
530.77	8578.06
530.94	8461.04
531.11	8432.95
531.28	8311.24
531.46	8196.56
531.63	8358.05
531.80	8257.41
531.97	8131.02
532.14	7852.50
532.31	7597.38
532.48	7426.52
532.65	7506.10
532.82	7597.38
532.99	7903.99
533.16	7880.58
533.33	8175.49
533.50	8224.64
533.67	8053.78
533.84	7929.74
534.01	8035.06
534.18	8088.89
534.35	8081.87
534.52	7934.42
534.69	8177.83
534.86	8205.92
535.03	8362.73
535.20	8365.07
535.37	8498.49
535.54	8599.13
535.71	8341.67
535.88	8360.39
536.05	8290.18
536.22	8210.60
536.38	8044.42
536.55	7915.69
536.72	7819.73
536.89	7707.38
537.06	7911.01
537.23	8072.51
537.40	8081.87
537.57	8257.41
537.74	8292.52
537.91	8402.52
538.08	8224.64
538.25	8205.92
538.42	8208.26
538.59	8353.37
538.75	8173.15
538.92	8074.85
539.09	8159.11
539.26	8023.36
539.43	8166.13
539.60	8149.75
539.77	8051.44
539.94	7969.52
540.11	7793.98
540.28	7782.28
540.44	7936.76
540.61	7969.52
540.78	8086.55
540.95	8098.25
541.12	8353.37
541.29	8613.17
541.46	8720.84
541.62	8531.25
541.79	8549.98
541.96	8404.86
542.13	8507.85
542.30	8557.00
542.47	8606.15
542.63	8521.89
542.80	8477.42
542.97	8444.65
543.14	8395.50
543.31	8390.82
543.48	8526.57
543.64	8620.19
543.81	8844.88
543.98	8812.12
544.15	8781.69
544.32	8294.86
544.48	8409.54
544.65	8449.33
544.82	8601.47
544.99	8524.23
545.16	8301.88
545.32	8329.97
545.49	8954.89
545.66	10033.88
545.83	10586.24
546.00	9944.94
546.16	9242.78
546.33	8954.89
546.50	8697.43
546.67	8557.00
546.83	8346.35
547.00	8365.07
547.17	8138.04
547.34	7911.01
547.50	7950.80
547.67	8177.83
547.84	8135.70
548.00	8065.49
548.17	8285.50
548.34	8032.72
548.51	8276.13
548.67	8299.54
548.84	8266.77
549.01	8226.98
549.18	8269.11
549.34	8023.36
549.51	8173.15
549.68	7918.03
549.84	8063.15
550.01	8039.74
550.18	7981.23
550.34	7992.93
550.51	7983.57
550.68	8006.97
550.84	7740.15
551.01	7733.13
551.18	7658.23
551.34	7709.72
551.51	7903.99
551.68	8039.74
551.84	8046.76
552.01	7789.30
552.18	8016.33
552.34	7709.72
552.51	7555.25
552.68	7599.72
552.84	7578.65
553.01	7798.66
553.18	7693.34
553.34	7859.52
553.51	7782.28
553.67	7976.55
553.84	7957.82
554.01	7833.77
554.17	7801.01
554.34	7878.24
554.51	7702.70
554.67	7934.42
554.84	7864.20
555.00	7674.62
555.17	7747.17
555.33	7543.55
555.50	7569.29
555.67	7658.23
555.83	7655.89
556.00	7433.54
556.16	7751.85
556.33	7475.67
556.50	7421.84
556.66	7602.06
556.83	7363.33
556.99	7398.43
557.16	7499.08
557.32	7393.75
557.49	7311.83
557.65	7316.51
557.82	7447.58
557.98	7417.16
558.15	7456.95
558.32	7126.93
558.48	7061.40
558.65	6829.68
558.81	6885.86
558.98	6937.35
559.14	7173.74
559.31	7138.63
559.47	7239.28
559.64	7133.95
559.80	7033.31
559.97	6974.80
560.13	7164.38
560.30	7304.81
560.46	7489.71
560.63	7597.38
560.79	7452.27
560.96	7449.93
561.12	7351.62
561.29	6995.86
561.45	7192.47
561.61	7119.91
561.78	7398.43
561.94	7220.55
562.11	7260.34
562.27	7222.89
562.44	7314.17
562.60	7255.66
562.77	7375.03
562.93	7351.62
563.10	7456.95
563.26	7232.26
563.42	7290.77
563.59	7138.63
563.75	7042.67
563.92	7201.83
564.08	7187.79
564.24	7145.66
564.41	7164.38
564.57	7201.83
564.74	7241.62
564.90	7049.69
565.07	7042.67
565.23	7035.65
565.39	6836.70
565.56	6810.96
565.72	6703.29
565.88	6815.64
566.05	6902.24
566.21	6803.94
566.38	6825.00
566.54	6878.83
566.70	7084.80
566.87	7094.16
567.03	7033.31
567.19	7042.67
567.36	7129.27
567.52	6733.72
567.68	6700.95
567.85	6630.74
568.01	6497.33
568.17	6546.48
568.34	6499.67
568.50	6328.81
568.66	6310.08
568.83	6663.51
568.99	6408.39
569.15	6619.04
569.32	6623.72
569.48	6410.73
569.64	6457.54
569.81	6415.41
569.97	6429.45
570.13	6562.86
570.30	6583.93
570.46	6328.81
570.62	6312.42
570.78	6148.59
570.95	6235.19
571.11	6399.02
571.27	6289.02
571.43	6406.05
571.60	6415.41
571.76	6518.39
571.92	6483.28
572.09	6626.06
572.25	6548.82
572.41	6614.35
572.57	6455.20
572.74	6551.16
572.90	6300.72
573.06	6506.69
573.22	6537.12
573.38	6555.84
573.55	6415.41
573.71	6537.12
573.87	6644.78
574.03	6562.86
574.20	6326.47
574.36	6569.88
574.52	6338.17
574.68	6200.08
574.84	6359.24
575.01	6448.18
575.17	6246.89
575.33	6382.64
575.49	6141.57
575.65	6092.41
575.82	6293.70
575.98	6373.28
576.14	6307.74
576.30	6476.26
576.46	6516.05
576.62	6736.06
576.79	6803.94
576.95	6595.63
577.11	6490.31
577.27	6497.33
577.43	6406.05
577.59	6267.95
577.75	6251.57
577.92	6162.63
578.08	5923.90
578.24	6066.67
578.40	6251.57
578.56	6321.79
578.72	6609.67
578.88	6548.82
579.04	6546.48
579.21	6677.55
579.37	6380.30
579.53	6607.33
579.69	6389.66
579.85	6609.67
580.01	6502.01
580.17	6487.96
580.33	6319.45
580.49	6310.08
580.65	6438.81
580.82	6363.92
580.98	6445.84
581.14	6228.17
581.30	6319.45
581.46	6410.73
581.62	6267.95
581.78	6424.77
581.94	6597.97
582.10	6417.75
582.26	6520.73
582.42	6504.35
582.58	6661.16
582.74	6600.31
582.90	6504.35
583.06	6464.56
583.22	6448.18
583.38	6480.94
583.54	6328.81
583.70	6583.93
583.86	6544.14
584.02	6370.94
584.18	6490.31
584.34	6427.11
584.50	6506.69
584.66	6319.45
584.82	6338.17
584.98	6293.70
585.14	6256.25
585.30	6139.23
585.46	6113.48
585.62	6078.37
585.78	5944.96
585.94	6221.14
586.10	6129.86
586.26	6094.76
586.42	6104.12
586.58	6263.27
586.74	6108.80
586.90	6148.59
587.06	6216.46
587.22	6106.46
587.38	6012.84
587.54	6008.16
587.70	5741.33
587.86	5540.05
588.02	5324.72
588.18	5282.59
588.34	5048.54
588.49	4737.24
588.65	4465.74
588.81	4313.61
588.97	4421.27
589.13	4404.89
589.29	4477.44
589.45	4273.82
589.61	4470.42
589.77	4454.04
589.93	4753.63
590.08	4975.98
590.24	5245.14
590.40	5277.91
590.56	5184.29
590.72	5102.37
590.88	5116.41
591.04	5074.28
591.20	5097.69
591.35	5095.35
591.51	4994.70
591.67	4987.68
591.83	4978.32
591.99	5020.45
592.15	5064.92
592.31	5179.61
592.46	5301.31
592.62	5313.02
592.78	5493.24
592.94	5423.02
593.10	5537.71
593.26	5483.88
593.41	5535.37
593.57	5392.59
593.73	5088.32
593.89	5160.88
594.05	4873.00
594.20	4816.82
594.36	4716.18
594.52	4667.03
594.68	4727.88
594.84	4819.16
594.99	5057.90
595.15	5200.67
595.31	5046.20
595.47	5198.33
595.62	5022.79
595.78	5416.00
595.94	5481.53
596.10	5341.10
596.25	5233.44
596.41	5186.63
596.57	4971.30
596.73	5149.18
596.88	5373.87
597.04	5298.97
597.20	5268.55
597.36	5097.69
597.51	5107.05
