SpectraSuite Data File
++++++++++++++++++++++++++++++++++++
Date: Fri Oct 04 11:44:28 GMT-05:00 2013
User: price-jones
Dark Spectrum Present: No
Reference Spectrum Present: No
Number of Sampled Component Spectra: 1
Spectrometers: USB2+H05261
Integration Time (usec): 100000 (USB2+H05261)
Spectra Averaged: 1 (USB2+H05261)
Boxcar Smoothing: 0 (USB2+H05261)
Correct for Electrical Dark: No (USB2+H05261)
Strobe/Lamp Enabled: No (USB2+H05261)
Correct for Detector Non-linearity: No (USB2+H05261)
Correct for Stray Light: No (USB2+H05261)
Number of Pixels in Processed Spectrum: 2048
>>>>>Begin Processed Spectral Data<<<<<
365.73	65.54
365.92	65.54
366.12	65.54
366.32	0.00
366.52	0.00
366.72	0.00
366.91	0.00
367.11	0.00
367.31	0.00
367.51	0.00
367.70	0.00
367.90	0.00
368.10	0.00
368.30	0.00
368.49	0.00
368.69	0.00
368.89	0.00
369.09	0.00
369.28	0.00
369.48	0.00
369.68	53.83
369.87	63.19
370.07	0.00
370.27	32.77
370.47	58.51
370.66	2.34
370.86	42.13
371.06	56.17
371.25	51.49
371.45	42.13
371.65	9.36
371.84	25.75
372.04	72.56
372.24	46.81
372.44	105.32
372.63	110.01
372.83	65.54
373.03	142.77
373.22	67.88
373.42	60.85
373.62	86.60
373.81	138.09
374.01	154.48
374.21	79.58
374.40	173.20
374.60	156.82
374.79	91.28
374.99	121.71
375.19	126.39
375.38	145.11
375.58	112.35
375.78	189.58
375.97	140.43
376.17	173.20
376.37	142.77
376.56	117.03
376.76	163.84
376.95	95.96
377.15	114.69
377.35	177.88
377.54	28.09
377.74	56.17
377.93	58.51
378.13	121.71
378.33	175.54
378.52	93.62
378.72	93.62
378.91	58.51
379.11	100.64
379.31	121.71
379.50	79.58
379.70	105.32
379.89	131.07
380.09	70.22
380.28	86.60
380.48	44.47
380.68	100.64
380.87	91.28
381.07	110.01
381.26	102.98
381.46	114.69
381.65	215.33
381.85	93.62
382.04	98.30
382.24	154.48
382.43	67.88
382.63	100.64
382.83	2.34
383.02	77.24
383.22	117.03
383.41	72.56
383.61	79.58
383.80	163.84
384.00	37.45
384.19	95.96
384.39	53.83
384.58	124.05
384.78	154.48
384.97	91.28
385.17	100.64
385.36	110.01
385.56	138.09
385.75	23.41
385.95	121.71
386.14	98.30
386.34	35.11
386.53	131.07
386.72	93.62
386.92	86.60
387.11	138.09
387.31	121.71
387.50	117.03
387.70	88.94
387.89	166.18
388.09	67.88
388.28	32.77
388.48	98.30
388.67	60.85
388.86	149.79
389.06	119.37
389.25	84.26
389.45	194.26
389.64	189.58
389.84	184.90
390.03	161.50
390.22	63.19
390.42	100.64
390.61	133.41
390.81	58.51
391.00	126.39
391.19	128.73
391.39	114.69
391.58	84.26
391.78	124.05
391.97	100.64
392.16	128.73
392.36	198.95
392.55	93.62
392.75	126.39
392.94	70.22
393.13	166.18
393.33	81.92
393.52	91.28
393.71	110.01
393.91	161.50
394.10	124.05
394.29	161.50
394.49	74.90
394.68	154.48
394.88	91.28
395.07	156.82
395.26	149.79
395.46	60.85
395.65	154.48
395.84	107.66
396.04	152.13
396.23	51.49
396.42	131.07
396.62	138.09
396.81	124.05
397.00	86.60
397.19	98.30
397.39	140.43
397.58	102.98
397.77	44.47
397.97	65.54
398.16	93.62
398.35	112.35
398.55	46.81
398.74	102.98
398.93	180.22
399.12	91.28
399.32	147.45
399.51	46.81
399.70	102.98
399.90	112.35
400.09	46.81
400.28	65.54
400.47	11.70
400.67	154.48
400.86	81.92
401.05	67.88
401.24	98.30
401.44	49.15
401.63	149.79
401.82	149.79
402.01	102.98
402.21	187.24
402.40	128.73
402.59	138.09
402.78	175.54
402.97	142.77
403.17	93.62
403.36	65.54
403.55	79.58
403.74	159.16
403.93	180.22
404.13	170.86
404.32	187.24
404.51	154.48
404.70	220.01
404.89	168.52
405.09	133.41
405.28	95.96
405.47	79.58
405.66	142.77
405.85	133.41
406.05	105.32
406.24	117.03
406.43	159.16
406.62	145.11
406.81	88.94
407.00	133.41
407.20	180.22
407.39	163.84
407.58	194.26
407.77	203.63
407.96	198.95
408.15	119.37
408.34	170.86
408.54	133.41
408.73	145.11
408.92	147.45
409.11	175.54
409.30	126.39
409.49	114.69
409.68	182.56
409.87	154.48
410.07	74.90
410.26	142.77
410.45	140.43
410.64	145.11
410.83	117.03
411.02	133.41
411.21	131.07
411.40	175.54
411.59	175.54
411.78	121.71
411.98	84.26
412.17	152.13
412.36	121.71
412.55	117.03
412.74	170.86
412.93	212.99
413.12	110.01
413.31	131.07
413.50	189.58
413.69	117.03
413.88	175.54
414.07	154.48
414.26	135.75
414.45	149.79
414.64	149.79
414.83	180.22
415.02	135.75
415.22	95.96
415.41	117.03
415.60	110.01
415.79	147.45
415.98	135.75
416.17	131.07
416.36	81.92
416.55	187.24
416.74	135.75
416.93	161.50
417.12	128.73
417.31	128.73
417.50	220.01
417.69	159.16
417.88	138.09
418.07	88.94
418.26	133.41
418.45	140.43
418.64	212.99
418.83	198.95
419.02	161.50
419.21	189.58
419.39	187.24
419.58	163.84
419.77	184.90
419.96	168.52
420.15	110.01
420.34	133.41
420.53	133.41
420.72	152.13
420.91	145.11
421.10	142.77
421.29	124.05
421.48	124.05
421.67	149.79
421.86	95.96
422.05	51.49
422.24	163.84
422.43	189.58
422.61	189.58
422.80	142.77
422.99	159.16
423.18	180.22
423.37	191.92
423.56	124.05
423.75	170.86
423.94	88.94
424.13	166.18
424.32	170.86
424.50	147.45
424.69	180.22
424.88	177.88
425.07	133.41
425.26	210.65
425.45	205.97
425.64	170.86
425.83	91.28
426.01	154.48
426.20	170.86
426.39	145.11
426.58	180.22
426.77	147.45
426.96	189.58
427.15	159.16
427.33	117.03
427.52	154.48
427.71	67.88
427.90	149.79
428.09	163.84
428.28	121.71
428.46	168.52
428.65	147.45
428.84	222.35
429.03	154.48
429.22	166.18
429.40	65.54
429.59	168.52
429.78	156.82
429.97	163.84
430.16	159.16
430.34	173.20
430.53	110.01
430.72	161.50
430.91	231.71
431.10	152.13
431.28	173.20
431.47	217.67
431.66	163.84
431.85	208.31
432.03	128.73
432.22	231.71
432.41	124.05
432.60	133.41
432.79	182.56
432.97	138.09
433.16	220.01
433.35	142.77
433.54	182.56
433.72	205.97
433.91	154.48
434.10	212.99
434.28	117.03
434.47	182.56
434.66	140.43
434.85	124.05
435.03	243.42
435.22	610.88
435.41	1011.11
435.59	938.55
435.78	704.50
435.97	458.74
436.16	238.73
436.34	159.16
436.53	210.65
436.72	264.48
436.90	198.95
437.09	203.63
437.28	182.56
437.46	215.33
437.65	227.03
437.84	227.03
438.02	140.43
438.21	105.32
438.40	65.54
438.58	191.92
438.77	229.37
438.96	198.95
439.14	110.01
439.33	283.20
439.52	124.05
439.70	135.75
439.89	236.39
440.08	138.09
440.26	238.73
440.45	142.77
440.63	196.60
440.82	198.95
441.01	180.22
441.19	166.18
441.38	262.14
441.57	220.01
441.75	248.10
441.94	168.52
442.12	147.45
442.31	170.86
442.50	182.56
442.68	138.09
442.87	194.26
443.05	196.60
443.24	159.16
443.43	128.73
443.61	198.95
443.80	142.77
443.98	184.90
444.17	217.67
444.35	198.95
444.54	245.76
444.73	175.54
444.91	210.65
445.10	107.66
445.28	117.03
445.47	210.65
445.65	224.69
445.84	147.45
446.02	198.95
446.21	138.09
446.39	203.63
446.58	203.63
446.77	173.20
446.95	269.16
447.14	238.73
447.32	205.97
447.51	110.01
447.69	238.73
447.88	224.69
448.06	250.44
448.25	177.88
448.43	234.05
448.62	184.90
448.80	236.39
448.99	255.12
449.17	147.45
449.36	110.01
449.54	161.50
449.73	173.20
449.91	227.03
450.10	156.82
450.28	271.50
450.46	149.79
450.65	182.56
450.83	227.03
451.02	142.77
451.20	140.43
451.39	194.26
451.57	159.16
451.76	131.07
451.94	121.71
452.13	196.60
452.31	168.52
452.49	212.99
452.68	161.50
452.86	170.86
453.05	238.73
453.23	180.22
453.42	149.79
453.60	177.88
453.78	154.48
453.97	161.50
454.15	177.88
454.34	180.22
454.52	250.44
454.70	271.50
454.89	262.14
455.07	201.29
455.26	205.97
455.44	170.86
455.62	285.55
455.81	217.67
455.99	182.56
456.17	184.90
456.36	133.41
456.54	184.90
456.73	98.30
456.91	175.54
457.09	177.88
457.28	259.80
457.46	191.92
457.64	259.80
457.83	191.92
458.01	163.84
458.19	229.37
458.38	140.43
458.56	177.88
458.74	238.73
458.93	105.32
459.11	187.24
459.29	145.11
459.48	194.26
459.66	217.67
459.84	201.29
460.03	257.46
460.21	243.42
460.39	138.09
460.57	198.95
460.76	187.24
460.94	252.78
461.12	255.12
461.31	231.71
461.49	184.90
461.67	175.54
461.85	203.63
462.04	245.76
462.22	631.94
462.40	259.80
462.59	205.97
462.77	180.22
462.95	107.66
463.13	168.52
463.32	166.18
463.50	196.60
463.68	210.65
463.86	175.54
464.05	231.71
464.23	290.23
464.41	229.37
464.59	135.75
464.78	205.97
464.96	203.63
465.14	212.99
465.32	210.65
465.50	177.88
465.69	182.56
465.87	173.20
466.05	189.58
466.23	161.50
466.41	191.92
466.60	170.86
466.78	131.07
466.96	145.11
467.14	175.54
467.32	215.33
467.51	177.88
467.69	220.01
467.87	222.35
468.05	177.88
468.23	208.31
468.41	189.58
468.60	187.24
468.78	220.01
468.96	292.57
469.14	140.43
469.32	124.05
469.50	212.99
469.69	208.31
469.87	170.86
470.05	241.08
470.23	177.88
470.41	145.11
470.59	182.56
470.77	166.18
470.95	140.43
471.14	273.84
471.32	112.35
471.50	315.97
471.68	145.11
471.86	210.65
472.04	166.18
472.22	142.77
472.40	168.52
472.58	227.03
472.77	161.50
472.95	234.05
473.13	280.86
473.31	276.18
473.49	128.73
473.67	142.77
473.85	166.18
474.03	227.03
474.21	198.95
474.39	234.05
474.57	262.14
474.75	194.26
474.93	222.35
475.12	196.60
475.30	208.31
475.48	175.54
475.66	217.67
475.84	198.95
476.02	196.60
476.20	201.29
476.38	142.77
476.56	222.35
476.74	227.03
476.92	184.90
477.10	266.82
477.28	212.99
477.46	161.50
477.64	231.71
477.82	145.11
478.00	285.55
478.18	208.31
478.36	220.01
478.54	170.86
478.72	182.56
478.90	245.76
479.08	269.16
479.26	212.99
479.44	245.76
479.62	152.13
479.80	168.52
479.98	166.18
480.16	227.03
480.34	194.26
480.52	231.71
480.70	266.82
480.88	229.37
481.06	227.03
481.24	229.37
481.41	191.92
481.59	229.37
481.77	283.20
481.95	243.42
482.13	222.35
482.31	264.48
482.49	208.31
482.67	243.42
482.85	220.01
483.03	313.63
483.21	292.57
483.39	222.35
483.57	266.82
483.74	367.46
483.92	273.84
484.10	231.71
484.28	311.29
484.46	355.76
484.64	273.84
484.82	262.14
485.00	290.23
485.18	297.25
485.35	320.65
485.53	234.05
485.71	252.78
485.89	238.73
486.07	283.20
486.25	341.72
486.43	346.40
486.61	367.46
486.78	322.99
486.96	290.23
487.14	301.93
487.32	330.02
487.50	315.97
487.68	376.83
487.85	283.20
488.03	334.70
488.21	393.21
488.39	341.72
488.57	325.33
488.75	287.89
488.92	550.03
489.10	355.76
489.28	308.95
489.46	294.91
489.64	262.14
489.81	269.16
489.99	304.27
490.17	313.63
490.35	416.62
490.53	264.48
490.70	308.95
490.88	311.29
491.06	418.96
491.24	339.38
491.41	383.85
491.59	313.63
491.77	215.33
491.95	212.99
492.13	304.27
492.30	325.33
492.48	344.06
492.66	273.84
492.84	334.70
493.01	287.89
493.19	285.55
493.37	372.15
493.54	299.59
493.72	287.89
493.90	313.63
494.08	285.55
494.25	332.36
494.43	332.36
494.61	339.38
494.79	294.91
494.96	280.86
495.14	313.63
495.32	322.99
495.49	327.68
495.67	318.31
495.85	327.68
496.02	287.89
496.20	294.91
496.38	227.03
496.55	313.63
496.73	327.68
496.91	381.51
497.09	365.12
497.26	346.40
497.44	353.42
497.62	304.27
497.79	292.57
497.97	243.42
498.14	250.44
498.32	332.36
498.50	212.99
498.67	280.86
498.85	318.31
499.03	276.18
499.20	229.37
499.38	348.74
499.56	220.01
499.73	367.46
499.91	332.36
500.08	304.27
500.26	276.18
500.44	304.27
500.61	337.04
500.79	299.59
500.97	241.08
501.14	252.78
501.32	325.33
501.49	313.63
501.67	229.37
501.84	327.68
502.02	320.65
502.20	299.59
502.37	245.76
502.55	330.02
502.72	304.27
502.90	273.84
503.07	266.82
503.25	252.78
503.43	198.95
503.60	308.95
503.78	280.86
503.95	315.97
504.13	322.99
504.30	257.46
504.48	322.99
504.65	388.53
504.83	266.82
505.01	241.08
505.18	292.57
505.36	313.63
505.53	313.63
505.71	306.61
505.88	264.48
506.06	294.91
506.23	297.25
506.41	250.44
506.58	297.25
506.76	348.74
506.93	238.73
507.11	297.25
507.28	234.05
507.46	194.26
507.63	283.20
507.81	257.46
507.98	241.08
508.16	220.01
508.33	315.97
508.50	231.71
508.68	266.82
508.85	287.89
509.03	241.08
509.20	236.39
509.38	334.70
509.55	348.74
509.73	259.80
509.90	332.36
510.08	313.63
510.25	386.19
510.42	344.06
510.60	255.12
510.77	271.50
510.95	297.25
511.12	283.20
511.30	234.05
511.47	280.86
511.64	306.61
511.82	325.33
511.99	341.72
512.17	259.80
512.34	264.48
512.51	189.58
512.69	285.55
512.86	280.86
513.04	290.23
513.21	266.82
513.38	238.73
513.56	257.46
513.73	313.63
513.90	299.59
514.08	285.55
514.25	306.61
514.43	308.95
514.60	358.10
514.77	203.63
514.95	266.82
515.12	311.29
515.29	201.29
515.47	285.55
515.64	290.23
515.81	266.82
515.99	318.31
516.16	320.65
516.33	245.76
516.51	287.89
516.68	245.76
516.85	250.44
517.03	241.08
517.20	301.93
517.37	264.48
517.54	327.68
517.72	322.99
517.89	294.91
518.06	271.50
518.24	292.57
518.41	367.46
518.58	278.52
518.75	182.56
518.93	250.44
519.10	346.40
519.27	266.82
519.45	264.48
519.62	257.46
519.79	285.55
519.96	245.76
520.14	238.73
520.31	287.89
520.48	227.03
520.65	222.35
520.83	264.48
521.00	283.20
521.17	318.31
521.34	257.46
521.52	327.68
521.69	217.67
521.86	318.31
522.03	294.91
522.20	236.39
522.38	287.89
522.55	278.52
522.72	301.93
522.89	322.99
523.07	341.72
523.24	332.36
523.41	283.20
523.58	238.73
523.75	299.59
523.92	266.82
524.10	306.61
524.27	320.65
524.44	266.82
524.61	379.17
524.78	222.35
524.96	243.42
525.13	292.57
525.30	334.70
525.47	320.65
525.64	280.86
525.81	259.80
525.98	250.44
526.16	262.14
526.33	315.97
526.50	311.29
526.67	262.14
526.84	257.46
527.01	264.48
527.18	290.23
527.36	353.42
527.53	264.48
527.70	308.95
527.87	184.90
528.04	358.10
528.21	259.80
528.38	367.46
528.55	325.33
528.72	322.99
528.89	341.72
529.07	351.08
529.24	362.78
529.41	437.68
529.58	294.91
529.75	308.95
529.92	292.57
530.09	304.27
530.26	344.06
530.43	250.44
530.60	304.27
530.77	351.08
530.94	334.70
531.11	290.23
531.28	287.89
531.46	250.44
531.63	304.27
531.80	308.95
531.97	313.63
532.14	337.04
532.31	376.83
532.48	330.02
532.65	297.25
532.82	248.10
532.99	400.23
533.16	311.29
533.33	402.57
533.50	372.15
533.67	325.33
533.84	351.08
534.01	308.95
534.18	299.59
534.35	355.76
534.52	280.86
534.69	440.02
534.86	341.72
535.03	243.42
535.20	379.17
535.37	379.17
535.54	344.06
535.71	367.46
535.88	386.19
536.05	292.57
536.22	390.87
536.38	367.46
536.55	341.72
536.72	367.46
536.89	351.08
537.06	365.12
537.23	416.62
537.40	383.85
537.57	334.70
537.74	482.15
537.91	355.76
538.08	409.59
538.25	372.15
538.42	472.79
538.59	449.38
538.75	470.45
538.92	456.40
539.09	435.34
539.26	409.59
539.43	552.37
539.60	505.56
539.77	592.16
539.94	505.56
540.11	674.07
540.28	688.12
540.44	671.73
540.61	678.76
540.78	812.17
540.95	821.53
541.12	1067.28
541.29	1069.62
541.46	1259.21
541.62	1219.42
541.79	1163.25
541.96	1132.82
542.13	1128.14
542.30	1067.28
542.47	1093.03
542.63	1050.90
542.80	987.71
542.97	1013.45
543.14	992.39
543.31	973.66
543.48	1048.56
543.64	1107.07
543.81	1046.22
543.98	1057.92
544.15	912.81
544.32	1064.94
544.48	999.41
544.65	1011.11
544.82	952.60
544.99	1006.43
545.16	985.37
545.32	1086.01
545.49	1600.93
545.66	2361.60
545.83	2642.46
546.00	2403.73
546.16	1678.16
546.33	1191.33
546.50	1011.11
546.67	903.45
546.83	840.25
547.00	727.91
547.17	746.63
547.34	692.80
547.50	657.69
547.67	716.20
547.84	580.45
548.00	732.59
548.17	634.29
548.34	645.99
548.51	739.61
548.67	599.18
548.84	662.37
549.01	592.16
549.18	592.16
549.34	627.26
549.51	617.90
549.68	603.86
549.84	484.49
550.01	491.51
550.18	638.97
550.34	617.90
550.51	568.75
550.68	493.85
550.84	524.28
551.01	503.22
551.18	517.26
551.34	500.87
551.51	435.34
551.68	414.27
551.84	477.47
552.01	451.72
552.18	454.06
552.34	386.19
552.51	374.49
552.68	421.30
552.84	322.99
553.01	421.30
553.18	423.64
553.34	423.64
553.51	351.08
553.67	402.57
553.84	402.57
554.01	346.40
554.17	262.14
554.34	313.63
554.51	367.46
554.67	372.15
554.84	299.59
555.00	397.89
555.17	257.46
555.33	369.80
555.50	304.27
555.67	308.95
555.83	334.70
556.00	304.27
556.16	545.34
556.33	271.50
556.50	315.97
556.66	301.93
556.83	245.76
556.99	224.69
557.16	276.18
557.32	252.78
557.49	346.40
557.65	241.08
557.82	292.57
557.98	311.29
558.15	248.10
558.32	278.52
558.48	252.78
558.65	294.91
558.81	238.73
558.98	252.78
559.14	341.72
559.31	236.39
559.47	355.76
559.64	308.95
559.80	255.12
559.97	222.35
560.13	292.57
560.30	318.31
560.46	294.91
560.63	259.80
560.79	252.78
560.96	297.25
561.12	304.27
561.29	318.31
561.45	341.72
561.61	241.08
561.78	376.83
561.94	262.14
562.11	250.44
562.27	346.40
562.44	266.82
562.60	376.83
562.77	365.12
562.93	404.91
563.10	238.73
563.26	292.57
563.42	353.42
563.59	283.20
563.75	269.16
563.92	290.23
564.08	243.42
564.24	262.14
564.41	327.68
564.57	215.33
564.74	212.99
564.90	337.04
565.07	266.82
565.23	320.65
565.39	248.10
565.56	269.16
565.72	297.25
565.88	299.59
566.05	278.52
566.21	332.36
566.38	278.52
566.54	257.46
566.70	294.91
566.87	234.05
567.03	194.26
567.19	259.80
567.36	269.16
567.52	283.20
567.68	236.39
567.85	418.96
568.01	301.93
568.17	220.01
568.34	224.69
568.50	278.52
568.66	222.35
568.83	290.23
568.99	229.37
569.15	290.23
569.32	334.70
569.48	337.04
569.64	292.57
569.81	299.59
569.97	269.16
570.13	341.72
570.30	294.91
570.46	220.01
570.62	234.05
570.78	259.80
570.95	210.65
571.11	325.33
571.27	334.70
571.43	255.12
571.60	262.14
571.76	248.10
571.92	208.31
572.09	327.68
572.25	241.08
572.41	278.52
572.57	262.14
572.74	304.27
572.90	311.29
573.06	269.16
573.22	259.80
573.38	266.82
573.55	327.68
573.71	337.04
573.87	271.50
574.03	285.55
574.20	269.16
574.36	344.06
574.52	334.70
574.68	236.39
574.84	297.25
575.01	245.76
575.17	292.57
575.33	175.54
575.49	278.52
575.65	339.38
575.82	353.42
575.98	320.65
576.14	351.08
576.30	311.29
576.46	517.26
576.62	641.31
576.79	758.33
576.95	676.41
577.11	564.07
577.27	376.83
577.43	353.42
577.59	428.32
577.75	322.99
577.92	276.18
578.08	220.01
578.24	318.31
578.40	360.44
578.56	461.09
578.72	641.31
578.88	725.57
579.04	477.47
579.21	496.19
579.37	437.68
579.53	407.25
579.69	418.96
579.85	388.53
580.01	409.59
580.17	409.59
580.33	416.62
580.49	388.53
580.65	433.00
580.82	390.87
580.98	318.31
581.14	355.76
581.30	388.53
581.46	383.85
581.62	393.21
581.78	348.74
581.94	418.96
582.10	271.50
582.26	318.31
582.42	416.62
582.58	440.02
582.74	402.57
582.90	484.49
583.06	386.19
583.22	437.68
583.38	458.74
583.54	416.62
583.70	507.90
583.86	411.93
584.02	395.55
584.18	428.32
584.34	414.27
584.50	435.34
584.66	369.80
584.82	503.22
584.98	367.46
585.14	348.74
585.30	437.68
585.46	418.96
585.62	470.45
585.78	369.80
585.94	365.12
586.10	339.38
586.26	409.59
586.42	404.91
586.58	421.30
586.74	458.74
586.90	580.45
587.06	603.86
587.22	648.33
587.38	559.39
587.54	547.69
587.70	461.09
587.86	482.15
588.02	393.21
588.18	395.55
588.34	386.19
588.49	369.80
588.65	311.29
588.81	287.89
588.97	315.97
589.13	313.63
589.29	292.57
589.45	313.63
589.61	292.57
589.77	386.19
589.93	334.70
590.08	341.72
590.24	290.23
590.40	332.36
590.56	257.46
590.72	294.91
590.88	397.89
591.04	334.70
591.20	311.29
591.35	418.96
591.51	393.21
591.67	311.29
591.83	348.74
591.99	367.46
592.15	430.66
592.31	346.40
592.46	519.60
592.62	470.45
592.78	428.32
592.94	425.98
593.10	414.27
593.26	440.02
593.41	444.70
593.57	440.02
593.73	390.87
593.89	442.36
594.05	348.74
594.20	311.29
594.36	334.70
594.52	346.40
594.68	315.97
594.84	318.31
594.99	355.76
595.15	269.16
595.31	330.02
595.47	313.63
595.62	215.33
595.78	264.48
595.94	332.36
596.10	351.08
596.25	248.10
596.41	287.89
596.57	348.74
596.73	304.27
596.88	315.97
597.04	299.59
597.20	327.68
597.36	243.42
597.51	217.67
597.67	285.55
597.83	330.02
597.99	416.62
598.14	362.78
598.30	313.63
598.46	358.10
598.61	358.10
598.77	451.72
598.93	322.99
599.09	318.31
599.24	355.76
599.40	299.59
599.56	353.42
599.71	362.78
599.87	285.55
600.03	327.68
600.18	346.40
600.34	341.72
600.50	334.70
600.65	355.76
600.81	322.99
600.97	234.05
601.12	297.25
601.28	355.76
601.44	322.99
601.59	224.69
601.75	330.02
601.91	283.20
602.06	278.52
602.22	365.12
602.37	231.71
602.53	292.57
602.69	229.37
602.84	266.82
603.00	269.16
603.16	276.18
603.31	301.93
603.47	313.63
603.62	304.27
603.78	262.14
603.94	248.10
604.09	238.73
604.25	276.18
604.40	259.80
604.56	259.80
604.71	234.05
604.87	294.91
605.03	238.73
605.18	297.25
605.34	306.61
605.49	294.91
605.65	313.63
605.80	292.57
605.96	313.63
606.12	255.12
606.27	332.36
606.43	315.97
606.58	372.15
606.74	290.23
606.89	257.46
607.05	322.99
607.20	264.48
607.36	306.61
607.51	341.72
607.67	327.68
607.82	442.36
607.98	456.40
608.13	393.21
608.29	381.51
608.44	421.30
608.60	468.11
608.75	477.47
608.91	463.43
609.06	543.00
609.22	521.94
609.37	524.28
609.53	620.24
609.68	521.94
609.84	706.84
609.99	795.78
610.15	798.12
610.30	973.66
610.46	1235.80
610.61	1558.80
610.76	1926.26
610.92	2284.36
611.07	2410.75
611.23	2399.05
