SpectraSuite Data File
++++++++++++++++++++++++++++++++++++
Date: Fri Oct 04 11:44:11 GMT-05:00 2013
User: price-jones
Dark Spectrum Present: No
Reference Spectrum Present: No
Number of Sampled Component Spectra: 1
Spectrometers: USB2+H05261
Integration Time (usec): 100000 (USB2+H05261)
Spectra Averaged: 1 (USB2+H05261)
Boxcar Smoothing: 0 (USB2+H05261)
Correct for Electrical Dark: No (USB2+H05261)
Strobe/Lamp Enabled: No (USB2+H05261)
Correct for Detector Non-linearity: No (USB2+H05261)
Correct for Stray Light: No (USB2+H05261)
Number of Pixels in Processed Spectrum: 2048
>>>>>Begin Processed Spectral Data<<<<<
365.73	60.85
365.92	60.85
366.12	60.85
366.32	0.00
366.52	0.00
366.72	0.00
366.91	0.00
367.11	0.00
367.31	0.00
367.51	0.00
367.70	0.00
367.90	0.00
368.10	0.00
368.30	0.00
368.49	0.00
368.69	0.00
368.89	0.00
369.09	0.00
369.28	0.00
369.48	0.00
369.68	0.00
369.87	0.00
370.07	0.00
370.27	51.49
370.47	107.66
370.66	414.27
370.86	461.09
371.06	561.73
371.25	613.22
371.45	500.87
371.65	561.73
371.84	449.38
372.04	376.83
372.24	500.87
372.44	578.11
372.63	521.94
372.83	528.96
373.03	418.96
373.22	451.72
373.42	454.06
373.62	470.45
373.81	592.16
374.01	566.41
374.21	465.77
374.40	484.49
374.60	528.96
374.79	503.22
374.99	535.98
375.19	606.20
375.38	692.80
375.58	627.26
375.78	660.03
375.97	580.45
376.17	634.29
376.37	655.35
376.56	702.16
376.76	683.44
376.95	678.76
377.15	781.74
377.35	760.67
377.54	856.64
377.74	823.87
377.93	830.89
378.13	791.10
378.33	807.48
378.52	702.16
378.72	784.08
378.91	748.97
379.11	615.56
379.31	653.01
379.50	718.54
379.70	664.71
379.89	772.38
380.09	800.46
380.28	748.97
380.48	786.42
380.68	746.63
380.87	734.93
381.07	807.48
381.26	671.73
381.46	606.20
381.65	688.12
381.85	566.41
382.04	603.86
382.24	601.52
382.43	573.43
382.63	566.41
382.83	510.24
383.02	589.82
383.22	531.30
383.41	596.84
383.61	552.37
383.80	615.56
384.00	716.20
384.19	699.82
384.39	807.48
384.58	786.42
384.78	746.63
384.97	725.57
385.17	699.82
385.36	688.12
385.56	702.16
385.75	711.52
385.95	760.67
386.14	798.12
386.34	741.95
386.53	786.42
386.72	711.52
386.92	746.63
387.11	741.95
387.31	751.31
387.50	781.74
387.70	791.10
387.89	798.12
388.09	716.20
388.28	760.67
388.48	849.61
388.67	830.89
388.86	844.93
389.06	929.19
389.25	938.55
389.45	933.87
389.64	959.62
389.84	966.64
390.03	1036.86
390.22	938.55
390.42	994.73
390.61	1081.33
390.81	1078.99
391.00	1088.35
391.19	1160.91
391.39	1046.22
391.58	1053.24
391.78	877.70
391.97	1015.79
392.16	861.32
392.36	901.11
392.55	734.93
392.75	472.79
392.94	503.22
393.13	533.64
393.33	624.92
393.52	688.12
393.71	828.55
393.91	870.68
394.10	959.62
394.29	980.68
394.49	1050.90
394.68	1142.18
394.88	1125.80
395.07	1193.67
395.26	1160.91
395.46	1252.19
395.65	1121.12
395.84	985.37
396.04	950.26
396.23	753.65
396.42	655.35
396.62	617.90
396.81	676.41
397.00	887.06
397.19	1018.13
397.39	1100.05
397.58	1235.80
397.77	1397.30
397.97	1455.81
398.16	1380.92
398.35	1469.86
398.55	1413.68
398.74	1535.39
398.93	1568.16
399.12	1535.39
399.32	1511.99
399.51	1549.43
399.70	1612.63
399.90	1586.88
400.09	1659.44
400.28	1502.62
400.47	1537.73
400.67	1785.83
400.86	1776.47
401.05	1703.91
401.24	1675.82
401.44	1760.08
401.63	1830.30
401.82	1802.21
402.01	1727.32
402.21	1827.96
402.40	1820.94
402.59	1802.21
402.78	1671.14
402.97	1652.42
403.17	1757.74
403.36	1682.85
403.55	1806.89
403.74	1827.96
403.93	1741.36
404.13	1755.40
404.32	1689.87
404.51	1708.59
404.70	1879.45
404.89	1764.76
405.09	1743.70
405.28	1685.19
405.47	1736.68
405.66	1671.14
405.85	1743.70
406.05	1544.75
406.24	1675.82
406.43	1750.72
406.62	1767.10
406.81	1959.03
407.00	1849.02
407.20	1884.13
407.39	1650.08
407.58	1778.81
407.77	1816.26
407.96	1820.94
408.15	1947.33
408.34	1881.79
408.54	1989.46
408.73	2120.53
408.92	1963.71
409.11	1923.92
409.30	1853.70
409.49	1666.46
409.68	1544.75
409.87	1540.07
410.07	1701.57
410.26	1856.04
410.45	1858.39
410.64	1909.88
410.83	2066.69
411.02	1923.92
411.21	2099.46
411.40	2132.23
411.59	1980.09
411.78	2043.29
411.98	2083.08
412.17	2090.10
412.36	1973.07
412.55	2197.76
412.74	1956.69
412.93	2001.16
413.12	1975.41
413.31	2190.74
413.50	2197.76
413.69	2237.55
413.88	2167.34
414.07	2120.53
414.26	2069.03
414.45	2087.76
414.64	2132.23
414.83	2249.25
415.02	2132.23
415.22	2174.36
415.41	2113.50
415.60	2324.15
415.79	2361.60
415.98	2282.02
416.17	2291.38
416.36	2310.11
416.55	2188.40
416.74	2260.96
416.93	2223.51
417.12	2209.47
417.31	2129.89
417.50	2111.16
417.69	2289.04
417.88	2333.51
418.07	2160.31
418.26	2207.13
418.45	2239.89
418.64	2464.58
418.83	2422.45
419.02	2401.39
419.21	2375.64
419.39	2157.97
419.58	2179.04
419.77	2209.47
419.96	2284.36
420.15	2377.98
420.34	2326.49
420.53	2497.35
420.72	2523.10
420.91	2541.82
421.10	2525.44
421.29	2490.33
421.48	2345.22
421.67	2590.97
421.86	2436.50
422.05	2345.22
422.24	2218.83
422.43	2092.44
422.61	2207.13
422.80	2300.75
422.99	2377.98
423.18	2333.51
423.37	2335.85
423.56	2342.88
423.75	2431.82
423.94	2413.09
424.13	2314.79
424.32	2314.79
424.50	2267.98
424.69	2277.34
424.88	2361.60
425.07	2312.45
425.26	2253.94
425.45	2291.38
425.64	2132.23
425.83	2197.76
426.01	2270.32
426.20	2420.11
426.39	2324.15
426.58	2190.74
426.77	2106.48
426.96	1991.80
427.15	2071.37
427.33	2155.63
427.52	2284.36
427.71	2260.96
427.90	2251.60
428.09	2267.98
428.28	2111.16
428.46	2143.93
428.65	2148.61
428.84	2167.34
429.03	2221.17
429.22	1940.30
429.40	1914.56
429.59	1898.17
429.78	1643.06
429.97	1617.31
430.16	1717.95
430.34	1575.18
430.53	1671.14
430.72	1724.97
430.91	1827.96
431.10	2083.08
431.28	2377.98
431.47	2651.83
431.66	2569.91
431.85	2345.22
432.03	2279.68
432.22	2312.45
432.41	2310.11
432.60	2399.05
432.79	2492.67
432.97	2661.19
433.16	2483.31
433.35	2490.33
433.54	2207.13
433.72	1966.05
433.91	2169.68
434.10	2228.19
434.28	2457.56
434.47	2534.80
434.66	2548.84
434.85	2544.16
435.03	2504.37
435.22	2757.15
435.41	2928.01
435.59	2949.08
435.78	2913.97
435.97	2878.86
436.16	2906.95
436.34	2827.37
436.53	2600.34
436.72	2738.43
436.90	2640.12
437.09	2593.31
437.28	2473.95
437.46	2595.65
437.65	2485.65
437.84	2527.78
438.02	2267.98
438.21	2230.53
438.40	2349.90
438.58	2600.34
438.77	2621.40
438.96	2621.40
439.14	2738.43
439.33	2839.07
439.52	2808.64
439.70	2771.19
439.89	2719.70
440.08	2686.94
440.26	2621.40
440.45	2689.28
440.63	2881.20
440.82	2998.23
441.01	2979.50
441.19	2883.54
441.38	2925.67
441.57	3005.25
441.75	3056.74
441.94	3204.19
442.12	3157.38
442.31	3300.16
442.50	3096.53
442.68	3117.59
442.87	3110.57
443.05	2984.18
443.24	3103.55
443.43	3152.70
443.61	3194.83
443.80	3187.81
443.98	3136.32
444.17	3035.67
444.35	3222.92
444.54	3243.98
444.73	3311.86
444.91	3129.30
445.10	2995.89
445.28	2782.90
445.47	2867.16
445.65	2780.56
445.84	2963.12
446.02	3014.61
446.21	3070.78
446.39	3023.97
446.58	3187.81
446.77	3169.09
446.95	3148.02
447.14	3260.37
447.32	3304.84
447.51	3274.41
447.69	3229.94
447.88	3117.59
448.06	3049.72
448.25	3192.49
448.43	3192.49
448.62	3199.51
448.80	3178.45
448.99	3258.03
449.17	3187.81
449.36	3225.26
449.54	3332.92
449.73	3276.75
449.91	3438.25
450.10	3302.50
450.28	3524.85
450.46	3557.61
450.65	3529.53
450.83	3473.36
451.02	3375.05
451.20	3515.48
451.39	3428.88
451.57	3328.24
451.76	3316.54
451.94	3438.25
452.13	3377.39
452.31	3286.11
452.49	3084.83
452.68	3016.95
452.86	3110.57
453.05	3208.87
453.23	3229.94
453.42	3281.43
453.60	3276.75
453.78	3382.07
453.97	3276.75
454.15	3421.86
454.34	3255.69
454.52	3197.17
454.70	3353.99
454.89	3267.39
455.07	3272.07
455.26	3323.56
455.44	3496.76
455.62	3421.86
455.81	3396.12
455.99	3503.78
456.17	3325.90
456.36	3379.73
456.54	3538.89
456.73	3571.66
456.91	3698.05
457.09	3548.25
457.28	3733.15
457.46	3564.64
457.64	3508.46
457.83	3262.71
458.01	3337.60
458.19	3330.58
458.38	3482.72
458.56	3651.24
458.74	3508.46
458.93	3452.29
459.11	3442.93
459.29	3225.26
459.48	3405.48
459.66	3576.34
459.84	3531.87
460.03	3562.30
460.21	3485.06
460.39	3527.19
460.57	3630.17
460.76	3611.45
460.94	3667.62
461.12	3613.79
461.31	3655.92
461.49	3669.96
461.67	3597.40
461.85	3742.52
462.04	3595.06
462.22	3768.26
462.40	3648.90
462.59	3672.30
462.77	3616.13
462.95	3674.64
463.13	3653.58
463.32	3597.40
463.50	3581.02
463.68	3531.87
463.86	3478.04
464.05	3595.06
464.23	3517.83
464.41	3461.65
464.59	3463.99
464.78	3550.59
464.96	3611.45
465.14	3536.55
465.32	3705.07
465.50	3693.37
465.69	3719.11
465.87	3726.13
466.05	3602.08
466.23	3351.65
466.41	3330.58
466.60	3412.50
466.78	3368.03
466.96	3466.33
467.14	3496.76
467.32	3555.27
467.51	3651.24
467.69	3541.23
467.87	3566.98
468.05	3557.61
468.23	3632.51
468.41	3503.78
468.60	3597.40
468.78	3590.38
468.96	3646.55
469.14	3595.06
469.32	3606.77
469.50	3368.03
469.69	3548.25
469.87	3290.79
470.05	3496.76
470.23	3459.31
470.41	3417.18
470.59	3379.73
470.77	3473.36
470.95	3665.28
471.14	3693.37
471.32	3639.53
471.50	3756.56
471.68	3850.18
471.86	3829.12
472.04	3826.78
472.22	3974.23
472.40	3648.90
472.58	3665.28
472.77	3527.19
472.95	3702.73
473.13	3810.39
473.31	3620.81
473.49	3648.90
473.67	3669.96
473.85	3698.05
474.03	3988.27
474.21	3798.69
474.39	3971.89
474.57	4070.19
474.75	3985.93
474.93	3915.72
475.12	3737.84
475.30	3838.48
475.48	3737.84
475.66	3798.69
475.84	3819.75
476.02	3836.14
476.20	3852.52
476.38	3859.54
476.56	3978.91
476.74	3957.85
476.92	3941.46
477.10	4091.26
477.28	4119.34
477.46	4243.39
477.64	4276.16
477.82	4259.78
478.00	4145.09
478.18	4189.56
478.36	4224.67
478.54	4198.92
478.72	4170.83
478.90	4337.01
479.08	4521.92
479.26	4397.87
479.44	4447.02
479.62	4344.03
479.80	4397.87
479.98	4545.32
480.16	4440.00
480.34	4416.59
480.52	4526.60
480.70	4468.08
480.88	4472.76
481.06	4535.96
481.24	4678.73
481.41	4865.97
481.59	4847.25
481.77	4760.65
481.95	4800.44
482.13	4828.53
482.31	4554.68
482.49	4823.84
482.67	4844.91
482.85	4676.39
483.03	4823.84
483.21	5029.81
483.39	4992.36
483.57	4908.10
483.74	4898.74
483.92	4844.91
484.10	4788.74
484.28	4880.02
484.46	4936.19
484.64	5184.29
484.82	4863.63
485.00	4905.76
485.18	4828.53
485.35	4681.07
485.53	4374.46
485.71	4194.24
485.89	3866.56
486.07	4063.17
486.25	4444.68
486.43	4650.64
486.61	4762.99
486.78	4880.02
486.96	4947.89
487.14	4891.72
487.32	4999.38
487.50	5207.69
487.68	5252.16
487.85	5186.63
488.03	5394.93
488.21	5441.75
488.39	5324.72
488.57	5217.05
488.75	5163.22
488.92	5591.54
489.10	5582.18
489.28	5769.42
489.46	5872.40
489.64	5980.07
489.81	5860.70
489.99	5954.32
490.17	6101.78
490.35	6104.12
490.53	5891.13
490.70	5781.12
490.88	5809.21
491.06	5893.47
491.24	5898.15
491.41	5886.45
491.59	5582.18
491.77	5343.44
491.95	5469.83
492.13	5874.74
492.30	6026.88
492.48	6038.58
492.66	6249.23
492.84	6434.13
493.01	6249.23
493.19	6076.03
493.37	6195.40
493.54	6033.90
493.72	6005.81
493.90	6232.85
494.08	6504.35
494.25	6593.29
494.43	6576.91
494.61	6733.72
494.79	6665.85
494.96	6675.21
495.14	6630.74
495.32	6326.47
495.49	6216.46
495.67	6443.49
495.85	6621.38
496.02	6789.89
496.20	6707.98
496.38	6686.91
496.55	6633.08
496.73	6820.32
496.91	6672.87
497.09	6916.28
497.26	6827.34
497.44	7037.99
497.62	6651.80
497.79	6490.31
497.97	6303.06
498.14	6136.88
498.32	6471.58
498.50	6637.76
498.67	6841.39
498.85	6834.36
499.03	6918.62
499.20	6829.68
499.38	6839.05
499.56	6817.98
499.73	6752.45
499.91	6731.38
500.08	6544.14
500.26	6354.55
500.44	6413.07
500.61	6754.79
500.79	6717.34
500.97	6590.95
501.14	6569.88
501.32	6436.47
501.49	6497.33
501.67	6331.15
501.84	6569.88
502.02	6626.06
502.20	6764.15
502.37	6738.40
502.55	6733.72
502.72	6684.57
502.90	6679.89
503.07	6778.19
503.25	6597.97
503.43	6319.45
503.60	6045.60
503.78	6015.18
503.95	6232.85
504.13	6567.54
504.30	6567.54
504.48	6843.73
504.65	6930.33
504.83	6677.55
505.01	6892.88
505.18	6874.15
505.36	7084.80
505.53	7159.70
505.71	7112.89
505.88	7204.17
506.06	7183.10
506.23	6860.11
506.41	6712.66
506.58	6759.47
506.76	6836.70
506.93	6825.00
507.11	6782.87
507.28	6974.80
507.46	6789.89
507.63	6885.86
507.81	6675.21
507.98	6532.44
508.16	6782.87
508.33	6935.01
508.50	7068.42
508.68	7173.74
508.85	7506.10
509.03	7187.79
509.20	7290.77
509.38	7103.53
509.55	7009.90
509.73	6913.94
509.90	7096.50
510.08	6974.80
510.25	7054.37
510.42	6932.67
510.60	7133.95
510.77	7131.61
510.95	7208.85
511.12	7332.90
511.30	7339.92
511.47	7674.62
511.64	7527.16
511.82	7564.61
511.99	7234.60
512.17	7176.08
512.34	7005.22
512.51	7089.48
512.69	7082.46
512.86	7084.80
513.04	7220.55
513.21	7344.60
513.38	7227.57
513.56	7124.59
513.73	6902.24
513.90	7016.93
514.08	6867.13
514.25	7098.84
514.43	7059.06
514.60	7047.35
514.77	7143.32
514.95	7281.41
515.12	7040.33
515.29	7052.03
515.47	7452.27
515.64	7470.99
515.81	7269.70
515.99	7042.67
516.16	6960.75
516.33	6382.64
516.51	6115.82
516.68	5874.74
516.85	5783.46
517.03	5898.15
517.20	6073.69
517.37	6834.36
517.54	7192.47
517.72	7009.90
517.89	6527.75
518.06	5996.45
518.24	6122.84
518.41	6408.39
518.58	6813.30
518.75	6808.62
518.93	6932.67
519.10	6977.14
519.27	7023.95
519.45	7080.12
519.62	7155.02
519.79	7262.68
519.96	7265.02
520.14	7028.63
520.31	6935.01
520.48	6745.42
520.65	7068.42
520.83	7225.23
521.00	7389.07
521.17	7372.69
521.34	7045.01
521.52	7286.09
521.69	7506.10
521.86	7440.56
522.03	7346.94
522.20	7103.53
522.38	6920.96
522.55	6853.09
522.72	7016.93
522.89	7222.89
523.07	7176.08
523.24	7164.38
523.41	7260.34
523.58	7595.04
523.75	7578.65
523.92	7410.14
524.10	7604.40
524.27	7658.23
524.44	7581.00
524.61	7576.31
524.78	7365.67
524.96	7365.67
525.13	7274.38
525.30	7522.48
525.47	7487.37
525.64	7620.78
525.81	7475.67
525.98	7073.10
526.16	6724.36
526.33	6663.51
526.50	6544.14
526.67	6464.56
526.84	6420.09
527.01	6672.87
527.18	6920.96
527.36	6869.47
527.53	7178.42
527.70	7534.18
527.87	7391.41
528.04	7206.51
528.21	7192.47
528.38	7260.34
528.55	7698.02
528.72	7770.58
528.89	7826.75
529.07	7672.28
529.24	7597.38
529.41	7307.15
529.58	7119.91
529.75	7152.68
529.92	7372.69
530.09	7440.56
530.26	7634.83
530.43	7637.17
530.60	7616.10
530.77	7768.24
530.94	7709.72
531.11	7749.51
531.28	7499.08
531.46	7400.77
531.63	7452.27
531.80	7555.25
531.97	7335.24
532.14	7204.17
532.31	6949.05
532.48	6815.64
532.65	6710.32
532.82	6944.37
532.99	7133.95
533.16	7253.32
533.33	7459.29
533.50	7438.22
533.67	7321.20
533.84	7262.68
534.01	7269.70
534.18	7353.96
534.35	7295.45
534.52	7269.70
534.69	7454.61
534.86	7396.09
535.03	7538.87
535.20	7564.61
535.37	7693.34
535.54	7826.75
535.71	7894.63
535.88	7632.49
536.05	7609.08
536.22	7496.74
536.38	7335.24
536.55	7297.79
536.72	6890.54
536.89	6939.69
537.06	7155.02
537.23	7531.84
537.40	7307.15
537.57	7613.76
537.74	7325.88
537.91	7503.76
538.08	7375.03
538.25	7494.40
538.42	7445.24
538.59	7323.54
538.75	7363.33
538.92	7096.50
539.09	7309.49
539.26	7323.54
539.43	7089.48
539.60	7105.87
539.77	7159.70
539.94	7194.81
540.11	7000.54
540.28	6956.07
540.44	6909.26
540.61	6986.50
540.78	6956.07
540.95	7059.06
541.12	7309.49
541.29	7246.30
541.46	7405.46
541.62	7510.78
541.79	7669.94
541.96	7424.18
542.13	7253.32
542.30	7410.14
542.47	7461.63
542.63	7171.40
542.80	7304.81
542.97	7375.03
543.14	7339.92
543.31	7260.34
543.48	7330.56
543.64	7520.14
543.81	7686.32
543.98	7964.84
544.15	7676.96
544.32	7428.86
544.48	7363.33
544.65	7466.31
544.82	7522.48
544.99	7581.00
545.16	7515.46
545.32	7494.40
545.49	7763.56
545.66	8278.47
545.83	8182.51
546.00	7920.37
546.16	7522.48
546.33	7463.97
546.50	7342.26
546.67	7365.67
546.83	7463.97
547.00	7337.58
547.17	7056.72
547.34	7164.38
547.50	6951.39
547.67	6967.77
547.84	7002.88
548.00	7131.61
548.17	7276.73
548.34	7449.93
548.51	7194.81
548.67	7503.76
548.84	7372.69
549.01	7375.03
549.18	7370.35
549.34	7281.41
549.51	7250.98
549.68	7269.70
549.84	7194.81
550.01	7185.44
550.18	7288.43
550.34	7185.44
550.51	7192.47
550.68	7288.43
550.84	6913.94
551.01	6988.84
551.18	6839.05
551.34	7009.90
551.51	7187.79
551.68	7199.49
551.84	7349.28
552.01	7307.15
552.18	7087.14
552.34	7061.40
552.51	6988.84
552.68	6899.90
552.84	6825.00
553.01	6841.39
553.18	7164.38
553.34	7007.56
553.51	7133.95
553.67	7082.46
553.84	7293.11
554.01	7152.68
554.17	6937.35
554.34	7169.06
554.51	7009.90
554.67	7346.94
554.84	7314.17
555.00	7129.27
555.17	6848.41
555.33	6946.71
555.50	6993.52
555.67	7148.00
555.83	7000.54
556.00	6782.87
556.16	7138.63
556.33	6909.26
556.50	7014.59
556.66	6731.38
556.83	6860.11
556.99	6670.53
557.16	6710.32
557.32	6827.34
557.49	6761.81
557.65	6918.62
557.82	6885.86
557.98	6712.66
558.15	6754.79
558.32	6586.27
558.48	6401.37
558.65	6569.88
558.81	6506.69
558.98	6436.47
559.14	6679.89
559.31	6604.99
559.47	6670.53
559.64	6462.22
559.80	6436.47
559.97	6527.75
560.13	6665.85
560.30	6731.38
560.46	6963.09
560.63	6759.47
560.79	7009.90
560.96	7005.22
561.12	6485.62
561.29	6661.16
561.45	6525.41
561.61	6555.84
561.78	6750.10
561.94	6612.01
562.11	6803.94
562.27	6527.75
562.44	6689.25
562.60	6466.90
562.77	6864.79
562.93	6801.60
563.10	6661.16
563.26	6527.75
563.42	6759.47
563.59	6523.07
563.75	6349.87
563.92	6448.18
564.08	6658.82
564.24	6509.03
564.41	6635.42
564.57	6532.44
564.74	6630.74
564.90	6574.56
565.07	6621.38
565.23	6307.74
565.39	6214.12
565.56	6328.81
565.72	6232.85
565.88	6188.38
566.05	6270.30
566.21	6438.81
566.38	6530.09
566.54	6504.35
566.70	6602.65
566.87	6452.86
567.03	6438.81
567.19	6703.29
567.36	6356.90
567.52	6366.26
567.68	6401.37
567.85	6200.08
568.01	5968.37
568.17	6040.92
568.34	6040.92
568.50	5947.30
568.66	5851.34
568.83	5893.47
568.99	6045.60
569.15	5968.37
569.32	5898.15
569.48	6029.22
569.64	6001.13
569.81	5937.94
569.97	5961.34
570.13	5991.77
570.30	5905.17
570.46	6101.78
570.62	5575.16
570.78	5795.17
570.95	5715.59
571.11	5991.77
571.27	5909.85
571.43	5865.38
571.60	5982.41
571.76	6040.92
571.92	5982.41
572.09	6045.60
572.25	6146.25
572.41	6087.73
572.57	5849.00
572.74	6061.99
572.90	5973.05
573.06	6005.81
573.22	6015.18
573.38	5991.77
573.55	5860.70
573.71	5963.68
573.87	6054.97
574.03	5954.32
574.20	5783.46
574.36	5837.30
574.52	5774.10
574.68	5989.43
574.84	5846.66
575.01	5708.57
575.17	5696.86
575.33	5671.12
575.49	5926.24
575.65	5671.12
575.82	5633.67
575.98	5788.14
576.14	5724.95
576.30	5870.06
576.46	5991.77
576.62	6076.03
576.79	6129.86
576.95	5930.92
577.11	5881.77
577.27	5888.79
577.43	6113.48
577.59	5987.09
577.75	5661.76
577.92	5696.86
578.08	5596.22
578.24	5441.75
578.40	5703.89
578.56	5860.70
578.72	5991.77
578.88	5820.91
579.04	5872.40
579.21	5902.83
579.37	5778.78
579.53	5874.74
579.69	5863.04
579.85	5928.58
580.01	5872.40
580.17	5844.32
580.33	5767.08
580.49	5788.14
580.65	5813.89
580.82	5959.00
580.98	5802.19
581.14	5926.24
581.30	5825.59
581.46	5832.62
581.62	5783.46
581.78	6010.50
581.94	5844.32
582.10	5900.49
582.26	5937.94
582.42	5977.73
582.58	5944.96
582.74	5954.32
582.90	6087.73
583.06	5893.47
583.22	5916.87
583.38	5940.28
583.54	5769.42
583.70	6047.94
583.86	5776.44
584.02	5834.96
584.18	5956.66
584.34	5895.81
584.50	5713.25
584.66	5713.25
584.82	5771.76
584.98	5626.65
585.14	5535.37
585.30	5533.03
585.46	5516.64
585.62	5507.28
585.78	5643.03
585.94	5479.19
586.10	5507.28
586.26	5577.50
586.42	5661.76
586.58	5582.18
586.74	5664.10
586.90	5493.24
587.06	5507.28
587.22	5636.01
587.38	5488.56
587.54	5287.27
587.70	5416.00
587.86	5144.50
588.02	4933.85
588.18	4837.89
588.34	4671.71
588.49	4493.83
588.65	4287.86
588.81	3990.61
588.97	4021.04
589.13	4018.70
589.29	4074.87
589.45	4014.02
589.61	4196.58
589.77	4269.14
589.93	4369.78
590.08	4706.82
590.24	4791.08
590.40	4830.87
590.56	4784.06
590.72	4772.35
590.88	4517.23
591.04	4849.59
591.20	4599.15
591.35	4606.17
591.51	4688.09
591.67	4578.09
591.83	4521.92
591.99	4561.70
592.15	4465.74
592.31	4748.95
592.46	4770.01
592.62	4875.34
592.78	4819.16
592.94	4807.46
593.10	4770.01
593.26	4980.66
593.41	5121.09
593.57	4936.19
593.73	4688.09
593.89	4578.09
594.05	4411.91
594.20	4404.89
594.36	4322.97
594.52	4252.75
594.68	4360.42
594.84	4514.89
594.99	4725.54
595.15	4777.03
595.31	4730.22
595.47	4702.14
595.62	4704.48
595.78	4741.93
595.94	4933.85
596.10	5174.92
596.25	4816.82
596.41	4751.29
596.57	4657.67
596.73	4681.07
596.88	4922.15
597.04	4910.44
597.20	4716.18
597.36	4674.05
597.51	4802.78
597.67	4786.40
