SpectraSuite Data File
++++++++++++++++++++++++++++++++++++
Date: Fri Oct 04 11:44:15 GMT-05:00 2013
User: price-jones
Dark Spectrum Present: No
Reference Spectrum Present: No
Number of Sampled Component Spectra: 1
Spectrometers: USB2+H05261
Integration Time (usec): 100000 (USB2+H05261)
Spectra Averaged: 1 (USB2+H05261)
Boxcar Smoothing: 0 (USB2+H05261)
Correct for Electrical Dark: No (USB2+H05261)
Strobe/Lamp Enabled: No (USB2+H05261)
Correct for Detector Non-linearity: No (USB2+H05261)
Correct for Stray Light: No (USB2+H05261)
Number of Pixels in Processed Spectrum: 2048
>>>>>Begin Processed Spectral Data<<<<<
365.73	32.77
365.92	32.77
366.12	32.77
366.32	0.00
366.52	0.00
366.72	0.00
366.91	0.00
367.11	0.00
367.31	0.00
367.51	0.00
367.70	0.00
367.90	0.00
368.10	0.00
368.30	0.00
368.49	0.00
368.69	0.00
368.89	0.00
369.09	0.00
369.28	0.00
369.48	0.00
369.68	0.00
369.87	0.00
370.07	0.00
370.27	60.85
370.47	175.54
370.66	627.26
370.86	765.36
371.06	753.65
371.25	725.57
371.45	699.82
371.65	648.33
371.84	582.79
372.04	587.47
372.24	681.10
372.44	763.01
372.63	713.86
372.83	770.04
373.03	674.07
373.22	599.18
373.42	585.13
373.62	664.71
373.81	758.33
374.01	741.95
374.21	725.57
374.40	688.12
374.60	681.10
374.79	711.52
374.99	734.93
375.19	898.77
375.38	821.53
375.58	744.29
375.78	851.96
375.97	800.46
376.17	931.53
376.37	861.32
376.56	880.04
376.76	929.19
376.95	1006.43
377.15	1008.77
377.35	1015.79
377.54	1015.79
377.74	1095.37
377.93	1097.71
378.13	1078.99
378.33	1060.26
378.52	1004.09
378.72	919.83
378.91	912.81
379.11	842.59
379.31	795.78
379.50	821.53
379.70	1020.47
379.89	957.28
380.09	1064.94
380.28	1006.43
380.48	1118.78
380.68	1090.69
380.87	1025.15
381.07	961.96
381.26	1020.47
381.46	917.49
381.65	887.06
381.85	896.43
382.04	755.99
382.24	748.97
382.43	791.10
382.63	592.16
382.83	688.12
383.02	734.93
383.22	744.29
383.41	765.36
383.61	835.57
383.80	887.06
384.00	891.74
384.19	1067.28
384.39	1053.24
384.58	1142.18
384.78	973.66
384.97	971.32
385.17	971.32
385.36	894.08
385.56	1004.09
385.75	884.72
385.95	968.98
386.14	1165.59
386.34	1158.57
386.53	1041.54
386.72	959.62
386.92	1046.22
387.11	1029.84
387.31	1184.31
387.50	1011.11
387.70	1022.81
387.89	1048.56
388.09	1008.77
388.28	1018.13
388.48	1097.71
388.67	1156.22
388.86	1226.44
389.06	1399.64
389.25	1387.94
389.45	1446.45
389.64	1369.21
389.84	1329.42
390.03	1357.51
390.22	1437.09
390.42	1327.08
390.61	1441.77
390.81	1565.82
391.00	1418.36
391.19	1565.82
391.39	1521.35
391.58	1418.36
391.78	1329.42
391.97	1224.10
392.16	1167.93
392.36	1128.14
392.55	1064.94
392.75	833.23
392.94	587.47
393.13	746.63
393.33	772.38
393.52	917.49
393.71	999.41
393.91	1214.74
394.10	1366.87
394.29	1397.30
394.49	1458.15
394.68	1547.09
394.88	1633.69
395.07	1673.48
395.26	1586.88
395.46	1582.20
395.65	1465.18
395.84	1376.24
396.04	1205.38
396.23	968.98
396.42	814.51
396.62	903.45
396.81	919.83
397.00	1205.38
397.19	1427.73
397.39	1607.95
397.58	1792.85
397.77	1827.96
397.97	1923.92
398.16	1949.67
398.35	1987.11
398.55	1940.30
398.74	2125.21
398.93	2244.57
399.12	2115.84
399.32	2265.64
399.51	2141.59
399.70	2270.32
399.90	2218.83
400.09	2246.91
400.28	2256.28
400.47	2319.47
400.67	2300.75
400.86	2335.85
401.05	2436.50
401.24	2399.05
401.44	2459.90
401.63	2565.23
401.82	2537.14
402.01	2499.69
402.21	2579.27
402.40	2562.89
402.59	2502.03
402.78	2394.37
402.97	2345.22
403.17	2338.20
403.36	2466.92
403.55	2595.65
403.74	2621.40
403.93	2708.00
404.13	2590.97
404.32	2471.61
404.51	2569.91
404.70	2553.52
404.89	2583.95
405.09	2595.65
405.28	2417.77
405.47	2352.24
405.66	2366.28
405.85	2347.56
406.05	2368.62
406.24	2356.92
406.43	2649.49
406.62	2492.67
406.81	2595.65
407.00	2480.97
407.20	2401.39
407.39	2403.73
407.58	2530.12
407.77	2726.72
407.96	2530.12
408.15	2565.23
408.34	2668.21
408.54	2796.94
408.73	2944.39
408.92	2719.70
409.11	2834.39
409.30	2705.66
409.49	2415.43
409.68	2317.13
409.87	2246.91
410.07	2382.67
410.26	2537.14
410.45	2665.87
410.64	2731.41
410.83	2731.41
411.02	2855.45
411.21	2911.63
411.40	3023.97
411.59	2991.20
411.78	2843.75
411.98	2871.84
412.17	2953.76
412.36	2951.42
412.55	2899.92
412.74	2806.30
412.93	2775.88
413.12	2946.73
413.31	2993.55
413.50	3098.87
413.69	3070.78
413.88	3103.55
414.07	2932.69
414.26	2930.35
414.45	2925.67
414.64	3098.87
414.83	3169.09
415.02	3035.67
415.22	3105.89
415.41	3272.07
415.60	3112.91
415.79	3293.13
415.98	3372.71
416.17	3410.16
416.36	3356.33
416.55	3145.68
416.74	3234.62
416.93	3038.02
417.12	3049.72
417.31	3117.59
417.50	3098.87
417.69	3265.05
417.88	3239.30
418.07	3138.66
418.26	3227.60
418.45	3190.15
418.64	3494.42
418.83	3515.48
419.02	3377.39
419.21	3283.77
419.39	3241.64
419.58	3239.30
419.77	3091.85
419.96	3136.32
420.15	3410.16
420.34	3412.50
420.53	3513.14
420.72	3524.85
420.91	3548.25
421.10	3501.44
421.29	3339.94
421.48	3428.88
421.67	3613.79
421.86	3405.48
422.05	3297.81
422.24	3021.63
422.43	3000.57
422.61	3126.96
422.80	3370.37
422.99	3466.33
423.18	3243.98
423.37	3328.24
423.56	3213.56
423.75	3400.80
423.94	3332.92
424.13	3220.58
424.32	3131.64
424.50	3248.66
424.69	3246.32
424.88	3262.71
425.07	3225.26
425.26	3162.06
425.45	3117.59
425.64	3124.62
425.83	3119.93
426.01	3363.35
426.20	3393.78
426.39	3192.49
426.58	3190.15
426.77	2902.26
426.96	2883.54
427.15	2843.75
427.33	3070.78
427.52	3225.26
427.71	3052.06
427.90	3133.98
428.09	3063.76
428.28	3162.06
428.46	3061.42
428.65	3014.61
428.84	3183.13
429.03	3178.45
429.22	2920.99
429.40	2661.19
429.59	2583.95
429.78	2382.67
429.97	2256.28
430.16	2476.29
430.34	2342.88
430.53	2218.83
430.72	2406.07
430.91	2560.55
431.10	2897.58
431.28	3578.68
431.47	3756.56
431.66	3784.65
431.85	3482.72
432.03	3243.98
432.22	3248.66
432.41	3145.68
432.60	3499.10
432.79	3730.81
432.97	3770.60
433.16	3574.00
433.35	3328.24
433.54	3122.27
433.72	2878.86
433.91	3040.36
434.10	3262.71
434.28	3496.76
434.47	3627.83
434.66	3653.58
434.85	3648.90
435.03	3749.54
435.22	4142.75
435.41	4842.57
435.59	4765.33
435.78	4519.57
435.97	4133.39
436.16	4039.76
436.34	3868.91
436.53	3744.86
436.72	3913.38
436.90	3754.22
437.09	3758.90
437.28	3602.08
437.46	3637.19
437.65	3644.21
437.84	3456.97
438.02	3239.30
438.21	3145.68
438.40	3382.07
438.58	3714.43
438.77	3803.37
438.96	3726.13
439.14	3878.27
439.33	3913.38
439.52	3941.46
439.70	3922.74
439.89	3836.14
440.08	3700.39
440.26	3845.50
440.45	3894.65
440.63	4149.77
440.82	4273.82
441.01	4175.52
441.19	4135.73
441.38	4215.30
441.57	4299.56
441.75	4440.00
441.94	4603.83
442.12	4290.20
442.31	4486.81
442.50	4339.35
442.68	4388.50
442.87	4400.21
443.05	4390.84
443.24	4386.16
443.43	4472.76
443.61	4564.04
443.80	4571.07
443.98	4273.82
444.17	4306.59
444.35	4552.34
444.54	4685.75
444.73	4601.49
444.91	4493.83
445.10	4318.29
445.28	4065.51
445.47	4152.11
445.65	4028.06
445.84	4142.75
446.02	4163.81
446.21	4311.27
446.39	4325.31
446.58	4238.71
446.77	4648.30
446.95	4437.66
447.14	4594.47
447.32	4671.71
447.51	4655.33
447.69	4489.15
447.88	4346.37
448.06	4421.27
448.25	4468.08
448.43	4629.58
448.62	4472.76
448.80	4533.62
448.99	4440.00
449.17	4645.96
449.36	4475.10
449.54	4774.69
449.73	4784.06
449.91	4819.16
450.10	4983.00
450.28	4985.34
450.46	5135.14
450.65	5139.82
450.83	4983.00
451.02	4851.93
451.20	4842.57
451.39	4798.10
451.57	4812.14
451.76	4812.14
451.94	4833.21
452.13	4667.03
452.31	4554.68
452.49	4402.55
452.68	4140.41
452.86	4451.70
453.05	4489.15
453.23	4535.96
453.42	4629.58
453.60	4660.01
453.78	4873.00
453.97	4669.37
454.15	4760.65
454.34	4692.77
454.52	4725.54
454.70	4594.47
454.89	4608.51
455.07	4601.49
455.26	4683.41
455.44	4961.94
455.62	4917.47
455.81	4950.23
455.99	4877.68
456.17	4987.68
456.36	4877.68
456.54	4987.68
456.73	5090.67
456.91	5057.90
457.09	5214.71
457.28	5249.82
457.46	5067.26
457.64	5107.05
457.83	4959.60
458.01	4606.17
458.19	4863.63
458.38	4833.21
458.56	5025.13
458.74	5018.11
458.93	5048.54
459.11	4990.02
459.29	4922.15
459.48	4837.89
459.66	4887.04
459.84	4922.15
460.03	4889.38
460.21	5046.20
460.39	5022.79
460.57	5116.41
460.76	5015.77
460.94	5139.82
461.12	5062.58
461.31	5025.13
461.49	5254.50
461.67	5039.17
461.85	5069.60
462.04	5357.49
462.22	5738.99
462.40	5247.48
462.59	5301.31
462.77	5233.44
462.95	5261.52
463.13	5142.16
463.32	5158.54
463.50	5076.62
463.68	5144.50
463.86	5205.35
464.05	4947.89
464.23	5057.90
464.41	5036.83
464.59	4905.76
464.78	4954.91
464.96	5109.39
465.14	4875.34
465.32	5095.35
465.50	5270.89
465.69	5174.92
465.87	5144.50
466.05	5011.09
466.23	4985.34
466.41	4746.61
466.60	4844.91
466.78	4847.25
466.96	5018.11
467.14	4788.74
467.32	5104.71
467.51	5095.35
467.69	4812.14
467.87	4954.91
468.05	4957.25
468.23	5149.18
468.41	5097.69
468.60	4990.02
468.78	5142.16
468.96	4957.25
469.14	5144.50
469.32	5191.31
469.50	4959.60
469.69	5050.88
469.87	4959.60
470.05	4849.59
470.23	4924.49
470.41	4844.91
470.59	5043.85
470.77	4915.12
470.95	5111.73
471.14	5118.75
471.32	5163.22
471.50	5507.28
471.68	5305.99
471.86	5277.91
472.04	5423.02
472.22	5579.84
472.40	5320.04
472.58	5186.63
472.77	5118.75
472.95	5284.93
473.13	5247.48
473.31	5238.12
473.49	5280.25
473.67	5259.18
473.85	5465.15
474.03	5568.13
474.21	5448.77
474.39	5643.03
474.57	5607.92
474.75	5544.73
474.93	5624.31
475.12	5455.79
475.30	5275.57
475.48	5490.90
475.66	5636.01
475.84	5692.18
476.02	5301.31
476.20	5416.00
476.38	5434.72
476.56	5640.69
476.74	5809.21
476.92	5839.64
477.10	5820.91
477.28	5884.11
477.46	5937.94
477.64	6164.97
477.82	6022.20
478.00	6024.54
478.18	6003.47
478.36	5959.00
478.54	6017.52
478.72	5935.60
478.90	6120.50
479.08	6399.02
479.26	6286.68
479.44	6305.40
479.62	6394.34
479.80	6314.77
479.98	6317.11
480.16	6438.81
480.34	6289.02
480.52	6326.47
480.70	6356.90
480.88	6392.00
481.06	6654.14
481.24	6436.47
481.41	6768.83
481.59	7009.90
481.77	6757.13
481.95	6890.54
482.13	6832.02
482.31	6771.17
482.49	6832.02
482.67	6836.70
482.85	6881.18
483.03	7126.93
483.21	7220.55
483.39	7063.74
483.57	7056.72
483.74	6836.70
483.92	6944.37
484.10	7007.56
484.28	7136.29
484.46	7133.95
484.64	7351.62
484.82	7023.95
485.00	6902.24
485.18	6984.16
485.35	6832.02
485.53	6249.23
485.71	5870.06
485.89	5542.39
486.07	5944.96
486.25	6258.59
486.43	6888.20
486.61	6949.05
486.78	6895.22
486.96	6963.09
487.14	7187.79
487.32	7258.00
487.50	7229.91
487.68	7744.83
487.85	7845.48
488.03	7873.56
488.21	7721.43
488.39	7543.55
488.57	7571.63
488.75	7452.27
488.92	7686.32
489.10	8100.59
489.28	8358.05
489.46	8512.53
489.64	8557.00
489.81	8620.19
489.99	8503.17
490.17	8512.53
490.35	8507.85
490.53	8416.57
490.70	8245.71
490.88	8439.97
491.06	8472.74
491.24	8517.21
491.41	8425.93
491.59	7775.26
491.77	7899.31
491.95	7889.95
492.13	8142.72
492.30	8442.31
492.48	8751.26
492.66	8926.80
492.84	9135.11
493.01	9071.92
493.19	8849.57
493.37	8777.01
493.54	8669.34
493.72	8858.93
493.90	9013.40
494.08	9305.97
494.25	9413.63
494.43	9530.66
494.61	9518.96
494.79	9600.88
494.96	9652.37
495.14	9221.71
495.32	9109.36
495.49	9004.04
495.67	9064.89
495.85	9617.26
496.02	9614.92
496.20	9568.11
496.38	9432.36
496.55	9577.47
496.73	9474.49
496.91	9724.93
497.09	9907.49
497.26	10097.07
497.44	9802.16
497.62	9619.60
497.79	9554.07
497.97	8992.34
498.14	8933.82
498.32	9308.31
498.50	9713.22
498.67	9881.74
498.85	9795.14
499.03	9799.82
499.20	10066.64
499.38	9888.76
499.56	9966.00
499.73	9858.34
499.91	9472.15
500.08	9394.91
500.26	8975.95
500.44	9184.26
500.61	9315.33
500.79	9476.83
500.97	9448.74
501.14	9287.25
501.32	9231.07
501.49	9174.90
501.67	9067.24
501.84	9329.38
502.02	9561.09
502.20	9558.75
502.37	9645.35
502.55	9589.17
502.72	9788.12
502.90	9860.68
503.07	9762.37
503.25	9366.82
503.43	8982.98
503.60	8805.10
503.78	8528.91
503.95	8798.07
504.13	9146.81
504.30	9830.25
504.48	9804.50
504.65	9827.91
504.83	9893.44
505.01	10155.58
505.18	9848.97
505.36	10256.23
505.53	10029.20
505.71	10183.67
505.88	10457.51
506.06	10057.28
506.23	9867.70
506.41	9860.68
506.58	9914.51
506.76	9813.87
506.93	9837.27
507.11	9827.91
507.28	9919.19
507.46	9973.02
507.63	9331.72
507.81	9453.42
507.98	9521.30
508.16	9699.18
508.33	9860.68
508.50	10190.69
508.68	10366.23
508.85	10448.15
509.03	10457.51
509.20	10317.08
509.38	10157.92
509.55	9811.53
509.73	10003.45
509.90	9933.23
510.08	10167.29
510.25	10078.35
510.42	10157.92
510.60	10230.48
510.77	10408.36
510.95	10665.82
511.12	10267.93
511.30	10408.36
511.47	10775.83
511.64	10787.53
511.82	10665.82
511.99	10359.21
512.17	10073.67
512.34	10059.62
512.51	10001.11
512.69	10036.22
512.86	10228.14
513.04	10342.83
513.21	10314.74
513.38	10211.76
513.56	10111.11
513.73	9755.35
513.90	9858.34
514.08	9834.93
514.25	10083.03
514.43	10054.94
514.60	10162.61
514.77	10122.82
514.95	10246.87
515.12	10050.26
515.29	10394.32
515.47	10506.66
515.64	10583.90
515.81	10487.94
515.99	10328.78
516.16	9813.87
516.33	9202.99
516.51	8606.15
516.68	8475.08
516.85	8264.43
517.03	8383.80
517.20	9018.08
517.37	9579.81
517.54	10235.16
517.72	10073.67
517.89	9425.34
518.06	8521.89
518.24	8692.75
518.41	9280.22
518.58	9659.39
518.75	9863.02
518.93	10045.58
519.10	9781.10
519.27	9951.96
519.45	10050.26
519.62	10303.04
519.79	10586.24
519.96	10396.66
520.14	10284.31
520.31	10101.75
520.48	10122.82
520.65	10258.57
520.83	10569.86
521.00	10684.55
521.17	10478.58
521.34	10312.40
521.52	10499.64
521.69	10616.67
521.86	10747.74
522.03	10862.43
522.20	10043.24
522.38	9879.40
522.55	9783.44
522.72	9921.53
522.89	10029.20
523.07	10258.57
523.24	10338.15
523.41	10347.51
523.58	10576.88
523.75	10836.68
523.92	10768.80
524.10	10714.97
524.27	10906.90
524.44	10686.89
524.61	10499.64
524.78	10640.08
524.96	10619.01
525.13	10509.01
525.30	10471.56
525.47	10967.75
525.64	10988.82
525.81	10766.46
525.98	10312.40
526.16	9544.70
526.33	9273.20
526.50	9287.25
526.67	9055.53
526.84	9022.77
527.01	9584.49
527.18	9790.46
527.36	9888.76
527.53	10375.59
527.70	10555.82
527.87	10494.96
528.04	10455.17
528.21	10232.82
528.38	10494.96
528.55	11096.48
528.72	11023.92
528.89	11066.05
529.07	11023.92
529.24	10846.04
529.41	10600.29
529.58	10340.49
529.75	10202.40
529.92	10473.90
530.09	10740.72
530.26	10869.45
530.43	10871.79
530.60	10810.93
530.77	10970.09
530.94	11108.18
531.11	10979.45
531.28	10832.00
531.46	10668.16
531.63	10717.31
531.80	10785.19
531.97	10590.92
532.14	10314.74
532.31	9921.53
532.48	9750.67
532.65	9589.17
532.82	9900.47
532.99	10331.12
533.16	10525.39
533.33	10611.99
533.50	10721.99
533.67	10380.28
533.84	10183.67
534.01	10380.28
534.18	10640.08
534.35	10546.45
534.52	10403.68
534.69	10544.11
534.86	10824.98
535.03	10724.33
535.20	10876.47
535.37	11154.99
535.54	11052.01
535.71	11059.03
535.88	10942.00
536.05	10773.49
536.22	10705.61
536.38	10527.73
536.55	10167.29
536.72	10068.98
536.89	10001.11
537.06	10176.65
537.23	10368.57
537.40	10829.66
537.57	10822.64
537.74	10808.59
537.91	10640.08
538.08	10684.55
538.25	10497.30
538.42	10476.24
538.59	10827.32
538.75	10413.04
538.92	10373.25
539.09	10401.34
539.26	10242.18
539.43	10321.76
539.60	10176.65
539.77	10277.29
539.94	10509.01
540.11	10106.43
540.28	9977.70
540.44	9980.04
540.61	10010.47
540.78	10190.69
540.95	10590.92
541.12	10663.48
541.29	10642.42
541.46	10862.43
541.62	10883.49
541.79	10946.69
541.96	10766.46
542.13	10420.06
542.30	10480.92
542.47	10862.43
542.63	10611.99
542.80	10403.68
542.97	10445.81
543.14	10654.12
543.31	10448.15
543.48	10576.88
543.64	11014.56
543.81	10988.82
543.98	11229.89
544.15	11007.54
544.32	10576.88
544.48	10450.49
544.65	10679.86
544.82	10817.96
544.99	10803.91
545.16	10729.02
545.32	10668.16
545.49	11421.81
545.66	12346.33
545.83	12533.57
546.00	11660.55
546.16	11269.68
546.33	11084.78
546.50	10707.95
546.67	10747.74
546.83	10750.08
547.00	10649.44
547.17	10394.32
547.34	10111.11
547.50	10120.48
547.67	10186.01
547.84	10244.52
548.00	10317.08
548.17	10586.24
548.34	10539.43
548.51	10382.62
548.67	10354.53
548.84	10431.77
549.01	10544.11
549.18	10483.26
549.34	10534.75
549.51	10050.26
549.68	10464.54
549.84	10441.13
550.01	10160.27
550.18	10230.48
550.34	10307.72
550.51	10345.17
550.68	10300.70
550.84	10328.78
551.01	10218.78
551.18	9942.60
551.34	9961.32
551.51	10207.08
551.68	10106.43
551.84	10457.51
552.01	10305.38
552.18	10127.50
552.34	9874.72
552.51	10043.24
552.68	9973.02
552.84	9926.21
553.01	10267.93
553.18	9874.72
553.34	10160.27
553.51	10094.73
553.67	10104.09
553.84	10277.29
554.01	10008.13
554.17	9954.30
554.34	9851.31
554.51	10106.43
554.67	10120.48
554.84	10059.62
555.00	10183.67
555.17	10019.83
555.33	9900.47
555.50	9980.04
555.67	9877.06
555.83	9863.02
556.00	9797.48
556.16	9970.68
556.33	9692.16
556.50	9481.51
556.66	9734.29
556.83	9521.30
556.99	9671.09
557.16	9624.28
557.32	9820.89
557.49	9717.90
557.65	9820.89
557.82	9771.74
557.98	9767.06
558.15	9486.19
558.32	9341.08
558.48	8973.61
558.65	8877.65
558.81	9376.19
558.98	9249.80
559.14	9434.70
559.31	9315.33
559.47	9394.91
559.64	9357.46
559.80	9233.41
559.97	9153.84
560.13	9177.24
560.30	9685.14
560.46	9682.80
560.63	9757.69
560.79	9799.82
560.96	9874.72
561.12	9577.47
561.29	9060.21
561.45	9153.84
561.61	9217.03
561.78	9420.66
561.94	9446.40
562.11	9383.21
562.27	9254.48
562.44	9242.78
562.60	9338.74
562.77	9430.02
562.93	9420.66
563.10	9652.37
563.26	9507.26
563.42	9472.15
563.59	9418.32
563.75	8912.76
563.92	9266.18
564.08	9121.07
564.24	9298.95
564.41	9401.93
564.57	9320.01
564.74	9437.04
564.90	9418.32
565.07	9329.38
565.23	9048.51
565.39	9015.74
565.56	8711.47
565.72	8772.33
565.88	8753.60
566.05	8812.12
566.21	8990.00
566.38	8931.48
566.54	9006.38
566.70	9036.81
566.87	9142.13
567.03	9130.43
567.19	9095.32
567.36	9043.83
567.52	8943.19
567.68	9100.00
567.85	8681.05
568.01	8669.34
568.17	8493.80
568.34	8442.31
568.50	8287.84
568.66	8573.38
568.83	8655.30
568.99	8266.77
569.15	8702.11
569.32	8702.11
569.48	8659.98
569.64	8348.69
569.81	8549.98
569.97	8571.04
570.13	8446.99
570.30	8353.37
570.46	8329.97
570.62	8191.88
570.78	8088.89
570.95	8159.11
571.11	8336.99
571.27	8505.51
571.43	8496.14
571.60	8493.80
571.76	8557.00
571.92	8477.42
572.09	8383.80
572.25	8437.63
572.41	8652.96
572.57	8564.02
572.74	8561.68
572.90	8411.89
573.06	8329.97
573.22	8491.46
573.38	8332.31
573.55	8461.04
573.71	8461.04
573.87	8446.99
574.03	8355.71
574.20	8280.82
574.36	8002.29
574.52	8245.71
574.68	8353.37
574.84	8255.07
575.01	8058.46
575.17	7854.84
575.33	8105.28
575.49	8112.30
575.65	8138.04
575.82	8224.64
575.98	8028.04
576.14	8301.88
576.30	8493.80
576.46	8439.97
576.62	8720.84
576.79	8624.87
576.95	8362.73
577.11	8278.47
577.27	8138.04
577.43	8369.76
577.59	8079.53
577.75	7981.23
577.92	7943.78
578.08	7686.32
578.24	7735.47
578.40	7957.82
578.56	8044.42
578.72	8306.56
578.88	8320.60
579.04	8376.78
579.21	8304.22
579.37	8145.06
579.53	8109.96
579.69	8386.14
579.85	8528.91
580.01	8241.03
580.17	8332.31
580.33	8290.18
580.49	8245.71
580.65	8283.16
580.82	8390.82
580.98	8344.01
581.14	8168.47
581.30	8243.37
581.46	8093.57
581.62	8142.72
581.78	8397.84
581.94	8411.89
582.10	8397.84
582.26	8507.85
582.42	8383.80
582.58	8486.78
582.74	8231.66
582.90	8479.76
583.06	8301.88
583.22	8329.97
583.38	8409.54
583.54	8346.35
583.70	8313.58
583.86	8348.69
584.02	8194.22
584.18	8514.87
584.34	8360.39
584.50	8201.24
584.66	8423.59
584.82	8182.51
584.98	8332.31
585.14	7974.21
585.30	8028.04
585.46	7845.48
585.62	7859.52
585.78	7838.45
585.94	8053.78
586.10	7733.13
586.26	7927.39
586.42	8154.43
586.58	8018.68
586.74	7953.14
586.90	8084.21
587.06	7866.54
587.22	8035.06
587.38	7527.16
587.54	7765.90
587.70	7496.74
587.86	7042.67
588.02	6988.84
588.18	6822.66
588.34	6637.76
588.49	6310.08
588.65	5907.51
588.81	5645.37
588.97	5638.35
589.13	5804.53
589.29	5568.13
589.45	5675.80
589.61	5874.74
589.77	5996.45
589.93	6188.38
590.08	6628.40
590.24	6494.99
590.40	6731.38
590.56	6717.34
590.72	6724.36
590.88	6483.28
591.04	6604.99
591.20	6583.93
591.35	6663.51
591.51	6586.27
591.67	6525.41
591.83	6403.71
591.99	6487.96
592.15	6647.12
592.31	6705.63
592.46	6871.81
592.62	6855.43
592.78	7005.22
592.94	6867.13
593.10	7138.63
593.26	7208.85
593.41	7309.49
593.57	7155.02
593.73	6911.60
593.89	6520.73
594.05	6305.40
594.20	6171.99
594.36	6010.50
594.52	6120.50
594.68	6157.95
