SpectraSuite Data File
++++++++++++++++++++++++++++++++++++
Date: Fri Oct 04 11:44:24 GMT-05:00 2013
User: price-jones
Dark Spectrum Present: No
Reference Spectrum Present: No
Number of Sampled Component Spectra: 1
Spectrometers: USB2+H05261
Integration Time (usec): 100000 (USB2+H05261)
Spectra Averaged: 1 (USB2+H05261)
Boxcar Smoothing: 0 (USB2+H05261)
Correct for Electrical Dark: No (USB2+H05261)
Strobe/Lamp Enabled: No (USB2+H05261)
Correct for Detector Non-linearity: No (USB2+H05261)
Correct for Stray Light: No (USB2+H05261)
Number of Pixels in Processed Spectrum: 2048
>>>>>Begin Processed Spectral Data<<<<<
365.73	0.00
365.92	0.00
366.12	0.00
366.32	0.00
366.52	0.00
366.72	0.00
366.91	0.00
367.11	0.00
367.31	0.00
367.51	0.00
367.70	0.00
367.90	0.00
368.10	0.00
368.30	0.00
368.49	0.00
368.69	0.00
368.89	0.00
369.09	0.00
369.28	0.00
369.48	0.00
369.68	16.38
369.87	0.00
370.07	16.38
370.27	0.00
370.47	84.26
370.66	447.04
370.86	505.56
371.06	650.67
371.25	589.82
371.45	636.63
371.65	505.56
371.84	547.69
372.04	514.92
372.24	575.77
372.44	610.88
372.63	603.86
372.83	566.41
373.03	512.58
373.22	535.98
373.42	505.56
373.62	526.62
373.81	610.88
374.01	692.80
374.21	629.60
374.40	589.82
374.60	545.34
374.79	559.39
374.99	648.33
375.19	676.41
375.38	657.69
375.58	636.63
375.78	643.65
375.97	648.33
376.17	678.76
376.37	688.12
376.56	683.44
376.76	690.46
376.95	664.71
377.15	791.10
377.35	800.46
377.54	905.79
377.74	826.21
377.93	875.36
378.13	894.08
378.33	816.85
378.52	798.12
378.72	709.18
378.91	802.80
379.11	746.63
379.31	681.10
379.50	622.58
379.70	727.91
379.89	751.31
380.09	875.36
380.28	858.98
380.48	901.11
380.68	880.04
380.87	777.06
381.07	788.76
381.26	662.37
381.46	725.57
381.65	760.67
381.85	606.20
382.04	636.63
382.24	645.99
382.43	571.09
382.63	610.88
382.83	566.41
383.02	674.07
383.22	538.32
383.41	526.62
383.61	580.45
383.80	648.33
384.00	821.53
384.19	788.76
384.39	858.98
384.58	748.97
384.78	805.14
384.97	837.91
385.17	919.83
385.36	788.76
385.56	697.48
385.75	711.52
385.95	830.89
386.14	863.66
386.34	748.97
386.53	805.14
386.72	856.64
386.92	835.57
387.11	823.87
387.31	861.32
387.50	837.91
387.70	786.42
387.89	908.13
388.09	863.66
388.28	793.44
388.48	784.08
388.67	868.34
388.86	987.71
389.06	1041.54
389.25	1128.14
389.45	1076.65
389.64	1125.80
389.84	1095.37
390.03	1123.46
390.22	1057.92
390.42	1071.97
390.61	1125.80
390.81	1163.25
391.00	1097.71
391.19	1179.63
391.39	1144.52
391.58	1064.94
391.78	1032.18
391.97	980.68
392.16	1001.75
392.36	929.19
392.55	788.76
392.75	582.79
392.94	491.51
393.13	578.11
393.33	648.33
393.52	620.24
393.71	866.00
393.91	933.87
394.10	1011.11
394.29	1034.52
394.49	1125.80
394.68	1261.55
394.88	1261.55
395.07	1352.83
395.26	1313.04
395.46	1263.89
395.65	1226.44
395.84	1128.14
396.04	957.28
396.23	755.99
396.42	737.27
396.62	690.46
396.81	779.40
397.00	910.47
397.19	1048.56
397.39	1266.23
397.58	1420.71
397.77	1528.37
397.97	1483.90
398.16	1446.45
398.35	1626.67
398.55	1577.52
398.74	1680.50
398.93	1757.74
399.12	1579.86
399.32	1577.52
399.51	1717.95
399.70	1771.79
399.90	1818.60
400.09	1736.68
400.28	1724.97
400.47	1769.44
400.67	1858.39
400.86	1785.83
401.05	1834.98
401.24	1867.75
401.44	1860.73
401.63	1928.60
401.82	1937.96
402.01	1886.47
402.21	1970.73
402.40	1919.24
402.59	1849.02
402.78	1748.38
402.97	1860.73
403.17	1842.00
403.36	1914.56
403.55	2022.22
403.74	1959.03
403.93	2010.52
404.13	1998.82
404.32	2026.90
404.51	2129.89
404.70	2235.21
404.89	2057.33
405.09	2118.18
405.28	1942.64
405.47	1893.49
405.66	1905.20
405.85	1846.68
406.05	1729.66
406.24	1753.06
406.43	1839.66
406.62	1856.04
406.81	2010.52
407.00	1954.35
407.20	1837.32
407.39	1844.34
407.58	2036.27
407.77	2059.67
407.96	2040.95
408.15	2118.18
408.34	2242.23
408.54	2143.93
408.73	2087.76
408.92	2202.44
409.11	2146.27
409.30	2073.71
409.49	2001.16
409.68	1830.30
409.87	1799.87
410.07	1771.79
410.26	2012.86
410.45	2132.23
410.64	2045.63
410.83	2209.47
411.02	2214.15
411.21	2293.72
411.40	2415.43
411.59	2328.83
411.78	2275.00
411.98	2235.21
412.17	2335.85
412.36	2169.68
412.55	2326.49
412.74	2239.89
412.93	2188.40
413.12	2047.97
413.31	2352.24
413.50	2356.92
413.69	2396.71
413.88	2349.90
414.07	2415.43
414.26	2401.39
414.45	2399.05
414.64	2319.47
414.83	2359.26
415.02	2359.26
415.22	2335.85
415.41	2363.94
415.60	2525.44
415.79	2499.69
415.98	2656.51
416.17	2588.63
416.36	2682.25
416.55	2377.98
416.74	2537.14
416.93	2485.65
417.12	2396.71
417.31	2431.82
417.50	2413.09
417.69	2520.76
417.88	2478.63
418.07	2389.69
418.26	2434.16
418.45	2422.45
418.64	2579.27
418.83	2551.18
419.02	2534.80
419.21	2520.76
419.39	2415.43
419.58	2349.90
419.77	2305.43
419.96	2487.99
420.15	2586.29
420.34	2572.25
420.53	2799.28
420.72	2923.33
420.91	2764.17
421.10	2663.53
421.29	2642.46
421.48	2560.55
421.67	2717.36
421.86	2616.72
422.05	2541.82
422.24	2349.90
422.43	2223.51
422.61	2509.05
422.80	2588.63
422.99	2562.89
423.18	2588.63
423.37	2600.34
423.56	2520.76
423.75	2445.86
423.94	2642.46
424.13	2520.76
424.32	2590.97
424.50	2513.74
424.69	2462.24
424.88	2457.56
425.07	2401.39
425.26	2441.18
425.45	2382.67
425.64	2382.67
425.83	2354.58
426.01	2567.57
426.20	2633.10
426.39	2518.42
426.58	2340.54
426.77	2382.67
426.96	2200.10
427.15	2179.04
427.33	2244.57
427.52	2464.58
427.71	2658.85
427.90	2499.69
428.09	2516.08
428.28	2352.24
428.46	2267.98
428.65	2270.32
428.84	2335.85
429.03	2396.71
429.22	2345.22
429.40	2078.40
429.59	1935.62
429.78	1881.79
429.97	1724.97
430.16	1753.06
430.34	1863.07
430.53	1743.70
430.72	1842.00
430.91	2087.76
431.10	2307.77
431.28	2635.44
431.47	2928.01
431.66	2920.99
431.85	2733.75
432.03	2422.45
432.22	2553.52
432.41	2382.67
432.60	2810.98
432.79	2857.79
432.97	2892.90
433.16	2808.64
433.35	2628.42
433.54	2293.72
433.72	2289.04
433.91	2373.30
434.10	2635.44
434.28	2605.02
434.47	2897.58
434.66	2895.24
434.85	2787.58
435.03	2862.48
435.22	3201.85
435.41	3988.27
435.59	4131.05
435.78	3831.46
435.97	3370.37
436.16	3155.04
436.34	3080.14
436.53	2972.48
436.72	2930.35
436.90	2815.66
437.09	2899.92
437.28	2789.92
437.46	2888.22
437.65	2867.16
437.84	2761.83
438.02	2546.50
438.21	2445.86
438.40	2569.91
438.58	2670.55
438.77	2761.83
438.96	2810.98
439.14	2883.54
439.33	3061.42
439.52	3122.27
439.70	2995.89
439.89	2916.31
440.08	2913.97
440.26	2867.16
440.45	2871.84
440.63	3218.24
440.82	3159.72
441.01	3234.62
441.19	3283.77
441.38	3349.31
441.57	3377.39
441.75	3318.88
441.94	3424.20
442.12	3407.82
442.31	3248.66
442.50	3344.63
442.68	3267.39
442.87	3382.07
443.05	3361.01
443.24	3297.81
443.43	3426.54
443.61	3545.91
443.80	3508.46
443.98	3386.76
444.17	3239.30
444.35	3569.32
444.54	3559.95
444.73	3517.83
444.91	3501.44
445.10	3375.05
445.28	3098.87
445.47	3023.97
445.65	3082.49
445.84	3197.17
446.02	3248.66
446.21	3447.61
446.39	3410.16
446.58	3279.09
446.77	3515.48
446.95	3501.44
447.14	3597.40
447.32	3681.66
447.51	3602.08
447.69	3508.46
447.88	3339.94
448.06	3442.93
448.25	3414.84
448.43	3524.85
448.62	3435.91
448.80	3405.48
448.99	3527.19
449.17	3557.61
449.36	3463.99
449.54	3466.33
449.73	3674.64
449.91	3721.45
450.10	3819.75
450.28	3817.41
450.46	3887.63
450.65	3824.44
450.83	3817.41
451.02	3714.43
451.20	3754.22
451.39	3669.96
451.57	3590.38
451.76	3595.06
451.94	3826.78
452.13	3705.07
452.31	3574.00
452.49	3262.71
452.68	3281.43
452.86	3204.19
453.05	3449.95
453.23	3438.25
453.42	3508.46
453.60	3592.72
453.78	3625.49
453.97	3623.15
454.15	3602.08
454.34	3550.59
454.52	3609.11
454.70	3496.76
454.89	3475.70
455.07	3548.25
455.26	3581.02
455.44	3726.13
455.62	3747.20
455.81	3808.05
455.99	3737.84
456.17	3854.86
456.36	3803.37
456.54	3868.91
456.73	3648.90
456.91	3913.38
457.09	3908.69
457.28	3995.29
457.46	3868.91
457.64	3758.90
457.83	3744.86
458.01	3534.21
458.19	3688.68
458.38	3747.20
458.56	3843.16
458.74	3985.93
458.93	3686.34
459.11	3712.09
459.29	3641.87
459.48	3875.93
459.66	3679.32
459.84	3674.64
460.03	3941.46
460.21	3815.07
460.39	3826.78
460.57	3829.12
460.76	3871.25
460.94	3882.95
461.12	3901.67
461.31	3789.33
461.49	3887.63
461.67	3911.04
461.85	4016.36
462.04	4002.32
462.22	4397.87
462.40	4018.70
462.59	3859.54
462.77	3754.22
462.95	3840.82
463.13	3850.18
463.32	4058.49
463.50	3896.99
463.68	3974.23
463.86	3768.26
464.05	3880.61
464.23	3836.14
464.41	3899.33
464.59	3709.75
464.78	3747.20
464.96	3751.88
465.14	3712.09
465.32	3896.99
465.50	3999.98
465.69	4060.83
465.87	3885.29
466.05	3854.86
466.23	3709.75
466.41	3681.66
466.60	3625.49
466.78	3571.66
466.96	3583.36
467.14	3861.88
467.32	3960.19
467.51	3857.20
467.69	3768.26
467.87	3864.22
468.05	3878.27
468.23	3911.04
468.41	3786.99
468.60	3964.87
468.78	3873.59
468.96	3859.54
469.14	3964.87
469.32	3932.10
469.50	3679.32
469.69	3815.07
469.87	3665.28
470.05	3681.66
470.23	3639.53
470.41	3775.28
470.59	3730.81
470.77	3829.12
470.95	3847.84
471.14	3962.53
471.32	3817.41
471.50	4102.96
471.68	4152.11
471.86	4201.26
472.04	4135.73
472.22	4063.17
472.40	3852.52
472.58	4037.42
472.77	3950.82
472.95	3971.89
473.13	4112.32
473.31	3878.27
473.49	3885.29
473.67	3971.89
473.85	4072.53
474.03	4166.15
474.21	4266.80
474.39	4259.78
474.57	4322.97
474.75	4276.16
474.93	4292.54
475.12	4149.77
475.30	4257.43
475.48	4149.77
475.66	4203.60
475.84	4152.11
476.02	4119.34
476.20	4044.45
476.38	4119.34
476.56	4292.54
476.74	4292.54
476.92	4205.94
477.10	4318.29
477.28	4554.68
477.46	4547.66
477.64	4531.28
477.82	4631.92
478.00	4716.18
478.18	4482.13
478.36	4634.26
478.54	4514.89
478.72	4564.04
478.90	4596.81
479.08	4709.16
479.26	4908.10
479.44	4858.95
479.62	4798.10
479.80	4636.60
479.98	4788.74
480.16	4903.42
480.34	4762.99
480.52	4875.34
480.70	4931.51
480.88	4961.94
481.06	4863.63
481.24	5039.17
481.41	5139.82
481.59	5170.24
481.77	5210.03
481.95	5078.96
482.13	5093.01
482.31	5149.18
482.49	5135.14
482.67	5315.36
482.85	5242.80
483.03	5371.53
483.21	5240.46
483.39	5359.83
483.57	5179.61
483.74	5245.14
483.92	5242.80
484.10	5252.16
484.28	5385.57
484.46	5589.20
484.64	5619.63
484.82	5327.06
485.00	5224.08
485.18	5123.43
485.35	5107.05
485.53	4695.11
485.71	4482.13
485.89	4355.74
486.07	4568.73
486.25	4842.57
486.43	5064.92
486.61	5198.33
486.78	5195.99
486.96	5142.16
487.14	5441.75
487.32	5490.90
487.50	5771.76
487.68	6031.56
487.85	6015.18
488.03	5865.38
488.21	5926.24
488.39	5823.25
488.57	5540.05
488.75	5518.98
488.92	5982.41
489.10	6099.44
489.28	6338.17
489.46	6544.14
489.64	6516.05
489.81	6520.73
489.99	6509.03
490.17	6532.44
490.35	6413.07
490.53	6532.44
490.70	6326.47
490.88	6384.98
491.06	6733.72
491.24	6665.85
491.41	6408.39
491.59	6108.80
491.77	6085.39
491.95	5937.94
492.13	6171.99
492.30	6523.07
492.48	6731.38
492.66	6759.47
492.84	6640.10
493.01	6588.61
493.19	6579.25
493.37	6658.82
493.54	6532.44
493.72	6562.86
493.90	6846.07
494.08	7105.87
494.25	7136.29
494.43	7117.57
494.61	7157.36
494.79	7428.86
494.96	7028.63
495.14	7122.25
495.32	6857.77
495.49	6677.55
495.67	6902.24
495.85	7073.10
496.02	7482.69
496.20	7293.11
496.38	7131.61
496.55	7009.90
496.73	7211.19
496.91	7351.62
497.09	7616.10
497.26	7510.78
497.44	7370.35
497.62	7307.15
497.79	7070.76
497.97	6806.28
498.14	6890.54
498.32	6869.47
498.50	7126.93
498.67	7300.13
498.85	7349.28
499.03	7332.90
499.20	7515.46
499.38	7431.20
499.56	7428.86
499.73	7372.69
499.91	7344.60
500.08	7180.76
500.26	6986.50
500.44	6909.26
500.61	7358.64
500.79	7061.40
500.97	7030.97
501.14	6881.18
501.32	7028.63
501.49	6974.80
501.67	6700.95
501.84	6979.48
502.02	6995.86
502.20	7330.56
502.37	7171.40
502.55	6988.84
502.72	7286.09
502.90	7236.94
503.07	7218.21
503.25	7054.37
503.43	6623.72
503.60	6544.14
503.78	6555.84
503.95	6530.09
504.13	7007.56
504.30	7459.29
504.48	7424.18
504.65	7344.60
504.83	7447.58
505.01	7508.44
505.18	7405.46
505.36	7672.28
505.53	7592.70
505.71	7667.60
505.88	7836.11
506.06	7616.10
506.23	7480.35
506.41	7468.65
506.58	7421.84
506.76	7424.18
506.93	7442.90
507.11	7157.36
507.28	7393.75
507.46	7372.69
507.63	7183.10
507.81	7105.87
507.98	7328.22
508.16	7365.67
508.33	7527.16
508.50	7520.14
508.68	7803.35
508.85	7770.58
509.03	7920.37
509.20	7899.31
509.38	7623.12
509.55	7332.90
509.73	7531.84
509.90	7442.90
510.08	7536.52
510.25	7702.70
510.42	7548.23
510.60	7693.34
510.77	7573.97
510.95	7751.85
511.12	7693.34
511.30	7918.03
511.47	7990.59
511.64	8049.10
511.82	8009.31
511.99	7871.22
512.17	7564.61
512.34	7616.10
512.51	7508.44
512.69	7592.70
512.86	7609.08
513.04	7829.09
513.21	7981.23
513.38	7623.12
513.56	7412.48
513.73	7307.15
513.90	7382.05
514.08	7410.14
514.25	7454.61
514.43	7712.07
514.60	7765.90
514.77	7831.43
514.95	7831.43
515.12	7681.64
515.29	7674.62
515.47	7840.79
515.64	7915.69
515.81	7824.41
515.99	7768.24
516.16	7508.44
516.33	6633.08
516.51	6513.71
516.68	6314.77
516.85	6214.12
517.03	6317.11
517.20	6895.22
517.37	7311.83
517.54	7569.29
517.72	7723.77
517.89	6981.82
518.06	6642.44
518.24	6616.69
518.41	7047.35
518.58	7375.03
518.75	7297.79
518.93	7335.24
519.10	7396.09
519.27	7536.52
519.45	7442.90
519.62	7817.39
519.79	7871.22
519.96	7756.54
520.14	7644.19
520.31	7445.24
520.48	7529.50
520.65	7740.15
520.83	7882.92
521.00	7906.33
521.17	7878.24
521.34	7709.72
521.52	7627.81
521.69	8018.68
521.86	8060.80
522.03	8063.15
522.20	7674.62
522.38	7475.67
522.55	7360.98
522.72	7470.99
522.89	7637.17
523.07	7758.88
523.24	7749.51
523.41	7915.69
523.58	7946.12
523.75	8091.23
523.92	7992.93
524.10	7899.31
524.27	8028.04
524.44	7859.52
524.61	7887.61
524.78	7850.16
524.96	8006.97
525.13	7999.95
525.30	8196.56
525.47	8147.40
525.64	8278.47
525.81	7894.63
525.98	7616.10
526.16	7316.51
526.33	7007.56
526.50	7084.80
526.67	6567.54
526.84	6869.47
527.01	7229.91
527.18	7606.74
527.36	7590.36
527.53	8105.28
527.70	7838.45
527.87	7817.39
528.04	7779.94
528.21	7714.41
528.38	7981.23
528.55	8297.20
528.72	8264.43
528.89	8542.96
529.07	8243.37
529.24	7990.59
529.41	8053.78
529.58	7674.62
529.75	7583.34
529.92	7805.69
530.09	7829.09
530.26	8262.09
530.43	8098.25
530.60	8201.24
530.77	8376.78
530.94	8210.60
531.11	8203.58
531.28	8166.13
531.46	7934.42
531.63	8013.99
531.80	8116.98
531.97	7913.35
532.14	7775.26
532.31	7597.38
532.48	7255.66
532.65	7229.91
532.82	7527.16
532.99	7744.83
533.16	7782.28
533.33	8081.87
533.50	8051.44
533.67	7726.11
533.84	7625.47
534.01	7761.22
534.18	7861.86
534.35	7901.65
534.52	7765.90
534.69	7908.67
534.86	8210.60
535.03	8177.83
535.20	8266.77
535.37	8278.47
535.54	8299.54
535.71	8353.37
535.88	8320.60
536.05	7953.14
536.22	7772.92
536.38	7782.28
536.55	7763.56
536.72	7480.35
536.89	7520.14
537.06	7674.62
537.23	7838.45
537.40	8168.47
537.57	8093.57
537.74	7913.35
537.91	8056.12
538.08	8124.00
538.25	7878.24
538.42	8051.44
538.59	7969.52
538.75	7927.39
538.92	7700.36
539.09	7709.72
539.26	7744.83
539.43	7868.88
539.60	7672.28
539.77	7915.69
539.94	7903.99
540.11	7655.89
540.28	7485.03
540.44	7573.97
540.61	7716.75
540.78	7742.49
540.95	8126.34
541.12	8514.87
541.29	8496.14
541.46	8767.65
541.62	8697.43
541.79	8643.60
541.96	8362.73
542.13	8465.72
542.30	8479.76
542.47	8465.72
542.63	8386.14
542.80	8414.23
542.97	8255.07
543.14	8255.07
543.31	8196.56
543.48	8456.36
543.64	8557.00
543.81	8709.13
543.98	8514.87
544.15	8585.08
544.32	8561.68
544.48	8217.62
544.65	8283.16
544.82	8568.70
544.99	8360.39
545.16	8400.18
545.32	8159.11
545.49	9181.92
545.66	9968.34
545.83	10700.93
546.00	10242.18
546.16	9343.42
546.33	8877.65
546.50	8484.44
546.67	8149.75
546.83	8322.94
547.00	8067.83
547.17	8177.83
547.34	7878.24
547.50	7878.24
547.67	7735.47
547.84	7779.94
548.00	8177.83
548.17	8152.09
548.34	8058.46
548.51	8042.08
548.67	8105.28
548.84	8154.43
549.01	8318.26
549.18	8023.36
549.34	7761.22
549.51	7896.97
549.68	7964.84
549.84	7709.72
550.01	7925.05
550.18	7850.16
550.34	7740.15
550.51	7768.24
550.68	7829.09
550.84	7784.62
551.01	7686.32
551.18	7548.23
551.34	7644.19
551.51	7887.61
551.68	8006.97
551.84	7875.90
552.01	7798.66
552.18	7899.31
552.34	7466.31
552.51	7456.95
552.68	7524.82
552.84	7566.95
553.01	7431.20
553.18	7569.29
553.34	7592.70
553.51	7733.13
553.67	7651.21
553.84	7719.09
554.01	7683.98
554.17	7639.51
554.34	7501.42
554.51	7747.17
554.67	7590.36
554.84	7599.72
555.00	7669.94
555.17	7595.04
555.33	7613.76
555.50	7431.20
555.67	7637.17
555.83	7454.61
556.00	7485.03
556.16	7515.46
556.33	7325.88
556.50	7201.83
556.66	7229.91
556.83	7112.89
556.99	7087.14
557.16	7274.38
557.32	7124.59
557.49	7213.53
557.65	7070.76
557.82	7351.62
557.98	7286.09
558.15	7288.43
558.32	7215.87
558.48	6946.71
558.65	6855.43
558.81	6927.99
558.98	6923.30
559.14	7016.93
559.31	6841.39
559.47	7028.63
559.64	7070.76
559.80	6768.83
559.97	6888.20
560.13	6876.49
560.30	7265.02
560.46	7335.24
560.63	7300.13
560.79	7360.98
560.96	7368.01
561.12	6988.84
561.29	6984.16
561.45	6719.68
561.61	6998.20
561.78	7005.22
561.94	7108.21
562.11	7045.01
562.27	6974.80
562.44	7035.65
562.60	7119.91
562.77	7148.00
562.93	7215.87
563.10	7173.74
563.26	6951.39
563.42	6984.16
563.59	7080.12
563.75	6766.49
563.92	6963.09
564.08	6988.84
564.24	7068.42
564.41	7185.44
564.57	7021.61
564.74	6927.99
564.90	6993.52
565.07	6899.90
565.23	6686.91
565.39	6878.83
565.56	6705.63
565.72	6604.99
565.88	6633.08
566.05	6558.18
566.21	6736.06
566.38	6567.54
566.54	6832.02
566.70	6939.69
566.87	7021.61
567.03	6757.13
567.19	6923.30
567.36	6883.52
567.52	6839.05
567.68	7009.90
567.85	6574.56
568.01	6408.39
568.17	6417.75
568.34	6286.68
568.50	6368.60
568.66	6183.70
568.83	6384.98
568.99	6441.15
569.15	6511.37
569.32	6427.11
569.48	6466.90
569.64	6394.34
569.81	6230.51
569.97	6293.70
570.13	6300.72
570.30	6375.62
570.46	6244.55
570.62	6202.42
570.78	6064.33
570.95	6146.25
571.11	6181.35
571.27	6256.25
571.43	6263.27
571.60	6328.81
571.76	6263.27
571.92	6387.32
572.09	6448.18
572.25	6375.62
572.41	6464.56
572.57	6462.22
572.74	6457.54
572.90	6296.04
573.06	6244.55
573.22	6375.62
573.38	6338.17
573.55	6499.67
573.71	6408.39
573.87	6375.62
574.03	6331.15
574.20	6218.80
574.36	6413.07
574.52	6207.10
574.68	6101.78
574.84	6167.31
575.01	6136.88
575.17	6141.57
575.33	6017.52
575.49	6136.88
575.65	6204.76
575.82	6108.80
575.98	6052.63
576.14	6076.03
576.30	6207.10
576.46	6450.52
576.62	6801.60
576.79	6707.98
576.95	6375.62
577.11	6469.24
577.27	6387.32
577.43	6363.92
577.59	6361.58
577.75	5996.45
577.92	5961.34
578.08	6043.26
578.24	5928.58
578.40	6017.52
578.56	6253.91
578.72	6504.35
578.88	6499.67
579.04	6410.73
579.21	6604.99
579.37	6277.32
579.53	6296.04
579.69	6326.47
579.85	6291.36
580.01	6497.33
580.17	6298.38
580.33	6494.99
580.49	6256.25
580.65	6347.53
580.82	6373.28
580.98	6267.95
581.14	6317.11
581.30	6319.45
581.46	6277.32
581.62	6122.84
581.78	6282.00
581.94	6408.39
582.10	6293.70
582.26	6424.77
582.42	6523.07
582.58	6366.26
582.74	6389.66
582.90	6282.00
583.06	6403.71
583.22	6342.85
583.38	6406.05
583.54	6242.21
583.70	6225.82
583.86	6408.39
584.02	6207.10
584.18	6539.46
584.34	6221.14
584.50	6120.50
584.66	6211.78
584.82	6225.82
584.98	6251.57
585.14	5989.43
585.30	6106.46
585.46	5912.19
585.62	5844.32
585.78	5856.02
585.94	5902.83
586.10	6050.28
586.26	6024.54
586.42	6118.16
586.58	6209.44
586.74	6176.67
586.90	6092.41
587.06	6141.57
587.22	6246.89
587.38	6003.47
587.54	5795.17
587.70	5692.18
587.86	5570.48
588.02	5203.01
588.18	5116.41
588.34	4945.55
588.49	4643.62
588.65	4217.65
588.81	4325.31
588.97	4444.68
589.13	4547.66
589.29	4311.27
589.45	4257.43
589.61	4315.95
589.77	4475.10
589.93	4688.09
590.08	4933.85
590.24	5076.62
590.40	4947.89
590.56	4947.89
590.72	5193.65
590.88	5032.15
591.04	5109.39
591.20	5172.58
591.35	4926.83
591.51	4842.57
591.67	4952.57
591.83	4819.16
591.99	4847.25
592.15	4887.04
592.31	5100.03
592.46	5270.89
592.62	5364.51
592.78	5483.88
592.94	5329.40
593.10	5413.66
593.26	5497.92
593.41	5439.40
593.57	5430.04
593.73	5034.49
593.89	4858.95
594.05	4809.80
594.20	4636.60
594.36	4655.33
594.52	4580.43
594.68	4512.55
594.84	4732.56
594.99	5132.79
595.15	5130.45
595.31	5081.30
595.47	5067.26
595.62	5011.09
595.78	5111.73
595.94	5221.74
596.10	5284.93
596.25	5071.94
596.41	5088.32
596.57	4964.28
596.73	4971.30
596.88	5111.73
597.04	5142.16
597.20	5329.40
597.36	4954.91
597.51	4901.08
597.67	5109.39
