SpectraSuite Data File
++++++++++++++++++++++++++++++++++++
Date: Fri Oct 04 11:44:17 GMT-05:00 2013
User: price-jones
Dark Spectrum Present: No
Reference Spectrum Present: No
Number of Sampled Component Spectra: 1
Spectrometers: USB2+H05261
Integration Time (usec): 100000 (USB2+H05261)
Spectra Averaged: 1 (USB2+H05261)
Boxcar Smoothing: 0 (USB2+H05261)
Correct for Electrical Dark: No (USB2+H05261)
Strobe/Lamp Enabled: No (USB2+H05261)
Correct for Detector Non-linearity: No (USB2+H05261)
Correct for Stray Light: No (USB2+H05261)
Number of Pixels in Processed Spectrum: 2048
>>>>>Begin Processed Spectral Data<<<<<
365.73	16.38
365.92	16.38
366.12	16.38
366.32	0.00
366.52	0.00
366.72	0.00
366.91	0.00
367.11	0.00
367.31	0.00
367.51	0.00
367.70	0.00
367.90	0.00
368.10	0.00
368.30	0.00
368.49	0.00
368.69	0.00
368.89	0.00
369.09	0.00
369.28	0.00
369.48	0.00
369.68	0.00
369.87	0.00
370.07	7.02
370.27	65.54
370.47	234.05
370.66	723.23
370.86	847.27
371.06	1025.15
371.25	1043.88
371.45	947.92
371.65	863.66
371.84	791.10
372.04	880.04
372.24	933.87
372.44	1025.15
372.63	809.83
372.83	891.74
373.03	723.23
373.22	690.46
373.42	812.17
373.62	887.06
373.81	933.87
374.01	1015.79
374.21	896.43
374.40	793.44
374.60	947.92
374.79	940.90
374.99	1064.94
375.19	1170.27
375.38	1177.29
375.58	1151.54
375.78	1057.92
375.97	1188.99
376.17	1163.25
376.37	1149.20
376.56	1130.48
376.76	1172.61
376.95	1303.68
377.15	1448.79
377.35	1401.98
377.54	1348.15
377.74	1465.18
377.93	1460.49
378.13	1432.41
378.33	1387.94
378.52	1301.34
378.72	1341.13
378.91	1252.19
379.11	1139.84
379.31	1095.37
379.50	1107.07
379.70	1210.06
379.89	1348.15
380.09	1406.66
380.28	1310.70
380.48	1390.28
380.68	1348.15
380.87	1320.06
381.07	1221.76
381.26	1224.10
381.46	1219.42
381.65	1039.20
381.85	1123.46
382.04	978.34
382.24	1013.45
382.43	945.58
382.63	905.79
382.83	884.72
383.02	954.94
383.22	924.51
383.41	903.45
383.61	936.21
383.80	1193.67
384.00	1214.74
384.19	1336.45
384.39	1334.11
384.58	1338.79
384.78	1327.08
384.97	1289.64
385.17	1327.08
385.36	1177.29
385.56	1144.52
385.75	1137.50
385.95	1336.45
386.14	1418.36
386.34	1462.83
386.53	1437.09
386.72	1322.40
386.92	1357.51
387.11	1299.00
387.31	1453.47
387.50	1247.51
387.70	1387.94
387.89	1343.47
388.09	1455.81
388.28	1331.76
388.48	1392.62
388.67	1586.88
388.86	1554.12
389.06	1741.36
389.25	1806.89
389.45	1720.29
389.64	1804.55
389.84	1678.16
390.03	1750.72
390.22	1755.40
390.42	1785.83
390.61	1844.34
390.81	1947.33
391.00	2029.24
391.19	1996.48
391.39	1966.05
391.58	1956.69
391.78	1743.70
391.97	1724.97
392.16	1596.25
392.36	1516.67
392.55	1261.55
392.75	1074.31
392.94	868.34
393.13	896.43
393.33	917.49
393.52	1217.08
393.71	1526.03
393.91	1572.84
394.10	1708.59
394.29	1839.66
394.49	1884.13
394.68	2052.65
394.88	2054.99
395.07	2104.14
395.26	2216.49
395.46	2052.65
395.65	1907.54
395.84	1767.10
396.04	1591.56
396.23	1294.32
396.42	1130.48
396.62	1172.61
396.81	1198.35
397.00	1486.24
397.19	1757.74
397.39	2090.10
397.58	2389.69
397.77	2471.61
397.97	2572.25
398.16	2644.81
398.35	2670.55
398.55	2693.96
398.74	2672.89
398.93	2951.42
399.12	2930.35
399.32	2719.70
399.51	2806.30
399.70	3047.38
399.90	2818.00
400.09	3023.97
400.28	2867.16
400.47	2923.33
400.67	3169.09
400.86	3023.97
401.05	3096.53
401.24	3178.45
401.44	3222.92
401.63	3276.75
401.82	3234.62
402.01	3056.74
402.21	3297.81
402.40	3225.26
402.59	3122.27
402.78	2923.33
402.97	3030.99
403.17	3098.87
403.36	3190.15
403.55	3325.90
403.74	3290.79
403.93	3295.47
404.13	3002.91
404.32	2981.84
404.51	3023.97
404.70	3211.22
404.89	3180.79
405.09	3269.73
405.28	3124.62
405.47	3098.87
405.66	3087.17
405.85	3070.78
406.05	3021.63
406.24	3141.00
406.43	3138.66
406.62	3169.09
406.81	3239.30
407.00	3166.74
407.20	3171.43
407.39	3028.65
407.58	3342.28
407.77	3288.45
407.96	3459.31
408.15	3426.54
408.34	3463.99
408.54	3768.26
408.73	3803.37
408.92	3653.58
409.11	3665.28
409.30	3337.60
409.49	3087.17
409.68	2946.73
409.87	2918.65
410.07	3068.44
410.26	3208.87
410.45	3351.65
410.64	3637.19
410.83	3632.51
411.02	3641.87
411.21	3936.78
411.40	3920.40
411.59	3829.12
411.78	3882.95
411.98	3768.26
412.17	3971.89
412.36	3695.71
412.55	3756.56
412.74	3756.56
412.93	3557.61
413.12	3684.00
413.31	3908.69
413.50	3943.80
413.69	4114.66
413.88	3857.20
414.07	3693.37
414.26	3751.88
414.45	3985.93
414.64	3861.88
414.83	3995.29
415.02	4016.36
415.22	4049.13
415.41	4086.58
415.60	4093.60
415.79	4250.41
415.98	4245.73
416.17	4337.01
416.36	4301.90
416.55	4245.73
416.74	4189.56
416.93	4093.60
417.12	3988.27
417.31	4093.60
417.50	4100.62
417.69	4362.76
417.88	4257.43
418.07	4180.20
418.26	3983.59
418.45	4037.42
418.64	4386.16
418.83	4329.99
419.02	4320.63
419.21	4416.59
419.39	4046.79
419.58	3899.33
419.77	3943.80
419.96	4126.36
420.15	4435.32
420.34	4437.66
420.53	4531.28
420.72	4622.56
420.91	4643.62
421.10	4657.67
421.29	4535.96
421.48	4414.25
421.67	4681.07
421.86	4409.57
422.05	3999.98
422.24	3786.99
422.43	3723.79
422.61	4081.89
422.80	4423.61
422.99	4444.68
423.18	4351.06
423.37	4236.37
423.56	4131.05
423.75	4304.25
423.94	4351.06
424.13	4124.02
424.32	4035.08
424.50	4271.48
424.69	4222.33
424.88	4222.33
425.07	4088.92
425.26	4177.86
425.45	4086.58
425.64	3906.35
425.83	4021.04
426.01	4241.05
426.20	4212.96
426.39	4227.01
426.58	3960.19
426.77	3756.56
426.96	3602.08
427.15	3723.79
427.33	3915.72
427.52	4091.26
427.71	4154.45
427.90	4180.20
428.09	3946.14
428.28	4091.26
428.46	3889.97
428.65	3770.60
428.84	3964.87
429.03	4002.32
429.22	3861.88
429.40	3609.11
429.59	3251.00
429.78	2998.23
429.97	2974.82
430.16	2953.76
430.34	3026.31
430.53	2967.80
430.72	3023.97
430.91	3384.41
431.10	3815.07
431.28	4484.47
431.47	4870.65
431.66	4868.31
431.85	4660.01
432.03	4191.90
432.22	4117.00
432.41	4224.67
432.60	4596.81
432.79	4627.24
432.97	4622.56
433.16	4601.49
433.35	4365.10
433.54	3836.14
433.72	3976.57
433.91	3779.97
434.10	4081.89
434.28	4423.61
434.47	4629.58
434.66	4652.98
434.85	4575.75
435.03	4507.87
435.22	4849.59
435.41	4992.36
435.59	5163.22
435.78	5095.35
435.97	5013.43
436.16	5093.01
436.34	5006.41
436.53	4873.00
436.72	5022.79
436.90	4807.46
437.09	4643.62
437.28	4664.69
437.46	4690.43
437.65	4765.33
437.84	4470.42
438.02	4189.56
438.21	4109.98
438.40	4301.90
438.58	4678.73
438.77	4641.28
438.96	4758.31
439.14	4943.21
439.33	5020.45
439.52	5074.28
439.70	5050.88
439.89	4863.63
440.08	4873.00
440.26	4781.71
440.45	5008.75
440.63	5247.48
440.82	5537.71
441.01	5397.28
441.19	5362.17
441.38	5502.60
441.57	5598.56
441.75	5708.57
441.94	5792.83
442.12	5692.18
442.31	5928.58
442.50	5650.05
442.68	5430.04
442.87	5680.48
443.05	5465.15
443.24	5551.75
443.43	5823.25
443.61	5767.08
443.80	5949.64
443.98	5570.48
444.17	5500.26
444.35	5900.49
444.54	5802.19
444.73	5919.21
444.91	5657.07
445.10	5329.40
445.28	5228.76
445.47	5020.45
445.65	5137.48
445.84	5179.61
446.02	5439.40
446.21	5533.03
446.39	5624.31
446.58	5530.69
446.77	5748.36
446.95	5778.78
447.14	6129.86
447.32	6047.94
447.51	5893.47
447.69	5785.80
447.88	5668.78
448.06	5636.01
448.25	5884.11
448.43	5830.27
448.62	5774.10
448.80	5944.96
448.99	5781.12
449.17	5926.24
449.36	5804.53
449.54	6097.10
449.73	6050.28
449.91	6326.47
450.10	6399.02
450.28	6438.81
450.46	6623.72
450.65	6469.24
450.83	6384.98
451.02	6214.12
451.20	6338.17
451.39	6050.28
451.57	6186.04
451.76	6242.21
451.94	6106.46
452.13	5968.37
452.31	5664.10
452.49	5544.73
452.68	5476.85
452.86	5579.84
453.05	5699.20
453.23	5858.36
453.42	5863.04
453.60	6017.52
453.78	6183.70
453.97	6136.88
454.15	6003.47
454.34	5860.70
454.52	5884.11
454.70	5928.58
454.89	5954.32
455.07	6118.16
455.26	5947.30
455.44	6195.40
455.62	6312.42
455.81	6370.94
455.99	6260.93
456.17	6317.11
456.36	6349.87
456.54	6249.23
456.73	6384.98
456.91	6551.16
457.09	6420.09
457.28	6633.08
457.46	6314.77
457.64	6303.06
457.83	6272.64
458.01	5954.32
458.19	6211.78
458.38	5980.07
458.56	6197.74
458.74	6452.86
458.93	6403.71
459.11	6310.08
459.29	6286.68
459.48	6366.26
459.66	6242.21
459.84	6347.53
460.03	6338.17
460.21	6354.55
460.39	6427.11
460.57	6476.26
460.76	6640.10
460.94	6562.86
461.12	6700.95
461.31	6373.28
461.49	6413.07
461.67	6321.79
461.85	6745.42
462.04	6612.01
462.22	7122.25
462.40	6523.07
462.59	6520.73
462.77	6729.04
462.95	6588.61
463.13	6668.19
463.32	6527.75
463.50	6576.91
463.68	6410.73
463.86	6462.22
464.05	6502.01
464.23	6171.99
464.41	6274.98
464.59	6328.81
464.78	6380.30
464.96	6356.90
465.14	6237.53
465.32	6387.32
465.50	6803.94
465.69	6874.15
465.87	6670.53
466.05	6333.49
466.23	6139.23
466.41	5954.32
466.60	6377.96
466.78	6083.05
466.96	6204.76
467.14	6469.24
467.32	6373.28
467.51	6415.41
467.69	6251.57
467.87	6370.94
468.05	6532.44
468.23	6384.98
468.41	6305.40
468.60	6497.33
468.78	6331.15
468.96	6401.37
469.14	6572.22
469.32	6445.84
469.50	6260.93
469.69	6298.38
469.87	6232.85
470.05	6256.25
470.23	6228.17
470.41	6319.45
470.59	6279.66
470.77	6420.09
470.95	6480.94
471.14	6518.39
471.32	6609.67
471.50	6963.09
471.68	6874.15
471.86	6951.39
472.04	6951.39
472.22	7063.74
472.40	6839.05
472.58	6569.88
472.77	6579.25
472.95	6637.76
473.13	6862.45
473.31	6670.53
473.49	6696.27
473.67	6869.47
473.85	6899.90
474.03	6937.35
474.21	7049.69
474.39	7115.23
474.57	7059.06
474.75	7030.97
474.93	7021.61
475.12	6846.07
475.30	6792.23
475.48	6843.73
475.66	6682.23
475.84	6878.83
476.02	6850.75
476.20	6803.94
476.38	6949.05
476.56	7234.60
476.74	7066.08
476.92	7040.33
477.10	7400.77
477.28	7386.73
477.46	7597.38
477.64	7571.63
477.82	7688.66
478.00	7660.57
478.18	7634.83
478.36	7524.82
478.54	7606.74
478.72	7595.04
478.90	7810.37
479.08	7997.61
479.26	8189.53
479.44	8149.75
479.62	8028.04
479.80	8107.62
479.98	8304.22
480.16	8135.70
480.34	8028.04
480.52	8107.62
480.70	8318.26
480.88	8252.73
481.06	8472.74
481.24	8369.76
481.41	8557.00
481.59	8777.01
481.77	8704.45
481.95	8528.91
482.13	8507.85
482.31	8636.58
482.49	8774.67
482.67	8695.09
482.85	8655.30
483.03	8908.08
483.21	9102.34
483.39	8823.82
483.57	8833.18
483.74	8798.07
483.92	8697.43
484.10	8784.03
484.28	9128.09
484.46	9233.41
484.64	9193.62
484.82	8929.14
485.00	8767.65
485.18	8795.73
485.35	8507.85
485.53	8011.65
485.71	7346.94
485.89	7037.99
486.07	7433.54
486.25	7978.89
486.43	8482.10
486.61	8732.54
486.78	8652.96
486.96	8610.83
487.14	9046.17
487.32	9296.61
487.50	9460.45
487.68	9757.69
487.85	9956.64
488.03	9905.15
488.21	9804.50
488.39	9483.85
488.57	9327.03
488.75	9329.38
488.92	9760.03
489.10	10162.61
489.28	10487.94
489.46	10789.87
489.64	10836.68
489.81	11000.52
489.99	10553.48
490.17	10714.97
490.35	11044.99
490.53	10808.59
490.70	10469.22
490.88	10640.08
491.06	10906.90
491.24	10576.88
491.41	10562.84
491.59	10092.39
491.77	9905.15
491.95	10085.37
492.13	10406.02
492.30	10785.19
492.48	11075.42
492.66	11363.30
492.84	11187.76
493.01	11185.42
493.19	11286.06
493.37	10972.43
493.54	10743.06
493.72	11283.72
493.90	11279.04
494.08	11754.17
494.25	11805.66
494.43	11803.32
494.61	12327.60
494.79	12107.59
494.96	11932.05
495.14	11552.88
495.32	11735.45
495.49	11260.32
495.67	11522.46
495.85	11903.96
496.02	12222.28
496.20	12318.24
496.38	12311.22
496.55	11988.22
496.73	12156.74
496.91	12320.58
497.09	12732.51
497.26	12402.50
497.44	12475.06
497.62	12423.56
497.79	11899.28
497.97	11290.74
498.14	11590.33
498.32	11709.70
498.50	12369.73
498.67	12283.13
498.85	12320.58
499.03	12652.94
499.20	12381.43
499.38	12685.70
499.56	12624.85
499.73	12191.85
499.91	12131.00
500.08	11953.12
500.26	11536.50
500.44	11705.02
500.61	12042.06
500.79	12161.42
500.97	11559.91
501.14	11747.15
501.32	11824.39
501.49	11742.47
501.67	11913.33
501.84	11744.81
502.02	11983.54
502.20	12072.48
502.37	12287.81
502.55	12123.98
502.72	12496.12
502.90	12718.47
503.07	12318.24
503.25	11946.09
503.43	11513.10
503.60	11407.77
503.78	11101.16
503.95	10946.69
504.13	11817.36
504.30	12114.61
504.48	12421.22
504.65	12231.64
504.83	12479.74
505.01	12732.51
505.18	12784.01
505.36	12957.21
505.53	12451.65
505.71	12964.23
505.88	13177.22
506.06	12762.94
506.23	12795.71
506.41	12624.85
506.58	12727.83
506.76	12596.76
506.93	12306.54
507.11	12386.12
507.28	12730.17
507.46	12255.04
507.63	12173.13
507.81	11859.49
507.98	12250.36
508.16	12519.53
508.33	12507.82
508.50	12938.48
508.68	13111.68
508.85	13207.64
509.03	13486.17
509.20	13095.30
509.38	13008.70
509.55	12505.48
509.73	12741.88
509.90	12769.96
510.08	13064.87
510.25	13027.42
510.42	12980.61
510.60	12788.69
510.77	12882.31
510.95	13132.75
511.12	13273.18
511.30	13245.09
511.47	13589.15
511.64	13738.94
511.82	13731.92
511.99	13235.73
512.17	13034.44
512.34	12849.54
512.51	12940.82
512.69	12870.61
512.86	12718.47
513.04	13352.76
513.21	13383.18
513.38	13240.41
513.56	12636.55
513.73	12353.35
513.90	12727.83
514.08	12592.08
514.25	12833.16
514.43	13020.40
514.60	12795.71
514.77	12762.94
514.95	13067.21
515.12	13001.68
515.29	13071.89
515.47	13137.43
515.64	13364.46
515.81	13195.94
515.99	13177.22
516.16	12472.71
516.33	11293.08
516.51	11028.60
516.68	10703.27
516.85	10462.19
517.03	10670.50
517.20	11337.56
517.37	12313.56
517.54	12943.16
517.72	12624.85
517.89	11925.03
518.06	10848.38
518.24	10970.09
518.41	11749.49
518.58	12095.89
518.75	12432.93
518.93	12552.29
519.10	12397.82
519.27	12594.42
519.45	12655.28
519.62	13135.09
519.79	13319.99
519.96	13224.03
520.14	13123.38
520.31	12505.48
520.48	12482.08
520.65	12573.36
520.83	13378.50
521.00	13437.02
521.17	13474.46
521.34	13146.79
521.52	13060.19
521.69	13408.93
521.86	13710.86
522.03	13532.98
522.20	13062.53
522.38	12559.31
522.55	12571.02
522.72	12784.01
522.89	12751.24
523.07	12898.69
523.24	12933.80
523.41	13418.29
523.58	13497.87
523.75	13687.45
523.92	13511.91
524.10	13572.77
524.27	13666.39
524.44	13722.56
524.61	13364.46
524.78	13261.48
524.96	13207.64
525.13	13561.06
525.30	13451.06
525.47	13785.76
525.64	13642.98
525.81	13373.82
525.98	12681.02
526.16	12184.83
526.33	11557.57
526.50	11634.80
526.67	11438.20
526.84	11786.94
527.01	12112.27
527.18	12437.61
527.36	12973.59
527.53	13179.56
527.70	13336.37
527.87	13137.43
528.04	12919.76
528.21	13186.58
528.38	13563.40
528.55	13848.95
528.72	13776.39
528.89	14064.28
529.07	13823.20
529.24	13748.31
529.41	13296.58
529.58	13083.59
529.75	12901.03
529.92	13249.77
530.09	13507.23
530.26	13582.13
530.43	13673.41
530.60	13975.34
530.77	13935.55
530.94	13860.65
531.11	13729.58
531.28	13905.12
531.46	13710.86
531.63	13778.73
531.80	13635.96
531.97	13362.12
532.14	13081.25
532.31	12383.77
532.48	12205.89
532.65	12156.74
532.82	12566.34
532.99	13298.92
533.16	13364.46
533.33	13645.32
533.50	13642.98
533.67	13289.56
533.84	13221.69
534.01	12954.87
534.18	13249.77
534.35	13329.35
534.52	12933.80
534.69	13163.17
534.86	13429.99
535.03	13724.90
535.20	13610.22
535.37	14218.75
535.54	14178.97
535.71	13696.82
535.88	13703.84
536.05	13689.79
536.22	13394.89
536.38	13111.68
536.55	13036.78
536.72	12727.83
536.89	12659.96
537.06	12837.84
537.23	13556.38
537.40	13488.51
537.57	13420.63
537.74	13462.76
537.91	13261.48
538.08	13319.99
538.25	13432.33
538.42	13385.52
538.59	13373.82
538.75	13144.45
538.92	12844.86
539.09	12966.57
539.26	12779.32
539.43	12739.54
539.60	12741.88
539.77	12952.52
539.94	12746.56
540.11	12554.63
540.28	12145.04
540.44	12039.72
540.61	12131.00
540.78	12369.73
540.95	12416.54
541.12	12755.92
541.29	13055.51
541.46	12978.27
541.62	13125.72
541.79	13245.09
541.96	13006.36
542.13	12905.71
542.30	13076.57
542.47	13200.62
542.63	12896.35
542.80	12835.50
542.97	12800.39
543.14	12765.28
543.31	12580.38
543.48	12905.71
543.64	13355.10
543.81	13575.11
543.98	13612.56
544.15	13099.98
544.32	12971.25
544.48	12952.52
544.65	12622.51
544.82	13247.43
544.99	13064.87
545.16	12929.12
545.32	12875.29
545.49	13593.83
545.66	13778.73
545.83	13752.99
546.00	13469.78
546.16	13011.04
546.33	12716.13
546.50	13104.66
546.67	12973.59
546.83	12870.61
547.00	12973.59
547.17	12915.08
547.34	12575.70
547.50	12414.20
547.67	12510.16
547.84	12596.76
548.00	12945.50
548.17	12959.55
548.34	13006.36
548.51	12964.23
548.67	12882.31
548.84	12856.56
549.01	13111.68
549.18	12908.05
549.34	12760.60
549.51	12905.71
549.68	12779.32
549.84	12889.33
550.01	12627.19
550.18	12746.56
550.34	12812.09
550.51	12484.42
550.68	12954.87
550.84	12510.16
551.01	12711.45
551.18	12606.13
551.34	12711.45
551.51	12702.09
551.68	13076.57
551.84	13123.38
552.01	12922.10
552.18	12741.88
552.34	12617.83
552.51	12451.65
552.68	12046.74
552.84	12528.89
553.01	12585.06
553.18	12704.43
553.34	12512.50
553.51	12589.74
553.67	12858.90
553.84	12849.54
554.01	12800.39
554.17	12666.98
554.34	12716.13
554.51	12882.31
554.67	12812.09
554.84	12816.77
555.00	12706.77
555.17	12292.49
555.33	12575.70
555.50	12615.49
555.67	12489.10
555.83	12259.73
556.00	12301.86
556.16	12294.83
556.33	12273.77
556.50	12081.85
556.66	12056.10
556.83	12119.29
556.99	11962.48
557.16	12100.57
557.32	12028.01
557.49	12180.15
557.65	12109.93
557.82	12123.98
557.98	12409.52
558.15	12203.55
558.32	11716.72
558.48	11454.58
558.65	11721.40
558.81	11564.59
558.98	11590.33
559.14	11793.96
559.31	11772.89
559.47	11763.53
559.64	12039.72
559.80	11812.68
559.97	11531.82
560.13	11744.81
560.30	12276.11
560.46	12355.69
560.63	12549.95
560.79	12423.56
560.96	12442.29
561.12	11927.37
561.29	11580.97
561.45	11562.25
561.61	11770.55
561.78	11992.90
561.94	11740.13
562.11	11737.79
562.27	11803.32
562.44	11733.11
562.60	11838.43
562.77	12018.65
562.93	12042.06
563.10	12030.35
563.26	11815.02
563.42	11889.92
563.59	11714.38
563.75	11864.18
563.92	11742.47
564.08	11688.64
564.24	11674.59
564.41	12123.98
564.57	11524.80
564.74	11705.02
564.90	11587.99
565.07	11508.41
565.23	11480.33
565.39	11234.57
565.56	10855.40
565.72	10974.77
565.88	11201.80
566.05	11094.14
566.21	11059.03
566.38	11297.77
566.54	11597.35
566.70	11342.24
566.87	11562.25
567.03	11536.50
567.19	11688.64
567.36	11639.48
567.52	11316.49
567.68	11180.74
567.85	11124.57
568.01	10827.32
568.17	10876.47
568.34	10588.58
568.50	10466.88
568.66	10359.21
568.83	10663.48
568.99	10677.52
569.15	10874.13
569.32	10724.33
569.48	10630.71
569.64	10684.55
569.81	10672.84
569.97	10703.27
570.13	10876.47
570.30	10541.77
570.46	10504.32
570.62	10384.96
570.78	10195.37
570.95	10118.14
571.11	10356.87
571.27	10483.26
571.43	10626.03
571.60	10677.52
571.76	10595.61
571.92	10817.96
572.09	10820.30
572.25	10808.59
572.41	10785.19
572.57	10670.50
572.74	10560.50
572.90	10497.30
573.06	10621.35
573.22	10628.37
573.38	10806.25
573.55	10724.33
573.71	10717.31
573.87	10745.40
574.03	10600.29
574.20	10501.98
574.36	10609.65
574.52	10272.61
574.68	10347.51
574.84	10354.53
575.01	10293.68
575.17	10359.21
575.33	9984.73
575.49	10370.91
575.65	10279.63
575.82	10415.38
575.98	9973.02
576.14	10097.07
576.30	10434.11
576.46	10527.73
576.62	10574.54
576.79	10387.30
576.95	10300.70
577.11	10284.31
577.27	10338.15
577.43	10331.12
577.59	10373.25
577.75	10258.57
577.92	9970.68
578.08	9865.36
578.24	9844.29
578.40	10031.54
578.56	10190.69
578.72	10506.66
578.88	10396.66
579.04	10328.78
579.21	10235.16
579.37	10183.67
579.53	10251.55
579.69	10466.88
579.85	10277.29
580.01	10305.38
580.17	10310.06
580.33	10207.08
580.49	10331.12
580.65	10352.19
580.82	10373.25
580.98	10366.23
581.14	10499.64
581.30	10345.17
581.46	10380.28
581.62	10403.68
581.78	10574.54
581.94	10602.63
582.10	10546.45
582.26	10527.73
582.42	10518.37
582.58	10527.73
582.74	10286.65
582.90	10513.69
583.06	10471.56
583.22	10384.96
583.38	10476.24
583.54	10473.90
583.70	10560.50
583.86	10340.49
584.02	10420.06
584.18	10455.17
584.34	10251.55
584.50	10113.45
584.66	10228.14
584.82	10291.34
584.98	9958.98
585.14	10132.18
585.30	9991.75
585.46	9799.82
585.62	9673.43
585.78	9738.97
585.94	9584.49
586.10	9715.56
586.26	10176.65
586.42	9879.40
586.58	9933.23
586.74	9881.74
586.90	9816.21
587.06	9767.06
587.22	9692.16
587.38	9596.20
587.54	9390.23
587.70	9156.18
587.86	8901.06
588.02	8692.75
588.18	8514.87
588.34	8311.24
588.49	7623.12
588.65	7297.79
588.81	6920.96
588.97	7122.25
589.13	7159.70
589.29	7019.27
589.45	7098.84
589.61	7225.23
589.77	7510.78
589.93	7791.64
590.08	7962.50
590.24	8290.18
590.40	8187.19
590.56	8311.24
590.72	8393.16
590.88	8243.37
