SpectraSuite Data File
++++++++++++++++++++++++++++++++++++
Date: Fri Oct 04 11:44:22 GMT-05:00 2013
User: price-jones
Dark Spectrum Present: No
Reference Spectrum Present: No
Number of Sampled Component Spectra: 1
Spectrometers: USB2+H05261
Integration Time (usec): 100000 (USB2+H05261)
Spectra Averaged: 1 (USB2+H05261)
Boxcar Smoothing: 0 (USB2+H05261)
Correct for Electrical Dark: No (USB2+H05261)
Strobe/Lamp Enabled: No (USB2+H05261)
Correct for Detector Non-linearity: No (USB2+H05261)
Correct for Stray Light: No (USB2+H05261)
Number of Pixels in Processed Spectrum: 2048
>>>>>Begin Processed Spectral Data<<<<<
365.73	23.41
365.92	23.41
366.12	23.41
366.32	0.00
366.52	0.00
366.72	0.00
366.91	0.00
367.11	0.00
367.31	0.00
367.51	0.00
367.70	0.00
367.90	9.36
368.10	0.00
368.30	0.00
368.49	0.00
368.69	0.00
368.89	0.00
369.09	0.00
369.28	0.00
369.48	0.00
369.68	0.00
369.87	0.00
370.07	0.00
370.27	4.68
370.47	79.58
370.66	425.98
370.86	383.85
371.06	601.52
371.25	568.75
371.45	528.96
371.65	528.96
371.84	526.62
372.04	484.49
372.24	486.83
372.44	528.96
372.63	601.52
372.83	587.47
373.03	500.87
373.22	461.09
373.42	491.51
373.62	552.37
373.81	519.60
374.01	617.90
374.21	582.79
374.40	482.15
374.60	493.85
374.79	535.98
374.99	660.03
375.19	615.56
375.38	664.71
375.58	648.33
375.78	706.84
375.97	671.73
376.17	699.82
376.37	678.76
376.56	634.29
376.76	697.48
376.95	716.20
377.15	837.91
377.35	856.64
377.54	851.96
377.74	880.04
377.93	922.17
378.13	826.21
378.33	786.42
378.52	758.33
378.72	746.63
378.91	650.67
379.11	631.94
379.31	554.71
379.50	664.71
379.70	737.27
379.89	805.14
380.09	793.44
380.28	798.12
380.48	781.74
380.68	758.33
380.87	744.29
381.07	660.03
381.26	671.73
381.46	564.07
381.65	631.94
381.85	634.29
382.04	587.47
382.24	561.73
382.43	629.60
382.63	575.77
382.83	608.54
383.02	571.09
383.22	596.84
383.41	475.13
383.61	585.13
383.80	744.29
384.00	657.69
384.19	781.74
384.39	791.10
384.58	767.70
384.78	781.74
384.97	896.43
385.17	795.78
385.36	753.65
385.56	706.84
385.75	671.73
385.95	847.27
386.14	816.85
386.34	786.42
386.53	770.04
386.72	781.74
386.92	741.95
387.11	798.12
387.31	760.67
387.50	823.87
387.70	774.72
387.89	791.10
388.09	763.01
388.28	767.70
388.48	748.97
388.67	837.91
388.86	896.43
389.06	1006.43
389.25	980.68
389.45	896.43
389.64	1078.99
389.84	978.34
390.03	1008.77
390.22	1018.13
390.42	1011.11
390.61	999.41
390.81	1102.39
391.00	1123.46
391.19	1151.54
391.39	1107.07
391.58	1032.18
391.78	1004.09
391.97	999.41
392.16	884.72
392.36	877.70
392.55	781.74
392.75	559.39
392.94	524.28
393.13	498.53
393.33	568.75
393.52	674.07
393.71	823.87
393.91	894.08
394.10	917.49
394.29	994.73
394.49	1111.75
394.68	1156.22
394.88	1214.74
395.07	1174.95
395.26	1214.74
395.46	1174.95
395.65	1128.14
395.84	978.34
396.04	966.64
396.23	758.33
396.42	582.79
396.62	589.82
396.81	660.03
397.00	924.51
397.19	980.68
397.39	1109.41
397.58	1303.68
397.77	1299.00
397.97	1380.92
398.16	1282.61
398.35	1486.24
398.55	1481.56
398.74	1509.65
398.93	1631.35
399.12	1556.46
399.32	1549.43
399.51	1565.82
399.70	1678.16
399.90	1621.99
400.09	1657.10
400.28	1668.80
400.47	1586.88
400.67	1739.02
400.86	1668.80
401.05	1781.15
401.24	1722.63
401.44	1813.92
401.63	1802.21
401.82	1806.89
402.01	1778.81
402.21	1863.07
402.40	1750.72
402.59	1769.44
402.78	1666.46
402.97	1607.95
403.17	1741.36
403.36	1664.12
403.55	1877.11
403.74	1872.43
403.93	1874.77
404.13	1713.27
404.32	1652.42
404.51	1720.29
404.70	1790.51
404.89	1837.32
405.09	1790.51
405.28	1652.42
405.47	1762.42
405.66	1739.02
405.85	1682.85
406.05	1689.87
406.24	1640.72
406.43	1664.12
406.62	1816.26
406.81	1870.09
407.00	1891.15
407.20	1771.79
407.39	1802.21
407.58	1771.79
407.77	1804.55
407.96	2012.86
408.15	2038.61
408.34	2097.12
408.54	2162.66
408.73	2073.71
408.92	2047.97
409.11	2019.88
409.30	1921.58
409.49	1844.34
409.68	1675.82
409.87	1673.48
410.07	1650.08
410.26	1837.32
410.45	1966.05
410.64	1895.83
410.83	2040.95
411.02	2033.93
411.21	2104.14
411.40	2132.23
411.59	2160.31
411.78	2195.42
411.98	2197.76
412.17	2113.50
412.36	2101.80
412.55	2106.48
412.74	2050.31
412.93	2150.95
413.12	1937.96
413.31	2108.82
413.50	2092.44
413.69	2174.36
413.88	2200.10
414.07	2279.68
414.26	2195.42
414.45	2176.70
414.64	2230.53
414.83	2207.13
415.02	2193.08
415.22	2221.17
415.41	2204.78
415.60	2242.23
415.79	2464.58
415.98	2340.54
416.17	2520.76
416.36	2485.65
416.55	2293.72
416.74	2380.32
416.93	2190.74
417.12	2211.81
417.31	2186.06
417.50	2305.43
417.69	2359.26
417.88	2352.24
418.07	2172.02
418.26	2275.00
418.45	2246.91
418.64	2420.11
418.83	2436.50
419.02	2466.92
419.21	2431.82
419.39	2317.13
419.58	2214.15
419.77	2235.21
419.96	2338.20
420.15	2502.03
420.34	2441.18
420.53	2546.50
420.72	2499.69
420.91	2457.56
421.10	2602.68
421.29	2495.01
421.48	2403.73
421.67	2579.27
421.86	2487.99
422.05	2356.92
422.24	2143.93
422.43	2104.14
422.61	2260.96
422.80	2450.54
422.99	2452.88
423.18	2415.43
423.37	2518.42
423.56	2417.77
423.75	2375.64
423.94	2331.17
424.13	2312.45
424.32	2232.87
424.50	2420.11
424.69	2349.90
424.88	2394.37
425.07	2249.25
425.26	2296.07
425.45	2298.41
425.64	2314.79
425.83	2310.11
426.01	2385.01
426.20	2448.20
426.39	2471.61
426.58	2284.36
426.77	2181.38
426.96	2108.82
427.15	2148.61
427.33	2328.83
427.52	2349.90
427.71	2394.37
427.90	2408.41
428.09	2424.80
428.28	2260.96
428.46	2244.57
428.65	2244.57
428.84	2263.30
429.03	2282.02
429.22	2167.34
429.40	2104.14
429.59	1865.41
429.78	1696.89
429.97	1720.29
430.16	1689.87
430.34	1736.68
430.53	1753.06
430.72	1741.36
430.91	1825.62
431.10	2054.99
431.28	2555.86
431.47	2712.68
431.66	2773.53
431.85	2399.05
432.03	2349.90
432.22	2267.98
432.41	2235.21
432.60	2497.35
432.79	2523.10
432.97	2750.13
433.16	2684.59
433.35	2612.04
433.54	2179.04
433.72	2029.24
433.91	2214.15
434.10	2230.53
434.28	2520.76
434.47	2530.12
434.66	2628.42
434.85	2518.42
435.03	2642.46
435.22	2832.05
435.41	3052.06
435.59	3152.70
435.78	3061.42
435.97	2899.92
436.16	2902.26
436.34	2874.18
436.53	2766.51
436.72	2717.36
436.90	2654.17
437.09	2623.74
437.28	2593.31
437.46	2614.38
437.65	2679.91
437.84	2420.11
438.02	2457.56
438.21	2267.98
438.40	2387.35
438.58	2572.25
438.77	2621.40
438.96	2682.25
439.14	2813.32
439.33	2892.90
439.52	2839.07
439.70	2963.12
439.89	2841.41
440.08	2649.49
440.26	2619.06
440.45	2764.17
440.63	2967.80
440.82	3070.78
441.01	3023.97
441.19	3112.91
441.38	3073.12
441.57	3141.00
441.75	3112.91
441.94	3236.96
442.12	3288.45
442.31	3255.69
442.50	3141.00
442.68	3204.19
442.87	3251.00
443.05	3096.53
443.24	3126.96
443.43	3346.97
443.61	3297.81
443.80	3286.11
443.98	3117.59
444.17	3288.45
444.35	3290.79
444.54	3342.28
444.73	3391.44
444.91	3148.02
445.10	3133.98
445.28	3023.97
445.47	2820.35
445.65	2949.08
445.84	3023.97
446.02	3105.89
446.21	3190.15
446.39	3234.62
446.58	3300.16
446.77	3218.24
446.95	3164.40
447.14	3424.20
447.32	3522.51
447.51	3435.91
447.69	3265.05
447.88	3236.96
448.06	3370.37
448.25	3122.27
448.43	3337.60
448.62	3126.96
448.80	3290.79
448.99	3435.91
449.17	3241.64
449.36	3295.47
449.54	3370.37
449.73	3494.42
449.91	3569.32
450.10	3742.52
450.28	3686.34
450.46	3662.94
450.65	3730.81
450.83	3646.55
451.02	3550.59
451.20	3496.76
451.39	3433.57
451.57	3609.11
451.76	3433.57
451.94	3482.72
452.13	3531.87
452.31	3255.69
452.49	3166.74
452.68	3190.15
452.86	3066.10
453.05	3133.98
453.23	3304.84
453.42	3314.20
453.60	3503.78
453.78	3524.85
453.97	3424.20
454.15	3440.59
454.34	3304.84
454.52	3297.81
454.70	3295.47
454.89	3293.13
455.07	3344.63
455.26	3379.73
455.44	3449.95
455.62	3510.80
455.81	3566.98
455.99	3494.42
456.17	3581.02
456.36	3478.04
456.54	3590.38
456.73	3581.02
456.91	3616.13
457.09	3695.71
457.28	3847.84
457.46	3662.94
457.64	3686.34
457.83	3515.48
458.01	3288.45
458.19	3508.46
458.38	3461.65
458.56	3646.55
458.74	3613.79
458.93	3506.12
459.11	3513.14
459.29	3531.87
459.48	3581.02
459.66	3555.27
459.84	3522.51
460.03	3545.91
460.21	3698.05
460.39	3712.09
460.57	3728.47
460.76	3723.79
460.94	3662.94
461.12	3765.92
461.31	3709.75
461.49	3744.86
461.67	3585.70
461.85	3843.16
462.04	3698.05
462.22	4241.05
462.40	3810.39
462.59	3625.49
462.77	3714.43
462.95	3808.05
463.13	3786.99
463.32	3684.00
463.50	3669.96
463.68	3705.07
463.86	3765.92
464.05	3742.52
464.23	3616.13
464.41	3576.34
464.59	3417.18
464.78	3714.43
464.96	3604.42
465.14	3611.45
465.32	3651.24
465.50	3878.27
465.69	3932.10
465.87	3691.02
466.05	3641.87
466.23	3463.99
466.41	3405.48
466.60	3375.05
466.78	3487.40
466.96	3599.74
467.14	3602.08
467.32	3569.32
467.51	3726.13
467.69	3566.98
467.87	3548.25
468.05	3632.51
468.23	3702.73
468.41	3616.13
468.60	3674.64
468.78	3592.72
468.96	3555.27
469.14	3698.05
469.32	3693.37
469.50	3620.81
469.69	3588.04
469.87	3417.18
470.05	3482.72
470.23	3604.42
470.41	3508.46
470.59	3552.93
470.77	3599.74
470.95	3700.39
471.14	3735.50
471.32	3646.55
471.50	3943.80
471.68	3854.86
471.86	4030.40
472.04	3915.72
472.22	3866.56
472.40	3904.01
472.58	3691.02
472.77	3602.08
472.95	3761.24
473.13	3948.48
473.31	3775.28
473.49	3859.54
473.67	3824.44
473.85	3929.76
474.03	3894.65
474.21	3889.97
474.39	4058.49
474.57	4180.20
474.75	4119.34
474.93	4081.89
475.12	4077.21
475.30	3896.99
475.48	3864.22
475.66	4100.62
475.84	3999.98
476.02	3983.59
476.20	3836.14
476.38	3927.42
476.56	4084.23
476.74	4028.06
476.92	4074.87
477.10	4131.05
477.28	4374.46
477.46	4273.82
477.64	4388.50
477.82	4489.15
478.00	4374.46
478.18	4421.27
478.36	4327.65
478.54	4301.90
478.72	4194.24
478.90	4191.90
479.08	4477.44
479.26	4538.30
479.44	4484.47
479.62	4592.13
479.80	4470.42
479.98	4486.81
480.16	4720.86
480.34	4624.90
480.52	4636.60
480.70	4568.73
480.88	4641.28
481.06	4765.33
481.24	4774.69
481.41	4837.89
481.59	4837.89
481.77	4952.57
481.95	4814.48
482.13	4959.60
482.31	4837.89
482.49	4983.00
482.67	4870.65
482.85	5022.79
483.03	5121.09
483.21	4971.30
483.39	4961.94
483.57	4919.81
483.74	5156.20
483.92	5013.43
484.10	4959.60
484.28	5163.22
484.46	5203.01
484.64	5313.02
484.82	5137.48
485.00	4882.36
485.18	4926.83
485.35	4889.38
485.53	4407.23
485.71	4203.60
485.89	4058.49
486.07	4128.70
486.25	4716.18
486.43	4748.95
486.61	4987.68
486.78	4835.55
486.96	4823.84
487.14	5043.85
487.32	5441.75
487.50	5371.53
487.68	5390.25
487.85	5628.99
488.03	5647.71
488.21	5650.05
488.39	5554.09
488.57	5343.44
488.75	5362.17
488.92	5614.95
489.10	5678.14
489.28	5907.51
489.46	5944.96
489.64	6057.31
489.81	6209.44
489.99	6104.12
490.17	5942.62
490.35	6270.30
490.53	6127.52
490.70	5991.77
490.88	5949.64
491.06	6235.19
491.24	6335.83
491.41	6029.22
491.59	5636.01
491.77	5584.52
491.95	5715.59
492.13	5717.93
492.30	6186.04
492.48	6244.55
492.66	6160.29
492.84	6530.09
493.01	6424.77
493.19	6319.45
493.37	6328.81
493.54	5982.41
493.72	6228.17
493.90	6455.20
494.08	6523.07
494.25	6621.38
494.43	6846.07
494.61	6832.02
494.79	6841.39
494.96	6602.65
495.14	6881.18
495.32	6616.69
495.49	6438.81
495.67	6509.03
495.85	6707.98
496.02	6846.07
496.20	7089.48
496.38	6827.34
496.55	6911.60
496.73	6848.41
496.91	6883.52
497.09	7173.74
497.26	7169.06
497.44	7009.90
497.62	6899.90
497.79	6733.72
497.97	6392.00
498.14	6359.24
498.32	6752.45
498.50	6682.23
498.67	6937.35
498.85	6759.47
499.03	7077.78
499.20	6892.88
499.38	7115.23
499.56	7138.63
499.73	6909.26
499.91	6719.68
500.08	6726.70
500.26	6593.29
500.44	6590.95
500.61	6651.80
500.79	6759.47
500.97	6609.67
501.14	6647.12
501.32	6537.12
501.49	6553.50
501.67	6593.29
501.84	6808.62
502.02	6869.47
502.20	6974.80
502.37	6871.81
502.55	6789.89
502.72	6843.73
502.90	6930.33
503.07	6923.30
503.25	6848.41
503.43	6523.07
503.60	6497.33
503.78	6167.31
503.95	6221.14
504.13	6731.38
504.30	6960.75
504.48	6876.49
504.65	6792.23
504.83	7040.33
505.01	7164.38
505.18	7103.53
505.36	7157.36
505.53	7124.59
505.71	7407.80
505.88	7536.52
506.06	7323.54
506.23	7274.38
506.41	7103.53
506.58	7073.10
506.76	7192.47
506.93	7166.72
507.11	6956.07
507.28	7133.95
507.46	7000.54
507.63	6757.13
507.81	6813.30
507.98	6991.18
508.16	7016.93
508.33	6988.84
508.50	7162.04
508.68	7375.03
508.85	7564.61
509.03	7431.20
509.20	7585.68
509.38	7309.49
509.55	7274.38
509.73	7087.14
509.90	7250.98
510.08	7442.90
510.25	7272.04
510.42	7246.30
510.60	7524.82
510.77	7527.16
510.95	7503.76
511.12	7241.62
511.30	7644.19
511.47	7662.91
511.64	7836.11
511.82	7651.21
511.99	7424.18
512.17	7353.96
512.34	7232.26
512.51	7375.03
512.69	7396.09
512.86	7503.76
513.04	7520.14
513.21	7548.23
513.38	7482.69
513.56	7190.13
513.73	7176.08
513.90	7098.84
514.08	7229.91
514.25	7337.58
514.43	7267.36
514.60	7473.33
514.77	7531.84
514.95	7459.29
515.12	7456.95
515.29	7417.16
515.47	7588.02
515.64	7644.19
515.81	7555.25
515.99	7461.63
516.16	7183.10
516.33	6635.42
516.51	6244.55
516.68	6193.06
516.85	6026.88
517.03	5970.71
517.20	6424.77
517.37	7005.22
517.54	7227.57
517.72	7349.28
517.89	6778.19
518.06	6188.38
518.24	6183.70
518.41	6569.88
518.58	7105.87
518.75	7279.07
518.93	7232.26
519.10	7115.23
519.27	7236.94
519.45	7295.45
519.62	7550.57
519.79	7545.89
519.96	7328.22
520.14	7473.33
520.31	7236.94
520.48	7262.68
520.65	7339.92
520.83	7634.83
521.00	7655.89
521.17	7564.61
521.34	7281.41
521.52	7566.95
521.69	7728.45
521.86	7892.29
522.03	7648.87
522.20	7421.84
522.38	7187.79
522.55	7056.72
522.72	7239.28
522.89	7344.60
523.07	7421.84
523.24	7466.31
523.41	7625.47
523.58	7712.07
523.75	7929.74
523.92	7948.46
524.10	7796.32
524.27	7836.11
524.44	7730.79
524.61	7801.01
524.78	7585.68
524.96	7674.62
525.13	7569.29
525.30	7761.22
525.47	7791.64
525.64	7815.05
525.81	7602.06
525.98	7489.71
526.16	7005.22
526.33	6834.36
526.50	6651.80
526.67	6551.16
526.84	6691.59
527.01	6801.60
527.18	7077.78
527.36	7346.94
527.53	7639.51
527.70	7667.60
527.87	7749.51
528.04	7524.82
528.21	7616.10
528.38	7845.48
528.55	8011.65
528.72	8018.68
528.89	8215.28
529.07	8205.92
529.24	7962.50
529.41	7658.23
529.58	7651.21
529.75	7417.16
529.92	7651.21
530.09	7524.82
530.26	7843.14
530.43	7918.03
530.60	7873.56
530.77	8154.43
530.94	8081.87
531.11	7974.21
531.28	7751.85
531.46	7672.28
531.63	7899.31
531.80	7791.64
531.97	7658.23
532.14	7606.74
532.31	7169.06
532.48	7073.10
532.65	6913.94
532.82	7122.25
532.99	7712.07
533.16	7569.29
533.33	7777.60
533.50	7868.88
533.67	7691.00
533.84	7620.78
534.01	7784.62
534.18	7548.23
534.35	7868.88
534.52	7463.97
534.69	7791.64
534.86	7793.98
535.03	7840.79
535.20	7871.22
535.37	8116.98
535.54	8152.09
535.71	8006.97
535.88	8173.15
536.05	7552.91
536.22	7634.83
536.38	7555.25
536.55	7559.93
536.72	7557.59
536.89	7288.43
537.06	7541.21
537.23	7581.00
537.40	7899.31
537.57	7768.24
537.74	7812.71
537.91	7613.76
538.08	7723.77
538.25	7566.95
538.42	7672.28
538.59	7644.19
538.75	7592.70
538.92	7452.27
539.09	7557.59
539.26	7470.99
539.43	7426.52
539.60	7468.65
539.77	7492.05
539.94	7550.57
540.11	7157.36
540.28	7353.96
540.44	7255.66
540.61	7222.89
540.78	7236.94
540.95	7344.60
541.12	7648.87
541.29	7538.87
541.46	7761.22
541.62	7995.27
541.79	7796.32
541.96	7590.36
542.13	7602.06
542.30	7709.72
542.47	7723.77
542.63	7716.75
542.80	7487.37
542.97	7639.51
543.14	7646.53
543.31	7618.44
543.48	7566.95
543.64	7934.42
543.81	7990.59
543.98	7983.57
544.15	7908.67
544.32	7632.49
544.48	7606.74
544.65	7639.51
544.82	7899.31
544.99	7810.37
545.16	7566.95
545.32	7639.51
545.49	8004.63
545.66	8397.84
545.83	8521.89
546.00	8166.13
546.16	7775.26
546.33	7793.98
546.50	7485.03
546.67	7758.88
546.83	7620.78
547.00	7599.72
547.17	7475.67
547.34	7377.37
547.50	7262.68
547.67	7639.51
547.84	7393.75
548.00	7548.23
548.17	7414.82
548.34	7438.22
548.51	7592.70
548.67	7775.26
548.84	7648.87
549.01	7653.55
549.18	7555.25
549.34	7550.57
549.51	7494.40
549.68	7508.44
549.84	7648.87
550.01	7431.20
550.18	7569.29
550.34	7487.37
550.51	7588.02
550.68	7445.24
550.84	7323.54
551.01	7417.16
551.18	7412.48
551.34	7241.62
551.51	7431.20
551.68	7485.03
551.84	7557.59
552.01	7508.44
552.18	7517.80
552.34	7318.86
552.51	7229.91
552.68	7052.03
552.84	7274.38
553.01	7243.96
553.18	7370.35
553.34	7332.90
553.51	7431.20
553.67	7391.41
553.84	7573.97
554.01	7433.54
554.17	7391.41
554.34	7515.46
554.51	7269.70
554.67	7311.83
554.84	7534.18
555.00	7421.84
555.17	7290.77
555.33	7309.49
555.50	7169.06
555.67	7253.32
555.83	7227.57
556.00	7155.02
556.16	7339.92
556.33	7152.68
556.50	7061.40
556.66	7171.40
556.83	7033.31
556.99	7112.89
557.16	6951.39
557.32	7005.22
557.49	7197.15
557.65	7091.82
557.82	7232.26
557.98	7157.36
558.15	7227.57
558.32	7094.16
558.48	6722.02
558.65	6754.79
558.81	6911.60
558.98	6820.32
559.14	7002.88
559.31	6883.52
559.47	6897.56
559.64	6904.58
559.80	6904.58
559.97	6937.35
560.13	6881.18
560.30	6918.62
560.46	7199.49
560.63	7246.30
560.79	7339.92
560.96	7094.16
561.12	7075.44
561.29	6705.63
561.45	6745.42
561.61	6757.13
561.78	6988.84
561.94	6855.43
562.11	6970.12
562.27	6825.00
562.44	6951.39
562.60	6995.86
562.77	7133.95
562.93	6895.22
563.10	7115.23
563.26	6953.73
563.42	6923.30
563.59	6832.02
563.75	6656.48
563.92	6780.53
564.08	6803.94
564.24	6932.67
564.41	6691.59
564.57	6827.34
564.74	6843.73
564.90	6766.49
565.07	6867.13
565.23	6752.45
565.39	6466.90
565.56	6593.29
565.72	6466.90
565.88	6544.14
566.05	6296.04
566.21	6534.78
566.38	6780.53
566.54	6551.16
566.70	6761.81
566.87	6761.81
567.03	6825.00
567.19	6988.84
567.36	6604.99
567.52	6494.99
567.68	6509.03
567.85	6293.70
568.01	6427.11
568.17	6171.99
568.34	6118.16
568.50	6066.67
568.66	6244.55
568.83	6244.55
568.99	6179.01
569.15	6319.45
569.32	6296.04
569.48	6370.94
569.64	6214.12
569.81	6176.67
569.97	6150.93
570.13	6300.72
570.30	6204.76
570.46	6134.54
570.62	5923.90
570.78	5832.62
570.95	5916.87
571.11	6127.52
571.27	6097.10
571.43	6129.86
571.60	6317.11
571.76	6186.04
571.92	6361.58
572.09	6342.85
572.25	6258.59
572.41	6307.74
572.57	6286.68
572.74	6389.66
572.90	6179.01
573.06	6289.02
573.22	6087.73
573.38	6361.58
573.55	6286.68
573.71	6284.34
573.87	6237.53
574.03	6237.53
574.20	6164.97
574.36	5947.30
574.52	6001.13
574.68	6221.14
574.84	6054.97
575.01	6061.99
575.17	5811.55
575.33	5961.34
575.49	5921.56
575.65	5980.07
575.82	6113.48
575.98	5947.30
576.14	5914.53
576.30	6010.50
576.46	6272.64
576.62	6314.77
576.79	6352.21
576.95	6143.91
577.11	6010.50
577.27	5989.43
577.43	6104.12
577.59	6073.69
577.75	5968.37
577.92	5937.94
578.08	5832.62
578.24	5771.76
578.40	6033.90
578.56	6036.24
578.72	6171.99
578.88	6176.67
579.04	6228.17
579.21	6183.70
579.37	6143.91
579.53	5996.45
579.69	6169.65
579.85	6094.76
580.01	6083.05
580.17	6218.80
580.33	6164.97
580.49	6160.29
580.65	6115.82
580.82	6190.72
580.98	5977.73
581.14	6263.27
581.30	6104.12
581.46	6111.14
581.62	6141.57
581.78	6169.65
581.94	6162.63
582.10	6200.08
582.26	6218.80
582.42	6239.87
582.58	6321.79
582.74	6225.82
582.90	6270.30
583.06	6298.38
583.22	6134.54
583.38	6160.29
583.54	6132.20
583.70	6099.44
583.86	6221.14
584.02	6242.21
584.18	6228.17
584.34	5991.77
584.50	6155.61
584.66	6054.97
584.82	6045.60
584.98	6080.71
585.14	5877.09
585.30	5928.58
585.46	5881.77
585.62	5724.95
585.78	5879.43
585.94	5682.82
586.10	5813.89
586.26	5809.21
586.42	6001.13
586.58	5827.93
586.74	5689.84
586.90	5874.74
587.06	5797.51
587.22	5853.68
587.38	5495.58
587.54	5710.91
587.70	5493.24
587.86	5345.78
588.02	5219.39
588.18	5050.88
588.34	4931.51
588.49	4477.44
588.65	4234.03
588.81	4198.92
588.97	4149.77
589.13	4266.80
589.29	4163.81
589.45	4173.18
589.61	4250.41
589.77	4456.38
589.93	4617.88
590.08	4746.61
590.24	4865.97
590.40	4983.00
590.56	4835.55
590.72	4903.42
590.88	4819.16
591.04	4774.69
591.20	4873.00
591.35	4823.84
591.51	4657.67
591.67	4667.03
591.83	4601.49
591.99	4660.01
592.15	4739.58
592.31	4910.44
592.46	5193.65
592.62	5207.69
592.78	5048.54
592.94	5071.94
593.10	5088.32
593.26	5186.63
593.41	5116.41
593.57	5104.71
593.73	4992.36
593.89	4922.15
594.05	4587.45
594.20	4596.81
594.36	4409.57
594.52	4461.06
594.68	4528.94
594.84	4819.16
594.99	4772.35
595.15	4887.04
595.31	4968.96
595.47	4994.70
595.62	4875.34
595.78	5034.49
595.94	5114.07
596.10	5102.37
596.25	5142.16
596.41	4835.55
596.57	4917.47
596.73	4868.31
596.88	5001.72
597.04	5181.95
597.20	4858.95
597.36	4933.85
597.51	4849.59
597.67	5055.56
