SpectraSuite Data File
++++++++++++++++++++++++++++++++++++
Date: Fri Oct 04 11:44:18 GMT-05:00 2013
User: price-jones
Dark Spectrum Present: No
Reference Spectrum Present: No
Number of Sampled Component Spectra: 1
Spectrometers: USB2+H05261
Integration Time (usec): 100000 (USB2+H05261)
Spectra Averaged: 1 (USB2+H05261)
Boxcar Smoothing: 0 (USB2+H05261)
Correct for Electrical Dark: No (USB2+H05261)
Strobe/Lamp Enabled: No (USB2+H05261)
Correct for Detector Non-linearity: No (USB2+H05261)
Correct for Stray Light: No (USB2+H05261)
Number of Pixels in Processed Spectrum: 2048
>>>>>Begin Processed Spectral Data<<<<<
365.73	21.06
365.92	21.06
366.12	21.06
366.32	0.00
366.52	0.00
366.72	0.00
366.91	0.00
367.11	0.00
367.31	0.00
367.51	0.00
367.70	0.00
367.90	0.00
368.10	0.00
368.30	0.00
368.49	0.00
368.69	0.00
368.89	0.00
369.09	0.00
369.28	0.00
369.48	0.00
369.68	0.00
369.87	32.77
370.07	0.00
370.27	81.92
370.47	60.85
370.66	538.32
370.86	610.88
371.06	734.93
371.25	692.80
371.45	557.05
371.65	571.09
371.84	489.17
372.04	613.22
372.24	585.13
372.44	683.44
372.63	631.94
372.83	622.58
373.03	571.09
373.22	571.09
373.42	596.84
373.62	671.73
373.81	615.56
374.01	634.29
374.21	587.47
374.40	596.84
374.60	552.37
374.79	610.88
374.99	676.41
375.19	770.04
375.38	809.83
375.58	713.86
375.78	751.31
375.97	758.33
376.17	802.80
376.37	692.80
376.56	713.86
376.76	812.17
376.95	877.70
377.15	987.71
377.35	910.47
377.54	938.55
377.74	950.26
377.93	882.38
378.13	1064.94
378.33	936.21
378.52	905.79
378.72	842.59
378.91	837.91
379.11	739.61
379.31	779.40
379.50	805.14
379.70	849.61
379.89	950.26
380.09	880.04
380.28	929.19
380.48	905.79
380.68	894.08
380.87	884.72
381.07	814.51
381.26	849.61
381.46	751.31
381.65	716.20
381.85	638.97
382.04	688.12
382.24	660.03
382.43	587.47
382.63	653.01
382.83	678.76
383.02	578.11
383.22	573.43
383.41	641.31
383.61	706.84
383.80	669.39
384.00	851.96
384.19	737.27
384.39	851.96
384.58	938.55
384.78	896.43
384.97	861.32
385.17	784.08
385.36	758.33
385.56	779.40
385.75	807.48
385.95	823.87
386.14	961.96
386.34	940.90
386.53	917.49
386.72	842.59
386.92	908.13
387.11	1004.09
387.31	971.32
387.50	851.96
387.70	805.14
387.89	933.87
388.09	940.90
388.28	896.43
388.48	976.00
388.67	924.51
388.86	1083.67
389.06	1128.14
389.25	1198.35
389.45	1203.04
389.64	1256.87
389.84	1210.06
390.03	1128.14
390.22	1198.35
390.42	1329.42
390.61	1188.99
390.81	1294.32
391.00	1280.27
391.19	1308.36
391.39	1373.89
391.58	1188.99
391.78	1146.86
391.97	1132.82
392.16	1018.13
392.36	1025.15
392.55	784.08
392.75	664.71
392.94	568.75
393.13	631.94
393.33	716.20
393.52	765.36
393.71	868.34
393.91	1158.57
394.10	1071.97
394.29	1158.57
394.49	1291.98
394.68	1371.55
394.88	1380.92
395.07	1369.21
395.26	1371.55
395.46	1303.68
395.65	1277.93
395.84	1188.99
396.04	1086.01
396.23	849.61
396.42	791.10
396.62	709.18
396.81	924.51
397.00	992.39
397.19	1125.80
397.39	1500.28
397.58	1540.07
397.77	1610.29
397.97	1699.23
398.16	1703.91
398.35	1710.93
398.55	1694.55
398.74	1839.66
398.93	1842.00
399.12	1832.64
399.32	1764.76
399.51	1827.96
399.70	2012.86
399.90	1888.81
400.09	1877.11
400.28	2033.93
400.47	1827.96
400.67	1994.14
400.86	2017.54
401.05	1987.11
401.24	2132.23
401.44	2052.65
401.63	2083.08
401.82	1982.43
402.01	2036.27
402.21	2099.46
402.40	2155.63
402.59	1879.45
402.78	1926.26
402.97	1940.30
403.17	1991.80
403.36	2036.27
403.55	2115.84
403.74	2136.91
403.93	2289.04
404.13	2333.51
404.32	2677.57
404.51	2640.12
404.70	2537.14
404.89	2239.89
405.09	2176.70
405.28	2073.71
405.47	2019.88
405.66	2036.27
405.85	1961.37
406.05	1872.43
406.24	1935.62
406.43	1975.41
406.62	2057.33
406.81	2115.84
407.00	2012.86
407.20	1980.09
407.39	2080.74
407.58	2249.25
407.77	2186.06
407.96	2221.17
408.15	2209.47
408.34	2359.26
408.54	2401.39
408.73	2347.56
408.92	2448.20
409.11	2270.32
409.30	2174.36
409.49	2062.01
409.68	1916.90
409.87	1909.88
410.07	1952.01
410.26	2083.08
410.45	2342.88
410.64	2279.68
410.83	2321.81
411.02	2340.54
411.21	2532.46
411.40	2438.84
411.59	2544.16
411.78	2373.30
411.98	2473.95
412.17	2516.08
412.36	2389.69
412.55	2338.20
412.74	2413.09
412.93	2326.49
413.12	2305.43
413.31	2539.48
413.50	2506.71
413.69	2546.50
413.88	2595.65
414.07	2401.39
414.26	2455.22
414.45	2513.74
414.64	2583.95
414.83	2553.52
415.02	2534.80
415.22	2534.80
415.41	2677.57
415.60	2630.76
415.79	2700.98
415.98	2815.66
416.17	2782.90
416.36	2733.75
416.55	2677.57
416.74	2553.52
416.93	2480.97
417.12	2612.04
417.31	2651.83
417.50	2593.31
417.69	2773.53
417.88	2693.96
418.07	2607.36
418.26	2612.04
418.45	2605.02
418.64	2703.32
418.83	2881.20
419.02	2693.96
419.21	2675.23
419.39	2633.10
419.58	2525.44
419.77	2450.54
419.96	2576.93
420.15	2780.56
420.34	2848.43
420.53	3005.25
420.72	2946.73
420.91	3005.25
421.10	2958.44
421.29	2841.41
421.48	2825.03
421.67	2923.33
421.86	2846.09
422.05	2719.70
422.24	2401.39
422.43	2469.27
422.61	2635.44
422.80	2766.51
422.99	2803.96
423.18	2675.23
423.37	2754.81
423.56	2796.94
423.75	2810.98
423.94	2736.09
424.13	2780.56
424.32	2588.63
424.50	2544.16
424.69	2626.08
424.88	2722.04
425.07	2558.21
425.26	2651.83
425.45	2609.70
425.64	2523.10
425.83	2555.86
426.01	2696.30
426.20	2808.64
426.39	2796.94
426.58	2560.55
426.77	2445.86
426.96	2443.52
427.15	2408.41
427.33	2548.84
427.52	2689.28
427.71	2658.85
427.90	2630.76
428.09	2630.76
428.28	2663.53
428.46	2569.91
428.65	2487.99
428.84	2600.34
429.03	2485.65
429.22	2413.09
429.40	2331.17
429.59	2157.97
429.78	1921.58
429.97	1928.60
430.16	1987.11
430.34	2026.90
430.53	1867.75
430.72	1856.04
430.91	2094.78
431.10	2443.52
431.28	2731.41
431.47	3119.93
431.66	3131.64
431.85	2857.79
432.03	2614.38
432.22	2656.51
432.41	2675.23
432.60	2883.54
432.79	2998.23
432.97	3026.31
433.16	3075.46
433.35	2729.06
433.54	2626.08
433.72	2490.33
433.91	2562.89
434.10	2665.87
434.28	3005.25
434.47	3091.85
434.66	3143.34
434.85	3054.40
435.03	3272.07
435.22	4278.50
435.41	6157.95
435.59	6857.77
435.78	5804.53
435.97	4442.34
436.16	3672.30
436.34	3316.54
436.53	3321.22
436.72	3197.17
436.90	3105.89
437.09	3108.23
437.28	2949.08
437.46	3045.04
437.65	3260.37
437.84	2860.13
438.02	2565.23
438.21	2609.70
438.40	2789.92
438.58	2937.37
438.77	3056.74
438.96	3136.32
439.14	3112.91
439.33	3281.43
439.52	3272.07
439.70	3157.38
439.89	3082.49
440.08	3087.17
440.26	3033.33
440.45	3112.91
440.63	3276.75
440.82	3433.57
441.01	3515.48
441.19	3454.63
441.38	3452.29
441.57	3581.02
441.75	3613.79
441.94	3667.62
442.12	3672.30
442.31	3639.53
442.50	3751.88
442.68	3630.17
442.87	3590.38
443.05	3466.33
443.24	3468.67
443.43	3803.37
443.61	3744.86
443.80	3794.01
443.98	3585.70
444.17	3520.17
444.35	3817.41
444.54	3829.12
444.73	3719.11
444.91	3789.33
445.10	3637.19
445.28	3293.13
445.47	3410.16
445.65	3496.76
445.84	3337.60
446.02	3475.70
446.21	3662.94
446.39	3370.37
446.58	3590.38
446.77	3627.83
446.95	3756.56
447.14	3705.07
447.32	3929.76
447.51	3803.37
447.69	3812.73
447.88	3669.96
448.06	3751.88
448.25	3702.73
448.43	3735.50
448.62	3749.54
448.80	3672.30
448.99	3705.07
449.17	3639.53
449.36	3772.94
449.54	4002.32
449.73	3758.90
449.91	3871.25
450.10	4025.72
450.28	4236.37
450.46	4262.12
450.65	4124.02
450.83	3995.29
451.02	4009.34
451.20	4009.34
451.39	3719.11
451.57	4016.36
451.76	3871.25
451.94	3894.65
452.13	3859.54
452.31	3646.55
452.49	3637.19
452.68	3541.23
452.86	3541.23
453.05	3721.45
453.23	3810.39
453.42	3761.24
453.60	3850.18
453.78	3892.31
453.97	3978.91
454.15	3754.22
454.34	3700.39
454.52	3770.60
454.70	3899.33
454.89	3606.77
455.07	3808.05
455.26	3723.79
455.44	3981.25
455.62	4044.45
455.81	4025.72
455.99	4074.87
456.17	4149.77
456.36	3964.87
456.54	4023.38
456.73	3964.87
456.91	4184.88
457.09	4252.75
457.28	4102.96
457.46	4077.21
457.64	4039.76
457.83	3946.14
458.01	3875.93
458.19	3941.46
458.38	3955.51
458.56	4077.21
458.74	4021.04
458.93	4021.04
459.11	3922.74
459.29	3953.16
459.48	4030.40
459.66	4084.23
459.84	4095.94
460.03	4131.05
460.21	4077.21
460.39	4170.83
460.57	4025.72
460.76	4358.08
460.94	4182.54
461.12	4147.43
461.31	4257.43
461.49	4168.49
461.67	4023.38
461.85	4149.77
462.04	4107.64
462.22	4741.93
462.40	4255.09
462.59	4161.47
462.77	4088.92
462.95	4348.72
463.13	4201.26
463.32	4173.18
463.50	4051.47
463.68	4166.15
463.86	4231.69
464.05	3929.76
464.23	4065.51
464.41	4093.60
464.59	3925.08
464.78	4210.62
464.96	4081.89
465.14	4032.74
465.32	4159.13
465.50	4329.99
465.69	4297.22
465.87	4138.07
466.05	4145.09
466.23	3962.53
466.41	3726.13
466.60	3824.44
466.78	3906.35
466.96	4287.86
467.14	3948.48
467.32	4203.60
467.51	4112.32
467.69	3988.27
467.87	3911.04
468.05	4095.94
468.23	4124.02
468.41	4154.45
468.60	4212.96
468.78	4156.79
468.96	3929.76
469.14	4042.11
469.32	4161.47
469.50	4009.34
469.69	4037.42
469.87	3967.21
470.05	3892.31
470.23	3880.61
470.41	4021.04
470.59	4032.74
470.77	4016.36
470.95	4135.73
471.14	4222.33
471.32	4187.22
471.50	4430.63
471.68	4411.91
471.86	4423.61
472.04	4512.55
472.22	4440.00
472.40	4264.46
472.58	4257.43
472.77	4189.56
472.95	4140.41
473.13	4505.53
473.31	4290.20
473.49	4311.27
473.67	4273.82
473.85	4334.67
474.03	4510.21
474.21	4393.19
474.39	4648.30
474.57	4617.88
474.75	4636.60
474.93	4421.27
475.12	4447.02
475.30	4393.19
475.48	4308.93
475.66	4404.89
475.84	4334.67
476.02	4365.10
476.20	4402.55
476.38	4440.00
476.56	4561.70
476.74	4507.87
476.92	4781.71
477.10	4650.64
477.28	4858.95
477.46	4805.12
477.64	4816.82
477.82	4851.93
478.00	4887.04
478.18	4784.06
478.36	4772.35
478.54	4784.06
478.72	4856.61
478.90	5027.47
479.08	5078.96
479.26	5139.82
479.44	5160.88
479.62	5151.52
479.80	5029.81
479.98	5069.60
480.16	5191.31
480.34	5067.26
480.52	5242.80
480.70	5289.61
480.88	5280.25
481.06	5298.97
481.24	5252.16
481.41	5359.83
481.59	5610.26
481.77	5575.16
481.95	5547.07
482.13	5509.62
482.31	5465.15
482.49	5504.94
482.67	5535.37
482.85	5671.12
483.03	5781.12
483.21	5942.62
483.39	5757.72
483.57	5664.10
483.74	5781.12
483.92	5781.12
484.10	5575.16
484.28	5846.66
484.46	5886.45
484.64	5937.94
484.82	5736.65
485.00	5853.68
485.18	5703.89
485.35	5612.60
485.53	5357.49
485.71	4723.20
485.89	4823.84
486.07	4980.66
486.25	5425.36
486.43	5762.40
486.61	5636.01
486.78	5799.85
486.96	5851.34
487.14	6001.13
487.32	6090.07
487.50	6296.04
487.68	6595.63
487.85	6619.04
488.03	6722.02
488.21	6331.15
488.39	6420.09
488.57	6204.76
488.75	6282.00
488.92	6471.58
489.10	6684.57
489.28	6768.83
489.46	7101.19
489.64	6970.12
489.81	6984.16
489.99	6911.60
490.17	7002.88
490.35	7152.68
490.53	6890.54
490.70	6953.73
490.88	6782.87
491.06	7040.33
491.24	7166.72
491.41	6965.43
491.59	6574.56
491.77	6382.64
491.95	6642.44
492.13	6768.83
492.30	7164.38
492.48	7379.71
492.66	7405.46
492.84	7211.19
493.01	7389.07
493.19	7279.07
493.37	7089.48
493.54	7075.44
493.72	7152.68
493.90	7693.34
494.08	7531.84
494.25	7583.34
494.43	7651.21
494.61	7761.22
494.79	7595.04
494.96	7786.96
495.14	7571.63
495.32	7356.30
495.49	7300.13
495.67	7431.20
495.85	7513.12
496.02	7789.30
496.20	7674.62
496.38	7705.04
496.55	7620.78
496.73	7728.45
496.91	7772.92
497.09	7957.82
497.26	8056.12
497.44	7786.96
497.62	7676.96
497.79	7485.03
497.97	7157.36
498.14	7365.67
498.32	7569.29
498.50	7646.53
498.67	7840.79
498.85	7885.26
499.03	7838.45
499.20	8067.83
499.38	7999.95
499.56	7859.52
499.73	7548.23
499.91	7566.95
500.08	7588.02
500.26	7356.30
500.44	7581.00
500.61	7606.74
500.79	7674.62
500.97	7506.10
501.14	7328.22
501.32	7506.10
501.49	7110.55
501.67	7297.79
501.84	7555.25
502.02	7543.55
502.20	7658.23
502.37	7686.32
502.55	7613.76
502.72	7719.09
502.90	7878.24
503.07	7735.47
503.25	7492.05
503.43	7311.83
503.60	7115.23
503.78	6953.73
503.95	7150.34
504.13	7515.46
504.30	7775.26
504.48	7819.73
504.65	7683.98
504.83	7742.49
505.01	7737.81
505.18	8102.93
505.36	7896.97
505.53	7962.50
505.71	8128.68
505.88	8269.11
506.06	8049.10
506.23	8021.02
506.41	7763.56
506.58	7749.51
506.76	7995.27
506.93	7791.64
507.11	7637.17
507.28	7836.11
507.46	7679.30
507.63	7620.78
507.81	7442.90
507.98	7506.10
508.16	7803.35
508.33	7885.26
508.50	7971.86
508.68	8046.76
508.85	8168.47
509.03	8285.50
509.20	8358.05
509.38	7976.55
509.55	7990.59
509.73	7798.66
509.90	8231.66
510.08	8044.42
510.25	8189.53
510.42	8168.47
510.60	8201.24
510.77	8053.78
510.95	8084.21
511.12	8325.29
511.30	8241.03
511.47	8458.70
511.64	8430.61
511.82	8329.97
511.99	7953.14
512.17	8042.08
512.34	7880.58
512.51	7906.33
512.69	7852.50
512.86	8074.85
513.04	8131.02
513.21	8163.79
513.38	7934.42
513.56	8025.70
513.73	7784.62
513.90	7929.74
514.08	8114.64
514.25	8161.45
514.43	8006.97
514.60	7988.25
514.77	8140.38
514.95	8294.86
515.12	8035.06
515.29	8269.11
515.47	8271.45
515.64	8259.75
515.81	8313.58
515.99	8131.02
516.16	7665.25
516.33	6937.35
516.51	6839.05
516.68	6684.57
516.85	6534.78
517.03	6743.08
517.20	7255.66
517.37	7829.09
517.54	8004.63
517.72	7960.16
517.89	7463.97
518.06	6949.05
518.24	7049.69
518.41	7246.30
518.58	7775.26
518.75	7801.01
518.93	7833.77
519.10	7763.56
519.27	7911.01
519.45	7901.65
519.62	8180.17
519.79	8053.78
519.96	8344.01
520.14	8168.47
520.31	7866.54
520.48	7903.99
520.65	7920.37
520.83	8278.47
521.00	8542.96
521.17	8285.50
521.34	8109.96
521.52	8299.54
521.69	8489.12
521.86	8475.08
522.03	8325.29
522.20	8194.22
522.38	7866.54
522.55	7648.87
522.72	8093.57
522.89	7995.27
523.07	7964.84
523.24	8084.21
523.41	8344.01
523.58	8477.42
523.75	8638.92
523.92	8500.83
524.10	8376.78
524.27	8521.89
524.44	8697.43
524.61	8643.60
524.78	8334.65
524.96	8594.45
525.13	8374.44
525.30	8437.63
525.47	8760.63
525.64	8650.62
525.81	8454.02
525.98	8159.11
526.16	7623.12
526.33	7300.13
526.50	7258.00
526.67	7108.21
526.84	7316.51
527.01	7496.74
527.18	7765.90
527.36	8042.08
527.53	8341.67
527.70	8388.48
527.87	8262.09
528.04	8215.28
528.21	8243.37
528.38	8538.27
528.55	8699.77
528.72	8713.81
528.89	8840.20
529.07	8762.97
529.24	8458.70
529.41	8346.35
529.58	8180.17
529.75	8091.23
529.92	8196.56
530.09	8624.87
530.26	8566.36
530.43	8573.38
530.60	8615.51
530.77	8610.83
530.94	8767.65
531.11	8580.40
531.28	8456.36
531.46	8393.16
531.63	8351.03
531.80	8564.02
531.97	8568.70
532.14	8058.46
532.31	7810.37
532.48	7779.94
532.65	7545.89
532.82	7969.52
532.99	8362.73
533.16	8514.87
533.33	8484.44
533.50	8557.00
533.67	8360.39
533.84	8116.98
534.01	8175.49
534.18	8484.44
534.35	8322.94
534.52	8217.62
534.69	8299.54
534.86	8409.54
535.03	8519.55
535.20	8730.20
535.37	8842.54
535.54	8823.82
535.71	9006.38
535.88	8608.49
536.05	8578.06
536.22	8500.83
536.38	8245.71
536.55	8269.11
536.72	8116.98
536.89	8009.31
537.06	8355.71
537.23	8704.45
537.40	8863.61
537.57	8627.21
537.74	8678.71
537.91	8615.51
538.08	8887.01
538.25	8812.12
538.42	8858.93
538.59	8835.52
538.75	8819.14
538.92	8491.46
539.09	8645.94
539.26	8784.03
539.43	8662.32
539.60	8622.53
539.77	8950.21
539.94	9001.70
540.11	8833.18
540.28	8938.51
540.44	9238.09
540.61	8945.53
540.78	9509.60
540.95	9916.85
541.12	10422.41
541.29	10899.87
541.46	11047.33
541.62	11042.65
541.79	10878.81
541.96	10729.02
542.13	10445.81
542.30	10569.86
542.47	10338.15
542.63	10148.56
542.80	10012.81
542.97	9907.49
543.14	9818.55
543.31	9734.29
543.48	10022.17
543.64	10260.91
543.81	10347.51
543.98	10401.34
544.15	10347.51
544.32	10015.15
544.48	10099.41
544.65	10204.74
544.82	9961.32
544.99	10274.95
545.16	9984.73
545.32	10094.73
545.49	11440.54
545.66	14567.49
545.83	17053.14
546.00	15871.17
546.16	13219.35
546.33	11468.62
546.50	10642.42
546.67	10251.55
546.83	9877.06
547.00	9788.12
547.17	9413.63
547.34	9308.31
547.50	9207.67
547.67	9462.79
547.84	9343.42
548.00	9359.80
548.17	9277.88
548.34	9343.42
548.51	9331.72
548.67	9305.97
548.84	9092.98
549.01	9018.08
549.18	9057.87
549.34	8896.38
549.51	8968.93
549.68	8905.74
549.84	8870.63
550.01	8720.84
550.18	8805.10
550.34	8748.92
550.51	8840.20
550.68	8702.11
550.84	8416.57
551.01	8454.02
551.18	8386.14
551.34	8255.07
551.51	8531.25
551.68	8631.90
551.84	8564.02
552.01	8468.06
552.18	8318.26
552.34	8215.28
552.51	7983.57
552.68	8121.66
552.84	8100.59
553.01	8353.37
553.18	8257.41
553.34	8255.07
553.51	8381.46
553.67	8386.14
553.84	8397.84
554.01	8105.28
554.17	8196.56
554.34	8102.93
554.51	8077.19
554.67	8292.52
554.84	7960.16
555.00	7969.52
555.17	8058.46
555.33	7976.55
555.50	8070.17
555.67	7866.54
555.83	7861.86
556.00	7817.39
556.16	7946.12
556.33	7674.62
556.50	7721.43
556.66	7620.78
556.83	7524.82
556.99	7529.50
557.16	7482.69
557.32	7501.42
557.49	7585.68
557.65	7861.86
557.82	7765.90
557.98	7714.41
558.15	7662.91
558.32	7480.35
558.48	7253.32
558.65	6876.49
558.81	7379.71
558.98	7232.26
559.14	7499.08
559.31	7410.14
559.47	7447.58
559.64	7548.23
559.80	7293.11
559.97	7311.83
560.13	7368.01
560.30	7438.22
560.46	7658.23
560.63	7630.15
560.79	7791.64
560.96	7662.91
561.12	7588.02
561.29	7236.94
561.45	7375.03
561.61	7342.26
561.78	7470.99
561.94	7410.14
562.11	7342.26
562.27	7337.58
562.44	7517.80
562.60	7440.56
562.77	7485.03
562.93	7683.98
563.10	7492.05
563.26	7260.34
563.42	7452.27
563.59	7424.18
563.75	7152.68
563.92	7288.43
564.08	7447.58
564.24	7440.56
564.41	7152.68
564.57	7426.52
564.74	7463.97
564.90	7679.30
565.07	7386.73
565.23	7073.10
565.39	6972.46
565.56	6916.28
565.72	6916.28
565.88	6862.45
566.05	7206.51
566.21	7016.93
566.38	6979.48
566.54	7037.99
566.70	7297.79
566.87	7136.29
567.03	7204.17
567.19	7190.13
567.36	7171.40
567.52	7080.12
567.68	7070.76
567.85	6829.68
568.01	6789.89
568.17	6682.23
568.34	6693.93
568.50	6504.35
568.66	6520.73
568.83	6738.40
568.99	6822.66
569.15	6743.08
569.32	6754.79
569.48	6733.72
569.64	6675.21
569.81	6698.61
569.97	6682.23
570.13	6722.02
570.30	6635.42
570.46	6494.99
570.62	6361.58
570.78	6195.40
570.95	6417.75
571.11	6527.75
571.27	6380.30
571.43	6487.96
571.60	6602.65
571.76	6658.82
571.92	6574.56
572.09	6759.47
572.25	6773.51
572.41	6817.98
572.57	6656.48
572.74	6768.83
572.90	6609.67
573.06	6649.46
573.22	6707.98
573.38	6672.87
573.55	6513.71
573.71	6619.04
573.87	6738.40
574.03	6665.85
574.20	6612.01
574.36	6429.45
574.52	6464.56
574.68	6382.64
574.84	6455.20
575.01	6193.06
575.17	6298.38
575.33	6370.94
575.49	6370.94
575.65	6389.66
575.82	6413.07
575.98	6300.72
576.14	6462.22
576.30	6614.35
576.46	7176.08
576.62	7875.90
576.79	8100.59
576.95	7393.75
577.11	7243.96
577.27	6972.46
577.43	6825.00
577.59	6487.96
577.75	6342.85
577.92	6162.63
578.08	6118.16
578.24	6094.76
578.40	6389.66
578.56	6897.56
578.72	7368.01
578.88	7857.18
579.04	7557.59
579.21	7019.27
579.37	6745.42
579.53	6684.57
579.69	6995.86
579.85	6902.24
580.01	7052.03
580.17	6799.26
580.33	6822.66
580.49	6895.22
580.65	6672.87
580.82	6754.79
580.98	7005.22
581.14	6576.91
581.30	6834.36
581.46	6722.02
581.62	6942.03
581.78	6899.90
581.94	6913.94
582.10	7030.97
582.26	6815.64
582.42	6923.30
582.58	7040.33
582.74	6885.86
582.90	6895.22
583.06	7049.69
583.22	6796.92
583.38	6988.84
583.54	6883.52
583.70	7037.99
583.86	7005.22
584.02	6939.69
584.18	6995.86
584.34	6930.33
584.50	6892.88
584.66	6885.86
584.82	6619.04
584.98	6834.36
585.14	6672.87
585.30	6595.63
585.46	6469.24
585.62	6443.49
585.78	6562.86
585.94	6532.44
586.10	6473.92
586.26	6492.65
586.42	6614.35
586.58	6684.57
586.74	6867.13
586.90	7016.93
587.06	7054.37
587.22	7208.85
587.38	6771.17
587.54	6670.53
587.70	6410.73
587.86	6019.86
588.02	5886.45
588.18	5790.49
588.34	5369.19
588.49	5137.48
588.65	4833.21
588.81	4699.80
588.97	4805.12
589.13	4585.11
589.29	4617.88
589.45	4826.18
589.61	4774.69
589.77	4835.55
589.93	4999.38
590.08	5259.18
590.24	5554.09
590.40	5486.22
590.56	5528.35
590.72	5572.82
590.88	5338.76
591.04	5425.36
591.20	5259.18
591.35	5341.10
591.51	5425.36
591.67	5416.00
591.83	5404.30
591.99	5338.76
592.15	5392.59
592.31	5621.97
592.46	5844.32
592.62	6010.50
592.78	6122.84
592.94	6106.46
593.10	6179.01
593.26	6043.26
593.41	6094.76
593.57	6017.52
593.73	5509.62
593.89	5476.85
594.05	5252.16
594.20	4936.19
594.36	5062.58
594.52	4697.46
594.68	5074.28
594.84	5160.88
594.99	5401.96
595.15	5364.51
595.31	5427.70
595.47	5490.90
595.62	5308.34
595.78	5336.42
595.94	5547.07
596.10	5582.18
596.25	5565.79
596.41	5455.79
596.57	5418.34
596.73	5408.98
596.88	5619.63
597.04	5540.05
597.20	5455.79
