SpectraSuite Data File
++++++++++++++++++++++++++++++++++++
Date: Fri Oct 04 11:44:13 GMT-05:00 2013
User: price-jones
Dark Spectrum Present: No
Reference Spectrum Present: No
Number of Sampled Component Spectra: 1
Spectrometers: USB2+H05261
Integration Time (usec): 100000 (USB2+H05261)
Spectra Averaged: 1 (USB2+H05261)
Boxcar Smoothing: 0 (USB2+H05261)
Correct for Electrical Dark: No (USB2+H05261)
Strobe/Lamp Enabled: No (USB2+H05261)
Correct for Detector Non-linearity: No (USB2+H05261)
Correct for Stray Light: No (USB2+H05261)
Number of Pixels in Processed Spectrum: 2048
>>>>>Begin Processed Spectral Data<<<<<
365.73	53.83
365.92	53.83
366.12	53.83
366.32	0.00
366.52	0.00
366.72	0.00
366.91	0.00
367.11	0.00
367.31	0.00
367.51	32.77
367.70	0.00
367.90	0.00
368.10	0.00
368.30	0.00
368.49	0.00
368.69	0.00
368.89	0.00
369.09	0.00
369.28	0.00
369.48	16.38
369.68	0.00
369.87	9.36
370.07	0.00
370.27	37.45
370.47	175.54
370.66	587.47
370.86	746.63
371.06	868.34
371.25	854.30
371.45	751.31
371.65	683.44
371.84	711.52
372.04	741.95
372.24	812.17
372.44	802.80
372.63	770.04
372.83	812.17
373.03	748.97
373.22	692.80
373.42	725.57
373.62	763.01
373.81	842.59
374.01	844.93
374.21	826.21
374.40	767.70
374.60	713.86
374.79	851.96
374.99	954.94
375.19	929.19
375.38	1046.22
375.58	936.21
375.78	1027.50
375.97	959.62
376.17	903.45
376.37	887.06
376.56	1050.90
376.76	1078.99
376.95	1074.31
377.15	1097.71
377.35	1165.59
377.54	1200.69
377.74	1282.61
377.93	1207.72
378.13	1214.74
378.33	1231.12
378.52	1125.80
378.72	1071.97
378.91	1064.94
379.11	997.07
379.31	952.60
379.50	936.21
379.70	1032.18
379.89	1074.31
380.09	1104.73
380.28	1240.48
380.48	1114.10
380.68	1247.51
380.87	1100.05
381.07	1055.58
381.26	1008.77
381.46	938.55
381.65	924.51
381.85	915.15
382.04	917.49
382.24	887.06
382.43	854.30
382.63	798.12
382.83	704.50
383.02	856.64
383.22	800.46
383.41	880.04
383.61	861.32
383.80	905.79
384.00	999.41
384.19	1151.54
384.39	1116.44
384.58	1256.87
384.78	1179.63
384.97	1181.97
385.17	1116.44
385.36	1097.71
385.56	1102.39
385.75	1032.18
385.95	1123.46
386.14	1266.23
386.34	1270.91
386.53	1121.12
386.72	1242.82
386.92	1196.01
387.11	1139.84
387.31	1224.10
387.50	1205.38
387.70	1235.80
387.89	1200.69
388.09	1102.39
388.28	1153.88
388.48	1193.67
388.67	1221.76
388.86	1437.09
389.06	1472.20
389.25	1523.69
389.45	1537.73
389.64	1511.99
389.84	1523.69
390.03	1537.73
390.22	1437.09
390.42	1516.67
390.61	1692.21
390.81	1753.06
391.00	1757.74
391.19	1689.87
391.39	1621.99
391.58	1640.72
391.78	1554.12
391.97	1504.96
392.16	1245.16
392.36	1289.64
392.55	1121.12
392.75	898.77
392.94	830.89
393.13	779.40
393.33	812.17
393.52	1097.71
393.71	1240.48
393.91	1301.34
394.10	1383.26
394.29	1549.43
394.49	1542.41
394.68	1732.00
394.88	1867.75
395.07	1975.41
395.26	1856.04
395.46	1860.73
395.65	1781.15
395.84	1593.90
396.04	1385.60
396.23	1198.35
396.42	887.06
396.62	933.87
396.81	1116.44
397.00	1324.74
397.19	1563.48
397.39	1825.62
397.58	1996.48
397.77	2073.71
397.97	2181.38
398.16	2113.50
398.35	2359.26
398.55	2413.09
398.74	2457.56
398.93	2443.52
399.12	2389.69
399.32	2443.52
399.51	2429.48
399.70	2450.54
399.90	2534.80
400.09	2509.05
400.28	2502.03
400.47	2569.91
400.67	2609.70
400.86	2750.13
401.05	2752.47
401.24	2736.09
401.44	2801.62
401.63	2703.32
401.82	2743.11
402.01	2855.45
402.21	2855.45
402.40	2911.63
402.59	2710.34
402.78	2576.93
402.97	2466.92
403.17	2626.08
403.36	2850.77
403.55	2876.52
403.74	2878.86
403.93	2862.48
404.13	2759.49
404.32	2724.38
404.51	2761.83
404.70	2965.46
404.89	2867.16
405.09	2820.35
405.28	2750.13
405.47	2572.25
405.66	2663.53
405.85	2567.57
406.05	2567.57
406.24	2574.59
406.43	2658.85
406.62	2864.82
406.81	2874.18
407.00	2794.60
407.20	2712.68
407.39	2796.94
407.58	2888.22
407.77	2944.39
407.96	3059.08
408.15	3056.74
408.34	3070.78
408.54	3332.92
408.73	3152.70
408.92	3002.91
409.11	3105.89
409.30	2939.71
409.49	2773.53
409.68	2600.34
409.87	2523.10
410.07	2551.18
410.26	2829.71
410.45	2930.35
410.64	3110.57
410.83	3152.70
411.02	3206.53
411.21	3461.65
411.40	3314.20
411.59	3438.25
411.78	3302.50
411.98	3213.56
412.17	3410.16
412.36	3187.81
412.55	3229.94
412.74	3248.66
412.93	3112.91
413.12	3070.78
413.31	3396.12
413.50	3449.95
413.69	3410.16
413.88	3431.23
414.07	3246.32
414.26	3192.49
414.45	3438.25
414.64	3475.70
414.83	3424.20
415.02	3459.31
415.22	3471.01
415.41	3463.99
415.60	3555.27
415.79	3726.13
415.98	3875.93
416.17	3786.99
416.36	3684.00
416.55	3590.38
416.74	3627.83
416.93	3506.12
417.12	3501.44
417.31	3389.10
417.50	3304.84
417.69	3641.87
417.88	3639.53
418.07	3700.39
418.26	3494.42
418.45	3590.38
418.64	3726.13
418.83	3648.90
419.02	3784.65
419.21	3702.73
419.39	3499.10
419.58	3449.95
419.77	3403.14
419.96	3538.89
420.15	3775.28
420.34	3915.72
420.53	4011.68
420.72	4053.81
420.91	4086.58
421.10	3908.69
421.29	4037.42
421.48	3929.76
421.67	3992.95
421.86	3985.93
422.05	3740.18
422.24	3346.97
422.43	3274.41
422.61	3529.53
422.80	3796.35
422.99	3829.12
423.18	3688.68
423.37	3887.63
423.56	3517.83
423.75	3557.61
423.94	3716.77
424.13	3478.04
424.32	3611.45
424.50	3779.97
424.69	3735.50
424.88	3492.08
425.07	3613.79
425.26	3571.66
425.45	3473.36
425.64	3520.17
425.83	3405.48
426.01	3630.17
426.20	3737.84
426.39	3719.11
426.58	3545.91
426.77	3307.18
426.96	3164.40
427.15	3272.07
427.33	3428.88
427.52	3581.02
427.71	3463.99
427.90	3583.36
428.09	3585.70
428.28	3494.42
428.46	3463.99
428.65	3349.31
428.84	3328.24
429.03	3440.59
429.22	3316.54
429.40	3030.99
429.59	2775.88
429.78	2663.53
429.97	2565.23
430.16	2637.78
430.34	2605.02
430.53	2677.57
430.72	2700.98
430.91	2883.54
431.10	3241.64
431.28	3744.86
431.47	4191.90
431.66	4266.80
431.85	3932.10
432.03	3719.11
432.22	3590.38
432.41	3623.15
432.60	3899.33
432.79	4173.18
432.97	4126.36
433.16	4072.53
433.35	3836.14
433.54	3545.91
433.72	3112.91
433.91	3346.97
434.10	3599.74
434.28	3908.69
434.47	3992.95
434.66	4077.21
434.85	3946.14
435.03	4053.81
435.22	4440.00
435.41	5167.90
435.59	5481.53
435.78	5158.54
435.97	4861.29
436.16	4688.09
436.34	4437.66
436.53	4212.96
436.72	4365.10
436.90	4142.75
437.09	4021.04
437.28	3981.25
437.46	4280.84
437.65	4166.15
437.84	3857.20
438.02	3517.83
438.21	3513.14
438.40	3651.24
438.58	3978.91
438.77	4007.00
438.96	4119.34
439.14	4217.65
439.33	4339.35
439.52	4432.97
439.70	4404.89
439.89	4315.95
440.08	4215.30
440.26	4196.58
440.45	4156.79
440.63	4440.00
440.82	4732.56
441.01	4697.46
441.19	4683.41
441.38	4627.24
441.57	4837.89
441.75	4980.66
441.94	5142.16
442.12	4971.30
442.31	4896.40
442.50	4784.06
442.68	4884.70
442.87	4861.29
443.05	4847.25
443.24	4660.01
443.43	5064.92
443.61	5048.54
443.80	5163.22
443.98	4994.70
444.17	4699.80
444.35	5004.07
444.54	5200.67
444.73	5114.07
444.91	4894.06
445.10	4723.20
445.28	4652.98
445.47	4517.23
445.65	4390.84
445.84	4510.21
446.02	4739.58
446.21	4751.29
446.39	4912.78
446.58	4992.36
446.77	4940.87
446.95	5046.20
447.14	5214.71
447.32	5242.80
447.51	5170.24
447.69	5043.85
447.88	4870.65
448.06	4980.66
448.25	4968.96
448.43	5025.13
448.62	5095.35
448.80	5008.75
448.99	4861.29
449.17	5060.24
449.36	5076.62
449.54	5233.44
449.73	5336.42
449.91	5376.21
450.10	5589.20
450.28	5696.86
450.46	5671.12
450.65	5614.95
450.83	5448.77
451.02	5359.83
451.20	5455.79
451.39	5392.59
451.57	5366.85
451.76	5303.65
451.94	5437.06
452.13	5317.70
452.31	5081.30
452.49	4706.82
452.68	4894.06
452.86	4770.01
453.05	4950.23
453.23	5083.64
453.42	5029.81
453.60	5144.50
453.78	5263.86
453.97	5254.50
454.15	5109.39
454.34	5116.41
454.52	5167.90
454.70	5153.86
454.89	5001.72
455.07	5064.92
455.26	5142.16
455.44	5280.25
455.62	5516.64
455.81	5441.75
455.99	5579.84
456.17	5462.81
456.36	5446.43
456.54	5439.40
456.73	5488.56
456.91	5682.82
457.09	5731.97
457.28	5813.89
457.46	5621.97
457.64	5497.92
457.83	5376.21
458.01	5200.67
458.19	5315.36
458.38	5387.91
458.56	5411.32
458.74	5547.07
458.93	5439.40
459.11	5446.43
459.29	5441.75
459.48	5518.98
459.66	5406.64
459.84	5558.77
460.03	5565.79
460.21	5535.37
460.39	5729.63
460.57	5659.42
460.76	5680.48
460.94	5799.85
461.12	5738.99
461.31	5530.69
461.49	5621.97
461.67	5729.63
461.85	5858.36
462.04	5720.27
462.22	6333.49
462.40	5727.29
462.59	5692.18
462.77	5778.78
462.95	5689.84
463.13	5645.37
463.32	5748.36
463.50	5650.05
463.68	5706.23
463.86	5743.67
464.05	5598.56
464.23	5542.39
464.41	5406.64
464.59	5195.99
464.78	5556.43
464.96	5561.11
465.14	5628.99
465.32	5540.05
465.50	5884.11
465.69	5769.42
465.87	5806.87
466.05	5612.60
466.23	5177.26
466.41	5266.21
466.60	5294.29
466.78	5378.55
466.96	5406.64
467.14	5504.94
467.32	5792.83
467.51	5472.17
467.69	5481.53
467.87	5362.17
468.05	5547.07
468.23	5612.60
468.41	5523.66
468.60	5738.99
468.78	5675.80
468.96	5584.52
469.14	5607.92
469.32	5750.70
469.50	5380.89
469.69	5404.30
469.87	5455.79
470.05	5301.31
470.23	5455.79
470.41	5315.36
470.59	5516.64
470.77	5561.11
470.95	5659.42
471.14	5696.86
471.32	5664.10
471.50	6012.84
471.68	6038.58
471.86	5916.87
472.04	6012.84
472.22	6045.60
472.40	5769.42
472.58	5717.93
472.77	5579.84
472.95	5888.79
473.13	6024.54
473.31	5727.29
473.49	5783.46
473.67	5837.30
473.85	5905.17
474.03	6008.16
474.21	6127.52
474.39	6167.31
474.57	6195.40
474.75	6066.67
474.93	6078.37
475.12	5996.45
475.30	6010.50
475.48	6001.13
475.66	6157.95
475.84	6113.48
476.02	6146.25
476.20	5914.53
476.38	5935.60
476.56	6244.55
476.74	6099.44
476.92	6289.02
477.10	6296.04
477.28	6612.01
477.46	6511.37
477.64	6670.53
477.82	6560.52
478.00	6600.31
478.18	6602.65
478.36	6644.78
478.54	6612.01
478.72	6649.46
478.90	6715.00
479.08	6970.12
479.26	7206.51
479.44	7098.84
479.62	6839.05
479.80	6998.20
479.98	7178.42
480.16	7286.09
480.34	7101.19
480.52	7279.07
480.70	7192.47
480.88	7208.85
481.06	7363.33
481.24	7389.07
481.41	7492.05
481.59	7501.42
481.77	7756.54
481.95	7370.35
482.13	7513.12
482.31	7581.00
482.49	7428.86
482.67	7391.41
482.85	7686.32
483.03	7691.00
483.21	7918.03
483.39	7592.70
483.57	7550.57
483.74	7557.59
483.92	7660.57
484.10	7712.07
484.28	8058.46
484.46	7925.05
484.64	7920.37
484.82	7864.20
485.00	7822.07
485.18	7564.61
485.35	7578.65
485.53	6920.96
485.71	6523.07
485.89	6207.10
486.07	6450.52
486.25	6935.01
486.43	7417.16
486.61	7590.36
486.78	7716.75
486.96	7463.97
487.14	7908.67
487.32	8180.17
487.50	8297.20
487.68	8489.12
487.85	8645.94
488.03	8748.92
488.21	8854.25
488.39	8435.29
488.57	8248.05
488.75	8088.89
488.92	8549.98
489.10	8954.89
489.28	9467.47
489.46	9308.31
489.64	9418.32
489.81	9392.57
489.99	9476.83
490.17	9376.19
490.35	9540.02
490.53	9434.70
490.70	9357.46
490.88	9469.81
491.06	9481.51
491.24	9458.10
491.41	9029.79
491.59	8585.08
491.77	8772.33
491.95	8774.67
492.13	8992.34
492.30	9348.10
492.48	9795.14
492.66	9933.23
492.84	9818.55
493.01	9785.78
493.19	9947.28
493.37	9797.48
493.54	9640.67
493.72	9657.05
493.90	9914.51
494.08	10221.12
494.25	10406.02
494.43	10448.15
494.61	10527.73
494.79	10541.77
494.96	10499.64
495.14	10450.49
495.32	9827.91
495.49	9694.50
495.67	10106.43
495.85	10384.96
496.02	10539.43
496.20	10586.24
496.38	10572.20
496.55	10424.75
496.73	10738.38
496.91	10754.76
497.09	10775.83
497.26	10944.34
497.44	10703.27
497.62	10459.85
497.79	10574.54
497.97	9940.26
498.14	9996.43
498.32	10516.03
498.50	10661.14
498.67	10733.70
498.85	10918.60
499.03	10988.82
499.20	10785.19
499.38	11154.99
499.56	11033.29
499.73	10789.87
499.91	10626.03
500.08	10621.35
500.26	10143.88
500.44	10258.57
500.61	10572.20
500.79	10427.09
500.97	10209.42
501.14	10010.47
501.32	10064.30
501.49	9916.85
501.67	10232.82
501.84	10253.89
502.02	10396.66
502.20	10588.58
502.37	10539.43
502.55	10574.54
502.72	10712.63
502.90	10792.21
503.07	10703.27
503.25	10200.05
503.43	9973.02
503.60	9837.27
503.78	9582.15
503.95	9638.33
504.13	10153.24
504.30	10820.30
504.48	10693.91
504.65	10565.18
504.83	10848.38
505.01	11082.44
505.18	11068.39
505.36	10904.56
505.53	10867.11
505.71	11047.33
505.88	11412.45
506.06	11152.65
506.23	11037.97
506.41	10857.75
506.58	10862.43
506.76	10895.19
506.93	11005.20
507.11	10801.57
507.28	11016.90
507.46	10611.99
507.63	10319.42
507.81	10504.32
507.98	10298.36
508.16	10895.19
508.33	10881.15
508.50	11115.20
508.68	11346.92
508.85	11595.01
509.03	11456.92
509.20	11648.85
509.38	11176.06
509.55	10951.37
509.73	11068.39
509.90	11201.80
510.08	11091.80
510.25	11288.40
510.42	11239.25
510.60	11117.54
510.77	11192.44
510.95	11463.94
511.12	11454.58
511.30	11602.04
511.47	12025.67
511.64	12135.68
511.82	11854.81
511.99	11335.21
512.17	11206.48
512.34	11162.01
512.51	10972.43
512.69	11133.93
512.86	11243.93
513.04	11414.79
513.21	11494.37
513.38	11318.83
513.56	11070.73
513.73	11040.31
513.90	10829.66
514.08	10846.04
514.25	11117.54
514.43	11267.34
514.60	11133.93
514.77	11176.06
514.95	11342.24
515.12	11229.89
515.29	11171.38
515.47	11328.19
515.64	11585.65
515.81	11604.38
515.99	11372.66
516.16	10740.72
516.33	9877.06
516.51	9444.06
516.68	9212.35
516.85	9034.47
517.03	9062.55
517.20	9856.00
517.37	10736.04
517.54	11398.41
517.72	11147.97
517.89	10438.79
518.06	9750.67
518.24	9399.59
518.41	10193.03
518.58	10572.20
518.75	10768.80
518.93	11110.52
519.10	10820.30
519.27	10892.85
519.45	11026.26
519.62	11342.24
519.79	11445.22
519.96	11700.34
520.14	11400.75
520.31	10970.09
520.48	10883.49
520.65	11082.44
520.83	11494.37
521.00	11721.40
521.17	11318.83
521.34	11311.81
521.52	11328.19
521.69	11906.31
521.86	12025.67
522.03	11730.76
522.20	11536.50
522.38	11016.90
522.55	10876.47
522.72	11098.82
522.89	11049.67
523.07	11094.14
523.24	11452.24
523.41	11630.12
523.58	11433.52
523.75	12081.85
523.92	11957.80
524.10	11866.52
524.27	11796.30
524.44	11920.35
524.61	11899.28
524.78	11688.64
524.96	11779.92
525.13	11564.59
525.30	11726.08
525.47	12013.97
525.64	11999.93
525.81	11793.96
525.98	11276.70
526.16	10555.82
526.33	10260.91
526.50	9907.49
526.67	9907.49
526.84	9973.02
527.01	10436.45
527.18	10834.34
527.36	11234.57
527.53	11639.48
527.70	11695.66
527.87	11648.85
528.04	11220.53
528.21	11367.98
528.38	11950.78
528.55	12264.41
528.72	12336.96
528.89	12313.56
529.07	12170.79
529.24	12138.02
529.41	11747.15
529.58	11265.00
529.75	11321.17
529.92	11681.61
530.09	11646.51
530.26	12072.48
530.43	12065.46
530.60	11978.86
530.77	12046.74
530.94	12039.72
531.11	11950.78
531.28	11847.79
531.46	11719.06
531.63	11784.60
531.80	11667.57
531.97	11639.48
532.14	11215.85
532.31	10934.98
532.48	10628.37
532.65	10817.96
532.82	10768.80
532.99	11466.28
533.16	11602.04
533.33	11702.68
533.50	11669.91
533.67	11318.83
533.84	11260.32
534.01	11522.46
534.18	11517.78
534.35	11623.10
534.52	11307.13
534.69	11632.46
534.86	11587.99
535.03	11899.28
535.20	12018.65
535.37	12187.17
535.54	12365.05
535.71	12131.00
535.88	12236.32
536.05	12025.67
536.22	11651.19
536.38	11538.84
536.55	11192.44
536.72	11162.01
536.89	10984.13
537.06	11239.25
537.23	11700.34
537.40	11929.71
537.57	11765.87
537.74	11873.54
537.91	11784.60
538.08	11700.34
538.25	11864.18
538.42	11805.66
538.59	11531.82
538.75	11557.57
538.92	11349.26
539.09	11433.52
539.26	11382.03
539.43	11220.53
539.60	11185.42
539.77	11389.05
539.94	11370.32
540.11	11227.55
540.28	10754.76
540.44	10977.11
540.61	11005.20
540.78	11288.40
540.95	11353.94
541.12	11805.66
541.29	12072.48
541.46	12100.57
541.62	12161.42
541.79	12182.49
541.96	11763.53
542.13	12077.16
542.30	11817.36
542.47	12121.63
542.63	11981.20
542.80	11695.66
542.97	11712.04
543.14	11548.20
543.31	11573.95
543.48	11721.40
543.64	12388.46
543.81	12416.54
543.98	12271.43
544.15	12009.29
544.32	11910.99
544.48	11698.00
544.65	11901.62
544.82	12180.15
544.99	11962.48
545.16	12107.59
545.32	11784.60
545.49	12564.00
545.66	13626.60
545.83	14228.12
546.00	13804.48
546.16	12727.83
546.33	12156.74
546.50	11831.41
546.67	11840.77
546.83	11658.21
547.00	11789.28
547.17	11431.18
547.34	11382.03
547.50	11150.31
547.67	11407.77
547.84	11419.47
548.00	11370.32
548.17	11667.57
548.34	11494.37
548.51	11653.53
548.67	11456.92
548.84	11786.94
549.01	11496.71
549.18	11634.80
549.34	11690.98
549.51	11630.12
549.68	11440.54
549.84	11147.97
550.01	11110.52
550.18	11288.40
550.34	11262.66
550.51	11428.84
550.68	11316.49
550.84	11136.27
551.01	11080.10
551.18	10944.34
551.34	11276.70
551.51	11417.13
551.68	11707.36
551.84	11485.01
552.01	11157.33
552.18	11253.30
552.34	11255.64
552.51	10745.40
552.68	10888.17
552.84	10768.80
553.01	11159.67
553.18	11152.65
553.34	11066.05
553.51	10986.47
553.67	11344.58
553.84	11272.02
554.01	11140.95
554.17	11339.90
554.34	11019.24
554.51	11222.87
554.67	11260.32
554.84	11269.68
555.00	11166.70
555.17	10824.98
555.33	10993.50
555.50	10675.18
555.67	10775.83
555.83	10824.98
556.00	10757.10
556.16	10895.19
556.33	10621.35
556.50	10579.22
556.66	10731.36
556.83	10361.55
556.99	10354.53
557.16	10333.47
557.32	10555.82
557.49	10827.32
557.65	10691.57
557.82	10516.03
557.98	10750.08
558.15	10647.10
558.32	10178.99
558.48	10162.61
558.65	9867.70
558.81	10078.35
558.98	10333.47
559.14	10319.42
559.31	10331.12
559.47	10471.56
559.64	10181.33
559.80	10193.03
559.97	10281.97
560.13	10214.10
560.30	10649.44
560.46	10614.33
560.63	10757.10
560.79	10878.81
560.96	10626.03
561.12	10401.34
561.29	10040.90
561.45	10085.37
561.61	10331.12
561.78	10370.91
561.94	9987.07
562.11	10195.37
562.27	10253.89
562.44	10024.51
562.60	10417.72
562.77	10576.88
562.93	10525.39
563.10	10410.70
563.26	10511.35
563.42	10209.42
563.59	10183.67
563.75	10160.27
563.92	10225.80
564.08	10272.61
564.24	10415.38
564.41	10485.60
564.57	10366.23
564.74	10244.52
564.90	10068.98
565.07	10178.99
565.23	9977.70
565.39	9851.31
565.56	9848.97
565.72	9675.77
565.88	9685.14
566.05	9689.82
566.21	9851.31
566.38	9767.06
566.54	9921.53
566.70	10001.11
566.87	10363.89
567.03	10104.09
567.19	10176.65
567.36	10092.39
567.52	9776.42
567.68	9797.48
567.85	9549.39
568.01	9462.79
568.17	9226.39
568.34	9249.80
568.50	9097.66
568.66	8990.00
568.83	9390.23
568.99	9329.38
569.15	9558.75
569.32	9277.88
569.48	9219.37
569.64	9149.15
569.81	9266.18
569.97	9158.52
570.13	9420.66
570.30	9177.24
570.46	9128.09
570.62	8624.87
570.78	8746.58
570.95	8884.67
571.11	9109.36
571.27	9320.01
571.43	9104.68
571.60	9350.44
571.76	9308.31
571.92	9308.31
572.09	9373.85
572.25	9418.32
572.41	9338.74
572.57	9453.42
572.74	9308.31
572.90	9149.15
573.06	9369.16
573.22	9181.92
573.38	9392.57
573.55	9301.29
573.71	9460.45
573.87	9210.01
574.03	9338.74
574.20	9137.45
574.36	9095.32
574.52	8966.59
574.68	8879.99
574.84	9027.45
575.01	8858.93
575.17	9015.74
575.33	8858.93
575.49	9020.42
575.65	9334.06
575.82	8891.70
575.98	8746.58
576.14	8917.44
576.30	9057.87
576.46	9523.64
576.62	9427.68
576.79	9603.22
576.95	9401.93
577.11	9090.64
577.27	9352.78
577.43	9221.71
577.59	8929.14
577.75	8912.76
577.92	8762.97
578.08	8652.96
578.24	8397.84
578.40	8809.78
578.56	8990.00
578.72	9312.99
578.88	9238.09
579.04	9214.69
579.21	9310.65
579.37	9280.22
579.53	8959.57
579.69	9146.81
579.85	9092.98
580.01	9165.54
580.17	9062.55
580.33	9001.70
580.49	9111.71
580.65	8929.14
580.82	9132.77
580.98	9163.20
581.14	8990.00
581.30	9109.36
581.46	9114.05
581.62	9310.65
581.78	9076.60
581.94	9238.09
582.10	9202.99
582.26	9242.78
582.42	9266.18
582.58	9446.40
582.74	9322.35
582.90	9488.53
583.06	9252.14
583.22	9160.86
583.38	9114.05
583.54	9184.26
583.70	9320.01
583.86	9317.67
584.02	9107.02
584.18	9336.40
584.34	9193.62
584.50	9170.22
584.66	9100.00
584.82	8910.42
584.98	9055.53
585.14	8926.80
585.30	8655.30
585.46	8524.23
585.62	8549.98
585.78	8706.79
585.94	8589.77
586.10	8643.60
586.26	8674.03
586.42	8821.48
586.58	8884.67
586.74	8685.73
586.90	8762.97
587.06	8716.16
587.22	8650.62
587.38	8528.91
587.54	8524.23
587.70	8189.53
587.86	7859.52
588.02	7831.43
588.18	7522.48
588.34	7337.58
588.49	6799.26
588.65	6420.09
588.81	6157.95
588.97	6181.35
589.13	6282.00
589.29	6221.14
589.45	6197.74
589.61	6338.17
589.77	6616.69
589.93	6986.50
590.08	7140.97
590.24	7246.30
590.40	7456.95
590.56	7349.28
590.72	7272.04
590.88	7246.30
591.04	7335.24
591.20	7300.13
591.35	7145.66
591.51	7222.89
591.67	7197.15
591.83	7087.14
591.99	7016.93
592.15	7145.66
592.31	7360.98
592.46	7681.64
592.62	7573.97
592.78	7698.02
