SpectraSuite Data File
++++++++++++++++++++++++++++++++++++
Date: Fri Oct 04 11:44:22 GMT-05:00 2013
User: price-jones
Dark Spectrum Present: No
Reference Spectrum Present: No
Number of Sampled Component Spectra: 1
Spectrometers: USB2+H05261
Integration Time (usec): 100000 (USB2+H05261)
Spectra Averaged: 1 (USB2+H05261)
Boxcar Smoothing: 0 (USB2+H05261)
Correct for Electrical Dark: No (USB2+H05261)
Strobe/Lamp Enabled: No (USB2+H05261)
Correct for Detector Non-linearity: No (USB2+H05261)
Correct for Stray Light: No (USB2+H05261)
Number of Pixels in Processed Spectrum: 2048
>>>>>Begin Processed Spectral Data<<<<<
365.73	4.68
365.92	4.68
366.12	4.68
366.32	0.00
366.52	0.00
366.72	0.00
366.91	0.00
367.11	0.00
367.31	0.00
367.51	0.00
367.70	0.00
367.90	0.00
368.10	0.00
368.30	0.00
368.49	0.00
368.69	0.00
368.89	0.00
369.09	0.00
369.28	18.72
369.48	0.00
369.68	0.00
369.87	35.11
370.07	0.00
370.27	0.00
370.47	51.49
370.66	250.44
370.86	360.44
371.06	339.38
371.25	461.09
371.45	294.91
371.65	313.63
371.84	297.25
372.04	266.82
372.24	325.33
372.44	435.34
372.63	404.91
372.83	339.38
373.03	337.04
373.22	358.10
373.42	315.97
373.62	463.43
373.81	360.44
374.01	428.32
374.21	397.89
374.40	388.53
374.60	372.15
374.79	383.85
374.99	475.13
375.19	433.00
375.38	472.79
375.58	500.87
375.78	430.66
375.97	489.17
376.17	550.03
376.37	498.53
376.56	461.09
376.76	477.47
376.95	486.83
377.15	538.32
377.35	580.45
377.54	559.39
377.74	592.16
377.93	486.83
378.13	575.77
378.33	589.82
378.52	505.56
378.72	472.79
378.91	486.83
379.11	514.92
379.31	430.66
379.50	435.34
379.70	519.60
379.89	592.16
380.09	554.71
380.28	589.82
380.48	521.94
380.68	589.82
380.87	535.98
381.07	554.71
381.26	479.81
381.46	503.22
381.65	447.04
381.85	393.21
382.04	360.44
382.24	372.15
382.43	409.59
382.63	318.31
382.83	362.78
383.02	365.12
383.22	395.55
383.41	386.19
383.61	444.70
383.80	507.90
384.00	514.92
384.19	596.84
384.39	596.84
384.58	519.60
384.78	585.13
384.97	629.60
385.17	535.98
385.36	559.39
385.56	543.00
385.75	465.77
385.95	552.37
386.14	641.31
386.34	587.47
386.53	573.43
386.72	594.50
386.92	627.26
387.11	557.05
387.31	575.77
387.50	512.58
387.70	554.71
387.89	543.00
388.09	500.87
388.28	461.09
388.48	594.50
388.67	580.45
388.86	638.97
389.06	695.14
389.25	624.92
389.45	697.48
389.64	713.86
389.84	716.20
390.03	718.54
390.22	631.94
390.42	795.78
390.61	763.01
390.81	772.38
391.00	795.78
391.19	814.51
391.39	681.10
391.58	737.27
391.78	702.16
391.97	730.25
392.16	573.43
392.36	627.26
392.55	505.56
392.75	374.49
392.94	290.23
393.13	386.19
393.33	428.32
393.52	458.74
393.71	575.77
393.91	695.14
394.10	720.88
394.29	655.35
394.49	856.64
394.68	884.72
394.88	812.17
395.07	884.72
395.26	835.57
395.46	851.96
395.65	730.25
395.84	653.01
396.04	664.71
396.23	435.34
396.42	404.91
396.62	451.72
396.81	568.75
397.00	564.07
397.19	662.37
397.39	791.10
397.58	931.53
397.77	994.73
397.97	943.24
398.16	1043.88
398.35	1048.56
398.55	1006.43
398.74	1123.46
398.93	1123.46
399.12	1076.65
399.32	1111.75
399.51	1090.69
399.70	1158.57
399.90	1128.14
400.09	1188.99
400.28	1200.69
400.47	1104.73
400.67	1287.29
400.86	1231.12
401.05	1289.64
401.24	1163.25
401.44	1289.64
401.63	1212.40
401.82	1320.06
402.01	1153.88
402.21	1296.66
402.40	1341.13
402.59	1266.23
402.78	1228.78
402.97	1191.33
403.17	1167.93
403.36	1226.44
403.55	1235.80
403.74	1266.23
403.93	1282.61
404.13	1345.81
404.32	1256.87
404.51	1282.61
404.70	1308.36
404.89	1259.21
405.09	1291.98
405.28	1301.34
405.47	1196.01
405.66	1210.06
405.85	1158.57
406.05	1146.86
406.24	1181.97
406.43	1249.85
406.62	1224.10
406.81	1256.87
407.00	1235.80
407.20	1233.46
407.39	1104.73
407.58	1282.61
407.77	1390.28
407.96	1306.02
408.15	1308.36
408.34	1369.21
408.54	1432.41
408.73	1320.06
408.92	1366.87
409.11	1350.49
409.30	1334.11
409.49	1196.01
409.68	1097.71
409.87	1118.78
410.07	1153.88
410.26	1401.98
410.45	1357.51
410.64	1336.45
410.83	1441.77
411.02	1427.73
411.21	1540.07
411.40	1444.11
411.59	1416.02
411.78	1472.20
411.98	1392.62
412.17	1509.65
412.36	1427.73
412.55	1526.03
412.74	1441.77
412.93	1465.18
413.12	1359.85
413.31	1593.90
413.50	1556.46
413.69	1558.80
413.88	1582.20
414.07	1441.77
414.26	1577.52
414.45	1469.86
414.64	1472.20
414.83	1446.45
415.02	1589.22
415.22	1521.35
415.41	1523.69
415.60	1551.78
415.79	1540.07
415.98	1755.40
416.17	1633.69
416.36	1652.42
416.55	1549.43
416.74	1570.50
416.93	1504.96
417.12	1537.73
417.31	1570.50
417.50	1591.56
417.69	1579.86
417.88	1586.88
418.07	1486.24
418.26	1542.41
418.45	1647.74
418.64	1636.03
418.83	1675.82
419.02	1619.65
419.21	1682.85
419.39	1561.14
419.58	1547.09
419.77	1486.24
419.96	1551.78
420.15	1713.27
420.34	1734.34
420.53	1788.17
420.72	1811.57
420.91	1799.87
421.10	1785.83
421.29	1797.53
421.48	1774.13
421.67	1839.66
421.86	1722.63
422.05	1640.72
422.24	1425.39
422.43	1507.30
422.61	1551.78
422.80	1671.14
422.99	1680.50
423.18	1638.38
423.37	1694.55
423.56	1706.25
423.75	1600.93
423.94	1661.78
424.13	1582.20
424.32	1488.58
424.50	1706.25
424.69	1551.78
424.88	1605.61
425.07	1624.33
425.26	1666.46
425.45	1570.50
425.64	1497.94
425.83	1502.62
426.01	1675.82
426.20	1640.72
426.39	1647.74
426.58	1650.08
426.77	1392.62
426.96	1479.22
427.15	1451.13
427.33	1584.54
427.52	1549.43
427.71	1673.48
427.90	1598.59
428.09	1593.90
428.28	1483.90
428.46	1455.81
428.65	1439.43
428.84	1516.67
429.03	1563.48
429.22	1523.69
429.40	1451.13
429.59	1282.61
429.78	1137.50
429.97	1191.33
430.16	1139.84
430.34	1240.48
430.53	1207.72
430.72	1186.65
430.91	1226.44
431.10	1444.11
431.28	1689.87
431.47	1893.49
431.66	1870.09
431.85	1746.04
432.03	1626.67
432.22	1612.63
432.41	1540.07
432.60	1762.42
432.79	1818.60
432.97	1804.55
433.16	1870.09
433.35	1682.85
433.54	1423.05
433.72	1455.81
433.91	1509.65
434.10	1593.90
434.28	1701.57
434.47	1729.66
434.66	1853.70
434.85	1753.06
435.03	1844.34
435.22	2050.31
435.41	2469.27
435.59	2497.35
435.78	2303.09
435.97	2169.68
436.16	2036.27
436.34	1966.05
436.53	1956.69
436.72	1919.24
436.90	1816.26
437.09	1849.02
437.28	1844.34
437.46	1830.30
437.65	1753.06
437.84	1626.67
438.02	1682.85
438.21	1607.95
438.40	1633.69
438.58	1612.63
438.77	1739.02
438.96	1830.30
439.14	1881.79
439.33	1966.05
439.52	2024.56
439.70	1959.03
439.89	1905.20
440.08	1844.34
440.26	1879.45
440.45	1888.81
440.63	2064.35
440.82	2085.42
441.01	2003.50
441.19	2001.16
441.38	2101.80
441.57	2139.25
441.75	2169.68
441.94	2256.28
442.12	2167.34
442.31	2195.42
442.50	2202.44
442.68	2183.72
442.87	2207.13
443.05	2052.65
443.24	2099.46
443.43	2176.70
443.61	2270.32
443.80	2275.00
443.98	2083.08
444.17	2197.76
444.35	2197.76
444.54	2296.07
444.73	2291.38
444.91	2279.68
445.10	2228.19
445.28	2033.93
445.47	2001.16
445.65	1907.54
445.84	2047.97
446.02	2188.40
446.21	2129.89
446.39	2120.53
446.58	2200.10
446.77	2232.87
446.95	2265.64
447.14	2230.53
447.32	2356.92
447.51	2342.88
447.69	2239.89
447.88	2153.29
448.06	2174.36
448.25	2244.57
448.43	2207.13
448.62	2155.63
448.80	2179.04
448.99	2211.81
449.17	2174.36
449.36	2118.18
449.54	2256.28
449.73	2291.38
449.91	2380.32
450.10	2317.13
450.28	2499.69
450.46	2509.05
450.65	2361.60
450.83	2333.51
451.02	2396.71
451.20	2368.62
451.39	2382.67
451.57	2347.56
451.76	2352.24
451.94	2356.92
452.13	2321.81
452.31	2179.04
452.49	2162.66
452.68	2064.35
452.86	2008.18
453.05	2228.19
453.23	2155.63
453.42	2249.25
453.60	2345.22
453.78	2349.90
453.97	2359.26
454.15	2324.15
454.34	2310.11
454.52	2108.82
454.70	2209.47
454.89	2249.25
455.07	2246.91
455.26	2347.56
455.44	2424.80
455.62	2277.34
455.81	2450.54
455.99	2450.54
456.17	2408.41
456.36	2352.24
456.54	2403.73
456.73	2368.62
456.91	2408.41
457.09	2537.14
457.28	2537.14
457.46	2413.09
457.64	2452.88
457.83	2342.88
458.01	2373.30
458.19	2286.70
458.38	2516.08
458.56	2455.22
458.74	2427.14
458.93	2392.03
459.11	2375.64
459.29	2319.47
459.48	2406.07
459.66	2396.71
459.84	2424.80
460.03	2394.37
460.21	2368.62
460.39	2399.05
460.57	2429.48
460.76	2469.27
460.94	2586.29
461.12	2562.89
461.31	2583.95
461.49	2492.67
461.67	2532.46
461.85	2647.15
462.04	2462.24
462.22	3068.44
462.40	2623.74
462.59	2448.20
462.77	2471.61
462.95	2462.24
463.13	2434.16
463.32	2408.41
463.50	2436.50
463.68	2473.95
463.86	2436.50
464.05	2509.05
464.23	2523.10
464.41	2354.58
464.59	2406.07
464.78	2457.56
464.96	2502.03
465.14	2335.85
465.32	2490.33
465.50	2495.01
465.69	2593.31
465.87	2534.80
466.05	2406.07
466.23	2368.62
466.41	2333.51
466.60	2347.56
466.78	2345.22
466.96	2415.43
467.14	2450.54
467.32	2480.97
467.51	2502.03
467.69	2338.20
467.87	2399.05
468.05	2317.13
468.23	2427.14
468.41	2483.31
468.60	2471.61
468.78	2506.71
468.96	2354.58
469.14	2583.95
469.32	2370.96
469.50	2361.60
469.69	2408.41
469.87	2380.32
470.05	2363.94
470.23	2361.60
470.41	2319.47
470.59	2492.67
470.77	2403.73
470.95	2342.88
471.14	2537.14
471.32	2473.95
471.50	2642.46
471.68	2546.50
471.86	2700.98
472.04	2565.23
472.22	2698.64
472.40	2471.61
472.58	2480.97
472.77	2457.56
472.95	2448.20
473.13	2565.23
473.31	2574.59
473.49	2607.36
473.67	2619.06
473.85	2663.53
474.03	2698.64
474.21	2665.87
474.39	2649.49
474.57	2670.55
474.75	2689.28
474.93	2642.46
475.12	2605.02
475.30	2633.10
475.48	2661.19
475.66	2726.72
475.84	2511.39
476.02	2619.06
476.20	2761.83
476.38	2588.63
476.56	2708.00
476.74	2747.79
476.92	2651.83
477.10	2754.81
477.28	2920.99
477.46	2832.05
477.64	2904.60
477.82	2871.84
478.00	2869.50
478.18	2911.63
478.36	3009.93
478.54	2839.07
478.72	2829.71
478.90	3038.02
479.08	3021.63
479.26	2925.67
479.44	3112.91
479.62	3026.31
479.80	2993.55
479.98	3126.96
480.16	3070.78
480.34	3098.87
480.52	2965.46
480.70	3152.70
480.88	3110.57
481.06	3166.74
481.24	3171.43
481.41	3131.64
481.59	3311.86
481.77	3281.43
481.95	3351.65
482.13	3286.11
482.31	3260.37
482.49	3265.05
482.67	3234.62
482.85	3335.26
483.03	3358.67
483.21	3424.20
483.39	3365.69
483.57	3276.75
483.74	3372.71
483.92	3353.99
484.10	3368.03
484.28	3344.63
484.46	3529.53
484.64	3379.73
484.82	3391.44
485.00	3279.09
485.18	3358.67
485.35	3082.49
485.53	3002.91
485.71	2841.41
485.89	2621.40
486.07	2932.69
486.25	3005.25
486.43	3185.47
486.61	3316.54
486.78	3321.22
486.96	3279.09
487.14	3456.97
487.32	3522.51
487.50	3604.42
487.68	3742.52
487.85	3721.45
488.03	3894.65
488.21	3726.13
488.39	3569.32
488.57	3499.10
488.75	3485.06
488.92	3962.53
489.10	3829.12
489.28	3960.19
489.46	4067.85
489.64	4084.23
489.81	4131.05
489.99	4088.92
490.17	4051.47
490.35	4273.82
490.53	3974.23
490.70	4049.13
490.88	4170.83
491.06	4091.26
491.24	4035.08
491.41	4117.00
491.59	3801.03
491.77	3721.45
491.95	3854.86
492.13	4149.77
492.30	4004.66
492.48	4131.05
492.66	4173.18
492.84	4255.09
493.01	4170.83
493.19	4180.20
493.37	4208.28
493.54	4154.45
493.72	4320.63
493.90	4283.18
494.08	4278.50
494.25	4407.23
494.43	4479.79
494.61	4531.28
494.79	4578.09
494.96	4395.53
495.14	4297.22
495.32	4348.72
495.49	4142.75
495.67	4318.29
495.85	4454.04
496.02	4683.41
496.20	4580.43
496.38	4428.29
496.55	4341.69
496.73	4545.32
496.91	4477.44
497.09	4589.79
497.26	4784.06
497.44	4575.75
497.62	4613.20
497.79	4498.51
497.97	4264.46
498.14	4271.48
498.32	4294.88
498.50	4482.13
498.67	4519.57
498.85	4669.37
499.03	4662.35
499.20	4631.92
499.38	4688.09
499.56	4730.22
499.73	4596.81
499.91	4547.66
500.08	4334.67
500.26	4550.00
500.44	4348.72
500.61	4545.32
500.79	4479.79
500.97	4280.84
501.14	4402.55
501.32	4379.14
501.49	4304.25
501.67	4355.74
501.84	4351.06
502.02	4383.82
502.20	4557.02
502.37	4461.06
502.55	4585.11
502.72	4587.45
502.90	4676.39
503.07	4561.70
503.25	4472.76
503.43	4313.61
503.60	4184.88
503.78	4212.96
503.95	4248.07
504.13	4423.61
504.30	4737.24
504.48	4608.51
504.65	4683.41
504.83	4760.65
505.01	4802.78
505.18	4873.00
505.36	4842.57
505.53	4788.74
505.71	4957.25
505.88	4964.28
506.06	4678.73
506.23	4730.22
506.41	4706.82
506.58	4627.24
506.76	4798.10
506.93	4697.46
507.11	4608.51
507.28	4695.11
507.46	4624.90
507.63	4440.00
507.81	4510.21
507.98	4552.34
508.16	4627.24
508.33	4671.71
508.50	4854.27
508.68	4898.74
508.85	4933.85
509.03	4889.38
509.20	4823.84
509.38	4809.80
509.55	4631.92
509.73	4634.26
509.90	4891.72
510.08	4798.10
510.25	4737.24
510.42	4875.34
510.60	4823.84
510.77	4777.03
510.95	4854.27
511.12	4999.38
511.30	4987.68
511.47	5121.09
511.64	5135.14
511.82	4983.00
511.99	4765.33
512.17	4887.04
512.34	4788.74
512.51	4734.90
512.69	4746.61
512.86	4774.69
513.04	4933.85
513.21	4973.64
513.38	4891.72
513.56	4877.68
513.73	4493.83
513.90	4671.71
514.08	4798.10
514.25	4608.51
514.43	4683.41
514.60	4858.95
514.77	4880.02
514.95	4947.89
515.12	4898.74
515.29	4887.04
515.47	4819.16
515.64	4957.25
515.81	4985.34
515.99	4755.97
516.16	4627.24
516.33	4538.30
516.51	3997.64
516.68	3882.95
516.85	3967.21
517.03	3852.52
517.20	4294.88
517.37	4559.36
517.54	4891.72
517.72	4718.52
517.89	4482.13
518.06	4133.39
518.24	4049.13
518.41	4395.53
518.58	4585.11
518.75	4643.62
518.93	4575.75
519.10	4615.54
519.27	4774.69
519.45	4781.71
519.62	4784.06
519.79	4798.10
519.96	5046.20
520.14	4826.18
520.31	4770.01
520.48	4758.31
520.65	4968.96
520.83	5036.83
521.00	5025.13
521.17	4952.57
521.34	4985.34
521.52	4966.62
521.69	5097.69
521.86	5114.07
522.03	5011.09
522.20	4844.91
522.38	4652.98
522.55	4657.67
522.72	4821.50
522.89	4844.91
523.07	4842.57
523.24	4980.66
523.41	4865.97
523.58	4926.83
523.75	5022.79
523.92	5172.58
524.10	5200.67
524.27	5174.92
524.44	5057.90
524.61	5078.96
524.78	4795.76
524.96	5062.58
525.13	5004.07
525.30	5207.69
525.47	5034.49
525.64	5172.58
525.81	5116.41
525.98	4873.00
526.16	4561.70
526.33	4498.51
526.50	4461.06
526.67	4255.09
526.84	4416.59
527.01	4582.77
527.18	4779.37
527.36	4891.72
527.53	4903.42
527.70	5074.28
527.87	5081.30
528.04	5046.20
528.21	4868.31
528.38	5083.64
528.55	5104.71
528.72	5123.43
528.89	5296.63
529.07	5212.37
529.24	5125.77
529.41	4919.81
529.58	4919.81
529.75	4814.48
529.92	5022.79
530.09	5008.75
530.26	5048.54
530.43	5263.86
530.60	5210.03
530.77	5163.22
530.94	5355.15
531.11	5240.46
531.28	5184.29
531.46	5107.05
531.63	5057.90
531.80	5191.31
531.97	5011.09
532.14	4894.06
532.31	4664.69
532.48	4608.51
532.65	4603.83
532.82	4664.69
532.99	4931.51
533.16	5067.26
533.33	5263.86
533.50	5158.54
533.67	4964.28
533.84	4945.55
534.01	4943.21
534.18	4952.57
534.35	4961.94
534.52	4922.15
534.69	5053.22
534.86	5109.39
535.03	5313.02
535.20	5296.63
535.37	5198.33
535.54	5329.40
535.71	5317.70
535.88	5172.58
536.05	5118.75
536.22	4987.68
536.38	5020.45
536.55	4875.34
536.72	4816.82
536.89	4971.30
537.06	4800.44
537.23	4889.38
537.40	5207.69
537.57	5289.61
537.74	5109.39
537.91	5163.22
538.08	4966.62
538.25	5282.59
538.42	5130.45
538.59	5142.16
538.75	4858.95
538.92	5018.11
539.09	5025.13
539.26	4954.91
539.43	4873.00
539.60	4868.31
539.77	5060.24
539.94	5034.49
540.11	4891.72
540.28	4945.55
540.44	4821.50
540.61	4910.44
540.78	4957.25
540.95	4882.36
541.12	5275.57
541.29	5437.06
541.46	5441.75
541.62	5549.41
541.79	5423.02
541.96	5390.25
542.13	5418.34
542.30	5352.81
542.47	5423.02
542.63	5270.89
542.80	5273.23
542.97	5231.10
543.14	5165.56
543.31	5177.26
543.48	5217.05
543.64	5420.68
543.81	5514.30
543.98	5607.92
544.15	5338.76
544.32	5338.76
544.48	5233.44
544.65	5170.24
544.82	5451.11
544.99	5317.70
545.16	5289.61
545.32	5184.29
545.49	5753.04
545.66	6483.28
545.83	6670.53
546.00	6406.05
546.16	5900.49
546.33	5582.18
546.50	5348.12
546.67	5177.26
546.83	5273.23
547.00	5109.39
547.17	5104.71
547.34	5018.11
547.50	4917.47
547.67	5039.17
547.84	4975.98
548.00	5135.14
548.17	5259.18
548.34	5235.78
548.51	5102.37
548.67	5116.41
548.84	5163.22
549.01	5224.08
549.18	5076.62
549.34	5041.51
549.51	5078.96
549.68	5100.03
549.84	5036.83
550.01	5032.15
550.18	5158.54
550.34	4926.83
550.51	4952.57
550.68	4943.21
550.84	4826.18
551.01	4915.12
551.18	4915.12
551.34	4973.64
551.51	4980.66
551.68	4894.06
551.84	5093.01
552.01	4901.08
552.18	4898.74
552.34	4868.31
552.51	4765.33
552.68	4760.65
552.84	4650.64
553.01	4851.93
553.18	4880.02
553.34	4781.71
553.51	4894.06
553.67	4858.95
553.84	5055.56
554.01	4891.72
554.17	4744.27
554.34	4716.18
554.51	4915.12
554.67	4877.68
554.84	4968.96
555.00	4882.36
555.17	4840.23
555.33	4858.95
555.50	4786.40
555.67	4741.93
555.83	4709.16
556.00	4734.90
556.16	4983.00
556.33	4622.56
556.50	4585.11
556.66	4638.94
556.83	4486.81
556.99	4692.77
557.16	4559.36
557.32	4706.82
557.49	4655.33
557.65	4732.56
557.82	4720.86
557.98	4645.96
558.15	4503.19
558.32	4346.37
558.48	4329.99
558.65	4416.59
558.81	4402.55
558.98	4568.73
559.14	4578.09
559.31	4498.51
559.47	4484.47
559.64	4531.28
559.80	4404.89
559.97	4465.74
560.13	4526.60
560.30	4517.23
560.46	4697.46
560.63	4631.92
560.79	4592.13
560.96	4517.23
561.12	4477.44
561.29	4411.91
561.45	4273.82
561.61	4461.06
561.78	4706.82
561.94	4559.36
562.11	4512.55
562.27	4432.97
562.44	4414.25
562.60	4657.67
562.77	4505.53
562.93	4613.20
563.10	4655.33
563.26	4486.81
563.42	4617.88
563.59	4475.10
563.75	4344.03
563.92	4428.29
564.08	4444.68
564.24	4449.36
564.41	4578.09
564.57	4292.54
564.74	4447.02
564.90	4489.15
565.07	4376.80
565.23	4365.10
565.39	4243.39
565.56	4334.67
565.72	4124.02
565.88	4306.59
566.05	4264.46
566.21	4191.90
566.38	4304.25
566.54	4264.46
566.70	4388.50
566.87	4528.94
567.03	4514.89
567.19	4489.15
567.36	4337.01
567.52	4374.46
567.68	4376.80
567.85	4168.49
568.01	4037.42
568.17	4088.92
568.34	4161.47
568.50	4060.83
568.66	3864.22
568.83	4149.77
568.99	3939.12
569.15	4117.00
569.32	4109.98
569.48	4018.70
569.64	3967.21
569.81	4018.70
569.97	4107.64
570.13	4081.89
570.30	4004.66
570.46	4159.13
570.62	3911.04
570.78	3880.61
570.95	3836.14
571.11	4053.81
571.27	4112.32
571.43	3957.85
571.60	3971.89
571.76	3967.21
571.92	4018.70
572.09	4112.32
572.25	4262.12
572.41	4212.96
572.57	4135.73
572.74	4180.20
572.90	3922.74
573.06	4018.70
573.22	4021.04
573.38	4184.88
573.55	4058.49
573.71	4049.13
573.87	4173.18
574.03	4060.83
574.20	3906.35
574.36	4037.42
574.52	4021.04
574.68	3896.99
574.84	4133.39
575.01	3971.89
575.17	3786.99
575.33	3808.05
575.49	3831.46
575.65	3983.59
575.82	3775.28
575.98	3885.29
576.14	3805.71
576.30	4016.36
576.46	4210.62
576.62	4332.33
576.79	4219.99
576.95	4142.75
577.11	3990.61
577.27	4065.51
577.43	4009.34
577.59	3950.82
577.75	3845.50
577.92	3765.92
578.08	3873.59
578.24	3871.25
578.40	3885.29
578.56	4025.72
578.72	4095.94
578.88	4224.67
579.04	3995.29
579.21	4056.15
579.37	4112.32
579.53	3915.72
579.69	4159.13
579.85	4126.36
580.01	4145.09
580.17	4128.70
580.33	3964.87
580.49	4046.79
580.65	3997.64
580.82	4032.74
580.98	4046.79
581.14	4121.68
581.30	4070.19
581.46	3929.76
581.62	4119.34
581.78	4051.47
581.94	4142.75
582.10	4011.68
582.26	4161.47
582.42	4126.36
582.58	4224.67
582.74	4042.11
582.90	4051.47
583.06	4109.98
583.22	4196.58
583.38	4098.28
583.54	4044.45
583.70	4135.73
583.86	4037.42
584.02	4093.60
584.18	4128.70
584.34	4049.13
584.50	4049.13
584.66	3988.27
584.82	3960.19
584.98	3953.16
585.14	3955.51
585.30	3901.67
585.46	3843.16
585.62	3803.37
585.78	3684.00
585.94	3950.82
586.10	3730.81
586.26	3829.12
586.42	3922.74
586.58	3922.74
586.74	3906.35
586.90	4009.34
587.06	3847.84
587.22	3824.44
587.38	3723.79
587.54	3714.43
587.70	3808.05
587.86	3548.25
588.02	3487.40
588.18	3358.67
588.34	3241.64
588.49	2937.37
588.65	2761.83
588.81	2736.09
588.97	2750.13
589.13	2832.05
589.29	2789.92
589.45	2808.64
589.61	2780.56
589.77	2920.99
589.93	2972.48
590.08	3019.29
590.24	3318.88
590.40	3243.98
590.56	3201.85
590.72	3206.53
590.88	3091.85
591.04	3215.90
591.20	3290.79
591.35	3187.81
591.51	3222.92
591.67	3225.26
591.83	3084.83
591.99	3047.38
592.15	3286.11
592.31	3316.54
592.46	3335.26
592.62	3337.60
592.78	3405.48
592.94	3379.73
593.10	3414.84
593.26	3442.93
593.41	3393.78
593.57	3445.27
593.73	3295.47
593.89	3110.57
594.05	3059.08
594.20	2986.52
594.36	2918.65
594.52	2904.60
594.68	2965.46
594.84	3063.76
594.99	3192.49
595.15	3316.54
595.31	3349.31
595.47	3225.26
595.62	3258.03
595.78	3293.13
595.94	3372.71
596.10	3438.25
596.25	3297.81
596.41	3187.81
596.57	3117.59
596.73	3243.98
596.88	3370.37
597.04	3372.71
597.20	3302.50
597.36	3199.51
597.51	3258.03
597.67	3279.09
597.83	3304.84
597.99	3407.82
