SpectraSuite Data File
++++++++++++++++++++++++++++++++++++
Date: Fri Oct 04 11:44:25 GMT-05:00 2013
User: price-jones
Dark Spectrum Present: No
Reference Spectrum Present: No
Number of Sampled Component Spectra: 1
Spectrometers: USB2+H05261
Integration Time (usec): 100000 (USB2+H05261)
Spectra Averaged: 1 (USB2+H05261)
Boxcar Smoothing: 0 (USB2+H05261)
Correct for Electrical Dark: No (USB2+H05261)
Strobe/Lamp Enabled: No (USB2+H05261)
Correct for Detector Non-linearity: No (USB2+H05261)
Correct for Stray Light: No (USB2+H05261)
Number of Pixels in Processed Spectrum: 2048
>>>>>Begin Processed Spectral Data<<<<<
365.73	30.43
365.92	30.43
366.12	30.43
366.32	0.00
366.52	0.00
366.72	9.36
366.91	0.00
367.11	0.00
367.31	0.00
367.51	0.00
367.70	0.00
367.90	0.00
368.10	0.00
368.30	0.00
368.49	0.00
368.69	0.00
368.89	0.00
369.09	0.00
369.28	0.00
369.48	0.00
369.68	0.00
369.87	0.00
370.07	0.00
370.27	107.66
370.47	84.26
370.66	210.65
370.86	205.97
371.06	292.57
371.25	362.78
371.45	234.05
371.65	276.18
371.84	234.05
372.04	248.10
372.24	313.63
372.44	290.23
372.63	243.42
372.83	273.84
373.03	271.50
373.22	299.59
373.42	205.97
373.62	255.12
373.81	241.08
374.01	313.63
374.21	248.10
374.40	315.97
374.60	341.72
374.79	376.83
374.99	294.91
375.19	383.85
375.38	351.08
375.58	325.33
375.78	369.80
375.97	395.55
376.17	315.97
376.37	332.36
376.56	353.42
376.76	381.51
376.95	264.48
377.15	402.57
377.35	379.17
377.54	458.74
377.74	423.64
377.93	482.15
378.13	472.79
378.33	374.49
378.52	320.65
378.72	379.17
378.91	397.89
379.11	320.65
379.31	369.80
379.50	325.33
379.70	353.42
379.89	397.89
380.09	416.62
380.28	411.93
380.48	381.51
380.68	351.08
380.87	421.30
381.07	409.59
381.26	400.23
381.46	344.06
381.65	348.74
381.85	269.16
382.04	271.50
382.24	292.57
382.43	304.27
382.63	299.59
382.83	224.69
383.02	301.93
383.22	341.72
383.41	229.37
383.61	285.55
383.80	290.23
384.00	339.38
384.19	362.78
384.39	365.12
384.58	315.97
384.78	444.70
384.97	386.19
385.17	322.99
385.36	313.63
385.56	395.55
385.75	388.53
385.95	414.27
386.14	418.96
386.34	418.96
386.53	395.55
386.72	365.12
386.92	376.83
387.11	404.91
387.31	388.53
387.50	418.96
387.70	365.12
387.89	315.97
388.09	374.49
388.28	376.83
388.48	381.51
388.67	416.62
388.86	444.70
389.06	526.62
389.25	528.96
389.45	503.22
389.64	512.58
389.84	552.37
390.03	458.74
390.22	528.96
390.42	528.96
390.61	447.04
390.81	566.41
391.00	585.13
391.19	552.37
391.39	486.83
391.58	550.03
391.78	526.62
391.97	484.49
392.16	470.45
392.36	449.38
392.55	372.15
392.75	418.96
392.94	311.29
393.13	327.68
393.33	229.37
393.52	372.15
393.71	428.32
393.91	437.68
394.10	531.30
394.29	489.17
394.49	575.77
394.68	575.77
394.88	641.31
395.07	631.94
395.26	620.24
395.46	582.79
395.65	531.30
395.84	465.77
396.04	484.49
396.23	437.68
396.42	292.57
396.62	414.27
396.81	416.62
397.00	423.64
397.19	465.77
397.39	589.82
397.58	669.39
397.77	601.52
397.97	716.20
398.16	732.59
398.35	624.92
398.55	716.20
398.74	734.93
398.93	770.04
399.12	744.29
399.32	737.27
399.51	737.27
399.70	706.84
399.90	851.96
400.09	819.19
400.28	828.55
400.47	763.01
400.67	826.21
400.86	760.67
401.05	821.53
401.24	777.06
401.44	854.30
401.63	851.96
401.82	847.27
402.01	858.98
402.21	866.00
402.40	819.19
402.59	847.27
402.78	844.93
402.97	770.04
403.17	873.02
403.36	847.27
403.55	840.25
403.74	929.19
403.93	795.78
404.13	931.53
404.32	844.93
404.51	863.66
404.70	880.04
404.89	891.74
405.09	809.83
405.28	793.44
405.47	847.27
405.66	858.98
405.85	851.96
406.05	828.55
406.24	772.38
406.43	779.40
406.62	894.08
406.81	896.43
407.00	807.48
407.20	734.93
407.39	835.57
407.58	863.66
407.77	870.68
407.96	866.00
408.15	1027.50
408.34	915.15
408.54	926.85
408.73	875.36
408.92	943.24
409.11	887.06
409.30	964.30
409.49	798.12
409.68	805.14
409.87	791.10
410.07	849.61
410.26	861.32
410.45	856.64
410.64	908.13
410.83	924.51
411.02	997.07
411.21	971.32
411.40	1020.47
411.59	1011.11
411.78	1001.75
411.98	910.47
412.17	961.96
412.36	994.73
412.55	1015.79
412.74	1043.88
412.93	1006.43
413.12	901.11
413.31	1032.18
413.50	985.37
413.69	1116.44
413.88	1064.94
414.07	1041.54
414.26	999.41
414.45	936.21
414.64	1053.24
414.83	959.62
415.02	966.64
415.22	1160.91
415.41	1088.35
415.60	1006.43
415.79	1057.92
415.98	1123.46
416.17	1123.46
416.36	1149.20
416.55	1116.44
416.74	1097.71
416.93	1062.60
417.12	910.47
417.31	1041.54
417.50	1015.79
417.69	1100.05
417.88	1097.71
418.07	1111.75
418.26	1088.35
418.45	1114.10
418.64	1111.75
418.83	1029.84
419.02	1116.44
419.21	1118.78
419.39	1090.69
419.58	1097.71
419.77	1027.50
419.96	1076.65
420.15	1109.41
420.34	1174.95
420.53	1177.29
420.72	1139.84
420.91	1167.93
421.10	1111.75
421.29	1146.86
421.48	1174.95
421.67	1207.72
421.86	1132.82
422.05	1100.05
422.24	1022.81
422.43	997.07
422.61	1006.43
422.80	1095.37
422.99	1191.33
423.18	1132.82
423.37	1121.12
423.56	1043.88
423.75	1060.26
423.94	1090.69
424.13	1132.82
424.32	1132.82
424.50	1156.22
424.69	1163.25
424.88	1114.10
425.07	1050.90
425.26	1060.26
425.45	1046.22
425.64	959.62
425.83	1027.50
426.01	1083.67
426.20	1100.05
426.39	1006.43
426.58	1111.75
426.77	950.26
426.96	959.62
427.15	997.07
427.33	983.02
427.52	1100.05
427.71	1041.54
427.90	1090.69
428.09	1053.24
428.28	966.64
428.46	1022.81
428.65	1025.15
428.84	1078.99
429.03	1095.37
429.22	1100.05
429.40	945.58
429.59	870.68
429.78	809.83
429.97	851.96
430.16	730.25
430.34	816.85
430.53	774.72
430.72	877.70
430.91	933.87
431.10	1001.75
431.28	1184.31
431.47	1158.57
431.66	1308.36
431.85	1188.99
432.03	1102.39
432.22	1163.25
432.41	1039.20
432.60	1090.69
432.79	1132.82
432.97	1259.21
433.16	1217.08
433.35	1186.65
433.54	917.49
433.72	1001.75
433.91	945.58
434.10	1050.90
434.28	1252.19
434.47	1137.50
434.66	1123.46
434.85	1188.99
435.03	1306.02
435.22	1554.12
435.41	1860.73
435.59	1944.99
435.78	1710.93
435.97	1472.20
436.16	1420.71
436.34	1376.24
436.53	1366.87
436.72	1294.32
436.90	1177.29
437.09	1240.48
437.28	1266.23
437.46	1174.95
437.65	1299.00
437.84	1177.29
438.02	1116.44
438.21	1083.67
438.40	1041.54
438.58	1196.01
438.77	1184.31
438.96	1270.91
439.14	1268.57
439.33	1343.47
439.52	1329.42
439.70	1310.70
439.89	1284.95
440.08	1228.78
440.26	1310.70
440.45	1310.70
440.63	1345.81
440.82	1486.24
441.01	1397.30
441.19	1371.55
441.38	1364.53
441.57	1406.66
441.75	1399.64
441.94	1423.05
442.12	1432.41
442.31	1465.18
442.50	1476.88
442.68	1430.07
442.87	1507.30
443.05	1409.00
443.24	1537.73
443.43	1453.47
443.61	1493.26
443.80	1500.28
443.98	1448.79
444.17	1404.32
444.35	1497.94
444.54	1474.54
444.73	1535.39
444.91	1577.52
445.10	1448.79
445.28	1378.58
445.47	1303.68
445.65	1364.53
445.84	1453.47
446.02	1380.92
446.21	1404.32
446.39	1329.42
446.58	1444.11
446.77	1561.14
446.95	1540.07
447.14	1511.99
447.32	1561.14
447.51	1448.79
447.69	1502.62
447.88	1455.81
448.06	1554.12
448.25	1556.46
448.43	1511.99
448.62	1437.09
448.80	1540.07
448.99	1561.14
449.17	1420.71
449.36	1444.11
449.54	1575.18
449.73	1572.84
449.91	1636.03
450.10	1668.80
450.28	1596.25
450.46	1671.14
450.65	1668.80
450.83	1692.21
451.02	1614.97
451.20	1584.54
451.39	1509.65
451.57	1504.96
451.76	1483.90
451.94	1570.50
452.13	1626.67
452.31	1519.01
452.49	1427.73
452.68	1313.04
452.86	1390.28
453.05	1561.14
453.23	1516.67
453.42	1490.92
453.60	1479.22
453.78	1584.54
453.97	1544.75
454.15	1605.61
454.34	1483.90
454.52	1411.34
454.70	1502.62
454.89	1600.93
455.07	1497.94
455.26	1572.84
455.44	1614.97
455.62	1614.97
455.81	1596.25
455.99	1633.69
456.17	1636.03
456.36	1568.16
456.54	1526.03
456.73	1696.89
456.91	1781.15
457.09	1703.91
457.28	1729.66
457.46	1572.84
457.64	1715.61
457.83	1565.82
458.01	1511.99
458.19	1593.90
458.38	1631.35
458.56	1638.38
458.74	1579.86
458.93	1685.19
459.11	1650.08
459.29	1631.35
459.48	1549.43
459.66	1610.29
459.84	1652.42
460.03	1762.42
460.21	1579.86
460.39	1687.53
460.57	1729.66
460.76	1727.32
460.94	1631.35
461.12	1708.59
461.31	1516.67
461.49	1706.25
461.67	1659.44
461.85	1708.59
462.04	1694.55
462.22	2183.72
462.40	1710.93
462.59	1717.95
462.77	1734.34
462.95	1746.04
463.13	1699.23
463.32	1624.33
463.50	1689.87
463.68	1572.84
463.86	1624.33
464.05	1568.16
464.23	1614.97
464.41	1715.61
464.59	1701.57
464.78	1729.66
464.96	1643.06
465.14	1661.78
465.32	1624.33
465.50	1666.46
465.69	1631.35
465.87	1696.89
466.05	1687.53
466.23	1577.52
466.41	1654.76
466.60	1619.65
466.78	1507.30
466.96	1678.16
467.14	1713.27
467.32	1708.59
467.51	1614.97
467.69	1556.46
467.87	1605.61
468.05	1572.84
468.23	1659.44
468.41	1575.18
468.60	1657.10
468.78	1682.85
468.96	1689.87
469.14	1610.29
469.32	1554.12
469.50	1586.88
469.69	1647.74
469.87	1612.63
470.05	1556.46
470.23	1528.37
470.41	1535.39
470.59	1582.20
470.77	1720.29
470.95	1682.85
471.14	1720.29
471.32	1701.57
471.50	1809.23
471.68	1764.76
471.86	1792.85
472.04	1750.72
472.22	1692.21
472.40	1708.59
472.58	1720.29
472.77	1748.38
472.95	1769.44
473.13	1856.04
473.31	1664.12
473.49	1699.23
473.67	1724.97
473.85	1774.13
474.03	1834.98
474.21	1895.83
474.39	1853.70
474.57	1933.28
474.75	1837.32
474.93	1741.36
475.12	1703.91
475.30	1689.87
475.48	1713.27
475.66	1844.34
475.84	1654.76
476.02	1839.66
476.20	1762.42
476.38	1790.51
476.56	1820.94
476.74	1877.11
476.92	1764.76
477.10	1865.41
477.28	1900.52
477.46	1825.62
477.64	1947.33
477.82	1870.09
478.00	1865.41
478.18	1914.56
478.36	1823.28
478.54	1832.64
478.72	2005.84
478.90	1949.67
479.08	2136.91
479.26	2148.61
479.44	2050.31
479.62	2015.20
479.80	2054.99
479.98	2099.46
480.16	2017.54
480.34	2005.84
480.52	2080.74
480.70	2104.14
480.88	2024.56
481.06	2239.89
481.24	2174.36
481.41	2115.84
481.59	2263.30
481.77	2204.78
481.95	2101.80
482.13	2073.71
482.31	2197.76
482.49	2242.23
482.67	2118.18
482.85	2239.89
483.03	2298.41
483.21	2242.23
483.39	2197.76
483.57	2087.76
483.74	2239.89
483.92	2225.85
484.10	2251.60
484.28	2314.79
484.46	2373.30
484.64	2457.56
484.82	2335.85
485.00	2300.75
485.18	2195.42
485.35	2099.46
485.53	2005.84
485.71	1898.17
485.89	1916.90
486.07	1895.83
486.25	2047.97
486.43	2267.98
486.61	2293.72
486.78	2153.29
486.96	2225.85
487.14	2305.43
487.32	2370.96
487.50	2368.62
487.68	2499.69
487.85	2464.58
488.03	2466.92
488.21	2478.63
488.39	2424.80
488.57	2413.09
488.75	2373.30
488.92	2656.51
489.10	2595.65
489.28	2789.92
489.46	2647.15
489.64	2635.44
489.81	2647.15
489.99	2768.85
490.17	2590.97
490.35	2771.19
490.53	2567.57
490.70	2726.72
490.88	2710.34
491.06	2656.51
491.24	2745.45
491.41	2750.13
491.59	2565.23
491.77	2452.88
491.95	2546.50
492.13	2738.43
492.30	2822.69
492.48	2810.98
492.66	2871.84
492.84	2939.71
493.01	2799.28
493.19	2736.09
493.37	2853.11
493.54	2736.09
493.72	2794.60
493.90	2904.60
494.08	2881.20
494.25	2846.09
494.43	3023.97
494.61	3014.61
494.79	3052.06
494.96	3038.02
495.14	2869.50
495.32	2820.35
495.49	2726.72
495.67	2916.31
495.85	3005.25
496.02	3016.95
496.20	3045.04
496.38	3021.63
496.55	3084.83
496.73	3162.06
496.91	3115.25
497.09	3201.85
497.26	3150.36
497.44	3101.21
497.62	3040.36
497.79	2930.35
497.97	2782.90
498.14	2860.13
498.32	2902.26
498.50	3026.31
498.67	3073.12
498.85	3145.68
499.03	3105.89
499.20	3265.05
499.38	3049.72
499.56	3098.87
499.73	3073.12
499.91	3063.76
500.08	2935.03
500.26	2864.82
500.44	2892.90
500.61	2970.14
500.79	2960.78
500.97	3117.59
501.14	2956.10
501.32	2899.92
501.49	2773.53
501.67	2925.67
501.84	2960.78
502.02	3005.25
502.20	3035.67
502.37	3089.51
502.55	3215.90
502.72	3110.57
502.90	3222.92
503.07	3087.17
503.25	2949.08
503.43	2909.29
503.60	2832.05
503.78	2693.96
503.95	2761.83
504.13	2925.67
504.30	3082.49
504.48	3007.59
504.65	3045.04
504.83	3143.34
505.01	3059.08
505.18	3089.51
505.36	3225.26
505.53	3255.69
505.71	3155.04
505.88	3190.15
506.06	3227.60
506.23	3173.77
506.41	3075.46
506.58	3077.80
506.76	3108.23
506.93	3180.79
507.11	3129.30
507.28	3077.80
507.46	3040.36
507.63	2939.71
507.81	3005.25
507.98	3023.97
508.16	3068.44
508.33	3038.02
508.50	3199.51
508.68	3232.28
508.85	3290.79
509.03	3309.52
509.20	3274.41
509.38	3272.07
509.55	3112.91
509.73	3068.44
509.90	3201.85
510.08	3288.45
510.25	3248.66
510.42	3236.96
510.60	3290.79
510.77	3157.38
510.95	3325.90
511.12	3309.52
511.30	3407.82
511.47	3370.37
511.64	3382.07
511.82	3398.46
511.99	3215.90
512.17	3328.24
512.34	3171.43
512.51	3075.46
512.69	3220.58
512.86	3337.60
513.04	3307.18
513.21	3293.13
513.38	3300.16
513.56	3136.32
513.73	3066.10
513.90	3054.40
514.08	3138.66
514.25	3218.24
514.43	3190.15
514.60	3316.54
514.77	3290.79
514.95	3084.83
515.12	3115.25
515.29	3290.79
515.47	3262.71
515.64	3314.20
515.81	3262.71
515.99	3265.05
516.16	3089.51
516.33	2928.01
516.51	2743.11
516.68	2719.70
516.85	2640.12
517.03	2600.34
517.20	2864.82
517.37	3094.19
517.54	3253.34
517.72	3206.53
517.89	3023.97
518.06	2682.25
518.24	2780.56
518.41	2857.79
518.58	3061.42
518.75	3052.06
518.93	3143.34
519.10	3155.04
519.27	3162.06
519.45	3234.62
519.62	3204.19
519.79	3286.11
519.96	3293.13
520.14	3119.93
520.31	3208.87
520.48	3110.57
520.65	3070.78
520.83	3309.52
521.00	3309.52
521.17	3281.43
521.34	3295.47
521.52	3194.83
521.69	3365.69
521.86	3309.52
522.03	3475.70
522.20	3314.20
522.38	3077.80
522.55	3141.00
522.72	3068.44
522.89	3176.11
523.07	3269.73
523.24	3316.54
523.41	3365.69
523.58	3424.20
523.75	3339.94
523.92	3321.22
524.10	3454.63
524.27	3438.25
524.44	3449.95
524.61	3414.84
524.78	3407.82
524.96	3461.65
525.13	3300.16
525.30	3449.95
525.47	3438.25
525.64	3419.52
525.81	3344.63
525.98	3239.30
526.16	3183.13
526.33	2949.08
526.50	2881.20
526.67	2899.92
526.84	2862.48
527.01	3016.95
527.18	3059.08
527.36	3227.60
527.53	3346.97
527.70	3353.99
527.87	3281.43
528.04	3363.35
528.21	3332.92
528.38	3407.82
528.55	3522.51
528.72	3492.08
528.89	3445.27
529.07	3412.50
529.24	3449.95
529.41	3386.76
529.58	3173.77
529.75	3295.47
529.92	3346.97
530.09	3412.50
530.26	3468.67
530.43	3344.63
530.60	3545.91
530.77	3475.70
530.94	3583.36
531.11	3449.95
531.28	3447.61
531.46	3358.67
531.63	3489.74
531.80	3386.76
531.97	3440.59
532.14	3248.66
532.31	3143.34
532.48	3052.06
532.65	3164.40
532.82	3215.90
532.99	3400.80
533.16	3463.99
533.33	3473.36
533.50	3375.05
533.67	3276.75
533.84	3267.39
534.01	3403.14
534.18	3225.26
534.35	3318.88
534.52	3276.75
534.69	3288.45
534.86	3353.99
535.03	3346.97
535.20	3515.48
535.37	3536.55
535.54	3442.93
535.71	3454.63
535.88	3473.36
536.05	3403.14
536.22	3316.54
536.38	3358.67
536.55	3274.41
536.72	3208.87
536.89	3157.38
537.06	3269.73
537.23	3506.12
537.40	3332.92
537.57	3410.16
537.74	3372.71
537.91	3449.95
538.08	3358.67
538.25	3515.48
538.42	3417.18
538.59	3581.02
538.75	3349.31
538.92	3349.31
539.09	3295.47
539.26	3323.56
539.43	3426.54
539.60	3405.48
539.77	3456.97
539.94	3384.41
540.11	3339.94
540.28	3398.46
540.44	3419.52
540.61	3353.99
540.78	3428.88
540.95	3524.85
541.12	3691.02
541.29	3733.15
541.46	3712.09
541.62	3815.07
541.79	3721.45
541.96	3609.11
542.13	3625.49
542.30	3833.80
542.47	3590.38
542.63	3597.40
542.80	3695.71
542.97	3609.11
543.14	3625.49
543.31	3623.15
543.48	3655.92
543.64	3843.16
543.81	3871.25
543.98	3817.41
544.15	3812.73
544.32	3630.17
544.48	3651.24
544.65	3700.39
544.82	3737.84
544.99	3719.11
545.16	3531.87
545.32	3707.41
545.49	4154.45
545.66	4608.51
545.83	4938.53
546.00	4613.20
546.16	4161.47
546.33	3775.28
546.50	3681.66
546.67	3524.85
546.83	3597.40
547.00	3494.42
547.17	3559.95
547.34	3428.88
547.50	3323.56
547.67	3339.94
547.84	3335.26
548.00	3337.60
548.17	3501.44
548.34	3508.46
548.51	3590.38
548.67	3606.77
548.84	3595.06
549.01	3393.78
549.18	3463.99
549.34	3396.12
549.51	3494.42
549.68	3398.46
549.84	3405.48
550.01	3541.23
550.18	3503.78
550.34	3414.84
550.51	3307.18
550.68	3311.86
550.84	3183.13
551.01	3344.63
551.18	3225.26
551.34	3187.81
551.51	3283.77
551.68	3300.16
551.84	3281.43
552.01	3300.16
552.18	3197.17
552.34	3330.58
552.51	3103.55
552.68	3133.98
552.84	3208.87
553.01	3199.51
553.18	3075.46
553.34	3328.24
553.51	3262.71
553.67	3225.26
553.84	3272.07
554.01	3330.58
554.17	3166.74
554.34	3279.09
554.51	3234.62
554.67	3389.10
554.84	3300.16
555.00	3239.30
555.17	3281.43
555.33	3138.66
555.50	3190.15
555.67	3133.98
555.83	3155.04
556.00	3028.65
556.16	3171.43
556.33	3082.49
556.50	3080.14
556.66	2925.67
556.83	2935.03
556.99	2991.20
557.16	3047.38
557.32	3251.00
557.49	3033.33
557.65	3012.27
557.82	3117.59
557.98	3094.19
558.15	3089.51
558.32	3084.83
558.48	2979.50
558.65	2832.05
558.81	2916.31
558.98	2977.16
559.14	3014.61
559.31	2946.73
559.47	2960.78
559.64	2960.78
559.80	3019.29
559.97	2916.31
560.13	3005.25
560.30	3091.85
560.46	3178.45
560.63	3197.17
560.79	3159.72
560.96	3150.36
561.12	3124.62
561.29	3000.57
561.45	3082.49
561.61	2909.29
561.78	3155.04
561.94	2888.22
562.11	2883.54
562.27	2944.39
562.44	2979.50
562.60	2984.18
562.77	3141.00
562.93	3052.06
563.10	3002.91
563.26	2998.23
563.42	3061.42
563.59	2953.76
563.75	2942.05
563.92	2818.00
564.08	2958.44
564.24	3028.65
564.41	3084.83
564.57	2998.23
564.74	3016.95
564.90	3028.65
565.07	2871.84
565.23	3019.29
565.39	2799.28
565.56	2752.47
565.72	2712.68
565.88	2848.43
566.05	2920.99
566.21	2855.45
566.38	2857.79
566.54	2895.24
566.70	2801.62
566.87	2932.69
567.03	2888.22
567.19	2899.92
567.36	2860.13
567.52	2897.58
567.68	2923.33
567.85	2869.50
568.01	2733.75
568.17	2700.98
568.34	2597.99
568.50	2682.25
568.66	2722.04
568.83	2876.52
568.99	2740.77
569.15	2818.00
569.32	2773.53
569.48	2583.95
569.64	2609.70
569.81	2750.13
569.97	2675.23
570.13	2614.38
570.30	2696.30
570.46	2682.25
570.62	2731.41
570.78	2572.25
570.95	2560.55
571.11	2754.81
571.27	2778.22
571.43	2609.70
571.60	2612.04
571.76	2754.81
571.92	2731.41
572.09	2745.45
572.25	2810.98
572.41	2820.35
572.57	2731.41
572.74	2717.36
572.90	2782.90
573.06	2722.04
573.22	2785.24
573.38	2843.75
573.55	2668.21
573.71	2719.70
573.87	2668.21
574.03	2679.91
574.20	2644.81
574.36	2635.44
574.52	2630.76
574.68	2670.55
574.84	2579.27
575.01	2656.51
575.17	2619.06
575.33	2693.96
575.49	2586.29
575.65	2731.41
575.82	2513.74
575.98	2630.76
576.14	2644.81
576.30	2860.13
576.46	2843.75
576.62	2902.26
576.79	2874.18
576.95	2918.65
577.11	2679.91
577.27	2740.77
577.43	2827.37
577.59	2670.55
577.75	2544.16
577.92	2506.71
578.08	2548.84
578.24	2560.55
578.40	2548.84
578.56	2808.64
578.72	2874.18
578.88	2848.43
579.04	2698.64
579.21	2839.07
579.37	2693.96
579.53	2712.68
579.69	2658.85
579.85	2663.53
580.01	2885.88
580.17	2719.70
580.33	2715.02
580.49	2546.50
580.65	2670.55
580.82	2698.64
580.98	2679.91
581.14	2792.26
581.30	2722.04
581.46	2754.81
581.62	2691.62
581.78	2703.32
581.94	2801.62
582.10	2710.34
582.26	2675.23
582.42	2665.87
582.58	2806.30
582.74	2754.81
582.90	2679.91
583.06	2719.70
583.22	2696.30
583.38	2670.55
583.54	2700.98
583.70	2668.21
583.86	2780.56
584.02	2731.41
584.18	2719.70
584.34	2740.77
584.50	2780.56
584.66	2691.62
584.82	2640.12
584.98	2726.72
585.14	2586.29
585.30	2658.85
585.46	2555.86
585.62	2597.99
585.78	2621.40
585.94	2560.55
586.10	2619.06
586.26	2693.96
586.42	2715.02
586.58	2677.57
586.74	2623.74
586.90	2569.91
587.06	2693.96
587.22	2745.45
587.38	2562.89
587.54	2530.12
587.70	2586.29
587.86	2480.97
588.02	2413.09
588.18	2328.83
588.34	2286.70
588.49	2122.87
588.65	1881.79
588.81	1886.47
588.97	1785.83
589.13	1935.62
589.29	1902.86
589.45	1870.09
589.61	1877.11
589.77	2129.89
589.93	2071.37
590.08	2087.76
590.24	2134.57
590.40	2162.66
590.56	2246.91
590.72	2092.44
590.88	2146.27
591.04	2059.67
591.20	2211.81
591.35	2101.80
591.51	2165.00
591.67	2134.57
591.83	2040.95
591.99	2125.21
592.15	2150.95
592.31	2172.02
592.46	2209.47
592.62	2244.57
592.78	2256.28
592.94	2221.17
593.10	2305.43
593.26	2338.20
593.41	2480.97
593.57	2179.04
593.73	2209.47
593.89	2186.06
594.05	2106.48
594.20	2031.58
594.36	2010.52
594.52	1881.79
594.68	1900.52
594.84	2038.61
594.99	2204.78
595.15	2122.87
595.31	2277.34
595.47	2181.38
595.62	2188.40
595.78	2197.76
595.94	2293.72
596.10	2279.68
596.25	2282.02
596.41	2204.78
596.57	2143.93
596.73	2270.32
596.88	2279.68
597.04	2176.70
597.20	2134.57
597.36	2172.02
597.51	2111.16
597.67	2303.09
597.83	2120.53
597.99	2410.75
598.14	2235.21
598.30	2228.19
598.46	2277.34
598.61	2228.19
598.77	2342.88
598.93	2256.28
