SpectraSuite Data File
++++++++++++++++++++++++++++++++++++
Date: Fri Oct 04 11:44:19 GMT-05:00 2013
User: price-jones
Dark Spectrum Present: No
Reference Spectrum Present: No
Number of Sampled Component Spectra: 1
Spectrometers: USB2+H05261
Integration Time (usec): 100000 (USB2+H05261)
Spectra Averaged: 1 (USB2+H05261)
Boxcar Smoothing: 0 (USB2+H05261)
Correct for Electrical Dark: No (USB2+H05261)
Strobe/Lamp Enabled: No (USB2+H05261)
Correct for Detector Non-linearity: No (USB2+H05261)
Correct for Stray Light: No (USB2+H05261)
Number of Pixels in Processed Spectrum: 2048
>>>>>Begin Processed Spectral Data<<<<<
365.73	7.02
365.92	7.02
366.12	7.02
366.32	0.00
366.52	0.00
366.72	0.00
366.91	0.00
367.11	0.00
367.31	2.34
367.51	0.00
367.70	0.00
367.90	0.00
368.10	0.00
368.30	0.00
368.49	0.00
368.69	0.00
368.89	0.00
369.09	0.00
369.28	0.00
369.48	0.00
369.68	0.00
369.87	0.00
370.07	30.43
370.27	0.00
370.47	0.00
370.66	131.07
370.86	234.05
371.06	217.67
371.25	271.50
371.45	196.60
371.65	156.82
371.84	180.22
372.04	161.50
372.24	208.31
372.44	229.37
372.63	276.18
372.83	248.10
373.03	229.37
373.22	156.82
373.42	196.60
373.62	255.12
373.81	236.39
374.01	203.63
374.21	182.56
374.40	229.37
374.60	184.90
374.79	257.46
374.99	220.01
375.19	238.73
375.38	283.20
375.58	205.97
375.78	306.61
375.97	220.01
376.17	360.44
376.37	248.10
376.56	222.35
376.76	297.25
376.95	280.86
377.15	280.86
377.35	362.78
377.54	259.80
377.74	315.97
377.93	231.71
378.13	273.84
378.33	311.29
378.52	278.52
378.72	264.48
378.91	294.91
379.11	243.42
379.31	294.91
379.50	278.52
379.70	208.31
379.89	304.27
380.09	280.86
380.28	311.29
380.48	330.02
380.68	264.48
380.87	245.76
381.07	325.33
381.26	435.34
381.46	395.55
381.65	278.52
381.85	159.16
382.04	210.65
382.24	245.76
382.43	208.31
382.63	163.84
382.83	241.08
383.02	252.78
383.22	290.23
383.41	236.39
383.61	222.35
383.80	241.08
384.00	194.26
384.19	236.39
384.39	287.89
384.58	266.82
384.78	304.27
384.97	292.57
385.17	252.78
385.36	241.08
385.56	248.10
385.75	257.46
385.95	393.21
386.14	344.06
386.34	248.10
386.53	315.97
386.72	297.25
386.92	276.18
387.11	250.44
387.31	390.87
387.50	210.65
387.70	259.80
387.89	341.72
388.09	337.04
388.28	313.63
388.48	374.49
388.67	397.89
388.86	325.33
389.06	227.03
389.25	297.25
389.45	379.17
389.64	351.08
389.84	418.96
390.03	358.10
390.22	306.61
390.42	348.74
390.61	332.36
390.81	383.85
391.00	411.93
391.19	416.62
391.39	418.96
391.58	365.12
391.78	287.89
391.97	358.10
392.16	313.63
392.36	355.76
392.55	306.61
392.75	203.63
392.94	203.63
393.13	257.46
393.33	287.89
393.52	320.65
393.71	355.76
393.91	344.06
394.10	346.40
394.29	353.42
394.49	339.38
394.68	437.68
394.88	458.74
395.07	433.00
395.26	472.79
395.46	390.87
395.65	418.96
395.84	355.76
396.04	402.57
396.23	234.05
396.42	196.60
396.62	262.14
396.81	252.78
397.00	311.29
397.19	381.51
397.39	418.96
397.58	477.47
397.77	421.30
397.97	519.60
398.16	543.00
398.35	514.92
398.55	543.00
398.74	517.26
398.93	535.98
399.12	517.26
399.32	493.85
399.51	547.69
399.70	507.90
399.90	545.34
400.09	540.66
400.28	550.03
400.47	552.37
400.67	629.60
400.86	596.84
401.05	601.52
401.24	545.34
401.44	543.00
401.63	489.17
401.82	559.39
402.01	519.60
402.21	554.71
402.40	589.82
402.59	564.07
402.78	552.37
402.97	564.07
403.17	580.45
403.36	587.47
403.55	601.52
403.74	589.82
403.93	676.41
404.13	713.86
404.32	671.73
404.51	664.71
404.70	723.23
404.89	603.86
405.09	566.41
405.28	599.18
405.47	524.28
405.66	507.90
405.85	627.26
406.05	552.37
406.24	514.92
406.43	615.56
406.62	631.94
406.81	631.94
407.00	528.96
407.20	575.77
407.39	554.71
407.58	606.20
407.77	550.03
407.96	662.37
408.15	641.31
408.34	617.90
408.54	631.94
408.73	739.61
408.92	655.35
409.11	617.90
409.30	592.16
409.49	533.64
409.68	596.84
409.87	543.00
410.07	594.50
410.26	627.26
410.45	554.71
410.64	575.77
410.83	653.01
411.02	706.84
411.21	732.59
411.40	711.52
411.59	657.69
411.78	610.88
411.98	688.12
412.17	723.23
412.36	725.57
412.55	688.12
412.74	748.97
412.93	653.01
413.12	671.73
413.31	755.99
413.50	695.14
413.69	671.73
413.88	793.44
414.07	636.63
414.26	744.29
414.45	702.16
414.64	704.50
414.83	767.70
415.02	758.33
415.22	720.88
415.41	788.76
415.60	760.67
415.79	812.17
415.98	812.17
416.17	770.04
416.36	760.67
416.55	732.59
416.74	779.40
416.93	767.70
417.12	739.61
417.31	716.20
417.50	725.57
417.69	814.51
417.88	805.14
418.07	763.01
418.26	760.67
418.45	760.67
418.64	851.96
418.83	751.31
419.02	781.74
419.21	699.82
419.39	746.63
419.58	730.25
419.77	697.48
419.96	746.63
420.15	847.27
420.34	840.25
420.53	849.61
420.72	854.30
420.91	791.10
421.10	767.70
421.29	800.46
421.48	755.99
421.67	763.01
421.86	718.54
422.05	683.44
422.24	690.46
422.43	737.27
422.61	690.46
422.80	777.06
422.99	795.78
423.18	788.76
423.37	784.08
423.56	667.05
423.75	842.59
423.94	725.57
424.13	671.73
424.32	734.93
424.50	894.08
424.69	716.20
424.88	746.63
425.07	791.10
425.26	638.97
425.45	674.07
425.64	711.52
425.83	723.23
426.01	732.59
426.20	695.14
426.39	758.33
426.58	648.33
426.77	702.16
426.96	664.71
427.15	653.01
427.33	730.25
427.52	690.46
427.71	844.93
427.90	720.88
428.09	690.46
428.28	723.23
428.46	683.44
428.65	683.44
428.84	711.52
429.03	767.70
429.22	688.12
429.40	641.31
429.59	669.39
429.78	596.84
429.97	582.79
430.16	463.43
430.34	543.00
430.53	578.11
430.72	561.73
430.91	692.80
431.10	624.92
431.28	805.14
431.47	884.72
431.66	837.91
431.85	763.01
432.03	802.80
432.22	784.08
432.41	774.72
432.60	812.17
432.79	821.53
432.97	784.08
433.16	821.53
433.35	725.57
433.54	660.03
433.72	688.12
433.91	732.59
434.10	793.44
434.28	739.61
434.47	868.34
434.66	823.87
434.85	835.57
435.03	947.92
435.22	1214.74
435.41	1502.62
435.59	1561.14
435.78	1359.85
435.97	1153.88
436.16	1048.56
436.34	912.81
436.53	837.91
436.72	866.00
436.90	765.36
437.09	842.59
437.28	805.14
437.46	828.55
437.65	770.04
437.84	840.25
438.02	723.23
438.21	781.74
438.40	791.10
438.58	800.46
438.77	809.83
438.96	868.34
439.14	835.57
439.33	917.49
439.52	821.53
439.70	866.00
439.89	858.98
440.08	903.45
440.26	887.06
440.45	894.08
440.63	938.55
440.82	1018.13
441.01	952.60
441.19	912.81
441.38	833.23
441.57	924.51
441.75	1020.47
441.94	978.34
442.12	1011.11
442.31	1062.60
442.50	987.71
442.68	1053.24
442.87	966.64
443.05	940.90
443.24	1039.20
443.43	1029.84
443.61	1015.79
443.80	1057.92
443.98	997.07
444.17	983.02
444.35	1048.56
444.54	1111.75
444.73	1048.56
444.91	990.05
445.10	877.70
445.28	896.43
445.47	1027.50
445.65	884.72
445.84	957.28
446.02	976.00
446.21	1029.84
446.39	957.28
446.58	971.32
446.77	1107.07
446.95	976.00
447.14	1006.43
447.32	1048.56
447.51	1074.31
447.69	1034.52
447.88	959.62
448.06	1027.50
448.25	1013.45
448.43	950.26
448.62	1001.75
448.80	947.92
448.99	1074.31
449.17	1034.52
449.36	950.26
449.54	1067.28
449.73	1076.65
449.91	1090.69
450.10	1078.99
450.28	1181.97
450.46	1181.97
450.65	1217.08
450.83	1125.80
451.02	961.96
451.20	1132.82
451.39	1039.20
451.57	1008.77
451.76	1062.60
451.94	1109.41
452.13	1020.47
452.31	985.37
452.49	987.71
452.68	912.81
452.86	973.66
453.05	1025.15
453.23	978.34
453.42	1046.22
453.60	1034.52
453.78	1123.46
453.97	954.94
454.15	1011.11
454.34	1043.88
454.52	1039.20
454.70	966.64
454.89	1015.79
455.07	1046.22
455.26	1081.33
455.44	1036.86
455.62	1121.12
455.81	1025.15
455.99	999.41
456.17	1097.71
456.36	1160.91
456.54	1039.20
456.73	1100.05
456.91	1137.50
457.09	1156.22
457.28	1203.04
457.46	1067.28
457.64	1137.50
457.83	1039.20
458.01	1027.50
458.19	978.34
458.38	1090.69
458.56	983.02
458.74	1109.41
458.93	1076.65
459.11	1121.12
459.29	1109.41
459.48	1043.88
459.66	1139.84
459.84	1153.88
460.03	1184.31
460.21	1041.54
460.39	1165.59
460.57	1139.84
460.76	1163.25
460.94	1165.59
461.12	1214.74
461.31	1172.61
461.49	1086.01
461.67	1205.38
461.85	1172.61
462.04	1076.65
462.22	1575.18
462.40	1151.54
462.59	1263.89
462.77	1130.48
462.95	1097.71
463.13	1118.78
463.32	1116.44
463.50	1118.78
463.68	1102.39
463.86	1163.25
464.05	1039.20
464.23	1114.10
464.41	1125.80
464.59	1048.56
464.78	1172.61
464.96	1121.12
465.14	1109.41
465.32	1053.24
465.50	1123.46
465.69	1219.42
465.87	1172.61
466.05	1093.03
466.23	1086.01
466.41	1081.33
466.60	1081.33
466.78	999.41
466.96	1078.99
467.14	1034.52
467.32	1196.01
467.51	1109.41
467.69	1076.65
467.87	1118.78
468.05	1081.33
468.23	1221.76
468.41	1076.65
468.60	1095.37
468.78	1156.22
468.96	1043.88
469.14	1090.69
469.32	1011.11
469.50	994.73
469.69	1076.65
469.87	1109.41
470.05	1167.93
470.23	980.68
470.41	1020.47
470.59	1034.52
470.77	1118.78
470.95	1043.88
471.14	1146.86
471.32	1060.26
471.50	1186.65
471.68	1210.06
471.86	1118.78
472.04	1231.12
472.22	1261.55
472.40	1146.86
472.58	1062.60
472.77	1114.10
472.95	1156.22
473.13	1191.33
473.31	1153.88
473.49	1090.69
473.67	1095.37
473.85	1095.37
474.03	1146.86
474.21	1245.16
474.39	1205.38
474.57	1217.08
474.75	1289.64
474.93	1179.63
475.12	1097.71
475.30	1123.46
475.48	1259.21
475.66	1160.91
475.84	1174.95
476.02	1184.31
476.20	1121.12
476.38	1128.14
476.56	1247.51
476.74	1280.27
476.92	1235.80
477.10	1242.82
477.28	1275.59
477.46	1158.57
477.64	1315.38
477.82	1256.87
478.00	1345.81
478.18	1249.85
478.36	1245.16
478.54	1235.80
478.72	1179.63
478.90	1235.80
479.08	1299.00
479.26	1383.26
479.44	1338.79
479.62	1299.00
479.80	1481.56
479.98	1282.61
480.16	1252.19
480.34	1282.61
480.52	1284.95
480.70	1448.79
480.88	1362.19
481.06	1416.02
481.24	1341.13
481.41	1406.66
481.59	1451.13
481.77	1490.92
481.95	1467.52
482.13	1556.46
482.31	1437.09
482.49	1446.45
482.67	1486.24
482.85	1490.92
483.03	1462.83
483.21	1598.59
483.39	1458.15
483.57	1453.47
483.74	1474.54
483.92	1462.83
484.10	1511.99
484.28	1483.90
484.46	1673.48
484.64	1568.16
484.82	1605.61
485.00	1607.95
485.18	1434.75
485.35	1530.71
485.53	1399.64
485.71	1284.95
485.89	1238.14
486.07	1336.45
486.25	1511.99
486.43	1483.90
486.61	1554.12
486.78	1420.71
486.96	1490.92
487.14	1621.99
487.32	1577.52
487.50	1542.41
487.68	1614.97
487.85	1680.50
488.03	1746.04
488.21	1792.85
488.39	1626.67
488.57	1645.40
488.75	1591.56
488.92	1825.62
489.10	1708.59
489.28	1844.34
489.46	1813.92
489.64	1858.39
489.81	1846.68
489.99	1893.49
490.17	1870.09
490.35	1898.17
490.53	1781.15
490.70	1661.78
490.88	1823.28
491.06	1783.49
491.24	1902.86
491.41	1802.21
491.59	1640.72
491.77	1708.59
491.95	1746.04
492.13	1708.59
492.30	1755.40
492.48	1790.51
492.66	1832.64
492.84	1844.34
493.01	1994.14
493.19	1935.62
493.37	1928.60
493.54	1839.66
493.72	1816.26
493.90	1846.68
494.08	1877.11
494.25	1893.49
494.43	2003.50
494.61	2043.29
494.79	1952.01
494.96	2008.18
495.14	1984.77
495.32	1874.77
495.49	1851.36
495.67	1898.17
495.85	2043.29
496.02	2040.95
496.20	2033.93
496.38	1912.22
496.55	1874.77
496.73	2015.20
496.91	1966.05
497.09	2036.27
497.26	2071.37
497.44	2092.44
497.62	2040.95
497.79	1933.28
497.97	1832.64
498.14	1830.30
498.32	1919.24
498.50	2033.93
498.67	2106.48
498.85	2073.71
499.03	1998.82
499.20	2083.08
499.38	2120.53
499.56	2003.50
499.73	1949.67
499.91	1966.05
500.08	1968.39
500.26	1806.89
500.44	1860.73
500.61	1959.03
500.79	1933.28
500.97	1919.24
501.14	1811.57
501.32	1844.34
501.49	1926.26
501.67	1926.26
501.84	1987.11
502.02	1870.09
502.20	1947.33
502.37	1902.86
502.55	1839.66
502.72	1937.96
502.90	2045.63
503.07	1998.82
503.25	1893.49
503.43	1790.51
503.60	1832.64
503.78	1671.14
503.95	1724.97
504.13	1804.55
504.30	2003.50
504.48	2059.67
504.65	1996.48
504.83	1944.99
505.01	1968.39
505.18	1921.58
505.36	2052.65
505.53	1956.69
505.71	2031.58
505.88	2162.66
506.06	2017.54
506.23	2029.24
506.41	2045.63
506.58	2003.50
506.76	2033.93
506.93	1937.96
507.11	1998.82
507.28	2083.08
507.46	1947.33
507.63	1984.77
507.81	1909.88
507.98	1952.01
508.16	1867.75
508.33	2005.84
508.50	2094.78
508.68	2043.29
508.85	2071.37
509.03	2064.35
509.20	2165.00
509.38	1996.48
509.55	1977.75
509.73	1954.35
509.90	2040.95
510.08	1970.73
510.25	2033.93
510.42	2104.14
510.60	2143.93
510.77	2059.67
510.95	2129.89
511.12	2132.23
511.30	2113.50
511.47	2221.17
511.64	2235.21
511.82	2162.66
511.99	2054.99
512.17	2078.40
512.34	2057.33
512.51	2097.12
512.69	2064.35
512.86	2139.25
513.04	2223.51
513.21	1970.73
513.38	2115.84
513.56	2043.29
513.73	1970.73
513.90	2059.67
514.08	2066.69
514.25	1959.03
514.43	2085.42
514.60	2036.27
514.77	2071.37
514.95	2125.21
515.12	2064.35
515.29	2125.21
515.47	2108.82
515.64	2174.36
515.81	2076.06
515.99	2059.67
516.16	1984.77
516.33	1818.60
516.51	1757.74
516.68	1806.89
516.85	1668.80
517.03	1687.53
517.20	1874.77
517.37	1963.71
517.54	2073.71
517.72	2066.69
517.89	1872.43
518.06	1823.28
518.24	1832.64
518.41	1966.05
518.58	1905.20
518.75	1893.49
518.93	2026.90
519.10	1984.77
519.27	2010.52
519.45	2050.31
519.62	2193.08
519.79	2129.89
519.96	2148.61
520.14	2165.00
520.31	2125.21
520.48	2017.54
520.65	1968.39
520.83	2204.78
521.00	2148.61
521.17	2146.27
521.34	2115.84
521.52	2134.57
521.69	2125.21
521.86	2216.49
522.03	2165.00
522.20	2012.86
522.38	1989.46
522.55	2043.29
522.72	1975.41
522.89	2080.74
523.07	2111.16
523.24	2141.59
523.41	2080.74
523.58	2150.95
523.75	2218.83
523.92	2232.87
524.10	2282.02
524.27	2143.93
524.44	2181.38
524.61	2179.04
524.78	2141.59
524.96	2167.34
525.13	2092.44
525.30	2275.00
525.47	2153.29
525.64	2267.98
525.81	2186.06
525.98	2083.08
526.16	1888.81
526.33	1804.55
526.50	1825.62
526.67	1874.77
526.84	1870.09
527.01	1989.46
527.18	2054.99
527.36	2209.47
527.53	2132.23
527.70	2237.55
527.87	2197.76
528.04	2146.27
528.21	2094.78
528.38	2092.44
528.55	2249.25
528.72	2282.02
528.89	2347.56
529.07	2214.15
529.24	2155.63
529.41	2150.95
529.58	2207.13
529.75	2104.14
529.92	2069.03
530.09	2157.97
530.26	2200.10
530.43	2235.21
530.60	2305.43
530.77	2195.42
530.94	2319.47
531.11	2307.77
531.28	2188.40
531.46	2181.38
531.63	2197.76
531.80	2125.21
531.97	2134.57
532.14	2134.57
532.31	2057.33
532.48	1956.69
532.65	2057.33
532.82	2134.57
532.99	2186.06
533.16	2129.89
533.33	2253.94
533.50	2139.25
533.67	2132.23
533.84	2277.34
534.01	2209.47
534.18	2141.59
534.35	2090.10
534.52	2296.07
534.69	2136.91
534.86	2155.63
535.03	2127.55
535.20	2223.51
535.37	2328.83
535.54	2326.49
535.71	2150.95
535.88	2303.09
536.05	2207.13
536.22	2246.91
536.38	2239.89
536.55	2111.16
536.72	2108.82
536.89	2076.06
537.06	2197.76
537.23	2204.78
537.40	2279.68
537.57	2197.76
537.74	2251.60
537.91	2148.61
538.08	2345.22
538.25	2342.88
538.42	2209.47
538.59	2340.54
538.75	2172.02
538.92	2230.53
539.09	2179.04
539.26	2202.44
539.43	2176.70
539.60	2272.66
539.77	2244.57
539.94	2303.09
540.11	2286.70
540.28	2249.25
540.44	2242.23
540.61	2279.68
540.78	2363.94
540.95	2478.63
541.12	2567.57
541.29	2733.75
541.46	2818.00
541.62	2909.29
541.79	2754.81
541.96	2752.47
542.13	2644.81
542.30	2590.97
542.47	2703.32
542.63	2506.71
542.80	2609.70
542.97	2616.72
543.14	2619.06
543.31	2541.82
543.48	2651.83
543.64	2633.10
543.81	2684.59
543.98	2813.32
544.15	2576.93
544.32	2476.29
544.48	2560.55
544.65	2614.38
544.82	2616.72
544.99	2597.99
545.16	2668.21
545.32	2663.53
545.49	3012.27
545.66	3620.81
545.83	4018.70
546.00	3693.37
546.16	3143.34
546.33	2773.53
546.50	2626.08
546.67	2614.38
546.83	2387.35
547.00	2490.33
547.17	2382.67
547.34	2394.37
547.50	2307.77
547.67	2251.60
547.84	2366.28
548.00	2373.30
548.17	2303.09
548.34	2359.26
548.51	2380.32
548.67	2249.25
548.84	2478.63
549.01	2314.79
549.18	2382.67
549.34	2289.04
549.51	2289.04
549.68	2275.00
549.84	2253.94
550.01	2340.54
550.18	2429.48
550.34	2237.55
550.51	2223.51
550.68	2186.06
550.84	2228.19
551.01	2136.91
551.18	2235.21
551.34	2263.30
551.51	2193.08
551.68	2214.15
551.84	2305.43
552.01	2258.62
552.18	2195.42
552.34	2132.23
552.51	2179.04
552.68	2113.50
552.84	2176.70
553.01	2078.40
553.18	2193.08
553.34	2157.97
553.51	2216.49
553.67	2132.23
553.84	2195.42
554.01	2033.93
554.17	2148.61
554.34	2101.80
554.51	2186.06
554.67	2099.46
554.84	2139.25
555.00	2080.74
555.17	2141.59
555.33	2045.63
555.50	2115.84
555.67	2071.37
555.83	2083.08
556.00	1994.14
556.16	2267.98
556.33	2064.35
556.50	1989.46
556.66	1994.14
556.83	1898.17
556.99	1994.14
557.16	2017.54
557.32	2064.35
557.49	2108.82
557.65	2059.67
557.82	2043.29
557.98	2003.50
558.15	1996.48
558.32	2005.84
558.48	1923.92
558.65	1977.75
558.81	1881.79
558.98	1949.67
559.14	1893.49
559.31	1853.70
559.47	1994.14
559.64	1785.83
559.80	1839.66
559.97	1797.53
560.13	1916.90
560.30	1921.58
560.46	2019.88
560.63	1970.73
560.79	2101.80
560.96	1996.48
561.12	1973.07
561.29	1902.86
561.45	1970.73
561.61	2043.29
561.78	2024.56
561.94	1879.45
562.11	2017.54
562.27	1921.58
562.44	1886.47
562.60	2026.90
562.77	1961.37
562.93	1905.20
563.10	2015.20
563.26	1888.81
563.42	2017.54
563.59	1902.86
563.75	1914.56
563.92	1947.33
564.08	1973.07
564.24	1963.71
564.41	2118.18
564.57	1891.15
564.74	1954.35
564.90	1942.64
565.07	1996.48
565.23	1900.52
565.39	1858.39
565.56	1713.27
565.72	1736.68
565.88	1952.01
566.05	1825.62
566.21	1844.34
566.38	1886.47
566.54	1764.76
566.70	1874.77
566.87	1919.24
567.03	1870.09
567.19	1863.07
567.36	1818.60
567.52	1802.21
567.68	1802.21
567.85	1849.02
568.01	1708.59
568.17	1767.10
568.34	1727.32
568.50	1813.92
568.66	1696.89
568.83	1762.42
568.99	1837.32
569.15	1872.43
569.32	1834.98
569.48	1680.50
569.64	1706.25
569.81	1802.21
569.97	1757.74
570.13	1853.70
570.30	1781.15
570.46	1689.87
570.62	1729.66
570.78	1701.57
570.95	1584.54
571.11	1776.47
571.27	1682.85
571.43	1750.72
571.60	1802.21
571.76	1755.40
571.92	1727.32
572.09	1689.87
572.25	1694.55
572.41	1872.43
572.57	1849.02
572.74	1746.04
572.90	1757.74
573.06	1638.38
573.22	1853.70
573.38	1771.79
573.55	1799.87
573.71	1753.06
573.87	1650.08
574.03	1598.59
574.20	1650.08
574.36	1739.02
574.52	1743.70
574.68	1750.72
574.84	1753.06
575.01	1689.87
575.17	1806.89
575.33	1717.95
575.49	1696.89
575.65	1746.04
575.82	1680.50
575.98	1701.57
576.14	1699.23
576.30	1783.49
576.46	1921.58
576.62	1968.39
576.79	2113.50
576.95	2001.16
577.11	1785.83
577.27	1888.81
577.43	1724.97
577.59	1715.61
577.75	1664.12
577.92	1647.74
578.08	1696.89
578.24	1647.74
578.40	1743.70
578.56	1877.11
578.72	2022.22
578.88	2038.61
579.04	1952.01
579.21	1874.77
579.37	1928.60
579.53	1769.44
579.69	1689.87
579.85	1783.49
580.01	1912.22
580.17	1806.89
580.33	1886.47
580.49	1827.96
580.65	1783.49
580.82	1816.26
580.98	1739.02
581.14	1755.40
581.30	1778.81
581.46	1696.89
581.62	1717.95
581.78	1739.02
581.94	1886.47
582.10	1820.94
582.26	1785.83
582.42	1797.53
582.58	1729.66
582.74	1900.52
582.90	1919.24
583.06	1963.71
583.22	1806.89
583.38	1834.98
583.54	1804.55
583.70	1849.02
583.86	1837.32
584.02	1788.17
584.18	1905.20
584.34	1750.72
584.50	1853.70
584.66	1797.53
584.82	1806.89
584.98	1832.64
585.14	1664.12
585.30	1621.99
585.46	1743.70
585.62	1680.50
585.78	1668.80
585.94	1724.97
586.10	1746.04
586.26	1802.21
586.42	1732.00
586.58	1858.39
586.74	1746.04
586.90	1816.26
587.06	1732.00
587.22	1792.85
587.38	1724.97
587.54	1724.97
587.70	1682.85
587.86	1593.90
588.02	1460.49
588.18	1502.62
588.34	1497.94
588.49	1348.15
588.65	1242.82
588.81	1259.21
588.97	1170.27
589.13	1313.04
589.29	1263.89
589.45	1282.61
589.61	1362.19
589.77	1404.32
589.93	1313.04
590.08	1317.72
590.24	1462.83
590.40	1416.02
590.56	1472.20
590.72	1460.49
590.88	1448.79
591.04	1474.54
591.20	1413.68
591.35	1420.71
591.51	1423.05
591.67	1291.98
591.83	1453.47
591.99	1509.65
592.15	1437.09
592.31	1511.99
592.46	1533.05
592.62	1561.14
592.78	1561.14
592.94	1673.48
593.10	1455.81
593.26	1596.25
593.41	1689.87
593.57	1469.86
593.73	1418.36
593.89	1444.11
594.05	1390.28
594.20	1378.58
594.36	1301.34
594.52	1217.08
594.68	1287.29
594.84	1441.77
594.99	1439.43
595.15	1441.77
595.31	1483.90
595.47	1495.60
595.62	1397.30
595.78	1519.01
595.94	1521.35
596.10	1448.79
596.25	1418.36
596.41	1437.09
596.57	1469.86
596.73	1476.88
596.88	1490.92
597.04	1514.33
597.20	1404.32
597.36	1383.26
597.51	1504.96
597.67	1441.77
597.83	1523.69
597.99	1526.03
598.14	1561.14
598.30	1444.11
598.46	1511.99
598.61	1481.56
598.77	1460.49
598.93	1589.22
599.09	1528.37
599.24	1664.12
599.40	1614.97
599.56	1521.35
599.71	1584.54
599.87	1465.18
600.03	1544.75
600.18	1540.07
600.34	1521.35
600.50	1453.47
600.65	1526.03
