SpectraSuite Data File
++++++++++++++++++++++++++++++++++++
Date: Fri Oct 04 11:44:21 GMT-05:00 2013
User: price-jones
Dark Spectrum Present: No
Reference Spectrum Present: No
Number of Sampled Component Spectra: 1
Spectrometers: USB2+H05261
Integration Time (usec): 100000 (USB2+H05261)
Spectra Averaged: 1 (USB2+H05261)
Boxcar Smoothing: 0 (USB2+H05261)
Correct for Electrical Dark: No (USB2+H05261)
Strobe/Lamp Enabled: No (USB2+H05261)
Correct for Detector Non-linearity: No (USB2+H05261)
Correct for Stray Light: No (USB2+H05261)
Number of Pixels in Processed Spectrum: 2048
>>>>>Begin Processed Spectral Data<<<<<
365.73	14.04
365.92	14.04
366.12	14.04
366.32	0.00
366.52	0.00
366.72	0.00
366.91	0.00
367.11	0.00
367.31	0.00
367.51	0.00
367.70	0.00
367.90	0.00
368.10	0.00
368.30	0.00
368.49	0.00
368.69	23.41
368.89	0.00
369.09	0.00
369.28	23.41
369.48	7.02
369.68	0.00
369.87	23.41
370.07	0.00
370.27	4.68
370.47	46.81
370.66	95.96
370.86	159.16
371.06	173.20
371.25	227.03
371.45	135.75
371.65	220.01
371.84	131.07
372.04	126.39
372.24	189.58
372.44	173.20
372.63	194.26
372.83	227.03
373.03	182.56
373.22	198.95
373.42	248.10
373.62	149.79
373.81	196.60
374.01	149.79
374.21	182.56
374.40	212.99
374.60	177.88
374.79	212.99
374.99	294.91
375.19	271.50
375.38	243.42
375.58	166.18
375.78	327.68
375.97	234.05
376.17	278.52
376.37	212.99
376.56	250.44
376.76	306.61
376.95	135.75
377.15	304.27
377.35	262.14
377.54	287.89
377.74	297.25
377.93	250.44
378.13	276.18
378.33	273.84
378.52	271.50
378.72	243.42
378.91	334.70
379.11	217.67
379.31	271.50
379.50	205.97
379.70	285.55
379.89	334.70
380.09	236.39
380.28	283.20
380.48	215.33
380.68	255.12
380.87	212.99
381.07	241.08
381.26	290.23
381.46	301.93
381.65	332.36
381.85	222.35
382.04	117.03
382.24	208.31
382.43	241.08
382.63	203.63
382.83	227.03
383.02	252.78
383.22	285.55
383.41	201.29
383.61	184.90
383.80	163.84
384.00	234.05
384.19	234.05
384.39	205.97
384.58	339.38
384.78	299.59
384.97	365.12
385.17	325.33
385.36	201.29
385.56	276.18
385.75	152.13
385.95	222.35
386.14	273.84
386.34	283.20
386.53	308.95
386.72	175.54
386.92	285.55
387.11	285.55
387.31	252.78
387.50	271.50
387.70	304.27
387.89	241.08
388.09	301.93
388.28	294.91
388.48	287.89
388.67	367.46
388.86	313.63
389.06	278.52
389.25	327.68
389.45	292.57
389.64	301.93
389.84	339.38
390.03	344.06
390.22	360.44
390.42	374.49
390.61	339.38
390.81	276.18
391.00	318.31
391.19	306.61
391.39	306.61
391.58	397.89
391.78	276.18
391.97	341.72
392.16	287.89
392.36	264.48
392.55	248.10
392.75	215.33
392.94	217.67
393.13	212.99
393.33	168.52
393.52	285.55
393.71	294.91
393.91	227.03
394.10	266.82
394.29	353.42
394.49	362.78
394.68	383.85
394.88	271.50
395.07	470.45
395.26	362.78
395.46	374.49
395.65	365.12
395.84	397.89
396.04	351.08
396.23	215.33
396.42	203.63
396.62	278.52
396.81	243.42
397.00	330.02
397.19	315.97
397.39	327.68
397.58	430.66
397.77	355.76
397.97	414.27
398.16	484.49
398.35	463.43
398.55	484.49
398.74	416.62
398.93	465.77
399.12	500.87
399.32	421.30
399.51	423.64
399.70	498.53
399.90	547.69
400.09	514.92
400.28	552.37
400.47	517.26
400.67	493.85
400.86	482.15
401.05	454.06
401.24	512.58
401.44	503.22
401.63	521.94
401.82	557.05
402.01	500.87
402.21	573.43
402.40	524.28
402.59	461.09
402.78	482.15
402.97	486.83
403.17	435.34
403.36	578.11
403.55	496.19
403.74	559.39
403.93	634.29
404.13	695.14
404.32	720.88
404.51	568.75
404.70	627.26
404.89	550.03
405.09	573.43
405.28	554.71
405.47	477.47
405.66	503.22
405.85	517.26
406.05	458.74
406.24	465.77
406.43	472.79
406.62	573.43
406.81	566.41
407.00	491.51
407.20	493.85
407.39	535.98
407.58	608.54
407.77	624.92
407.96	564.07
408.15	578.11
408.34	545.34
408.54	631.94
408.73	505.56
408.92	606.20
409.11	599.18
409.30	543.00
409.49	475.13
409.68	543.00
409.87	589.82
410.07	543.00
410.26	472.79
410.45	524.28
410.64	568.75
410.83	557.05
411.02	613.22
411.21	641.31
411.40	617.90
411.59	706.84
411.78	620.24
411.98	683.44
412.17	662.37
412.36	636.63
412.55	613.22
412.74	561.73
412.93	755.99
413.12	575.77
413.31	610.88
413.50	730.25
413.69	662.37
413.88	624.92
414.07	678.76
414.26	594.50
414.45	657.69
414.64	573.43
414.83	730.25
415.02	655.35
415.22	552.37
415.41	629.60
415.60	664.71
415.79	695.14
415.98	648.33
416.17	629.60
416.36	641.31
416.55	603.86
416.74	655.35
416.93	688.12
417.12	638.97
417.31	615.56
417.50	695.14
417.69	690.46
417.88	718.54
418.07	699.82
418.26	716.20
418.45	655.35
418.64	723.23
418.83	741.95
419.02	662.37
419.21	678.76
419.39	697.48
419.58	615.56
419.77	660.03
419.96	671.73
420.15	678.76
420.34	664.71
420.53	777.06
420.72	734.93
420.91	788.76
421.10	755.99
421.29	709.18
421.48	741.95
421.67	774.72
421.86	671.73
422.05	713.86
422.24	545.34
422.43	664.71
422.61	610.88
422.80	620.24
422.99	699.82
423.18	681.10
423.37	648.33
423.56	664.71
423.75	739.61
423.94	643.65
424.13	711.52
424.32	660.03
424.50	702.16
424.69	669.39
424.88	671.73
425.07	674.07
425.26	688.12
425.45	704.50
425.64	645.99
425.83	692.80
426.01	716.20
426.20	683.44
426.39	711.52
426.58	592.16
426.77	554.71
426.96	627.26
427.15	638.97
427.33	685.78
427.52	732.59
427.71	603.86
427.90	730.25
428.09	624.92
428.28	662.37
428.46	627.26
428.65	641.31
428.84	629.60
429.03	704.50
429.22	667.05
429.40	547.69
429.59	603.86
429.78	601.52
429.97	435.34
430.16	594.50
430.34	550.03
430.53	421.30
430.72	585.13
430.91	587.47
431.10	615.56
431.28	674.07
431.47	770.04
431.66	791.10
431.85	662.37
432.03	655.35
432.22	706.84
432.41	695.14
432.60	671.73
432.79	770.04
432.97	800.46
433.16	711.52
433.35	725.57
433.54	711.52
433.72	601.52
433.91	641.31
434.10	681.10
434.28	685.78
434.47	863.66
434.66	795.78
434.85	802.80
435.03	943.24
435.22	1259.21
435.41	1776.47
435.59	1727.32
435.78	1441.77
435.97	1043.88
436.16	933.87
436.34	805.14
436.53	784.08
436.72	781.74
436.90	767.70
437.09	713.86
437.28	730.25
437.46	706.84
437.65	812.17
437.84	763.01
438.02	711.52
438.21	737.27
438.40	671.73
438.58	777.06
438.77	704.50
438.96	751.31
439.14	798.12
439.33	755.99
439.52	858.98
439.70	877.70
439.89	746.63
440.08	784.08
440.26	713.86
440.45	861.32
440.63	894.08
440.82	898.77
441.01	851.96
441.19	837.91
441.38	884.72
441.57	873.02
441.75	926.85
441.94	903.45
442.12	905.79
442.31	882.38
442.50	968.98
442.68	957.28
442.87	849.61
443.05	933.87
443.24	999.41
443.43	861.32
443.61	933.87
443.80	943.24
443.98	851.96
444.17	821.53
444.35	901.11
444.54	851.96
444.73	866.00
444.91	933.87
445.10	840.25
445.28	800.46
445.47	823.87
445.65	720.88
445.84	875.36
446.02	912.81
446.21	919.83
446.39	828.55
446.58	884.72
446.77	901.11
446.95	971.32
447.14	992.39
447.32	994.73
447.51	964.30
447.69	910.47
447.88	940.90
448.06	980.68
448.25	837.91
448.43	936.21
448.62	919.83
448.80	997.07
448.99	905.79
449.17	959.62
449.36	917.49
449.54	947.92
449.73	1015.79
449.91	983.02
450.10	1020.47
450.28	1074.31
450.46	1048.56
450.65	1004.09
450.83	994.73
451.02	966.64
451.20	945.58
451.39	938.55
451.57	833.23
451.76	994.73
451.94	1008.77
452.13	922.17
452.31	926.85
452.49	849.61
452.68	891.74
452.86	880.04
453.05	957.28
453.23	887.06
453.42	919.83
453.60	919.83
453.78	985.37
453.97	891.74
454.15	896.43
454.34	868.34
454.52	943.24
454.70	1022.81
454.89	994.73
455.07	873.02
455.26	945.58
455.44	990.05
455.62	997.07
455.81	1013.45
455.99	1034.52
456.17	1029.84
456.36	1022.81
456.54	983.02
456.73	1062.60
456.91	922.17
457.09	1015.79
457.28	1078.99
457.46	945.58
457.64	1006.43
457.83	898.77
458.01	933.87
458.19	1015.79
458.38	954.94
458.56	968.98
458.74	1006.43
458.93	1008.77
459.11	1020.47
459.29	973.66
459.48	976.00
459.66	997.07
459.84	987.71
460.03	1015.79
460.21	966.64
460.39	968.98
460.57	1078.99
460.76	994.73
460.94	1006.43
461.12	1069.62
461.31	1011.11
461.49	1025.15
461.67	1046.22
461.85	1008.77
462.04	915.15
462.22	1540.07
462.40	1153.88
462.59	1090.69
462.77	997.07
462.95	1015.79
463.13	929.19
463.32	1088.35
463.50	1036.86
463.68	980.68
463.86	1060.26
464.05	966.64
464.23	985.37
464.41	1034.52
464.59	924.51
464.78	1011.11
464.96	1015.79
465.14	938.55
465.32	992.39
465.50	1034.52
465.69	1055.58
465.87	924.51
466.05	1011.11
466.23	903.45
466.41	966.64
466.60	1067.28
466.78	1022.81
466.96	999.41
467.14	997.07
467.32	1043.88
467.51	1004.09
467.69	1086.01
467.87	1015.79
468.05	971.32
468.23	1036.86
468.41	1095.37
468.60	954.94
468.78	1081.33
468.96	945.58
469.14	1036.86
469.32	964.30
469.50	1001.75
469.69	983.02
469.87	992.39
470.05	1029.84
470.23	910.47
470.41	943.24
470.59	1041.54
470.77	1039.20
470.95	980.68
471.14	1107.07
471.32	1036.86
471.50	1172.61
471.68	1006.43
471.86	1118.78
472.04	961.96
472.22	1139.84
472.40	1022.81
472.58	915.15
472.77	978.34
472.95	1006.43
473.13	1128.14
473.31	1032.18
473.49	1034.52
473.67	1053.24
473.85	1179.63
474.03	1064.94
474.21	1170.27
474.39	1170.27
474.57	1163.25
474.75	1137.50
474.93	1128.14
475.12	1067.28
475.30	1095.37
475.48	1121.12
475.66	1196.01
475.84	1020.47
476.02	1043.88
476.20	976.00
476.38	1053.24
476.56	1116.44
476.74	1163.25
476.92	1125.80
477.10	1153.88
477.28	1163.25
477.46	1156.22
477.64	1275.59
477.82	1149.20
478.00	1151.54
478.18	1137.50
478.36	1086.01
478.54	1217.08
478.72	1179.63
478.90	1299.00
479.08	1294.32
479.26	1165.59
479.44	1165.59
479.62	1181.97
479.80	1205.38
479.98	1217.08
480.16	1252.19
480.34	1247.51
480.52	1270.91
480.70	1193.67
480.88	1270.91
481.06	1186.65
481.24	1219.42
481.41	1238.14
481.59	1320.06
481.77	1289.64
481.95	1275.59
482.13	1270.91
482.31	1310.70
482.49	1362.19
482.67	1350.49
482.85	1376.24
483.03	1343.47
483.21	1338.79
483.39	1441.77
483.57	1334.11
483.74	1420.71
483.92	1294.32
484.10	1334.11
484.28	1432.41
484.46	1458.15
484.64	1474.54
484.82	1387.94
485.00	1416.02
485.18	1418.36
485.35	1331.76
485.53	1210.06
485.71	1193.67
485.89	1153.88
486.07	1240.48
486.25	1310.70
486.43	1303.68
486.61	1516.67
486.78	1364.53
486.96	1329.42
487.14	1380.92
487.32	1455.81
487.50	1504.96
487.68	1584.54
487.85	1572.84
488.03	1549.43
488.21	1591.56
488.39	1483.90
488.57	1516.67
488.75	1472.20
488.92	1820.94
489.10	1568.16
489.28	1614.97
489.46	1706.25
489.64	1757.74
489.81	1685.19
489.99	1612.63
490.17	1629.01
490.35	1769.44
490.53	1710.93
490.70	1629.01
490.88	1717.95
491.06	1783.49
491.24	1802.21
491.41	1542.41
491.59	1659.44
491.77	1547.09
491.95	1643.06
492.13	1612.63
492.30	1619.65
492.48	1715.61
492.66	1750.72
492.84	1673.48
493.01	1806.89
493.19	1743.70
493.37	1654.76
493.54	1584.54
493.72	1760.08
493.90	1753.06
494.08	1811.57
494.25	1734.34
494.43	1839.66
494.61	1832.64
494.79	1858.39
494.96	1837.32
495.14	1724.97
495.32	1750.72
495.49	1715.61
495.67	1767.10
495.85	1851.36
496.02	1923.92
496.20	1781.15
496.38	1849.02
496.55	1842.00
496.73	1905.20
496.91	1820.94
497.09	1832.64
497.26	1886.47
497.44	1837.32
497.62	1813.92
497.79	1806.89
497.97	1785.83
498.14	1703.91
498.32	1781.15
498.50	1834.98
498.67	1783.49
498.85	1928.60
499.03	2008.18
499.20	1909.88
499.38	1863.07
499.56	1715.61
499.73	1921.58
499.91	1830.30
500.08	1654.76
500.26	1792.85
500.44	1741.36
500.61	1863.07
500.79	1675.82
500.97	1820.94
501.14	1755.40
501.32	1734.34
501.49	1708.59
501.67	1703.91
501.84	1830.30
502.02	1792.85
502.20	1853.70
502.37	1860.73
502.55	1727.32
502.72	1860.73
502.90	1944.99
503.07	1750.72
503.25	1743.70
503.43	1717.95
503.60	1692.21
503.78	1650.08
503.95	1673.48
504.13	1724.97
504.30	1820.94
504.48	1844.34
504.65	1778.81
504.83	1799.87
505.01	1914.56
505.18	1818.60
505.36	1872.43
505.53	1837.32
505.71	1942.64
505.88	1907.54
506.06	2012.86
506.23	1776.47
506.41	1832.64
506.58	1902.86
506.76	1844.34
506.93	1823.28
507.11	1858.39
507.28	1788.17
507.46	1769.44
507.63	1771.79
507.81	1832.64
507.98	1783.49
508.16	1872.43
508.33	1874.77
508.50	1947.33
508.68	1860.73
508.85	1947.33
509.03	1919.24
509.20	1949.67
509.38	1916.90
509.55	1851.36
509.73	1926.26
509.90	1942.64
510.08	1968.39
510.25	1944.99
510.42	1928.60
510.60	1853.70
510.77	1935.62
510.95	1923.92
511.12	1987.11
511.30	2062.01
511.47	2059.67
511.64	1966.05
511.82	1996.48
511.99	1881.79
512.17	1907.54
512.34	1870.09
512.51	1881.79
512.69	2040.95
512.86	1886.47
513.04	1930.94
513.21	1937.96
513.38	1963.71
513.56	1881.79
513.73	1710.93
513.90	1839.66
514.08	1795.19
514.25	1858.39
514.43	2015.20
514.60	1963.71
514.77	1877.11
514.95	1895.83
515.12	1977.75
515.29	2005.84
515.47	1928.60
515.64	1881.79
515.81	1872.43
515.99	2008.18
516.16	2012.86
516.33	1851.36
516.51	1629.01
516.68	1657.10
516.85	1633.69
517.03	1624.33
517.20	1767.10
517.37	1837.32
517.54	1895.83
517.72	1914.56
517.89	1727.32
518.06	1626.67
518.24	1689.87
518.41	1771.79
518.58	1874.77
518.75	1823.28
518.93	1912.22
519.10	1820.94
519.27	1834.98
519.45	1884.13
519.62	1893.49
519.79	1933.28
519.96	1872.43
520.14	1961.37
520.31	1905.20
520.48	1788.17
520.65	1870.09
520.83	1984.77
521.00	1977.75
521.17	1975.41
521.34	1867.75
521.52	1970.73
521.69	1975.41
521.86	1935.62
522.03	2099.46
522.20	1940.30
522.38	1724.97
522.55	1820.94
522.72	1870.09
522.89	1872.43
523.07	1963.71
523.24	1933.28
523.41	1839.66
523.58	1902.86
523.75	2062.01
523.92	1968.39
524.10	1963.71
524.27	2045.63
524.44	1994.14
524.61	2057.33
524.78	1886.47
524.96	1926.26
525.13	2057.33
525.30	1895.83
525.47	2122.87
525.64	1984.77
525.81	1888.81
525.98	1902.86
526.16	1886.47
526.33	1755.40
526.50	1710.93
526.67	1755.40
526.84	1762.42
527.01	1806.89
527.18	1853.70
527.36	1942.64
527.53	1982.43
527.70	1858.39
527.87	1902.86
528.04	1975.41
528.21	1844.34
528.38	1984.77
528.55	2043.29
528.72	2071.37
528.89	2085.42
529.07	2083.08
529.24	2029.24
529.41	1921.58
529.58	1856.04
529.75	1867.75
529.92	2005.84
530.09	2047.97
530.26	2062.01
530.43	2050.31
530.60	1998.82
530.77	2036.27
530.94	2092.44
531.11	2115.84
531.28	1886.47
531.46	2029.24
531.63	1954.35
531.80	2012.86
531.97	1921.58
532.14	2026.90
532.31	1952.01
532.48	1849.02
532.65	1914.56
532.82	1980.09
532.99	1905.20
533.16	2108.82
533.33	2036.27
533.50	2087.76
533.67	2115.84
533.84	1935.62
534.01	1937.96
534.18	1860.73
534.35	1980.09
534.52	1928.60
534.69	2026.90
534.86	2085.42
535.03	2094.78
535.20	1998.82
535.37	2195.42
535.54	2029.24
535.71	2043.29
535.88	2188.40
536.05	2038.61
536.22	2143.93
536.38	1984.77
536.55	1919.24
536.72	1912.22
536.89	1895.83
537.06	1930.94
537.23	2071.37
537.40	2012.86
537.57	2113.50
537.74	2078.40
537.91	2246.91
538.08	2127.55
538.25	2057.33
538.42	2097.12
538.59	2157.97
538.75	2209.47
538.92	2118.18
539.09	2165.00
539.26	2029.24
539.43	2083.08
539.60	2076.06
539.77	2080.74
539.94	2223.51
540.11	2265.64
540.28	2265.64
540.44	2321.81
540.61	2221.17
540.78	2452.88
540.95	2455.22
541.12	2829.71
541.29	2663.53
541.46	2705.66
541.62	2722.04
541.79	2785.24
541.96	2710.34
542.13	2661.19
542.30	2708.00
542.47	2752.47
542.63	2574.59
542.80	2644.81
542.97	2633.10
543.14	2539.48
543.31	2593.31
543.48	2574.59
543.64	2698.64
543.81	2708.00
543.98	2621.40
544.15	2605.02
544.32	2509.05
544.48	2569.91
544.65	2523.10
544.82	2616.72
544.99	2569.91
545.16	2546.50
545.32	2670.55
545.49	3159.72
545.66	3962.53
545.83	4308.93
546.00	3964.87
546.16	3258.03
546.33	2920.99
546.50	2658.85
546.67	2539.48
546.83	2513.74
547.00	2427.14
547.17	2312.45
547.34	2312.45
547.50	2277.34
547.67	2270.32
547.84	2244.57
548.00	2223.51
548.17	2422.45
548.34	2115.84
548.51	2296.07
548.67	2267.98
548.84	2129.89
549.01	2289.04
549.18	2230.53
549.34	2113.50
549.51	2230.53
549.68	2237.55
549.84	2172.02
550.01	2090.10
550.18	2183.72
550.34	2101.80
550.51	2134.57
550.68	2122.87
550.84	2045.63
551.01	2057.33
551.18	2108.82
551.34	2062.01
551.51	2047.97
551.68	2111.16
551.84	2139.25
552.01	2062.01
552.18	2050.31
552.34	1987.11
552.51	2036.27
552.68	1956.69
552.84	1921.58
553.01	1984.77
553.18	1933.28
553.34	1968.39
553.51	1891.15
553.67	1940.30
553.84	2071.37
554.01	1963.71
554.17	2024.56
554.34	1977.75
554.51	1933.28
554.67	1970.73
554.84	2012.86
555.00	1987.11
555.17	1888.81
555.33	1898.17
555.50	2005.84
555.67	1856.04
555.83	1849.02
556.00	1863.07
556.16	2008.18
556.33	1867.75
556.50	1839.66
556.66	1853.70
556.83	1926.26
556.99	1881.79
557.16	1916.90
557.32	1816.26
557.49	1879.45
557.65	1736.68
557.82	1860.73
557.98	1827.96
558.15	1783.49
558.32	1802.21
558.48	1750.72
558.65	1710.93
558.81	1771.79
558.98	1696.89
559.14	1706.25
559.31	1818.60
559.47	1816.26
559.64	1781.15
559.80	1884.13
559.97	1872.43
560.13	1863.07
560.30	1907.54
560.46	1778.81
560.63	1701.57
560.79	1727.32
560.96	1701.57
561.12	1741.36
561.29	1774.13
561.45	1746.04
561.61	1762.42
561.78	1858.39
561.94	1820.94
562.11	1764.76
562.27	1802.21
562.44	1762.42
562.60	1790.51
562.77	1785.83
562.93	1898.17
563.10	1783.49
563.26	1830.30
563.42	1799.87
563.59	1792.85
563.75	1729.66
563.92	1743.70
564.08	1783.49
564.24	1680.50
564.41	1877.11
564.57	1741.36
564.74	1809.23
564.90	1811.57
565.07	1727.32
565.23	1671.14
565.39	1591.56
565.56	1671.14
565.72	1551.78
565.88	1692.21
566.05	1668.80
566.21	1727.32
566.38	1647.74
566.54	1724.97
566.70	1703.91
566.87	1708.59
567.03	1713.27
567.19	1696.89
567.36	1715.61
567.52	1675.82
567.68	1661.78
567.85	1743.70
568.01	1673.48
568.17	1607.95
568.34	1575.18
568.50	1610.29
568.66	1551.78
568.83	1610.29
568.99	1593.90
569.15	1624.33
569.32	1579.86
569.48	1629.01
569.64	1533.05
569.81	1652.42
569.97	1633.69
570.13	1652.42
570.30	1593.90
570.46	1591.56
570.62	1572.84
570.78	1589.22
570.95	1479.22
571.11	1647.74
571.27	1694.55
571.43	1542.41
571.60	1689.87
571.76	1528.37
571.92	1596.25
572.09	1591.56
572.25	1654.76
572.41	1612.63
572.57	1591.56
572.74	1647.74
572.90	1572.84
573.06	1547.09
573.22	1486.24
573.38	1619.65
573.55	1629.01
573.71	1582.20
573.87	1514.33
574.03	1575.18
574.20	1610.29
574.36	1540.07
574.52	1551.78
574.68	1509.65
574.84	1605.61
575.01	1502.62
575.17	1511.99
575.33	1586.88
575.49	1558.80
575.65	1584.54
575.82	1591.56
575.98	1570.50
576.14	1612.63
576.30	1664.12
576.46	1853.70
576.62	1888.81
576.79	2015.20
576.95	1872.43
577.11	1736.68
577.27	1610.29
577.43	1493.26
577.59	1619.65
577.75	1591.56
577.92	1554.12
578.08	1465.18
578.24	1465.18
578.40	1547.09
578.56	1811.57
578.72	1842.00
578.88	1963.71
579.04	1858.39
579.21	1724.97
579.37	1757.74
579.53	1671.14
579.69	1715.61
579.85	1706.25
580.01	1837.32
580.17	1722.63
580.33	1727.32
580.49	1659.44
580.65	1746.04
580.82	1657.10
580.98	1645.40
581.14	1556.46
581.30	1675.82
581.46	1680.50
581.62	1762.42
581.78	1577.52
581.94	1778.81
582.10	1741.36
582.26	1678.16
582.42	1727.32
582.58	1778.81
582.74	1706.25
582.90	1797.53
583.06	1823.28
583.22	1769.44
583.38	1687.53
583.54	1715.61
583.70	1708.59
583.86	1687.53
584.02	1680.50
584.18	1724.97
584.34	1715.61
584.50	1689.87
584.66	1598.59
584.82	1668.80
584.98	1727.32
585.14	1699.23
585.30	1614.97
585.46	1565.82
585.62	1495.60
585.78	1636.03
585.94	1610.29
586.10	1535.39
586.26	1708.59
586.42	1631.35
586.58	1717.95
586.74	1795.19
586.90	1816.26
587.06	1760.08
587.22	1736.68
587.38	1680.50
587.54	1781.15
587.70	1624.33
587.86	1547.09
588.02	1387.94
588.18	1523.69
588.34	1387.94
588.49	1313.04
588.65	1289.64
588.81	1263.89
588.97	1107.07
589.13	1214.74
589.29	1193.67
589.45	1144.52
589.61	1151.54
589.77	1275.59
589.93	1226.44
590.08	1308.36
590.24	1334.11
590.40	1458.15
590.56	1413.68
590.72	1343.47
590.88	1387.94
591.04	1320.06
591.20	1420.71
591.35	1416.02
591.51	1425.39
591.67	1343.47
591.83	1385.60
591.99	1409.00
592.15	1373.89
592.31	1502.62
592.46	1526.03
592.62	1540.07
592.78	1462.83
592.94	1497.94
593.10	1547.09
593.26	1439.43
593.41	1621.99
593.57	1535.39
593.73	1387.94
593.89	1306.02
594.05	1280.27
594.20	1233.46
594.36	1238.14
594.52	1275.59
594.68	1266.23
594.84	1296.66
594.99	1399.64
595.15	1387.94
595.31	1411.34
595.47	1341.13
595.62	1303.68
595.78	1371.55
595.94	1425.39
596.10	1383.26
596.25	1437.09
596.41	1331.76
596.57	1320.06
596.73	1310.70
596.88	1453.47
597.04	1373.89
597.20	1462.83
597.36	1364.53
597.51	1387.94
597.67	1404.32
597.83	1366.87
597.99	1418.36
598.14	1390.28
598.30	1355.17
598.46	1317.72
598.61	1366.87
598.77	1394.96
598.93	1299.00
599.09	1481.56
599.24	1504.96
599.40	1458.15
599.56	1371.55
599.71	1394.96
599.87	1425.39
600.03	1369.21
600.18	1432.41
600.34	1327.08
600.50	1483.90
600.65	1425.39
600.81	1446.45
600.97	1397.30
601.12	1432.41
601.28	1430.07
601.44	1373.89
