SpectraSuite Data File
++++++++++++++++++++++++++++++++++++
Date: Fri Oct 04 11:44:17 GMT-05:00 2013
User: price-jones
Dark Spectrum Present: No
Reference Spectrum Present: No
Number of Sampled Component Spectra: 1
Spectrometers: USB2+H05261
Integration Time (usec): 100000 (USB2+H05261)
Spectra Averaged: 1 (USB2+H05261)
Boxcar Smoothing: 0 (USB2+H05261)
Correct for Electrical Dark: No (USB2+H05261)
Strobe/Lamp Enabled: No (USB2+H05261)
Correct for Detector Non-linearity: No (USB2+H05261)
Correct for Stray Light: No (USB2+H05261)
Number of Pixels in Processed Spectrum: 2048
>>>>>Begin Processed Spectral Data<<<<<
365.73	35.11
365.92	35.11
366.12	35.11
366.32	0.00
366.52	0.00
366.72	0.00
366.91	0.00
367.11	0.00
367.31	0.00
367.51	0.00
367.70	0.00
367.90	0.00
368.10	0.00
368.30	0.00
368.49	0.00
368.69	0.00
368.89	0.00
369.09	0.00
369.28	0.00
369.48	0.00
369.68	0.00
369.87	25.75
370.07	9.36
370.27	0.00
370.47	227.03
370.66	842.59
370.86	880.04
371.06	1111.75
371.25	1100.05
371.45	973.66
371.65	896.43
371.84	826.21
372.04	898.77
372.24	1090.69
372.44	1020.47
372.63	1006.43
372.83	1029.84
373.03	894.08
373.22	748.97
373.42	784.08
373.62	978.34
373.81	1027.50
374.01	1074.31
374.21	1039.20
374.40	828.55
374.60	978.34
374.79	1078.99
374.99	1233.46
375.19	1217.08
375.38	1203.04
375.58	1261.55
375.78	1184.31
375.97	1263.89
376.17	1200.69
376.37	1137.50
376.56	1247.51
376.76	1287.29
376.95	1378.58
377.15	1521.35
377.35	1547.09
377.54	1607.95
377.74	1563.48
377.93	1537.73
378.13	1507.30
378.33	1526.03
378.52	1401.98
378.72	1331.76
378.91	1357.51
379.11	1268.57
379.31	1191.33
379.50	1165.59
379.70	1275.59
379.89	1544.75
380.09	1474.54
380.28	1533.05
380.48	1533.05
380.68	1446.45
380.87	1437.09
381.07	1331.76
381.26	1315.38
381.46	1233.46
381.65	1233.46
381.85	1210.06
382.04	1160.91
382.24	1029.84
382.43	966.64
382.63	933.87
382.83	915.15
383.02	1053.24
383.22	1041.54
383.41	1041.54
383.61	1015.79
383.80	1165.59
384.00	1299.00
384.19	1458.15
384.39	1465.18
384.58	1418.36
384.78	1523.69
384.97	1565.82
385.17	1406.66
385.36	1324.74
385.56	1277.93
385.75	1371.55
385.95	1495.60
386.14	1579.86
386.34	1575.18
386.53	1495.60
386.72	1376.24
386.92	1413.68
387.11	1490.92
387.31	1511.99
387.50	1565.82
387.70	1486.24
387.89	1439.43
388.09	1530.71
388.28	1458.15
388.48	1502.62
388.67	1607.95
388.86	1762.42
389.06	1785.83
389.25	1921.58
389.45	1975.41
389.64	1926.26
389.84	2003.50
390.03	1928.60
390.22	1952.01
390.42	1982.43
390.61	2146.27
390.81	2146.27
391.00	2258.62
391.19	2256.28
391.39	2099.46
391.58	1928.60
391.78	1851.36
391.97	1884.13
392.16	1708.59
392.36	1659.44
392.55	1317.72
392.75	1247.51
392.94	891.74
393.13	866.00
393.33	1067.28
393.52	1291.98
393.71	1643.06
393.91	1610.29
394.10	1872.43
394.29	2012.86
394.49	2097.12
394.68	2321.81
394.88	2244.57
395.07	2424.80
395.26	2377.98
395.46	2195.42
395.65	2113.50
395.84	1987.11
396.04	1727.32
396.23	1380.92
396.42	1137.50
396.62	1221.76
396.81	1418.36
397.00	1631.35
397.19	1987.11
397.39	2272.66
397.58	2466.92
397.77	2644.81
397.97	2715.02
398.16	2918.65
398.35	2958.44
398.55	3094.19
398.74	3059.08
398.93	3126.96
399.12	3141.00
399.32	3023.97
399.51	3014.61
399.70	3323.56
399.90	3236.96
400.09	3218.24
400.28	3185.47
400.47	3141.00
400.67	3391.44
400.86	3438.25
401.05	3342.28
401.24	3522.51
401.44	3426.54
401.63	3442.93
401.82	3506.12
402.01	3473.36
402.21	3637.19
402.40	3609.11
402.59	3534.21
402.78	3346.97
402.97	3281.43
403.17	3445.27
403.36	3651.24
403.55	3705.07
403.74	3761.24
403.93	3705.07
404.13	3295.47
404.32	3384.41
404.51	3419.52
404.70	3653.58
404.89	3524.85
405.09	3527.19
405.28	3414.84
405.47	3496.76
405.66	3438.25
405.85	3363.35
406.05	3405.48
406.24	3243.98
406.43	3384.41
406.62	3548.25
406.81	3522.51
407.00	3452.29
407.20	3438.25
407.39	3391.44
407.58	3625.49
407.77	3751.88
407.96	3922.74
408.15	3943.80
408.34	3918.06
408.54	3920.40
408.73	4109.98
408.92	3953.16
409.11	3999.98
409.30	3604.42
409.49	3564.64
409.68	3227.60
409.87	3145.68
410.07	3398.46
410.26	3581.02
410.45	3852.52
410.64	3730.81
410.83	3927.42
411.02	4051.47
411.21	4243.39
411.40	4297.22
411.59	4269.14
411.78	4182.54
411.98	4039.76
412.17	4280.84
412.36	4189.56
412.55	4222.33
412.74	4046.79
412.93	3969.55
413.12	3967.21
413.31	4337.01
413.50	4386.16
413.69	4463.40
413.88	4322.97
414.07	4262.12
414.26	4390.84
414.45	4435.32
414.64	4428.29
414.83	4404.89
415.02	4306.59
415.22	4255.09
415.41	4550.00
415.60	4594.47
415.79	4580.43
415.98	4929.17
416.17	4770.01
416.36	4723.20
416.55	4746.61
416.74	4430.63
416.93	4383.82
417.12	4489.15
417.31	4421.27
417.50	4423.61
417.69	4610.86
417.88	4482.13
418.07	4552.34
418.26	4676.39
418.45	4486.81
418.64	4676.39
418.83	4809.80
419.02	4821.50
419.21	4730.22
419.39	4561.70
419.58	4397.87
419.77	4465.74
419.96	4493.83
420.15	4697.46
420.34	4912.78
420.53	5071.94
420.72	5032.15
420.91	5039.17
421.10	5006.41
421.29	4922.15
421.48	4926.83
421.67	5083.64
421.86	4933.85
422.05	4650.64
422.24	4217.65
422.43	4086.58
422.61	4367.44
422.80	4940.87
422.99	4814.48
423.18	4793.42
423.37	4746.61
423.56	4674.05
423.75	4730.22
423.94	4730.22
424.13	4519.57
424.32	4542.98
424.50	4477.44
424.69	4454.04
424.88	4603.83
425.07	4526.60
425.26	4627.24
425.45	4444.68
425.64	4276.16
425.83	4386.16
426.01	4730.22
426.20	4690.43
426.39	4636.60
426.58	4306.59
426.77	4194.24
426.96	4002.32
427.15	4145.09
427.33	4325.31
427.52	4393.19
427.71	4615.54
427.90	4674.05
428.09	4620.22
428.28	4475.10
428.46	4344.03
428.65	4126.36
428.84	4217.65
429.03	4299.56
429.22	4086.58
429.40	3889.97
429.59	3548.25
429.78	3283.77
429.97	3206.53
430.16	3269.73
430.34	3227.60
430.53	3293.13
430.72	3482.72
430.91	3524.85
431.10	4124.02
431.28	4713.84
431.47	5266.21
431.66	5533.03
431.85	4912.78
432.03	4440.00
432.22	4376.80
432.41	4470.42
432.60	5041.51
432.79	5231.10
432.97	5212.37
433.16	5355.15
433.35	4945.55
433.54	4355.74
433.72	4224.67
433.91	4217.65
434.10	4704.48
434.28	4868.31
434.47	4987.68
434.66	5011.09
434.85	5062.58
435.03	5046.20
435.22	5476.85
435.41	5790.49
435.59	5867.72
435.78	5863.04
435.97	5891.13
436.16	5556.43
436.34	5474.51
436.53	5336.42
436.72	5558.77
436.90	5123.43
437.09	5062.58
437.28	5095.35
437.46	5320.04
437.65	5221.74
437.84	4933.85
438.02	4482.13
438.21	4461.06
438.40	4631.92
438.58	5137.48
438.77	5207.69
438.96	5090.67
439.14	5310.68
439.33	5521.32
439.52	5680.48
439.70	5657.07
439.89	5528.35
440.08	5146.84
440.26	5341.10
440.45	5451.11
440.63	5673.46
440.82	6148.59
441.01	5977.73
441.19	5764.74
441.38	5994.11
441.57	6179.01
441.75	6216.46
441.94	6155.61
442.12	6251.57
442.31	6326.47
442.50	6176.67
442.68	6164.97
442.87	6359.24
443.05	6106.46
443.24	6443.49
443.43	6342.85
443.61	6525.41
443.80	6532.44
443.98	6195.40
444.17	6136.88
444.35	6494.99
444.54	6630.74
444.73	6462.22
444.91	6366.26
445.10	5987.09
445.28	5839.64
445.47	5832.62
445.65	5771.76
445.84	5813.89
446.02	5966.03
446.21	6167.31
446.39	5970.71
446.58	6216.46
446.77	6324.13
446.95	6427.11
447.14	6560.52
447.32	6841.39
447.51	6609.67
447.69	6303.06
447.88	6331.15
448.06	6246.89
448.25	6523.07
448.43	6576.91
448.62	6490.31
448.80	6487.96
448.99	6347.53
449.17	6335.83
449.36	6326.47
449.54	6813.30
449.73	6817.98
449.91	6869.47
450.10	7009.90
450.28	7082.46
450.46	7180.76
450.65	7016.93
450.83	7045.01
451.02	6761.81
451.20	6967.77
451.39	6785.21
451.57	6890.54
451.76	6843.73
451.94	6970.12
452.13	6771.17
452.31	6258.59
452.49	6118.16
452.68	6237.53
452.86	6190.72
453.05	6296.04
453.23	6530.09
453.42	6656.48
453.60	6684.57
453.78	6642.44
453.97	6705.63
454.15	6635.42
454.34	6644.78
454.52	6600.31
454.70	6600.31
454.89	6497.33
455.07	6410.73
455.26	6558.18
455.44	6932.67
455.62	6942.03
455.81	6899.90
455.99	7131.61
456.17	6731.38
456.36	6902.24
456.54	7037.99
456.73	7009.90
456.91	7356.30
457.09	7293.11
457.28	7293.11
457.46	7021.61
457.64	6946.71
457.83	6785.21
458.01	6544.14
458.19	6885.86
458.38	6832.02
458.56	7012.24
458.74	7002.88
458.93	6930.33
459.11	6946.71
459.29	6995.86
459.48	6937.35
459.66	6862.45
459.84	6782.87
460.03	6902.24
460.21	7021.61
460.39	7035.65
460.57	7192.47
460.76	7248.64
460.94	7286.09
461.12	7269.70
461.31	7337.58
461.49	7274.38
461.67	7190.13
461.85	7555.25
462.04	7389.07
462.22	7831.43
462.40	7637.17
462.59	7360.98
462.77	7382.05
462.95	7368.01
463.13	7157.36
463.32	7213.53
463.50	7148.00
463.68	7080.12
463.86	7136.29
464.05	7021.61
464.23	6848.41
464.41	6979.48
464.59	6724.36
464.78	7131.61
464.96	7101.19
465.14	7052.03
465.32	7140.97
465.50	7468.65
465.69	7480.35
465.87	7281.41
466.05	7166.72
466.23	6979.48
466.41	6604.99
466.60	6862.45
466.78	6949.05
466.96	6981.82
467.14	6874.15
467.32	7260.34
467.51	7297.79
467.69	6972.46
467.87	7087.14
468.05	7068.42
468.23	7138.63
468.41	7124.59
468.60	7084.80
468.78	7108.21
468.96	7136.29
469.14	7059.06
469.32	7066.08
469.50	7103.53
469.69	7063.74
469.87	6970.12
470.05	6846.07
470.23	6904.58
470.41	6902.24
470.59	7059.06
470.77	6913.94
470.95	7232.26
471.14	7421.84
471.32	7075.44
471.50	7466.31
471.68	7620.78
471.86	7901.65
472.04	7742.49
472.22	7676.96
472.40	7375.03
472.58	7332.90
472.77	7227.57
472.95	7311.83
473.13	7496.74
473.31	7356.30
473.49	7248.64
473.67	7595.04
473.85	7389.07
474.03	7875.90
474.21	7981.23
474.39	7693.34
474.57	7808.03
474.75	8049.10
474.93	7950.80
475.12	7501.42
475.30	7740.15
475.48	7721.43
475.66	7857.18
475.84	7824.41
476.02	7728.45
476.20	7529.50
476.38	7620.78
476.56	8053.78
476.74	7992.93
476.92	7929.74
477.10	8163.79
477.28	8290.18
477.46	8421.25
477.64	8585.08
477.82	8557.00
478.00	8552.32
478.18	8414.23
478.36	8243.37
478.54	8299.54
478.72	8252.73
478.90	8479.76
479.08	8875.31
479.26	8964.25
479.44	9130.43
479.62	8837.86
479.80	8898.72
479.98	8725.52
480.16	9137.45
480.34	8952.55
480.52	8865.95
480.70	9153.84
480.88	9032.13
481.06	9275.54
481.24	9390.23
481.41	9582.15
481.59	9750.67
481.77	9874.72
481.95	9502.58
482.13	9355.12
482.31	9493.21
482.49	9736.63
482.67	9558.75
482.85	9713.22
483.03	9858.34
483.21	10036.22
483.39	9827.91
483.57	9818.55
483.74	9631.30
483.92	9755.35
484.10	9500.23
484.28	9912.17
484.46	10293.68
484.64	10061.96
484.82	10125.16
485.00	9797.48
485.18	9699.18
485.35	9420.66
485.53	8973.61
485.71	7943.78
485.89	7913.35
486.07	8107.62
486.25	8936.17
486.43	9280.22
486.61	9628.96
486.78	9497.89
486.96	9486.19
487.14	10258.57
487.32	9947.28
487.50	10415.38
487.68	10909.24
487.85	10965.41
488.03	10862.43
488.21	10920.94
488.39	10696.25
488.57	10298.36
488.75	10249.21
488.92	11063.71
489.10	11403.09
489.28	11857.15
489.46	11810.34
489.64	12191.85
489.81	12100.57
489.99	12088.87
490.17	12088.87
490.35	12290.15
490.53	11910.99
490.70	11754.17
490.88	11562.25
491.06	11726.08
491.24	12121.63
491.41	11971.84
491.59	11272.02
491.77	10930.30
491.95	11091.80
492.13	11501.39
492.30	12077.16
492.48	12446.97
492.66	12634.21
492.84	12636.55
493.01	12624.85
493.19	12470.37
493.37	12250.36
493.54	12051.42
493.72	12257.39
493.90	12606.13
494.08	12945.50
494.25	13298.92
494.43	13408.93
494.61	13584.47
494.79	13401.91
494.96	13507.23
495.14	13343.39
495.32	12638.89
495.49	12477.40
495.67	12837.84
495.85	13221.69
496.02	13680.43
496.20	13902.78
496.38	13413.61
496.55	13221.69
496.73	13593.83
496.91	13540.00
497.09	13991.72
497.26	14024.49
497.44	13830.23
497.62	13486.17
497.79	13317.65
497.97	12737.20
498.14	12875.29
498.32	13114.02
498.50	13397.23
498.67	13809.16
498.85	13717.88
499.03	13598.51
499.20	14066.62
499.38	13891.08
499.56	13858.31
499.73	13652.34
499.91	13200.62
500.08	13256.79
500.26	12835.50
500.44	13083.59
500.61	13617.24
500.79	13312.97
500.97	13160.83
501.14	13090.62
501.32	12833.16
501.49	12657.62
501.67	12863.58
501.84	13104.66
502.02	13209.98
502.20	13551.70
502.37	13654.69
502.55	13362.12
502.72	13650.00
502.90	13886.40
503.07	13652.34
503.25	13277.86
503.43	12842.52
503.60	12751.24
503.78	12381.43
503.95	12334.62
504.13	13011.04
504.30	13631.28
504.48	13495.53
504.65	13635.96
504.83	13767.03
505.01	14059.60
505.18	13994.06
505.36	14347.48
505.53	14087.68
505.71	14373.23
505.88	14574.52
506.06	14471.53
506.23	14193.01
506.41	13839.59
506.58	13954.27
506.76	14129.81
506.93	13671.07
507.11	13947.25
507.28	13813.84
507.46	13785.76
507.63	13331.69
507.81	13486.17
507.98	13193.60
508.16	13973.00
508.33	14256.20
508.50	14256.20
508.68	14274.93
508.85	14712.61
509.03	14803.89
509.20	14686.86
509.38	14368.55
509.55	13865.33
509.73	13916.83
509.90	14298.33
510.08	14373.23
510.25	14396.64
510.42	14441.11
510.60	14485.58
510.77	14331.10
510.95	15049.64
511.12	15187.74
511.30	15126.88
511.47	15042.62
511.64	15234.55
511.82	14934.96
511.99	14618.99
512.17	14417.70
512.34	14132.15
512.51	14284.29
512.69	14120.45
512.86	14368.55
513.04	14555.79
513.21	14829.63
513.38	14649.41
513.56	14094.71
513.73	13989.38
513.90	14001.08
514.08	13982.36
514.25	14022.15
514.43	14572.18
514.60	14331.10
514.77	14281.95
514.95	14436.42
515.12	14490.26
515.29	14370.89
515.47	15049.64
515.64	14911.55
515.81	14721.97
515.99	14408.34
516.16	13743.63
516.33	12636.55
516.51	12203.55
516.68	11730.76
516.85	11363.30
517.03	11545.86
517.20	12882.31
517.37	13912.14
517.54	14569.83
517.72	14216.41
517.89	13273.18
518.06	12070.14
518.24	12346.33
518.41	13195.94
518.58	13799.80
518.75	13635.96
518.93	14197.69
519.10	13884.06
519.27	13977.68
519.45	14504.30
519.62	14616.65
519.79	14656.43
519.96	14803.89
520.14	14366.21
520.31	14162.58
520.48	14190.67
520.65	14127.47
520.83	14726.65
521.00	15063.69
521.17	14665.80
521.34	14656.43
521.52	14581.54
521.69	15103.48
521.86	15211.14
522.03	14981.77
522.20	14705.59
522.38	13984.70
522.55	14090.02
522.72	14242.16
522.89	14143.86
523.07	14295.99
523.24	14754.74
523.41	15019.22
523.58	14897.51
523.75	15236.89
523.92	15246.25
524.10	15506.05
524.27	15136.24
524.44	15147.95
524.61	15061.35
524.78	15016.88
524.96	14965.39
525.13	15115.18
525.30	14988.79
525.47	15117.52
525.64	15428.81
525.81	14930.28
525.98	14263.22
526.16	13511.91
526.33	12889.33
526.50	12898.69
526.67	12690.38
526.84	13036.78
527.01	13446.38
527.18	13600.85
527.36	13870.01
527.53	14902.19
527.70	14892.83
527.87	14658.78
528.04	14508.98
528.21	14658.78
528.38	15002.83
528.55	15492.01
528.72	15456.90
528.89	15616.05
529.07	15363.28
529.24	15096.46
529.41	14731.33
529.58	14548.77
529.75	14637.71
529.92	14616.65
530.09	14934.96
530.26	15239.23
530.43	15136.24
530.60	15730.74
530.77	15236.89
530.94	15520.09
531.11	15393.70
531.28	15119.86
531.46	15356.25
531.63	15461.58
531.80	15110.50
531.97	14888.15
532.14	14427.06
532.31	14054.92
532.48	13603.19
532.65	13738.94
532.82	13855.97
532.99	14623.67
533.16	14979.43
533.33	15051.99
533.50	15103.48
533.67	14843.68
533.84	14396.64
534.01	14698.56
534.18	14724.31
534.35	14707.93
534.52	14864.74
534.69	14991.13
534.86	15119.86
535.03	15009.86
535.20	15307.10
535.37	15646.48
535.54	15569.24
535.71	15550.52
535.88	15335.19
536.05	15169.01
536.22	14860.06
536.38	14686.86
536.55	14235.14
536.72	14075.98
536.89	14003.43
537.06	14576.86
537.23	14932.62
537.40	14801.55
537.57	14904.53
537.74	14864.74
537.91	14874.10
538.08	14808.57
538.25	15112.84
538.42	14888.15
538.59	14848.36
538.75	14513.66
538.92	14480.89
539.09	14630.69
539.26	14265.57
539.43	14139.18
539.60	14073.64
539.77	14356.85
539.94	14193.01
540.11	14167.26
540.28	13551.70
540.44	13369.14
540.61	13778.73
540.78	13675.75
540.95	13907.46
541.12	14525.36
541.29	14368.55
541.46	14731.33
541.62	14689.20
541.79	14640.05
541.96	14178.97
542.13	14382.59
542.30	14721.97
542.47	14494.94
542.63	14431.74
542.80	14232.80
542.97	14331.10
543.14	14272.59
543.31	14162.58
543.48	14441.11
543.64	14740.69
543.81	15084.75
543.98	15199.44
544.15	14778.14
544.32	14406.00
544.48	14288.97
544.65	14410.68
544.82	14785.16
544.99	14626.01
545.16	14616.65
545.32	14171.94
545.49	15185.40
545.66	15534.14
545.83	15641.80
546.00	15248.59
546.16	14731.33
546.33	14717.29
546.50	14441.11
546.67	14675.16
546.83	14499.62
547.00	14387.27
547.17	14129.81
547.34	13884.06
547.50	13607.87
547.67	14265.57
547.84	13975.34
548.00	14209.39
548.17	14413.02
548.34	14670.48
548.51	14462.17
548.67	14539.41
548.84	14333.44
549.01	14469.19
549.18	14469.19
549.34	14207.05
549.51	14464.51
549.68	14188.33
549.84	13987.04
550.01	14239.82
550.18	14164.92
550.34	14155.56
550.51	14181.31
550.68	14307.69
550.84	14008.11
551.01	14029.17
551.18	14075.98
551.34	14125.13
551.51	14033.85
551.68	14473.87
551.84	14480.89
552.01	14525.36
552.18	14115.77
552.34	13832.57
552.51	13855.97
552.68	13760.01
552.84	14052.58
553.01	14054.92
553.18	14087.68
553.34	14054.92
553.51	14080.66
553.67	14256.20
553.84	14370.89
554.01	14221.10
554.17	13827.88
554.34	14071.30
554.51	14017.47
554.67	14471.53
554.84	14225.78
555.00	13987.04
555.17	14019.81
555.33	14043.21
555.50	14171.94
555.67	14249.18
555.83	13642.98
556.00	13891.08
556.16	13832.57
556.33	13380.84
556.50	13680.43
556.66	13483.83
556.83	13336.37
556.99	13158.49
557.16	13324.67
557.32	13572.77
557.49	13661.71
557.65	13715.54
557.82	13724.90
557.98	13727.24
558.15	13345.73
558.32	13060.19
558.48	12858.90
558.65	12659.96
558.81	12840.18
558.98	12746.56
559.14	13125.72
559.31	13233.39
559.47	13001.68
559.64	13238.07
559.80	13153.81
559.97	12847.20
560.13	12999.34
560.30	13490.85
560.46	13568.09
560.63	13788.10
560.79	13626.60
560.96	13565.74
561.12	13184.24
561.29	12840.18
561.45	12922.10
561.61	13186.58
561.78	13247.43
561.94	13214.66
562.11	12922.10
562.27	12987.63
562.44	12999.34
562.60	13329.35
562.77	13341.05
562.93	13188.92
563.10	13521.27
563.26	13408.93
563.42	13170.19
563.59	12989.97
563.75	13008.70
563.92	13088.28
564.08	13022.74
564.24	13212.32
564.41	13102.32
564.57	13116.36
564.74	13043.81
564.90	13041.46
565.07	13046.15
565.23	12655.28
565.39	12505.48
565.56	12512.50
565.72	12264.41
565.88	12512.50
566.05	12472.71
566.21	12524.21
566.38	12587.40
566.54	12552.29
566.70	12737.20
566.87	12755.92
567.03	12830.82
567.19	12833.16
567.36	12884.65
567.52	12657.62
567.68	12685.70
567.85	12135.68
568.01	12135.68
568.17	11889.92
568.34	11669.91
568.50	11606.72
568.66	11590.33
568.83	11707.36
568.99	11749.49
569.15	11880.56
569.32	11967.16
569.48	11742.47
569.64	11887.58
569.81	11845.45
569.97	11674.59
570.13	12013.97
570.30	11913.33
570.46	11587.99
570.62	11393.73
570.78	11250.96
570.95	11346.92
571.11	11538.84
571.27	11660.55
571.43	11693.32
571.60	11744.81
571.76	11978.86
571.92	11840.77
572.09	12152.06
572.25	11817.36
572.41	12060.78
572.57	11896.94
572.74	11836.09
572.90	11894.60
573.06	11829.07
573.22	11983.54
573.38	11861.84
573.55	11770.55
573.71	11971.84
573.87	11941.41
574.03	11651.19
574.20	11847.79
574.36	11499.05
574.52	11487.35
574.68	11602.04
574.84	11456.92
575.01	11384.37
575.17	11314.15
575.33	11307.13
575.49	11255.64
575.65	11281.38
575.82	11082.44
575.98	11463.94
576.14	11227.55
576.30	11559.91
576.46	11555.22
576.62	11775.24
576.79	11772.89
576.95	11344.58
577.11	11618.42
577.27	11426.50
577.43	11246.27
577.59	11522.46
577.75	11400.75
577.92	11028.60
578.08	10932.64
578.24	10923.28
578.40	11309.47
578.56	11520.12
578.72	11571.61
578.88	11548.20
579.04	11847.79
579.21	11265.00
579.37	11342.24
579.53	11527.14
579.69	11527.14
579.85	11768.21
580.01	11728.42
580.17	11396.07
580.33	11452.24
580.49	11555.22
580.65	11590.33
580.82	11658.21
580.98	11597.35
581.14	11482.67
581.30	11332.87
581.46	11440.54
581.62	11578.63
581.78	11496.71
581.94	11477.99
582.10	11672.25
582.26	11613.74
582.42	11737.79
582.58	11585.65
582.74	11744.81
582.90	11648.85
583.06	11580.97
583.22	11730.76
583.38	11550.54
583.54	11424.15
583.70	11468.62
583.86	11480.33
584.02	11693.32
584.18	11655.87
584.34	11571.61
584.50	11449.90
584.66	11489.69
584.82	11222.87
584.98	11215.85
585.14	11227.55
585.30	10815.62
585.46	10551.14
585.62	10815.62
585.78	10934.98
585.94	10949.03
586.10	11054.35
586.26	10930.30
586.42	11129.25
586.58	11005.20
586.74	10883.49
586.90	10768.80
587.06	10771.15
587.22	10787.53
587.38	10773.49
587.54	10541.77
587.70	10228.14
587.86	9947.28
588.02	9895.78
588.18	9411.29
588.34	9071.92
588.49	8517.21
588.65	8086.55
588.81	7962.50
588.97	7859.52
589.13	8163.79
589.29	7854.84
589.45	7819.73
589.61	7861.86
589.77	8215.28
589.93	8659.98
590.08	8961.91
590.24	9128.09
