SpectraSuite Data File
++++++++++++++++++++++++++++++++++++
Date: Fri Oct 04 11:44:12 GMT-05:00 2013
User: price-jones
Dark Spectrum Present: No
Reference Spectrum Present: No
Number of Sampled Component Spectra: 1
Spectrometers: USB2+H05261
Integration Time (usec): 100000 (USB2+H05261)
Spectra Averaged: 1 (USB2+H05261)
Boxcar Smoothing: 0 (USB2+H05261)
Correct for Electrical Dark: No (USB2+H05261)
Strobe/Lamp Enabled: No (USB2+H05261)
Correct for Detector Non-linearity: No (USB2+H05261)
Correct for Stray Light: No (USB2+H05261)
Number of Pixels in Processed Spectrum: 2048
>>>>>Begin Processed Spectral Data<<<<<
365.73	9.36
365.92	9.36
366.12	9.36
366.32	2.34
366.52	0.00
366.72	0.00
366.91	0.00
367.11	0.00
367.31	0.00
367.51	0.00
367.70	0.00
367.90	0.00
368.10	0.00
368.30	0.00
368.49	0.00
368.69	0.00
368.89	0.00
369.09	0.00
369.28	0.00
369.48	0.00
369.68	0.00
369.87	0.00
370.07	0.00
370.27	0.00
370.47	208.31
370.66	564.07
370.86	784.08
371.06	779.40
371.25	770.04
371.45	849.61
371.65	711.52
371.84	667.05
372.04	730.25
372.24	791.10
372.44	781.74
372.63	737.27
372.83	816.85
373.03	655.35
373.22	641.31
373.42	676.41
373.62	748.97
373.81	791.10
374.01	854.30
374.21	622.58
374.40	676.41
374.60	835.57
374.79	816.85
374.99	880.04
375.19	922.17
375.38	943.24
375.58	894.08
375.78	905.79
375.97	933.87
376.17	964.30
376.37	964.30
376.56	964.30
376.76	1055.58
376.95	1032.18
377.15	1109.41
377.35	1095.37
377.54	1181.97
377.74	1221.76
377.93	1324.74
378.13	1181.97
378.33	1193.67
378.52	1027.50
378.72	1057.92
378.91	1083.67
379.11	997.07
379.31	966.64
379.50	940.90
379.70	1060.26
379.89	1146.86
380.09	1170.27
380.28	1249.85
380.48	1137.50
380.68	1102.39
380.87	1181.97
381.07	1118.78
381.26	1034.52
381.46	1055.58
381.65	997.07
381.85	880.04
382.04	823.87
382.24	819.19
382.43	823.87
382.63	753.65
382.83	774.72
383.02	770.04
383.22	887.06
383.41	786.42
383.61	772.38
383.80	980.68
384.00	992.39
384.19	1144.52
384.39	1116.44
384.58	1266.23
384.78	1256.87
384.97	1123.46
385.17	1174.95
385.36	1104.73
385.56	947.92
385.75	1107.07
385.95	1109.41
386.14	1191.33
386.34	1228.78
386.53	1149.20
386.72	1109.41
386.92	1107.07
387.11	1156.22
387.31	1245.16
387.50	1294.32
387.70	1184.31
387.89	1116.44
388.09	1210.06
388.28	1137.50
388.48	1242.82
388.67	1306.02
388.86	1338.79
389.06	1394.96
389.25	1430.07
389.45	1540.07
389.64	1430.07
389.84	1427.73
390.03	1570.50
390.22	1624.33
390.42	1603.27
390.61	1629.01
390.81	1626.67
391.00	1685.19
391.19	1680.50
391.39	1619.65
391.58	1589.22
391.78	1551.78
391.97	1444.11
392.16	1289.64
392.36	1263.89
392.55	1008.77
392.75	849.61
392.94	688.12
393.13	741.95
393.33	898.77
393.52	1022.81
393.71	1196.01
393.91	1434.75
394.10	1423.05
394.29	1476.88
394.49	1708.59
394.68	1750.72
394.88	1839.66
395.07	1867.75
395.26	1699.23
395.46	1804.55
395.65	1713.27
395.84	1481.56
396.04	1352.83
396.23	1193.67
396.42	903.45
396.62	947.92
396.81	964.30
397.00	1268.57
397.19	1472.20
397.39	1736.68
397.58	2066.69
397.77	2186.06
397.97	2106.48
398.16	2312.45
398.35	2321.81
398.55	2239.89
398.74	2483.31
398.93	2544.16
399.12	2347.56
399.32	2382.67
399.51	2511.39
399.70	2586.29
399.90	2466.92
400.09	2537.14
400.28	2555.86
400.47	2415.43
400.67	2635.44
400.86	2663.53
401.05	2745.45
401.24	2544.16
401.44	2764.17
401.63	2665.87
401.82	2778.22
402.01	2771.19
402.21	2822.69
402.40	2822.69
402.59	2637.78
402.78	2656.51
402.97	2541.82
403.17	2506.71
403.36	2722.04
403.55	2780.56
403.74	2925.67
403.93	2813.32
404.13	2768.85
404.32	2771.19
404.51	2766.51
404.70	2986.52
404.89	2874.18
405.09	2928.01
405.28	2754.81
405.47	2623.74
405.66	2656.51
405.85	2796.94
406.05	2551.18
406.24	2590.97
406.43	2593.31
406.62	2822.69
406.81	2850.77
407.00	2799.28
407.20	2670.55
407.39	2665.87
407.58	2775.88
407.77	2867.16
407.96	2935.03
408.15	2937.37
408.34	2832.05
408.54	3056.74
408.73	3178.45
408.92	3009.93
409.11	3000.57
409.30	2958.44
409.49	2684.59
409.68	2558.21
409.87	2511.39
410.07	2696.30
410.26	2839.07
410.45	2920.99
410.64	3009.93
410.83	3178.45
411.02	3197.17
411.21	3412.50
411.40	3225.26
411.59	3227.60
411.78	3372.71
411.98	3162.06
412.17	3133.98
412.36	3157.38
412.55	3213.56
412.74	3124.62
412.93	3073.12
413.12	3070.78
413.31	3307.18
413.50	3538.89
413.69	3279.09
413.88	3407.82
414.07	3241.64
414.26	3356.33
414.45	3482.72
414.64	3414.84
414.83	3370.37
415.02	3403.14
415.22	3353.99
415.41	3344.63
415.60	3482.72
415.79	3662.94
415.98	3695.71
416.17	3679.32
416.36	3574.00
416.55	3672.30
416.74	3503.78
416.93	3361.01
417.12	3325.90
417.31	3382.07
417.50	3552.93
417.69	3599.74
417.88	3625.49
418.07	3508.46
418.26	3454.63
418.45	3482.72
418.64	3557.61
418.83	3808.05
419.02	3674.64
419.21	3758.90
419.39	3449.95
419.58	3517.83
419.77	3400.80
419.96	3494.42
420.15	3686.34
420.34	3763.58
420.53	3932.10
420.72	3861.88
420.91	3981.25
421.10	3791.67
421.29	3868.91
421.48	3791.67
421.67	3941.46
421.86	3918.06
422.05	3651.24
422.24	3323.56
422.43	3300.16
422.61	3494.42
422.80	3653.58
422.99	3756.56
423.18	3625.49
423.37	3606.77
423.56	3478.04
423.75	3559.95
423.94	3583.36
424.13	3496.76
424.32	3550.59
424.50	3524.85
424.69	3447.61
424.88	3449.95
425.07	3419.52
425.26	3557.61
425.45	3487.40
425.64	3473.36
425.83	3435.91
426.01	3648.90
426.20	3651.24
426.39	3618.47
426.58	3412.50
426.77	3318.88
426.96	3129.30
427.15	3297.81
427.33	3363.35
427.52	3447.61
427.71	3566.98
427.90	3538.89
428.09	3417.18
428.28	3468.67
428.46	3304.84
428.65	3255.69
428.84	3363.35
429.03	3391.44
429.22	3105.89
429.40	2988.86
429.59	2930.35
429.78	2504.37
429.97	2525.44
430.16	2609.70
430.34	2572.25
430.53	2633.10
430.72	2565.23
430.91	2888.22
431.10	3361.01
431.28	3782.31
431.47	4056.15
431.66	4297.22
431.85	3983.59
432.03	3445.27
432.22	3463.99
432.41	3634.85
432.60	3822.09
432.79	3962.53
432.97	4100.62
433.16	4060.83
433.35	3611.45
433.54	3370.37
433.72	3204.19
433.91	3239.30
434.10	3517.83
434.28	3758.90
434.47	3899.33
434.66	3974.23
434.85	3915.72
435.03	4011.68
435.22	4411.91
435.41	5188.97
435.59	5383.23
435.78	5158.54
435.97	4690.43
436.16	4564.04
436.34	4245.73
436.53	4191.90
436.72	4365.10
436.90	3955.51
437.09	4011.68
437.28	3836.14
437.46	4037.42
437.65	4051.47
437.84	3674.64
438.02	3611.45
438.21	3463.99
438.40	3653.58
438.58	3925.08
438.77	4100.62
438.96	4117.00
439.14	4180.20
439.33	4222.33
439.52	4327.65
439.70	4217.65
439.89	4315.95
440.08	4070.19
440.26	4018.70
440.45	4170.83
440.63	4423.61
440.82	4603.83
441.01	4634.26
441.19	4622.56
441.38	4711.50
441.57	4863.63
441.75	4858.95
441.94	4802.78
442.12	4781.71
442.31	4835.55
442.50	4826.18
442.68	4854.27
442.87	4739.58
443.05	4755.97
443.24	4741.93
443.43	4957.25
443.61	5011.09
443.80	4940.87
443.98	4732.56
444.17	4690.43
444.35	4990.02
444.54	4943.21
444.73	4994.70
444.91	4856.61
445.10	4610.86
445.28	4505.53
445.47	4477.44
445.65	4404.89
445.84	4592.13
446.02	4765.33
446.21	4730.22
446.39	4861.29
446.58	4828.53
446.77	4880.02
446.95	4929.17
447.14	5167.90
447.32	5146.84
447.51	5050.88
447.69	4791.08
447.88	4795.76
448.06	4882.36
448.25	4940.87
448.43	5111.73
448.62	4985.34
448.80	4805.12
448.99	5067.26
449.17	4880.02
449.36	5015.77
449.54	5198.33
449.73	5055.56
449.91	5261.52
450.10	5385.57
450.28	5530.69
450.46	5626.65
450.65	5502.60
450.83	5502.60
451.02	5369.19
451.20	5380.89
451.39	5315.36
451.57	5298.97
451.76	5320.04
451.94	5151.52
452.13	5109.39
452.31	4915.12
452.49	4704.48
452.68	4793.42
452.86	4727.88
453.05	4760.65
453.23	4933.85
453.42	4978.32
453.60	5198.33
453.78	5277.91
453.97	5093.01
454.15	5165.56
454.34	5114.07
454.52	5165.56
454.70	5156.20
454.89	5025.13
455.07	5118.75
455.26	5064.92
455.44	5320.04
455.62	5439.40
455.81	5446.43
455.99	5521.32
456.17	5467.49
456.36	5275.57
456.54	5364.51
456.73	5383.23
456.91	5547.07
457.09	5689.84
457.28	5685.16
457.46	5355.15
457.64	5378.55
457.83	5018.11
458.01	5193.65
458.19	5423.02
458.38	5231.10
458.56	5488.56
458.74	5305.99
458.93	5411.32
459.11	5291.95
459.29	5324.72
459.48	5378.55
459.66	5401.96
459.84	5453.45
460.03	5453.45
460.21	5352.81
460.39	5514.30
460.57	5521.32
460.76	5474.51
460.94	5666.44
461.12	5432.38
461.31	5547.07
461.49	5570.48
461.67	5495.58
461.85	5657.07
462.04	5710.91
462.22	6085.39
462.40	5621.97
462.59	5619.63
462.77	5870.06
462.95	5734.31
463.13	5636.01
463.32	5507.28
463.50	5575.16
463.68	5352.81
463.86	5617.29
464.05	5500.26
464.23	5589.20
464.41	5444.09
464.59	5437.06
464.78	5362.17
464.96	5444.09
465.14	5261.52
465.32	5528.35
465.50	5738.99
465.69	5692.18
465.87	5668.78
466.05	5408.98
466.23	5240.46
466.41	5181.95
466.60	5401.96
466.78	5214.71
466.96	5348.12
467.14	5366.85
467.32	5425.36
467.51	5612.60
467.69	5331.74
467.87	5432.38
468.05	5348.12
468.23	5561.11
468.41	5493.24
468.60	5500.26
468.78	5556.43
468.96	5448.77
469.14	5427.70
469.32	5565.79
469.50	5526.00
469.69	5394.93
469.87	5259.18
470.05	5320.04
470.23	5315.36
470.41	5226.42
470.59	5294.29
470.77	5516.64
470.95	5472.17
471.14	5511.96
471.32	5472.17
471.50	5849.00
471.68	5961.34
471.86	6083.05
472.04	5774.10
472.22	6008.16
472.40	5748.36
472.58	5631.33
472.77	5715.59
472.95	5631.33
473.13	5923.90
473.31	5596.22
473.49	5685.16
473.67	5874.74
473.85	5837.30
474.03	5863.04
474.21	5769.42
474.39	6106.46
474.57	6094.76
474.75	6031.56
474.93	6129.86
475.12	5909.85
475.30	5919.21
475.48	5870.06
475.66	5935.60
475.84	6026.88
476.02	5802.19
476.20	5912.19
476.38	5996.45
476.56	5968.37
476.74	6200.08
476.92	6136.88
477.10	6291.36
477.28	6516.05
477.46	6445.84
477.64	6588.61
477.82	6581.59
478.00	6544.14
478.18	6504.35
478.36	6509.03
478.54	6375.62
478.72	6663.51
478.90	6583.93
479.08	6888.20
479.26	6825.00
479.44	6792.23
479.62	6822.66
479.80	6960.75
479.98	6862.45
480.16	6850.75
480.34	6995.86
480.52	7059.06
480.70	7094.16
480.88	6832.02
481.06	7159.70
481.24	7014.59
481.41	7332.90
481.59	7510.78
481.77	7557.59
481.95	7332.90
482.13	7276.73
482.31	7396.09
482.49	7274.38
482.67	7529.50
482.85	7545.89
483.03	7595.04
483.21	7627.81
483.39	7576.31
483.57	7520.14
483.74	7447.58
483.92	7641.85
484.10	7740.15
484.28	7831.43
484.46	8042.08
484.64	7932.08
484.82	7808.03
485.00	7566.95
485.18	7616.10
485.35	7325.88
485.53	6881.18
485.71	6272.64
485.89	6113.48
486.07	6375.62
486.25	6960.75
486.43	7295.45
486.61	7360.98
486.78	7480.35
486.96	7316.51
487.14	7801.01
487.32	8056.12
487.50	8308.90
487.68	8372.10
487.85	8627.21
488.03	8341.67
488.21	8482.10
488.39	8325.29
488.57	8124.00
488.75	8056.12
488.92	8554.66
489.10	8690.41
489.28	9013.40
489.46	9528.32
489.64	9132.77
489.81	9247.46
489.99	9357.46
490.17	9102.34
490.35	9483.85
490.53	9011.06
490.70	8809.78
490.88	9060.21
491.06	9305.97
491.24	9638.33
491.41	9167.88
491.59	8636.58
491.77	8425.93
491.95	8723.18
492.13	8975.95
492.30	9202.99
492.48	9483.85
492.66	9596.20
492.84	9802.16
493.01	9483.85
493.19	9451.08
493.37	9432.36
493.54	9296.61
493.72	9376.19
493.90	9762.37
494.08	10113.45
494.25	10298.36
494.43	10328.78
494.61	10263.25
494.79	10370.91
494.96	10162.61
495.14	9994.09
495.32	10026.86
495.49	9778.76
495.67	9771.74
495.85	10469.22
496.02	10506.66
496.20	10429.43
496.38	10289.00
496.55	10225.80
496.73	10506.66
496.91	10466.88
497.09	10633.05
497.26	10839.02
497.44	10480.92
497.62	10375.59
497.79	10118.14
497.97	9799.82
498.14	9767.06
498.32	10047.92
498.50	10256.23
498.67	10768.80
498.85	10406.02
499.03	10506.66
499.20	10759.44
499.38	10649.44
499.56	10668.16
499.73	10464.54
499.91	10434.11
500.08	10281.97
500.26	10022.17
500.44	9783.44
500.61	10345.17
500.79	10382.62
500.97	10244.52
501.14	10024.51
501.32	9837.27
501.49	9930.89
501.67	9961.32
501.84	10090.05
502.02	10225.80
502.20	10602.63
502.37	10279.63
502.55	10324.10
502.72	10600.29
502.90	10572.20
503.07	10291.34
503.25	10139.20
503.43	9884.08
503.60	9699.18
503.78	9291.93
503.95	9387.89
504.13	10029.20
504.30	10534.75
504.48	10698.59
504.65	10380.28
504.83	10546.45
505.01	10670.50
505.18	10747.74
505.36	11042.65
505.53	10930.30
505.71	10911.58
505.88	11185.42
506.06	10934.98
506.23	10684.55
506.41	10614.33
506.58	10647.10
506.76	10551.14
506.93	10555.82
507.11	10562.84
507.28	10726.68
507.46	10141.54
507.63	10253.89
507.81	10300.70
507.98	10300.70
508.16	10661.14
508.33	10656.46
508.50	11000.52
508.68	10942.00
508.85	11197.12
509.03	11456.92
509.20	11337.56
509.38	10991.16
509.55	10803.91
509.73	10799.23
509.90	10764.12
510.08	10913.92
510.25	11129.25
510.42	11080.10
510.60	11054.35
510.77	11124.57
510.95	11372.66
511.12	11288.40
511.30	11414.79
511.47	11477.99
511.64	11630.12
511.82	11470.97
511.99	11346.92
512.17	11143.29
512.34	10899.87
512.51	10970.09
512.69	10803.91
512.86	10949.03
513.04	11176.06
513.21	11164.36
513.38	11283.72
513.56	10899.87
513.73	10658.80
513.90	10607.31
514.08	10675.18
514.25	10899.87
514.43	11059.03
514.60	10986.47
514.77	11206.48
514.95	11220.53
515.12	10661.14
515.29	11318.83
515.47	11339.90
515.64	11482.67
515.81	11419.47
515.99	11126.91
516.16	10897.53
516.33	9607.90
516.51	9441.72
516.68	8994.68
516.85	8847.22
517.03	8910.42
517.20	9664.07
517.37	10574.54
517.54	11030.94
517.72	10918.60
517.89	10073.67
518.06	9350.44
518.24	9282.56
518.41	10038.56
518.58	10626.03
518.75	10656.46
518.93	10789.87
519.10	10497.30
519.27	10670.50
519.45	10810.93
519.62	11152.65
519.79	11159.67
519.96	11211.17
520.14	11225.21
520.31	10841.36
520.48	10714.97
520.65	10808.59
520.83	11433.52
521.00	11178.40
521.17	11204.14
521.34	11169.04
521.52	11117.54
521.69	11328.19
521.86	11805.66
522.03	11403.09
522.20	11133.93
522.38	10637.73
522.55	10600.29
522.72	10806.25
522.89	10986.47
523.07	10953.71
523.24	11171.38
523.41	11508.41
523.58	11276.70
523.75	11641.82
523.92	11805.66
524.10	11735.45
524.27	11700.34
524.44	11679.27
524.61	11506.07
524.78	11590.33
524.96	11269.68
525.13	11578.63
525.30	11382.03
525.47	11772.89
525.64	11838.43
525.81	11412.45
525.98	10939.66
526.16	10478.58
526.33	9933.23
526.50	9916.85
526.67	9748.33
526.84	9722.59
527.01	10225.80
527.18	10485.60
527.36	10747.74
527.53	11276.70
527.70	11351.60
527.87	11253.30
528.04	11035.63
528.21	11033.29
528.38	11342.24
528.55	11756.51
528.72	11721.40
528.89	11976.52
529.07	11892.26
529.24	11648.85
529.41	11335.21
529.58	10829.66
529.75	11173.72
529.92	11229.89
530.09	11590.33
530.26	11777.58
530.43	11625.44
530.60	11742.47
530.77	11843.11
530.94	12006.95
531.11	11648.85
531.28	11641.82
531.46	11461.60
531.63	11721.40
531.80	11489.69
531.97	11459.26
532.14	11171.38
532.31	10803.91
532.48	10366.23
532.65	10516.03
532.82	10780.51
532.99	11328.19
533.16	11342.24
533.33	11529.48
533.50	11398.41
533.67	11276.70
533.84	11089.46
534.01	11049.67
534.18	11199.46
534.35	11309.47
534.52	11136.27
534.69	11382.03
534.86	11602.04
535.03	11470.97
535.20	11744.81
535.37	11852.47
535.54	12016.31
535.71	11580.97
535.88	11714.38
536.05	11360.96
536.22	11461.60
536.38	11328.19
536.55	11042.65
536.72	10721.99
536.89	10712.63
537.06	11162.01
537.23	11454.58
537.40	11592.67
537.57	11672.25
537.74	11403.09
537.91	11487.35
538.08	11534.16
538.25	11583.31
538.42	11534.16
538.59	11648.85
538.75	11117.54
538.92	11276.70
539.09	11143.29
539.26	11183.08
539.43	10949.03
539.60	11049.67
539.77	11297.77
539.94	10939.66
540.11	10991.16
540.28	10860.09
540.44	10684.55
540.61	10693.91
540.78	10869.45
540.95	11447.56
541.12	11709.70
541.29	11686.29
541.46	12133.34
541.62	11946.09
541.79	12004.61
541.96	11716.72
542.13	11669.91
542.30	11913.33
542.47	11922.69
542.63	11648.85
542.80	11562.25
542.97	11623.10
543.14	11426.50
543.31	11171.38
543.48	11796.30
543.64	11885.24
543.81	12332.28
543.98	12175.47
544.15	11955.46
544.32	11482.67
544.48	11562.25
544.65	11660.55
544.82	11950.78
544.99	11864.18
545.16	11524.80
545.32	11517.78
545.49	12706.77
545.66	13818.52
545.83	14621.33
546.00	13673.41
546.16	12458.67
546.33	12105.25
546.50	11681.61
546.67	11786.94
546.83	11461.60
547.00	11583.31
547.17	11274.36
547.34	11014.56
547.50	11101.16
547.67	11248.61
547.84	11112.86
548.00	11112.86
548.17	11466.28
548.34	11398.41
548.51	11412.45
548.67	11459.26
548.84	11372.66
549.01	11585.65
549.18	11562.25
549.34	10888.17
549.51	11276.70
549.68	11101.16
549.84	10965.41
550.01	11171.38
550.18	10998.18
550.34	11262.66
550.51	11346.92
550.68	11164.36
550.84	11030.94
551.01	10906.90
551.18	10839.02
551.34	10925.62
551.51	10911.58
551.68	11000.52
551.84	11358.62
552.01	11117.54
552.18	10686.89
552.34	10780.51
552.51	10466.88
552.68	10448.15
552.84	10562.84
553.01	10604.97
553.18	10773.49
553.34	10998.18
553.51	10824.98
553.67	10871.79
553.84	10967.75
554.01	10925.62
554.17	10993.50
554.34	11070.73
554.51	10712.63
554.67	10963.07
554.84	10890.51
555.00	10785.19
555.17	10747.74
555.33	10665.82
555.50	10778.17
555.67	10731.36
555.83	10714.97
556.00	10473.90
556.16	10593.26
556.33	10471.56
556.50	10401.34
556.66	10595.61
556.83	10225.80
556.99	10328.78
557.16	10396.66
557.32	10321.76
557.49	10553.48
557.65	10361.55
557.82	10415.38
557.98	10422.41
558.15	10277.29
558.32	10066.64
558.48	9701.52
558.65	9991.75
558.81	9811.53
558.98	9898.13
559.14	9909.83
559.31	9966.00
559.47	9994.09
559.64	10068.98
559.80	9998.77
559.97	9970.68
560.13	9958.98
560.30	10424.75
560.46	10403.68
560.63	10443.47
560.79	10494.96
560.96	10312.40
561.12	10008.13
561.29	9844.29
561.45	9795.14
561.61	9923.87
561.78	10064.30
561.94	9944.94
562.11	10118.14
562.27	9757.69
562.44	10057.28
562.60	9823.23
562.77	10143.88
562.93	10281.97
563.10	10207.08
563.26	10047.92
563.42	10118.14
563.59	10001.11
563.75	9748.33
563.92	9947.28
564.08	9958.98
564.24	9984.73
564.41	10045.58
564.57	9811.53
564.74	9692.16
564.90	9994.09
565.07	9914.51
565.23	9640.67
565.39	9694.50
565.56	9570.45
565.72	9483.85
565.88	9404.27
566.05	9525.98
566.21	9584.49
566.38	9661.73
566.54	9540.02
566.70	9919.19
566.87	9902.81
567.03	9923.87
567.19	9930.89
567.36	9680.46
567.52	9781.10
567.68	9572.79
567.85	9317.67
568.01	9355.12
568.17	8992.34
568.34	8908.08
568.50	8840.20
568.66	9088.30
568.83	8919.78
568.99	8926.80
569.15	9383.21
569.32	9170.22
569.48	8980.64
569.64	9139.79
569.81	8985.32
569.97	9034.47
570.13	9092.98
570.30	8905.74
570.46	8868.29
570.62	8727.86
570.78	8755.94
570.95	8688.07
571.11	8896.38
571.27	8891.70
571.43	8910.42
571.60	9001.70
571.76	8959.57
571.92	9111.71
572.09	9130.43
572.25	9352.78
572.41	9158.52
572.57	9067.24
572.74	9114.05
572.90	9181.92
573.06	9074.26
573.22	9128.09
573.38	8999.36
573.55	9048.51
573.71	9015.74
573.87	9210.01
574.03	8861.27
574.20	8929.14
574.36	8720.84
574.52	8620.19
574.68	8908.08
574.84	8840.20
575.01	8603.81
575.17	8877.65
575.33	8636.58
575.49	8725.52
575.65	8798.07
575.82	8592.11
575.98	8744.24
576.14	8751.26
576.30	8858.93
576.46	9207.67
576.62	9282.56
576.79	9535.34
576.95	9434.70
577.11	8802.75
577.27	9053.19
577.43	9118.73
577.59	8889.35
577.75	8594.45
577.92	8442.31
578.08	8386.14
578.24	8549.98
578.40	8439.97
578.56	8877.65
578.72	8926.80
578.88	9172.56
579.04	9139.79
579.21	8807.44
579.37	8992.34
579.53	8978.30
579.69	8870.63
579.85	8854.25
580.01	9013.40
580.17	8854.25
580.33	8964.25
580.49	9071.92
580.65	8959.57
580.82	8908.08
580.98	8870.63
581.14	9114.05
581.30	8716.16
581.46	8587.43
581.62	8950.21
581.78	8931.48
581.94	9280.22
582.10	9064.89
582.26	9336.40
582.42	9018.08
582.58	9102.34
582.74	9097.66
582.90	9104.68
583.06	9102.34
583.22	9067.24
583.38	8952.55
583.54	8954.89
583.70	8812.12
583.86	9128.09
584.02	9029.79
584.18	8898.72
584.34	8922.12
584.50	8978.30
584.66	8837.86
584.82	8753.60
584.98	8702.11
585.14	8638.92
585.30	8360.39
585.46	8416.57
585.62	8243.37
585.78	8461.04
585.94	8430.61
586.10	8439.97
586.26	8369.76
586.42	8655.30
586.58	8748.92
586.74	8723.18
586.90	8704.45
587.06	8643.60
587.22	8561.68
587.38	8379.12
587.54	8180.17
587.70	7936.76
587.86	7836.11
588.02	7559.93
588.18	7316.51
588.34	7009.90
588.49	6604.99
588.65	6242.21
588.81	6099.44
588.97	6104.12
589.13	6085.39
589.29	5895.81
589.45	5970.71
589.61	6150.93
589.77	6392.00
589.93	6677.55
590.08	6860.11
590.24	7133.95
590.40	7255.66
590.56	7164.38
590.72	7183.10
590.88	7133.95
591.04	7056.72
591.20	7115.23
591.35	7101.19
591.51	6904.58
591.67	6953.73
591.83	6974.80
591.99	7021.61
592.15	6991.18
592.31	7234.60
592.46	7290.77
592.62	7447.58
592.78	7379.71
592.94	7487.37
593.10	7442.90
593.26	7588.02
