SpectraSuite Data File
++++++++++++++++++++++++++++++++++++
Date: Fri Oct 04 11:44:16 GMT-05:00 2013
User: price-jones
Dark Spectrum Present: No
Reference Spectrum Present: No
Number of Sampled Component Spectra: 1
Spectrometers: USB2+H05261
Integration Time (usec): 100000 (USB2+H05261)
Spectra Averaged: 1 (USB2+H05261)
Boxcar Smoothing: 0 (USB2+H05261)
Correct for Electrical Dark: No (USB2+H05261)
Strobe/Lamp Enabled: No (USB2+H05261)
Correct for Detector Non-linearity: No (USB2+H05261)
Correct for Stray Light: No (USB2+H05261)
Number of Pixels in Processed Spectrum: 2048
>>>>>Begin Processed Spectral Data<<<<<
365.73	28.09
365.92	28.09
366.12	28.09
366.32	0.00
366.52	0.00
366.72	0.00
366.91	0.00
367.11	0.00
367.31	0.00
367.51	0.00
367.70	0.00
367.90	0.00
368.10	0.00
368.30	0.00
368.49	0.00
368.69	0.00
368.89	0.00
369.09	0.00
369.28	4.68
369.48	4.68
369.68	0.00
369.87	0.00
370.07	0.00
370.27	42.13
370.47	140.43
370.66	400.23
370.86	449.38
371.06	524.28
371.25	571.09
371.45	482.15
371.65	477.47
371.84	421.30
372.04	496.19
372.24	477.47
372.44	463.43
372.63	561.73
372.83	437.68
373.03	496.19
373.22	479.81
373.42	397.89
373.62	559.39
373.81	624.92
374.01	489.17
374.21	486.83
374.40	444.70
374.60	526.62
374.79	470.45
374.99	550.03
375.19	720.88
375.38	585.13
375.58	571.09
375.78	622.58
375.97	564.07
376.17	685.78
376.37	566.41
376.56	550.03
376.76	711.52
376.95	676.41
377.15	641.31
377.35	716.20
377.54	800.46
377.74	763.01
377.93	758.33
378.13	718.54
378.33	692.80
378.52	695.14
378.72	648.33
378.91	725.57
379.11	610.88
379.31	603.86
379.50	634.29
379.70	636.63
379.89	667.05
380.09	671.73
380.28	669.39
380.48	734.93
380.68	678.76
380.87	657.69
381.07	643.65
381.26	653.01
381.46	671.73
381.65	599.18
381.85	575.77
382.04	519.60
382.24	543.00
382.43	514.92
382.63	444.70
382.83	449.38
383.02	545.34
383.22	535.98
383.41	545.34
383.61	547.69
383.80	559.39
384.00	634.29
384.19	657.69
384.39	681.10
384.58	730.25
384.78	622.58
384.97	713.86
385.17	791.10
385.36	578.11
385.56	732.59
385.75	641.31
385.95	685.78
386.14	770.04
386.34	727.91
386.53	671.73
386.72	610.88
386.92	706.84
387.11	725.57
387.31	702.16
387.50	674.07
387.70	697.48
387.89	711.52
388.09	767.70
388.28	631.94
388.48	690.46
388.67	793.44
388.86	844.93
389.06	910.47
389.25	875.36
389.45	795.78
389.64	786.42
389.84	894.08
390.03	912.81
390.22	795.78
390.42	940.90
390.61	908.13
390.81	987.71
391.00	1041.54
391.19	1097.71
391.39	1004.09
391.58	915.15
391.78	889.40
391.97	807.48
392.16	760.67
392.36	734.93
392.55	662.37
392.75	613.22
392.94	447.04
393.13	493.85
393.33	528.96
393.52	622.58
393.71	702.16
393.91	856.64
394.10	793.44
394.29	959.62
394.49	980.68
394.68	1086.01
394.88	1104.73
395.07	1109.41
395.26	1048.56
395.46	1043.88
395.65	1025.15
395.84	917.49
396.04	851.96
396.23	657.69
396.42	507.90
396.62	580.45
396.81	713.86
397.00	840.25
397.19	973.66
397.39	1025.15
397.58	1198.35
397.77	1224.10
397.97	1252.19
398.16	1252.19
398.35	1287.29
398.55	1313.04
398.74	1369.21
398.93	1526.03
399.12	1444.11
399.32	1334.11
399.51	1282.61
399.70	1488.58
399.90	1413.68
400.09	1399.64
400.28	1420.71
400.47	1481.56
400.67	1636.03
400.86	1577.52
401.05	1612.63
401.24	1500.28
401.44	1600.93
401.63	1579.86
401.82	1472.20
402.01	1565.82
402.21	1673.48
402.40	1572.84
402.59	1469.86
402.78	1493.26
402.97	1554.12
403.17	1516.67
403.36	1549.43
403.55	1692.21
403.74	1647.74
403.93	1673.48
404.13	1621.99
404.32	1682.85
404.51	1818.60
404.70	1767.10
404.89	1640.72
405.09	1701.57
405.28	1488.58
405.47	1547.09
405.66	1626.67
405.85	1535.39
406.05	1462.83
406.24	1533.05
406.43	1481.56
406.62	1570.50
406.81	1633.69
407.00	1607.95
407.20	1565.82
407.39	1544.75
407.58	1600.93
407.77	1659.44
407.96	1610.29
408.15	1783.49
408.34	1799.87
408.54	1877.11
408.73	1802.21
408.92	1710.93
409.11	1647.74
409.30	1701.57
409.49	1584.54
409.68	1467.52
409.87	1413.68
410.07	1528.37
410.26	1640.72
410.45	1666.46
410.64	1671.14
410.83	1727.32
411.02	1753.06
411.21	1888.81
411.40	1860.73
411.59	1839.66
411.78	1863.07
411.98	1842.00
412.17	1813.92
412.36	1916.90
412.55	1809.23
412.74	1865.41
412.93	1834.98
413.12	1895.83
413.31	1984.77
413.50	1940.30
413.69	1865.41
413.88	1966.05
414.07	1944.99
414.26	1776.47
414.45	1781.15
414.64	1895.83
414.83	1895.83
415.02	1839.66
415.22	1930.94
415.41	2029.24
415.60	1975.41
415.79	2083.08
415.98	2181.38
416.17	2038.61
416.36	2038.61
416.55	2052.65
416.74	1928.60
416.93	1832.64
417.12	1900.52
417.31	1935.62
417.50	2001.16
417.69	2120.53
417.88	1982.43
418.07	2001.16
418.26	1935.62
418.45	2076.06
418.64	2120.53
418.83	2155.63
419.02	2064.35
419.21	2141.59
419.39	1959.03
419.58	1902.86
419.77	1797.53
419.96	2052.65
420.15	2235.21
420.34	2179.04
420.53	2092.44
420.72	2286.70
420.91	2270.32
421.10	2200.10
421.29	2286.70
421.48	2169.68
421.67	2193.08
421.86	2127.55
422.05	1980.09
422.24	1879.45
422.43	1940.30
422.61	1963.71
422.80	2143.93
422.99	2066.69
423.18	2005.84
423.37	2029.24
423.56	1980.09
423.75	1996.48
423.94	2104.14
424.13	1893.49
424.32	1991.80
424.50	2059.67
424.69	1987.11
424.88	2101.80
425.07	1947.33
425.26	2010.52
425.45	1961.37
425.64	1975.41
425.83	1980.09
426.01	2078.40
426.20	2122.87
426.39	2099.46
426.58	1975.41
426.77	1804.55
426.96	1769.44
427.15	1858.39
427.33	1877.11
427.52	1989.46
427.71	2083.08
427.90	2045.63
428.09	2015.20
428.28	1802.21
428.46	1947.33
428.65	1853.70
428.84	1923.92
429.03	1935.62
429.22	1753.06
429.40	1710.93
429.59	1593.90
429.78	1406.66
429.97	1511.99
430.16	1404.32
430.34	1462.83
430.53	1469.86
430.72	1540.07
430.91	1675.82
431.10	1797.53
431.28	2097.12
431.47	2179.04
431.66	2249.25
431.85	2087.76
432.03	1949.67
432.22	1916.90
432.41	2129.89
432.60	2265.64
432.79	2303.09
432.97	2260.96
433.16	2172.02
433.35	2090.10
433.54	1930.94
433.72	1853.70
433.91	1973.07
434.10	1970.73
434.28	2200.10
434.47	2218.83
434.66	2160.31
434.85	2216.49
435.03	2377.98
435.22	2640.12
435.41	3281.43
435.59	3269.73
435.78	3117.59
435.97	2782.90
436.16	2593.31
436.34	2424.80
436.53	2277.34
436.72	2431.82
436.90	2179.04
437.09	2286.70
437.28	2263.30
437.46	2162.66
437.65	2200.10
437.84	1977.75
438.02	2022.22
438.21	2010.52
438.40	2148.61
438.58	2272.66
438.77	2363.94
438.96	2282.02
439.14	2408.41
439.33	2389.69
439.52	2485.65
439.70	2424.80
439.89	2464.58
440.08	2282.02
440.26	2356.92
440.45	2476.29
440.63	2595.65
440.82	2595.65
441.01	2534.80
441.19	2544.16
441.38	2705.66
441.57	2668.21
441.75	2754.81
441.94	2810.98
442.12	2572.25
442.31	2836.73
442.50	2768.85
442.68	2768.85
442.87	2607.36
443.05	2684.59
443.24	2810.98
443.43	2738.43
443.61	2813.32
443.80	2876.52
443.98	2600.34
444.17	2621.40
444.35	2834.39
444.54	2871.84
444.73	2773.53
444.91	2710.34
445.10	2654.17
445.28	2541.82
445.47	2473.95
445.65	2450.54
445.84	2595.65
446.02	2555.86
446.21	2663.53
446.39	2626.08
446.58	2806.30
446.77	2722.04
446.95	2813.32
447.14	2792.26
447.32	2920.99
447.51	2789.92
447.69	2644.81
447.88	2738.43
448.06	2799.28
448.25	2860.13
448.43	2799.28
448.62	2710.34
448.80	2810.98
448.99	2782.90
449.17	2818.00
449.36	2874.18
449.54	2747.79
449.73	2928.01
449.91	3089.51
450.10	3136.32
450.28	3117.59
450.46	3110.57
450.65	3080.14
450.83	3066.10
451.02	2890.56
451.20	2876.52
451.39	2906.95
451.57	2963.12
451.76	2806.30
451.94	2904.60
452.13	2897.58
452.31	2726.72
452.49	2745.45
452.68	2574.59
452.86	2698.64
453.05	2684.59
453.23	2717.36
453.42	2801.62
453.60	2885.88
453.78	2890.56
453.97	2864.82
454.15	2869.50
454.34	2752.47
454.52	2740.77
454.70	2766.51
454.89	2843.75
455.07	2754.81
455.26	2946.73
455.44	2956.10
455.62	3026.31
455.81	3021.63
455.99	2925.67
456.17	2991.20
456.36	2869.50
456.54	2925.67
456.73	3049.72
456.91	2974.82
457.09	2925.67
457.28	3248.66
457.46	3040.36
457.64	2939.71
457.83	2888.22
458.01	2846.09
458.19	3094.19
458.38	2871.84
458.56	2988.86
458.74	3103.55
458.93	3110.57
459.11	3056.74
459.29	2857.79
459.48	2946.73
459.66	2960.78
459.84	2998.23
460.03	3141.00
460.21	3094.19
460.39	3075.46
460.57	3108.23
460.76	2972.48
460.94	3122.27
461.12	3148.02
461.31	3019.29
461.49	3059.08
461.67	3183.13
461.85	3279.09
462.04	3126.96
462.22	3625.49
462.40	3176.11
462.59	3023.97
462.77	3124.62
462.95	3206.53
463.13	3131.64
463.32	3129.30
463.50	3145.68
463.68	3204.19
463.86	3052.06
464.05	2974.82
464.23	2925.67
464.41	3028.65
464.59	3014.61
464.78	3033.33
464.96	3028.65
465.14	3143.34
465.32	3176.11
465.50	3218.24
465.69	3293.13
465.87	3087.17
466.05	3119.93
466.23	2942.05
466.41	2794.60
466.60	2850.77
466.78	2841.41
466.96	3000.57
467.14	3005.25
467.32	3117.59
467.51	2949.08
467.69	2963.12
467.87	2977.16
468.05	2998.23
468.23	2981.84
468.41	3204.19
468.60	3030.99
468.78	3148.02
468.96	2953.76
469.14	3110.57
469.32	3103.55
469.50	2956.10
469.69	3049.72
469.87	2981.84
470.05	3007.59
470.23	3112.91
470.41	2998.23
470.59	2972.48
470.77	2902.26
470.95	3141.00
471.14	3028.65
471.32	3176.11
471.50	3281.43
471.68	3302.50
471.86	3159.72
472.04	3227.60
472.22	3201.85
472.40	3169.09
472.58	3091.85
472.77	3059.08
472.95	3089.51
473.13	3222.92
473.31	3009.93
473.49	3145.68
473.67	3241.64
473.85	3372.71
474.03	3370.37
474.21	3358.67
474.39	3365.69
474.57	3386.76
474.75	3316.54
474.93	3279.09
475.12	3190.15
475.30	3293.13
475.48	3297.81
475.66	3368.03
475.84	3307.18
476.02	3138.66
476.20	3227.60
476.38	3157.38
476.56	3269.73
476.74	3358.67
476.92	3328.24
477.10	3487.40
477.28	3524.85
477.46	3545.91
477.64	3552.93
477.82	3463.99
478.00	3684.00
478.18	3590.38
478.36	3602.08
478.54	3515.48
478.72	3583.36
478.90	3566.98
479.08	3709.75
479.26	3836.14
479.44	3662.94
479.62	3784.65
479.80	3826.78
479.98	3838.48
480.16	3911.04
480.34	3763.58
480.52	3796.35
480.70	3960.19
480.88	3784.65
481.06	3934.44
481.24	3852.52
481.41	4032.74
481.59	4117.00
481.77	4102.96
481.95	4018.70
482.13	4058.49
482.31	3969.55
482.49	4018.70
482.67	4004.66
482.85	4081.89
483.03	4049.13
483.21	4142.75
483.39	4259.78
483.57	4030.40
483.74	3997.64
483.92	4119.34
484.10	4081.89
484.28	4273.82
484.46	4369.78
484.64	4278.50
484.82	4229.35
485.00	4191.90
485.18	4131.05
485.35	4035.08
485.53	3756.56
485.71	3435.91
485.89	3400.80
486.07	3492.08
486.25	3744.86
486.43	4084.23
486.61	4145.09
486.78	4140.41
486.96	4191.90
487.14	4351.06
487.32	4322.97
487.50	4627.24
487.68	4599.15
487.85	4744.27
488.03	4877.68
488.21	4535.96
488.39	4470.42
488.57	4528.94
488.75	4468.08
488.92	4777.03
489.10	4826.18
489.28	5046.20
489.46	5074.28
489.64	5032.15
489.81	5118.75
489.99	5074.28
490.17	4983.00
490.35	5111.73
490.53	5053.22
490.70	4894.06
490.88	4945.55
491.06	5046.20
491.24	5085.98
491.41	4851.93
491.59	4739.58
491.77	4699.80
491.95	4758.31
492.13	4915.12
492.30	5057.90
492.48	5191.31
492.66	5378.55
492.84	5334.08
493.01	5172.58
493.19	5179.61
493.37	5102.37
493.54	5130.45
493.72	5336.42
493.90	5355.15
494.08	5284.93
494.25	5598.56
494.43	5544.73
494.61	5437.06
494.79	5598.56
494.96	5397.28
495.14	5666.44
495.32	5334.08
495.49	5219.39
495.67	5352.81
495.85	5696.86
496.02	5727.29
496.20	5687.50
496.38	5516.64
496.55	5577.50
496.73	5813.89
496.91	5785.80
497.09	5996.45
497.26	5923.90
497.44	5692.18
497.62	5596.22
497.79	5497.92
497.97	5184.29
498.14	5406.64
498.32	5596.22
498.50	5636.01
498.67	5795.17
498.85	5724.95
499.03	5881.77
499.20	5790.49
499.38	5818.57
499.56	5830.27
499.73	5750.70
499.91	5678.14
500.08	5324.72
500.26	5397.28
500.44	5439.40
500.61	5556.43
500.79	5591.54
500.97	5626.65
501.14	5682.82
501.32	5338.76
501.49	5472.17
501.67	5493.24
501.84	5437.06
502.02	5591.54
502.20	5734.31
502.37	5605.58
502.55	5643.03
502.72	5703.89
502.90	5678.14
503.07	5554.09
503.25	5448.77
503.43	5362.17
503.60	5245.14
503.78	5231.10
503.95	5041.51
504.13	5516.64
504.30	5596.22
504.48	5710.91
504.65	5846.66
504.83	5668.78
505.01	5671.12
505.18	5764.74
505.36	5846.66
505.53	5891.13
505.71	5856.02
505.88	6153.27
506.06	5891.13
506.23	5865.38
506.41	5717.93
506.58	5727.29
506.76	5858.36
506.93	5764.74
507.11	5891.13
507.28	5614.95
507.46	5579.84
507.63	5607.92
507.81	5584.52
507.98	5692.18
508.16	5837.30
508.33	5736.65
508.50	5935.60
508.68	5809.21
508.85	6108.80
509.03	6141.57
509.20	5860.70
509.38	5841.98
509.55	5944.96
509.73	5734.31
509.90	6008.16
510.08	6043.26
510.25	5987.09
510.42	5902.83
510.60	5963.68
510.77	6125.18
510.95	6202.42
511.12	6113.48
511.30	6260.93
511.47	6307.74
511.64	6244.55
511.82	6195.40
511.99	5912.19
512.17	6059.65
512.34	6003.47
512.51	6066.67
512.69	5888.79
512.86	5909.85
513.04	5823.25
513.21	6228.17
513.38	6036.24
513.56	5755.38
513.73	5818.57
513.90	5860.70
514.08	5764.74
514.25	5956.66
514.43	6022.20
514.60	5959.00
514.77	5968.37
514.95	6216.46
515.12	6106.46
515.29	6157.95
515.47	6155.61
515.64	6066.67
515.81	6179.01
515.99	5804.53
516.16	5593.88
516.33	5343.44
516.51	5158.54
516.68	4826.18
516.85	4954.91
517.03	5053.22
517.20	5305.99
517.37	5753.04
517.54	5830.27
517.72	5893.47
517.89	5359.83
518.06	5008.75
518.24	5142.16
518.41	5455.79
518.58	5844.32
518.75	5724.95
518.93	5872.40
519.10	5902.83
519.27	5823.25
519.45	5858.36
519.62	6033.90
519.79	6136.88
519.96	6120.50
520.14	6038.58
520.31	5884.11
520.48	5849.00
520.65	5860.70
520.83	5982.41
521.00	6307.74
521.17	6050.28
521.34	5977.73
521.52	6057.31
521.69	6197.74
521.86	6249.23
522.03	6005.81
522.20	6019.86
522.38	5715.59
522.55	5874.74
522.72	5806.87
522.89	5781.12
523.07	6047.94
523.24	5928.58
523.41	6120.50
523.58	6312.42
523.75	6195.40
523.92	6244.55
524.10	6211.78
524.27	6258.59
524.44	6317.11
524.61	6221.14
524.78	6076.03
524.96	6050.28
525.13	6087.73
525.30	6076.03
525.47	6422.43
525.64	6113.48
525.81	5966.03
525.98	5844.32
526.16	5612.60
526.33	5238.12
526.50	5327.06
526.67	5247.48
526.84	5453.45
527.01	5643.03
527.18	5750.70
527.36	6045.60
527.53	6148.59
527.70	6202.42
527.87	5884.11
528.04	5930.92
528.21	6073.69
528.38	6218.80
528.55	6345.19
528.72	6516.05
528.89	6576.91
529.07	6469.24
529.24	6061.99
529.41	6097.10
529.58	5987.09
529.75	6104.12
529.92	6031.56
530.09	6244.55
530.26	6384.98
530.43	6195.40
530.60	6380.30
530.77	6527.75
530.94	6352.21
531.11	6415.41
531.28	6359.24
531.46	6338.17
531.63	6368.60
531.80	6146.25
531.97	6148.59
532.14	6120.50
532.31	5795.17
532.48	5577.50
532.65	5523.66
532.82	5877.09
532.99	6146.25
533.16	6155.61
533.33	6307.74
533.50	6239.87
533.67	6183.70
533.84	5956.66
534.01	5940.28
534.18	6066.67
534.35	6069.01
534.52	6244.55
534.69	6101.78
534.86	6282.00
535.03	6331.15
535.20	6183.70
535.37	6434.13
535.54	6448.18
535.71	6352.21
535.88	6375.62
536.05	6242.21
536.22	6244.55
536.38	5998.79
536.55	5989.43
536.72	5916.87
536.89	5827.93
537.06	6010.50
537.23	6171.99
537.40	6392.00
537.57	6181.35
537.74	6293.70
537.91	6211.78
538.08	6120.50
538.25	6265.61
538.42	6221.14
538.59	6225.82
538.75	6146.25
538.92	6113.48
539.09	6024.54
539.26	5879.43
539.43	6043.26
539.60	5874.74
539.77	6204.76
539.94	6162.63
540.11	5888.79
540.28	5895.81
540.44	6019.86
540.61	6054.97
540.78	6066.67
540.95	6092.41
541.12	6597.97
541.29	6832.02
541.46	6764.15
541.62	6766.49
541.79	6764.15
541.96	6452.86
542.13	6600.31
542.30	6670.53
542.47	6738.40
542.63	6361.58
542.80	6544.14
542.97	6483.28
543.14	6642.44
543.31	6408.39
543.48	6523.07
543.64	6677.55
543.81	6743.08
543.98	6766.49
544.15	6480.94
544.32	6445.84
544.48	6408.39
544.65	6459.88
544.82	6499.67
544.99	6581.59
545.16	6485.62
545.32	6436.47
545.49	7302.47
545.66	7896.97
545.83	8341.67
546.00	8290.18
546.16	7522.48
546.33	6841.39
546.50	6700.95
546.67	6464.56
546.83	6256.25
547.00	6553.50
547.17	6221.14
547.34	6113.48
547.50	6202.42
547.67	6118.16
547.84	6122.84
548.00	6399.02
548.17	6349.87
548.34	6296.04
548.51	6282.00
548.67	6370.94
548.84	6209.44
549.01	6214.12
549.18	6019.86
549.34	6113.48
549.51	6204.76
549.68	6052.63
549.84	6057.31
550.01	6106.46
550.18	6043.26
550.34	6010.50
550.51	5909.85
550.68	6029.22
550.84	5968.37
551.01	5909.85
551.18	5865.38
551.34	5886.45
551.51	6061.99
551.68	5982.41
551.84	5984.75
552.01	6193.06
552.18	5909.85
552.34	5746.02
552.51	5666.44
552.68	5827.93
552.84	5844.32
553.01	5949.64
553.18	5799.85
553.34	5816.23
553.51	5860.70
553.67	5902.83
553.84	5930.92
554.01	5797.51
554.17	5795.17
554.34	5785.80
554.51	5769.42
554.67	5926.24
554.84	5844.32
555.00	5874.74
555.17	5724.95
555.33	5699.20
555.50	5731.97
555.67	5771.76
555.83	5708.57
556.00	5640.69
556.16	5731.97
556.33	5568.13
556.50	5696.86
556.66	5551.75
556.83	5579.84
556.99	5568.13
557.16	5373.87
557.32	5647.71
557.49	5603.24
557.65	5497.92
557.82	5640.69
557.98	5631.33
558.15	5526.00
558.32	5427.70
558.48	5231.10
558.65	5217.05
558.81	5357.49
558.98	5327.06
559.14	5528.35
559.31	5416.00
559.47	5348.12
559.64	5322.38
559.80	5322.38
559.97	5394.93
560.13	5418.34
560.30	5568.13
560.46	5535.37
560.63	5706.23
560.79	5570.48
560.96	5603.24
561.12	5516.64
561.29	5359.83
561.45	5207.69
561.61	5427.70
561.78	5558.77
561.94	5451.11
562.11	5373.87
562.27	5474.51
562.44	5334.08
562.60	5434.72
562.77	5479.19
562.93	5558.77
563.10	5521.32
563.26	5486.22
563.42	5441.75
563.59	5383.23
563.75	5280.25
563.92	5313.02
564.08	5310.68
564.24	5399.62
564.41	5411.32
564.57	5451.11
564.74	5406.64
564.90	5296.63
565.07	5423.02
565.23	5266.21
565.39	5078.96
565.56	5118.75
565.72	5095.35
565.88	5184.29
566.05	5109.39
566.21	5088.32
566.38	5104.71
566.54	5392.59
566.70	5294.29
566.87	5329.40
567.03	5259.18
567.19	5336.42
567.36	5301.31
567.52	5048.54
567.68	5233.44
567.85	4943.21
568.01	4917.47
568.17	4774.69
568.34	4791.08
568.50	4880.02
568.66	4851.93
568.83	5060.24
568.99	5027.47
569.15	5032.15
569.32	4786.40
569.48	4863.63
569.64	4802.78
569.81	4851.93
569.97	4781.71
570.13	4905.76
570.30	4725.54
570.46	4816.82
570.62	4737.24
570.78	4667.03
570.95	4716.18
571.11	4725.54
571.27	4741.93
571.43	4816.82
571.60	4898.74
571.76	4765.33
571.92	4873.00
572.09	4887.04
572.25	4968.96
572.41	5025.13
572.57	4779.37
572.74	4924.49
572.90	4894.06
573.06	5027.47
573.22	4854.27
573.38	4997.04
573.55	4975.98
573.71	4828.53
573.87	4851.93
574.03	4835.55
574.20	4770.01
574.36	4688.09
574.52	4744.27
574.68	4821.50
574.84	4702.14
575.01	4702.14
575.17	4610.86
575.33	4660.01
575.49	4788.74
575.65	4727.88
575.82	4779.37
575.98	4779.37
576.14	4758.31
576.30	4856.61
576.46	4997.04
576.62	5057.90
576.79	5219.39
576.95	4957.25
577.11	4844.91
577.27	4727.88
577.43	4826.18
577.59	4770.01
577.75	4709.16
577.92	4550.00
578.08	4355.74
578.24	4517.23
578.40	4585.11
578.56	4730.22
578.72	5109.39
578.88	4926.83
579.04	4975.98
579.21	4802.78
579.37	4924.49
579.53	4772.35
579.69	4725.54
579.85	4812.14
580.01	4975.98
580.17	4912.78
580.33	4905.76
580.49	4713.84
580.65	4856.61
580.82	4854.27
580.98	4748.95
581.14	4851.93
581.30	4870.65
581.46	4812.14
581.62	4835.55
581.78	4826.18
581.94	4940.87
582.10	4819.16
582.26	5064.92
582.42	4919.81
582.58	4865.97
582.74	4809.80
582.90	4772.35
583.06	4868.31
583.22	4709.16
583.38	4898.74
583.54	4924.49
583.70	4744.27
583.86	4870.65
584.02	4863.63
584.18	4901.08
584.34	4880.02
584.50	4828.53
584.66	4725.54
584.82	4685.75
584.98	4744.27
585.14	4634.26
585.30	4613.20
585.46	4594.47
585.62	4669.37
585.78	4557.02
585.94	4491.49
586.10	4587.45
586.26	4688.09
586.42	4629.58
586.58	4599.15
586.74	4648.30
586.90	4606.17
587.06	4697.46
587.22	4681.07
587.38	4603.83
587.54	4484.47
587.70	4425.95
587.86	4187.22
588.02	4248.07
588.18	3974.23
588.34	3850.18
588.49	3651.24
588.65	3431.23
588.81	3318.88
588.97	3391.44
589.13	3346.97
589.29	3372.71
589.45	3269.73
589.61	3403.14
589.77	3478.04
589.93	3571.66
590.08	3894.65
590.24	3812.73
590.40	3871.25
590.56	3941.46
590.72	3794.01
590.88	3850.18
591.04	3707.41
591.20	3794.01
591.35	3726.13
591.51	3885.29
591.67	3730.81
591.83	3662.94
591.99	3707.41
592.15	3990.61
592.31	3985.93
592.46	4124.02
592.62	4067.85
592.78	4102.96
592.94	4098.28
593.10	4189.56
593.26	4238.71
593.41	4189.56
593.57	4191.90
593.73	3920.40
593.89	3777.62
594.05	3653.58
594.20	3576.34
594.36	3632.51
594.52	3499.10
594.68	3428.88
594.84	3620.81
594.99	3726.13
595.15	3878.27
595.31	3852.52
595.47	3744.86
595.62	3871.25
595.78	3854.86
595.94	3997.64
596.10	3939.12
596.25	3992.95
596.41	3889.97
596.57	3826.78
596.73	3733.15
596.88	4044.45
597.04	3889.97
597.20	3808.05
597.36	3838.48
597.51	3894.65
597.67	3971.89
597.83	3915.72
