SpectraSuite Data File
++++++++++++++++++++++++++++++++++++
Date: Fri Oct 04 11:44:21 GMT-05:00 2013
User: price-jones
Dark Spectrum Present: No
Reference Spectrum Present: No
Number of Sampled Component Spectra: 1
Spectrometers: USB2+H05261
Integration Time (usec): 100000 (USB2+H05261)
Spectra Averaged: 1 (USB2+H05261)
Boxcar Smoothing: 0 (USB2+H05261)
Correct for Electrical Dark: No (USB2+H05261)
Strobe/Lamp Enabled: No (USB2+H05261)
Correct for Detector Non-linearity: No (USB2+H05261)
Correct for Stray Light: No (USB2+H05261)
Number of Pixels in Processed Spectrum: 2048
>>>>>Begin Processed Spectral Data<<<<<
365.73	60.85
365.92	60.85
366.12	60.85
366.32	0.00
366.52	0.00
366.72	16.38
366.91	0.00
367.11	0.00
367.31	0.00
367.51	0.00
367.70	0.00
367.90	0.00
368.10	0.00
368.30	0.00
368.49	0.00
368.69	0.00
368.89	0.00
369.09	0.00
369.28	0.00
369.48	0.00
369.68	0.00
369.87	46.81
370.07	0.00
370.27	11.70
370.47	0.00
370.66	271.50
370.86	367.46
371.06	435.34
371.25	407.25
371.45	334.70
371.65	344.06
371.84	360.44
372.04	355.76
372.24	411.93
372.44	355.76
372.63	451.72
372.83	486.83
373.03	360.44
373.22	283.20
373.42	416.62
373.62	348.74
373.81	409.59
374.01	390.87
374.21	449.38
374.40	372.15
374.60	395.55
374.79	517.26
374.99	486.83
375.19	451.72
375.38	475.13
375.58	486.83
375.78	451.72
375.97	547.69
376.17	533.64
376.37	500.87
376.56	585.13
376.76	575.77
376.95	514.92
377.15	674.07
377.35	559.39
377.54	678.76
377.74	622.58
377.93	587.47
378.13	561.73
378.33	713.86
378.52	512.58
378.72	608.54
378.91	545.34
379.11	557.05
379.31	503.22
379.50	444.70
379.70	496.19
379.89	615.56
380.09	521.94
380.28	566.41
380.48	610.88
380.68	554.71
380.87	608.54
381.07	545.34
381.26	559.39
381.46	463.43
381.65	421.30
381.85	491.51
382.04	402.57
382.24	440.02
382.43	416.62
382.63	374.49
382.83	409.59
383.02	482.15
383.22	447.04
383.41	425.98
383.61	395.55
383.80	468.11
384.00	496.19
384.19	578.11
384.39	603.86
384.58	524.28
384.78	589.82
384.97	554.71
385.17	557.05
385.36	533.64
385.56	543.00
385.75	545.34
385.95	550.03
386.14	503.22
386.34	573.43
386.53	582.79
386.72	608.54
386.92	599.18
387.11	575.77
387.31	617.90
387.50	580.45
387.70	575.77
387.89	573.43
388.09	585.13
388.28	622.58
388.48	540.66
388.67	617.90
388.86	697.48
389.06	704.50
389.25	716.20
389.45	650.67
389.64	674.07
389.84	709.18
390.03	713.86
390.22	653.01
390.42	704.50
390.61	725.57
390.81	821.53
391.00	802.80
391.19	767.70
391.39	898.77
391.58	887.06
391.78	669.39
391.97	690.46
392.16	610.88
392.36	706.84
392.55	564.07
392.75	430.66
392.94	355.76
393.13	372.15
393.33	397.89
393.52	564.07
393.71	603.86
393.91	681.10
394.10	667.05
394.29	730.25
394.49	767.70
394.68	917.49
394.88	828.55
395.07	924.51
395.26	851.96
395.46	835.57
395.65	842.59
395.84	730.25
396.04	760.67
396.23	578.11
396.42	479.81
396.62	472.79
396.81	552.37
397.00	641.31
397.19	770.04
397.39	830.89
397.58	947.92
397.77	997.07
397.97	980.68
398.16	1191.33
398.35	1111.75
398.55	1095.37
398.74	1139.84
398.93	1088.35
399.12	1144.52
399.32	1160.91
399.51	1128.14
399.70	1177.29
399.90	1221.76
400.09	1128.14
400.28	1212.40
400.47	1238.14
400.67	1266.23
400.86	1287.29
401.05	1240.48
401.24	1313.04
401.44	1219.42
401.63	1343.47
401.82	1380.92
402.01	1299.00
402.21	1315.38
402.40	1308.36
402.59	1226.44
402.78	1226.44
402.97	1200.69
403.17	1233.46
403.36	1327.08
403.55	1273.25
403.74	1308.36
403.93	1350.49
404.13	1394.96
404.32	1427.73
404.51	1434.75
404.70	1430.07
404.89	1371.55
405.09	1345.81
405.28	1308.36
405.47	1371.55
405.66	1254.53
405.85	1198.35
406.05	1144.52
406.24	1200.69
406.43	1233.46
406.62	1299.00
406.81	1329.42
407.00	1273.25
407.20	1268.57
407.39	1228.78
407.58	1324.74
407.77	1357.51
407.96	1420.71
408.15	1497.94
408.34	1413.68
408.54	1341.13
408.73	1392.62
408.92	1451.13
409.11	1455.81
409.30	1364.53
409.49	1303.68
409.68	1256.87
409.87	1224.10
410.07	1153.88
410.26	1350.49
410.45	1409.00
410.64	1448.79
410.83	1483.90
411.02	1493.26
411.21	1537.73
411.40	1596.25
411.59	1621.99
411.78	1474.54
411.98	1547.09
412.17	1488.58
412.36	1516.67
412.55	1519.01
412.74	1507.30
412.93	1483.90
413.12	1416.02
413.31	1636.03
413.50	1533.05
413.69	1523.69
413.88	1479.22
414.07	1540.07
414.26	1479.22
414.45	1589.22
414.64	1610.29
414.83	1572.84
415.02	1502.62
415.22	1617.31
415.41	1654.76
415.60	1706.25
415.79	1776.47
415.98	1790.51
416.17	1720.29
416.36	1715.61
416.55	1753.06
416.74	1577.52
416.93	1614.97
417.12	1521.35
417.31	1540.07
417.50	1633.69
417.69	1732.00
417.88	1624.33
418.07	1636.03
418.26	1664.12
418.45	1563.48
418.64	1687.53
418.83	1778.81
419.02	1640.72
419.21	1701.57
419.39	1692.21
419.58	1603.27
419.77	1598.59
419.96	1713.27
420.15	1734.34
420.34	1778.81
420.53	1809.23
420.72	1905.20
420.91	1858.39
421.10	1797.53
421.29	1750.72
421.48	1785.83
421.67	1682.85
421.86	1624.33
422.05	1664.12
422.24	1568.16
422.43	1437.09
422.61	1664.12
422.80	1797.53
422.99	1678.16
423.18	1762.42
423.37	1638.38
423.56	1680.50
423.75	1720.29
423.94	1605.61
424.13	1521.35
424.32	1626.67
424.50	1720.29
424.69	1638.38
424.88	1600.93
425.07	1659.44
425.26	1586.88
425.45	1612.63
425.64	1671.14
425.83	1547.09
426.01	1755.40
426.20	1734.34
426.39	1732.00
426.58	1619.65
426.77	1516.67
426.96	1434.75
427.15	1451.13
427.33	1614.97
427.52	1540.07
427.71	1603.27
427.90	1647.74
428.09	1605.61
428.28	1584.54
428.46	1568.16
428.65	1570.50
428.84	1570.50
429.03	1521.35
429.22	1565.82
429.40	1479.22
429.59	1289.64
429.78	1296.66
429.97	1184.31
430.16	1100.05
430.34	1231.12
430.53	1172.61
430.72	1196.01
430.91	1355.17
431.10	1528.37
431.28	1680.50
431.47	1839.66
431.66	1902.86
431.85	1818.60
432.03	1680.50
432.22	1600.93
432.41	1591.56
432.60	1905.20
432.79	1881.79
432.97	1842.00
433.16	1872.43
433.35	1661.78
433.54	1497.94
433.72	1488.58
433.91	1565.82
434.10	1647.74
434.28	1757.74
434.47	1952.01
434.66	1867.75
434.85	1795.19
435.03	1942.64
435.22	2443.52
435.41	3021.63
435.59	3225.26
435.78	2698.64
435.97	2333.51
436.16	2174.36
436.34	1877.11
436.53	1947.33
436.72	1900.52
436.90	1834.98
437.09	1891.15
437.28	1930.94
437.46	1860.73
437.65	1823.28
437.84	1781.15
438.02	1694.55
438.21	1694.55
438.40	1593.90
438.58	1790.51
438.77	1809.23
438.96	1842.00
439.14	2012.86
439.33	1963.71
439.52	1987.11
439.70	1982.43
439.89	2029.24
440.08	1966.05
440.26	2008.18
440.45	1863.07
440.63	2174.36
440.82	2118.18
441.01	2183.72
441.19	2062.01
441.38	2209.47
441.57	2033.93
441.75	2216.49
441.94	2354.58
442.12	2225.85
442.31	2153.29
442.50	2157.97
442.68	2181.38
442.87	2169.68
443.05	2183.72
443.24	2214.15
443.43	2197.76
443.61	2328.83
443.80	2331.17
443.98	2129.89
444.17	2134.57
444.35	2312.45
444.54	2328.83
444.73	2328.83
444.91	2179.04
445.10	2157.97
445.28	2090.10
445.47	2052.65
445.65	1982.43
445.84	1980.09
446.02	2153.29
446.21	2209.47
446.39	2235.21
446.58	2253.94
446.77	2162.66
446.95	2300.75
447.14	2480.97
447.32	2385.01
447.51	2298.41
447.69	2167.34
447.88	2258.62
448.06	2216.49
448.25	2359.26
448.43	2284.36
448.62	2284.36
448.80	2162.66
448.99	2209.47
449.17	2277.34
449.36	2377.98
449.54	2392.03
449.73	2375.64
449.91	2420.11
450.10	2445.86
450.28	2565.23
450.46	2502.03
450.65	2464.58
450.83	2441.18
451.02	2363.94
451.20	2431.82
451.39	2518.42
451.57	2413.09
451.76	2314.79
451.94	2403.73
452.13	2422.45
452.31	2291.38
452.49	2146.27
452.68	2136.91
452.86	2181.38
453.05	2235.21
453.23	2197.76
453.42	2349.90
453.60	2317.13
453.78	2401.39
453.97	2382.67
454.15	2406.07
454.34	2282.02
454.52	2249.25
454.70	2335.85
454.89	2354.58
455.07	2359.26
455.26	2293.72
455.44	2340.54
455.62	2541.82
455.81	2422.45
455.99	2464.58
456.17	2403.73
456.36	2401.39
456.54	2431.82
456.73	2429.48
456.91	2569.91
457.09	2562.89
457.28	2597.99
457.46	2429.48
457.64	2551.18
457.83	2375.64
458.01	2324.15
458.19	2298.41
458.38	2450.54
458.56	2413.09
458.74	2410.75
458.93	2413.09
459.11	2410.75
459.29	2469.27
459.48	2534.80
459.66	2392.03
459.84	2422.45
460.03	2581.61
460.21	2502.03
460.39	2480.97
460.57	2513.74
460.76	2495.01
460.94	2630.76
461.12	2581.61
461.31	2595.65
461.49	2457.56
461.67	2518.42
461.85	2616.72
462.04	2626.08
462.22	3080.14
462.40	2605.02
462.59	2644.81
462.77	2539.48
462.95	2665.87
463.13	2576.93
463.32	2576.93
463.50	2534.80
463.68	2520.76
463.86	2595.65
464.05	2457.56
464.23	2450.54
464.41	2544.16
464.59	2286.70
464.78	2424.80
464.96	2490.33
465.14	2504.37
465.32	2487.99
465.50	2586.29
465.69	2534.80
465.87	2476.29
466.05	2487.99
466.23	2385.01
466.41	2382.67
466.60	2382.67
466.78	2401.39
466.96	2504.37
467.14	2537.14
467.32	2565.23
467.51	2431.82
467.69	2434.16
467.87	2511.39
468.05	2490.33
468.23	2492.67
468.41	2476.29
468.60	2602.68
468.78	2548.84
468.96	2546.50
469.14	2621.40
469.32	2462.24
469.50	2480.97
469.69	2352.24
469.87	2443.52
470.05	2352.24
470.23	2392.03
470.41	2406.07
470.59	2410.75
470.77	2342.88
470.95	2401.39
471.14	2532.46
471.32	2518.42
471.50	2630.76
471.68	2649.49
471.86	2698.64
472.04	2668.21
472.22	2747.79
472.40	2541.82
472.58	2630.76
472.77	2448.20
472.95	2569.91
473.13	2649.49
473.31	2658.85
473.49	2656.51
473.67	2647.15
473.85	2736.09
474.03	2794.60
474.21	2693.96
474.39	2640.12
474.57	2722.04
474.75	2717.36
474.93	2815.66
475.12	2630.76
475.30	2651.83
475.48	2630.76
475.66	2679.91
475.84	2743.11
476.02	2665.87
476.20	2696.30
476.38	2717.36
476.56	2740.77
476.74	2726.72
476.92	2796.94
477.10	2731.41
477.28	2939.71
477.46	2810.98
477.64	2956.10
477.82	3047.38
478.00	2871.84
478.18	3023.97
478.36	2972.48
478.54	2796.94
478.72	2967.80
478.90	2946.73
479.08	3103.55
479.26	3117.59
479.44	3096.53
479.62	3141.00
479.80	3098.87
479.98	3110.57
480.16	3131.64
480.34	3059.08
480.52	3206.53
480.70	3192.49
480.88	3199.51
481.06	3290.79
481.24	3286.11
481.41	3300.16
481.59	3307.18
481.77	3267.39
481.95	3220.58
482.13	3300.16
482.31	3164.40
482.49	3363.35
482.67	3344.63
482.85	3501.44
483.03	3660.60
483.21	3510.80
483.39	3398.46
483.57	3246.32
483.74	3478.04
483.92	3353.99
484.10	3473.36
484.28	3433.57
484.46	3524.85
484.64	3555.27
484.82	3538.89
485.00	3564.64
485.18	3463.99
485.35	3368.03
485.53	3073.12
485.71	2984.18
485.89	2843.75
486.07	2951.42
486.25	3265.05
486.43	3258.03
486.61	3494.42
486.78	3419.52
486.96	3449.95
487.14	3555.27
487.32	3712.09
487.50	3709.75
487.68	3737.84
487.85	3836.14
488.03	4011.68
488.21	3796.35
488.39	3646.55
488.57	3700.39
488.75	3679.32
488.92	3974.23
489.10	3761.24
489.28	4159.13
489.46	4222.33
489.64	4030.40
489.81	4102.96
489.99	4215.30
490.17	4241.05
490.35	4238.71
490.53	4063.17
490.70	4131.05
490.88	4152.11
491.06	4210.62
491.24	4124.02
491.41	4119.34
491.59	3918.06
491.77	3864.22
491.95	3960.19
492.13	4114.66
492.30	4243.39
492.48	4451.70
492.66	4304.25
492.84	4418.93
493.01	4320.63
493.19	4252.75
493.37	4266.80
493.54	4109.98
493.72	4191.90
493.90	4358.08
494.08	4540.64
494.25	4578.09
494.43	4559.36
494.61	4664.69
494.79	4559.36
494.96	4627.24
495.14	4643.62
495.32	4454.04
495.49	4320.63
495.67	4552.34
495.85	4631.92
496.02	4615.54
496.20	4744.27
496.38	4751.29
496.55	4564.04
496.73	4681.07
496.91	4770.01
497.09	4760.65
497.26	4884.70
497.44	4753.63
497.62	4645.96
497.79	4409.57
497.97	4477.44
498.14	4329.99
498.32	4643.62
498.50	4617.88
498.67	4622.56
498.85	4711.50
499.03	4884.70
499.20	4779.37
499.38	4648.30
499.56	4685.75
499.73	4610.86
499.91	4512.55
500.08	4514.89
500.26	4528.94
500.44	4582.77
500.61	4800.44
500.79	4540.64
500.97	4493.83
501.14	4447.02
501.32	4440.00
501.49	4379.14
501.67	4477.44
501.84	4606.17
502.02	4643.62
502.20	4561.70
502.37	4692.77
502.55	4610.86
502.72	4580.43
502.90	4671.71
503.07	4610.86
503.25	4571.07
503.43	4512.55
503.60	4205.94
503.78	4163.81
503.95	4248.07
504.13	4397.87
504.30	4706.82
504.48	4730.22
504.65	4823.84
504.83	4744.27
505.01	4727.88
505.18	4755.97
505.36	4954.91
505.53	4823.84
505.71	4788.74
505.88	4924.49
506.06	4858.95
506.23	4833.21
506.41	4704.48
506.58	4774.69
506.76	4795.76
506.93	4660.01
507.11	4655.33
507.28	4610.86
507.46	4823.84
507.63	4550.00
507.81	4479.79
507.98	4638.94
508.16	4580.43
508.33	4753.63
508.50	4851.93
508.68	4910.44
508.85	4919.81
509.03	4873.00
509.20	4966.62
509.38	4884.70
509.55	4737.24
509.73	4765.33
509.90	4849.59
510.08	4854.27
510.25	4821.50
510.42	4994.70
510.60	4978.32
510.77	4805.12
510.95	5121.09
511.12	5050.88
511.30	5231.10
511.47	5174.92
511.64	5315.36
511.82	5121.09
511.99	4978.32
512.17	4865.97
512.34	4812.14
512.51	4713.84
512.69	4767.67
512.86	4938.53
513.04	4926.83
513.21	4985.34
513.38	4910.44
513.56	4865.97
513.73	4681.07
513.90	4903.42
514.08	4819.16
514.25	4861.29
514.43	4819.16
514.60	4805.12
514.77	4868.31
514.95	4968.96
515.12	4812.14
515.29	4734.90
515.47	5055.56
515.64	4980.66
515.81	5137.48
515.99	4837.89
516.16	4704.48
516.33	4280.84
516.51	4152.11
516.68	3983.59
516.85	4021.04
517.03	4095.94
517.20	4477.44
517.37	4674.05
517.54	4856.61
517.72	4917.47
517.89	4351.06
518.06	4081.89
518.24	4238.71
518.41	4547.66
518.58	4606.17
518.75	4575.75
518.93	4744.27
519.10	4678.73
519.27	4945.55
519.45	4983.00
519.62	4903.42
519.79	4901.08
519.96	4910.44
520.14	4868.31
520.31	4933.85
520.48	4821.50
520.65	4837.89
520.83	4999.38
521.00	5006.41
521.17	4952.57
521.34	4891.72
521.52	5046.20
521.69	5158.54
521.86	5060.24
522.03	5116.41
522.20	4943.21
522.38	4826.18
522.55	4798.10
522.72	4889.38
522.89	4835.55
523.07	4938.53
523.24	4959.60
523.41	4985.34
523.58	5004.07
523.75	5303.65
523.92	5121.09
524.10	5116.41
524.27	5284.93
524.44	5254.50
524.61	5109.39
524.78	5039.17
524.96	4875.34
525.13	5006.41
525.30	5032.15
525.47	5245.14
525.64	5008.75
525.81	4931.51
525.98	4905.76
526.16	4566.39
526.33	4482.13
526.50	4409.57
526.67	4381.48
526.84	4219.99
527.01	4594.47
527.18	4716.18
527.36	4791.08
527.53	4985.34
527.70	4954.91
527.87	4985.34
528.04	4947.89
528.21	4980.66
528.38	5093.01
528.55	5336.42
528.72	5394.93
528.89	5430.04
529.07	5284.93
529.24	5184.29
529.41	4999.38
529.58	4905.76
529.75	4947.89
529.92	5139.82
530.09	5076.62
530.26	5280.25
530.43	5142.16
530.60	5104.71
530.77	5252.16
530.94	5275.57
531.11	5214.71
531.28	5123.43
531.46	5085.98
531.63	5013.43
531.80	5001.72
531.97	5064.92
532.14	4922.15
532.31	4739.58
532.48	4678.73
532.65	4779.37
532.82	4762.99
532.99	4940.87
533.16	5090.67
533.33	5188.97
533.50	5055.56
533.67	5074.28
533.84	4915.12
534.01	5156.20
534.18	5093.01
534.35	4936.19
534.52	4887.04
534.69	5160.88
534.86	5109.39
535.03	5172.58
535.20	5228.76
535.37	5233.44
535.54	5252.16
535.71	5401.96
535.88	5184.29
536.05	5093.01
536.22	5008.75
536.38	4990.02
536.55	4842.57
536.72	4844.91
536.89	5036.83
537.06	4856.61
537.23	5097.69
537.40	5135.14
537.57	5336.42
537.74	5263.86
537.91	5116.41
538.08	5226.42
538.25	5233.44
538.42	5078.96
538.59	5069.60
538.75	5177.26
538.92	4978.32
539.09	5090.67
539.26	5111.73
539.43	5004.07
539.60	5015.77
539.77	5067.26
539.94	5018.11
540.11	5156.20
540.28	5156.20
540.44	5107.05
540.61	5111.73
540.78	5181.95
540.95	5547.07
541.12	5741.33
541.29	5769.42
541.46	5769.42
541.62	6031.56
541.79	5823.25
541.96	5664.10
542.13	5504.94
542.30	5708.57
542.47	5729.63
542.63	5467.49
542.80	5518.98
542.97	5593.88
543.14	5504.94
543.31	5607.92
543.48	5533.03
543.64	5809.21
543.81	5668.78
543.98	5785.80
544.15	5612.60
544.32	5692.18
544.48	5509.62
544.65	5633.67
544.82	5528.35
544.99	5448.77
545.16	5556.43
545.32	5678.14
545.49	6267.95
545.66	7281.41
545.83	8009.31
546.00	7480.35
546.16	6462.22
546.33	6073.69
546.50	5589.20
546.67	5633.67
546.83	5437.06
547.00	5420.68
547.17	5357.49
547.34	5186.63
547.50	5074.28
547.67	5118.75
547.84	5305.99
548.00	5268.55
548.17	5275.57
548.34	5291.95
548.51	5181.95
548.67	5418.34
548.84	5153.86
549.01	5242.80
549.18	5158.54
549.34	5212.37
549.51	5193.65
549.68	5172.58
549.84	5085.98
550.01	5135.14
550.18	5109.39
550.34	5013.43
550.51	5055.56
550.68	5029.81
550.84	4856.61
551.01	4968.96
551.18	5034.49
551.34	4990.02
551.51	4952.57
551.68	5151.52
551.84	5107.05
552.01	4873.00
552.18	5048.54
552.34	4798.10
552.51	4821.50
552.68	4821.50
552.84	4830.87
553.01	4898.74
553.18	4863.63
553.34	4652.98
553.51	4741.93
553.67	4917.47
553.84	4844.91
554.01	4737.24
554.17	4943.21
554.34	4940.87
554.51	4887.04
554.67	4910.44
554.84	5011.09
555.00	4791.08
555.17	4748.95
555.33	4868.31
555.50	4849.59
555.67	4596.81
555.83	4706.82
556.00	4655.33
556.16	4809.80
556.33	4517.23
556.50	4718.52
556.66	4681.07
556.83	4578.09
556.99	4458.72
557.16	4475.10
557.32	4552.34
557.49	4699.80
557.65	4739.58
557.82	4622.56
557.98	4449.36
558.15	4596.81
558.32	4388.50
558.48	4367.44
558.65	4287.86
558.81	4512.55
558.98	4484.47
559.14	4470.42
559.31	4524.26
559.47	4507.87
559.64	4311.27
559.80	4334.67
559.97	4454.04
560.13	4458.72
560.30	4594.47
560.46	4629.58
560.63	4486.81
560.79	4671.71
560.96	4477.44
561.12	4540.64
561.29	4442.34
561.45	4388.50
561.61	4432.97
561.78	4505.53
561.94	4472.76
562.11	4564.04
562.27	4493.83
562.44	4365.10
562.60	4498.51
562.77	4606.17
562.93	4643.62
563.10	4493.83
563.26	4596.81
563.42	4484.47
563.59	4440.00
563.75	4362.76
563.92	4491.49
564.08	4404.89
564.24	4547.66
564.41	4346.37
564.57	4533.62
564.74	4404.89
564.90	4475.10
565.07	4435.32
565.23	4353.40
565.39	4194.24
565.56	4262.12
565.72	4098.28
565.88	4109.98
566.05	4329.99
566.21	4187.22
566.38	4259.78
566.54	4280.84
566.70	4479.79
566.87	4353.40
567.03	4285.52
567.19	4360.42
567.36	4341.69
567.52	4280.84
567.68	4219.99
567.85	4140.41
568.01	4121.68
568.17	3873.59
568.34	4072.53
568.50	3971.89
568.66	3911.04
568.83	4109.98
568.99	4009.34
569.15	3964.87
569.32	4203.60
569.48	4053.81
569.64	3978.91
569.81	3936.78
569.97	4051.47
570.13	4079.55
570.30	3988.27
570.46	3913.38
570.62	4032.74
570.78	3896.99
570.95	3723.79
571.11	3894.65
571.27	3999.98
571.43	3932.10
571.60	4168.49
571.76	3985.93
571.92	3978.91
572.09	4051.47
572.25	4063.17
572.41	3899.33
572.57	4128.70
572.74	3922.74
572.90	4196.58
573.06	3985.93
573.22	4074.87
573.38	4046.79
573.55	3946.14
573.71	3971.89
573.87	4095.94
574.03	4023.38
574.20	3875.93
574.36	4077.21
574.52	3833.80
574.68	3922.74
574.84	3955.51
575.01	3852.52
575.17	4067.85
575.33	3819.75
575.49	3824.44
575.65	3978.91
575.82	3908.69
575.98	3922.74
576.14	3950.82
576.30	4051.47
576.46	4131.05
576.62	4390.84
576.79	4545.32
576.95	4304.25
577.11	4191.90
577.27	4046.79
577.43	4053.81
577.59	3920.40
577.75	3915.72
577.92	3833.80
578.08	3756.56
578.24	3840.82
578.40	3967.21
578.56	4175.52
578.72	4322.97
578.88	4468.08
579.04	4212.96
579.21	4140.41
579.37	4091.26
579.53	3911.04
579.69	4063.17
579.85	4100.62
580.01	4109.98
580.17	4140.41
580.33	4081.89
580.49	3995.29
580.65	3967.21
580.82	4016.36
580.98	4025.72
581.14	3969.55
581.30	4201.26
581.46	4063.17
581.62	4201.26
581.78	4077.21
581.94	4119.34
582.10	4084.23
582.26	4070.19
582.42	4212.96
582.58	4294.88
582.74	4112.32
582.90	4278.50
583.06	4119.34
583.22	4161.47
583.38	3999.98
583.54	4044.45
583.70	4002.32
583.86	4135.73
584.02	4133.39
584.18	4222.33
584.34	3962.53
584.50	4072.53
584.66	4187.22
584.82	3964.87
584.98	3999.98
585.14	3794.01
585.30	3845.50
585.46	3878.27
585.62	3770.60
585.78	3871.25
585.94	3885.29
586.10	3847.84
586.26	3770.60
586.42	3899.33
586.58	3955.51
586.74	3913.38
586.90	4145.09
587.06	4065.51
587.22	4053.81
587.38	3974.23
587.54	3723.79
587.70	3777.62
587.86	3564.64
588.02	3358.67
588.18	3300.16
588.34	3225.26
588.49	3098.87
588.65	2939.71
588.81	2768.85
588.97	2764.17
589.13	2874.18
589.29	2745.45
589.45	2682.25
589.61	2827.37
589.77	2984.18
589.93	2942.05
590.08	3199.51
590.24	3405.48
590.40	3183.13
590.56	3239.30
590.72	3136.32
590.88	3251.00
591.04	3251.00
591.20	3234.62
591.35	3096.53
591.51	3293.13
591.67	3229.94
591.83	3155.04
591.99	3136.32
592.15	3281.43
592.31	3281.43
592.46	3489.74
592.62	3466.33
592.78	3461.65
592.94	3389.10
593.10	3456.97
593.26	3417.18
593.41	3552.93
593.57	3550.59
593.73	3213.56
593.89	3265.05
594.05	3000.57
594.20	3042.70
594.36	3009.93
594.52	2953.76
594.68	2991.20
594.84	3117.59
594.99	3232.28
595.15	3297.81
595.31	3243.98
595.47	3279.09
595.62	3258.03
595.78	3351.65
595.94	3279.09
596.10	3492.08
596.25	3227.60
596.41	3290.79
596.57	3286.11
596.73	3248.66
596.88	3328.24
597.04	3258.03
597.20	3351.65
597.36	3267.39
597.51	3220.58
597.67	3311.86
597.83	3258.03
597.99	3407.82
