SpectraSuite Data File
++++++++++++++++++++++++++++++++++++
Date: Fri Oct 04 11:44:14 GMT-05:00 2013
User: price-jones
Dark Spectrum Present: No
Reference Spectrum Present: No
Number of Sampled Component Spectra: 1
Spectrometers: USB2+H05261
Integration Time (usec): 100000 (USB2+H05261)
Spectra Averaged: 1 (USB2+H05261)
Boxcar Smoothing: 0 (USB2+H05261)
Correct for Electrical Dark: No (USB2+H05261)
Strobe/Lamp Enabled: No (USB2+H05261)
Correct for Detector Non-linearity: No (USB2+H05261)
Correct for Stray Light: No (USB2+H05261)
Number of Pixels in Processed Spectrum: 2048
>>>>>Begin Processed Spectral Data<<<<<
365.73	56.17
365.92	56.17
366.12	56.17
366.32	0.00
366.52	0.00
366.72	0.00
366.91	0.00
367.11	0.00
367.31	0.00
367.51	0.00
367.70	0.00
367.90	0.00
368.10	0.00
368.30	0.00
368.49	0.00
368.69	0.00
368.89	0.00
369.09	0.00
369.28	0.00
369.48	0.00
369.68	0.00
369.87	0.00
370.07	23.41
370.27	53.83
370.47	93.62
370.66	620.24
370.86	685.78
371.06	847.27
371.25	786.42
371.45	791.10
371.65	601.52
371.84	713.86
372.04	627.26
372.24	828.55
372.44	664.71
372.63	786.42
372.83	758.33
373.03	634.29
373.22	587.47
373.42	650.67
373.62	653.01
373.81	837.91
374.01	851.96
374.21	713.86
374.40	695.14
374.60	751.31
374.79	788.76
374.99	952.60
375.19	954.94
375.38	847.27
375.58	922.17
375.78	891.74
375.97	882.38
376.17	877.70
376.37	858.98
376.56	912.81
376.76	999.41
376.95	938.55
377.15	1048.56
377.35	1174.95
377.54	1167.93
377.74	1179.63
377.93	1062.60
378.13	1081.33
378.33	1074.31
378.52	978.34
378.72	1025.15
378.91	971.32
379.11	896.43
379.31	894.08
379.50	896.43
379.70	952.60
379.89	1050.90
380.09	1086.01
380.28	1086.01
380.48	1074.31
380.68	1095.37
380.87	1043.88
381.07	1022.81
381.26	1039.20
381.46	856.64
381.65	856.64
381.85	802.80
382.04	849.61
382.24	755.99
382.43	812.17
382.63	732.59
382.83	671.73
383.02	697.48
383.22	772.38
383.41	802.80
383.61	784.08
383.80	823.87
384.00	964.30
384.19	1116.44
384.39	1095.37
384.58	1071.97
384.78	1104.73
384.97	1167.93
385.17	1071.97
385.36	976.00
385.56	1048.56
385.75	964.30
385.95	992.39
386.14	1128.14
386.34	1184.31
386.53	1078.99
386.72	1069.62
386.92	1055.58
387.11	1121.12
387.31	1151.54
387.50	1132.82
387.70	1102.39
387.89	1067.28
388.09	1125.80
388.28	1036.86
388.48	1053.24
388.67	1188.99
388.86	1268.57
389.06	1401.98
389.25	1444.11
389.45	1465.18
389.64	1390.28
389.84	1453.47
390.03	1441.77
390.22	1383.26
390.42	1460.49
390.61	1481.56
390.81	1554.12
391.00	1568.16
391.19	1668.80
391.39	1521.35
391.58	1614.97
391.78	1313.04
391.97	1432.41
392.16	1301.34
392.36	1224.10
392.55	1046.22
392.75	777.06
392.94	753.65
393.13	709.18
393.33	765.36
393.52	938.55
393.71	1174.95
393.91	1289.64
394.10	1371.55
394.29	1523.69
394.49	1476.88
394.68	1626.67
394.88	1675.82
395.07	1722.63
395.26	1724.97
395.46	1795.19
395.65	1577.52
395.84	1439.43
396.04	1364.53
396.23	1057.92
396.42	875.36
396.62	819.19
396.81	884.72
397.00	1130.48
397.19	1460.49
397.39	1678.16
397.58	1963.71
397.77	1912.22
397.97	1959.03
398.16	2017.54
398.35	2197.76
398.55	2087.76
398.74	2230.53
398.93	2352.24
399.12	2253.94
399.32	2207.13
399.51	2249.25
399.70	2392.03
399.90	2349.90
400.09	2427.14
400.28	2244.57
400.47	2420.11
400.67	2513.74
400.86	2560.55
401.05	2427.14
401.24	2497.35
401.44	2546.50
401.63	2642.46
401.82	2555.86
402.01	2520.76
402.21	2724.38
402.40	2555.86
402.59	2509.05
402.78	2466.92
402.97	2459.90
403.17	2392.03
403.36	2574.59
403.55	2693.96
403.74	2633.10
403.93	2832.05
404.13	2609.70
404.32	2567.57
404.51	2696.30
404.70	2787.58
404.89	2642.46
405.09	2686.94
405.28	2555.86
405.47	2609.70
405.66	2534.80
405.85	2406.07
406.05	2464.58
406.24	2424.80
406.43	2541.82
406.62	2766.51
406.81	2820.35
407.00	2569.91
407.20	2576.93
407.39	2574.59
407.58	2705.66
407.77	2686.94
407.96	2778.22
408.15	2689.28
408.34	2874.18
408.54	3026.31
408.73	3054.40
408.92	2932.69
409.11	2960.78
409.30	2710.34
409.49	2562.89
409.68	2478.63
409.87	2352.24
410.07	2525.44
410.26	2834.39
410.45	2806.30
410.64	3014.61
410.83	3033.33
411.02	2979.50
411.21	3194.83
411.40	3080.14
411.59	3129.30
411.78	3162.06
411.98	3002.91
412.17	3150.36
412.36	3115.25
412.55	2953.76
412.74	3066.10
412.93	2970.14
413.12	3009.93
413.31	3169.09
413.50	3171.43
413.69	3358.67
413.88	3377.39
414.07	3171.43
414.26	3110.57
414.45	3213.56
414.64	3105.89
414.83	3272.07
415.02	3157.38
415.22	3192.49
415.41	3318.88
415.60	3241.64
415.79	3414.84
415.98	3602.08
416.17	3595.06
416.36	3536.55
416.55	3356.33
416.74	3363.35
416.93	3283.77
417.12	3187.81
417.31	3251.00
417.50	3279.09
417.69	3536.55
417.88	3314.20
418.07	3384.41
418.26	3400.80
418.45	3260.37
418.64	3478.04
418.83	3590.38
419.02	3492.08
419.21	3407.82
419.39	3311.86
419.58	3194.83
419.77	3234.62
419.96	3288.45
420.15	3529.53
420.34	3613.79
420.53	3616.13
420.72	3789.33
420.91	3730.81
421.10	3679.32
421.29	3733.15
421.48	3679.32
421.67	3641.87
421.86	3665.28
422.05	3368.03
422.24	3145.68
422.43	3098.87
422.61	3349.31
422.80	3571.66
422.99	3679.32
423.18	3571.66
423.37	3485.06
423.56	3410.16
423.75	3449.95
423.94	3588.04
424.13	3417.18
424.32	3346.97
424.50	3503.78
424.69	3307.18
424.88	3475.70
425.07	3344.63
425.26	3248.66
425.45	3321.22
425.64	3185.47
425.83	3199.51
426.01	3471.01
426.20	3428.88
426.39	3531.87
426.58	3272.07
426.77	3061.42
426.96	2958.44
427.15	3136.32
427.33	3358.67
427.52	3351.65
427.71	3379.73
427.90	3314.20
428.09	3276.75
428.28	3141.00
428.46	3122.27
428.65	3206.53
428.84	3166.74
429.03	3365.69
429.22	3103.55
429.40	2970.14
429.59	2700.98
429.78	2361.60
429.97	2410.75
430.16	2588.63
430.34	2401.39
430.53	2413.09
430.72	2509.05
430.91	2766.51
431.10	3138.66
431.28	3623.15
431.47	3964.87
431.66	3943.80
431.85	3789.33
432.03	3356.33
432.22	3274.41
432.41	3339.94
432.60	3831.46
432.79	3833.80
432.97	3894.65
433.16	3866.56
433.35	3588.04
433.54	3265.05
433.72	2972.48
433.91	3141.00
434.10	3370.37
434.28	3655.92
434.47	3932.10
434.66	3892.31
434.85	3899.33
435.03	3747.20
435.22	4044.45
435.41	4809.80
435.59	5004.07
435.78	4531.28
435.97	4372.12
436.16	4390.84
436.34	4135.73
436.53	4049.13
436.72	4049.13
436.90	3719.11
437.09	3962.53
437.28	3721.45
437.46	3822.09
437.65	3702.73
437.84	3712.09
438.02	3295.47
438.21	3365.69
438.40	3508.46
438.58	3728.47
438.77	3925.08
438.96	4011.68
439.14	4053.81
439.33	4236.37
439.52	4234.03
439.70	4140.41
439.89	4131.05
440.08	3887.63
440.26	4007.00
440.45	4102.96
440.63	4208.28
440.82	4641.28
441.01	4444.68
441.19	4400.21
441.38	4344.03
441.57	4629.58
441.75	4631.92
441.94	4681.07
442.12	4704.48
442.31	4807.46
442.50	4648.30
442.68	4564.04
442.87	4585.11
443.05	4510.21
443.24	4573.41
443.43	4748.95
443.61	4774.69
443.80	4748.95
443.98	4568.73
444.17	4629.58
444.35	4746.61
444.54	4929.17
444.73	4758.31
444.91	4685.75
445.10	4482.13
445.28	4222.33
445.47	4215.30
445.65	4159.13
445.84	4475.10
446.02	4540.64
446.21	4603.83
446.39	4781.71
446.58	4739.58
446.77	4727.88
446.95	4791.08
447.14	4947.89
447.32	5043.85
447.51	4898.74
447.69	4812.14
447.88	4676.39
448.06	4795.76
448.25	4713.84
448.43	4844.91
448.62	4816.82
448.80	4636.60
448.99	4835.55
449.17	4807.46
449.36	4727.88
449.54	5011.09
449.73	4936.19
449.91	5139.82
450.10	5214.71
450.28	5203.01
450.46	5334.08
450.65	5181.95
450.83	5184.29
451.02	5114.07
451.20	5198.33
451.39	4973.64
451.57	4957.25
451.76	5020.45
451.94	5041.51
452.13	4781.71
452.31	4671.71
452.49	4535.96
452.68	4505.53
452.86	4444.68
453.05	4599.15
453.23	4786.40
453.42	4788.74
453.60	5043.85
453.78	5074.28
453.97	4954.91
454.15	4847.25
454.34	4873.00
454.52	4917.47
454.70	4847.25
454.89	5078.96
455.07	5020.45
455.26	4978.32
455.44	5142.16
455.62	5310.68
455.81	5247.48
455.99	5160.88
456.17	5160.88
456.36	5249.82
456.54	5305.99
456.73	5114.07
456.91	5231.10
457.09	5327.06
457.28	5528.35
457.46	5284.93
457.64	5195.99
457.83	5069.60
458.01	4905.76
458.19	4973.64
458.38	5104.71
458.56	5334.08
458.74	5291.95
458.93	5179.61
459.11	5146.84
459.29	5203.01
459.48	5294.29
459.66	5195.99
459.84	5217.05
460.03	5404.30
460.21	5350.46
460.39	5247.48
460.57	5427.70
460.76	5551.75
460.94	5451.11
461.12	5289.61
461.31	5406.64
461.49	5439.40
461.67	5359.83
461.85	5521.32
462.04	5537.71
462.22	5804.53
462.40	5851.34
462.59	5549.41
462.77	5423.02
462.95	5540.05
463.13	5500.26
463.32	5357.49
463.50	5455.79
463.68	5408.98
463.86	5359.83
464.05	5235.78
464.23	5191.31
464.41	5109.39
464.59	5135.14
464.78	5392.59
464.96	5219.39
465.14	5228.76
465.32	5439.40
465.50	5425.36
465.69	5605.58
465.87	5521.32
466.05	5210.03
466.23	5217.05
466.41	5078.96
466.60	5053.22
466.78	5104.71
466.96	5238.12
467.14	5291.95
467.32	5380.89
467.51	5448.77
467.69	5270.89
467.87	5263.86
468.05	5305.99
468.23	5406.64
468.41	5282.59
468.60	5474.51
468.78	5408.98
468.96	5149.18
469.14	5408.98
469.32	5397.28
469.50	5259.18
469.69	5233.44
469.87	5221.74
470.05	5013.43
470.23	5013.43
470.41	5135.14
470.59	5085.98
470.77	5263.86
470.95	5448.77
471.14	5497.92
471.32	5472.17
471.50	5661.76
471.68	5680.48
471.86	5661.76
472.04	5753.04
472.22	5788.14
472.40	5507.28
472.58	5488.56
472.77	5280.25
472.95	5530.69
473.13	5600.90
473.31	5577.50
473.49	5575.16
473.67	5643.03
473.85	5731.97
474.03	5818.57
474.21	5795.17
474.39	5884.11
474.57	6069.01
474.75	5886.45
474.93	6094.76
475.12	5809.21
475.30	5701.54
475.48	5834.96
475.66	5788.14
475.84	5830.27
476.02	5802.19
476.20	5757.72
476.38	5860.70
476.56	6057.31
476.74	5996.45
476.92	6094.76
477.10	6179.01
477.28	6293.70
477.46	6190.72
477.64	6392.00
477.82	6202.42
478.00	6298.38
478.18	6298.38
478.36	6296.04
478.54	6317.11
478.72	6289.02
478.90	6471.58
479.08	6555.84
479.26	6825.00
479.44	6719.68
479.62	6647.12
479.80	6696.27
479.98	6644.78
480.16	6647.12
480.34	6546.48
480.52	6794.58
480.70	6775.85
480.88	6722.02
481.06	6939.69
481.24	6995.86
481.41	7033.31
481.59	7260.34
481.77	7288.43
481.95	7152.68
482.13	6895.22
482.31	7222.89
482.49	7269.70
482.67	7332.90
482.85	7276.73
483.03	7382.05
483.21	7632.49
483.39	7592.70
483.57	7215.87
483.74	7206.51
483.92	7307.15
484.10	7300.13
484.28	7578.65
484.46	7487.37
484.64	7777.60
484.82	7534.18
485.00	7229.91
485.18	7218.21
485.35	7290.77
485.53	6848.41
485.71	6120.50
485.89	5961.34
486.07	6214.12
486.25	6572.22
486.43	7012.24
486.61	7410.14
486.78	7375.03
486.96	7346.94
487.14	7559.93
487.32	7611.42
487.50	7868.88
487.68	8081.87
487.85	8236.35
488.03	8320.60
488.21	8292.52
488.39	8044.42
488.57	7791.64
488.75	7756.54
488.92	8116.98
489.10	8341.67
489.28	8961.91
489.46	9001.70
489.64	8964.25
489.81	9071.92
489.99	8954.89
490.17	8858.93
490.35	9200.65
490.53	8777.01
490.70	8863.61
490.88	8760.63
491.06	9055.53
491.24	9296.61
491.41	8802.75
491.59	8369.76
491.77	8374.44
491.95	8299.54
492.13	8727.86
492.30	8992.34
492.48	9352.78
492.66	9392.57
492.84	9521.30
493.01	9467.47
493.19	9425.34
493.37	9502.58
493.54	9100.00
493.72	9226.39
493.90	9523.64
494.08	9823.23
494.25	10040.90
494.43	9701.52
494.61	10190.69
494.79	10024.51
494.96	9806.84
495.14	9961.32
495.32	9813.87
495.49	9390.23
495.67	9741.31
495.85	10078.35
496.02	10228.14
496.20	10291.34
496.38	10061.96
496.55	10003.45
496.73	10249.21
496.91	10281.97
497.09	10413.04
497.26	10558.16
497.44	10342.83
497.62	10176.65
497.79	10167.29
497.97	9710.88
498.14	9589.17
498.32	9905.15
498.50	9966.00
498.67	10132.18
498.85	10352.19
499.03	10471.56
499.20	10509.01
499.38	10511.35
499.56	10396.66
499.73	10338.15
499.91	10279.63
500.08	9966.00
500.26	9699.18
500.44	9760.03
500.61	10052.60
500.79	9980.04
500.97	10052.60
501.14	9853.66
501.32	9671.09
501.49	9645.35
501.67	9745.99
501.84	10073.67
502.02	9937.91
502.20	10160.27
502.37	10293.68
502.55	10342.83
502.72	10200.05
502.90	10434.11
503.07	10389.64
503.25	10101.75
503.43	9628.96
503.60	9579.81
503.78	9322.35
503.95	9366.82
504.13	9727.27
504.30	10289.00
504.48	10303.04
504.65	10143.88
504.83	10183.67
505.01	10443.47
505.18	10560.50
505.36	10857.75
505.53	10611.99
505.71	10944.34
505.88	10857.75
506.06	10658.80
506.23	10544.11
506.41	10595.61
506.58	10150.90
506.76	10462.19
506.93	10342.83
507.11	10448.15
507.28	10455.17
507.46	10218.78
507.63	10085.37
507.81	9923.87
507.98	10087.71
508.16	10277.29
508.33	10551.14
508.50	10920.94
508.68	11028.60
508.85	11016.90
509.03	10963.07
509.20	11063.71
509.38	10546.45
509.55	10466.88
509.73	10544.11
509.90	10729.02
510.08	10806.25
510.25	10857.75
510.42	10747.74
510.60	10836.68
510.77	10820.30
510.95	11166.70
511.12	11061.37
511.30	11229.89
511.47	11391.39
511.64	11499.05
511.82	11178.40
511.99	11227.55
512.17	10775.83
512.34	10602.63
512.51	10651.78
512.69	10689.23
512.86	10848.38
513.04	11019.24
513.21	10824.98
513.38	11000.52
513.56	10527.73
513.73	10544.11
513.90	10342.83
514.08	10782.85
514.25	10721.99
514.43	10736.04
514.60	10541.77
514.77	10714.97
514.95	10665.82
515.12	10846.04
515.29	10878.81
515.47	11075.42
515.64	11213.51
515.81	10899.87
515.99	10944.34
516.16	10235.16
516.33	9575.13
516.51	9092.98
516.68	8807.44
516.85	8683.39
517.03	8851.91
517.20	9628.96
517.37	10279.63
517.54	10729.02
517.72	10740.72
517.89	9877.06
518.06	9083.62
518.24	8961.91
518.41	9745.99
518.58	10345.17
518.75	10422.41
518.93	10520.71
519.10	10391.98
519.27	10518.37
519.45	10633.05
519.62	10909.24
519.79	11147.97
519.96	11147.97
520.14	10806.25
520.31	10445.81
520.48	10431.77
520.65	10539.43
520.83	11037.97
521.00	11295.43
521.17	10944.34
521.34	10876.47
521.52	10942.00
521.69	11466.28
521.86	11321.17
522.03	11297.77
522.20	11019.24
522.38	10682.20
522.55	10200.05
522.72	10611.99
522.89	10661.14
523.07	10602.63
523.24	10904.56
523.41	11110.52
523.58	11239.25
523.75	11407.77
523.92	11346.92
524.10	11316.49
524.27	11513.10
524.44	11297.77
524.61	11260.32
524.78	11293.08
524.96	11101.16
525.13	11164.36
525.30	11105.84
525.47	11403.09
525.64	11442.88
525.81	11098.82
525.98	10754.76
526.16	10108.77
526.33	9785.78
526.50	9916.85
526.67	9565.77
526.84	9727.27
527.01	10129.84
527.18	10356.87
527.36	10747.74
527.53	10942.00
527.70	11171.38
527.87	11047.33
528.04	10857.75
528.21	10867.11
528.38	11389.05
528.55	11501.39
528.72	11665.23
528.89	11754.17
529.07	11784.60
529.24	11485.01
529.41	11185.42
529.58	10946.69
529.75	11033.29
529.92	11119.89
530.09	11136.27
530.26	11573.95
530.43	11681.61
530.60	11707.36
530.77	11527.14
530.94	11758.85
531.11	11667.57
531.28	11307.13
531.46	11372.66
531.63	11393.73
531.80	11290.74
531.97	11253.30
532.14	10953.71
532.31	10527.73
532.48	10314.74
532.65	10073.67
532.82	10406.02
532.99	10902.22
533.16	10848.38
533.33	11236.91
533.50	11468.62
533.67	10972.43
533.84	10881.15
534.01	11014.56
534.18	10956.05
534.35	11068.39
534.52	11215.85
534.69	11265.00
534.86	11314.15
535.03	11094.14
535.20	11513.10
535.37	11468.62
535.54	11873.54
535.71	11536.50
535.88	11510.75
536.05	11101.16
536.22	11227.55
536.38	10991.16
536.55	10789.87
536.72	10623.69
536.89	10462.19
537.06	10944.34
537.23	10977.11
537.40	11180.74
537.57	11435.86
537.74	11283.72
537.91	11133.93
538.08	11190.10
538.25	11311.81
538.42	11119.89
538.59	11311.81
538.75	11204.14
538.92	11052.01
539.09	10827.32
539.26	10909.24
539.43	10677.52
539.60	10836.68
539.77	10822.64
539.94	10925.62
540.11	10895.19
540.28	10572.20
540.44	10597.95
540.61	10904.56
540.78	10956.05
540.95	11108.18
541.12	11255.64
541.29	11370.32
541.46	11435.86
541.62	11625.44
541.79	11632.46
541.96	11351.60
542.13	11279.04
542.30	11236.91
542.47	11456.92
542.63	11356.28
542.80	11047.33
542.97	11159.67
543.14	11126.91
543.31	11012.22
543.48	11279.04
543.64	11634.80
543.81	11545.86
543.98	11885.24
544.15	11676.93
544.32	11206.48
544.48	11138.61
544.65	11283.72
544.82	11552.88
544.99	11435.86
545.16	11178.40
545.32	11330.53
545.49	12037.38
545.66	13125.72
545.83	13259.13
546.00	12723.15
546.16	12180.15
546.33	11796.30
546.50	11328.19
546.67	11330.53
546.83	11272.02
547.00	11192.44
547.17	10963.07
547.34	10768.80
547.50	10796.89
547.67	10864.77
547.84	10768.80
548.00	11080.10
548.17	11243.93
548.34	11154.99
548.51	11037.97
548.67	11073.07
548.84	11211.17
549.01	11218.19
549.18	10902.22
549.34	10939.66
549.51	10913.92
549.68	10848.38
549.84	10707.95
550.01	10958.39
550.18	11019.24
550.34	10937.32
550.51	10780.51
550.68	10794.55
550.84	10857.75
551.01	10558.16
551.18	10794.55
551.34	10761.78
551.51	10787.53
551.68	10949.03
551.84	11239.25
552.01	10956.05
552.18	10771.15
552.34	10693.91
552.51	10321.76
552.68	10429.43
552.84	10663.48
553.01	10640.08
553.18	10731.36
553.34	10649.44
553.51	10567.52
553.67	10906.90
553.84	10787.53
554.01	10721.99
554.17	10401.34
554.34	10644.76
554.51	10782.85
554.67	10913.92
554.84	11021.58
555.00	10801.57
555.17	10682.20
555.33	10700.93
555.50	10506.66
555.67	10864.77
555.83	10471.56
556.00	10380.28
556.16	10317.08
556.33	10310.06
556.50	10162.61
556.66	10228.14
556.83	10078.35
556.99	10118.14
557.16	10181.33
557.32	10127.50
557.49	10506.66
557.65	10356.87
557.82	10150.90
557.98	10326.44
558.15	10277.29
558.32	9949.62
558.48	9628.96
558.65	9706.20
558.81	9774.08
558.98	9823.23
559.14	9811.53
559.31	9858.34
559.47	9994.09
559.64	9951.96
559.80	10071.33
559.97	9937.91
560.13	9839.61
560.30	10300.70
560.46	10120.48
560.63	10291.34
560.79	10565.18
560.96	10373.25
561.12	9970.68
561.29	9713.22
561.45	9570.45
561.61	9886.42
561.78	10181.33
561.94	9884.08
562.11	9769.40
562.27	9736.63
562.44	9912.17
562.60	10019.83
562.77	10244.52
562.93	10008.13
563.10	10047.92
563.26	9792.80
563.42	9989.41
563.59	9762.37
563.75	9767.06
563.92	9895.78
564.08	9848.97
564.24	9888.76
564.41	9895.78
564.57	9851.31
564.74	9685.14
564.90	9844.29
565.07	9792.80
565.23	9731.95
565.39	9584.49
565.56	9572.79
565.72	9378.53
565.88	9322.35
566.05	9394.91
566.21	9509.60
566.38	9455.76
566.54	9689.82
566.70	9757.69
566.87	9820.89
567.03	9671.09
567.19	9722.59
567.36	9774.08
567.52	9659.39
567.68	9724.93
567.85	9238.09
568.01	9207.67
568.17	9062.55
568.34	8774.67
568.50	8751.26
568.66	8840.20
568.83	8863.61
568.99	8952.55
569.15	9118.73
569.32	9210.01
569.48	9081.28
569.64	8688.07
569.81	8964.25
569.97	9034.47
570.13	9137.45
570.30	8903.40
570.46	8959.57
570.62	8636.58
570.78	8629.56
570.95	8622.53
571.11	8905.74
571.27	9027.45
571.43	8968.93
571.60	8919.78
571.76	9064.89
571.92	9327.03
572.09	9327.03
572.25	9069.58
572.41	9160.86
572.57	9097.66
572.74	9200.65
572.90	8938.51
573.06	9100.00
573.22	8978.30
573.38	9135.11
573.55	8980.64
573.71	9048.51
573.87	8931.48
574.03	8805.10
574.20	8905.74
574.36	8835.52
574.52	8884.67
574.68	8823.82
574.84	8755.94
575.01	8491.46
575.17	8542.96
575.33	8746.58
575.49	8671.68
575.65	8697.43
575.82	8671.68
575.98	8484.44
576.14	8589.77
576.30	8622.53
576.46	9004.04
576.62	9315.33
576.79	9200.65
576.95	8957.23
577.11	8777.01
577.27	8793.39
577.43	8788.71
577.59	8561.68
577.75	8748.92
577.92	8294.86
578.08	8400.18
578.24	8416.57
578.40	8615.51
578.56	8683.39
578.72	8784.03
578.88	8896.38
579.04	8837.86
579.21	8903.40
579.37	9050.85
579.53	8699.77
579.69	8887.01
579.85	8823.82
580.01	8884.67
580.17	8957.23
580.33	8821.48
580.49	8746.58
580.65	8870.63
580.82	8837.86
580.98	8922.12
581.14	8947.87
581.30	8727.86
581.46	8784.03
581.62	8842.54
581.78	8987.66
581.94	8950.21
582.10	8975.95
582.26	8943.19
582.42	8947.87
582.58	8849.57
582.74	9097.66
582.90	8936.17
583.06	8879.99
583.22	8805.10
583.38	8744.24
583.54	8720.84
583.70	8793.39
583.86	8830.84
584.02	9004.04
584.18	8908.08
584.34	8992.34
584.50	8739.56
584.66	8877.65
584.82	8697.43
584.98	8477.42
585.14	8547.64
585.30	8423.59
585.46	8154.43
585.62	8461.04
585.78	8381.46
585.94	8341.67
586.10	8449.33
586.26	8479.76
586.42	8512.53
586.58	8461.04
586.74	8493.80
586.90	8526.57
587.06	8489.12
587.22	8297.20
587.38	8147.40
587.54	8093.57
587.70	7950.80
587.86	7651.21
588.02	7414.82
588.18	7227.57
588.34	7103.53
588.49	6415.41
588.65	6064.33
588.81	6108.80
588.97	6059.65
589.13	6118.16
589.29	6118.16
589.45	6111.14
589.61	6118.16
589.77	6480.94
589.93	6534.78
590.08	7030.97
590.24	6925.65
590.40	7075.44
590.56	7178.42
590.72	6918.62
590.88	6787.55
591.04	7089.48
591.20	7007.56
591.35	6782.87
591.51	6944.37
591.67	6736.06
591.83	6764.15
591.99	6771.17
592.15	6799.26
592.31	7260.34
592.46	7227.57
592.62	7173.74
592.78	7300.13
592.94	7360.98
593.10	7382.05
593.26	7639.51
593.41	7726.11
