SpectraSuite Data File
++++++++++++++++++++++++++++++++++++
Date: Fri Oct 04 11:44:25 GMT-05:00 2013
User: price-jones
Dark Spectrum Present: No
Reference Spectrum Present: No
Number of Sampled Component Spectra: 1
Spectrometers: USB2+H05261
Integration Time (usec): 100000 (USB2+H05261)
Spectra Averaged: 1 (USB2+H05261)
Boxcar Smoothing: 0 (USB2+H05261)
Correct for Electrical Dark: No (USB2+H05261)
Strobe/Lamp Enabled: No (USB2+H05261)
Correct for Detector Non-linearity: No (USB2+H05261)
Correct for Stray Light: No (USB2+H05261)
Number of Pixels in Processed Spectrum: 2048
>>>>>Begin Processed Spectral Data<<<<<
365.73	53.83
365.92	53.83
366.12	53.83
366.32	0.00
366.52	0.00
366.72	0.00
366.91	0.00
367.11	0.00
367.31	0.00
367.51	0.00
367.70	0.00
367.90	0.00
368.10	0.00
368.30	0.00
368.49	0.00
368.69	0.00
368.89	0.00
369.09	0.00
369.28	0.00
369.48	0.00
369.68	0.00
369.87	30.43
370.07	18.72
370.27	58.51
370.47	30.43
370.66	252.78
370.86	381.51
371.06	388.53
371.25	351.08
371.45	290.23
371.65	292.57
371.84	297.25
372.04	332.36
372.24	393.21
372.44	290.23
372.63	353.42
372.83	374.49
373.03	337.04
373.22	259.80
373.42	266.82
373.62	360.44
373.81	308.95
374.01	351.08
374.21	344.06
374.40	344.06
374.60	351.08
374.79	456.40
374.99	421.30
375.19	318.31
375.38	404.91
375.58	341.72
375.78	362.78
375.97	362.78
376.17	454.06
376.37	369.80
376.56	372.15
376.76	344.06
376.95	400.23
377.15	451.72
377.35	440.02
377.54	498.53
377.74	468.11
377.93	463.43
378.13	479.81
378.33	507.90
378.52	428.32
378.72	510.24
378.91	393.21
379.11	355.76
379.31	299.59
379.50	451.72
379.70	437.68
379.89	444.70
380.09	491.51
380.28	454.06
380.48	416.62
380.68	411.93
380.87	496.19
381.07	461.09
381.26	407.25
381.46	470.45
381.65	346.40
381.85	360.44
382.04	346.40
382.24	346.40
382.43	299.59
382.63	339.38
382.83	397.89
383.02	322.99
383.22	409.59
383.41	245.76
383.61	402.57
383.80	381.51
384.00	496.19
384.19	444.70
384.39	519.60
384.58	454.06
384.78	526.62
384.97	491.51
385.17	416.62
385.36	365.12
385.56	421.30
385.75	360.44
385.95	397.89
386.14	514.92
386.34	477.47
386.53	491.51
386.72	519.60
386.92	465.77
387.11	433.00
387.31	538.32
387.50	447.04
387.70	430.66
387.89	503.22
388.09	498.53
388.28	552.37
388.48	449.38
388.67	514.92
388.86	498.53
389.06	557.05
389.25	578.11
389.45	535.98
389.64	559.39
389.84	667.05
390.03	615.56
390.22	545.34
390.42	617.90
390.61	629.60
390.81	662.37
391.00	751.31
391.19	634.29
391.39	643.65
391.58	624.92
391.78	517.26
391.97	620.24
392.16	517.26
392.36	510.24
392.55	456.40
392.75	395.55
392.94	250.44
393.13	308.95
393.33	372.15
393.52	381.51
393.71	554.71
393.91	528.96
394.10	512.58
394.29	557.05
394.49	636.63
394.68	692.80
394.88	690.46
395.07	755.99
395.26	660.03
395.46	685.78
395.65	739.61
395.84	636.63
396.04	636.63
396.23	451.72
396.42	407.25
396.62	362.78
396.81	341.72
397.00	496.19
397.19	599.18
397.39	685.78
397.58	826.21
397.77	770.04
397.97	809.83
398.16	777.06
398.35	821.53
398.55	826.21
398.74	915.15
398.93	915.15
399.12	889.40
399.32	898.77
399.51	828.55
399.70	947.92
399.90	983.02
400.09	999.41
400.28	978.34
400.47	856.64
400.67	1020.47
400.86	978.34
401.05	1008.77
401.24	1071.97
401.44	1067.28
401.63	1022.81
401.82	1022.81
402.01	987.71
402.21	952.60
402.40	987.71
402.59	987.71
402.78	905.79
402.97	919.83
403.17	926.85
403.36	987.71
403.55	976.00
403.74	1041.54
403.93	1088.35
404.13	1088.35
404.32	966.64
404.51	1064.94
404.70	1142.18
404.89	1046.22
405.09	1055.58
405.28	1036.86
405.47	1025.15
405.66	1006.43
405.85	1050.90
406.05	938.55
406.24	901.11
406.43	983.02
406.62	1097.71
406.81	1088.35
407.00	1036.86
407.20	976.00
407.39	940.90
407.58	1090.69
407.77	1048.56
407.96	1046.22
408.15	1043.88
408.34	1034.52
408.54	1219.42
408.73	1130.48
408.92	1109.41
409.11	1186.65
409.30	1097.71
409.49	1006.43
409.68	1006.43
409.87	947.92
410.07	1102.39
410.26	1039.20
410.45	1081.33
410.64	1123.46
410.83	1231.12
411.02	1200.69
411.21	1205.38
411.40	1128.14
411.59	1196.01
411.78	1205.38
411.98	1217.08
412.17	1240.48
412.36	1240.48
412.55	1130.48
412.74	1193.67
412.93	1193.67
413.12	1118.78
413.31	1282.61
413.50	1217.08
413.69	1247.51
413.88	1299.00
414.07	1200.69
414.26	1163.25
414.45	1385.60
414.64	1313.04
414.83	1334.11
415.02	1231.12
415.22	1219.42
415.41	1371.55
415.60	1259.21
415.79	1301.34
415.98	1394.96
416.17	1472.20
416.36	1277.93
416.55	1474.54
416.74	1273.25
416.93	1343.47
417.12	1280.27
417.31	1273.25
417.50	1303.68
417.69	1371.55
417.88	1275.59
418.07	1252.19
418.26	1315.38
418.45	1231.12
418.64	1310.70
418.83	1282.61
419.02	1334.11
419.21	1355.17
419.39	1371.55
419.58	1217.08
419.77	1275.59
419.96	1275.59
420.15	1336.45
420.34	1287.29
420.53	1394.96
420.72	1586.88
420.91	1404.32
421.10	1423.05
421.29	1327.08
421.48	1343.47
421.67	1474.54
421.86	1390.28
422.05	1430.07
422.24	1247.51
422.43	1245.16
422.61	1263.89
422.80	1399.64
422.99	1427.73
423.18	1458.15
423.37	1439.43
423.56	1385.60
423.75	1338.79
423.94	1392.62
424.13	1284.95
424.32	1165.59
424.50	1369.21
424.69	1390.28
424.88	1270.91
425.07	1320.06
425.26	1350.49
425.45	1362.19
425.64	1296.66
425.83	1247.51
426.01	1275.59
426.20	1362.19
426.39	1334.11
426.58	1268.57
426.77	1167.93
426.96	1198.35
427.15	1212.40
427.33	1282.61
427.52	1315.38
427.71	1338.79
427.90	1329.42
428.09	1336.45
428.28	1221.76
428.46	1214.74
428.65	1142.18
428.84	1240.48
429.03	1329.42
429.22	1242.82
429.40	1174.95
429.59	1004.09
429.78	1032.18
429.97	940.90
430.16	971.32
430.34	1015.79
430.53	1022.81
430.72	1067.28
430.91	1104.73
431.10	1100.05
431.28	1423.05
431.47	1507.30
431.66	1502.62
431.85	1427.73
432.03	1217.08
432.22	1348.15
432.41	1287.29
432.60	1385.60
432.79	1469.86
432.97	1462.83
433.16	1465.18
433.35	1364.53
433.54	1296.66
433.72	1261.55
433.91	1277.93
434.10	1320.06
434.28	1394.96
434.47	1411.34
434.66	1416.02
434.85	1399.64
435.03	1465.18
435.22	1589.22
435.41	2054.99
435.59	2050.31
435.78	1891.15
435.97	1746.04
436.16	1736.68
436.34	1645.40
436.53	1605.61
436.72	1692.21
436.90	1561.14
437.09	1385.60
437.28	1401.98
437.46	1500.28
437.65	1544.75
437.84	1502.62
438.02	1261.55
438.21	1329.42
438.40	1324.74
438.58	1416.02
438.77	1544.75
438.96	1474.54
439.14	1621.99
439.33	1659.44
439.52	1542.41
439.70	1540.07
439.89	1626.67
440.08	1664.12
440.26	1483.90
440.45	1486.24
440.63	1614.97
440.82	1710.93
441.01	1689.87
441.19	1701.57
441.38	1666.46
441.57	1795.19
441.75	1884.13
441.94	1760.08
442.12	1755.40
442.31	1802.21
442.50	1790.51
442.68	1741.36
442.87	1689.87
443.05	1724.97
443.24	1839.66
443.43	1809.23
443.61	1865.41
443.80	1877.11
443.98	1727.32
444.17	1717.95
444.35	1881.79
444.54	1795.19
444.73	1870.09
444.91	1872.43
445.10	1685.19
445.28	1806.89
445.47	1659.44
445.65	1629.01
445.84	1715.61
446.02	1739.02
446.21	1736.68
446.39	1776.47
446.58	1710.93
446.77	1788.17
446.95	1856.04
447.14	1966.05
447.32	1977.75
447.51	1881.79
447.69	1762.42
447.88	1739.02
448.06	1832.64
448.25	1881.79
448.43	1863.07
448.62	1727.32
448.80	1842.00
448.99	1809.23
449.17	1820.94
449.36	1879.45
449.54	1942.64
449.73	1895.83
449.91	1942.64
450.10	1959.03
450.28	2001.16
450.46	1961.37
450.65	2097.12
450.83	1944.99
451.02	1886.47
451.20	1902.86
451.39	1888.81
451.57	1898.17
451.76	1949.67
451.94	1959.03
452.13	1952.01
452.31	1877.11
452.49	1856.04
452.68	1788.17
452.86	1755.40
453.05	1776.47
453.23	1867.75
453.42	1837.32
453.60	1863.07
453.78	1905.20
453.97	1816.26
454.15	1914.56
454.34	1802.21
454.52	1877.11
454.70	1998.82
454.89	1853.70
455.07	1895.83
455.26	1846.68
455.44	1914.56
455.62	2008.18
455.81	1898.17
455.99	1921.58
456.17	1984.77
456.36	1909.88
456.54	1998.82
456.73	2010.52
456.91	2038.61
457.09	1977.75
457.28	2047.97
457.46	1998.82
457.64	1989.46
457.83	1987.11
458.01	1893.49
458.19	1949.67
458.38	1893.49
458.56	2066.69
458.74	2026.90
458.93	1959.03
459.11	1963.71
459.29	1968.39
459.48	1994.14
459.66	2003.50
459.84	1998.82
460.03	2031.58
460.21	2019.88
460.39	2029.24
460.57	2214.15
460.76	2050.31
460.94	2033.93
461.12	2066.69
461.31	2001.16
461.49	2097.12
461.67	2047.97
461.85	2125.21
462.04	2040.95
462.22	2523.10
462.40	2169.68
462.59	2136.91
462.77	2064.35
462.95	2085.42
463.13	2064.35
463.32	1935.62
463.50	2001.16
463.68	1963.71
463.86	2059.67
464.05	1984.77
464.23	1893.49
464.41	2113.50
464.59	1863.07
464.78	2029.24
464.96	2040.95
465.14	2047.97
465.32	2071.37
465.50	2064.35
465.69	2129.89
465.87	2017.54
466.05	2057.33
466.23	1916.90
466.41	1851.36
466.60	1877.11
466.78	1923.92
466.96	2008.18
467.14	1923.92
467.32	2073.71
467.51	2111.16
467.69	1982.43
467.87	1980.09
468.05	1973.07
468.23	2031.58
468.41	2050.31
468.60	2092.44
468.78	2092.44
468.96	1977.75
469.14	2104.14
469.32	2050.31
469.50	1973.07
469.69	1984.77
469.87	2043.29
470.05	1921.58
470.23	1944.99
470.41	2001.16
470.59	1928.60
470.77	2073.71
470.95	2024.56
471.14	2087.76
471.32	1926.26
471.50	2146.27
471.68	2085.42
471.86	2169.68
472.04	2155.63
472.22	2246.91
472.40	2036.27
472.58	2111.16
472.77	2001.16
472.95	2047.97
473.13	2148.61
473.31	2127.55
473.49	2097.12
473.67	2211.81
473.85	2167.34
474.03	2139.25
474.21	2207.13
474.39	2305.43
474.57	2230.53
474.75	2202.44
474.93	2239.89
475.12	2129.89
475.30	2111.16
475.48	2172.02
475.66	2296.07
475.84	2033.93
476.02	2202.44
476.20	2118.18
476.38	2040.95
476.56	2265.64
476.74	2186.06
476.92	2354.58
477.10	2312.45
477.28	2279.68
477.46	2459.90
477.64	2385.01
477.82	2359.26
478.00	2340.54
478.18	2312.45
478.36	2473.95
478.54	2392.03
478.72	2258.62
478.90	2401.39
479.08	2450.54
479.26	2537.14
479.44	2560.55
479.62	2457.56
479.80	2525.44
479.98	2534.80
480.16	2448.20
480.34	2417.77
480.52	2595.65
480.70	2586.29
480.88	2532.46
481.06	2541.82
481.24	2597.99
481.41	2637.78
481.59	2736.09
481.77	2839.07
481.95	2766.51
482.13	2616.72
482.31	2764.17
482.49	2583.95
482.67	2722.04
482.85	2736.09
483.03	2785.24
483.21	2764.17
483.39	2750.13
483.57	2712.68
483.74	2761.83
483.92	2661.19
484.10	2761.83
484.28	2771.19
484.46	2876.52
484.64	2895.24
484.82	2818.00
485.00	2799.28
485.18	2782.90
485.35	2597.99
485.53	2487.99
485.71	2314.79
485.89	2223.51
486.07	2326.49
486.25	2579.27
486.43	2689.28
486.61	2651.83
486.78	2705.66
486.96	2789.92
487.14	2841.41
487.32	2846.09
487.50	2869.50
487.68	3068.44
487.85	2942.05
488.03	3073.12
488.21	3119.93
488.39	3094.19
488.57	2827.37
488.75	2881.20
488.92	3251.00
489.10	3183.13
489.28	3279.09
489.46	3410.16
489.64	3318.88
489.81	3396.12
489.99	3332.92
490.17	3159.72
490.35	3471.01
490.53	3253.34
490.70	3213.56
490.88	3222.92
491.06	3335.26
491.24	3342.28
491.41	3274.41
491.59	3145.68
491.77	3045.04
491.95	3007.59
492.13	3346.97
492.30	3384.41
492.48	3471.01
492.66	3454.63
492.84	3508.46
493.01	3494.42
493.19	3428.88
493.37	3461.65
493.54	3248.66
493.72	3473.36
493.90	3435.91
494.08	3672.30
494.25	3707.41
494.43	3543.57
494.61	3747.20
494.79	3662.94
494.96	3716.77
495.14	3550.59
495.32	3602.08
495.49	3461.65
495.67	3604.42
495.85	3744.86
496.02	3726.13
496.20	3782.31
496.38	3786.99
496.55	3653.58
496.73	3861.88
496.91	3723.79
497.09	3873.59
497.26	3957.85
497.44	3967.21
497.62	3719.11
497.79	3625.49
497.97	3389.10
498.14	3466.33
498.32	3637.19
498.50	3648.90
498.67	3950.82
498.85	3784.65
499.03	3716.77
499.20	3894.65
499.38	3946.14
499.56	3833.80
499.73	3758.90
499.91	3707.41
500.08	3808.05
500.26	3730.81
500.44	3613.79
500.61	3602.08
500.79	3611.45
500.97	3728.47
501.14	3555.27
501.32	3520.17
501.49	3520.17
501.67	3569.32
501.84	3531.87
502.02	3684.00
502.20	3686.34
502.37	3728.47
502.55	3688.68
502.72	3866.56
502.90	3829.12
503.07	3765.92
503.25	3672.30
503.43	3433.57
503.60	3475.70
503.78	3316.54
503.95	3389.10
504.13	3700.39
504.30	3859.54
504.48	3990.61
504.65	3742.52
504.83	3941.46
505.01	3861.88
505.18	3955.51
505.36	3794.01
505.53	3887.63
505.71	3967.21
505.88	4135.73
506.06	3941.46
506.23	3995.29
506.41	3878.27
506.58	3896.99
506.76	3843.16
506.93	3693.37
507.11	3691.02
507.28	3702.73
507.46	3679.32
507.63	3611.45
507.81	3709.75
507.98	3651.24
508.16	3712.09
508.33	3911.04
508.50	3941.46
508.68	3983.59
508.85	4112.32
509.03	4021.04
509.20	3995.29
509.38	3915.72
509.55	3901.67
509.73	3880.61
509.90	3974.23
510.08	3988.27
510.25	4025.72
510.42	3850.18
510.60	3932.10
510.77	3957.85
510.95	3946.14
511.12	4037.42
511.30	4086.58
511.47	4102.96
511.64	4196.58
511.82	4147.43
511.99	4009.34
512.17	4063.17
512.34	3901.67
512.51	3978.91
512.69	3918.06
512.86	4189.56
513.04	3969.55
513.21	4077.21
513.38	3878.27
513.56	3971.89
513.73	3744.86
513.90	3822.09
514.08	3794.01
514.25	3906.35
514.43	4011.68
514.60	3871.25
514.77	3981.25
514.95	3999.98
515.12	3985.93
515.29	4039.76
515.47	4093.60
515.64	4081.89
515.81	4035.08
515.99	4070.19
516.16	3630.17
516.33	3412.50
516.51	3382.07
516.68	3208.87
516.85	3220.58
517.03	3166.74
517.20	3485.06
517.37	3730.81
517.54	3953.16
517.72	4135.73
517.89	3693.37
518.06	3342.28
518.24	3421.86
518.41	3672.30
518.58	3705.07
518.75	3859.54
518.93	3915.72
519.10	3904.01
519.27	3861.88
519.45	3983.59
519.62	3985.93
519.79	4021.04
519.96	3999.98
520.14	4007.00
520.31	3913.38
520.48	3964.87
520.65	3838.48
520.83	4170.83
521.00	4037.42
521.17	4044.45
521.34	3990.61
521.52	4051.47
521.69	4021.04
521.86	4208.28
522.03	4182.54
522.20	4074.87
522.38	3822.09
522.55	3861.88
522.72	3990.61
522.89	3936.78
523.07	3950.82
523.24	3911.04
523.41	4229.35
523.58	4128.70
523.75	4147.43
523.92	4283.18
524.10	4175.52
524.27	4152.11
524.44	4257.43
524.61	4149.77
524.78	4114.66
524.96	4152.11
525.13	4177.86
525.30	4229.35
525.47	4212.96
525.64	4168.49
525.81	3955.51
525.98	4046.79
526.16	3791.67
526.33	3571.66
526.50	3597.40
526.67	3630.17
526.84	3407.82
527.01	3651.24
527.18	3904.01
527.36	3843.16
527.53	4025.72
527.70	4215.30
527.87	4058.49
528.04	4051.47
528.21	4065.51
528.38	4100.62
528.55	4315.95
528.72	4285.52
528.89	4404.89
529.07	4329.99
529.24	4121.68
529.41	4072.53
529.58	4084.23
529.75	3960.19
529.92	3990.61
530.09	4250.41
530.26	4266.80
530.43	4276.16
530.60	4184.88
530.77	4243.39
530.94	4404.89
531.11	4280.84
531.28	4140.41
531.46	4280.84
531.63	4191.90
531.80	4285.52
531.97	4175.52
532.14	3911.04
532.31	4102.96
532.48	3899.33
532.65	3791.67
532.82	3744.86
532.99	4016.36
533.16	4156.79
533.33	4224.67
533.50	4154.45
533.67	4025.72
533.84	4093.60
534.01	4053.81
534.18	4077.21
534.35	4301.90
534.52	4161.47
534.69	4163.81
534.86	4227.01
535.03	4135.73
535.20	4243.39
535.37	4463.40
535.54	4360.42
535.71	4283.18
535.88	4365.10
536.05	4208.28
536.22	4091.26
536.38	4154.45
536.55	4058.49
536.72	4023.38
536.89	3974.23
537.06	4138.07
537.23	4203.60
537.40	4252.75
537.57	4229.35
537.74	4131.05
537.91	4248.07
538.08	4264.46
538.25	4297.22
538.42	4173.18
538.59	4173.18
538.75	4114.66
538.92	4074.87
539.09	4201.26
539.26	4028.06
539.43	4257.43
539.60	4014.02
539.77	4140.41
539.94	3941.46
540.11	4088.92
540.28	3976.57
540.44	4126.36
540.61	4121.68
540.78	4079.55
540.95	4259.78
541.12	4486.81
541.29	4451.70
541.46	4470.42
541.62	4550.00
541.79	4627.24
541.96	4351.06
542.13	4372.12
542.30	4491.49
542.47	4269.14
542.63	4475.10
542.80	4297.22
542.97	4507.87
543.14	4379.14
543.31	4248.07
543.48	4421.27
543.64	4587.45
543.81	4645.96
543.98	4461.06
544.15	4531.28
544.32	4449.36
544.48	4346.37
544.65	4397.87
544.82	4255.09
544.99	4465.74
545.16	4470.42
545.32	4390.84
545.49	4821.50
545.66	5266.21
545.83	5533.03
546.00	5287.27
546.16	4760.65
546.33	4533.62
546.50	4393.19
546.67	4409.57
546.83	4292.54
547.00	4231.69
547.17	4170.83
547.34	4100.62
547.50	4152.11
547.67	4224.67
547.84	4124.02
548.00	4271.48
548.17	4124.02
548.34	4201.26
548.51	4276.16
548.67	4294.88
548.84	4049.13
549.01	4222.33
549.18	4348.72
549.34	4140.41
549.51	4259.78
549.68	4044.45
549.84	4168.49
550.01	4245.73
550.18	4138.07
550.34	4264.46
550.51	4053.81
550.68	4063.17
550.84	4009.34
551.01	4016.36
551.18	4002.32
551.34	4011.68
551.51	3983.59
551.68	4072.53
551.84	4102.96
552.01	4067.85
552.18	4133.39
552.34	3936.78
552.51	3999.98
552.68	4053.81
552.84	3817.41
553.01	4009.34
553.18	3936.78
553.34	4058.49
553.51	3971.89
553.67	4023.38
553.84	4112.32
554.01	4053.81
554.17	3995.29
554.34	3866.56
554.51	4056.15
554.67	4135.73
554.84	3999.98
555.00	3904.01
555.17	3915.72
555.33	3950.82
555.50	3936.78
555.67	3929.76
555.83	3896.99
556.00	3953.16
556.16	4070.19
556.33	3878.27
556.50	3840.82
556.66	3864.22
556.83	3658.26
556.99	3735.50
557.16	3798.69
557.32	3765.92
557.49	3768.26
557.65	3770.60
557.82	3904.01
557.98	3971.89
558.15	3705.07
558.32	3878.27
558.48	3520.17
558.65	3515.48
558.81	3658.26
558.98	3693.37
559.14	3559.95
559.31	3826.78
559.47	3749.54
559.64	3637.19
559.80	3693.37
559.97	3616.13
560.13	3702.73
560.30	3735.50
560.46	3805.71
560.63	3791.67
560.79	4032.74
560.96	3873.59
561.12	3590.38
561.29	3585.70
561.45	3700.39
561.61	3801.03
561.78	3798.69
561.94	3723.79
562.11	3653.58
562.27	3684.00
562.44	3634.85
562.60	3775.28
562.77	3847.84
562.93	3934.44
563.10	3850.18
563.26	3754.22
563.42	3784.65
563.59	3698.05
563.75	3702.73
563.92	3726.13
564.08	3604.42
564.24	3686.34
564.41	3735.50
564.57	3768.26
564.74	3604.42
564.90	3606.77
565.07	3786.99
565.23	3625.49
565.39	3569.32
565.56	3581.02
565.72	3473.36
565.88	3438.25
566.05	3485.06
566.21	3538.89
566.38	3524.85
566.54	3606.77
566.70	3763.58
566.87	3562.30
567.03	3660.60
567.19	3611.45
567.36	3611.45
567.52	3609.11
567.68	3555.27
567.85	3618.47
568.01	3421.86
568.17	3323.56
568.34	3499.10
568.50	3286.11
568.66	3330.58
568.83	3431.23
568.99	3302.50
569.15	3461.65
569.32	3375.05
569.48	3236.96
569.64	3267.39
569.81	3311.86
569.97	3283.77
570.13	3253.34
570.30	3368.03
570.46	3272.07
570.62	3311.86
570.78	3229.94
570.95	3213.56
571.11	3281.43
571.27	3440.59
571.43	3332.92
571.60	3323.56
571.76	3276.75
571.92	3309.52
572.09	3300.16
572.25	3377.39
572.41	3405.48
572.57	3295.47
572.74	3396.12
572.90	3405.48
573.06	3318.88
573.22	3272.07
573.38	3328.24
573.55	3379.73
573.71	3410.16
573.87	3288.45
574.03	3229.94
574.20	3321.22
574.36	3162.06
574.52	3251.00
574.68	3199.51
574.84	3234.62
575.01	3206.53
575.17	3222.92
575.33	3232.28
575.49	3295.47
575.65	3239.30
575.82	3082.49
575.98	3260.37
576.14	3162.06
576.30	3321.22
576.46	3365.69
576.62	3515.48
576.79	3529.53
576.95	3454.63
577.11	3424.20
577.27	3356.33
577.43	3431.23
577.59	3272.07
577.75	3241.64
577.92	3236.96
578.08	3185.47
578.24	3042.70
578.40	3234.62
578.56	3485.06
578.72	3400.80
578.88	3407.82
579.04	3288.45
579.21	3398.46
579.37	3471.01
579.53	3424.20
579.69	3445.27
579.85	3269.73
580.01	3335.26
580.17	3276.75
580.33	3183.13
580.49	3309.52
580.65	3363.35
580.82	3389.10
580.98	3447.61
581.14	3183.13
581.30	3349.31
581.46	3213.56
581.62	3382.07
581.78	3178.45
581.94	3412.50
582.10	3403.14
582.26	3281.43
582.42	3358.67
582.58	3358.67
582.74	3447.61
582.90	3391.44
583.06	3243.98
583.22	3370.37
583.38	3314.20
583.54	3337.60
583.70	3370.37
583.86	3379.73
584.02	3356.33
584.18	3454.63
584.34	3265.05
584.50	3461.65
584.66	3330.58
584.82	3201.85
584.98	3297.81
585.14	3251.00
585.30	3190.15
585.46	3183.13
585.62	3045.04
585.78	3236.96
585.94	3148.02
586.10	3215.90
586.26	3204.19
586.42	3346.97
586.58	3258.03
586.74	3304.84
586.90	3316.54
587.06	3164.40
587.22	3187.81
587.38	3143.34
587.54	3122.27
587.70	3045.04
587.86	2970.14
588.02	2808.64
588.18	2686.94
588.34	2740.77
588.49	2576.93
588.65	2342.88
588.81	2363.94
588.97	2282.02
589.13	2366.28
589.29	2265.64
589.45	2312.45
589.61	2363.94
589.77	2347.56
589.93	2574.59
590.08	2553.52
590.24	2726.72
590.40	2665.87
590.56	2745.45
590.72	2595.65
590.88	2644.81
591.04	2597.99
591.20	2656.51
591.35	2684.59
591.51	2628.42
591.67	2593.31
591.83	2539.48
591.99	2530.12
592.15	2579.27
592.31	2654.17
592.46	2785.24
592.62	2750.13
592.78	2759.49
592.94	2747.79
593.10	2827.37
593.26	2878.86
593.41	2916.31
593.57	2782.90
593.73	2736.09
593.89	2647.15
594.05	2544.16
594.20	2506.71
594.36	2377.98
594.52	2527.78
594.68	2583.95
594.84	2567.57
594.99	2640.12
595.15	2691.62
595.31	2724.38
595.47	2736.09
595.62	2600.34
595.78	2630.76
595.94	2775.88
596.10	2792.26
596.25	2743.11
596.41	2722.04
596.57	2654.17
596.73	2747.79
596.88	2729.06
597.04	2775.88
597.20	2729.06
597.36	2801.62
597.51	2738.43
597.67	2647.15
597.83	2724.38
597.99	2733.75
598.14	2668.21
598.30	2808.64
