SpectraSuite Data File
++++++++++++++++++++++++++++++++++++
Date: Fri Oct 04 11:44:24 GMT-05:00 2013
User: price-jones
Dark Spectrum Present: No
Reference Spectrum Present: No
Number of Sampled Component Spectra: 1
Spectrometers: USB2+H05261
Integration Time (usec): 100000 (USB2+H05261)
Spectra Averaged: 1 (USB2+H05261)
Boxcar Smoothing: 0 (USB2+H05261)
Correct for Electrical Dark: No (USB2+H05261)
Strobe/Lamp Enabled: No (USB2+H05261)
Correct for Detector Non-linearity: No (USB2+H05261)
Correct for Stray Light: No (USB2+H05261)
Number of Pixels in Processed Spectrum: 2048
>>>>>Begin Processed Spectral Data<<<<<
365.73	60.85
365.92	60.85
366.12	60.85
366.32	0.00
366.52	0.00
366.72	0.00
366.91	0.00
367.11	0.00
367.31	0.00
367.51	0.00
367.70	0.00
367.90	18.72
368.10	0.00
368.30	0.00
368.49	0.00
368.69	0.00
368.89	0.00
369.09	0.00
369.28	0.00
369.48	0.00
369.68	0.00
369.87	0.00
370.07	9.36
370.27	0.00
370.47	79.58
370.66	489.17
370.86	517.26
371.06	690.46
371.25	704.50
371.45	615.56
371.65	599.18
371.84	566.41
372.04	564.07
372.24	648.33
372.44	660.03
372.63	603.86
372.83	645.99
373.03	566.41
373.22	533.64
373.42	561.73
373.62	615.56
373.81	697.48
374.01	676.41
374.21	704.50
374.40	587.47
374.60	702.16
374.79	681.10
374.99	837.91
375.19	819.19
375.38	851.96
375.58	763.01
375.78	791.10
375.97	791.10
376.17	844.93
376.37	807.48
376.56	788.76
376.76	847.27
376.95	826.21
377.15	997.07
377.35	936.21
377.54	990.05
377.74	1020.47
377.93	1011.11
378.13	954.94
378.33	973.66
378.52	777.06
378.72	802.80
378.91	830.89
379.11	791.10
379.31	795.78
379.50	851.96
379.70	901.11
379.89	985.37
380.09	964.30
380.28	933.87
380.48	976.00
380.68	863.66
380.87	968.98
381.07	861.32
381.26	873.02
381.46	800.46
381.65	816.85
381.85	755.99
382.04	755.99
382.24	704.50
382.43	601.52
382.63	617.90
382.83	617.90
383.02	711.52
383.22	631.94
383.41	594.50
383.61	709.18
383.80	774.72
384.00	851.96
384.19	830.89
384.39	929.19
384.58	959.62
384.78	976.00
384.97	936.21
385.17	966.64
385.36	777.06
385.56	821.53
385.75	903.45
385.95	940.90
386.14	873.02
386.34	971.32
386.53	863.66
386.72	905.79
386.92	905.79
387.11	1029.84
387.31	931.53
387.50	873.02
387.70	870.68
387.89	1001.75
388.09	1032.18
388.28	1025.15
388.48	954.94
388.67	1039.20
388.86	1048.56
389.06	1149.20
389.25	1254.53
389.45	1210.06
389.64	1270.91
389.84	1181.97
390.03	1228.78
390.22	1282.61
390.42	1188.99
390.61	1196.01
390.81	1324.74
391.00	1502.62
391.19	1387.94
391.39	1240.48
391.58	1254.53
391.78	1170.27
391.97	1151.54
392.16	1170.27
392.36	992.39
392.55	912.81
392.75	744.29
392.94	636.63
393.13	580.45
393.33	676.41
393.52	847.27
393.71	964.30
393.91	1062.60
394.10	1163.25
394.29	1214.74
394.49	1348.15
394.68	1486.24
394.88	1432.41
395.07	1465.18
395.26	1394.96
395.46	1343.47
395.65	1334.11
395.84	1172.61
396.04	1116.44
396.23	809.83
396.42	723.23
396.62	751.31
396.81	882.38
397.00	1078.99
397.19	1310.70
397.39	1453.47
397.58	1645.40
397.77	1685.19
397.97	1739.02
398.16	1713.27
398.35	1844.34
398.55	1834.98
398.74	1809.23
398.93	1907.54
399.12	1944.99
399.32	1930.94
399.51	1877.11
399.70	2005.84
399.90	2010.52
400.09	2059.67
400.28	1973.07
400.47	1998.82
400.67	2085.42
400.86	2104.14
401.05	2139.25
401.24	2214.15
401.44	2183.72
401.63	2118.18
401.82	2228.19
402.01	2127.55
402.21	2176.70
402.40	2165.00
402.59	2221.17
402.78	1968.39
402.97	1977.75
403.17	2122.87
403.36	2312.45
403.55	2223.51
403.74	2272.66
403.93	2193.08
404.13	2289.04
404.32	2296.07
404.51	2422.45
404.70	2340.54
404.89	2193.08
405.09	2193.08
405.28	2069.03
405.47	2033.93
405.66	2246.91
405.85	2003.50
406.05	2017.54
406.24	2092.44
406.43	2239.89
406.62	2188.40
406.81	2249.25
407.00	2174.36
407.20	2127.55
407.39	2223.51
407.58	2354.58
407.77	2359.26
407.96	2354.58
408.15	2408.41
408.34	2361.60
408.54	2429.48
408.73	2415.43
408.92	2476.29
409.11	2321.81
409.30	2291.38
409.49	2136.91
409.68	2003.50
409.87	2087.76
410.07	1982.43
410.26	2207.13
410.45	2340.54
410.64	2443.52
410.83	2438.84
411.02	2558.21
411.21	2565.23
411.40	2525.44
411.59	2403.73
411.78	2572.25
411.98	2583.95
412.17	2630.76
412.36	2513.74
412.55	2544.16
412.74	2544.16
412.93	2513.74
413.12	2492.67
413.31	2656.51
413.50	2738.43
413.69	2691.62
413.88	2733.75
414.07	2562.89
414.26	2654.17
414.45	2614.38
414.64	2764.17
414.83	2644.81
415.02	2640.12
415.22	2546.50
415.41	2750.13
415.60	2736.09
415.79	2897.58
415.98	3045.04
416.17	2918.65
416.36	2853.11
416.55	2909.29
416.74	2768.85
416.93	2679.91
417.12	2761.83
417.31	2740.77
417.50	2747.79
417.69	2860.13
417.88	2984.18
418.07	2855.45
418.26	2649.49
418.45	2726.72
418.64	2789.92
418.83	2841.41
419.02	2803.96
419.21	2806.30
419.39	2754.81
419.58	2619.06
419.77	2616.72
419.96	2967.80
420.15	3122.27
420.34	2860.13
420.53	3012.27
420.72	3061.42
420.91	3038.02
421.10	2935.03
421.29	3042.70
421.48	2984.18
421.67	2967.80
421.86	3021.63
422.05	2780.56
422.24	2715.02
422.43	2607.36
422.61	2623.74
422.80	2906.95
422.99	2895.24
423.18	2902.26
423.37	2754.81
423.56	2832.05
423.75	2909.29
423.94	2822.69
424.13	2768.85
424.32	2843.75
424.50	2885.88
424.69	2761.83
424.88	2780.56
425.07	2764.17
425.26	2691.62
425.45	2609.70
425.64	2644.81
425.83	2745.45
426.01	2860.13
426.20	2965.46
426.39	2881.20
426.58	2729.06
426.77	2415.43
426.96	2399.05
427.15	2487.99
427.33	2609.70
427.52	2775.88
427.71	2836.73
427.90	2806.30
428.09	2726.72
428.28	2698.64
428.46	2647.15
428.65	2590.97
428.84	2693.96
429.03	2649.49
429.22	2511.39
429.40	2445.86
429.59	2190.74
429.78	1996.48
429.97	1949.67
430.16	1961.37
430.34	1966.05
430.53	2062.01
430.72	2120.53
430.91	2258.62
431.10	2593.31
431.28	2998.23
431.47	3218.24
431.66	3220.58
431.85	3005.25
432.03	2832.05
432.22	2820.35
432.41	2761.83
432.60	3012.27
432.79	3141.00
432.97	3304.84
433.16	3096.53
433.35	2876.52
433.54	2782.90
433.72	2403.73
433.91	2565.23
434.10	2834.39
434.28	3052.06
434.47	3056.74
434.66	3105.89
434.85	3052.06
435.03	3185.47
435.22	3726.13
435.41	4573.41
435.59	5036.83
435.78	4498.51
435.97	3829.12
436.16	3566.98
436.34	3379.73
436.53	3412.50
436.72	3386.76
436.90	3145.68
437.09	3248.66
437.28	3073.12
437.46	3199.51
437.65	3143.34
437.84	2878.86
438.02	2738.43
438.21	2820.35
438.40	2853.11
438.58	3197.17
438.77	3201.85
438.96	3145.68
439.14	3297.81
439.33	3412.50
439.52	3471.01
439.70	3375.05
439.89	3393.78
440.08	3356.33
440.26	3274.41
440.45	3246.32
440.63	3592.72
440.82	3602.08
441.01	3592.72
441.19	3555.27
441.38	3599.74
441.57	3791.67
441.75	3822.09
441.94	3896.99
442.12	3913.38
442.31	3749.54
442.50	3747.20
442.68	3754.22
442.87	3634.85
443.05	3609.11
443.24	3836.14
443.43	3772.94
443.61	3896.99
443.80	3955.51
443.98	3794.01
444.17	3789.33
444.35	3878.27
444.54	3948.48
444.73	3934.44
444.91	3786.99
445.10	3688.68
445.28	3524.85
445.47	3489.74
445.65	3588.04
445.84	3524.85
446.02	3651.24
446.21	3779.97
446.39	3669.96
446.58	3723.79
446.77	3758.90
446.95	3948.48
447.14	3946.14
447.32	4072.53
447.51	4091.26
447.69	3812.73
447.88	3613.79
448.06	3887.63
448.25	3786.99
448.43	3992.95
448.62	3866.56
448.80	3775.28
448.99	3726.13
449.17	4002.32
449.36	3826.78
449.54	3875.93
449.73	3953.16
449.91	4292.54
450.10	4269.14
450.28	4423.61
450.46	4311.27
450.65	4327.65
450.83	4231.69
451.02	4168.49
451.20	4072.53
451.39	4154.45
451.57	4189.56
451.76	4133.39
451.94	4056.15
452.13	4007.00
452.31	3840.82
452.49	3618.47
452.68	3576.34
452.86	3826.78
453.05	3810.39
453.23	3929.76
453.42	3929.76
453.60	4119.34
453.78	4060.83
453.97	3990.61
454.15	3990.61
454.34	3779.97
454.52	4051.47
454.70	3831.46
454.89	3915.72
455.07	3990.61
455.26	4072.53
455.44	4191.90
455.62	4236.37
455.81	4234.03
455.99	4107.64
456.17	4046.79
456.36	4102.96
456.54	4322.97
456.73	4119.34
456.91	4358.08
457.09	4255.09
457.28	4418.93
457.46	4250.41
457.64	4180.20
457.83	4091.26
458.01	3934.44
458.19	4117.00
458.38	4124.02
458.56	4173.18
458.74	4299.56
458.93	4147.43
459.11	4243.39
459.29	4278.50
459.48	4102.96
459.66	4325.31
459.84	4280.84
460.03	4332.33
460.21	4386.16
460.39	4526.60
460.57	4379.14
460.76	4542.98
460.94	4444.68
461.12	4444.68
461.31	4390.84
461.49	4528.94
461.67	4425.95
461.85	4498.51
462.04	4320.63
462.22	4767.67
462.40	4423.61
462.59	4475.10
462.77	4402.55
462.95	4575.75
463.13	4292.54
463.32	4388.50
463.50	4236.37
463.68	4292.54
463.86	4402.55
464.05	4271.48
464.23	4472.76
464.41	4229.35
464.59	4187.22
464.78	4269.14
464.96	4250.41
465.14	4299.56
465.32	4355.74
465.50	4512.55
465.69	4643.62
465.87	4273.82
466.05	4280.84
466.23	4014.02
466.41	3936.78
466.60	4177.86
466.78	4056.15
466.96	4191.90
467.14	4301.90
467.32	4362.76
467.51	4435.32
467.69	4215.30
467.87	4212.96
468.05	4409.57
468.23	4332.33
468.41	4248.07
468.60	4278.50
468.78	4414.25
468.96	4219.99
469.14	4329.99
469.32	4285.52
469.50	4126.36
469.69	4175.52
469.87	4084.23
470.05	4187.22
470.23	4091.26
470.41	4210.62
470.59	4133.39
470.77	4208.28
470.95	4430.63
471.14	4294.88
471.32	4374.46
471.50	4421.27
471.68	4449.36
471.86	4730.22
472.04	4697.46
472.22	4751.29
472.40	4381.48
472.58	4322.97
472.77	4341.69
472.95	4498.51
473.13	4440.00
473.31	4322.97
473.49	4493.83
473.67	4564.04
473.85	4566.39
474.03	4814.48
474.21	4669.37
474.39	4657.67
474.57	4919.81
474.75	4716.18
474.93	4770.01
475.12	4538.30
475.30	4594.47
475.48	4762.99
475.66	4699.80
475.84	4676.39
476.02	4517.23
476.20	4580.43
476.38	4645.96
476.56	4865.97
476.74	4809.80
476.92	4699.80
477.10	4842.57
477.28	5100.03
477.46	4961.94
477.64	5139.82
477.82	5132.79
478.00	5057.90
478.18	4978.32
478.36	5057.90
478.54	5039.17
478.72	5158.54
478.90	5224.08
479.08	5392.59
479.26	5404.30
479.44	5348.12
479.62	5313.02
479.80	5397.28
479.98	5444.09
480.16	5355.15
480.34	5336.42
480.52	5401.96
480.70	5446.43
480.88	5416.00
481.06	5418.34
481.24	5706.23
481.41	5867.72
481.59	5963.68
481.77	5858.36
481.95	5607.92
482.13	5624.31
482.31	5628.99
482.49	5696.86
482.67	5820.91
482.85	5767.08
483.03	5891.13
483.21	6022.20
483.39	5998.79
483.57	5755.38
483.74	5813.89
483.92	5937.94
484.10	5994.11
484.28	6099.44
484.46	6008.16
484.64	6366.26
484.82	6160.29
485.00	6113.48
485.18	5914.53
485.35	5614.95
485.53	5263.86
485.71	5069.60
485.89	4767.67
486.07	5144.50
486.25	5528.35
486.43	5682.82
486.61	5982.41
486.78	5937.94
486.96	5760.06
487.14	6122.84
487.32	6333.49
487.50	6223.48
487.68	6619.04
487.85	6827.34
488.03	6707.98
488.21	6569.88
488.39	6396.68
488.57	6537.12
488.75	6279.66
488.92	6710.32
489.10	6740.74
489.28	7166.72
489.46	7059.06
489.64	7253.32
489.81	7403.11
489.99	7279.07
490.17	7117.57
490.35	7250.98
490.53	7176.08
490.70	7021.61
490.88	7037.99
491.06	7281.41
491.24	7220.55
491.41	7185.44
491.59	6663.51
491.77	6530.09
491.95	6586.27
492.13	6986.50
492.30	7124.59
492.48	7375.03
492.66	7683.98
492.84	7623.12
493.01	7613.76
493.19	7454.61
493.37	7447.58
493.54	7391.41
493.72	7330.56
493.90	7588.02
494.08	7730.79
494.25	7981.23
494.43	7971.86
494.61	8025.70
494.79	8028.04
494.96	8063.15
495.14	7974.21
495.32	7581.00
495.49	7379.71
495.67	7859.52
495.85	8098.25
496.02	7911.01
496.20	8112.30
496.38	7882.92
496.55	8049.10
496.73	8198.90
496.91	8191.88
497.09	8308.90
497.26	8236.35
497.44	8290.18
497.62	7878.24
497.79	7899.31
497.97	7637.17
498.14	7719.09
498.32	7899.31
498.50	7906.33
498.67	8201.24
498.85	8400.18
499.03	8208.26
499.20	8248.05
499.38	8304.22
499.56	8407.20
499.73	8397.84
499.91	8056.12
500.08	7906.33
500.26	7719.09
500.44	7801.01
500.61	7983.57
500.79	8006.97
500.97	7822.07
501.14	7873.56
501.32	7721.43
501.49	7822.07
501.67	7786.96
501.84	7995.27
502.02	7847.82
502.20	8011.65
502.37	8018.68
502.55	7875.90
502.72	8053.78
502.90	8311.24
503.07	8126.34
503.25	7997.61
503.43	7618.44
503.60	7363.33
503.78	7339.92
503.95	7349.28
504.13	7681.64
504.30	8088.89
504.48	8072.51
504.65	7981.23
504.83	8320.60
505.01	8341.67
505.18	8152.09
505.36	8435.29
505.53	8486.78
505.71	8692.75
505.88	8685.73
506.06	8542.96
506.23	8449.33
506.41	8402.52
506.58	8311.24
506.76	8166.13
506.93	8397.84
507.11	8182.51
507.28	8201.24
507.46	8030.38
507.63	7927.39
507.81	7826.75
507.98	8147.40
508.16	8311.24
508.33	8219.96
508.50	8468.06
508.68	8582.74
508.85	8788.71
509.03	8844.88
509.20	8674.03
509.38	8482.10
509.55	8395.50
509.73	8306.56
509.90	8465.72
510.08	8564.02
510.25	8629.56
510.42	8411.89
510.60	8374.44
510.77	8559.34
510.95	8615.51
511.12	8844.88
511.30	8858.93
511.47	8964.25
511.64	8879.99
511.82	8769.99
511.99	8566.36
512.17	8458.70
512.34	8463.38
512.51	8395.50
512.69	8491.46
512.86	8430.61
513.04	8472.74
513.21	8592.11
513.38	8716.16
513.56	8294.86
513.73	8252.73
513.90	8266.77
514.08	8196.56
514.25	8299.54
514.43	8411.89
514.60	8416.57
514.77	8540.61
514.95	8571.04
515.12	8344.01
515.29	8428.27
515.47	8566.36
515.64	8877.65
515.81	8631.90
515.99	8430.61
516.16	8264.43
516.33	7702.70
516.51	7180.76
516.68	7112.89
516.85	6839.05
517.03	6911.60
517.20	7461.63
517.37	8292.52
517.54	8568.70
517.72	8456.36
517.89	7691.00
518.06	7276.73
518.24	7363.33
518.41	7637.17
518.58	8081.87
518.75	8116.98
518.93	8318.26
519.10	8358.05
519.27	8142.72
519.45	8360.39
519.62	8477.42
519.79	8706.79
519.96	8723.18
520.14	8608.49
520.31	8182.51
520.48	8376.78
520.65	8360.39
520.83	8741.90
521.00	8823.82
521.17	8580.40
521.34	8610.83
521.52	8603.81
521.69	8784.03
521.86	8992.34
522.03	8959.57
522.20	8454.02
522.38	8238.69
522.55	8161.45
522.72	8435.29
522.89	8540.61
523.07	8517.21
523.24	8533.59
523.41	8758.28
523.58	8641.26
523.75	8966.59
523.92	8837.86
524.10	9048.51
524.27	9006.38
524.44	9036.81
524.61	8765.31
524.78	8732.54
524.96	8718.50
525.13	8814.46
525.30	8851.91
525.47	8929.14
525.64	8891.70
525.81	8748.92
525.98	8187.19
526.16	8021.02
526.33	7744.83
526.50	7576.31
526.67	7564.61
526.84	7824.41
527.01	8049.10
527.18	8236.35
527.36	8409.54
527.53	8608.49
527.70	8795.73
527.87	8594.45
528.04	8664.66
528.21	8620.19
528.38	8879.99
528.55	9088.30
528.72	9308.31
528.89	9317.67
529.07	9109.36
529.24	9186.60
529.41	8769.99
529.58	8627.21
529.75	8599.13
529.92	8512.53
530.09	8648.28
530.26	8844.88
530.43	9081.28
530.60	9095.32
530.77	9202.99
530.94	9114.05
531.11	9067.24
531.28	8861.27
531.46	8870.63
531.63	8910.42
531.80	8919.78
531.97	8994.68
532.14	8535.93
532.31	8238.69
532.48	8051.44
532.65	8002.29
532.82	8191.88
532.99	8688.07
533.16	8683.39
533.33	9160.86
533.50	9001.70
533.67	8596.79
533.84	8468.06
534.01	8414.23
534.18	8470.40
534.35	8713.81
534.52	8620.19
534.69	8652.96
534.86	8730.20
535.03	8917.44
535.20	8994.68
535.37	9137.45
535.54	9165.54
535.71	9247.46
535.88	9137.45
536.05	8926.80
536.22	8861.27
536.38	8711.47
536.55	8608.49
536.72	8290.18
536.89	8294.86
537.06	8524.23
537.23	8753.60
537.40	8954.89
537.57	8922.12
537.74	8788.71
537.91	9064.89
538.08	8891.70
538.25	8765.31
538.42	8952.55
538.59	9001.70
538.75	8753.60
538.92	8786.37
539.09	8774.67
539.26	8664.66
539.43	8681.05
539.60	8535.93
539.77	8837.86
539.94	8919.78
540.11	8659.98
540.28	8428.27
540.44	8493.80
540.61	8482.10
540.78	8823.82
540.95	9305.97
541.12	9533.00
541.29	9540.02
541.46	9867.70
541.62	9853.66
541.79	9607.90
541.96	9493.21
542.13	9600.88
542.30	9476.83
542.47	9298.95
542.63	9266.18
542.80	9198.31
542.97	9219.37
543.14	9062.55
543.31	9181.92
543.48	9261.50
543.64	9584.49
543.81	9638.33
543.98	9497.89
544.15	9483.85
544.32	9245.12
544.48	9324.69
544.65	9371.50
544.82	9401.93
544.99	9523.64
545.16	9224.05
545.32	9151.49
545.49	10265.59
545.66	11452.24
545.83	12493.78
546.00	12250.36
546.16	10429.43
546.33	9923.87
546.50	9357.46
546.67	9514.28
546.83	9139.79
547.00	9163.20
547.17	8959.57
547.34	8676.37
547.50	8781.69
547.67	8592.11
547.84	8819.14
548.00	8978.30
548.17	8915.10
548.34	8964.25
548.51	9259.16
548.67	8870.63
548.84	8929.14
549.01	8924.46
549.18	8786.37
549.34	8894.04
549.51	8615.51
549.68	8858.93
549.84	8758.28
550.01	8585.08
550.18	8500.83
550.34	8947.87
550.51	8514.87
550.68	8683.39
550.84	8386.14
551.01	8482.10
551.18	8468.06
551.34	8411.89
551.51	8528.91
551.68	8720.84
551.84	8681.05
552.01	8505.51
552.18	8702.11
552.34	8191.88
552.51	8058.46
552.68	8297.20
552.84	8280.82
553.01	8362.73
553.18	8194.22
553.34	8215.28
553.51	8503.17
553.67	8524.23
553.84	8545.30
554.01	8344.01
554.17	8372.10
554.34	8224.64
554.51	8540.61
554.67	8390.82
554.84	8720.84
555.00	8358.05
555.17	8355.71
555.33	8271.45
555.50	8313.58
555.67	8149.75
555.83	8208.26
556.00	8058.46
556.16	8351.03
556.33	8098.25
556.50	7943.78
556.66	8009.31
556.83	7899.31
556.99	7726.11
557.16	7854.84
557.32	7934.42
557.49	8006.97
557.65	8070.17
557.82	7969.52
557.98	7941.44
558.15	7936.76
558.32	7691.00
558.48	7576.31
558.65	7613.76
558.81	7707.38
558.98	7630.15
559.14	7791.64
559.31	7691.00
559.47	7887.61
559.64	7695.68
559.80	7634.83
559.97	7618.44
560.13	7686.32
560.30	7866.54
560.46	8016.33
560.63	7985.91
560.79	8252.73
560.96	8091.23
561.12	7789.30
561.29	7674.62
561.45	7529.50
561.61	7719.09
561.78	7714.41
561.94	7777.60
562.11	7559.93
562.27	7588.02
562.44	7793.98
562.60	7784.62
562.77	7798.66
562.93	7833.77
563.10	7927.39
563.26	7658.23
563.42	7730.79
563.59	7543.55
563.75	7599.72
563.92	7470.99
564.08	7597.38
564.24	7782.28
564.41	7730.79
564.57	7672.28
564.74	7744.83
564.90	7719.09
565.07	7606.74
565.23	7473.33
565.39	7314.17
565.56	7316.51
565.72	7222.89
565.88	7178.42
566.05	7255.66
566.21	7192.47
566.38	7250.98
566.54	7506.10
566.70	7513.12
566.87	7454.61
567.03	7346.94
567.19	7576.31
567.36	7569.29
567.52	7499.08
567.68	7337.58
567.85	7098.84
568.01	7040.33
568.17	6843.73
568.34	6885.86
568.50	7155.02
568.66	6911.60
568.83	6984.16
568.99	6890.54
569.15	7005.22
569.32	7042.67
569.48	6925.65
569.64	6853.09
569.81	7019.27
569.97	6970.12
570.13	6991.18
570.30	6778.19
570.46	6710.32
570.62	6651.80
570.78	6647.12
570.95	6623.72
571.11	6855.43
571.27	6841.39
571.43	7028.63
571.60	6853.09
571.76	6806.28
571.92	6843.73
572.09	7007.56
572.25	7023.95
572.41	6937.35
572.57	7073.10
572.74	7143.32
572.90	6911.60
573.06	6967.77
573.22	6862.45
573.38	6909.26
573.55	6932.67
573.71	6988.84
573.87	7112.89
574.03	6787.55
574.20	6909.26
574.36	6729.04
574.52	6745.42
574.68	6738.40
574.84	6745.42
575.01	6623.72
575.17	6588.61
575.33	6506.69
575.49	6525.41
575.65	6640.10
575.82	6750.10
575.98	6658.82
576.14	6677.55
576.30	6803.94
576.46	7033.31
576.62	7281.41
576.79	7468.65
576.95	7227.57
577.11	6984.16
577.27	6918.62
577.43	6963.09
577.59	6773.51
577.75	6663.51
577.92	6415.41
578.08	6537.12
578.24	6494.99
578.40	6628.40
578.56	6958.41
578.72	6906.92
578.88	7377.37
579.04	7117.57
579.21	6993.52
579.37	6827.34
579.53	6658.82
579.69	6829.68
579.85	6841.39
580.01	6885.86
580.17	6766.49
580.33	6715.00
580.49	6726.70
580.65	6932.67
580.82	6813.30
580.98	6913.94
581.14	6787.55
581.30	6977.14
581.46	6906.92
581.62	7091.82
581.78	6909.26
581.94	7007.56
582.10	6984.16
582.26	6956.07
582.42	7054.37
582.58	7133.95
582.74	6972.46
582.90	7066.08
583.06	7009.90
583.22	6899.90
583.38	7157.36
583.54	6803.94
583.70	6848.41
583.86	7016.93
584.02	6806.28
584.18	6923.30
584.34	7035.65
584.50	6895.22
584.66	6717.34
584.82	6696.27
584.98	6703.29
585.14	6642.44
585.30	6717.34
585.46	6541.80
585.62	6438.81
585.78	6413.07
585.94	6483.28
586.10	6487.96
586.26	6686.91
586.42	6682.23
586.58	6647.12
586.74	6787.55
586.90	6799.26
587.06	6738.40
587.22	6661.16
587.38	6574.56
587.54	6354.55
587.70	6326.47
587.86	6139.23
588.02	5696.86
588.18	5783.46
588.34	5504.94
588.49	5118.75
588.65	4805.12
588.81	4629.58
588.97	4643.62
589.13	4772.35
589.29	4676.39
589.45	4643.62
589.61	4723.20
589.77	4971.30
589.93	5308.34
590.08	5336.42
590.24	5369.19
590.40	5542.39
590.56	5638.35
590.72	5371.53
590.88	5355.15
591.04	5598.56
591.20	5526.00
591.35	5570.48
591.51	5521.32
591.67	5277.91
591.83	5364.51
591.99	5343.44
592.15	5533.03
592.31	5619.63
592.46	5678.14
592.62	5849.00
592.78	5781.12
592.94	5935.60
593.10	5844.32
593.26	6125.18
593.41	6090.07
593.57	5755.38
593.73	5668.78
593.89	5341.10
594.05	5179.61
594.20	5034.49
594.36	4912.78
594.52	4762.99
594.68	4997.04
594.84	5235.78
594.99	5518.98
595.15	5458.13
595.31	5596.22
595.47	5509.62
595.62	5465.15
595.78	5575.16
595.94	5748.36
596.10	5720.27
596.25	5640.69
596.41	5530.69
596.57	5432.38
596.73	5490.90
596.88	5598.56
597.04	5647.71
597.20	5540.05
597.36	5458.13
