SpectraSuite Data File
++++++++++++++++++++++++++++++++++++
Date: Fri Oct 04 11:44:14 GMT-05:00 2013
User: price-jones
Dark Spectrum Present: No
Reference Spectrum Present: No
Number of Sampled Component Spectra: 1
Spectrometers: USB2+H05261
Integration Time (usec): 100000 (USB2+H05261)
Spectra Averaged: 1 (USB2+H05261)
Boxcar Smoothing: 0 (USB2+H05261)
Correct for Electrical Dark: No (USB2+H05261)
Strobe/Lamp Enabled: No (USB2+H05261)
Correct for Detector Non-linearity: No (USB2+H05261)
Correct for Stray Light: No (USB2+H05261)
Number of Pixels in Processed Spectrum: 2048
>>>>>Begin Processed Spectral Data<<<<<
365.73	37.45
365.92	37.45
366.12	37.45
366.32	0.00
366.52	0.00
366.72	0.00
366.91	0.00
367.11	0.00
367.31	0.00
367.51	0.00
367.70	0.00
367.90	0.00
368.10	0.00
368.30	0.00
368.49	0.00
368.69	0.00
368.89	0.00
369.09	0.00
369.28	0.00
369.48	39.79
369.68	0.00
369.87	0.00
370.07	39.79
370.27	0.00
370.47	163.84
370.66	709.18
370.86	723.23
371.06	814.51
371.25	842.59
371.45	697.48
371.65	690.46
371.84	580.45
372.04	674.07
372.24	739.61
372.44	812.17
372.63	858.98
372.83	753.65
373.03	685.78
373.22	573.43
373.42	664.71
373.62	739.61
373.81	763.01
374.01	826.21
374.21	763.01
374.40	692.80
374.60	692.80
374.79	788.76
374.99	947.92
375.19	936.21
375.38	936.21
375.58	924.51
375.78	880.04
375.97	830.89
376.17	936.21
376.37	875.36
376.56	910.47
376.76	875.36
376.95	1013.45
377.15	1057.92
377.35	1142.18
377.54	1188.99
377.74	1179.63
377.93	1118.78
378.13	1149.20
378.33	1074.31
378.52	1095.37
378.72	950.26
378.91	1006.43
379.11	1064.94
379.31	954.94
379.50	924.51
379.70	1102.39
379.89	1104.73
380.09	1114.10
380.28	1151.54
380.48	1125.80
380.68	1137.50
380.87	1076.65
381.07	1039.20
381.26	997.07
381.46	952.60
381.65	866.00
381.85	884.72
382.04	842.59
382.24	823.87
382.43	716.20
382.63	781.74
382.83	755.99
383.02	772.38
383.22	758.33
383.41	868.34
383.61	784.08
383.80	884.72
384.00	1130.48
384.19	997.07
384.39	1139.84
384.58	1109.41
384.78	1071.97
384.97	1100.05
385.17	1083.67
385.36	1001.75
385.56	973.66
385.75	1015.79
385.95	1118.78
386.14	1158.57
386.34	1172.61
386.53	1107.07
386.72	994.73
386.92	1015.79
387.11	1132.82
387.31	1261.55
387.50	1153.88
387.70	1114.10
387.89	1142.18
388.09	1139.84
388.28	1167.93
388.48	1114.10
388.67	1177.29
388.86	1294.32
389.06	1420.71
389.25	1427.73
389.45	1439.43
389.64	1380.92
389.84	1469.86
390.03	1451.13
390.22	1380.92
390.42	1507.30
390.61	1570.50
390.81	1558.80
391.00	1586.88
391.19	1633.69
391.39	1540.07
391.58	1509.65
391.78	1350.49
391.97	1373.89
392.16	1273.25
392.36	1142.18
392.55	1029.84
392.75	805.14
392.94	704.50
393.13	732.59
393.33	812.17
393.52	931.53
393.71	1198.35
393.91	1224.10
394.10	1385.60
394.29	1444.11
394.49	1495.60
394.68	1678.16
394.88	1666.46
395.07	1755.40
395.26	1694.55
395.46	1673.48
395.65	1673.48
395.84	1476.88
396.04	1329.42
396.23	1039.20
396.42	990.05
396.62	889.40
396.81	1060.26
397.00	1233.46
397.19	1453.47
397.39	1689.87
397.58	1937.96
397.77	2001.16
397.97	2122.87
398.16	2150.95
398.35	2143.93
398.55	2291.38
398.74	2340.54
398.93	2368.62
399.12	2267.98
399.32	2256.28
399.51	2305.43
399.70	2548.84
399.90	2272.66
400.09	2483.31
400.28	2347.56
400.47	2413.09
400.67	2480.97
400.86	2462.24
401.05	2562.89
401.24	2562.89
401.44	2691.62
401.63	2539.48
401.82	2588.63
402.01	2642.46
402.21	2656.51
402.40	2719.70
402.59	2633.10
402.78	2581.61
402.97	2466.92
403.17	2588.63
403.36	2736.09
403.55	2766.51
403.74	2836.73
403.93	2619.06
404.13	2616.72
404.32	2609.70
404.51	2628.42
404.70	2719.70
404.89	2565.23
405.09	2642.46
405.28	2548.84
405.47	2436.50
405.66	2532.46
405.85	2574.59
406.05	2438.84
406.24	2560.55
406.43	2499.69
406.62	2672.89
406.81	2740.77
407.00	2576.93
407.20	2590.97
407.39	2647.15
407.58	2689.28
407.77	2871.84
407.96	2792.26
408.15	2829.71
408.34	2930.35
408.54	2986.52
408.73	3070.78
408.92	2897.58
409.11	2792.26
409.30	2743.11
409.49	2541.82
409.68	2518.42
409.87	2471.61
410.07	2520.76
410.26	2698.64
410.45	2796.94
410.64	2986.52
410.83	2988.86
411.02	3026.31
411.21	3159.72
411.40	3023.97
411.59	3115.25
411.78	3227.60
411.98	2991.20
412.17	3155.04
412.36	3098.87
412.55	3054.40
412.74	3030.99
412.93	3056.74
413.12	2956.10
413.31	3213.56
413.50	3176.11
413.69	3272.07
413.88	3339.94
414.07	3136.32
414.26	3073.12
414.45	3361.01
414.64	3227.60
414.83	3248.66
415.02	3183.13
415.22	3286.11
415.41	3410.16
415.60	3309.52
415.79	3522.51
415.98	3503.78
416.17	3562.30
416.36	3424.20
416.55	3529.53
416.74	3368.03
416.93	3318.88
417.12	3321.22
417.31	3361.01
417.50	3433.57
417.69	3494.42
417.88	3419.52
418.07	3370.37
418.26	3365.69
418.45	3431.23
418.64	3534.21
418.83	3669.96
419.02	3545.91
419.21	3674.64
419.39	3372.71
419.58	3166.74
419.77	3232.28
419.96	3349.31
420.15	3482.72
420.34	3585.70
420.53	3819.75
420.72	3871.25
420.91	3915.72
421.10	3784.65
421.29	3744.86
421.48	3761.24
421.67	3843.16
421.86	3618.47
422.05	3314.20
422.24	3098.87
422.43	3049.72
422.61	3386.76
422.80	3550.59
422.99	3555.27
423.18	3651.24
423.37	3524.85
423.56	3517.83
423.75	3555.27
423.94	3478.04
424.13	3353.99
424.32	3492.08
424.50	3337.60
424.69	3344.63
424.88	3419.52
425.07	3478.04
425.26	3361.01
425.45	3323.56
425.64	3403.14
425.83	3311.86
426.01	3417.18
426.20	3562.30
426.39	3489.74
426.58	3391.44
426.77	3073.12
426.96	3038.02
427.15	3082.49
427.33	3309.52
427.52	3351.65
427.71	3389.10
427.90	3260.37
428.09	3307.18
428.28	3330.58
428.46	3143.34
428.65	3199.51
428.84	3080.14
429.03	3206.53
429.22	3129.30
429.40	2984.18
429.59	2726.72
429.78	2424.80
429.97	2450.54
430.16	2403.73
430.34	2497.35
430.53	2455.22
430.72	2572.25
430.91	2743.11
431.10	3094.19
431.28	3585.70
431.47	3925.08
431.66	4011.68
431.85	3669.96
432.03	3520.17
432.22	3361.01
432.41	3424.20
432.60	3620.81
432.79	3742.52
432.97	3974.23
433.16	3922.74
433.35	3609.11
433.54	3218.24
433.72	3138.66
433.91	3105.89
434.10	3431.23
434.28	3606.77
434.47	3925.08
434.66	3749.54
434.85	3896.99
435.03	3941.46
435.22	4320.63
435.41	5046.20
435.59	4894.06
435.78	4767.67
435.97	4519.57
436.16	4180.20
436.34	4147.43
436.53	4042.11
436.72	3992.95
436.90	3873.59
437.09	3906.35
437.28	3695.71
437.46	3861.88
437.65	3894.65
437.84	3700.39
438.02	3492.08
438.21	3276.75
438.40	3506.12
438.58	3791.67
438.77	3803.37
438.96	3829.12
439.14	4032.74
439.33	4131.05
439.52	4105.30
439.70	4184.88
439.89	4063.17
440.08	3960.19
440.26	4030.40
440.45	3992.95
440.63	4351.06
440.82	4383.82
441.01	4451.70
441.19	4435.32
441.38	4259.78
441.57	4800.44
441.75	4730.22
441.94	4681.07
442.12	4613.20
442.31	4823.84
442.50	4692.77
442.68	4526.60
442.87	4660.01
443.05	4531.28
443.24	4706.82
443.43	4671.71
443.61	4681.07
443.80	5022.79
443.98	4535.96
444.17	4561.70
444.35	4816.82
444.54	4947.89
444.73	4746.61
444.91	4709.16
445.10	4547.66
445.28	4432.97
445.47	4271.48
445.65	4362.76
445.84	4447.02
446.02	4582.77
446.21	4692.77
446.39	4493.83
446.58	4681.07
446.77	4751.29
446.95	4777.03
447.14	4980.66
447.32	5071.94
447.51	4910.44
447.69	4699.80
447.88	4580.43
448.06	4830.87
448.25	4844.91
448.43	4798.10
448.62	4739.58
448.80	4695.11
448.99	4638.94
449.17	4807.46
449.36	4657.67
449.54	4987.68
449.73	5083.64
449.91	5114.07
450.10	5228.76
450.28	5305.99
450.46	5275.57
450.65	5387.91
450.83	5322.38
451.02	5118.75
451.20	5242.80
451.39	5207.69
451.57	5090.67
451.76	4968.96
451.94	5085.98
452.13	4865.97
452.31	4889.38
452.49	4393.19
452.68	4730.22
452.86	4547.66
453.05	4732.56
453.23	4603.83
453.42	4840.23
453.60	4978.32
453.78	4999.38
453.97	5146.84
454.15	5055.56
454.34	4968.96
454.52	4889.38
454.70	4819.16
454.89	4973.64
455.07	4999.38
455.26	4985.34
455.44	5163.22
455.62	5160.88
455.81	5352.81
455.99	5369.19
456.17	5397.28
456.36	5153.86
456.54	5088.32
456.73	5338.76
456.91	5472.17
457.09	5526.00
457.28	5387.91
457.46	5217.05
457.64	5259.18
457.83	5123.43
458.01	4947.89
458.19	5114.07
458.38	5343.44
458.56	5259.18
458.74	5282.59
458.93	5380.89
459.11	5210.03
459.29	5142.16
459.48	5144.50
459.66	5228.76
459.84	5240.46
460.03	5458.13
460.21	5320.04
460.39	5336.42
460.57	5509.62
460.76	5558.77
460.94	5469.83
461.12	5308.34
461.31	5420.68
461.49	5430.04
461.67	5434.72
461.85	5554.09
462.04	5423.02
462.22	5961.34
462.40	5666.44
462.59	5561.11
462.77	5621.97
462.95	5584.52
463.13	5418.34
463.32	5371.53
463.50	5334.08
463.68	5390.25
463.86	5453.45
464.05	5345.78
464.23	5093.01
464.41	5254.50
464.59	5235.78
464.78	5345.78
464.96	5359.83
465.14	5214.71
465.32	5425.36
465.50	5460.47
465.69	5788.14
465.87	5427.70
466.05	5387.91
466.23	5177.26
466.41	5001.72
466.60	5151.52
466.78	5191.31
466.96	5266.21
467.14	5174.92
467.32	5287.27
467.51	5413.66
467.69	5188.97
467.87	5343.44
468.05	5348.12
468.23	5411.32
468.41	5275.57
468.60	5507.28
468.78	5210.03
468.96	5331.74
469.14	5467.49
469.32	5441.75
469.50	5212.37
469.69	5392.59
469.87	5287.27
470.05	5181.95
470.23	5205.35
470.41	5130.45
470.59	5364.51
470.77	5277.91
470.95	5350.46
471.14	5453.45
471.32	5430.04
471.50	5804.53
471.68	5865.38
471.86	5790.49
472.04	5776.44
472.22	5923.90
472.40	5481.53
472.58	5399.62
472.77	5404.30
472.95	5563.45
473.13	5893.47
473.31	5685.16
473.49	5455.79
473.67	5687.50
473.85	5795.17
474.03	5806.87
474.21	5827.93
474.39	6024.54
474.57	5951.98
474.75	6043.26
474.93	5959.00
475.12	5804.53
475.30	5760.06
475.48	5870.06
475.66	5977.73
475.84	5760.06
476.02	5666.44
476.20	5647.71
476.38	5809.21
476.56	5881.77
476.74	6078.37
476.92	6146.25
477.10	6078.37
477.28	6434.13
477.46	6239.87
477.64	6342.85
477.82	6387.32
478.00	6497.33
478.18	6382.64
478.36	6338.17
478.54	6267.95
478.72	6354.55
478.90	6581.59
479.08	6672.87
479.26	6633.08
479.44	6843.73
479.62	6794.58
479.80	6799.26
479.98	6593.29
480.16	6719.68
480.34	6726.70
480.52	6897.56
480.70	6932.67
480.88	6937.35
481.06	7246.30
481.24	6942.03
481.41	7133.95
481.59	7157.36
481.77	7194.81
481.95	7227.57
482.13	7075.44
482.31	7063.74
482.49	7304.81
482.67	7178.42
482.85	7143.32
483.03	7330.56
483.21	7330.56
483.39	7384.39
483.57	7204.17
483.74	7140.97
483.92	7248.64
484.10	7346.94
484.28	7590.36
484.46	7627.81
484.64	7719.09
484.82	7520.14
485.00	7407.80
485.18	7449.93
485.35	7206.51
485.53	6780.53
485.71	6153.27
485.89	5811.55
486.07	6181.35
486.25	6705.63
486.43	7009.90
486.61	6977.14
486.78	7335.24
486.96	7391.41
487.14	7627.81
487.32	7969.52
487.50	7967.18
487.68	8339.33
487.85	8184.85
488.03	8255.07
488.21	8016.33
488.39	7992.93
488.57	7906.33
488.75	7824.41
488.92	8124.00
489.10	8575.72
489.28	8945.53
489.46	8966.59
489.64	9118.73
489.81	9118.73
489.99	9107.02
490.17	9132.77
490.35	9238.09
490.53	8985.32
490.70	8800.41
490.88	8879.99
491.06	8828.50
491.24	9055.53
491.41	8924.46
491.59	8627.21
491.77	8269.11
491.95	8416.57
492.13	8748.92
492.30	8872.97
492.48	9217.03
492.66	9355.12
492.84	9530.66
493.01	9584.49
493.19	9142.13
493.37	9137.45
493.54	9282.56
493.72	9224.05
493.90	9451.08
494.08	9799.82
494.25	9940.26
494.43	10186.01
494.61	10162.61
494.79	10214.10
494.96	10057.28
495.14	10104.09
495.32	9495.55
495.49	9575.13
495.67	9687.48
495.85	10230.48
496.02	10279.63
496.20	10413.04
496.38	10148.56
496.55	9987.07
496.73	10286.65
496.91	10321.76
497.09	10485.60
497.26	10850.72
497.44	10274.95
497.62	10368.57
497.79	10246.87
497.97	9685.14
498.14	9727.27
498.32	9970.68
498.50	10244.52
498.67	10516.03
498.85	10281.97
499.03	10272.61
499.20	10441.13
499.38	10555.82
499.56	10630.71
499.73	10347.51
499.91	10335.81
500.08	10120.48
500.26	9926.21
500.44	9825.57
500.61	9940.26
500.79	9839.61
500.97	9994.09
501.14	9745.99
501.32	9912.17
501.49	9839.61
501.67	9659.39
501.84	9841.95
502.02	9977.70
502.20	10153.24
502.37	10209.42
502.55	10284.31
502.72	10207.08
502.90	10593.26
503.07	10223.46
503.25	10111.11
503.43	9846.63
503.60	9437.04
503.78	9132.77
503.95	9165.54
504.13	9797.48
504.30	10415.38
504.48	10574.54
504.65	10429.43
504.83	10377.94
505.01	10682.20
505.18	10602.63
505.36	10801.57
505.53	10787.53
505.71	10860.09
505.88	11295.43
506.06	10792.21
506.23	10595.61
506.41	10370.91
506.58	10511.35
506.76	10356.87
506.93	10527.73
507.11	10394.32
507.28	10754.76
507.46	10289.00
507.63	10132.18
507.81	9996.43
507.98	10223.46
508.16	10193.03
508.33	10349.85
508.50	10785.19
508.68	10897.53
508.85	10925.62
509.03	11152.65
509.20	11009.88
509.38	10965.41
509.55	10647.10
509.73	10504.32
509.90	10925.62
510.08	10817.96
510.25	11089.46
510.42	10902.22
510.60	10808.59
510.77	10808.59
510.95	10956.05
511.12	11302.45
511.30	11351.60
511.47	11480.33
511.64	11323.51
511.82	11463.94
511.99	11026.26
512.17	10923.28
512.34	10654.12
512.51	10841.36
512.69	10801.57
512.86	10906.90
513.04	11183.08
513.21	10937.32
513.38	10773.49
513.56	10537.09
513.73	10324.10
513.90	10431.77
514.08	10611.99
514.25	10675.18
514.43	10714.97
514.60	10668.16
514.77	10916.26
514.95	10977.11
515.12	10689.23
515.29	10876.47
515.47	11208.83
515.64	11286.06
515.81	11068.39
515.99	10963.07
516.16	10354.53
516.33	9921.53
516.51	9188.94
516.68	8767.65
516.85	8800.41
517.03	8732.54
517.20	9638.33
517.37	10410.70
517.54	10785.19
517.72	10658.80
517.89	10073.67
518.06	9259.16
518.24	9338.74
518.41	9783.44
518.58	10359.21
518.75	10633.05
518.93	10569.86
519.10	10335.81
519.27	10640.08
519.45	10607.31
519.62	10949.03
519.79	11138.61
519.96	11084.78
520.14	11075.42
520.31	10817.96
520.48	10422.41
520.65	10509.01
520.83	10906.90
521.00	11218.19
521.17	11220.53
521.34	10876.47
521.52	11044.99
521.69	11108.18
521.86	11489.69
522.03	11367.98
522.20	10988.82
522.38	10415.38
522.55	10441.13
522.72	10483.26
522.89	10729.02
523.07	10932.64
523.24	10810.93
523.41	11150.31
523.58	11274.36
523.75	11482.67
523.92	11183.08
524.10	11382.03
524.27	11461.60
524.44	11431.18
524.61	11466.28
524.78	11309.47
524.96	11180.74
525.13	11124.57
525.30	11302.45
525.47	11595.01
525.64	11637.14
525.81	11185.42
525.98	10839.02
526.16	10057.28
526.33	10101.75
526.50	9582.15
526.67	9673.43
526.84	9652.37
527.01	10242.18
527.18	10567.52
527.36	10782.85
527.53	11307.13
527.70	11232.23
527.87	11049.67
528.04	10927.96
528.21	11222.87
528.38	11473.31
528.55	11555.22
528.72	11501.39
528.89	11854.81
529.07	11683.95
529.24	11520.12
529.41	11211.17
529.58	11197.12
529.75	10761.78
529.92	11117.54
530.09	11166.70
530.26	11543.52
530.43	11492.03
530.60	11499.05
530.77	11569.27
530.94	11896.94
531.11	11424.15
531.28	11480.33
531.46	11515.44
531.63	11517.78
531.80	11349.26
531.97	11138.61
532.14	10927.96
532.31	10626.03
532.48	10317.08
532.65	10441.13
532.82	10663.48
532.99	10736.04
533.16	11356.28
533.33	11529.48
533.50	11763.53
533.67	11211.17
533.84	10951.37
534.01	11030.94
534.18	11227.55
534.35	11335.21
534.52	11131.59
534.69	11023.92
534.86	11124.57
535.03	11477.99
535.20	11721.40
535.37	11808.00
535.54	11925.03
535.71	11779.92
535.88	11681.61
536.05	11131.59
536.22	11087.12
536.38	11002.86
536.55	11124.57
536.72	10745.40
536.89	10562.84
537.06	10810.93
537.23	11162.01
537.40	11342.24
537.57	11248.61
537.74	11410.11
537.91	11419.47
538.08	11246.27
538.25	11187.76
538.42	11358.62
538.59	11569.27
538.75	11105.84
538.92	10934.98
539.09	11035.63
539.26	10747.74
539.43	11082.44
539.60	10909.24
539.77	10810.93
539.94	10984.13
540.11	10820.30
540.28	10558.16
540.44	10684.55
540.61	10658.80
540.78	10719.65
540.95	10946.69
541.12	11309.47
541.29	11452.24
541.46	11616.08
541.62	11683.95
541.79	11536.50
541.96	11522.46
542.13	11389.05
542.30	11414.79
542.47	11492.03
542.63	11389.05
542.80	11260.32
542.97	11307.13
543.14	11049.67
543.31	11007.54
543.48	11265.00
543.64	11672.25
543.81	11873.54
543.98	11609.06
544.15	11571.61
544.32	11314.15
544.48	11452.24
544.65	11152.65
544.82	11339.90
544.99	11681.61
545.16	11382.03
545.32	11309.47
545.49	12381.43
545.66	13294.24
545.83	13532.98
546.00	12802.73
546.16	11969.50
546.33	11777.58
546.50	11393.73
546.67	11377.34
546.83	11073.07
547.00	11349.26
547.17	10892.85
547.34	10810.93
547.50	10602.63
547.67	10874.13
547.84	10883.49
548.00	11042.65
548.17	11197.12
548.34	11094.14
548.51	11164.36
548.67	11248.61
548.84	11164.36
549.01	11248.61
549.18	11199.46
549.34	10815.62
549.51	11007.54
549.68	10958.39
549.84	10909.24
550.01	10981.79
550.18	11016.90
550.34	10815.62
550.51	10876.47
550.68	10691.57
550.84	10668.16
551.01	10721.99
551.18	10822.64
551.34	10766.46
551.51	10850.72
551.68	10977.11
551.84	11147.97
552.01	10944.34
552.18	10853.06
552.34	10729.02
552.51	10466.88
552.68	10576.88
552.84	10471.56
553.01	10492.62
553.18	10771.15
553.34	10752.42
553.51	10745.40
553.67	10916.26
553.84	10766.46
554.01	10752.42
554.17	10841.36
554.34	10761.78
554.51	10778.17
554.67	10986.47
554.84	10883.49
555.00	10796.89
555.17	10637.73
555.33	10583.90
555.50	10761.78
555.67	10494.96
555.83	10469.22
556.00	10270.27
556.16	10539.43
556.33	10324.10
556.50	10415.38
556.66	10478.58
556.83	10174.31
556.99	10249.21
557.16	10501.98
557.32	10167.29
557.49	10366.23
557.65	10298.36
557.82	10289.00
557.98	10286.65
558.15	10125.16
558.32	10071.33
558.48	9624.28
558.65	9689.82
558.81	9731.95
558.98	9767.06
559.14	9631.30
559.31	10052.60
559.47	10064.30
559.64	9879.40
559.80	9839.61
559.97	9664.07
560.13	9874.72
560.30	10305.38
560.46	10380.28
560.63	10384.96
560.79	10611.99
560.96	10225.80
561.12	10221.12
561.29	9734.29
561.45	9867.70
561.61	9863.02
561.78	10104.09
561.94	10218.78
562.11	9944.94
562.27	9865.36
562.44	10120.48
562.60	10052.60
562.77	10047.92
562.93	10223.46
563.10	10270.27
563.26	9778.76
563.42	10223.46
563.59	10045.58
563.75	9935.57
563.92	9811.53
564.08	9837.27
564.24	9909.83
564.41	9909.83
564.57	9970.68
564.74	9771.74
564.90	10078.35
565.07	9717.90
565.23	9624.28
565.39	9305.97
565.56	9460.45
565.72	9202.99
565.88	9563.43
566.05	9284.91
566.21	9626.62
566.38	9439.38
566.54	9533.00
566.70	9633.64
566.87	9902.81
567.03	9827.91
567.19	9872.38
567.36	9771.74
567.52	9708.54
567.68	9462.79
567.85	9413.63
568.01	9282.56
568.17	9041.49
568.34	8936.17
568.50	8720.84
568.66	8910.42
568.83	8978.30
568.99	9121.07
569.15	9128.09
569.32	9205.33
569.48	9064.89
569.64	8945.53
569.81	8919.78
569.97	8844.88
570.13	9057.87
570.30	8987.66
570.46	8870.63
570.62	8809.78
570.78	8514.87
570.95	8582.74
571.11	8774.67
571.27	8978.30
571.43	8884.67
571.60	8933.82
571.76	9100.00
571.92	8980.64
572.09	9202.99
572.25	8945.53
572.41	9062.55
572.57	9055.53
572.74	9097.66
572.90	9219.37
573.06	8858.93
573.22	9011.06
573.38	9092.98
573.55	8990.00
573.71	9088.30
573.87	8992.34
574.03	8884.67
574.20	8809.78
574.36	8933.82
574.52	8758.28
574.68	8938.51
574.84	8807.44
575.01	8613.17
575.17	8645.94
575.33	8587.43
575.49	8655.30
575.65	8945.53
575.82	8898.72
575.98	8568.70
576.14	8697.43
576.30	8915.10
576.46	9090.64
576.62	9261.50
576.79	9291.93
576.95	9090.64
577.11	8603.81
577.27	8798.07
577.43	8947.87
577.59	8849.57
577.75	8500.83
577.92	8468.06
578.08	8329.97
578.24	8360.39
578.40	8578.06
578.56	8837.86
578.72	8854.25
578.88	8777.01
579.04	9020.42
579.21	8856.59
579.37	8620.19
579.53	8884.67
579.69	9048.51
579.85	8929.14
580.01	9001.70
580.17	8739.56
580.33	8652.96
580.49	8833.18
580.65	8716.16
580.82	9025.11
580.98	9048.51
581.14	8732.54
581.30	8755.94
581.46	8774.67
581.62	9011.06
581.78	8777.01
581.94	9092.98
582.10	8985.32
582.26	9071.92
582.42	9156.18
582.58	9048.51
582.74	8964.25
582.90	9013.40
583.06	8997.02
583.22	8894.04
583.38	8901.06
583.54	8933.82
583.70	8997.02
583.86	8882.33
584.02	8753.60
584.18	9163.20
584.34	8816.80
584.50	8851.91
584.66	8901.06
584.82	8533.59
584.98	8755.94
585.14	8542.96
585.30	8439.97
585.46	8170.81
585.62	8341.67
585.78	8423.59
585.94	8414.23
586.10	8315.92
586.26	8360.39
586.42	8538.27
586.58	8425.93
586.74	8535.93
586.90	8407.20
587.06	8374.44
587.22	8489.12
587.38	8250.39
587.54	8163.79
587.70	8086.55
587.86	7859.52
588.02	7470.99
588.18	7082.46
588.34	7171.40
588.49	6497.33
588.65	6209.44
588.81	6111.14
588.97	6071.35
589.13	6108.80
589.29	6104.12
589.45	5989.43
589.61	6022.20
589.77	6406.05
589.93	6647.12
590.08	6803.94
590.24	6993.52
590.40	7192.47
590.56	7250.98
590.72	6817.98
590.88	7026.29
591.04	7222.89
591.20	7002.88
591.35	7028.63
591.51	7056.72
591.67	6895.22
591.83	6771.17
591.99	6736.06
592.15	6862.45
592.31	7059.06
592.46	7323.54
592.62	7220.55
592.78	7328.22
592.94	7344.60
593.10	7325.88
593.26	7463.97
