SpectraSuite Data File
++++++++++++++++++++++++++++++++++++
Date: Fri Oct 04 11:44:17 GMT-05:00 2013
User: price-jones
Dark Spectrum Present: No
Reference Spectrum Present: No
Number of Sampled Component Spectra: 1
Spectrometers: USB2+H05261
Integration Time (usec): 100000 (USB2+H05261)
Spectra Averaged: 1 (USB2+H05261)
Boxcar Smoothing: 0 (USB2+H05261)
Correct for Electrical Dark: No (USB2+H05261)
Strobe/Lamp Enabled: No (USB2+H05261)
Correct for Detector Non-linearity: No (USB2+H05261)
Correct for Stray Light: No (USB2+H05261)
Number of Pixels in Processed Spectrum: 2048
>>>>>Begin Processed Spectral Data<<<<<
365.73	28.09
365.92	28.09
366.12	28.09
366.32	11.70
366.52	0.00
366.72	0.00
366.91	0.00
367.11	0.00
367.31	0.00
367.51	0.00
367.70	0.00
367.90	0.00
368.10	0.00
368.30	0.00
368.49	0.00
368.69	0.00
368.89	0.00
369.09	0.00
369.28	0.00
369.48	0.00
369.68	0.00
369.87	0.00
370.07	0.00
370.27	56.17
370.47	224.69
370.66	800.46
370.86	898.77
371.06	1020.47
371.25	1071.97
371.45	863.66
371.65	943.24
371.84	744.29
372.04	791.10
372.24	922.17
372.44	940.90
372.63	1036.86
372.83	884.72
373.03	814.51
373.22	758.33
373.42	847.27
373.62	924.51
373.81	968.98
374.01	1027.50
374.21	875.36
374.40	870.68
374.60	837.91
374.79	880.04
374.99	1076.65
375.19	1170.27
375.38	1247.51
375.58	1142.18
375.78	1069.62
375.97	1015.79
376.17	1219.42
376.37	1069.62
376.56	1139.84
376.76	1174.95
376.95	1200.69
377.15	1338.79
377.35	1329.42
377.54	1378.58
377.74	1507.30
377.93	1509.65
378.13	1465.18
378.33	1334.11
378.52	1341.13
378.72	1322.40
378.91	1198.35
379.11	1188.99
379.31	1123.46
379.50	1212.40
379.70	1324.74
379.89	1310.70
380.09	1329.42
380.28	1406.66
380.48	1364.53
380.68	1462.83
380.87	1359.85
381.07	1359.85
381.26	1212.40
381.46	1203.04
381.65	1132.82
381.85	1109.41
382.04	1086.01
382.24	1025.15
382.43	973.66
382.63	933.87
382.83	1036.86
383.02	898.77
383.22	931.53
383.41	910.47
383.61	1064.94
383.80	1107.07
384.00	1256.87
384.19	1336.45
384.39	1399.64
384.58	1313.04
384.78	1425.39
384.97	1341.13
385.17	1329.42
385.36	1373.89
385.56	1139.84
385.75	1299.00
385.95	1376.24
386.14	1502.62
386.34	1373.89
386.53	1320.06
386.72	1383.26
386.92	1465.18
387.11	1359.85
387.31	1474.54
387.50	1394.96
387.70	1364.53
387.89	1362.19
388.09	1359.85
388.28	1378.58
388.48	1338.79
388.67	1544.75
388.86	1652.42
389.06	1582.20
389.25	1792.85
389.45	1785.83
389.64	1825.62
389.84	1830.30
390.03	1748.38
390.22	1764.76
390.42	1790.51
390.61	1877.11
390.81	2031.58
391.00	2120.53
391.19	2003.50
391.39	1877.11
391.58	1977.75
391.78	1834.98
391.97	1682.85
392.16	1568.16
392.36	1495.60
392.55	1397.30
392.75	1086.01
392.94	898.77
393.13	840.25
393.33	980.68
393.52	1219.42
393.71	1392.62
393.91	1444.11
394.10	1753.06
394.29	1764.76
394.49	1961.37
394.68	2129.89
394.88	2080.74
395.07	2111.16
395.26	2279.68
395.46	2101.80
395.65	2069.03
395.84	1762.42
396.04	1610.29
396.23	1371.55
396.42	1060.26
396.62	1109.41
396.81	1186.65
397.00	1507.30
397.19	1830.30
397.39	2120.53
397.58	2277.34
397.77	2448.20
397.97	2567.57
398.16	2462.24
398.35	2717.36
398.55	2761.83
398.74	2876.52
398.93	3028.65
399.12	2972.48
399.32	2864.82
399.51	2834.39
399.70	3016.95
399.90	3000.57
400.09	2930.35
400.28	2965.46
400.47	3014.61
400.67	3080.14
400.86	3089.51
401.05	3171.43
401.24	3166.74
401.44	3262.71
401.63	3211.22
401.82	3258.03
402.01	3353.99
402.21	3414.84
402.40	3372.71
402.59	3145.68
402.78	3103.55
402.97	3028.65
403.17	3052.06
403.36	3129.30
403.55	3300.16
403.74	3496.76
403.93	3456.97
404.13	3325.90
404.32	3379.73
404.51	3478.04
404.70	3564.64
404.89	3454.63
405.09	3410.16
405.28	3236.96
405.47	3045.04
405.66	3208.87
405.85	3185.47
406.05	2937.37
406.24	3157.38
406.43	3206.53
406.62	3398.46
406.81	3405.48
407.00	3194.83
407.20	3316.54
407.39	3194.83
407.58	3279.09
407.77	3304.84
407.96	3541.23
408.15	3419.52
408.34	3421.86
408.54	3836.14
408.73	3878.27
408.92	3555.27
409.11	3667.62
409.30	3412.50
409.49	3265.05
409.68	3138.66
409.87	3087.17
410.07	3201.85
410.26	3403.14
410.45	3363.35
410.64	3723.79
410.83	3791.67
411.02	3831.46
411.21	3896.99
411.40	3798.69
411.59	3981.25
411.78	3873.59
411.98	3812.73
412.17	3939.12
412.36	3796.35
412.55	3824.44
412.74	3861.88
412.93	3737.84
413.12	3691.02
413.31	4152.11
413.50	4126.36
413.69	4168.49
413.88	4035.08
414.07	3838.48
414.26	3894.65
414.45	4049.13
414.64	4049.13
414.83	4126.36
415.02	3896.99
415.22	4081.89
415.41	4229.35
415.60	4177.86
415.79	4325.31
415.98	4454.04
416.17	4545.32
416.36	4421.27
416.55	4379.14
416.74	4025.72
416.93	4060.83
417.12	4091.26
417.31	3988.27
417.50	4229.35
417.69	4241.05
417.88	4341.69
418.07	4079.55
418.26	4114.66
418.45	4105.30
418.64	4290.20
418.83	4596.81
419.02	4418.93
419.21	4395.53
419.39	4341.69
419.58	4112.32
419.77	3927.42
419.96	4184.88
420.15	4320.63
420.34	4554.68
420.53	4571.07
420.72	4791.08
420.91	4582.77
421.10	4634.26
421.29	4568.73
421.48	4521.92
421.67	4540.64
421.86	4561.70
422.05	4191.90
422.24	3960.19
422.43	3920.40
422.61	4236.37
422.80	4425.95
422.99	4559.36
423.18	4372.12
423.37	4315.95
423.56	4367.44
423.75	4437.66
423.94	4435.32
424.13	4124.02
424.32	4117.00
424.50	4283.18
424.69	4440.00
424.88	4184.88
425.07	4243.39
425.26	4124.02
425.45	4098.28
425.64	4119.34
425.83	4189.56
426.01	4301.90
426.20	4306.59
426.39	4329.99
426.58	4147.43
426.77	3838.48
426.96	3599.74
427.15	3749.54
427.33	4098.28
427.52	4112.32
427.71	4388.50
427.90	4245.73
428.09	4145.09
428.28	4021.04
428.46	3861.88
428.65	3899.33
428.84	4039.76
429.03	4156.79
429.22	3885.29
429.40	3719.11
429.59	3393.78
429.78	2949.08
429.97	3016.95
430.16	3103.55
430.34	2977.16
430.53	3129.30
430.72	3150.36
430.91	3403.14
431.10	3892.31
431.28	4477.44
431.47	4723.20
431.66	4919.81
431.85	4564.04
432.03	4301.90
432.22	4252.75
432.41	4241.05
432.60	4643.62
432.79	4662.35
432.97	4945.55
433.16	4835.55
433.35	4468.08
433.54	4004.66
433.72	3882.95
433.91	3899.33
434.10	4278.50
434.28	4531.28
434.47	4940.87
434.66	4889.38
434.85	4634.26
435.03	4835.55
435.22	5650.05
435.41	6422.43
435.59	6455.20
435.78	5975.39
435.97	5600.90
436.16	5287.27
436.34	5039.17
436.53	5055.56
436.72	5137.48
436.90	4802.78
437.09	4936.19
437.28	4671.71
437.46	4915.12
437.65	4947.89
437.84	4580.43
438.02	4152.11
438.21	4191.90
438.40	4409.57
438.58	4770.01
438.77	4816.82
438.96	4828.53
439.14	4915.12
439.33	5181.95
439.52	5095.35
439.70	5118.75
439.89	5081.30
440.08	4940.87
440.26	4798.10
440.45	5001.72
440.63	5327.06
440.82	5521.32
441.01	5511.96
441.19	5460.47
441.38	5490.90
441.57	5746.02
441.75	6012.84
441.94	5675.80
442.12	5753.04
442.31	5856.02
442.50	5820.91
442.68	5703.89
442.87	5872.40
443.05	5746.02
443.24	5776.44
443.43	5757.72
443.61	5954.32
443.80	6251.57
443.98	5703.89
444.17	5434.72
444.35	5886.45
444.54	6115.82
444.73	6071.35
444.91	5872.40
445.10	5624.31
445.28	5434.72
445.47	5310.68
445.65	5203.01
445.84	5416.00
446.02	5600.90
446.21	5841.98
446.39	5734.31
446.58	5673.46
446.77	5867.72
446.95	5909.85
447.14	6019.86
447.32	6078.37
447.51	6157.95
447.69	6003.47
447.88	5818.57
448.06	5860.70
448.25	5961.34
448.43	5921.56
448.62	5778.78
448.80	5895.81
448.99	5675.80
449.17	5898.15
449.36	6036.24
449.54	6127.52
449.73	6314.77
449.91	6558.18
450.10	6443.49
450.28	6527.75
450.46	6700.95
450.65	6590.95
450.83	6492.65
451.02	6345.19
451.20	6321.79
451.39	6399.02
451.57	6389.66
451.76	6270.30
451.94	6270.30
452.13	6427.11
452.31	6005.81
452.49	5785.80
452.68	5619.63
452.86	5792.83
453.05	5804.53
453.23	5987.09
453.42	6132.20
453.60	6230.51
453.78	6267.95
453.97	6033.90
454.15	6228.17
454.34	6031.56
454.52	6148.59
454.70	6050.28
454.89	6003.47
455.07	6164.97
455.26	6099.44
455.44	6312.42
455.62	6333.49
455.81	6347.53
455.99	6384.98
456.17	6384.98
456.36	6354.55
456.54	6434.13
456.73	6499.67
456.91	6546.48
457.09	6726.70
457.28	6700.95
457.46	6431.79
457.64	6583.93
457.83	6368.60
458.01	6143.91
458.19	6532.44
458.38	6532.44
458.56	6490.31
458.74	6471.58
458.93	6200.08
459.11	6396.68
459.29	6356.90
459.48	6466.90
459.66	6431.79
459.84	6338.17
460.03	6511.37
460.21	6626.06
460.39	6619.04
460.57	6803.94
460.76	6761.81
460.94	6843.73
461.12	6607.33
461.31	6705.63
461.49	6717.34
461.67	6766.49
461.85	6768.83
462.04	6817.98
462.22	7262.68
462.40	6895.22
462.59	6789.89
462.77	6782.87
462.95	6920.96
463.13	6670.53
463.32	6665.85
463.50	6750.10
463.68	6497.33
463.86	6497.33
464.05	6548.82
464.23	6319.45
464.41	6452.86
464.59	6265.61
464.78	6471.58
464.96	6476.26
465.14	6574.56
465.32	6665.85
465.50	6787.55
465.69	6977.14
465.87	6729.04
466.05	6593.29
466.23	6251.57
466.41	6092.41
466.60	6546.48
466.78	6420.09
466.96	6373.28
467.14	6534.78
467.32	6686.91
467.51	6576.91
467.69	6328.81
467.87	6424.77
468.05	6677.55
468.23	6586.27
468.41	6544.14
468.60	6516.05
468.78	6731.38
468.96	6766.49
469.14	6633.08
469.32	6633.08
469.50	6462.22
469.69	6417.75
469.87	6492.65
470.05	6258.59
470.23	6452.86
470.41	6277.32
470.59	6483.28
470.77	6548.82
470.95	6703.29
471.14	6778.19
471.32	6562.86
471.50	7035.65
471.68	7054.37
471.86	7159.70
472.04	7040.33
472.22	7112.89
472.40	6850.75
472.58	6768.83
472.77	6864.79
472.95	6665.85
473.13	7012.24
473.31	6862.45
473.49	6902.24
473.67	6972.46
473.85	7105.87
474.03	7250.98
474.21	7176.08
474.39	7201.83
474.57	7372.69
474.75	7480.35
474.93	7470.99
475.12	7101.19
475.30	7000.54
475.48	7140.97
475.66	7227.57
475.84	7152.68
476.02	7162.04
476.20	7047.35
476.38	7052.03
476.56	7248.64
476.74	7527.16
476.92	7241.62
477.10	7665.25
477.28	7850.16
477.46	7676.96
477.64	7866.54
477.82	8084.21
478.00	7943.78
478.18	7801.01
478.36	7826.75
478.54	7934.42
478.72	7857.18
478.90	8081.87
479.08	8231.66
479.26	8524.23
479.44	8381.46
479.62	8065.49
479.80	8561.68
479.98	8196.56
480.16	8446.99
480.34	8234.00
480.52	8411.89
480.70	8458.70
480.88	8454.02
481.06	8655.30
481.24	8734.88
481.41	9046.17
481.59	8933.82
481.77	9191.28
481.95	8865.95
482.13	8788.71
482.31	8767.65
482.49	9170.22
482.67	9158.52
482.85	8975.95
483.03	9263.84
483.21	9078.94
483.39	9158.52
483.57	8896.38
483.74	8919.78
483.92	9266.18
484.10	8992.34
484.28	9453.42
484.46	9460.45
484.64	9530.66
484.82	9357.46
485.00	9301.29
485.18	9018.08
485.35	8872.97
485.53	8369.76
485.71	7784.62
485.89	7222.89
486.07	7829.09
486.25	8318.26
486.43	8594.45
486.61	8819.14
486.78	8737.22
486.96	8887.01
487.14	9514.28
487.32	9561.09
487.50	9727.27
487.68	10080.69
487.85	10366.23
488.03	10417.72
488.21	10223.46
488.39	9802.16
488.57	9745.99
488.75	9682.80
488.92	10171.97
489.10	10511.35
489.28	10904.56
489.46	11267.34
489.64	10972.43
489.81	11213.51
489.99	11016.90
490.17	11232.23
490.35	11391.39
490.53	11164.36
490.70	10977.11
490.88	10937.32
491.06	11229.89
491.24	11194.78
491.41	10909.24
491.59	10399.00
491.77	10202.40
491.95	10363.89
492.13	10773.49
492.30	11157.33
492.48	11655.87
492.66	11719.06
492.84	11740.13
493.01	11817.36
493.19	11475.65
493.37	11356.28
493.54	11094.14
493.72	11445.22
493.90	11754.17
494.08	11910.99
494.25	12285.47
494.43	12461.01
494.61	12400.16
494.79	12664.64
494.96	12531.23
495.14	12524.21
495.32	11964.82
495.49	11585.65
495.67	12248.02
495.85	12437.61
496.02	12624.85
496.20	12891.67
496.38	12336.96
496.55	12360.37
496.73	12711.45
496.91	12425.90
497.09	13205.30
497.26	12973.59
497.44	12809.75
497.62	12755.92
497.79	12472.71
497.97	11716.72
498.14	11761.19
498.32	12292.49
498.50	12549.95
498.67	12776.98
498.85	12645.91
499.03	12894.01
499.20	13029.76
499.38	13263.82
499.56	12730.17
499.73	12702.09
499.91	12648.26
500.08	12285.47
500.26	11922.69
500.44	12278.45
500.61	12215.26
500.79	12332.28
500.97	12236.32
501.14	12248.02
501.32	12133.34
501.49	11990.56
501.67	12072.48
501.84	12208.23
502.02	12173.13
502.20	12596.76
502.37	12437.61
502.55	12353.35
502.72	12760.60
502.90	13109.34
503.07	12489.10
503.25	12322.92
503.43	11901.62
503.60	11847.79
503.78	11410.11
503.95	11349.26
504.13	11901.62
504.30	12666.98
504.48	12732.51
504.65	12865.92
504.83	12924.44
505.01	13008.70
505.18	12961.89
505.36	13331.69
505.53	13352.76
505.71	13184.24
505.88	13399.57
506.06	13156.15
506.23	13270.84
506.41	12886.99
506.58	12896.35
506.76	12872.95
506.93	13158.49
507.11	12575.70
507.28	12844.86
507.46	12833.16
507.63	12720.81
507.81	12348.67
507.98	12613.15
508.16	13048.49
508.33	12868.27
508.50	13254.45
508.68	13448.72
508.85	13827.88
509.03	13818.52
509.20	13570.43
509.38	13324.67
509.55	12732.51
509.73	13006.36
509.90	13308.29
510.08	13657.03
510.25	13465.10
510.42	13364.46
510.60	13336.37
510.77	13387.86
510.95	13671.07
511.12	13657.03
511.30	13823.20
511.47	14176.62
511.64	14265.57
511.82	13907.46
511.99	13778.73
512.17	13631.28
512.34	13308.29
512.51	13256.79
512.69	13116.36
512.86	13476.80
513.04	13673.41
513.21	13327.01
513.38	13289.56
513.56	13238.07
513.73	12816.77
513.90	12933.80
514.08	12961.89
514.25	13153.81
514.43	13165.51
514.60	13130.41
514.77	13373.82
514.95	13453.40
515.12	13263.82
515.29	13371.48
515.47	13914.48
515.64	13879.38
515.81	13610.22
515.99	13579.79
516.16	13034.44
516.33	11964.82
516.51	11379.68
516.68	11082.44
516.85	10871.79
517.03	10995.84
517.20	11655.87
517.37	12821.45
517.54	13355.10
517.72	13184.24
517.89	12489.10
518.06	11246.27
518.24	11410.11
518.41	12011.63
518.58	12697.41
518.75	12908.05
518.93	12933.80
519.10	12924.44
519.27	13142.11
519.45	13259.13
519.62	13366.80
519.79	13692.13
519.96	13743.63
520.14	13362.12
520.31	12973.59
520.48	12858.90
520.65	13041.46
520.83	13385.52
521.00	13668.73
521.17	13558.72
521.34	13530.64
521.52	13687.45
521.69	13965.98
521.86	13977.68
522.03	14188.33
522.20	13530.64
522.38	13092.96
522.55	12758.26
522.72	13041.46
522.89	13280.20
523.07	13469.78
523.24	13453.40
523.41	13912.14
523.58	13942.57
523.75	14038.53
523.92	14104.07
524.10	14274.93
524.27	14431.74
524.44	13980.02
524.61	13951.93
524.78	14001.08
524.96	13692.13
525.13	13806.82
525.30	14097.05
525.47	14415.36
525.64	14197.69
525.81	13727.24
525.98	13212.32
526.16	12472.71
526.33	12184.83
526.50	12016.31
526.67	11620.76
526.84	12107.59
527.01	12538.25
527.18	12720.81
527.36	13055.51
527.53	13774.05
527.70	13781.07
527.87	13472.12
528.04	13521.27
528.21	13390.20
528.38	13813.84
528.55	14160.24
528.72	14483.24
528.89	14345.14
529.07	14218.75
529.24	13963.64
529.41	13752.99
529.58	13378.50
529.75	13642.98
529.92	13696.82
530.09	13862.99
530.26	14288.97
530.43	14321.74
530.60	14155.56
530.77	14352.16
530.94	14579.20
531.11	14497.28
531.28	14216.41
531.46	14061.94
531.63	14190.67
531.80	14195.35
531.97	14218.75
532.14	13659.37
532.31	13172.54
532.48	12809.75
532.65	12545.27
532.82	12975.93
532.99	13418.29
533.16	13947.25
533.33	14214.07
533.50	13909.80
533.67	13799.80
533.84	13579.79
534.01	13427.65
534.18	13448.72
534.35	14010.45
534.52	13654.69
534.69	13874.70
534.86	14061.94
535.03	14022.15
535.20	14040.87
535.37	14647.07
535.54	14394.29
535.71	14579.20
535.88	14340.46
536.05	14111.09
536.22	14045.55
536.38	13605.53
536.55	13359.78
536.72	13137.43
536.89	13099.98
537.06	13394.89
537.23	13841.93
537.40	14078.32
537.57	13912.14
537.74	13980.02
537.91	14036.19
538.08	13914.48
538.25	14061.94
538.42	13954.27
538.59	14010.45
538.75	13802.14
538.92	13462.76
539.09	13612.56
539.26	13453.40
539.43	13462.76
539.60	13434.68
539.77	13699.16
539.94	13708.52
540.11	13083.59
540.28	13245.09
540.44	13114.02
540.61	13156.15
540.78	13305.95
540.95	13645.32
541.12	14134.50
541.29	14279.61
541.46	14387.27
541.62	14810.91
541.79	14457.49
541.96	13921.51
542.13	14029.17
542.30	14555.79
542.47	14209.39
542.63	14406.00
542.80	14169.60
542.97	13933.21
543.14	13755.33
543.31	13701.50
543.48	13949.59
543.64	14773.46
543.81	14862.40
543.98	14731.33
544.15	14401.32
544.32	14279.61
544.48	13830.23
544.65	14403.66
544.82	14607.28
544.99	14286.63
545.16	14136.84
545.32	14052.58
545.49	15267.31
545.66	16744.19
545.83	16992.29
546.00	16088.84
546.16	15199.44
546.33	14448.13
546.50	14150.88
546.67	14321.74
546.83	13792.78
547.00	14239.82
547.17	13837.25
547.34	13465.10
547.50	13221.69
547.67	13542.34
547.84	13635.96
548.00	13664.05
548.17	14008.11
548.34	13652.34
548.51	13991.72
548.67	13928.53
548.84	14057.26
549.01	13778.73
549.18	13645.32
549.34	13844.27
549.51	13750.65
549.68	13572.77
549.84	13535.32
550.01	13411.27
550.18	13568.09
550.34	13305.95
550.51	13418.29
550.68	13696.82
550.84	13315.31
551.01	13069.55
551.18	13327.01
551.34	13137.43
551.51	13577.45
551.68	13511.91
551.84	13701.50
552.01	13467.44
552.18	13507.23
552.34	13032.10
552.51	13088.28
552.68	12891.67
552.84	12994.65
553.01	13055.51
553.18	13083.59
553.34	13158.49
553.51	13160.83
553.67	13319.99
553.84	13303.60
554.01	13296.58
554.17	13195.94
554.34	13177.22
554.51	13289.56
554.67	13434.68
554.84	13558.72
555.00	13371.48
555.17	12985.29
555.33	13104.66
555.50	13317.65
555.67	13102.32
555.83	12901.03
556.00	12854.22
556.16	12858.90
556.33	12734.85
556.50	12784.01
556.66	12432.93
556.83	12266.75
556.99	12601.44
557.16	12489.10
557.32	12819.11
557.49	12779.32
557.65	12807.41
557.82	12692.73
557.98	12791.03
558.15	12631.87
558.32	12241.00
558.48	11908.65
558.65	11786.94
558.81	12013.97
558.98	12123.98
559.14	12306.54
559.31	12231.64
559.47	12023.33
559.64	12166.10
559.80	12250.36
559.97	12046.74
560.13	11967.16
560.30	12472.71
560.46	12631.87
560.63	12732.51
560.79	12884.65
560.96	12788.69
561.12	12453.99
561.29	12095.89
561.45	11978.86
561.61	12114.61
561.78	12442.29
561.94	12159.08
562.11	12229.30
562.27	12056.10
562.44	12217.60
562.60	12388.46
562.77	12348.67
562.93	12325.26
563.10	12439.95
563.26	12507.82
563.42	12390.80
563.59	11936.73
563.75	12196.53
563.92	12369.73
564.08	12163.76
564.24	12236.32
564.41	12215.26
564.57	12107.59
564.74	12081.85
564.90	12060.78
565.07	12049.08
565.23	12056.10
565.39	11789.28
565.56	11311.81
565.72	11550.54
565.88	11419.47
566.05	11630.12
566.21	11667.57
566.38	11648.85
566.54	11735.45
566.70	11843.11
566.87	12067.80
567.03	12046.74
567.19	11864.18
567.36	11934.39
567.52	11910.99
567.68	11887.58
567.85	11382.03
568.01	11105.84
568.17	11035.63
568.34	11283.72
568.50	10904.56
568.66	10897.53
568.83	10993.50
568.99	11040.31
569.15	11335.21
569.32	11103.50
569.48	11000.52
569.64	10782.85
569.81	11075.42
569.97	11021.58
570.13	11105.84
570.30	11110.52
570.46	10764.12
570.62	10717.31
570.78	10611.99
570.95	10523.05
571.11	10815.62
571.27	10834.34
571.43	11007.54
571.60	10789.87
571.76	11026.26
571.92	11094.14
572.09	11211.17
572.25	11133.93
572.41	11236.91
572.57	11199.46
572.74	11075.42
572.90	11030.94
573.06	10956.05
573.22	11054.35
573.38	10841.36
573.55	10871.79
573.71	11108.18
573.87	11131.59
574.03	10925.62
574.20	10862.43
574.36	10754.76
574.52	10864.77
574.68	10675.18
574.84	10841.36
575.01	10501.98
575.17	10391.98
575.33	10630.71
575.49	10670.50
575.65	10876.47
575.82	10614.33
575.98	10431.77
576.14	10649.44
576.30	10759.44
576.46	11325.85
576.62	11349.26
576.79	11459.26
576.95	10967.75
577.11	10614.33
577.27	10626.03
577.43	10757.10
577.59	10874.13
577.75	10703.27
577.92	10211.76
578.08	10204.74
578.24	10324.10
578.40	10415.38
578.56	10782.85
578.72	11047.33
578.88	11005.20
579.04	11052.01
579.21	10888.17
579.37	10841.36
579.53	10731.36
579.69	10834.34
579.85	11201.80
580.01	10843.70
580.17	10913.92
580.33	10633.05
580.49	10794.55
580.65	10546.45
580.82	10881.15
580.98	10913.92
581.14	10817.96
581.30	10911.58
581.46	10747.74
581.62	10822.64
581.78	10764.12
581.94	11059.03
582.10	10860.09
582.26	10904.56
582.42	10871.79
582.58	11178.40
582.74	11054.35
582.90	11080.10
583.06	10883.49
583.22	11033.29
583.38	10979.45
583.54	10794.55
583.70	10909.24
583.86	11040.31
584.02	10874.13
584.18	10817.96
584.34	10902.22
584.50	10832.00
584.66	10834.34
584.82	10731.36
584.98	10698.59
585.14	10614.33
585.30	10319.42
585.46	10153.24
585.62	10174.31
585.78	10125.16
585.94	10071.33
586.10	10263.25
586.26	10413.04
586.42	10321.76
586.58	10317.08
586.74	10473.90
586.90	10394.32
587.06	10527.73
587.22	10420.06
587.38	10181.33
587.54	10024.51
587.70	9755.35
587.86	9502.58
588.02	9158.52
588.18	8940.85
588.34	8624.87
588.49	8159.11
588.65	7749.51
588.81	7365.67
588.97	7442.90
589.13	7641.85
589.29	7335.24
589.45	7426.52
589.61	7478.01
589.77	7817.39
589.93	8009.31
590.08	8627.21
590.24	8692.75
590.40	8772.33
590.56	8734.88
