SpectraSuite Data File
++++++++++++++++++++++++++++++++++++
Date: Fri Oct 04 11:44:23 GMT-05:00 2013
User: price-jones
Dark Spectrum Present: No
Reference Spectrum Present: No
Number of Sampled Component Spectra: 1
Spectrometers: USB2+H05261
Integration Time (usec): 100000 (USB2+H05261)
Spectra Averaged: 1 (USB2+H05261)
Boxcar Smoothing: 0 (USB2+H05261)
Correct for Electrical Dark: No (USB2+H05261)
Strobe/Lamp Enabled: No (USB2+H05261)
Correct for Detector Non-linearity: No (USB2+H05261)
Correct for Stray Light: No (USB2+H05261)
Number of Pixels in Processed Spectrum: 2048
>>>>>Begin Processed Spectral Data<<<<<
365.73	0.00
365.92	0.00
366.12	0.00
366.32	18.72
366.52	0.00
366.72	0.00
366.91	0.00
367.11	0.00
367.31	0.00
367.51	0.00
367.70	0.00
367.90	0.00
368.10	0.00
368.30	0.00
368.49	0.00
368.69	0.00
368.89	0.00
369.09	0.00
369.28	0.00
369.48	0.00
369.68	0.00
369.87	0.00
370.07	0.00
370.27	2.34
370.47	86.60
370.66	299.59
370.86	437.68
371.06	442.36
371.25	489.17
371.45	414.27
371.65	414.27
371.84	362.78
372.04	404.91
372.24	390.87
372.44	430.66
372.63	440.02
372.83	528.96
373.03	411.93
373.22	332.36
373.42	449.38
373.62	423.64
373.81	435.34
374.01	521.94
374.21	468.11
374.40	472.79
374.60	507.90
374.79	528.96
374.99	543.00
375.19	484.49
375.38	622.58
375.58	545.34
375.78	571.09
375.97	622.58
376.17	559.39
376.37	526.62
376.56	589.82
376.76	575.77
376.95	620.24
377.15	753.65
377.35	720.88
377.54	711.52
377.74	748.97
377.93	725.57
378.13	704.50
378.33	697.48
378.52	547.69
378.72	585.13
378.91	573.43
379.11	491.51
379.31	517.26
379.50	503.22
379.70	592.16
379.89	690.46
380.09	725.57
380.28	613.22
380.48	690.46
380.68	674.07
380.87	627.26
381.07	589.82
381.26	561.73
381.46	526.62
381.65	507.90
381.85	500.87
382.04	449.38
382.24	540.66
382.43	456.40
382.63	362.78
382.83	383.85
383.02	505.56
383.22	409.59
383.41	442.36
383.61	510.24
383.80	540.66
384.00	608.54
384.19	599.18
384.39	641.31
384.58	627.26
384.78	678.76
384.97	653.01
385.17	596.84
385.36	566.41
385.56	479.81
385.75	531.30
385.95	582.79
386.14	692.80
386.34	692.80
386.53	774.72
386.72	634.29
386.92	641.31
387.11	650.67
387.31	737.27
387.50	615.56
387.70	510.24
387.89	669.39
388.09	531.30
388.28	678.76
388.48	667.05
388.67	685.78
388.86	685.78
389.06	725.57
389.25	866.00
389.45	812.17
389.64	809.83
389.84	840.25
390.03	777.06
390.22	812.17
390.42	842.59
390.61	826.21
390.81	856.64
391.00	978.34
391.19	931.53
391.39	866.00
391.58	868.34
391.78	788.76
391.97	765.36
392.16	779.40
392.36	650.67
392.55	669.39
392.75	571.09
392.94	428.32
393.13	489.17
393.33	423.64
393.52	547.69
393.71	678.76
393.91	730.25
394.10	753.65
394.29	819.19
394.49	896.43
394.68	922.17
394.88	1008.77
395.07	1022.81
395.26	973.66
395.46	950.26
395.65	952.60
395.84	905.79
396.04	737.27
396.23	585.13
396.42	610.88
396.62	484.49
396.81	554.71
397.00	746.63
397.19	809.83
397.39	954.94
397.58	1118.78
397.77	1102.39
397.97	1214.74
398.16	1158.57
398.35	1137.50
398.55	1170.27
398.74	1261.55
398.93	1336.45
399.12	1191.33
399.32	1289.64
399.51	1240.48
399.70	1425.39
399.90	1376.24
400.09	1455.81
400.28	1385.60
400.47	1364.53
400.67	1322.40
400.86	1376.24
401.05	1448.79
401.24	1458.15
401.44	1497.94
401.63	1446.45
401.82	1430.07
402.01	1521.35
402.21	1411.34
402.40	1469.86
402.59	1378.58
402.78	1458.15
402.97	1352.83
403.17	1441.77
403.36	1507.30
403.55	1509.65
403.74	1523.69
403.93	1507.30
404.13	1467.52
404.32	1423.05
404.51	1392.62
404.70	1507.30
404.89	1488.58
405.09	1504.96
405.28	1439.43
405.47	1406.66
405.66	1432.41
405.85	1423.05
406.05	1533.05
406.24	1434.75
406.43	1378.58
406.62	1455.81
406.81	1488.58
407.00	1385.60
407.20	1427.73
407.39	1497.94
407.58	1462.83
407.77	1509.65
407.96	1596.25
408.15	1584.54
408.34	1659.44
408.54	1614.97
408.73	1764.76
408.92	1659.44
409.11	1551.78
409.30	1472.20
409.49	1493.26
409.68	1329.42
409.87	1364.53
410.07	1411.34
410.26	1439.43
410.45	1614.97
410.64	1542.41
410.83	1603.27
411.02	1694.55
411.21	1732.00
411.40	1764.76
411.59	1870.09
411.78	1654.76
411.98	1729.66
412.17	1778.81
412.36	1636.03
412.55	1699.23
412.74	1764.76
412.93	1710.93
413.12	1732.00
413.31	1874.77
413.50	1785.83
413.69	1839.66
413.88	1771.79
414.07	1757.74
414.26	1813.92
414.45	1790.51
414.64	1827.96
414.83	1750.72
415.02	1877.11
415.22	1959.03
415.41	1839.66
415.60	1799.87
415.79	1877.11
415.98	1830.30
416.17	1987.11
416.36	1930.94
416.55	1963.71
416.74	1954.35
416.93	1764.76
417.12	1755.40
417.31	1781.15
417.50	1694.55
417.69	1905.20
417.88	1907.54
418.07	1902.86
418.26	1886.47
418.45	1863.07
418.64	2015.20
418.83	2005.84
419.02	1963.71
419.21	1961.37
419.39	1785.83
419.58	1785.83
419.77	1694.55
419.96	1797.53
420.15	2036.27
420.34	2026.90
420.53	2033.93
420.72	2136.91
420.91	2019.88
421.10	2179.04
421.29	2038.61
421.48	2043.29
421.67	2059.67
421.86	2003.50
422.05	1811.57
422.24	1792.85
422.43	1661.78
422.61	1694.55
422.80	1785.83
422.99	1923.92
423.18	1937.96
423.37	2012.86
423.56	1837.32
423.75	1912.22
423.94	1902.86
424.13	1820.94
424.32	1872.43
424.50	1928.60
424.69	1937.96
424.88	1940.30
425.07	1849.02
425.26	1863.07
425.45	1741.36
425.64	1811.57
425.83	1811.57
426.01	1940.30
426.20	2026.90
426.39	1968.39
426.58	1856.04
426.77	1760.08
426.96	1732.00
427.15	1689.87
427.33	1823.28
427.52	1867.75
427.71	1914.56
427.90	1870.09
428.09	1832.64
428.28	1816.26
428.46	1741.36
428.65	1783.49
428.84	1827.96
429.03	1776.47
429.22	1629.01
429.40	1654.76
429.59	1535.39
429.78	1476.88
429.97	1380.92
430.16	1331.76
430.34	1418.36
430.53	1378.58
430.72	1406.66
430.91	1598.59
431.10	1732.00
431.28	2033.93
431.47	2190.74
431.66	2246.91
431.85	1975.41
432.03	1823.28
432.22	1732.00
432.41	1975.41
432.60	2057.33
432.79	2033.93
432.97	2150.95
433.16	2115.84
433.35	1940.30
433.54	1764.76
433.72	1788.17
433.91	1741.36
434.10	1919.24
434.28	2029.24
434.47	1961.37
434.66	2017.54
434.85	2064.35
435.03	2132.23
435.22	2244.57
435.41	2569.91
435.59	2588.63
435.78	2509.05
435.97	2462.24
436.16	2314.79
436.34	2342.88
436.53	2193.08
436.72	2221.17
436.90	2122.87
437.09	2054.99
437.28	2069.03
437.46	2136.91
437.65	2120.53
437.84	2078.40
438.02	1853.70
438.21	1842.00
438.40	1994.14
438.58	2104.14
438.77	2101.80
438.96	2197.76
439.14	2256.28
439.33	2258.62
439.52	2265.64
439.70	2218.83
439.89	2223.51
440.08	2129.89
440.26	2148.61
440.45	2230.53
440.63	2289.04
440.82	2518.42
441.01	2335.85
441.19	2377.98
441.38	2511.39
441.57	2431.82
441.75	2703.32
441.94	2562.89
442.12	2497.35
442.31	2597.99
442.50	2525.44
442.68	2614.38
442.87	2438.84
443.05	2492.67
443.24	2541.82
443.43	2516.08
443.61	2675.23
443.80	2595.65
443.98	2450.54
444.17	2473.95
444.35	2534.80
444.54	2682.25
444.73	2715.02
444.91	2555.86
445.10	2525.44
445.28	2457.56
445.47	2260.96
445.65	2438.84
445.84	2487.99
446.02	2520.76
446.21	2612.04
446.39	2462.24
446.58	2600.34
446.77	2651.83
446.95	2576.93
447.14	2644.81
447.32	2799.28
447.51	2623.74
447.69	2509.05
447.88	2757.15
448.06	2534.80
448.25	2614.38
448.43	2532.46
448.62	2595.65
448.80	2495.01
448.99	2651.83
449.17	2637.78
449.36	2703.32
449.54	2801.62
449.73	2841.41
449.91	2785.24
450.10	2911.63
450.28	2998.23
450.46	2960.78
450.65	2991.20
450.83	2808.64
451.02	2785.24
451.20	2806.30
451.39	2750.13
451.57	2764.17
451.76	2686.94
451.94	2766.51
452.13	2771.19
452.31	2640.12
452.49	2415.43
452.68	2370.96
452.86	2527.78
453.05	2569.91
453.23	2583.95
453.42	2621.40
453.60	2682.25
453.78	2605.02
453.97	2785.24
454.15	2719.70
454.34	2633.10
454.52	2602.68
454.70	2677.57
454.89	2656.51
455.07	2675.23
455.26	2654.17
455.44	2766.51
455.62	2785.24
455.81	2899.92
455.99	2820.35
456.17	2712.68
456.36	2827.37
456.54	2855.45
456.73	2803.96
456.91	2897.58
457.09	2864.82
457.28	2942.05
457.46	2841.41
457.64	2782.90
457.83	2918.65
458.01	2619.06
458.19	2782.90
458.38	2843.75
458.56	2876.52
458.74	2750.13
458.93	2757.15
459.11	2745.45
459.29	2731.41
459.48	2799.28
459.66	2689.28
459.84	2843.75
460.03	2888.22
460.21	2874.18
460.39	2939.71
460.57	2883.54
460.76	2939.71
460.94	3052.06
461.12	2918.65
461.31	2881.20
461.49	3030.99
461.67	2920.99
461.85	2935.03
462.04	2942.05
462.22	3459.31
462.40	2827.37
462.59	3030.99
462.77	2972.48
462.95	3082.49
463.13	2911.63
463.32	2895.24
463.50	2958.44
463.68	2928.01
463.86	2825.03
464.05	2913.97
464.23	2899.92
464.41	2883.54
464.59	2846.09
464.78	2935.03
464.96	2787.58
465.14	2918.65
465.32	2846.09
465.50	2977.16
465.69	3084.83
465.87	2913.97
466.05	2932.69
466.23	2729.06
466.41	2661.19
466.60	2834.39
466.78	2780.56
466.96	2862.48
467.14	2874.18
467.32	3007.59
467.51	2904.60
467.69	2832.05
467.87	2939.71
468.05	2857.79
468.23	2808.64
468.41	2857.79
468.60	2848.43
468.78	2911.63
468.96	2792.26
469.14	2857.79
469.32	2979.50
469.50	2846.09
469.69	2942.05
469.87	2841.41
470.05	2862.48
470.23	2864.82
470.41	2899.92
470.59	2810.98
470.77	2771.19
470.95	2949.08
471.14	2942.05
471.32	2909.29
471.50	3061.42
471.68	3094.19
471.86	3180.79
472.04	3145.68
472.22	3152.70
472.40	3000.57
472.58	2963.12
472.77	2949.08
472.95	3007.59
473.13	3098.87
473.31	2963.12
473.49	2920.99
473.67	3028.65
473.85	3105.89
474.03	3148.02
474.21	3143.34
474.39	3070.78
474.57	3187.81
474.75	3169.09
474.93	3082.49
475.12	3138.66
475.30	3220.58
475.48	3162.06
475.66	3073.12
475.84	3162.06
476.02	3005.25
476.20	3096.53
476.38	3070.78
476.56	3314.20
476.74	3229.94
476.92	3169.09
477.10	3241.64
477.28	3344.63
477.46	3300.16
477.64	3356.33
477.82	3396.12
478.00	3475.70
478.18	3293.13
478.36	3400.80
478.54	3176.11
478.72	3365.69
478.90	3485.06
479.08	3494.42
479.26	3510.80
479.44	3686.34
479.62	3529.53
479.80	3595.06
479.98	3712.09
480.16	3672.30
480.34	3648.90
480.52	3679.32
480.70	3686.34
480.88	3714.43
481.06	3749.54
481.24	3833.80
481.41	3782.31
481.59	3934.44
481.77	3801.03
481.95	3803.37
482.13	3749.54
482.31	3791.67
482.49	3889.97
482.67	3880.61
482.85	3794.01
483.03	3960.19
483.21	4053.81
483.39	4032.74
483.57	4007.00
483.74	3927.42
483.92	4035.08
484.10	3927.42
484.28	4044.45
484.46	3999.98
484.64	4126.36
484.82	4035.08
485.00	3988.27
485.18	3892.31
485.35	3726.13
485.53	3506.12
485.71	3377.39
485.89	3218.24
486.07	3155.04
486.25	3421.86
486.43	3740.18
486.61	3850.18
486.78	3854.86
486.96	3845.50
487.14	4007.00
487.32	3936.78
487.50	4250.41
487.68	4280.84
487.85	4362.76
488.03	4421.27
488.21	4358.08
488.39	4241.05
488.57	4369.78
488.75	4154.45
488.92	4582.77
489.10	4540.64
489.28	4746.61
489.46	4854.27
489.64	4784.06
489.81	4891.72
489.99	4720.86
490.17	4723.20
490.35	5071.94
490.53	4716.18
490.70	4748.95
490.88	4533.62
491.06	4793.42
491.24	4849.59
491.41	4746.61
491.59	4592.13
491.77	4423.61
491.95	4463.40
492.13	4531.28
492.30	4753.63
492.48	4936.19
492.66	5081.30
492.84	5114.07
493.01	4957.25
493.19	4844.91
493.37	4889.38
493.54	4887.04
493.72	4779.37
493.90	5132.79
494.08	5207.69
494.25	5352.81
494.43	5399.62
494.61	5430.04
494.79	5228.76
494.96	5296.63
495.14	5261.52
495.32	5151.52
495.49	5069.60
495.67	5200.67
495.85	5313.02
496.02	5401.96
496.20	5444.09
496.38	5392.59
496.55	5191.31
496.73	5488.56
496.91	5568.13
497.09	5631.33
497.26	5652.39
497.44	5439.40
497.62	5476.85
497.79	5420.68
497.97	5179.61
498.14	5146.84
498.32	5224.08
498.50	5554.09
498.67	5427.70
498.85	5502.60
499.03	5563.45
499.20	5542.39
499.38	5589.20
499.56	5479.19
499.73	5493.24
499.91	5430.04
500.08	5298.97
500.26	5249.82
500.44	5275.57
500.61	5305.99
500.79	5390.25
500.97	5291.95
501.14	5231.10
501.32	5104.71
501.49	5210.03
501.67	5207.69
501.84	5317.70
502.02	5331.74
502.20	5462.81
502.37	5193.65
502.55	5469.83
502.72	5586.86
502.90	5600.90
503.07	5394.93
503.25	5460.47
503.43	5078.96
503.60	5071.94
503.78	4847.25
503.95	4973.64
504.13	5242.80
504.30	5397.28
504.48	5427.70
504.65	5481.53
504.83	5607.92
505.01	5664.10
505.18	5694.52
505.36	5743.67
505.53	5680.48
505.71	5514.30
505.88	5778.78
506.06	5680.48
506.23	5664.10
506.41	5565.79
506.58	5533.03
506.76	5526.00
506.93	5556.43
507.11	5577.50
507.28	5582.18
507.46	5455.79
507.63	5472.17
507.81	5387.91
507.98	5366.85
508.16	5444.09
508.33	5610.26
508.50	5722.61
508.68	5898.15
508.85	5865.38
509.03	5966.03
509.20	5919.21
509.38	5790.49
509.55	5678.14
509.73	5636.01
509.90	5680.48
510.08	5764.74
510.25	5785.80
510.42	5846.66
510.60	5856.02
510.77	5724.95
510.95	5865.38
511.12	5987.09
511.30	5881.77
511.47	6083.05
511.64	6036.24
511.82	6045.60
511.99	5802.19
512.17	5750.70
512.34	5703.89
512.51	5666.44
512.69	5591.54
512.86	5839.64
513.04	5830.27
513.21	5919.21
513.38	5973.05
513.56	5631.33
513.73	5640.69
513.90	5591.54
514.08	5579.84
514.25	5764.74
514.43	5687.50
514.60	5844.32
514.77	5884.11
514.95	5598.56
515.12	5713.25
515.29	5706.23
515.47	6003.47
515.64	5977.73
515.81	5994.11
515.99	5893.47
516.16	5661.76
516.33	5107.05
516.51	5027.47
516.68	4835.55
516.85	4830.87
517.03	4671.71
517.20	5139.82
517.37	5483.88
517.54	5809.21
517.72	5717.93
517.89	5343.44
518.06	5186.63
518.24	5062.58
518.41	5317.70
518.58	5554.09
518.75	5600.90
518.93	5640.69
519.10	5612.60
519.27	5633.67
519.45	5699.20
519.62	5774.10
519.79	6022.20
519.96	5926.24
520.14	5785.80
520.31	5820.91
520.48	5790.49
520.65	5657.07
520.83	5942.62
521.00	5970.71
521.17	5982.41
521.34	5895.81
521.52	5743.67
521.69	6132.20
521.86	6118.16
522.03	6188.38
522.20	5806.87
522.38	5465.15
522.55	5696.86
522.72	5933.26
522.89	5673.46
523.07	5783.46
523.24	5947.30
523.41	6003.47
523.58	6204.76
523.75	6164.97
523.92	6169.65
524.10	6120.50
524.27	6260.93
524.44	6073.69
524.61	6026.88
524.78	6012.84
524.96	6043.26
525.13	6076.03
525.30	6181.35
525.47	6118.16
525.64	6218.80
525.81	6031.56
525.98	5743.67
526.16	5619.63
526.33	5430.04
526.50	5231.10
526.67	5172.58
526.84	5282.59
527.01	5387.91
527.18	5369.19
527.36	5781.12
527.53	5923.90
527.70	6169.65
527.87	5863.04
528.04	5877.09
528.21	5783.46
528.38	6120.50
528.55	6464.56
528.72	6256.25
528.89	6450.52
529.07	6305.40
529.24	6104.12
529.41	5853.68
529.58	5771.76
529.75	5811.55
529.92	5989.43
530.09	6106.46
530.26	6078.37
530.43	6373.28
530.60	6129.86
530.77	6267.95
530.94	6436.47
531.11	6356.90
531.28	5994.11
531.46	6083.05
531.63	6195.40
531.80	6223.48
531.97	6092.41
532.14	5996.45
532.31	5802.19
532.48	5509.62
532.65	5617.29
532.82	5731.97
532.99	5893.47
533.16	5959.00
533.33	6356.90
533.50	6265.61
533.67	6040.92
533.84	5832.62
534.01	6005.81
534.18	5820.91
534.35	6031.56
534.52	6069.01
534.69	6024.54
534.86	6019.86
535.03	6157.95
535.20	6291.36
535.37	6314.77
535.54	6558.18
535.71	6298.38
535.88	6183.70
536.05	6209.44
536.22	6047.94
536.38	5949.64
536.55	5963.68
536.72	5926.24
536.89	5678.14
537.06	5893.47
537.23	6092.41
537.40	6162.63
537.57	6069.01
537.74	6101.78
537.91	6300.72
538.08	5991.77
538.25	6195.40
538.42	6094.76
538.59	6249.23
538.75	6024.54
538.92	5996.45
539.09	5877.09
539.26	6033.90
539.43	5994.11
539.60	5841.98
539.77	6080.71
539.94	5853.68
540.11	5795.17
540.28	5757.72
540.44	5603.24
540.61	5870.06
540.78	5877.09
540.95	5884.11
541.12	6043.26
541.29	5963.68
541.46	6228.17
541.62	6270.30
541.79	6101.78
541.96	6113.48
542.13	6221.14
542.30	5991.77
542.47	6146.25
542.63	5994.11
542.80	6066.67
542.97	5935.60
543.14	6040.92
543.31	5954.32
543.48	6167.31
543.64	6406.05
543.81	6483.28
543.98	6221.14
544.15	6387.32
544.32	6083.05
544.48	6125.18
544.65	6064.33
544.82	6162.63
544.99	6118.16
545.16	6115.82
545.32	6200.08
545.49	6387.32
545.66	6801.60
545.83	7037.99
546.00	6630.74
546.16	6305.40
546.33	6225.82
546.50	6204.76
546.67	6106.46
546.83	6071.35
547.00	6083.05
547.17	5991.77
547.34	5767.08
547.50	5881.77
547.67	5813.89
547.84	5713.25
548.00	5879.43
548.17	6085.39
548.34	6085.39
548.51	6157.95
548.67	6078.37
548.84	5973.05
549.01	6069.01
549.18	6127.52
549.34	5839.64
549.51	5858.36
549.68	5914.53
549.84	5879.43
550.01	5933.26
550.18	5933.26
550.34	5912.19
550.51	6008.16
550.68	6050.28
550.84	5746.02
551.01	5792.83
551.18	5849.00
551.34	5785.80
551.51	6057.31
551.68	6118.16
551.84	5996.45
552.01	6087.73
552.18	5895.81
552.34	5860.70
552.51	5823.25
552.68	5617.29
552.84	5746.02
553.01	5886.45
553.18	5685.16
553.34	5699.20
553.51	5977.73
553.67	5851.34
553.84	5846.66
554.01	5900.49
554.17	5959.00
554.34	5760.06
554.51	5921.56
554.67	5806.87
554.84	5820.91
555.00	5884.11
555.17	5909.85
555.33	5834.96
555.50	5809.21
555.67	5717.93
555.83	5760.06
556.00	5647.71
556.16	5734.31
556.33	5722.61
556.50	5664.10
556.66	5575.16
556.83	5584.52
556.99	5575.16
557.16	5476.85
557.32	5645.37
557.49	5666.44
557.65	5612.60
557.82	5650.05
557.98	5586.86
558.15	5556.43
558.32	5376.21
558.48	5247.48
558.65	5427.70
558.81	5338.76
558.98	5359.83
559.14	5284.93
559.31	5320.04
559.47	5373.87
559.64	5476.85
559.80	5427.70
559.97	5261.52
560.13	5406.64
560.30	5523.66
560.46	5743.67
560.63	5633.67
560.79	5614.95
560.96	5631.33
561.12	5465.15
561.29	5359.83
561.45	5104.71
561.61	5338.76
561.78	5504.94
561.94	5481.53
562.11	5324.72
562.27	5497.92
562.44	5310.68
562.60	5416.00
562.77	5731.97
562.93	5516.64
563.10	5446.43
563.26	5469.83
563.42	5472.17
563.59	5423.02
563.75	5359.83
563.92	5493.24
564.08	5444.09
564.24	5411.32
564.41	5404.30
564.57	5446.43
564.74	5322.38
564.90	5366.85
565.07	5418.34
565.23	5313.02
565.39	5090.67
565.56	5235.78
565.72	4931.51
565.88	5163.22
566.05	5238.12
566.21	5137.48
566.38	5083.64
566.54	5275.57
566.70	5231.10
566.87	5448.77
567.03	5383.23
567.19	5259.18
567.36	5245.14
567.52	5315.36
567.68	5088.32
567.85	5177.26
568.01	5039.17
568.17	4896.40
568.34	4961.94
568.50	4784.06
568.66	4903.42
568.83	4931.51
568.99	4959.60
569.15	4877.68
569.32	4971.30
569.48	4992.36
569.64	4765.33
569.81	4882.36
569.97	4919.81
570.13	4917.47
570.30	4688.09
570.46	4896.40
570.62	4826.18
570.78	4650.64
570.95	4688.09
571.11	4915.12
571.27	4915.12
571.43	4889.38
571.60	4966.62
571.76	4868.31
571.92	4992.36
572.09	4954.91
572.25	4791.08
572.41	4821.50
572.57	5071.94
572.74	4812.14
572.90	4856.61
573.06	4978.32
573.22	4940.87
573.38	4788.74
573.55	4858.95
573.71	4983.00
573.87	4919.81
574.03	4901.08
574.20	4774.69
574.36	4762.99
574.52	4667.03
574.68	4704.48
574.84	4781.71
575.01	4739.58
575.17	4720.86
575.33	4545.32
575.49	4739.58
575.65	4753.63
575.82	4636.60
575.98	4755.97
576.14	4667.03
576.30	4882.36
576.46	4819.16
576.62	4915.12
576.79	5076.62
576.95	4812.14
577.11	4835.55
577.27	4854.27
577.43	4936.19
577.59	4905.76
577.75	4856.61
577.92	4716.18
578.08	4730.22
578.24	4514.89
578.40	4751.29
578.56	4919.81
578.72	4992.36
578.88	4809.80
579.04	4835.55
579.21	4805.12
579.37	4660.01
579.53	4762.99
579.69	4938.53
579.85	4732.56
580.01	4987.68
580.17	4854.27
580.33	4741.93
580.49	4891.72
580.65	4762.99
580.82	4809.80
580.98	4889.38
581.14	4858.95
581.30	4910.44
581.46	4837.89
581.62	4781.71
581.78	4896.40
581.94	4798.10
582.10	4781.71
582.26	4983.00
582.42	4854.27
582.58	4910.44
582.74	4812.14
582.90	4905.76
583.06	4777.03
583.22	4734.90
583.38	4851.93
583.54	4814.48
583.70	4971.30
583.86	4755.97
584.02	4931.51
584.18	4931.51
584.34	4812.14
584.50	4706.82
584.66	4753.63
584.82	4793.42
584.98	4580.43
585.14	4802.78
585.30	4601.49
585.46	4550.00
585.62	4533.62
585.78	4631.92
585.94	4599.15
586.10	4538.30
586.26	4531.28
586.42	4573.41
586.58	4681.07
586.74	4695.11
586.90	4491.49
587.06	4566.39
587.22	4568.73
587.38	4475.10
587.54	4278.50
587.70	4229.35
587.86	4102.96
588.02	4025.72
588.18	4023.38
588.34	3906.35
588.49	3576.34
588.65	3372.71
588.81	3241.64
588.97	3183.13
589.13	3389.10
589.29	3225.26
589.45	3349.31
589.61	3356.33
589.77	3510.80
589.93	3730.81
590.08	3616.13
590.24	3873.59
590.40	3873.59
590.56	3960.19
590.72	3896.99
590.88	3784.65
591.04	3742.52
591.20	3798.69
591.35	3941.46
591.51	3747.20
591.67	3679.32
591.83	3648.90
591.99	3770.60
592.15	3786.99
592.31	3864.22
592.46	3950.82
592.62	4007.00
592.78	3901.67
592.94	4007.00
593.10	3889.97
593.26	4138.07
593.41	4098.28
593.57	4098.28
593.73	3899.33
593.89	3777.62
594.05	3676.98
594.20	3604.42
594.36	3606.77
594.52	3515.48
594.68	3492.08
594.84	3653.58
594.99	3836.14
595.15	4009.34
595.31	3904.01
595.47	3894.65
595.62	3999.98
595.78	3929.76
595.94	3981.25
596.10	4142.75
596.25	3899.33
596.41	4007.00
596.57	3908.69
596.73	3784.65
596.88	3922.74
597.04	3946.14
597.20	4056.15
597.36	3838.48
597.51	4030.40
597.67	3922.74
597.83	3981.25
