SpectraSuite Data File
++++++++++++++++++++++++++++++++++++
Date: Fri Oct 04 11:44:12 GMT-05:00 2013
User: price-jones
Dark Spectrum Present: No
Reference Spectrum Present: No
Number of Sampled Component Spectra: 1
Spectrometers: USB2+H05261
Integration Time (usec): 100000 (USB2+H05261)
Spectra Averaged: 1 (USB2+H05261)
Boxcar Smoothing: 0 (USB2+H05261)
Correct for Electrical Dark: No (USB2+H05261)
Strobe/Lamp Enabled: No (USB2+H05261)
Correct for Detector Non-linearity: No (USB2+H05261)
Correct for Stray Light: No (USB2+H05261)
Number of Pixels in Processed Spectrum: 2048
>>>>>Begin Processed Spectral Data<<<<<
365.73	37.45
365.92	37.45
366.12	37.45
366.32	0.00
366.52	0.00
366.72	0.00
366.91	0.00
367.11	0.00
367.31	0.00
367.51	0.00
367.70	0.00
367.90	0.00
368.10	0.00
368.30	0.00
368.49	0.00
368.69	0.00
368.89	0.00
369.09	0.00
369.28	0.00
369.48	0.00
369.68	0.00
369.87	0.00
370.07	18.72
370.27	42.13
370.47	79.58
370.66	334.70
370.86	468.11
371.06	423.64
371.25	472.79
371.45	554.71
371.65	404.91
371.84	379.17
372.04	440.02
372.24	580.45
372.44	531.30
372.63	578.11
372.83	519.60
373.03	458.74
373.22	484.49
373.42	458.74
373.62	521.94
373.81	500.87
374.01	615.56
374.21	512.58
374.40	444.70
374.60	599.18
374.79	566.41
374.99	610.88
375.19	641.31
375.38	592.16
375.58	582.79
375.78	678.76
375.97	622.58
376.17	685.78
376.37	624.92
376.56	589.82
376.76	655.35
376.95	725.57
377.15	713.86
377.35	763.01
377.54	795.78
377.74	821.53
377.93	774.72
378.13	770.04
378.33	821.53
378.52	690.46
378.72	760.67
378.91	753.65
379.11	716.20
379.31	664.71
379.50	601.52
379.70	627.26
379.89	720.88
380.09	681.10
380.28	744.29
380.48	753.65
380.68	805.14
380.87	765.36
381.07	730.25
381.26	746.63
381.46	716.20
381.65	734.93
381.85	610.88
382.04	573.43
382.24	526.62
382.43	561.73
382.63	561.73
382.83	578.11
383.02	561.73
383.22	564.07
383.41	538.32
383.61	535.98
383.80	557.05
384.00	662.37
384.19	720.88
384.39	760.67
384.58	858.98
384.78	819.19
384.97	706.84
385.17	683.44
385.36	613.22
385.56	655.35
385.75	592.16
385.95	734.93
386.14	809.83
386.34	727.91
386.53	725.57
386.72	744.29
386.92	784.08
387.11	802.80
387.31	770.04
387.50	807.48
387.70	840.25
387.89	657.69
388.09	638.97
388.28	702.16
388.48	688.12
388.67	805.14
388.86	805.14
389.06	938.55
389.25	994.73
389.45	1043.88
389.64	1032.18
389.84	1006.43
390.03	961.96
390.22	1039.20
390.42	1053.24
390.61	980.68
390.81	1151.54
391.00	1121.12
391.19	1170.27
391.39	1151.54
391.58	1046.22
391.78	1029.84
391.97	938.55
392.16	896.43
392.36	880.04
392.55	770.04
392.75	554.71
392.94	568.75
393.13	470.45
393.33	636.63
393.52	653.01
393.71	819.19
393.91	889.40
394.10	936.21
394.29	961.96
394.49	1128.14
394.68	1212.40
394.88	1203.04
395.07	1200.69
395.26	1137.50
395.46	1165.59
395.65	1128.14
395.84	976.00
396.04	856.64
396.23	702.16
396.42	638.97
396.62	550.03
396.81	683.44
397.00	791.10
397.19	924.51
397.39	1121.12
397.58	1287.29
397.77	1287.29
397.97	1423.05
398.16	1390.28
398.35	1394.96
398.55	1446.45
398.74	1488.58
398.93	1593.90
399.12	1530.71
399.32	1411.34
399.51	1516.67
399.70	1631.35
399.90	1598.59
400.09	1593.90
400.28	1551.78
400.47	1568.16
400.67	1764.76
400.86	1680.50
401.05	1694.55
401.24	1720.29
401.44	1834.98
401.63	1804.55
401.82	1792.85
402.01	1732.00
402.21	1760.08
402.40	1783.49
402.59	1661.78
402.78	1717.95
402.97	1579.86
403.17	1621.99
403.36	1701.57
403.55	1802.21
403.74	1769.44
403.93	1746.04
404.13	1750.72
404.32	1664.12
404.51	1767.10
404.70	1839.66
404.89	1771.79
405.09	1865.41
405.28	1767.10
405.47	1734.34
405.66	1755.40
405.85	1685.19
406.05	1720.29
406.24	1715.61
406.43	1710.93
406.62	1767.10
406.81	1837.32
407.00	1774.13
407.20	1813.92
407.39	1680.50
407.58	1830.30
407.77	1846.68
407.96	1928.60
408.15	1907.54
408.34	1935.62
408.54	1987.11
408.73	2040.95
408.92	2050.31
409.11	1998.82
409.30	1837.32
409.49	1785.83
409.68	1638.38
409.87	1600.93
410.07	1755.40
410.26	1750.72
410.45	1877.11
410.64	1989.46
410.83	2118.18
411.02	1968.39
411.21	2216.49
411.40	2073.71
411.59	2143.93
411.78	2026.90
411.98	2031.58
412.17	2197.76
412.36	2069.03
412.55	2029.24
412.74	2101.80
412.93	1959.03
413.12	2076.06
413.31	2181.38
413.50	2120.53
413.69	2237.55
413.88	2214.15
414.07	2015.20
414.26	2127.55
414.45	2263.30
414.64	2167.34
414.83	2195.42
415.02	2237.55
415.22	2230.53
415.41	2209.47
415.60	2174.36
415.79	2293.72
415.98	2462.24
416.17	2356.92
416.36	2312.45
416.55	2218.83
416.74	2345.22
416.93	2204.78
417.12	2256.28
417.31	2162.66
417.50	2279.68
417.69	2495.01
417.88	2293.72
418.07	2188.40
418.26	2321.81
418.45	2305.43
418.64	2359.26
418.83	2387.35
419.02	2469.27
419.21	2396.71
419.39	2244.57
419.58	2232.87
419.77	2167.34
419.96	2235.21
420.15	2401.39
420.34	2523.10
420.53	2434.16
420.72	2565.23
420.91	2581.61
421.10	2551.18
421.29	2553.52
421.48	2359.26
421.67	2546.50
421.86	2518.42
422.05	2385.01
422.24	2216.49
422.43	2104.14
422.61	2335.85
422.80	2408.41
422.99	2553.52
423.18	2300.75
423.37	2251.60
423.56	2298.41
423.75	2345.22
423.94	2417.77
424.13	2431.82
424.32	2179.04
424.50	2312.45
424.69	2345.22
424.88	2242.23
425.07	2221.17
425.26	2293.72
425.45	2279.68
425.64	2265.64
425.83	2218.83
426.01	2345.22
426.20	2443.52
426.39	2368.62
426.58	2307.77
426.77	2169.68
426.96	2033.93
427.15	2106.48
427.33	2160.31
427.52	2176.70
427.71	2326.49
427.90	2193.08
428.09	2282.02
428.28	2237.55
428.46	2118.18
428.65	2204.78
428.84	2052.65
429.03	2200.10
429.22	2125.21
429.40	2125.21
429.59	1802.21
429.78	1781.15
429.97	1671.14
430.16	1584.54
430.34	1685.19
430.53	1626.67
430.72	1619.65
430.91	1856.04
431.10	2099.46
431.28	2380.32
431.47	2672.89
431.66	2705.66
431.85	2569.91
432.03	2375.64
432.22	2235.21
432.41	2237.55
432.60	2424.80
432.79	2562.89
432.97	2696.30
433.16	2560.55
433.35	2385.01
433.54	2207.13
433.72	2188.40
433.91	1994.14
434.10	2333.51
434.28	2473.95
434.47	2511.39
434.66	2583.95
434.85	2558.21
435.03	2518.42
435.22	2888.22
435.41	3112.91
435.59	2986.52
435.78	2878.86
435.97	2970.14
436.16	2799.28
436.34	2778.22
436.53	2635.44
436.72	2750.13
436.90	2630.76
437.09	2619.06
437.28	2555.86
437.46	2455.22
437.65	2656.51
437.84	2455.22
438.02	2399.05
438.21	2239.89
438.40	2422.45
438.58	2525.44
438.77	2562.89
438.96	2693.96
439.14	2712.68
439.33	2946.73
439.52	2899.92
439.70	2752.47
439.89	2806.30
440.08	2616.72
440.26	2675.23
440.45	2743.11
440.63	2736.09
440.82	2958.44
441.01	3087.17
441.19	2892.90
441.38	3035.67
441.57	3105.89
441.75	3145.68
441.94	3236.96
442.12	3122.27
442.31	3141.00
442.50	3166.74
442.68	3094.19
442.87	3063.76
443.05	3122.27
443.24	3117.59
443.43	3070.78
443.61	3136.32
443.80	3300.16
443.98	3122.27
444.17	2988.86
444.35	3302.50
444.54	3391.44
444.73	3208.87
444.91	3155.04
445.10	2998.23
445.28	2895.24
445.47	2967.80
445.65	2885.88
445.84	2841.41
446.02	3028.65
446.21	3091.85
446.39	3049.72
446.58	3187.81
446.77	3068.44
446.95	3236.96
447.14	3286.11
447.32	3405.48
447.51	3215.90
447.69	3227.60
447.88	3183.13
448.06	3138.66
448.25	3246.32
448.43	3295.47
448.62	3059.08
448.80	3309.52
448.99	3403.14
449.17	3272.07
449.36	3283.77
449.54	3225.26
449.73	3368.03
449.91	3330.58
450.10	3515.48
450.28	3726.13
450.46	3581.02
450.65	3599.74
450.83	3669.96
451.02	3492.08
451.20	3566.98
451.39	3508.46
451.57	3438.25
451.76	3325.90
451.94	3461.65
452.13	3389.10
452.31	3302.50
452.49	3129.30
452.68	3042.70
452.86	3227.60
453.05	3185.47
453.23	3222.92
453.42	3262.71
453.60	3419.52
453.78	3349.31
453.97	3445.27
454.15	3393.78
454.34	3297.81
454.52	3361.01
454.70	3307.18
454.89	3311.86
455.07	3344.63
455.26	3384.41
455.44	3494.42
455.62	3480.38
455.81	3592.72
455.99	3412.50
456.17	3494.42
456.36	3499.10
456.54	3482.72
456.73	3653.58
456.91	3648.90
457.09	3672.30
457.28	3756.56
457.46	3691.02
457.64	3522.51
457.83	3517.83
458.01	3431.23
458.19	3536.55
458.38	3426.54
458.56	3562.30
458.74	3592.72
458.93	3538.89
459.11	3412.50
459.29	3475.70
459.48	3503.78
459.66	3506.12
459.84	3452.29
460.03	3543.57
460.21	3604.42
460.39	3698.05
460.57	3522.51
460.76	3805.71
460.94	3660.60
461.12	3513.14
461.31	3597.40
461.49	3730.81
461.67	3623.15
461.85	3588.04
462.04	3786.99
462.22	4205.94
462.40	3707.41
462.59	3719.11
462.77	3868.91
462.95	3768.26
463.13	3595.06
463.32	3557.61
463.50	3599.74
463.68	3590.38
463.86	3667.62
464.05	3651.24
464.23	3506.12
464.41	3574.00
464.59	3536.55
464.78	3515.48
464.96	3517.83
465.14	3543.57
465.32	3588.04
465.50	3688.68
465.69	3749.54
465.87	3644.21
466.05	3520.17
466.23	3496.76
466.41	3410.16
466.60	3370.37
466.78	3538.89
466.96	3585.70
467.14	3485.06
467.32	3574.00
467.51	3627.83
467.69	3449.95
467.87	3487.40
468.05	3574.00
468.23	3639.53
468.41	3510.80
468.60	3508.46
468.78	3585.70
468.96	3686.34
469.14	3597.40
469.32	3676.98
469.50	3557.61
469.69	3452.29
469.87	3630.17
470.05	3513.14
470.23	3489.74
470.41	3424.20
470.59	3529.53
470.77	3595.06
470.95	3620.81
471.14	3660.60
471.32	3576.34
471.50	3868.91
471.68	3838.48
471.86	3810.39
472.04	3915.72
472.22	3845.50
472.40	3815.07
472.58	3712.09
472.77	3508.46
472.95	3684.00
473.13	3868.91
473.31	3684.00
473.49	3660.60
473.67	3735.50
473.85	3850.18
474.03	4049.13
474.21	4011.68
474.39	4060.83
474.57	3976.57
474.75	3887.63
474.93	3889.97
475.12	3854.86
475.30	3789.33
475.48	3796.35
475.66	3822.09
475.84	3709.75
476.02	3904.01
476.20	3758.90
476.38	3756.56
476.56	4077.21
476.74	4084.23
476.92	4067.85
477.10	4105.30
477.28	4147.43
477.46	4231.69
477.64	4294.88
477.82	4259.78
478.00	4234.03
478.18	4236.37
478.36	4215.30
478.54	4105.30
478.72	4175.52
478.90	4353.40
479.08	4299.56
479.26	4585.11
479.44	4517.23
479.62	4414.25
479.80	4493.83
479.98	4610.86
480.16	4648.30
480.34	4542.98
480.52	4568.73
480.70	4390.84
480.88	4498.51
481.06	4521.92
481.24	4751.29
481.41	4760.65
481.59	4828.53
481.77	4851.93
481.95	4828.53
482.13	4863.63
482.31	4931.51
482.49	4826.18
482.67	4896.40
482.85	4823.84
483.03	5032.15
483.21	4940.87
483.39	5053.22
483.57	4823.84
483.74	4837.89
483.92	4898.74
484.10	4889.38
484.28	4910.44
484.46	5018.11
484.64	4966.62
484.82	4849.59
485.00	4957.25
485.18	4950.23
485.35	4629.58
485.53	4528.94
485.71	4219.99
485.89	3854.86
486.07	4112.32
486.25	4528.94
486.43	4795.76
486.61	4739.58
486.78	4929.17
486.96	4758.31
487.14	4924.49
487.32	5109.39
487.50	5123.43
487.68	5371.53
487.85	5584.52
488.03	5647.71
488.21	5437.06
488.39	5331.74
488.57	5186.63
488.75	5266.21
488.92	5406.64
489.10	5643.03
489.28	5914.53
489.46	6052.63
489.64	6181.35
489.81	6005.81
489.99	5914.53
490.17	5849.00
490.35	5998.79
490.53	5816.23
490.70	5937.94
490.88	5888.79
491.06	5987.09
491.24	5865.38
491.41	5884.11
491.59	5640.69
491.77	5511.96
491.95	5755.38
492.13	5884.11
492.30	5949.64
492.48	6235.19
492.66	6282.00
492.84	6370.94
493.01	6392.00
493.19	6352.21
493.37	6331.15
493.54	6078.37
493.72	6190.72
493.90	6349.87
494.08	6612.01
494.25	6551.16
494.43	6619.04
494.61	6665.85
494.79	6778.19
494.96	6661.16
495.14	6527.75
495.32	6441.15
495.49	6307.74
495.67	6349.87
495.85	6682.23
496.02	6663.51
496.20	6916.28
496.38	6764.15
496.55	6583.93
496.73	6757.13
496.91	6679.89
497.09	7056.72
497.26	7030.97
497.44	6846.07
497.62	6614.35
497.79	6588.61
497.97	6380.30
498.14	6239.87
498.32	6413.07
498.50	6518.39
498.67	6829.68
498.85	6920.96
499.03	6892.88
499.20	6853.09
499.38	6920.96
499.56	6977.14
499.73	6860.11
499.91	6686.91
500.08	6630.74
500.26	6558.18
500.44	6413.07
500.61	6710.32
500.79	6649.46
500.97	6553.50
501.14	6562.86
501.32	6307.74
501.49	6579.25
501.67	6441.15
501.84	6448.18
502.02	6672.87
502.20	6801.60
502.37	6691.59
502.55	6651.80
502.72	6841.39
502.90	7068.42
503.07	6761.81
503.25	6469.24
503.43	6305.40
503.60	6284.34
503.78	6197.74
503.95	6153.27
504.13	6485.62
504.30	6693.93
504.48	6984.16
504.65	6864.79
504.83	6789.89
505.01	6883.52
505.18	6984.16
505.36	7014.59
505.53	7040.33
505.71	7059.06
505.88	7176.08
506.06	7234.60
506.23	7066.08
506.41	7009.90
506.58	6949.05
506.76	7019.27
506.93	6932.67
507.11	6855.43
507.28	6860.11
507.46	6782.87
507.63	6717.34
507.81	6614.35
507.98	6616.69
508.16	6815.64
508.33	7061.40
508.50	7005.22
508.68	7272.04
508.85	7452.27
509.03	7236.94
509.20	7293.11
509.38	7293.11
509.55	6918.62
509.73	7061.40
509.90	7084.80
510.08	7103.53
510.25	7197.15
510.42	7262.68
510.60	7068.42
510.77	7241.62
510.95	7349.28
511.12	7297.79
511.30	7595.04
511.47	7595.04
511.64	7683.98
511.82	7571.63
511.99	7180.76
512.17	7080.12
512.34	7059.06
512.51	7108.21
512.69	7159.70
512.86	7293.11
513.04	7281.41
513.21	7417.16
513.38	7232.26
513.56	7030.97
513.73	6944.37
513.90	7063.74
514.08	7012.24
514.25	6904.58
514.43	7213.53
514.60	7129.27
514.77	7307.15
514.95	7279.07
515.12	7045.01
515.29	6944.37
515.47	7421.84
515.64	7456.95
515.81	7311.83
515.99	7211.19
516.16	6890.54
516.33	6516.05
516.51	6181.35
516.68	5973.05
516.85	5816.23
517.03	5959.00
517.20	6272.64
517.37	7026.29
517.54	7248.64
517.72	7297.79
517.89	6672.87
518.06	6176.67
518.24	6118.16
518.41	6581.59
518.58	7045.01
518.75	6918.62
518.93	7115.23
519.10	6890.54
519.27	7049.69
519.45	7143.32
519.62	7239.28
519.79	7360.98
519.96	7356.30
520.14	7309.49
520.31	7087.14
520.48	7037.99
520.65	7105.87
520.83	7145.66
521.00	7454.61
521.17	7290.77
521.34	7330.56
521.52	7300.13
521.69	7541.21
521.86	7564.61
522.03	7403.11
522.20	7124.59
522.38	7066.08
522.55	6974.80
522.72	7000.54
522.89	7211.19
523.07	7325.88
523.24	7138.63
523.41	7552.91
523.58	7744.83
523.75	7716.75
523.92	7630.15
524.10	7463.97
524.27	7550.57
524.44	7660.57
524.61	7461.63
524.78	7417.16
524.96	7475.67
525.13	7335.24
525.30	7524.82
525.47	7679.30
525.64	7686.32
525.81	7559.93
525.98	7155.02
526.16	6796.92
526.33	6663.51
526.50	6469.24
526.67	6417.75
526.84	6396.68
527.01	6707.98
527.18	6939.69
527.36	7152.68
527.53	7314.17
527.70	7356.30
527.87	7339.92
528.04	7215.87
528.21	7363.33
528.38	7637.17
528.55	7765.90
528.72	7943.78
528.89	7939.10
529.07	7836.11
529.24	7510.78
529.41	7683.98
529.58	7248.64
529.75	7475.67
529.92	7414.82
530.09	7461.63
530.26	7606.74
530.43	7693.34
530.60	7817.39
530.77	7751.85
530.94	7943.78
531.11	7716.75
531.28	7660.57
531.46	7662.91
531.63	7613.76
531.80	7548.23
531.97	7426.52
532.14	7309.49
532.31	7098.84
532.48	6956.07
532.65	6897.56
532.82	7056.72
532.99	7382.05
533.16	7351.62
533.33	7590.36
533.50	7564.61
533.67	7332.90
533.84	7393.75
534.01	7384.39
534.18	7421.84
534.35	7398.43
534.52	7501.42
534.69	7382.05
534.86	7449.93
535.03	7751.85
535.20	7779.94
535.37	7920.37
535.54	7812.71
535.71	7707.38
535.88	7812.71
536.05	7611.42
536.22	7482.69
536.38	7513.12
536.55	7396.09
536.72	7258.00
536.89	7077.78
537.06	7140.97
537.23	7384.39
537.40	7480.35
537.57	7470.99
537.74	7524.82
537.91	7630.15
538.08	7552.91
538.25	7372.69
538.42	7590.36
538.59	7602.06
538.75	7316.51
538.92	7185.44
539.09	7454.61
539.26	7304.81
539.43	7124.59
539.60	7145.66
539.77	7108.21
539.94	7124.59
540.11	7101.19
540.28	6958.41
540.44	6949.05
540.61	6916.28
540.78	7037.99
540.95	7337.58
541.12	7290.77
541.29	7290.77
541.46	7433.54
541.62	7499.08
541.79	7353.96
541.96	7398.43
542.13	7456.95
542.30	7531.84
542.47	7499.08
542.63	7478.01
542.80	7456.95
542.97	7208.85
543.14	7206.51
543.31	7232.26
543.48	7314.17
543.64	7646.53
543.81	7777.60
543.98	7723.77
544.15	7531.84
544.32	7370.35
544.48	7398.43
544.65	7454.61
544.82	7452.27
544.99	7517.80
545.16	7569.29
545.32	7370.35
545.49	7868.88
545.66	8102.93
545.83	8278.47
546.00	8189.53
546.16	7496.74
546.33	7360.98
546.50	7370.35
546.67	7330.56
546.83	7426.52
547.00	7405.46
547.17	7070.76
547.34	7288.43
547.50	7101.19
547.67	7187.79
547.84	7260.34
548.00	7274.38
548.17	7461.63
548.34	7220.55
548.51	7323.54
548.67	7337.58
548.84	7349.28
549.01	7225.23
549.18	7307.15
549.34	7428.86
549.51	7304.81
549.68	7405.46
549.84	7218.21
550.01	7236.94
550.18	7274.38
550.34	7229.91
550.51	7236.94
550.68	7262.68
550.84	7248.64
551.01	7148.00
551.18	7192.47
551.34	7152.68
551.51	7248.64
551.68	7431.20
551.84	7363.33
552.01	7248.64
552.18	7258.00
552.34	7239.28
552.51	7070.76
552.68	6803.94
552.84	7185.44
553.01	7222.89
553.18	7150.34
553.34	7033.31
553.51	7035.65
553.67	7211.19
553.84	7265.02
554.01	7119.91
554.17	7206.51
554.34	7049.69
554.51	7330.56
554.67	7148.00
554.84	7351.62
555.00	7075.44
555.17	7239.28
555.33	7105.87
555.50	7101.19
555.67	7014.59
555.83	6946.71
556.00	6909.26
556.16	6843.73
556.33	6764.15
556.50	6754.79
556.66	6937.35
556.83	6869.47
556.99	6862.45
557.16	6904.58
557.32	6970.12
557.49	6885.86
557.65	6766.49
557.82	6986.50
557.98	6750.10
558.15	6679.89
558.32	6750.10
558.48	6506.69
558.65	6509.03
558.81	6562.86
558.98	6670.53
559.14	6597.97
559.31	6675.21
559.47	6843.73
559.64	6722.02
559.80	6569.88
559.97	6696.27
560.13	6827.34
560.30	6771.17
560.46	7148.00
560.63	7019.27
560.79	7140.97
560.96	7096.50
561.12	6672.87
561.29	6490.31
561.45	6565.20
561.61	6626.06
561.78	6839.05
561.94	6677.55
562.11	6729.04
562.27	6562.86
562.44	6771.17
562.60	6665.85
562.77	7021.61
562.93	6764.15
563.10	6946.71
563.26	6792.23
563.42	6766.49
563.59	6717.34
563.75	6574.56
563.92	6492.65
564.08	6511.37
564.24	6705.63
564.41	6736.06
564.57	6518.39
564.74	6656.48
564.90	6633.08
565.07	6450.52
565.23	6518.39
565.39	6492.65
565.56	6251.57
565.72	6197.74
565.88	6427.11
566.05	6417.75
566.21	6623.72
566.38	6518.39
566.54	6637.76
566.70	6516.05
566.87	6560.52
567.03	6590.95
567.19	6689.25
567.36	6567.54
567.52	6633.08
567.68	6431.79
567.85	6111.14
568.01	6179.01
568.17	6132.20
568.34	5998.79
568.50	5832.62
568.66	6015.18
568.83	6052.63
568.99	6120.50
569.15	6069.01
569.32	6169.65
569.48	5984.75
569.64	6118.16
569.81	5898.15
569.97	6108.80
570.13	6015.18
570.30	6003.47
570.46	5951.98
570.62	5858.36
570.78	5916.87
570.95	5757.72
571.11	6040.92
571.27	5841.98
571.43	6080.71
571.60	6244.55
571.76	5961.34
571.92	6146.25
572.09	6038.58
572.25	6071.35
572.41	6160.29
572.57	5966.03
572.74	6115.82
572.90	6010.50
573.06	6015.18
573.22	6057.31
573.38	6183.70
573.55	5891.13
573.71	6033.90
573.87	6001.13
574.03	5874.74
574.20	5841.98
574.36	5877.09
574.52	5893.47
574.68	5884.11
574.84	5923.90
575.01	5624.31
575.17	5895.81
575.33	5689.84
575.49	5813.89
575.65	5823.25
575.82	5783.46
575.98	5802.19
576.14	5682.82
576.30	5900.49
576.46	5806.87
576.62	6176.67
576.79	6036.24
576.95	6005.81
577.11	5731.97
577.27	6036.24
577.43	5884.11
577.59	5699.20
577.75	5825.59
577.92	5614.95
578.08	5692.18
578.24	5472.17
578.40	5661.76
578.56	5797.51
578.72	5996.45
578.88	5914.53
579.04	5841.98
579.21	5771.76
579.37	5919.21
579.53	5954.32
579.69	5884.11
579.85	5923.90
580.01	5937.94
580.17	5839.64
580.33	5905.17
580.49	5806.87
580.65	5989.43
580.82	5863.04
580.98	5916.87
581.14	5816.23
581.30	5870.06
581.46	5940.28
581.62	5888.79
581.78	5980.07
581.94	6108.80
582.10	5933.26
582.26	6033.90
582.42	6080.71
582.58	6174.33
582.74	6125.18
582.90	6003.47
583.06	5944.96
583.22	6064.33
583.38	6012.84
583.54	5940.28
583.70	5951.98
583.86	5872.40
584.02	5956.66
584.18	5930.92
584.34	5851.34
584.50	5951.98
584.66	5959.00
584.82	5586.86
584.98	5860.70
585.14	5762.40
585.30	5596.22
585.46	5504.94
585.62	5528.35
585.78	5607.92
585.94	5502.60
586.10	5619.63
586.26	5713.25
586.42	5640.69
586.58	5504.94
586.74	5598.56
586.90	5715.59
587.06	5699.20
587.22	5554.09
587.38	5554.09
587.54	5233.44
587.70	5261.52
587.86	5055.56
588.02	5029.81
588.18	4954.91
588.34	4613.20
588.49	4353.40
588.65	4189.56
588.81	3978.91
588.97	4053.81
589.13	4067.85
589.29	3915.72
589.45	4039.76
589.61	4189.56
589.77	4325.31
589.93	4447.02
590.08	4545.32
590.24	4873.00
590.40	4723.20
590.56	4828.53
590.72	4589.79
590.88	4629.58
591.04	4713.84
591.20	4819.16
591.35	4741.93
591.51	4507.87
591.67	4505.53
591.83	4500.85
591.99	4437.66
592.15	4531.28
592.31	4884.70
592.46	4837.89
592.62	4931.51
592.78	4823.84
592.94	5041.51
593.10	4765.33
593.26	5053.22
593.41	5135.14
593.57	4975.98
593.73	4636.60
593.89	4589.79
594.05	4358.08
594.20	4397.87
594.36	4402.55
594.52	4386.16
594.68	4404.89
594.84	4383.82
594.99	4746.61
595.15	4861.29
595.31	4884.70
595.47	4851.93
595.62	4821.50
595.78	4868.31
595.94	5018.11
596.10	5163.22
596.25	4926.83
596.41	4823.84
596.57	4781.71
596.73	4594.47
596.88	4819.16
597.04	4980.66
597.20	4770.01
597.36	4894.06
597.51	4865.97
597.67	4940.87
