SpectraSuite Data File
++++++++++++++++++++++++++++++++++++
Date: Fri Oct 04 11:44:25 GMT-05:00 2013
User: price-jones
Dark Spectrum Present: No
Reference Spectrum Present: No
Number of Sampled Component Spectra: 1
Spectrometers: USB2+H05261
Integration Time (usec): 100000 (USB2+H05261)
Spectra Averaged: 1 (USB2+H05261)
Boxcar Smoothing: 0 (USB2+H05261)
Correct for Electrical Dark: No (USB2+H05261)
Strobe/Lamp Enabled: No (USB2+H05261)
Correct for Detector Non-linearity: No (USB2+H05261)
Correct for Stray Light: No (USB2+H05261)
Number of Pixels in Processed Spectrum: 2048
>>>>>Begin Processed Spectral Data<<<<<
365.73	53.83
365.92	53.83
366.12	53.83
366.32	0.00
366.52	0.00
366.72	0.00
366.91	0.00
367.11	0.00
367.31	0.00
367.51	0.00
367.70	0.00
367.90	0.00
368.10	0.00
368.30	0.00
368.49	0.00
368.69	0.00
368.89	0.00
369.09	0.00
369.28	0.00
369.48	0.00
369.68	32.77
369.87	0.00
370.07	0.00
370.27	0.00
370.47	184.90
370.66	294.91
370.86	351.08
371.06	341.72
371.25	435.34
371.45	383.85
371.65	430.66
371.84	369.80
372.04	353.42
372.24	461.09
372.44	423.64
372.63	409.59
372.83	489.17
373.03	397.89
373.22	339.38
373.42	348.74
373.62	449.38
373.81	470.45
374.01	440.02
374.21	362.78
374.40	430.66
374.60	447.04
374.79	395.55
374.99	496.19
375.19	606.20
375.38	528.96
375.58	468.11
375.78	500.87
375.97	552.37
376.17	545.34
376.37	465.77
376.56	496.19
376.76	514.92
376.95	573.43
377.15	629.60
377.35	608.54
377.54	596.84
377.74	676.41
377.93	568.75
378.13	638.97
378.33	655.35
378.52	500.87
378.72	578.11
378.91	519.60
379.11	533.64
379.31	514.92
379.50	493.85
379.70	571.09
379.89	650.67
380.09	578.11
380.28	629.60
380.48	688.12
380.68	543.00
380.87	552.37
381.07	561.73
381.26	568.75
381.46	531.30
381.65	510.24
381.85	433.00
382.04	444.70
382.24	442.36
382.43	500.87
382.63	491.51
382.83	416.62
383.02	470.45
383.22	484.49
383.41	395.55
383.61	442.36
383.80	540.66
384.00	484.49
384.19	571.09
384.39	571.09
384.58	624.92
384.78	620.24
384.97	631.94
385.17	554.71
385.36	599.18
385.56	526.62
385.75	526.62
385.95	589.82
386.14	620.24
386.34	660.03
386.53	643.65
386.72	566.41
386.92	624.92
387.11	638.97
387.31	610.88
387.50	624.92
387.70	566.41
387.89	608.54
388.09	657.69
388.28	615.56
388.48	706.84
388.67	660.03
388.86	723.23
389.06	753.65
389.25	793.44
389.45	781.74
389.64	793.44
389.84	830.89
390.03	751.31
390.22	763.01
390.42	805.14
390.61	784.08
390.81	847.27
391.00	837.91
391.19	903.45
391.39	793.44
391.58	784.08
391.78	880.04
391.97	786.42
392.16	620.24
392.36	615.56
392.55	578.11
392.75	484.49
392.94	374.49
393.13	344.06
393.33	437.68
393.52	578.11
393.71	627.26
393.91	678.76
394.10	695.14
394.29	798.12
394.49	765.36
394.68	1006.43
394.88	971.32
395.07	973.66
395.26	924.51
395.46	795.78
395.65	961.96
395.84	720.88
396.04	744.29
396.23	631.94
396.42	332.36
396.62	533.64
396.81	568.75
397.00	638.97
397.19	765.36
397.39	882.38
397.58	992.39
397.77	1034.52
397.97	1118.78
398.16	1057.92
398.35	1102.39
398.55	1076.65
398.74	1179.63
398.93	1324.74
399.12	1167.93
399.32	1231.12
399.51	1196.01
399.70	1289.64
399.90	1270.91
400.09	1177.29
400.28	1188.99
400.47	1226.44
400.67	1259.21
400.86	1299.00
401.05	1348.15
401.24	1273.25
401.44	1427.73
401.63	1416.02
401.82	1315.38
402.01	1334.11
402.21	1376.24
402.40	1371.55
402.59	1329.42
402.78	1394.96
402.97	1256.87
403.17	1359.85
403.36	1238.14
403.55	1266.23
403.74	1329.42
403.93	1439.43
404.13	1451.13
404.32	1394.96
404.51	1399.64
404.70	1406.66
404.89	1380.92
405.09	1411.34
405.28	1240.48
405.47	1289.64
405.66	1343.47
405.85	1378.58
406.05	1277.93
406.24	1315.38
406.43	1394.96
406.62	1404.32
406.81	1432.41
407.00	1371.55
407.20	1376.24
407.39	1327.08
407.58	1378.58
407.77	1432.41
407.96	1434.75
408.15	1497.94
408.34	1432.41
408.54	1568.16
408.73	1586.88
408.92	1551.78
409.11	1509.65
409.30	1392.62
409.49	1329.42
409.68	1275.59
409.87	1303.68
410.07	1413.68
410.26	1425.39
410.45	1472.20
410.64	1544.75
410.83	1523.69
411.02	1598.59
411.21	1640.72
411.40	1692.21
411.59	1629.01
411.78	1579.86
411.98	1652.42
412.17	1664.12
412.36	1589.22
412.55	1556.46
412.74	1643.06
412.93	1682.85
413.12	1551.78
413.31	1650.08
413.50	1643.06
413.69	1708.59
413.88	1647.74
414.07	1614.97
414.26	1638.38
414.45	1607.95
414.64	1739.02
414.83	1743.70
415.02	1666.46
415.22	1774.13
415.41	1654.76
415.60	1741.36
415.79	1748.38
415.98	1949.67
416.17	1783.49
416.36	1792.85
416.55	1827.96
416.74	1703.91
416.93	1685.19
417.12	1678.16
417.31	1591.56
417.50	1774.13
417.69	1748.38
417.88	1762.42
418.07	1755.40
418.26	1813.92
418.45	1757.74
418.64	1825.62
418.83	1944.99
419.02	1713.27
419.21	1881.79
419.39	1720.29
419.58	1650.08
419.77	1547.09
419.96	1785.83
420.15	1802.21
420.34	1933.28
420.53	1935.62
420.72	1947.33
420.91	1902.86
421.10	1858.39
421.29	1895.83
421.48	1792.85
421.67	1923.92
421.86	1839.66
422.05	1762.42
422.24	1647.74
422.43	1631.35
422.61	1753.06
422.80	1891.15
422.99	1919.24
423.18	1760.08
423.37	1891.15
423.56	1750.72
423.75	1753.06
423.94	1860.73
424.13	1867.75
424.32	1785.83
424.50	1842.00
424.69	1701.57
424.88	1734.34
425.07	1734.34
425.26	1664.12
425.45	1792.85
425.64	1781.15
425.83	1746.04
426.01	1877.11
426.20	1902.86
426.39	1811.57
426.58	1614.97
426.77	1572.84
426.96	1619.65
427.15	1519.01
427.33	1605.61
427.52	1813.92
427.71	1842.00
427.90	1729.66
428.09	1867.75
428.28	1631.35
428.46	1675.82
428.65	1638.38
428.84	1720.29
429.03	1673.48
429.22	1605.61
429.40	1633.69
429.59	1509.65
429.78	1282.61
429.97	1320.06
430.16	1196.01
430.34	1273.25
430.53	1331.76
430.72	1203.04
430.91	1474.54
431.10	1657.10
431.28	1837.32
431.47	1923.92
431.66	2080.74
431.85	1844.34
432.03	1785.83
432.22	1657.10
432.41	1724.97
432.60	1881.79
432.79	1998.82
432.97	1966.05
433.16	1933.28
433.35	1825.62
433.54	1706.25
433.72	1657.10
433.91	1631.35
434.10	1764.76
434.28	1849.02
434.47	2047.97
434.66	1959.03
434.85	1867.75
435.03	1996.48
435.22	2129.89
435.41	2572.25
435.59	2452.88
435.78	2291.38
435.97	2181.38
436.16	2275.00
436.34	2172.02
436.53	2118.18
436.72	2228.19
436.90	1952.01
437.09	2083.08
437.28	1994.14
437.46	1926.26
437.65	2108.82
437.84	1891.15
438.02	1769.44
438.21	1769.44
438.40	1867.75
438.58	2059.67
438.77	2097.12
438.96	2108.82
439.14	1984.77
439.33	2036.27
439.52	2134.57
439.70	2146.27
439.89	2104.14
440.08	2064.35
440.26	2069.03
440.45	2090.10
440.63	2176.70
440.82	2424.80
441.01	2328.83
441.19	2312.45
441.38	2340.54
441.57	2359.26
441.75	2385.01
441.94	2396.71
442.12	2363.94
442.31	2569.91
442.50	2476.29
442.68	2331.17
442.87	2436.50
443.05	2342.88
443.24	2385.01
443.43	2455.22
443.61	2441.18
443.80	2551.18
443.98	2363.94
444.17	2396.71
444.35	2377.98
444.54	2616.72
444.73	2551.18
444.91	2352.24
445.10	2375.64
445.28	2204.78
445.47	2230.53
445.65	2298.41
445.84	2270.32
446.02	2312.45
446.21	2389.69
446.39	2354.58
446.58	2387.35
446.77	2509.05
446.95	2331.17
447.14	2490.33
447.32	2490.33
447.51	2483.31
447.69	2492.67
447.88	2333.51
448.06	2363.94
448.25	2459.90
448.43	2431.82
448.62	2410.75
448.80	2438.84
448.99	2422.45
449.17	2387.35
449.36	2471.61
449.54	2541.82
449.73	2668.21
449.91	2626.08
450.10	2649.49
450.28	2684.59
450.46	2722.04
450.65	2745.45
450.83	2616.72
451.02	2511.39
451.20	2654.17
451.39	2600.34
451.57	2527.78
451.76	2733.75
451.94	2555.86
452.13	2595.65
452.31	2511.39
452.49	2392.03
452.68	2368.62
452.86	2356.92
453.05	2387.35
453.23	2431.82
453.42	2387.35
453.60	2539.48
453.78	2572.25
453.97	2473.95
454.15	2588.63
454.34	2511.39
454.52	2541.82
454.70	2466.92
454.89	2448.20
455.07	2464.58
455.26	2516.08
455.44	2616.72
455.62	2750.13
455.81	2689.28
455.99	2637.78
456.17	2600.34
456.36	2614.38
456.54	2693.96
456.73	2630.76
456.91	2677.57
457.09	2712.68
457.28	2881.20
457.46	2635.44
457.64	2705.66
457.83	2647.15
458.01	2590.97
458.19	2619.06
458.38	2499.69
458.56	2794.60
458.74	2684.59
458.93	2626.08
459.11	2637.78
459.29	2504.37
459.48	2672.89
459.66	2567.57
459.84	2614.38
460.03	2829.71
460.21	2726.72
460.39	2686.94
460.57	2796.94
460.76	2825.03
460.94	2871.84
461.12	2822.69
461.31	2843.75
461.49	2768.85
461.67	2761.83
461.85	2902.26
462.04	2796.94
462.22	3152.70
462.40	2820.35
462.59	2834.39
462.77	2913.97
462.95	2761.83
463.13	2738.43
463.32	2832.05
463.50	2682.25
463.68	2860.13
463.86	2876.52
464.05	2888.22
464.23	2810.98
464.41	2743.11
464.59	2490.33
464.78	2679.91
464.96	2740.77
465.14	2700.98
465.32	2700.98
465.50	2939.71
465.69	2867.16
465.87	2764.17
466.05	2766.51
466.23	2541.82
466.41	2530.12
466.60	2740.77
466.78	2621.40
466.96	2588.63
467.14	2675.23
467.32	2757.15
467.51	2733.75
467.69	2644.81
467.87	2867.16
468.05	2857.79
468.23	2759.49
468.41	2743.11
468.60	2686.94
468.78	2703.32
468.96	2679.91
469.14	2679.91
469.32	2899.92
469.50	2670.55
469.69	2679.91
469.87	2679.91
470.05	2637.78
470.23	2649.49
470.41	2602.68
470.59	2621.40
470.77	2684.59
470.95	2696.30
471.14	2794.60
471.32	2839.07
471.50	2970.14
471.68	2867.16
471.86	2878.86
472.04	3021.63
472.22	2972.48
472.40	2888.22
472.58	2700.98
472.77	2773.53
472.95	2855.45
473.13	3023.97
473.31	2799.28
473.49	2937.37
473.67	2909.29
473.85	2881.20
474.03	2869.50
474.21	2892.90
474.39	3082.49
474.57	2988.86
474.75	2965.46
474.93	2956.10
475.12	3009.93
475.30	2909.29
475.48	2995.89
475.66	2998.23
475.84	2920.99
476.02	2806.30
476.20	2766.51
476.38	2867.16
476.56	3019.29
476.74	2944.39
476.92	3126.96
477.10	3089.51
477.28	3243.98
477.46	3056.74
477.64	3225.26
477.82	3232.28
478.00	3248.66
478.18	3225.26
478.36	3220.58
478.54	3133.98
478.72	3225.26
478.90	3227.60
479.08	3293.13
479.26	3314.20
479.44	3349.31
479.62	3262.71
479.80	3344.63
479.98	3400.80
480.16	3398.46
480.34	3473.36
480.52	3384.41
480.70	3435.91
480.88	3302.50
481.06	3557.61
481.24	3604.42
481.41	3585.70
481.59	3599.74
481.77	3616.13
481.95	3538.89
482.13	3599.74
482.31	3520.17
482.49	3616.13
482.67	3632.51
482.85	3618.47
483.03	3588.04
483.21	3740.18
483.39	3770.60
483.57	3723.79
483.74	3709.75
483.92	3688.68
484.10	3726.13
484.28	3852.52
484.46	3871.25
484.64	3913.38
484.82	3861.88
485.00	3721.45
485.18	3644.21
485.35	3578.68
485.53	3328.24
485.71	3073.12
485.89	3021.63
486.07	3082.49
486.25	3531.87
486.43	3581.02
486.61	3721.45
486.78	3613.79
486.96	3726.13
487.14	3925.08
487.32	3824.44
487.50	4011.68
487.68	4081.89
487.85	4028.06
488.03	4152.11
488.21	4042.11
488.39	4014.02
488.57	3969.55
488.75	4028.06
488.92	4140.41
489.10	4182.54
489.28	4589.79
489.46	4596.81
489.64	4528.94
489.81	4575.75
489.99	4479.79
490.17	4491.49
490.35	4620.22
490.53	4404.89
490.70	4484.47
490.88	4432.97
491.06	4578.09
491.24	4676.39
491.41	4510.21
491.59	4304.25
491.77	4166.15
491.95	4238.71
492.13	4440.00
492.30	4606.17
492.48	4699.80
492.66	4667.03
492.84	4777.03
493.01	4718.52
493.19	4615.54
493.37	4568.73
493.54	4631.92
493.72	4634.26
493.90	4762.99
494.08	5001.72
494.25	4849.59
494.43	4873.00
494.61	4940.87
494.79	5135.14
494.96	4990.02
495.14	5011.09
495.32	4781.71
495.49	4650.64
495.67	4908.10
495.85	5128.11
496.02	5186.63
496.20	5142.16
496.38	5139.82
496.55	5013.43
496.73	5114.07
496.91	5193.65
497.09	5221.74
497.26	5401.96
497.44	5203.01
497.62	5057.90
497.79	4898.74
497.97	4805.12
498.14	4765.33
498.32	4987.68
498.50	5130.45
498.67	5205.35
498.85	5186.63
499.03	5184.29
499.20	5249.82
499.38	5270.89
499.56	5158.54
499.73	5160.88
499.91	5095.35
500.08	5069.60
500.26	4833.21
500.44	4854.27
500.61	4966.62
500.79	4908.10
500.97	4947.89
501.14	5053.22
501.32	4847.25
501.49	4734.90
501.67	4873.00
501.84	5132.79
502.02	5074.28
502.20	5146.84
502.37	5123.43
502.55	4931.51
502.72	5174.92
502.90	5195.99
503.07	5277.91
503.25	4938.53
503.43	4854.27
503.60	4678.73
503.78	4535.96
503.95	4634.26
504.13	4760.65
504.30	5071.94
504.48	5144.50
504.65	5149.18
504.83	5355.15
505.01	5320.04
505.18	5231.10
505.36	5263.86
505.53	5425.36
505.71	5416.00
505.88	5371.53
506.06	5352.81
506.23	5310.68
506.41	5186.63
506.58	5310.68
506.76	5165.56
506.93	5193.65
507.11	5193.65
507.28	5153.86
507.46	4992.36
507.63	5090.67
507.81	5130.45
507.98	5025.13
508.16	5069.60
508.33	5284.93
508.50	5348.12
508.68	5516.64
508.85	5549.41
509.03	5483.88
509.20	5373.87
509.38	5537.71
509.55	5554.09
509.73	5338.76
509.90	5397.28
510.08	5291.95
510.25	5460.47
510.42	5476.85
510.60	5341.10
510.77	5366.85
510.95	5572.82
511.12	5582.18
511.30	5490.90
511.47	5680.48
511.64	5678.14
511.82	5556.43
511.99	5448.77
512.17	5448.77
512.34	5441.75
512.51	5411.32
512.69	5282.59
512.86	5338.76
513.04	5521.32
513.21	5584.52
513.38	5439.40
513.56	5273.23
513.73	5320.04
513.90	5109.39
514.08	5282.59
514.25	5270.89
514.43	5413.66
514.60	5495.58
514.77	5448.77
514.95	5366.85
515.12	5427.70
515.29	5387.91
515.47	5572.82
515.64	5483.88
515.81	5638.35
515.99	5605.58
516.16	5284.93
516.33	4901.08
516.51	4573.41
516.68	4533.62
516.85	4393.19
517.03	4571.07
517.20	4648.30
517.37	5245.14
517.54	5462.81
517.72	5324.72
517.89	5118.75
518.06	4655.33
518.24	4662.35
518.41	5036.83
518.58	5313.02
518.75	5247.48
518.93	5291.95
519.10	5238.12
519.27	5448.77
519.45	5317.70
519.62	5528.35
519.79	5640.69
519.96	5607.92
520.14	5495.58
520.31	5210.03
520.48	5373.87
520.65	5329.40
520.83	5561.11
521.00	5469.83
521.17	5605.58
521.34	5502.60
521.52	5645.37
521.69	5811.55
521.86	5586.86
522.03	5561.11
522.20	5575.16
522.38	5238.12
522.55	5207.69
522.72	5479.19
522.89	5523.66
523.07	5607.92
523.24	5397.28
523.41	5556.43
523.58	5673.46
523.75	5734.31
523.92	5738.99
524.10	5783.46
524.27	5647.71
524.44	5731.97
524.61	5701.54
524.78	5668.78
524.96	5605.58
525.13	5703.89
525.30	5741.33
525.47	5935.60
525.64	5720.27
525.81	5652.39
525.98	5432.38
526.16	5060.24
526.33	5041.51
526.50	5097.69
526.67	4816.82
526.84	4915.12
527.01	5078.96
527.18	5359.83
527.36	5331.74
527.53	5621.97
527.70	5544.73
527.87	5593.88
528.04	5563.45
528.21	5556.43
528.38	5753.04
528.55	5853.68
528.72	6012.84
528.89	6047.94
529.07	5935.60
529.24	5696.86
529.41	5589.20
529.58	5488.56
529.75	5413.66
529.92	5680.48
530.09	5881.77
530.26	5788.14
530.43	5694.52
530.60	5902.83
530.77	6015.18
530.94	5884.11
531.11	5893.47
531.28	5650.05
531.46	5799.85
531.63	5598.56
531.80	5710.91
531.97	5603.24
532.14	5558.77
532.31	5212.37
532.48	5310.68
532.65	5128.11
532.82	5284.93
532.99	5394.93
533.16	5556.43
533.33	6017.52
533.50	5673.46
533.67	5600.90
533.84	5607.92
534.01	5680.48
534.18	5493.24
534.35	5636.01
534.52	5664.10
534.69	5729.63
534.86	5577.50
535.03	5593.88
535.20	5940.28
535.37	6146.25
535.54	5961.34
535.71	6036.24
535.88	5818.57
536.05	5624.31
536.22	5600.90
536.38	5472.17
536.55	5591.54
536.72	5284.93
536.89	5315.36
537.06	5474.51
537.23	5666.44
537.40	5783.46
537.57	5753.04
537.74	5877.09
537.91	5767.08
538.08	5706.23
538.25	5755.38
538.42	5621.97
538.59	5645.37
538.75	5731.97
538.92	5537.71
539.09	5584.52
539.26	5472.17
539.43	5483.88
539.60	5558.77
539.77	5521.32
539.94	5619.63
540.11	5427.70
540.28	5472.17
540.44	5467.49
540.61	5446.43
540.78	5556.43
540.95	5724.95
541.12	5724.95
541.29	5809.21
541.46	5947.30
541.62	5863.04
541.79	5872.40
541.96	5809.21
542.13	5865.38
542.30	5844.32
542.47	5947.30
542.63	5888.79
542.80	5844.32
542.97	5682.82
543.14	5795.17
543.31	5657.07
543.48	5666.44
543.64	6157.95
543.81	6069.01
543.98	5944.96
544.15	5783.46
544.32	5769.42
544.48	5813.89
544.65	5781.12
544.82	5781.12
544.99	5708.57
545.16	5874.74
545.32	5760.06
545.49	6085.39
545.66	6574.56
545.83	6822.66
546.00	6480.94
546.16	5956.66
546.33	5834.96
546.50	5701.54
546.67	5830.27
546.83	5841.98
547.00	5738.99
547.17	5593.88
547.34	5467.49
547.50	5352.81
547.67	5542.39
547.84	5561.11
548.00	5448.77
548.17	5806.87
548.34	5554.09
548.51	5694.52
548.67	5767.08
548.84	5802.19
549.01	5657.07
549.18	5488.56
549.34	5598.56
549.51	5612.60
549.68	5575.16
549.84	5568.13
550.01	5397.28
550.18	5392.59
550.34	5523.66
550.51	5558.77
550.68	5614.95
550.84	5385.57
551.01	5451.11
551.18	5427.70
551.34	5607.92
551.51	5465.15
551.68	5668.78
551.84	5586.86
552.01	5621.97
552.18	5528.35
552.34	5453.45
552.51	5308.34
552.68	5303.65
552.84	5249.82
553.01	5329.40
553.18	5474.51
553.34	5446.43
553.51	5497.92
553.67	5423.02
553.84	5694.52
554.01	5437.06
554.17	5280.25
554.34	5413.66
554.51	5366.85
554.67	5523.66
554.84	5469.83
555.00	5291.95
555.17	5493.24
555.33	5408.98
555.50	5423.02
555.67	5320.04
555.83	5439.40
556.00	5277.91
556.16	5406.64
556.33	5308.34
556.50	5261.52
556.66	5221.74
556.83	5247.48
556.99	5128.11
557.16	5235.78
557.32	5191.31
557.49	5198.33
557.65	5277.91
557.82	5338.76
557.98	5242.80
558.15	5121.09
558.32	5107.05
558.48	5008.75
558.65	4945.55
558.81	5027.47
558.98	4994.70
559.14	5085.98
559.31	5146.84
559.47	5071.94
559.64	4793.42
559.80	4856.61
559.97	5069.60
560.13	5195.99
560.30	5121.09
560.46	5280.25
560.63	5207.69
560.79	5434.72
560.96	5249.82
561.12	5261.52
561.29	5050.88
561.45	4959.60
561.61	4985.34
561.78	5074.28
561.94	5001.72
562.11	5109.39
562.27	4861.29
562.44	5055.56
562.60	5287.27
562.77	5240.46
562.93	5268.55
563.10	5132.79
563.26	5088.32
563.42	5062.58
563.59	5055.56
563.75	5085.98
563.92	4999.38
564.08	5018.11
564.24	4987.68
564.41	5107.05
564.57	5029.81
564.74	5076.62
564.90	4896.40
565.07	5060.24
565.23	4856.61
565.39	4968.96
565.56	4760.65
565.72	4777.03
565.88	4814.48
566.05	4741.93
566.21	4863.63
566.38	5064.92
566.54	4961.94
566.70	4931.51
566.87	5088.32
567.03	4945.55
567.19	4975.98
567.36	4933.85
567.52	4851.93
567.68	4746.61
567.85	4816.82
568.01	4535.96
568.17	4512.55
568.34	4568.73
568.50	4475.10
568.66	4603.83
568.83	4547.66
568.99	4657.67
569.15	4664.69
569.32	4681.07
569.48	4538.30
569.64	4594.47
569.81	4458.72
569.97	4589.79
570.13	4681.07
570.30	4557.02
570.46	4559.36
570.62	4521.92
570.78	4432.97
570.95	4505.53
571.11	4594.47
571.27	4535.96
571.43	4440.00
571.60	4636.60
571.76	4599.15
571.92	4587.45
572.09	4564.04
572.25	4582.77
572.41	4573.41
572.57	4383.82
572.74	4638.94
572.90	4547.66
573.06	4578.09
573.22	4723.20
573.38	4552.34
573.55	4688.09
573.71	4718.52
573.87	4730.22
574.03	4470.42
574.20	4360.42
574.36	4449.36
574.52	4461.06
574.68	4348.72
574.84	4493.83
575.01	4339.35
575.17	4510.21
575.33	4418.93
575.49	4463.40
575.65	4411.91
575.82	4372.12
575.98	4369.78
576.14	4470.42
576.30	4451.70
576.46	4578.09
576.62	4674.05
576.79	4702.14
576.95	4521.92
577.11	4428.29
577.27	4524.26
577.43	4564.04
577.59	4461.06
577.75	4374.46
577.92	4231.69
578.08	4278.50
578.24	4285.52
578.40	4379.14
578.56	4510.21
578.72	4409.57
578.88	4517.23
579.04	4641.28
579.21	4746.61
579.37	4482.13
579.53	4512.55
579.69	4306.59
579.85	4533.62
580.01	4695.11
580.17	4568.73
580.33	4533.62
580.49	4526.60
580.65	4470.42
580.82	4620.22
580.98	4362.76
581.14	4472.76
581.30	4524.26
581.46	4592.13
581.62	4461.06
581.78	4550.00
581.94	4678.73
582.10	4631.92
582.26	4713.84
582.42	4496.17
582.58	4610.86
582.74	4505.53
582.90	4599.15
583.06	4699.80
583.22	4383.82
583.38	4578.09
583.54	4435.32
583.70	4615.54
583.86	4559.36
584.02	4486.81
584.18	4550.00
584.34	4578.09
584.50	4571.07
584.66	4435.32
584.82	4437.66
584.98	4465.74
585.14	4299.56
585.30	4449.36
585.46	4234.03
585.62	4297.22
585.78	4299.56
585.94	4341.69
586.10	4292.54
586.26	4231.69
586.42	4315.95
586.58	4386.16
586.74	4390.84
586.90	4381.48
587.06	4318.29
587.22	4332.33
587.38	4126.36
587.54	4187.22
587.70	4053.81
587.86	3941.46
588.02	3875.93
588.18	3801.03
588.34	3634.85
588.49	3398.46
588.65	3129.30
588.81	3141.00
588.97	3110.57
589.13	3222.92
589.29	3171.43
589.45	3066.10
589.61	3119.93
589.77	3335.26
589.93	3321.22
590.08	3604.42
590.24	3639.53
590.40	3721.45
590.56	3618.47
590.72	3716.77
590.88	3590.38
591.04	3669.96
591.20	3501.44
591.35	3623.15
591.51	3545.91
591.67	3384.41
591.83	3487.40
591.99	3372.71
592.15	3618.47
592.31	3611.45
592.46	3812.73
592.62	3763.58
592.78	3716.77
592.94	3702.73
593.10	3817.41
593.26	3784.65
593.41	4042.11
593.57	3822.09
593.73	3761.24
593.89	3513.14
594.05	3478.04
594.20	3342.28
594.36	3297.81
594.52	3265.05
594.68	3302.50
594.84	3478.04
594.99	3644.21
595.15	3613.79
595.31	3620.81
595.47	3623.15
595.62	3588.04
595.78	3698.05
595.94	3616.13
596.10	3866.56
596.25	3674.64
596.41	3618.47
596.57	3602.08
596.73	3609.11
596.88	3698.05
597.04	3782.31
597.20	3866.56
597.36	3660.60
597.51	3627.83
597.67	3892.31
597.83	3761.24
