SpectraSuite Data File
++++++++++++++++++++++++++++++++++++
Date: Fri Oct 04 11:44:19 GMT-05:00 2013
User: price-jones
Dark Spectrum Present: No
Reference Spectrum Present: No
Number of Sampled Component Spectra: 1
Spectrometers: USB2+H05261
Integration Time (usec): 100000 (USB2+H05261)
Spectra Averaged: 1 (USB2+H05261)
Boxcar Smoothing: 0 (USB2+H05261)
Correct for Electrical Dark: No (USB2+H05261)
Strobe/Lamp Enabled: No (USB2+H05261)
Correct for Detector Non-linearity: No (USB2+H05261)
Correct for Stray Light: No (USB2+H05261)
Number of Pixels in Processed Spectrum: 2048
>>>>>Begin Processed Spectral Data<<<<<
365.73	30.43
365.92	30.43
366.12	30.43
366.32	0.00
366.52	0.00
366.72	0.00
366.91	0.00
367.11	0.00
367.31	0.00
367.51	0.00
367.70	0.00
367.90	0.00
368.10	0.00
368.30	0.00
368.49	0.00
368.69	0.00
368.89	0.00
369.09	23.41
369.28	0.00
369.48	0.00
369.68	0.00
369.87	0.00
370.07	4.68
370.27	0.00
370.47	77.24
370.66	208.31
370.86	257.46
371.06	234.05
371.25	259.80
371.45	175.54
371.65	212.99
371.84	215.33
372.04	236.39
372.24	257.46
372.44	241.08
372.63	229.37
372.83	306.61
373.03	280.86
373.22	287.89
373.42	234.05
373.62	294.91
373.81	313.63
374.01	320.65
374.21	259.80
374.40	212.99
374.60	332.36
374.79	273.84
374.99	234.05
375.19	327.68
375.38	402.57
375.58	327.68
375.78	351.08
375.97	388.53
376.17	341.72
376.37	381.51
376.56	353.42
376.76	283.20
376.95	280.86
377.15	409.59
377.35	388.53
377.54	344.06
377.74	353.42
377.93	355.76
378.13	383.85
378.33	418.96
378.52	430.66
378.72	381.51
378.91	280.86
379.11	390.87
379.31	290.23
379.50	308.95
379.70	337.04
379.89	339.38
380.09	339.38
380.28	332.36
380.48	383.85
380.68	337.04
380.87	353.42
381.07	407.25
381.26	325.33
381.46	351.08
381.65	358.10
381.85	264.48
382.04	210.65
382.24	301.93
382.43	304.27
382.63	313.63
382.83	271.50
383.02	283.20
383.22	262.14
383.41	220.01
383.61	332.36
383.80	280.86
384.00	358.10
384.19	369.80
384.39	381.51
384.58	330.02
384.78	409.59
384.97	418.96
385.17	421.30
385.36	332.36
385.56	381.51
385.75	322.99
385.95	386.19
386.14	365.12
386.34	404.91
386.53	402.57
386.72	351.08
386.92	374.49
387.11	433.00
387.31	397.89
387.50	386.19
387.70	322.99
387.89	451.72
388.09	369.80
388.28	425.98
388.48	367.46
388.67	449.38
388.86	486.83
389.06	404.91
389.25	418.96
389.45	425.98
389.64	512.58
389.84	550.03
390.03	428.32
390.22	428.32
390.42	486.83
390.61	507.90
390.81	449.38
391.00	538.32
391.19	430.66
391.39	505.56
391.58	477.47
391.78	524.28
391.97	430.66
392.16	451.72
392.36	421.30
392.55	308.95
392.75	367.46
392.94	220.01
393.13	231.71
393.33	313.63
393.52	379.17
393.71	437.68
393.91	435.34
394.10	400.23
394.29	454.06
394.49	444.70
394.68	482.15
394.88	477.47
395.07	524.28
395.26	545.34
395.46	528.96
395.65	451.72
395.84	505.56
396.04	491.51
396.23	332.36
396.42	337.04
396.62	315.97
396.81	379.17
397.00	383.85
397.19	407.25
397.39	468.11
397.58	486.83
397.77	627.26
397.97	641.31
398.16	524.28
398.35	613.22
398.55	629.60
398.74	681.10
398.93	744.29
399.12	702.16
399.32	653.01
399.51	706.84
399.70	725.57
399.90	753.65
400.09	730.25
400.28	760.67
400.47	765.36
400.67	760.67
400.86	755.99
401.05	786.42
401.24	851.96
401.44	791.10
401.63	809.83
401.82	868.34
402.01	837.91
402.21	784.08
402.40	758.33
402.59	774.72
402.78	751.31
402.97	781.74
403.17	774.72
403.36	809.83
403.55	784.08
403.74	772.38
403.93	779.40
404.13	828.55
404.32	856.64
404.51	873.02
404.70	842.59
404.89	802.80
405.09	835.57
405.28	758.33
405.47	720.88
405.66	748.97
405.85	697.48
406.05	737.27
406.24	821.53
406.43	786.42
406.62	816.85
406.81	894.08
407.00	814.51
407.20	753.65
407.39	725.57
407.58	842.59
407.77	774.72
407.96	835.57
408.15	816.85
408.34	903.45
408.54	917.49
408.73	870.68
408.92	917.49
409.11	833.23
409.30	833.23
409.49	772.38
409.68	660.03
409.87	779.40
410.07	781.74
410.26	758.33
410.45	915.15
410.64	844.93
410.83	917.49
411.02	814.51
411.21	931.53
411.40	917.49
411.59	1015.79
411.78	968.98
411.98	861.32
412.17	837.91
412.36	875.36
412.55	952.60
412.74	912.81
412.93	898.77
413.12	856.64
413.31	971.32
413.50	1008.77
413.69	973.66
413.88	1018.13
414.07	966.64
414.26	915.15
414.45	863.66
414.64	952.60
414.83	957.28
415.02	910.47
415.22	903.45
415.41	966.64
415.60	929.19
415.79	1043.88
415.98	1060.26
416.17	1062.60
416.36	1050.90
416.55	943.24
416.74	1004.09
416.93	957.28
417.12	954.94
417.31	919.83
417.50	1057.92
417.69	1062.60
417.88	1032.18
418.07	1029.84
418.26	992.39
418.45	924.51
418.64	1104.73
418.83	1055.58
419.02	1057.92
419.21	954.94
419.39	936.21
419.58	936.21
419.77	919.83
419.96	1093.03
420.15	1001.75
420.34	1104.73
420.53	1081.33
420.72	1097.71
420.91	1123.46
421.10	1125.80
421.29	1050.90
421.48	1018.13
421.67	1114.10
421.86	1071.97
422.05	978.34
422.24	901.11
422.43	870.68
422.61	936.21
422.80	1018.13
422.99	1064.94
423.18	1118.78
423.37	1062.60
423.56	964.30
423.75	1008.77
423.94	1053.24
424.13	992.39
424.32	1114.10
424.50	1050.90
424.69	922.17
424.88	1118.78
425.07	1008.77
425.26	983.02
425.45	1001.75
425.64	952.60
425.83	894.08
426.01	983.02
426.20	992.39
426.39	1095.37
426.58	933.87
426.77	858.98
426.96	833.23
427.15	847.27
427.33	983.02
427.52	1032.18
427.71	1041.54
427.90	940.90
428.09	999.41
428.28	971.32
428.46	964.30
428.65	966.64
428.84	924.51
429.03	971.32
429.22	936.21
429.40	837.91
429.59	786.42
429.78	807.48
429.97	730.25
430.16	688.12
430.34	784.08
430.53	753.65
430.72	763.01
430.91	826.21
431.10	976.00
431.28	1022.81
431.47	1172.61
431.66	1125.80
431.85	1083.67
432.03	945.58
432.22	980.68
432.41	966.64
432.60	1135.16
432.79	1144.52
432.97	1224.10
433.16	1179.63
433.35	1001.75
433.54	1006.43
433.72	987.71
433.91	943.24
434.10	1086.01
434.28	1158.57
434.47	1100.05
434.66	1181.97
434.85	1097.71
435.03	1193.67
435.22	1432.41
435.41	1739.02
435.59	1764.76
435.78	1526.03
435.97	1432.41
436.16	1240.48
436.34	1226.44
436.53	1174.95
436.72	1219.42
436.90	1123.46
437.09	1130.48
437.28	1156.22
437.46	1114.10
437.65	1153.88
437.84	1025.15
438.02	978.34
438.21	1125.80
438.40	1036.86
438.58	1039.20
438.77	1205.38
438.96	1156.22
439.14	1088.35
439.33	1245.16
439.52	1128.14
439.70	1289.64
439.89	1165.59
440.08	1128.14
440.26	1123.46
440.45	1196.01
440.63	1238.14
440.82	1294.32
441.01	1266.23
441.19	1331.76
441.38	1273.25
441.57	1324.74
441.75	1413.68
441.94	1411.34
442.12	1294.32
442.31	1327.08
442.50	1322.40
442.68	1416.02
442.87	1259.21
443.05	1355.17
443.24	1315.38
443.43	1313.04
443.61	1423.05
443.80	1343.47
443.98	1240.48
444.17	1322.40
444.35	1420.71
444.54	1334.11
444.73	1390.28
444.91	1350.49
445.10	1310.70
445.28	1228.78
445.47	1219.42
445.65	1282.61
445.84	1221.76
446.02	1315.38
446.21	1345.81
446.39	1294.32
446.58	1341.13
446.77	1324.74
446.95	1359.85
447.14	1427.73
447.32	1437.09
447.51	1406.66
447.69	1331.76
447.88	1394.96
448.06	1282.61
448.25	1376.24
448.43	1324.74
448.62	1343.47
448.80	1399.64
448.99	1334.11
449.17	1451.13
449.36	1357.51
449.54	1387.94
449.73	1448.79
449.91	1411.34
450.10	1561.14
450.28	1612.63
450.46	1437.09
450.65	1579.86
450.83	1500.28
451.02	1519.01
451.20	1483.90
451.39	1476.88
451.57	1427.73
451.76	1493.26
451.94	1519.01
452.13	1551.78
452.31	1394.96
452.49	1343.47
452.68	1233.46
452.86	1348.15
453.05	1376.24
453.23	1301.34
453.42	1423.05
453.60	1486.24
453.78	1469.86
453.97	1376.24
454.15	1385.60
454.34	1371.55
454.52	1472.20
454.70	1479.22
454.89	1359.85
455.07	1301.34
455.26	1432.41
455.44	1434.75
455.62	1514.33
455.81	1472.20
455.99	1561.14
456.17	1448.79
456.36	1474.54
456.54	1427.73
456.73	1507.30
456.91	1495.60
457.09	1507.30
457.28	1565.82
457.46	1467.52
457.64	1561.14
457.83	1359.85
458.01	1350.49
458.19	1507.30
458.38	1486.24
458.56	1558.80
458.74	1451.13
458.93	1474.54
459.11	1476.88
459.29	1441.77
459.48	1537.73
459.66	1453.47
459.84	1509.65
460.03	1570.50
460.21	1535.39
460.39	1586.88
460.57	1739.02
460.76	1603.27
460.94	1600.93
461.12	1551.78
461.31	1519.01
461.49	1540.07
461.67	1481.56
461.85	1647.74
462.04	1600.93
462.22	1989.46
462.40	1605.61
462.59	1575.18
462.77	1465.18
462.95	1652.42
463.13	1516.67
463.32	1565.82
463.50	1563.48
463.68	1607.95
463.86	1509.65
464.05	1467.52
464.23	1495.60
464.41	1547.09
464.59	1359.85
464.78	1469.86
464.96	1490.92
465.14	1591.56
465.32	1497.94
465.50	1673.48
465.69	1647.74
465.87	1465.18
466.05	1612.63
466.23	1526.03
466.41	1444.11
466.60	1434.75
466.78	1418.36
466.96	1474.54
467.14	1549.43
467.32	1579.86
467.51	1519.01
467.69	1467.52
467.87	1444.11
468.05	1423.05
468.23	1537.73
468.41	1519.01
468.60	1469.86
468.78	1584.54
468.96	1605.61
469.14	1544.75
469.32	1537.73
469.50	1366.87
469.69	1446.45
469.87	1526.03
470.05	1399.64
470.23	1345.81
470.41	1416.02
470.59	1486.24
470.77	1504.96
470.95	1495.60
471.14	1547.09
471.32	1486.24
471.50	1638.38
471.68	1575.18
471.86	1659.44
472.04	1647.74
472.22	1689.87
472.40	1575.18
472.58	1682.85
472.77	1514.33
472.95	1638.38
473.13	1652.42
473.31	1551.78
473.49	1626.67
473.67	1596.25
473.85	1591.56
474.03	1689.87
474.21	1514.33
474.39	1687.53
474.57	1713.27
474.75	1717.95
474.93	1715.61
475.12	1582.20
475.30	1533.05
475.48	1589.22
475.66	1666.46
475.84	1652.42
476.02	1600.93
476.20	1666.46
476.38	1614.97
476.56	1724.97
476.74	1736.68
476.92	1652.42
477.10	1739.02
477.28	1813.92
477.46	1839.66
477.64	1790.51
477.82	1755.40
478.00	1750.72
478.18	1748.38
478.36	1760.08
478.54	1741.36
478.72	1685.19
478.90	1729.66
479.08	1891.15
479.26	1858.39
479.44	1729.66
479.62	1799.87
479.80	1898.17
479.98	1804.55
480.16	1968.39
480.34	1963.71
480.52	1863.07
480.70	1788.17
480.88	1886.47
481.06	1940.30
481.24	1926.26
481.41	2064.35
481.59	2043.29
481.77	2031.58
481.95	1905.20
482.13	1909.88
482.31	1968.39
482.49	1919.24
482.67	2052.65
482.85	1973.07
483.03	2052.65
483.21	2155.63
483.39	1970.73
483.57	2054.99
483.74	2008.18
483.92	2026.90
484.10	2113.50
484.28	2066.69
484.46	2148.61
484.64	2157.97
484.82	2062.01
485.00	2087.76
485.18	2062.01
485.35	2059.67
485.53	1914.56
485.71	1654.76
485.89	1654.76
486.07	1825.62
486.25	1895.83
486.43	1994.14
486.61	2071.37
486.78	2111.16
486.96	2066.69
487.14	2232.87
487.32	2204.78
487.50	2251.60
487.68	2366.28
487.85	2260.96
488.03	2284.36
488.21	2275.00
488.39	2186.06
488.57	2225.85
488.75	2204.78
488.92	2443.52
489.10	2298.41
489.28	2448.20
489.46	2492.67
489.64	2576.93
489.81	2548.84
489.99	2560.55
490.17	2457.56
490.35	2612.04
490.53	2471.61
490.70	2317.13
490.88	2420.11
491.06	2546.50
491.24	2422.45
491.41	2590.97
491.59	2403.73
491.77	2279.68
491.95	2394.37
492.13	2469.27
492.30	2527.78
492.48	2616.72
492.66	2516.08
492.84	2462.24
493.01	2614.38
493.19	2663.53
493.37	2600.34
493.54	2410.75
493.72	2476.29
493.90	2647.15
494.08	2661.19
494.25	2754.81
494.43	2658.85
494.61	2813.32
494.79	2698.64
494.96	2827.37
495.14	2630.76
495.32	2764.17
495.49	2595.65
495.67	2729.06
495.85	2780.56
496.02	2747.79
496.20	2848.43
496.38	2906.95
496.55	2708.00
496.73	2766.51
496.91	2860.13
497.09	2956.10
497.26	2909.29
497.44	2860.13
497.62	2869.50
497.79	2661.19
497.97	2644.81
498.14	2609.70
498.32	2544.16
498.50	2733.75
498.67	2745.45
498.85	2815.66
499.03	2810.98
499.20	2846.09
499.38	2808.64
499.56	2761.83
499.73	2850.77
499.91	2644.81
500.08	2722.04
500.26	2738.43
500.44	2745.45
500.61	2813.32
500.79	2759.49
500.97	2665.87
501.14	2658.85
501.32	2717.36
501.49	2710.34
501.67	2705.66
501.84	2740.77
502.02	2715.02
502.20	2745.45
502.37	2806.30
502.55	2843.75
502.72	2740.77
502.90	2860.13
503.07	2778.22
503.25	2766.51
503.43	2492.67
503.60	2572.25
503.78	2499.69
503.95	2530.12
504.13	2698.64
504.30	2677.57
504.48	2782.90
504.65	2836.73
504.83	2801.62
505.01	2715.02
505.18	2829.71
505.36	2974.82
505.53	3000.57
505.71	2829.71
505.88	3101.21
506.06	2939.71
506.23	2902.26
506.41	2792.26
506.58	2834.39
506.76	2834.39
506.93	2754.81
507.11	2991.20
507.28	2913.97
507.46	2717.36
507.63	2822.69
507.81	2656.51
507.98	2750.13
508.16	2778.22
508.33	2799.28
508.50	2794.60
508.68	2949.08
508.85	2904.60
509.03	2951.42
509.20	3098.87
509.38	2899.92
509.55	2974.82
509.73	2806.30
509.90	2951.42
510.08	2857.79
510.25	2930.35
510.42	2913.97
510.60	2818.00
510.77	2946.73
510.95	3012.27
511.12	3070.78
511.30	3110.57
511.47	3229.94
511.64	3215.90
511.82	3105.89
511.99	3009.93
512.17	2892.90
512.34	2789.92
512.51	2862.48
512.69	2928.01
512.86	3019.29
513.04	2930.35
513.21	2902.26
513.38	3016.95
513.56	2991.20
513.73	2883.54
513.90	2883.54
514.08	2874.18
514.25	2871.84
514.43	2841.41
514.60	2916.31
514.77	2944.39
514.95	3007.59
515.12	2979.50
515.29	3007.59
515.47	2974.82
515.64	3016.95
515.81	3126.96
515.99	2942.05
516.16	2909.29
516.33	2647.15
516.51	2541.82
516.68	2387.35
516.85	2326.49
517.03	2462.24
517.20	2588.63
517.37	2761.83
517.54	2998.23
517.72	2956.10
517.89	2766.51
518.06	2502.03
518.24	2644.81
518.41	2754.81
518.58	2832.05
518.75	2801.62
518.93	2773.53
519.10	2883.54
519.27	2796.94
519.45	3016.95
519.62	3049.72
519.79	3054.40
519.96	3030.99
520.14	3000.57
520.31	2949.08
520.48	2892.90
520.65	2960.78
520.83	2972.48
521.00	3075.46
521.17	3030.99
521.34	2967.80
521.52	3063.76
521.69	3066.10
521.86	3124.62
522.03	2984.18
522.20	3068.44
522.38	2862.48
522.55	2874.18
522.72	3038.02
522.89	2932.69
523.07	3019.29
523.24	2843.75
523.41	3007.59
523.58	3117.59
523.75	3110.57
523.92	3061.42
524.10	3094.19
524.27	3066.10
524.44	3112.91
524.61	3126.96
524.78	3038.02
524.96	3030.99
525.13	3082.49
525.30	3148.02
525.47	3054.40
525.64	3103.55
525.81	3152.70
525.98	2995.89
526.16	2897.58
526.33	2717.36
526.50	2719.70
526.67	2628.42
526.84	2731.41
527.01	2782.90
527.18	2946.73
527.36	2918.65
527.53	3014.61
527.70	3016.95
527.87	2911.63
528.04	3103.55
528.21	2960.78
528.38	3054.40
528.55	3103.55
528.72	3281.43
528.89	3248.66
529.07	3197.17
529.24	3187.81
529.41	3080.14
529.58	2979.50
529.75	3073.12
529.92	3054.40
530.09	3110.57
530.26	3054.40
530.43	3272.07
530.60	3150.36
530.77	3258.03
530.94	3171.43
531.11	3288.45
531.28	3059.08
531.46	3091.85
531.63	3201.85
531.80	2993.55
531.97	3103.55
532.14	2953.76
532.31	2892.90
532.48	2883.54
532.65	2801.62
532.82	2918.65
532.99	3005.25
533.16	3150.36
533.33	3227.60
533.50	3192.49
533.67	3014.61
533.84	3063.76
534.01	3098.87
534.18	3155.04
534.35	3110.57
534.52	3070.78
534.69	3155.04
534.86	3094.19
535.03	3061.42
535.20	3255.69
535.37	3166.74
535.54	3281.43
535.71	3166.74
535.88	3056.74
536.05	3066.10
536.22	3059.08
536.38	3126.96
536.55	2991.20
536.72	3009.93
536.89	3014.61
537.06	3143.34
537.23	2970.14
537.40	3171.43
537.57	3213.56
537.74	3098.87
537.91	3080.14
538.08	3251.00
538.25	3176.11
538.42	3087.17
538.59	3157.38
538.75	3110.57
538.92	3054.40
539.09	3145.68
539.26	3023.97
539.43	2991.20
539.60	2967.80
539.77	3073.12
539.94	3103.55
540.11	3138.66
540.28	3073.12
540.44	2974.82
540.61	3040.36
540.78	3075.46
540.95	3105.89
541.12	3302.50
541.29	3349.31
541.46	3625.49
541.62	3529.53
541.79	3517.83
541.96	3447.61
542.13	3548.25
542.30	3480.38
542.47	3541.23
542.63	3445.27
542.80	3489.74
542.97	3391.44
543.14	3251.00
543.31	3356.33
543.48	3405.48
543.64	3471.01
543.81	3531.87
543.98	3623.15
544.15	3386.76
544.32	3356.33
544.48	3386.76
544.65	3407.82
544.82	3461.65
544.99	3447.61
545.16	3431.23
545.32	3283.77
545.49	3775.28
545.66	4393.19
545.83	4648.30
546.00	4329.99
546.16	3779.97
546.33	3611.45
546.50	3471.01
546.67	3300.16
546.83	3251.00
547.00	3255.69
547.17	3243.98
547.34	3143.34
547.50	3126.96
547.67	3295.47
547.84	3150.36
548.00	3187.81
548.17	3232.28
548.34	3183.13
548.51	3180.79
548.67	3218.24
548.84	3328.24
549.01	3227.60
549.18	3199.51
549.34	3091.85
549.51	3152.70
549.68	3229.94
549.84	3119.93
550.01	3087.17
550.18	3136.32
550.34	3199.51
550.51	3073.12
550.68	3059.08
550.84	3012.27
551.01	2974.82
551.18	2930.35
551.34	2991.20
551.51	3080.14
551.68	3023.97
551.84	3063.76
552.01	3129.30
552.18	3096.53
552.34	3042.70
552.51	2951.42
552.68	2892.90
552.84	3000.57
553.01	2911.63
553.18	3054.40
553.34	2850.77
553.51	2857.79
553.67	3045.04
553.84	3122.27
554.01	2993.55
554.17	2897.58
554.34	2911.63
554.51	2953.76
554.67	3030.99
554.84	3038.02
555.00	3052.06
555.17	2960.78
555.33	3012.27
555.50	2944.39
555.67	2944.39
555.83	2916.31
556.00	2899.92
556.16	3152.70
556.33	2885.88
556.50	2820.35
556.66	2862.48
556.83	2836.73
556.99	2881.20
557.16	2796.94
557.32	2855.45
557.49	2799.28
557.65	2780.56
557.82	2803.96
557.98	2930.35
558.15	2829.71
558.32	2637.78
558.48	2722.04
558.65	2541.82
558.81	2787.58
558.98	2759.49
559.14	2799.28
559.31	2675.23
559.47	2813.32
559.64	2703.32
559.80	2733.75
559.97	2712.68
560.13	2722.04
560.30	2782.90
560.46	2789.92
560.63	2874.18
560.79	2857.79
560.96	2792.26
561.12	2897.58
561.29	2705.66
561.45	2736.09
561.61	2871.84
561.78	2757.15
561.94	2841.41
562.11	2710.34
562.27	2715.02
562.44	2757.15
562.60	2787.58
562.77	2726.72
562.93	2899.92
563.10	2820.35
563.26	2780.56
563.42	2789.92
563.59	2698.64
563.75	2700.98
563.92	2745.45
564.08	2698.64
564.24	2614.38
564.41	2752.47
564.57	2658.85
564.74	2724.38
564.90	2839.07
565.07	2661.19
565.23	2794.60
565.39	2696.30
565.56	2567.57
565.72	2480.97
565.88	2605.02
566.05	2593.31
566.21	2605.02
566.38	2612.04
566.54	2647.15
566.70	2661.19
566.87	2715.02
567.03	2773.53
567.19	2738.43
567.36	2715.02
567.52	2633.10
567.68	2600.34
567.85	2651.83
568.01	2485.65
568.17	2506.71
568.34	2516.08
568.50	2544.16
568.66	2504.37
568.83	2605.02
568.99	2429.48
569.15	2574.59
569.32	2495.01
569.48	2443.52
569.64	2487.99
569.81	2469.27
569.97	2476.29
570.13	2534.80
570.30	2509.05
570.46	2513.74
570.62	2417.77
570.78	2387.35
570.95	2445.86
571.11	2520.76
571.27	2553.52
571.43	2544.16
571.60	2530.12
571.76	2520.76
571.92	2499.69
572.09	2394.37
572.25	2490.33
572.41	2469.27
572.57	2574.59
572.74	2612.04
572.90	2495.01
573.06	2593.31
573.22	2462.24
573.38	2492.67
573.55	2459.90
573.71	2527.78
573.87	2462.24
574.03	2476.29
574.20	2452.88
574.36	2352.24
574.52	2459.90
574.68	2469.27
574.84	2546.50
575.01	2394.37
575.17	2349.90
575.33	2569.91
575.49	2499.69
575.65	2401.39
575.82	2373.30
575.98	2401.39
576.14	2296.07
576.30	2462.24
576.46	2665.87
576.62	2752.47
576.79	2832.05
576.95	2637.78
577.11	2520.76
577.27	2602.68
577.43	2492.67
577.59	2450.54
577.75	2352.24
577.92	2352.24
578.08	2368.62
578.24	2314.79
578.40	2427.14
578.56	2623.74
578.72	2586.29
578.88	2607.36
579.04	2553.52
579.21	2525.44
579.37	2513.74
579.53	2443.52
579.69	2541.82
579.85	2541.82
580.01	2555.86
580.17	2462.24
580.33	2499.69
580.49	2436.50
580.65	2569.91
580.82	2490.33
580.98	2569.91
581.14	2480.97
581.30	2609.70
581.46	2401.39
581.62	2597.99
581.78	2588.63
581.94	2539.48
582.10	2487.99
582.26	2640.12
582.42	2513.74
582.58	2579.27
582.74	2541.82
582.90	2609.70
583.06	2492.67
583.22	2583.95
583.38	2429.48
583.54	2565.23
583.70	2630.76
583.86	2593.31
584.02	2495.01
584.18	2480.97
584.34	2525.44
584.50	2457.56
584.66	2408.41
584.82	2551.18
584.98	2530.12
585.14	2401.39
585.30	2448.20
585.46	2286.70
585.62	2279.68
585.78	2389.69
585.94	2478.63
586.10	2434.16
586.26	2415.43
586.42	2389.69
586.58	2457.56
586.74	2452.88
586.90	2513.74
587.06	2520.76
587.22	2431.82
587.38	2457.56
587.54	2349.90
587.70	2305.43
587.86	2347.56
588.02	2127.55
588.18	2136.91
588.34	2026.90
588.49	1863.07
588.65	1694.55
588.81	1785.83
588.97	1657.10
589.13	1661.78
589.29	1664.12
589.45	1680.50
589.61	1769.44
589.77	1895.83
589.93	1912.22
590.08	1900.52
590.24	2003.50
590.40	2069.03
590.56	2092.44
590.72	2003.50
590.88	1952.01
591.04	2024.56
591.20	1867.75
591.35	2139.25
591.51	2087.76
591.67	2036.27
591.83	1991.80
591.99	1930.94
592.15	2001.16
592.31	2146.27
592.46	2153.29
592.62	2172.02
592.78	2047.97
592.94	2253.94
593.10	2143.93
593.26	2218.83
593.41	2338.20
593.57	2162.66
593.73	2108.82
593.89	2012.86
594.05	1888.81
594.20	1984.77
594.36	1806.89
594.52	1834.98
594.68	1834.98
594.84	1980.09
594.99	2064.35
595.15	2057.33
595.31	2033.93
595.47	2059.67
595.62	1956.69
595.78	2038.61
595.94	2033.93
596.10	2143.93
596.25	2064.35
596.41	2024.56
596.57	1973.07
596.73	2097.12
596.88	2104.14
597.04	2080.74
597.20	2113.50
597.36	1991.80
597.51	2019.88
597.67	1937.96
597.83	2118.18
597.99	2090.10
598.14	1998.82
598.30	2279.68
598.46	2139.25
598.61	2134.57
598.77	2062.01
598.93	2083.08
599.09	2120.53
599.24	2244.57
599.40	2122.87
