SpectraSuite Data File
++++++++++++++++++++++++++++++++++++
Date: Fri Oct 04 11:44:12 GMT-05:00 2013
User: price-jones
Dark Spectrum Present: No
Reference Spectrum Present: No
Number of Sampled Component Spectra: 1
Spectrometers: USB2+H05261
Integration Time (usec): 100000 (USB2+H05261)
Spectra Averaged: 1 (USB2+H05261)
Boxcar Smoothing: 0 (USB2+H05261)
Correct for Electrical Dark: No (USB2+H05261)
Strobe/Lamp Enabled: No (USB2+H05261)
Correct for Detector Non-linearity: No (USB2+H05261)
Correct for Stray Light: No (USB2+H05261)
Number of Pixels in Processed Spectrum: 2048
>>>>>Begin Processed Spectral Data<<<<<
365.73	42.13
365.92	42.13
366.12	42.13
366.32	63.19
366.52	0.00
366.72	0.00
366.91	0.00
367.11	0.00
367.31	0.00
367.51	0.00
367.70	0.00
367.90	0.00
368.10	0.00
368.30	0.00
368.49	0.00
368.69	0.00
368.89	0.00
369.09	0.00
369.28	0.00
369.48	0.00
369.68	0.00
369.87	0.00
370.07	28.09
370.27	49.15
370.47	102.98
370.66	397.89
370.86	528.96
371.06	519.60
371.25	566.41
371.45	425.98
371.65	477.47
371.84	458.74
372.04	444.70
372.24	507.90
372.44	552.37
372.63	514.92
372.83	552.37
373.03	463.43
373.22	475.13
373.42	418.96
373.62	470.45
373.81	538.32
374.01	622.58
374.21	521.94
374.40	451.72
374.60	521.94
374.79	631.94
374.99	622.58
375.19	674.07
375.38	653.01
375.58	699.82
375.78	660.03
375.97	631.94
376.17	681.10
376.37	657.69
376.56	636.63
376.76	730.25
376.95	671.73
377.15	674.07
377.35	690.46
377.54	875.36
377.74	779.40
377.93	830.89
378.13	875.36
378.33	786.42
378.52	727.91
378.72	678.76
378.91	615.56
379.11	655.35
379.31	641.31
379.50	650.67
379.70	760.67
379.89	727.91
380.09	711.52
380.28	763.01
380.48	849.61
380.68	755.99
380.87	807.48
381.07	734.93
381.26	695.14
381.46	645.99
381.65	606.20
381.85	744.29
382.04	578.11
382.24	561.73
382.43	552.37
382.63	533.64
382.83	517.26
383.02	585.13
383.22	599.18
383.41	543.00
383.61	617.90
383.80	765.36
384.00	713.86
384.19	744.29
384.39	741.95
384.58	730.25
384.78	791.10
384.97	809.83
385.17	788.76
385.36	727.91
385.56	629.60
385.75	681.10
385.95	688.12
386.14	858.98
386.34	851.96
386.53	758.33
386.72	746.63
386.92	777.06
387.11	800.46
387.31	814.51
387.50	760.67
387.70	645.99
387.89	755.99
388.09	734.93
388.28	732.59
388.48	781.74
388.67	894.08
388.86	964.30
389.06	924.51
389.25	1055.58
389.45	980.68
389.64	985.37
389.84	987.71
390.03	973.66
390.22	966.64
390.42	1015.79
390.61	1013.45
390.81	1156.22
391.00	1118.78
391.19	1191.33
391.39	1125.80
391.58	1111.75
391.78	1018.13
391.97	933.87
392.16	983.02
392.36	830.89
392.55	800.46
392.75	533.64
392.94	599.18
393.13	550.03
393.33	524.28
393.52	716.20
393.71	774.72
393.91	889.40
394.10	1034.52
394.29	1004.09
394.49	1102.39
394.68	1086.01
394.88	1277.93
395.07	1205.38
395.26	1238.14
395.46	1149.20
395.65	1156.22
395.84	992.39
396.04	985.37
396.23	718.54
396.42	711.52
396.62	592.16
396.81	636.63
397.00	870.68
397.19	997.07
397.39	1144.52
397.58	1338.79
397.77	1399.64
397.97	1462.83
398.16	1357.51
398.35	1467.52
398.55	1448.79
398.74	1591.56
398.93	1612.63
399.12	1577.52
399.32	1502.62
399.51	1490.92
399.70	1624.33
399.90	1612.63
400.09	1544.75
400.28	1689.87
400.47	1661.78
400.67	1729.66
400.86	1762.42
401.05	1741.36
401.24	1624.33
401.44	1839.66
401.63	1762.42
401.82	1900.52
402.01	1788.17
402.21	1717.95
402.40	1818.60
402.59	1825.62
402.78	1593.90
402.97	1687.53
403.17	1739.02
403.36	1776.47
403.55	1898.17
403.74	1919.24
403.93	1825.62
404.13	1811.57
404.32	1717.95
404.51	1792.85
404.70	1952.01
404.89	1858.39
405.09	1757.74
405.28	1832.64
405.47	1703.91
405.66	1748.38
405.85	1827.96
406.05	1713.27
406.24	1687.53
406.43	1781.15
406.62	1823.28
406.81	1905.20
407.00	1844.34
407.20	1750.72
407.39	1755.40
407.58	1834.98
407.77	1949.67
407.96	1975.41
408.15	1989.46
408.34	1867.75
408.54	2064.35
408.73	2157.97
408.92	2073.71
409.11	2073.71
409.30	1942.64
409.49	1877.11
409.68	1724.97
409.87	1626.67
410.07	1764.76
410.26	1886.47
410.45	2012.86
410.64	2019.88
410.83	2036.27
411.02	2019.88
411.21	2047.97
411.40	2106.48
411.59	2092.44
411.78	2127.55
411.98	2160.31
412.17	2167.34
412.36	2150.95
412.55	2113.50
412.74	2071.37
412.93	2134.57
413.12	2113.50
413.31	2190.74
413.50	2239.89
413.69	2179.04
413.88	2207.13
414.07	2221.17
414.26	2228.19
414.45	2216.49
414.64	2232.87
414.83	2326.49
415.02	2232.87
415.22	2218.83
415.41	2242.23
415.60	2282.02
415.79	2387.35
415.98	2410.75
416.17	2495.01
416.36	2389.69
416.55	2347.56
416.74	2375.64
416.93	2218.83
417.12	2275.00
417.31	2333.51
417.50	2352.24
417.69	2368.62
417.88	2314.79
418.07	2312.45
418.26	2284.36
418.45	2338.20
418.64	2436.50
418.83	2485.65
419.02	2392.03
419.21	2495.01
419.39	2347.56
419.58	2153.29
419.77	2150.95
419.96	2312.45
420.15	2434.16
420.34	2415.43
420.53	2495.01
420.72	2719.70
420.91	2597.99
421.10	2427.14
421.29	2516.08
421.48	2565.23
421.67	2607.36
421.86	2513.74
422.05	2410.75
422.24	2216.49
422.43	2174.36
422.61	2303.09
422.80	2441.18
422.99	2459.90
423.18	2347.56
423.37	2363.94
423.56	2424.80
423.75	2380.32
423.94	2485.65
424.13	2232.87
424.32	2375.64
424.50	2366.28
424.69	2314.79
424.88	2375.64
425.07	2237.55
425.26	2361.60
425.45	2249.25
425.64	2401.39
425.83	2314.79
426.01	2291.38
426.20	2497.35
426.39	2356.92
426.58	2314.79
426.77	2225.85
426.96	2062.01
427.15	2033.93
427.33	2211.81
427.52	2279.68
427.71	2326.49
427.90	2214.15
428.09	2186.06
428.28	2209.47
428.46	2253.94
428.65	2188.40
428.84	2242.23
429.03	2181.38
429.22	2169.68
429.40	2040.95
429.59	1893.49
429.78	1785.83
429.97	1561.14
430.16	1781.15
430.34	1647.74
430.53	1703.91
430.72	1785.83
430.91	1820.94
431.10	2108.82
431.28	2541.82
431.47	2696.30
431.66	2827.37
431.85	2406.07
432.03	2296.07
432.22	2244.57
432.41	2408.41
432.60	2581.61
432.79	2654.17
432.97	2754.81
433.16	2696.30
433.35	2291.38
433.54	2157.97
433.72	2172.02
433.91	2244.57
434.10	2487.99
434.28	2473.95
434.47	2675.23
434.66	2708.00
434.85	2527.78
435.03	2572.25
435.22	2813.32
435.41	3040.36
435.59	3101.21
435.78	3042.70
435.97	2960.78
436.16	2949.08
436.34	2803.96
436.53	2717.36
436.72	2839.07
436.90	2623.74
437.09	2656.51
437.28	2626.08
437.46	2689.28
437.65	2708.00
437.84	2471.61
438.02	2305.43
438.21	2356.92
438.40	2448.20
438.58	2553.52
438.77	2635.44
438.96	2747.79
439.14	2761.83
439.33	2766.51
439.52	2829.71
439.70	2759.49
439.89	2796.94
440.08	2747.79
440.26	2691.62
440.45	2869.50
440.63	2988.86
440.82	3145.68
441.01	2981.84
441.19	3028.65
441.38	3164.40
441.57	3150.36
441.75	3295.47
441.94	3311.86
442.12	3136.32
442.31	3405.48
442.50	3094.19
442.68	3166.74
442.87	3187.81
443.05	3185.47
443.24	3302.50
443.43	3239.30
443.61	3227.60
443.80	3279.09
443.98	3169.09
444.17	3129.30
444.35	3375.05
444.54	3442.93
444.73	3236.96
444.91	3269.73
445.10	3091.85
445.28	2960.78
445.47	2930.35
445.65	2953.76
445.84	3103.55
446.02	3145.68
446.21	3019.29
446.39	3136.32
446.58	3304.84
446.77	3232.28
446.95	3243.98
447.14	3375.05
447.32	3449.95
447.51	3325.90
447.69	3281.43
447.88	3295.47
448.06	3136.32
448.25	3356.33
448.43	3204.19
448.62	3262.71
448.80	3253.34
448.99	3241.64
449.17	3288.45
449.36	3300.16
449.54	3403.14
449.73	3309.52
449.91	3552.93
450.10	3651.24
450.28	3588.04
450.46	3658.26
450.65	3763.58
450.83	3637.19
451.02	3421.86
451.20	3494.42
451.39	3550.59
451.57	3442.93
451.76	3609.11
451.94	3466.33
452.13	3412.50
452.31	3290.79
452.49	3141.00
452.68	3119.93
452.86	3253.34
453.05	3290.79
453.23	3337.60
453.42	3323.56
453.60	3370.37
453.78	3452.29
453.97	3442.93
454.15	3311.86
454.34	3349.31
454.52	3351.65
454.70	3410.16
454.89	3372.71
455.07	3323.56
455.26	3489.74
455.44	3590.38
455.62	3571.66
455.81	3684.00
455.99	3737.84
456.17	3452.29
456.36	3456.97
456.54	3653.58
456.73	3473.36
456.91	3641.87
457.09	3576.34
457.28	3796.35
457.46	3702.73
457.64	3763.58
457.83	3454.63
458.01	3508.46
458.19	3431.23
458.38	3557.61
458.56	3623.15
458.74	3550.59
458.93	3508.46
459.11	3449.95
459.29	3496.76
459.48	3492.08
459.66	3585.70
459.84	3655.92
460.03	3571.66
460.21	3545.91
460.39	3634.85
460.57	3576.34
460.76	3665.28
460.94	3676.98
461.12	3688.68
461.31	3761.24
461.49	3681.66
461.67	3763.58
461.85	3829.12
462.04	3737.84
462.22	4297.22
462.40	3946.14
462.59	3754.22
462.77	3915.72
462.95	3810.39
463.13	3702.73
463.32	3630.17
463.50	3658.26
463.68	3786.99
463.86	3665.28
464.05	3623.15
464.23	3639.53
464.41	3548.25
464.59	3503.78
464.78	3604.42
464.96	3723.79
465.14	3660.60
465.32	3609.11
465.50	3847.84
465.69	3904.01
465.87	3744.86
466.05	3660.60
466.23	3412.50
466.41	3405.48
466.60	3471.01
466.78	3557.61
466.96	3562.30
467.14	3660.60
467.32	3676.98
467.51	3665.28
467.69	3382.07
467.87	3693.37
468.05	3716.77
468.23	3735.50
468.41	3831.46
468.60	3763.58
468.78	3749.54
468.96	3777.62
469.14	3728.47
469.32	3740.18
469.50	3487.40
469.69	3669.96
469.87	3646.55
470.05	3494.42
470.23	3489.74
470.41	3478.04
470.59	3655.92
470.77	3634.85
470.95	3625.49
471.14	3688.68
471.32	3637.19
471.50	3894.65
471.68	3775.28
471.86	3950.82
472.04	3960.19
472.22	4060.83
472.40	3669.96
472.58	3838.48
472.77	3740.18
472.95	3894.65
473.13	3852.52
473.31	3772.94
473.49	3744.86
473.67	3887.63
473.85	3847.84
474.03	3934.44
474.21	3960.19
474.39	4168.49
474.57	4051.47
474.75	4140.41
474.93	3976.57
475.12	3920.40
475.30	3925.08
475.48	3950.82
475.66	3906.35
475.84	3976.57
476.02	3826.78
476.20	3857.20
476.38	3892.31
476.56	4121.68
476.74	4138.07
476.92	4159.13
477.10	4154.45
477.28	4271.48
477.46	4248.07
477.64	4409.57
477.82	4341.69
478.00	4451.70
478.18	4276.16
478.36	4353.40
478.54	4177.86
478.72	4337.01
478.90	4557.02
479.08	4517.23
479.26	4528.94
479.44	4645.96
479.62	4493.83
479.80	4461.06
479.98	4512.55
480.16	4622.56
480.34	4622.56
480.52	4559.36
480.70	4603.83
480.88	4531.28
481.06	4772.35
481.24	4774.69
481.41	4873.00
481.59	5048.54
481.77	4985.34
481.95	4950.23
482.13	4926.83
482.31	4891.72
482.49	4854.27
482.67	4961.94
482.85	4891.72
483.03	5083.64
483.21	5046.20
483.39	5200.67
483.57	4983.00
483.74	4896.40
483.92	5048.54
484.10	5032.15
484.28	5074.28
484.46	5195.99
484.64	5275.57
484.82	5060.24
485.00	4971.30
485.18	4884.70
485.35	4835.55
485.53	4507.87
485.71	4198.92
485.89	4070.19
486.07	4170.83
486.25	4521.92
486.43	4770.01
486.61	4929.17
486.78	4933.85
486.96	5041.51
487.14	5193.65
487.32	5219.39
487.50	5359.83
487.68	5448.77
487.85	5781.12
488.03	5776.44
488.21	5645.37
488.39	5586.86
488.57	5399.62
488.75	5329.40
488.92	5727.29
489.10	5753.04
489.28	5980.07
489.46	6033.90
489.64	6134.54
489.81	6190.72
489.99	6071.35
490.17	5996.45
490.35	6282.00
490.53	6059.65
490.70	5937.94
490.88	5970.71
491.06	6195.40
491.24	6244.55
491.41	6120.50
491.59	5811.55
491.77	5504.94
491.95	5671.12
492.13	5799.85
492.30	6066.67
492.48	6188.38
492.66	6335.83
492.84	6494.99
493.01	6511.37
493.19	6282.00
493.37	6263.27
493.54	6183.70
493.72	6171.99
493.90	6459.88
494.08	6684.57
494.25	6766.49
494.43	6853.09
494.61	6874.15
494.79	6946.71
494.96	6864.79
495.14	6803.94
495.32	6565.20
495.49	6345.19
495.67	6396.68
495.85	6743.08
496.02	6913.94
496.20	7012.24
496.38	6850.75
496.55	6817.98
496.73	7117.57
496.91	6874.15
497.09	6841.39
497.26	7178.42
497.44	6876.49
497.62	6946.71
497.79	6817.98
497.97	6473.92
498.14	6504.35
498.32	6693.93
498.50	6853.09
498.67	6904.58
498.85	6979.48
499.03	7140.97
499.20	7028.63
499.38	7262.68
499.56	6946.71
499.73	7012.24
499.91	6719.68
500.08	6820.32
500.26	6633.08
500.44	6750.10
500.61	6551.16
500.79	6925.65
500.97	6850.75
501.14	6729.04
501.32	6651.80
501.49	6579.25
501.67	6703.29
501.84	6726.70
502.02	6909.26
502.20	7068.42
502.37	6888.20
502.55	6806.28
502.72	7061.40
502.90	7208.85
503.07	7012.24
503.25	6909.26
503.43	6558.18
503.60	6342.85
503.78	6204.76
503.95	6235.19
504.13	6670.53
504.30	6726.70
504.48	7087.14
504.65	7171.40
504.83	6911.60
505.01	7096.50
505.18	7138.63
505.36	7236.94
505.53	7232.26
505.71	7253.32
505.88	7279.07
506.06	7318.86
506.23	7363.33
506.41	6993.52
506.58	7063.74
506.76	7082.46
506.93	7026.29
507.11	6956.07
507.28	7023.95
507.46	6995.86
507.63	6707.98
507.81	6754.79
507.98	6871.81
508.16	7002.88
508.33	7035.65
508.50	7321.20
508.68	7431.20
508.85	7470.99
509.03	7578.65
509.20	7520.14
509.38	7351.62
509.55	7007.56
509.73	7246.30
509.90	7255.66
510.08	7410.14
510.25	7538.87
510.42	7183.10
510.60	7150.34
510.77	7288.43
510.95	7468.65
511.12	7440.56
511.30	7758.88
511.47	7702.70
511.64	7777.60
511.82	7723.77
511.99	7473.33
512.17	7248.64
512.34	7192.47
512.51	7332.90
512.69	7419.50
512.86	7452.27
513.04	7412.48
513.21	7578.65
513.38	7302.47
513.56	7206.51
513.73	7143.32
513.90	7084.80
514.08	7227.57
514.25	7133.95
514.43	7382.05
514.60	7454.61
514.77	7447.58
514.95	7529.50
515.12	7335.24
515.29	7417.16
515.47	7655.89
515.64	7569.29
515.81	7492.05
515.99	7438.22
516.16	7145.66
516.33	6609.67
516.51	6235.19
516.68	6099.44
516.85	6204.76
517.03	6069.01
517.20	6539.46
517.37	7012.24
517.54	7384.39
517.72	7325.88
517.89	6771.17
518.06	6251.57
518.24	6284.34
518.41	6754.79
518.58	6951.39
518.75	7033.31
518.93	7222.89
519.10	7197.15
519.27	7140.97
519.45	7239.28
519.62	7513.12
519.79	7623.12
519.96	7569.29
520.14	7501.42
520.31	7190.13
520.48	7206.51
520.65	7140.97
520.83	7456.95
521.00	7527.16
521.17	7627.81
521.34	7426.52
521.52	7723.77
521.69	7611.42
521.86	7850.16
522.03	7698.02
522.20	7386.73
522.38	7176.08
522.55	7140.97
522.72	7187.79
522.89	7318.86
523.07	7496.74
523.24	7463.97
523.41	7630.15
523.58	7885.26
523.75	7873.56
523.92	7700.36
524.10	7866.54
524.27	7779.94
524.44	7658.23
524.61	7793.98
524.78	7524.82
524.96	7681.64
525.13	7637.17
525.30	7815.05
525.47	7999.95
525.64	7569.29
525.81	7700.36
525.98	7473.33
526.16	7052.03
526.33	6752.45
526.50	6672.87
526.67	6600.31
526.84	6633.08
527.01	6970.12
527.18	7042.67
527.36	7332.90
527.53	7658.23
527.70	7868.88
527.87	7651.21
528.04	7559.93
528.21	7478.01
528.38	7747.17
528.55	7606.74
528.72	8198.90
528.89	8114.64
529.07	7875.90
529.24	7796.32
529.41	7667.60
529.58	7557.59
529.75	7513.12
529.92	7599.72
530.09	7735.47
530.26	7932.08
530.43	8114.64
530.60	7859.52
530.77	7992.93
530.94	8203.58
531.11	7950.80
531.28	7836.11
531.46	7765.90
531.63	7789.30
531.80	7772.92
531.97	7672.28
532.14	7510.78
532.31	7363.33
532.48	7037.99
532.65	7040.33
532.82	7290.77
532.99	7463.97
533.16	7468.65
533.33	7681.64
533.50	7719.09
533.67	7637.17
533.84	7452.27
534.01	7407.80
534.18	7499.08
534.35	7822.07
534.52	7655.89
534.69	7744.83
534.86	7646.53
535.03	7899.31
535.20	7997.61
535.37	8149.75
535.54	8102.93
535.71	7770.58
535.88	7747.17
536.05	7735.47
536.22	7637.17
536.38	7581.00
536.55	7410.14
536.72	7129.27
536.89	7190.13
537.06	7379.71
537.23	7581.00
537.40	7943.78
537.57	7758.88
537.74	7819.73
537.91	7709.72
538.08	7620.78
538.25	7698.02
538.42	7674.62
538.59	7852.50
538.75	7613.76
538.92	7396.09
539.09	7438.22
539.26	7438.22
539.43	7379.71
539.60	7229.91
539.77	7485.03
539.94	7480.35
540.11	7180.76
540.28	7176.08
540.44	7267.36
540.61	7253.32
540.78	7110.55
540.95	7262.68
541.12	7470.99
541.29	7655.89
541.46	7419.50
541.62	7733.13
541.79	7698.02
541.96	7609.08
542.13	7515.46
542.30	7770.58
542.47	7852.50
542.63	7672.28
542.80	7712.07
542.97	7611.42
543.14	7564.61
543.31	7438.22
543.48	7660.57
543.64	8030.38
543.81	7943.78
543.98	7920.37
544.15	7698.02
544.32	7597.38
544.48	7452.27
544.65	7641.85
544.82	7857.18
544.99	7595.04
545.16	7728.45
545.32	7581.00
545.49	7971.86
545.66	8425.93
545.83	8484.44
546.00	8198.90
546.16	7953.14
546.33	7592.70
546.50	7639.51
546.67	7611.42
546.83	7412.48
547.00	7541.21
547.17	7421.84
547.34	7328.22
547.50	7164.38
547.67	7140.97
547.84	7349.28
548.00	7330.56
548.17	7576.31
548.34	7461.63
548.51	7478.01
548.67	7398.43
548.84	7569.29
549.01	7440.56
549.18	7470.99
549.34	7494.40
549.51	7513.12
549.68	7492.05
549.84	7295.45
550.01	7344.60
550.18	7302.47
550.34	7475.67
550.51	7398.43
550.68	7328.22
550.84	7368.01
551.01	7295.45
551.18	7283.75
551.34	7206.51
551.51	7517.80
551.68	7356.30
551.84	7548.23
552.01	7377.37
552.18	7433.54
552.34	7269.70
552.51	7126.93
552.68	7159.70
552.84	7220.55
553.01	7290.77
553.18	7445.24
553.34	7126.93
553.51	7520.14
553.67	7475.67
553.84	7571.63
554.01	7372.69
554.17	7314.17
554.34	7454.61
554.51	7384.39
554.67	7342.26
554.84	7461.63
555.00	7517.80
555.17	7274.38
555.33	7131.61
555.50	7094.16
555.67	7192.47
555.83	7101.19
556.00	7101.19
556.16	7356.30
556.33	7042.67
556.50	7129.27
556.66	6993.52
556.83	7042.67
556.99	6848.41
557.16	7014.59
557.32	7075.44
557.49	7035.65
557.65	7140.97
557.82	7220.55
557.98	6930.33
558.15	7021.61
558.32	6942.03
558.48	6626.06
558.65	6691.59
558.81	6729.04
558.98	6707.98
559.14	6747.76
559.31	6747.76
559.47	6799.26
559.64	6717.34
559.80	6771.17
559.97	6637.76
560.13	6682.23
560.30	6799.26
560.46	7356.30
560.63	6988.84
560.79	7176.08
560.96	7077.78
561.12	6700.95
561.29	6726.70
561.45	6686.91
561.61	6810.96
561.78	6911.60
561.94	7012.24
562.11	6789.89
562.27	6832.02
562.44	6775.85
562.60	6979.48
562.77	6963.09
562.93	7091.82
563.10	6841.39
563.26	6757.13
563.42	6977.14
563.59	6834.36
563.75	6745.42
563.92	6637.76
564.08	6813.30
564.24	6817.98
564.41	6829.68
564.57	6810.96
564.74	6722.02
564.90	6750.10
565.07	6569.88
565.23	6743.08
565.39	6443.49
565.56	6532.44
565.72	6429.45
565.88	6534.78
566.05	6464.56
566.21	6511.37
566.38	6572.22
566.54	6616.69
566.70	6679.89
566.87	6675.21
567.03	6663.51
567.19	6717.34
567.36	6827.34
567.52	6647.12
567.68	6555.84
567.85	6459.88
568.01	6263.27
568.17	6270.30
568.34	6228.17
568.50	6024.54
568.66	5947.30
568.83	6258.59
568.99	6090.07
569.15	6188.38
569.32	6169.65
569.48	6120.50
569.64	6305.40
569.81	6026.88
569.97	6150.93
570.13	6167.31
570.30	6150.93
570.46	6104.12
570.62	5930.92
570.78	5959.00
570.95	6029.22
571.11	6015.18
571.27	6171.99
571.43	6111.14
571.60	6115.82
571.76	5877.09
571.92	6153.27
572.09	6122.84
572.25	6319.45
572.41	6239.87
572.57	6118.16
572.74	6090.07
572.90	6150.93
573.06	6286.68
573.22	6150.93
573.38	6361.58
573.55	6143.91
573.71	6050.28
573.87	6113.48
574.03	6094.76
574.20	6069.01
574.36	6026.88
574.52	6104.12
574.68	6057.31
574.84	6045.60
575.01	5944.96
575.17	5994.11
575.33	5930.92
575.49	5860.70
575.65	6090.07
575.82	6003.47
575.98	5954.32
576.14	5942.62
576.30	5907.51
576.46	6134.54
576.62	6183.70
576.79	6265.61
576.95	6026.88
577.11	6010.50
577.27	5865.38
577.43	5905.17
577.59	6071.35
577.75	5973.05
577.92	5741.33
578.08	5823.25
578.24	5909.85
578.40	5870.06
578.56	5991.77
578.72	6045.60
578.88	6073.69
579.04	6108.80
579.21	6143.91
579.37	5968.37
579.53	6045.60
579.69	6090.07
579.85	6090.07
580.01	6097.10
580.17	5989.43
580.33	6097.10
580.49	6033.90
580.65	5881.77
580.82	6045.60
580.98	5987.09
581.14	6099.44
581.30	5959.00
581.46	5963.68
581.62	5996.45
581.78	5996.45
581.94	6076.03
582.10	6258.59
582.26	6085.39
582.42	6160.29
582.58	6186.04
582.74	6354.55
582.90	6157.95
583.06	6356.90
583.22	6106.46
583.38	5891.13
583.54	5975.39
583.70	6050.28
583.86	6148.59
584.02	6069.01
584.18	5944.96
584.34	6036.24
584.50	5973.05
584.66	6083.05
584.82	5898.15
584.98	5961.34
585.14	5865.38
585.30	5750.70
585.46	5991.77
585.62	5579.84
585.78	5841.98
585.94	5680.48
586.10	5668.78
586.26	5652.39
586.42	5792.83
586.58	5767.08
586.74	5795.17
586.90	5755.38
587.06	5696.86
587.22	5612.60
587.38	5607.92
587.54	5502.60
587.70	5420.68
587.86	5310.68
588.02	5247.48
588.18	4992.36
588.34	4919.81
588.49	4472.76
588.65	4306.59
588.81	4154.45
588.97	4276.16
589.13	4337.01
589.29	4053.81
589.45	4147.43
589.61	4219.99
589.77	4306.59
589.93	4482.13
590.08	4865.97
590.24	4875.34
590.40	4933.85
590.56	4868.31
590.72	4767.67
590.88	4741.93
591.04	4819.16
591.20	4695.11
591.35	4795.76
591.51	4643.62
591.67	4767.67
591.83	4720.86
591.99	4622.56
592.15	4718.52
592.31	4903.42
592.46	5069.60
592.62	5179.61
592.78	5074.28
592.94	5097.69
593.10	5060.24
593.26	5146.84
593.41	5153.86
593.57	5093.01
593.73	5008.75
593.89	4781.71
594.05	4510.21
594.20	4444.68
594.36	4550.00
594.52	4475.10
594.68	4535.96
594.84	4503.19
594.99	4770.01
595.15	4781.71
595.31	4950.23
595.47	4828.53
595.62	4821.50
595.78	4833.21
595.94	5018.11
596.10	5334.08
596.25	4994.70
596.41	4997.04
596.57	4716.18
596.73	4858.95
596.88	4966.62
597.04	4987.68
597.20	5172.58
597.36	4915.12
597.51	4891.72
597.67	4819.16
