SpectraSuite Data File
++++++++++++++++++++++++++++++++++++
Date: Fri Oct 04 11:44:18 GMT-05:00 2013
User: price-jones
Dark Spectrum Present: No
Reference Spectrum Present: No
Number of Sampled Component Spectra: 1
Spectrometers: USB2+H05261
Integration Time (usec): 100000 (USB2+H05261)
Spectra Averaged: 1 (USB2+H05261)
Boxcar Smoothing: 0 (USB2+H05261)
Correct for Electrical Dark: No (USB2+H05261)
Strobe/Lamp Enabled: No (USB2+H05261)
Correct for Detector Non-linearity: No (USB2+H05261)
Correct for Stray Light: No (USB2+H05261)
Number of Pixels in Processed Spectrum: 2048
>>>>>Begin Processed Spectral Data<<<<<
365.73	23.41
365.92	23.41
366.12	23.41
366.32	0.00
366.52	0.00
366.72	0.00
366.91	0.00
367.11	0.00
367.31	0.00
367.51	0.00
367.70	0.00
367.90	0.00
368.10	0.00
368.30	0.00
368.49	0.00
368.69	0.00
368.89	0.00
369.09	0.00
369.28	0.00
369.48	0.00
369.68	0.00
369.87	0.00
370.07	21.06
370.27	72.56
370.47	161.50
370.66	428.32
370.86	533.64
371.06	725.57
371.25	573.43
371.45	475.13
371.65	512.58
371.84	531.30
372.04	465.77
372.24	638.97
372.44	606.20
372.63	622.58
372.83	552.37
373.03	496.19
373.22	531.30
373.42	528.96
373.62	566.41
373.81	655.35
374.01	638.97
374.21	566.41
374.40	528.96
374.60	547.69
374.79	645.99
374.99	634.29
375.19	669.39
375.38	671.73
375.58	697.48
375.78	709.18
375.97	676.41
376.17	805.14
376.37	711.52
376.56	676.41
376.76	767.70
376.95	791.10
377.15	840.25
377.35	882.38
377.54	887.06
377.74	826.21
377.93	807.48
378.13	924.51
378.33	816.85
378.52	739.61
378.72	767.70
378.91	840.25
379.11	772.38
379.31	777.06
379.50	669.39
379.70	821.53
379.89	833.23
380.09	828.55
380.28	800.46
380.48	861.32
380.68	842.59
380.87	805.14
381.07	802.80
381.26	812.17
381.46	678.76
381.65	699.82
381.85	620.24
382.04	587.47
382.24	599.18
382.43	622.58
382.63	528.96
382.83	564.07
383.02	561.73
383.22	585.13
383.41	573.43
383.61	660.03
383.80	678.76
384.00	688.12
384.19	844.93
384.39	786.42
384.58	863.66
384.78	840.25
384.97	784.08
385.17	737.27
385.36	760.67
385.56	784.08
385.75	774.72
385.95	807.48
386.14	755.99
386.34	912.81
386.53	798.12
386.72	847.27
386.92	814.51
387.11	849.61
387.31	858.98
387.50	805.14
387.70	734.93
387.89	763.01
388.09	863.66
388.28	882.38
388.48	772.38
388.67	866.00
388.86	908.13
389.06	1130.48
389.25	1078.99
389.45	1006.43
389.64	983.02
389.84	933.87
390.03	1078.99
390.22	1097.71
390.42	1032.18
390.61	1062.60
390.81	1303.68
391.00	1282.61
391.19	1207.72
391.39	1132.82
391.58	1107.07
391.78	1055.58
391.97	978.34
392.16	854.30
392.36	898.77
392.55	683.44
392.75	657.69
392.94	531.30
393.13	557.05
393.33	692.80
393.52	690.46
393.71	898.77
393.91	866.00
394.10	1006.43
394.29	1046.22
394.49	1179.63
394.68	1259.21
394.88	1303.68
395.07	1249.85
395.26	1224.10
395.46	1170.27
395.65	1151.54
395.84	1064.94
396.04	987.71
396.23	741.95
396.42	688.12
396.62	601.52
396.81	772.38
397.00	1076.65
397.19	973.66
397.39	1228.78
397.58	1387.94
397.77	1476.88
397.97	1495.60
398.16	1397.30
398.35	1596.25
398.55	1582.20
398.74	1701.57
398.93	1706.25
399.12	1650.08
399.32	1572.84
399.51	1593.90
399.70	1732.00
399.90	1722.63
400.09	1600.93
400.28	1692.21
400.47	1629.01
400.67	1811.57
400.86	1860.73
401.05	1818.60
401.24	1919.24
401.44	1877.11
401.63	1935.62
401.82	1851.36
402.01	1949.67
402.21	1893.49
402.40	1825.62
402.59	1762.42
402.78	1846.68
402.97	1736.68
403.17	1937.96
403.36	1832.64
403.55	1933.28
403.74	1989.46
403.93	1956.69
404.13	2064.35
404.32	2235.21
404.51	2303.09
404.70	2139.25
404.89	2017.54
405.09	1888.81
405.28	1891.15
405.47	1781.15
405.66	1820.94
405.85	1802.21
406.05	1760.08
406.24	1830.30
406.43	1818.60
406.62	1923.92
406.81	2054.99
407.00	1881.79
407.20	1830.30
407.39	1879.45
407.58	1949.67
407.77	2040.95
407.96	2019.88
408.15	2026.90
408.34	2069.03
408.54	2019.88
408.73	2172.02
408.92	2094.78
409.11	2012.86
409.30	1952.01
409.49	1867.75
409.68	1785.83
409.87	1767.10
410.07	1888.81
410.26	1888.81
410.45	2125.21
410.64	2005.84
410.83	2122.87
411.02	2188.40
411.21	2307.77
411.40	2326.49
411.59	2087.76
411.78	2136.91
411.98	2078.40
412.17	2157.97
412.36	2188.40
412.55	2188.40
412.74	2190.74
412.93	2193.08
413.12	2211.81
413.31	2289.04
413.50	2321.81
413.69	2324.15
413.88	2239.89
414.07	2176.70
414.26	2214.15
414.45	2319.47
414.64	2279.68
414.83	2282.02
415.02	2317.13
415.22	2380.32
415.41	2354.58
415.60	2335.85
415.79	2293.72
415.98	2490.33
416.17	2499.69
416.36	2597.99
416.55	2291.38
416.74	2363.94
416.93	2260.96
417.12	2272.66
417.31	2204.78
417.50	2464.58
417.69	2579.27
417.88	2448.20
418.07	2359.26
418.26	2359.26
418.45	2326.49
418.64	2464.58
418.83	2480.97
419.02	2583.95
419.21	2523.10
419.39	2438.84
419.58	2328.83
419.77	2214.15
419.96	2455.22
420.15	2555.86
420.34	2548.84
420.53	2640.12
420.72	2750.13
420.91	2731.41
421.10	2663.53
421.29	2635.44
421.48	2504.37
421.67	2700.98
421.86	2544.16
422.05	2340.54
422.24	2083.08
422.43	2244.57
422.61	2450.54
422.80	2633.10
422.99	2530.12
423.18	2509.05
423.37	2476.29
423.56	2518.42
423.75	2539.48
423.94	2438.84
424.13	2338.20
424.32	2338.20
424.50	2403.73
424.69	2319.47
424.88	2445.86
425.07	2338.20
425.26	2480.97
425.45	2279.68
425.64	2382.67
425.83	2279.68
426.01	2565.23
426.20	2464.58
426.39	2551.18
426.58	2230.53
426.77	2193.08
426.96	2069.03
427.15	2106.48
427.33	2333.51
427.52	2382.67
427.71	2368.62
427.90	2361.60
428.09	2366.28
428.28	2375.64
428.46	2359.26
428.65	2321.81
428.84	2258.62
429.03	2321.81
429.22	2181.38
429.40	2150.95
429.59	1813.92
429.78	1797.53
429.97	1844.34
430.16	1820.94
430.34	1790.51
430.53	1727.32
430.72	1692.21
430.91	1968.39
431.10	2228.19
431.28	2586.29
431.47	2825.03
431.66	2775.88
431.85	2572.25
432.03	2483.31
432.22	2387.35
432.41	2408.41
432.60	2574.59
432.79	2705.66
432.97	2754.81
433.16	2670.55
433.35	2525.44
433.54	2277.34
433.72	2218.83
433.91	2286.70
434.10	2459.90
434.28	2626.08
434.47	2813.32
434.66	2754.81
434.85	2689.28
435.03	2874.18
435.22	3742.52
435.41	4816.82
435.59	5249.82
435.78	4491.49
435.97	3763.58
436.16	3197.17
436.34	2979.50
436.53	2803.96
436.72	2810.98
436.90	2736.09
437.09	2738.43
437.28	2691.62
437.46	2775.88
437.65	2771.19
437.84	2637.78
438.02	2462.24
438.21	2394.37
438.40	2434.16
438.58	2670.55
438.77	2722.04
438.96	2768.85
439.14	2888.22
439.33	2918.65
439.52	2979.50
439.70	2829.71
439.89	2967.80
440.08	2731.41
440.26	2794.60
440.45	2979.50
440.63	3110.57
440.82	3229.94
441.01	3166.74
441.19	3080.14
441.38	3110.57
441.57	3281.43
441.75	3178.45
441.94	3148.02
442.12	3290.79
442.31	3258.03
442.50	3201.85
442.68	3382.07
442.87	3197.17
443.05	3148.02
443.24	3255.69
443.43	3290.79
443.61	3199.51
443.80	3419.52
443.98	3112.91
444.17	3206.53
444.35	3440.59
444.54	3485.06
444.73	3314.20
444.91	3389.10
445.10	3187.81
445.28	3068.44
445.47	3103.55
445.65	2988.86
445.84	2942.05
446.02	3176.11
446.21	3206.53
446.39	3143.34
446.58	3290.79
446.77	3356.33
446.95	3487.40
447.14	3478.04
447.32	3391.44
447.51	3384.41
447.69	3171.43
447.88	3344.63
448.06	3304.84
448.25	3339.94
448.43	3356.33
448.62	3309.52
448.80	3419.52
448.99	3393.78
449.17	3243.98
449.36	3239.30
449.54	3550.59
449.73	3524.85
449.91	3604.42
450.10	3705.07
450.28	3772.94
450.46	3875.93
450.65	3714.43
450.83	3768.26
451.02	3604.42
451.20	3597.40
451.39	3538.89
451.57	3442.93
451.76	3557.61
451.94	3562.30
452.13	3597.40
452.31	3356.33
452.49	3243.98
452.68	3351.65
452.86	3180.79
453.05	3243.98
453.23	3232.28
453.42	3424.20
453.60	3609.11
453.78	3494.42
453.97	3527.19
454.15	3382.07
454.34	3517.83
454.52	3368.03
454.70	3538.89
454.89	3510.80
455.07	3325.90
455.26	3473.36
455.44	3728.47
455.62	3606.77
455.81	3592.72
455.99	3396.12
456.17	3726.13
456.36	3590.38
456.54	3719.11
456.73	3744.86
456.91	3709.75
457.09	3733.15
457.28	3857.20
457.46	3770.60
457.64	3620.81
457.83	3482.72
458.01	3468.67
458.19	3552.93
458.38	3571.66
458.56	3602.08
458.74	3763.58
458.93	3597.40
459.11	3482.72
459.29	3489.74
459.48	3506.12
459.66	3618.47
459.84	3655.92
460.03	3782.31
460.21	3641.87
460.39	3695.71
460.57	3740.18
460.76	3686.34
460.94	3789.33
461.12	3712.09
461.31	3749.54
461.49	3801.03
461.67	3676.98
461.85	3929.76
462.04	3904.01
462.22	4187.22
462.40	3808.05
462.59	3875.93
462.77	3714.43
462.95	3768.26
463.13	3705.07
463.32	3702.73
463.50	3660.60
463.68	3660.60
463.86	3660.60
464.05	3726.13
464.23	3688.68
464.41	3543.57
464.59	3599.74
464.78	3637.19
464.96	3602.08
465.14	3609.11
465.32	3749.54
465.50	3852.52
465.69	3803.37
465.87	3857.20
466.05	3618.47
466.23	3555.27
466.41	3433.57
466.60	3616.13
466.78	3627.83
466.96	3571.66
467.14	3730.81
467.32	3709.75
467.51	3789.33
467.69	3618.47
467.87	3578.68
468.05	3756.56
468.23	3632.51
468.41	3831.46
468.60	3627.83
468.78	3782.31
468.96	3864.22
469.14	3770.60
469.32	3716.77
469.50	3583.36
469.69	3630.17
469.87	3566.98
470.05	3485.06
470.23	3550.59
470.41	3616.13
470.59	3588.04
470.77	3691.02
470.95	3808.05
471.14	3784.65
471.32	3768.26
471.50	3873.59
471.68	3948.48
471.86	3999.98
472.04	3960.19
472.22	3985.93
472.40	3667.62
472.58	3712.09
472.77	3784.65
472.95	3812.73
473.13	3999.98
473.31	3836.14
473.49	3850.18
473.67	3943.80
473.85	3922.74
474.03	3974.23
474.21	4067.85
474.39	4070.19
474.57	4219.99
474.75	4077.21
474.93	3936.78
475.12	3887.63
475.30	3908.69
475.48	3997.64
475.66	4011.68
475.84	3932.10
476.02	3866.56
476.20	3833.80
476.38	3784.65
476.56	4091.26
476.74	4217.65
476.92	4184.88
477.10	4255.09
477.28	4472.76
477.46	4414.25
477.64	4475.10
477.82	4519.57
478.00	4493.83
478.18	4414.25
478.36	4269.14
478.54	4386.16
478.72	4353.40
478.90	4540.64
479.08	4568.73
479.26	4638.94
479.44	4718.52
479.62	4479.79
479.80	4713.84
479.98	4631.92
480.16	4641.28
480.34	4648.30
480.52	4631.92
480.70	4809.80
480.88	4547.66
481.06	4903.42
481.24	4833.21
481.41	5032.15
481.59	4961.94
481.77	5004.07
481.95	4919.81
482.13	5078.96
482.31	4987.68
482.49	4964.28
482.67	4954.91
482.85	5088.32
483.03	5107.05
483.21	5205.35
483.39	5100.03
483.57	5200.67
483.74	5097.69
483.92	5151.52
484.10	5308.34
484.28	5343.44
484.46	5338.76
484.64	5336.42
484.82	5341.10
485.00	4999.38
485.18	5022.79
485.35	5069.60
485.53	4751.29
485.71	4374.46
485.89	4271.48
486.07	4587.45
486.25	4884.70
486.43	5179.61
486.61	5170.24
486.78	5228.76
486.96	5205.35
487.14	5289.61
487.32	5453.45
487.50	5619.63
487.68	5795.17
487.85	5781.12
488.03	5867.72
488.21	5809.21
488.39	5636.01
488.57	5540.05
488.75	5324.72
488.92	5898.15
489.10	5865.38
489.28	6216.46
489.46	6314.77
489.64	6382.64
489.81	6326.47
489.99	6352.21
490.17	6160.29
490.35	6342.85
490.53	6057.31
490.70	6069.01
490.88	6139.23
491.06	6216.46
491.24	6396.68
491.41	6267.95
491.59	5961.34
491.77	5671.12
491.95	5919.21
492.13	6057.31
492.30	6232.85
492.48	6319.45
492.66	6747.76
492.84	6480.94
493.01	6464.56
493.19	6417.75
493.37	6483.28
493.54	6167.31
493.72	6441.15
493.90	6633.08
494.08	6722.02
494.25	6867.13
494.43	6750.10
494.61	6925.65
494.79	7002.88
494.96	6960.75
495.14	6810.96
495.32	6661.16
495.49	6370.94
495.67	6768.83
495.85	6832.02
496.02	7082.46
496.20	7016.93
496.38	6853.09
496.55	6834.36
496.73	7119.91
496.91	6963.09
497.09	7243.96
497.26	7206.51
497.44	7098.84
497.62	6960.75
497.79	6684.57
497.97	6553.50
498.14	6356.90
498.32	6705.63
498.50	6930.33
498.67	7052.03
498.85	6906.92
499.03	7084.80
499.20	7129.27
499.38	7157.36
499.56	7035.65
499.73	7124.59
499.91	6991.18
500.08	6846.07
500.26	6778.19
500.44	6518.39
500.61	6700.95
500.79	6853.09
500.97	6780.53
501.14	6738.40
501.32	6525.41
501.49	6663.51
501.67	6707.98
501.84	6878.83
502.02	6733.72
502.20	6953.73
502.37	6813.30
502.55	6696.27
502.72	6942.03
502.90	7143.32
503.07	6916.28
503.25	6691.59
503.43	6548.82
503.60	6436.47
503.78	6200.08
503.95	6377.96
504.13	6923.30
504.30	6995.86
504.48	6782.87
504.65	6967.77
504.83	7054.37
505.01	7091.82
505.18	7005.22
505.36	7178.42
505.53	7232.26
505.71	7267.36
505.88	7454.61
506.06	7286.09
506.23	7220.55
506.41	6986.50
506.58	7054.37
506.76	7030.97
506.93	7009.90
507.11	6963.09
507.28	7096.50
507.46	6911.60
507.63	6710.32
507.81	6848.41
507.98	6796.92
508.16	7122.25
508.33	7162.04
508.50	7344.60
508.68	7375.03
508.85	7463.97
509.03	7494.40
509.20	7356.30
509.38	7227.57
509.55	7119.91
509.73	7171.40
509.90	7328.22
510.08	7459.29
510.25	7281.41
510.42	7225.23
510.60	7143.32
510.77	7480.35
510.95	7314.17
511.12	7522.48
511.30	7630.15
511.47	7534.18
511.64	7730.79
511.82	7723.77
511.99	7302.47
512.17	7225.23
512.34	7297.79
512.51	7140.97
512.69	7311.83
512.86	7295.45
513.04	7403.11
513.21	7419.50
513.38	7379.71
513.56	7178.42
513.73	7054.37
513.90	7159.70
514.08	7234.60
514.25	7082.46
514.43	7267.36
514.60	7379.71
514.77	7269.70
514.95	7297.79
515.12	7183.10
515.29	7454.61
515.47	7489.71
515.64	7548.23
515.81	7569.29
515.99	7452.27
516.16	6862.45
516.33	6415.41
516.51	6230.51
516.68	5980.07
516.85	5940.28
517.03	5982.41
517.20	6464.56
517.37	6960.75
517.54	7405.46
517.72	7286.09
517.89	6619.04
518.06	6022.20
518.24	6277.32
518.41	6604.99
518.58	7126.93
518.75	6977.14
518.93	7211.19
519.10	7180.76
519.27	6993.52
519.45	7105.87
519.62	7307.15
519.79	7503.76
519.96	7321.20
520.14	7283.75
520.31	7136.29
520.48	7176.08
520.65	7150.34
520.83	7522.48
521.00	7541.21
521.17	7412.48
521.34	7330.56
521.52	7482.69
521.69	7435.88
521.86	7756.54
522.03	7478.01
522.20	7279.07
522.38	7215.87
522.55	7028.63
522.72	7176.08
522.89	7140.97
523.07	7267.36
523.24	7478.01
523.41	7700.36
523.58	7616.10
523.75	7754.19
523.92	7712.07
524.10	7665.25
524.27	7875.90
524.44	7506.10
524.61	7499.08
524.78	7606.74
524.96	7557.59
525.13	7431.20
525.30	7723.77
525.47	7726.11
525.64	7573.97
525.81	7368.01
525.98	7215.87
526.16	6726.70
526.33	6630.74
526.50	6555.84
526.67	6703.29
526.84	6602.65
527.01	6841.39
527.18	7052.03
527.36	7206.51
527.53	7323.54
527.70	7644.19
527.87	7356.30
528.04	7321.20
528.21	7419.50
528.38	7529.50
528.55	7920.37
528.72	7878.24
528.89	7943.78
529.07	7702.70
529.24	7824.41
529.41	7503.76
529.58	7398.43
529.75	7260.34
529.92	7157.36
530.09	7569.29
530.26	7777.60
530.43	7803.35
530.60	7808.03
530.77	7915.69
530.94	7761.22
531.11	7826.75
531.28	7812.71
531.46	7672.28
531.63	7786.96
531.80	7581.00
531.97	7581.00
532.14	7274.38
532.31	7103.53
532.48	7052.03
532.65	6977.14
532.82	7206.51
532.99	7487.37
533.16	7618.44
533.33	7630.15
533.50	7606.74
533.67	7578.65
533.84	7501.42
534.01	7543.55
534.18	7466.31
534.35	7426.52
534.52	7426.52
534.69	7475.67
534.86	7822.07
535.03	7683.98
535.20	7950.80
535.37	7920.37
535.54	7796.32
535.71	7709.72
535.88	7873.56
536.05	7805.69
536.22	7599.72
536.38	7522.48
536.55	7342.26
536.72	7400.77
536.89	7288.43
537.06	7592.70
537.23	7688.66
537.40	7868.88
537.57	7847.82
537.74	7763.56
537.91	7852.50
538.08	7676.96
538.25	7868.88
538.42	7922.71
538.59	7840.79
538.75	7672.28
538.92	7590.36
539.09	7726.11
539.26	7452.27
539.43	7489.71
539.60	7798.66
539.77	8016.33
539.94	7822.07
540.11	7674.62
540.28	7770.58
540.44	7878.24
540.61	7768.24
540.78	8140.38
540.95	8276.13
541.12	8919.78
541.29	9146.81
541.46	9385.55
541.62	9107.02
541.79	9310.65
541.96	8875.31
542.13	8688.07
542.30	8802.75
542.47	8697.43
542.63	8667.00
542.80	8526.57
542.97	8568.70
543.14	8273.79
543.31	8365.07
543.48	8720.84
543.64	8908.08
543.81	8938.51
543.98	9121.07
544.15	8872.97
544.32	8603.81
544.48	8538.27
544.65	8716.16
544.82	8727.86
544.99	8594.45
545.16	8531.25
545.32	8772.33
545.49	9647.69
545.66	11873.54
545.83	13254.45
546.00	12114.61
546.16	10469.22
546.33	9357.46
546.50	8971.27
546.67	8779.35
546.83	8264.43
547.00	8212.94
547.17	8018.68
547.34	8021.02
547.50	7875.90
547.67	8212.94
547.84	7857.18
548.00	7983.57
548.17	7854.84
548.34	8182.51
548.51	8131.02
548.67	7988.25
548.84	8032.72
549.01	7911.01
549.18	7920.37
549.34	7749.51
549.51	7803.35
549.68	7751.85
549.84	7911.01
550.01	7700.36
550.18	7733.13
550.34	7679.30
550.51	7688.66
550.68	7843.14
550.84	7419.50
551.01	7286.09
551.18	7602.06
551.34	7302.47
551.51	7463.97
551.68	7552.91
551.84	7538.87
552.01	7552.91
552.18	7353.96
552.34	7318.86
552.51	7183.10
552.68	7052.03
552.84	7225.23
553.01	7157.36
553.18	7332.90
553.34	7304.81
553.51	7391.41
553.67	7258.00
553.84	7452.27
554.01	7517.80
554.17	7286.09
554.34	7028.63
554.51	7321.20
554.67	7316.51
554.84	7253.32
555.00	7281.41
555.17	7197.15
555.33	7066.08
555.50	7059.06
555.67	7155.02
555.83	7047.35
556.00	7056.72
556.16	7201.83
556.33	6899.90
556.50	6862.45
556.66	6885.86
556.83	6794.58
556.99	6963.09
557.16	6869.47
557.32	6820.32
557.49	6930.33
557.65	6829.68
557.82	7028.63
557.98	6906.92
558.15	6850.75
558.32	6846.07
558.48	6415.41
558.65	6541.80
558.81	6462.22
558.98	6558.18
559.14	6588.61
559.31	6705.63
559.47	6670.53
559.64	6560.52
559.80	6579.25
559.97	6616.69
560.13	6651.80
560.30	6729.04
560.46	6825.00
560.63	6913.94
560.79	7028.63
560.96	6944.37
561.12	6691.59
561.29	6537.12
561.45	6532.44
561.61	6630.74
561.78	6822.66
561.94	6651.80
562.11	6658.82
562.27	6717.34
562.44	6600.31
562.60	6813.30
562.77	6619.04
562.93	6565.20
563.10	6860.11
563.26	6682.23
563.42	6771.17
563.59	6628.40
563.75	6590.95
563.92	6738.40
564.08	6483.28
564.24	6576.91
564.41	6628.40
564.57	6532.44
564.74	6626.06
564.90	6513.71
565.07	6640.10
565.23	6581.59
565.39	6417.75
565.56	6246.89
565.72	6253.91
565.88	6150.93
566.05	6408.39
566.21	6434.13
566.38	6406.05
566.54	6588.61
566.70	6373.28
566.87	6675.21
567.03	6509.03
567.19	6558.18
567.36	6502.01
567.52	6537.12
567.68	6342.85
567.85	6232.85
568.01	6118.16
568.17	5909.85
568.34	5954.32
568.50	5760.06
568.66	5820.91
568.83	6012.84
568.99	5884.11
569.15	6092.41
569.32	6015.18
569.48	5966.03
569.64	5851.34
569.81	6085.39
569.97	5984.75
570.13	6200.08
570.30	5996.45
570.46	5923.90
570.62	5984.75
570.78	5516.64
570.95	5753.04
571.11	5905.17
571.27	5879.43
571.43	5818.57
571.60	6031.56
571.76	6141.57
571.92	5970.71
572.09	6024.54
572.25	6136.88
572.41	5973.05
572.57	5783.46
572.74	6101.78
572.90	5870.06
573.06	5973.05
573.22	5942.62
573.38	6073.69
573.55	5933.26
573.71	5895.81
573.87	6235.19
574.03	5935.60
574.20	5825.59
574.36	5823.25
574.52	5767.08
574.68	5715.59
574.84	5717.93
575.01	5792.83
575.17	5776.44
575.33	5771.76
575.49	5762.40
575.65	5905.17
575.82	5645.37
575.98	5839.64
576.14	5799.85
576.30	5926.24
576.46	6193.06
576.62	6850.75
576.79	7002.88
576.95	6448.18
577.11	6235.19
577.27	5977.73
577.43	5830.27
577.59	5907.51
577.75	5757.72
577.92	5689.84
578.08	5645.37
578.24	5682.82
578.40	5689.84
578.56	6179.01
578.72	6527.75
578.88	6775.85
579.04	6523.07
579.21	6246.89
579.37	6090.07
579.53	6090.07
579.69	5998.79
579.85	6104.12
580.01	6085.39
580.17	5973.05
580.33	6043.26
580.49	5863.04
580.65	5954.32
580.82	6146.25
580.98	6038.58
581.14	5944.96
581.30	6031.56
581.46	6129.86
581.62	6305.40
581.78	6122.84
581.94	6150.93
582.10	6239.87
582.26	6429.45
582.42	6282.00
582.58	6209.44
582.74	6029.22
582.90	6263.27
583.06	6296.04
583.22	6129.86
583.38	6150.93
583.54	6127.52
583.70	6061.99
583.86	6061.99
584.02	6171.99
584.18	6258.59
584.34	6296.04
584.50	6064.33
584.66	5970.71
584.82	5968.37
584.98	6015.18
585.14	6010.50
585.30	5636.01
585.46	5664.10
585.62	5710.91
585.78	5809.21
585.94	5720.27
586.10	5818.57
586.26	5743.67
586.42	5802.19
586.58	6050.28
586.74	5879.43
586.90	6031.56
587.06	6040.92
587.22	6087.73
587.38	5886.45
587.54	5888.79
587.70	5638.35
587.86	5305.99
588.02	5247.48
588.18	5046.20
588.34	4905.76
588.49	4423.61
588.65	4294.88
588.81	4156.79
588.97	4322.97
589.13	4184.88
589.29	4219.99
589.45	4194.24
589.61	4215.30
589.77	4409.57
589.93	4512.55
590.08	4844.91
590.24	4788.74
590.40	4882.36
590.56	4919.81
590.72	4950.23
590.88	4737.24
591.04	4774.69
591.20	4636.60
591.35	4947.89
591.51	4784.06
591.67	4730.22
591.83	4704.48
591.99	4826.18
592.15	4800.44
592.31	5039.17
592.46	5195.99
592.62	5029.81
592.78	5144.50
592.94	5207.69
593.10	5364.51
593.26	5514.30
593.41	5305.99
593.57	5214.71
593.73	4877.68
593.89	4732.56
594.05	4538.30
594.20	4500.85
594.36	4372.12
594.52	4367.44
594.68	4449.36
594.84	4580.43
594.99	4720.86
595.15	4854.27
595.31	4905.76
595.47	5015.77
595.62	4741.93
595.78	4865.97
595.94	4950.23
596.10	5076.62
596.25	5013.43
596.41	4772.35
596.57	4720.86
596.73	4765.33
596.88	4711.50
597.04	4828.53
597.20	4842.57
597.36	4849.59
597.51	4812.14
