SpectraSuite Data File
++++++++++++++++++++++++++++++++++++
Date: Fri Oct 04 11:44:28 GMT-05:00 2013
User: price-jones
Dark Spectrum Present: No
Reference Spectrum Present: No
Number of Sampled Component Spectra: 1
Spectrometers: USB2+H05261
Integration Time (usec): 100000 (USB2+H05261)
Spectra Averaged: 1 (USB2+H05261)
Boxcar Smoothing: 0 (USB2+H05261)
Correct for Electrical Dark: No (USB2+H05261)
Strobe/Lamp Enabled: No (USB2+H05261)
Correct for Detector Non-linearity: No (USB2+H05261)
Correct for Stray Light: No (USB2+H05261)
Number of Pixels in Processed Spectrum: 2048
>>>>>Begin Processed Spectral Data<<<<<
365.73	86.60
365.92	86.60
366.12	86.60
366.32	0.00
366.52	0.00
366.72	0.00
366.91	0.00
367.11	0.00
367.31	0.00
367.51	0.00
367.70	0.00
367.90	0.00
368.10	0.00
368.30	0.00
368.49	0.00
368.69	0.00
368.89	0.00
369.09	0.00
369.28	18.72
369.48	0.00
369.68	0.00
369.87	16.38
370.07	0.00
370.27	4.68
370.47	86.60
370.66	292.57
370.86	290.23
371.06	411.93
371.25	318.31
371.45	341.72
371.65	306.61
371.84	318.31
372.04	297.25
372.24	285.55
372.44	320.65
372.63	294.91
372.83	348.74
373.03	332.36
373.22	259.80
373.42	351.08
373.62	365.12
373.81	416.62
374.01	372.15
374.21	442.36
374.40	381.51
374.60	315.97
374.79	409.59
374.99	472.79
375.19	430.66
375.38	461.09
375.58	404.91
375.78	468.11
375.97	428.32
376.17	482.15
376.37	421.30
376.56	416.62
376.76	482.15
376.95	543.00
377.15	507.90
377.35	482.15
377.54	482.15
377.74	543.00
377.93	514.92
378.13	568.75
378.33	531.30
378.52	435.34
378.72	484.49
378.91	409.59
379.11	381.51
379.31	482.15
379.50	435.34
379.70	451.72
379.89	454.06
380.09	505.56
380.28	440.02
380.48	582.79
380.68	519.60
380.87	451.72
381.07	543.00
381.26	524.28
381.46	437.68
381.65	435.34
381.85	444.70
382.04	390.87
382.24	430.66
382.43	388.53
382.63	379.17
382.83	428.32
383.02	379.17
383.22	327.68
383.41	327.68
383.61	358.10
383.80	416.62
384.00	411.93
384.19	468.11
384.39	517.26
384.58	482.15
384.78	564.07
384.97	489.17
385.17	461.09
385.36	514.92
385.56	491.51
385.75	479.81
385.95	503.22
386.14	538.32
386.34	479.81
386.53	531.30
386.72	470.45
386.92	571.09
387.11	554.71
387.31	575.77
387.50	582.79
387.70	503.22
387.89	568.75
388.09	528.96
388.28	550.03
388.48	468.11
388.67	664.71
388.86	622.58
389.06	613.22
389.25	634.29
389.45	650.67
389.64	674.07
389.84	676.41
390.03	631.94
390.22	587.47
390.42	524.28
390.61	690.46
390.81	723.23
391.00	744.29
391.19	798.12
391.39	725.57
391.58	685.78
391.78	711.52
391.97	655.35
392.16	580.45
392.36	564.07
392.55	526.62
392.75	355.76
392.94	325.33
393.13	379.17
393.33	383.85
393.52	524.28
393.71	566.41
393.91	613.22
394.10	601.52
394.29	763.01
394.49	671.73
394.68	814.51
394.88	763.01
395.07	835.57
395.26	823.87
395.46	723.23
395.65	709.18
395.84	688.12
396.04	650.67
396.23	489.17
396.42	421.30
396.62	475.13
396.81	428.32
397.00	660.03
397.19	655.35
397.39	830.89
397.58	882.38
397.77	896.43
397.97	936.21
398.16	933.87
398.35	997.07
398.55	976.00
398.74	978.34
398.93	1036.86
399.12	1022.81
399.32	1139.84
399.51	1025.15
399.70	1158.57
399.90	1104.73
400.09	1083.67
400.28	1109.41
400.47	1135.16
400.67	1078.99
400.86	1156.22
401.05	1184.31
401.24	1167.93
401.44	1165.59
401.63	1231.12
401.82	1254.53
402.01	1188.99
402.21	1186.65
402.40	1181.97
402.59	1174.95
402.78	1071.97
402.97	1111.75
403.17	1116.44
403.36	1118.78
403.55	1137.50
403.74	1165.59
403.93	1231.12
404.13	1226.44
404.32	1179.63
404.51	1226.44
404.70	1364.53
404.89	1170.27
405.09	1224.10
405.28	1102.39
405.47	1172.61
405.66	1188.99
405.85	1107.07
406.05	1029.84
406.24	1060.26
406.43	1170.27
406.62	1254.53
406.81	1196.01
407.00	1226.44
407.20	1060.26
407.39	1193.67
407.58	1111.75
407.77	1228.78
407.96	1259.21
408.15	1291.98
408.34	1263.89
408.54	1362.19
408.73	1334.11
408.92	1310.70
409.11	1219.42
409.30	1233.46
409.49	1179.63
409.68	1095.37
409.87	1004.09
410.07	1041.54
410.26	1291.98
410.45	1224.10
410.64	1151.54
410.83	1327.08
411.02	1268.57
411.21	1352.83
411.40	1462.83
411.59	1401.98
411.78	1497.94
411.98	1383.26
412.17	1416.02
412.36	1291.98
412.55	1383.26
412.74	1392.62
412.93	1380.92
413.12	1320.06
413.31	1474.54
413.50	1427.73
413.69	1324.74
413.88	1479.22
414.07	1343.47
414.26	1338.79
414.45	1369.21
414.64	1430.07
414.83	1460.49
415.02	1425.39
415.22	1511.99
415.41	1507.30
415.60	1535.39
415.79	1483.90
415.98	1633.69
416.17	1575.18
416.36	1544.75
416.55	1591.56
416.74	1483.90
416.93	1427.73
417.12	1462.83
417.31	1385.60
417.50	1495.60
417.69	1516.67
417.88	1509.65
418.07	1563.48
418.26	1427.73
418.45	1476.88
418.64	1514.33
418.83	1591.56
419.02	1533.05
419.21	1444.11
419.39	1554.12
419.58	1474.54
419.77	1418.36
419.96	1324.74
420.15	1668.80
420.34	1519.01
420.53	1743.70
420.72	1685.19
420.91	1589.22
421.10	1624.33
421.29	1647.74
421.48	1596.25
421.67	1645.40
421.86	1626.67
422.05	1540.07
422.24	1418.36
422.43	1383.26
422.61	1530.71
422.80	1647.74
422.99	1514.33
423.18	1542.41
423.37	1528.37
423.56	1469.86
423.75	1455.81
423.94	1584.54
424.13	1465.18
424.32	1519.01
424.50	1448.79
424.69	1537.73
424.88	1519.01
425.07	1439.43
425.26	1439.43
425.45	1483.90
425.64	1369.21
425.83	1376.24
426.01	1563.48
426.20	1533.05
426.39	1451.13
426.58	1364.53
426.77	1343.47
426.96	1385.60
427.15	1348.15
427.33	1364.53
427.52	1308.36
427.71	1441.77
427.90	1458.15
428.09	1430.07
428.28	1425.39
428.46	1399.64
428.65	1348.15
428.84	1406.66
429.03	1434.75
429.22	1427.73
429.40	1270.91
429.59	1207.72
429.78	1020.47
429.97	1043.88
430.16	1067.28
430.34	1076.65
430.53	1137.50
430.72	1107.07
430.91	1214.74
431.10	1376.24
431.28	1551.78
431.47	1682.85
431.66	1673.48
431.85	1526.03
432.03	1652.42
432.22	1519.01
432.41	1441.77
432.60	1570.50
432.79	1682.85
432.97	1565.82
433.16	1790.51
433.35	1561.14
433.54	1448.79
433.72	1387.94
433.91	1390.28
434.10	1479.22
434.28	1666.46
434.47	1694.55
434.66	1643.06
434.85	1617.31
435.03	1706.25
435.22	2015.20
435.41	2483.31
435.59	2544.16
435.78	2347.56
435.97	2139.25
436.16	1998.82
436.34	1778.81
436.53	1781.15
436.72	1762.42
436.90	1884.13
437.09	1659.44
437.28	1626.67
437.46	1666.46
437.65	1750.72
437.84	1610.29
438.02	1509.65
438.21	1540.07
438.40	1706.25
438.58	1631.35
438.77	1809.23
438.96	1748.38
439.14	1748.38
439.33	1853.70
439.52	1823.28
439.70	1799.87
439.89	1708.59
440.08	1720.29
440.26	1795.19
440.45	1842.00
440.63	1839.66
440.82	1954.35
441.01	1977.75
441.19	1900.52
441.38	2003.50
441.57	2003.50
441.75	2134.57
441.94	2073.71
442.12	2017.54
442.31	2057.33
442.50	2059.67
442.68	1994.14
442.87	1895.83
443.05	2064.35
443.24	2059.67
443.43	2069.03
443.61	2150.95
443.80	2073.71
443.98	2059.67
444.17	2024.56
444.35	2045.63
444.54	2179.04
444.73	2038.61
444.91	2101.80
445.10	2054.99
445.28	1949.67
445.47	1902.86
445.65	1839.66
445.84	1825.62
446.02	1888.81
446.21	1937.96
446.39	2090.10
446.58	1970.73
446.77	2157.97
446.95	2115.84
447.14	2118.18
447.32	2284.36
447.51	2148.61
447.69	2057.33
447.88	2024.56
448.06	2001.16
448.25	2008.18
448.43	1959.03
448.62	2085.42
448.80	2078.40
448.99	1996.48
449.17	2146.27
449.36	2104.14
449.54	2106.48
449.73	2221.17
449.91	2312.45
450.10	2277.34
450.28	2263.30
450.46	2296.07
450.65	2260.96
450.83	2272.66
451.02	2183.72
451.20	2160.31
451.39	2157.97
451.57	2232.87
451.76	2195.42
451.94	2186.06
452.13	2136.91
452.31	2069.03
452.49	2026.90
452.68	2040.95
452.86	2012.86
453.05	2087.76
453.23	2012.86
453.42	2080.74
453.60	2150.95
453.78	2143.93
453.97	2221.17
454.15	2134.57
454.34	1980.09
454.52	2150.95
454.70	2160.31
454.89	2195.42
455.07	2019.88
455.26	2183.72
455.44	2167.34
455.62	2284.36
455.81	2319.47
455.99	2293.72
456.17	2326.49
456.36	2246.91
456.54	2293.72
456.73	2310.11
456.91	2399.05
457.09	2420.11
457.28	2473.95
457.46	2246.91
457.64	2204.78
457.83	2172.02
458.01	2160.31
458.19	2338.20
458.38	2265.64
458.56	2317.13
458.74	2317.13
458.93	2260.96
459.11	2272.66
459.29	2225.85
459.48	2146.27
459.66	2176.70
459.84	2445.86
460.03	2382.67
460.21	2310.11
460.39	2284.36
460.57	2429.48
460.76	2347.56
460.94	2448.20
461.12	2380.32
461.31	2396.71
461.49	2345.22
461.67	2321.81
461.85	2431.82
462.04	2331.17
462.22	2801.62
462.40	2450.54
462.59	2399.05
462.77	2448.20
462.95	2462.24
463.13	2385.01
463.32	2232.87
463.50	2401.39
463.68	2340.54
463.86	2289.04
464.05	2422.45
464.23	2424.80
464.41	2310.11
464.59	2190.74
464.78	2284.36
464.96	2317.13
465.14	2317.13
465.32	2225.85
465.50	2363.94
465.69	2331.17
465.87	2347.56
466.05	2354.58
466.23	2160.31
466.41	2085.42
466.60	2275.00
466.78	2279.68
466.96	2263.30
467.14	2253.94
467.32	2354.58
467.51	2267.98
467.69	2251.60
467.87	2256.28
468.05	2263.30
468.23	2321.81
468.41	2256.28
468.60	2293.72
468.78	2310.11
468.96	2275.00
469.14	2370.96
469.32	2331.17
469.50	2228.19
469.69	2403.73
469.87	2230.53
470.05	2174.36
470.23	2211.81
470.41	2197.76
470.59	2263.30
470.77	2223.51
470.95	2289.04
471.14	2373.30
471.32	2349.90
471.50	2504.37
471.68	2520.76
471.86	2509.05
472.04	2396.71
472.22	2548.84
472.40	2408.41
472.58	2399.05
472.77	2298.41
472.95	2370.96
473.13	2427.14
473.31	2457.56
473.49	2438.84
473.67	2492.67
473.85	2380.32
474.03	2534.80
474.21	2506.71
474.39	2621.40
474.57	2586.29
474.75	2609.70
474.93	2635.44
475.12	2541.82
475.30	2546.50
475.48	2427.14
475.66	2523.10
475.84	2473.95
476.02	2462.24
476.20	2361.60
476.38	2661.19
476.56	2565.23
476.74	2635.44
476.92	2569.91
477.10	2569.91
477.28	2588.63
477.46	2726.72
477.64	2583.95
477.82	2766.51
478.00	2703.32
478.18	2675.23
478.36	2663.53
478.54	2808.64
478.72	2588.63
478.90	2780.56
479.08	2832.05
479.26	2991.20
479.44	2998.23
479.62	2939.71
479.80	2895.24
479.98	2963.12
480.16	2932.69
480.34	2916.31
480.52	2953.76
480.70	2892.90
480.88	2860.13
481.06	2977.16
481.24	3042.70
481.41	3126.96
481.59	3119.93
481.77	3056.74
481.95	3077.80
482.13	2988.86
482.31	3042.70
482.49	3056.74
482.67	3187.81
482.85	3138.66
483.03	3222.92
483.21	3220.58
483.39	3267.39
483.57	3119.93
483.74	3199.51
483.92	3215.90
484.10	3206.53
484.28	3246.32
484.46	3372.71
484.64	3213.56
484.82	3255.69
485.00	3141.00
485.18	3211.22
485.35	3194.83
485.53	2899.92
485.71	2679.91
485.89	2590.97
486.07	2715.02
486.25	3023.97
486.43	3145.68
486.61	3293.13
486.78	3225.26
486.96	3112.91
487.14	3339.94
487.32	3398.46
487.50	3316.54
487.68	3534.21
487.85	3494.42
488.03	3548.25
488.21	3487.40
488.39	3468.67
488.57	3410.16
488.75	3262.71
488.92	3660.60
489.10	3749.54
489.28	3847.84
489.46	3990.61
489.64	3861.88
489.81	3957.85
489.99	3840.82
490.17	3878.27
490.35	3969.55
490.53	3946.14
490.70	3934.44
490.88	3833.80
491.06	3948.48
491.24	3861.88
491.41	3815.07
491.59	3646.55
491.77	3574.00
491.95	3693.37
492.13	3737.84
492.30	3810.39
492.48	3786.99
492.66	3969.55
492.84	3964.87
493.01	4161.47
493.19	4042.11
493.37	4018.70
493.54	3894.65
493.72	4109.98
493.90	3943.80
494.08	4084.23
494.25	4217.65
494.43	4360.42
494.61	4346.37
494.79	4266.80
494.96	4276.16
495.14	4348.72
495.32	4051.47
495.49	4046.79
495.67	4065.51
495.85	4238.71
496.02	4327.65
496.20	4287.86
496.38	4227.01
496.55	4138.07
496.73	4381.48
496.91	4311.27
497.09	4517.23
497.26	4447.02
497.44	4252.75
497.62	4313.61
497.79	4241.05
497.97	4231.69
498.14	3955.51
498.32	4053.81
498.50	4187.22
498.67	4409.57
498.85	4383.82
499.03	4320.63
499.20	4442.34
499.38	4503.19
499.56	4308.93
499.73	4269.14
499.91	4322.97
500.08	4250.41
500.26	4100.62
500.44	4308.93
500.61	4229.35
500.79	4353.40
500.97	4198.92
501.14	4198.92
501.32	4187.22
501.49	4119.34
501.67	4173.18
501.84	4138.07
502.02	4248.07
502.20	4367.44
502.37	4484.47
502.55	4292.54
502.72	4456.38
502.90	4418.93
503.07	4379.14
503.25	4252.75
503.43	4021.04
503.60	3911.04
503.78	3861.88
503.95	3913.38
504.13	4208.28
504.30	4215.30
504.48	4318.29
504.65	4388.50
504.83	4327.65
505.01	4369.78
505.18	4432.97
505.36	4510.21
505.53	4472.76
505.71	4510.21
505.88	4615.54
506.06	4465.74
506.23	4400.21
506.41	4381.48
506.58	4348.72
506.76	4470.42
506.93	4358.08
507.11	4423.61
507.28	4566.39
507.46	4369.78
507.63	4271.48
507.81	4381.48
507.98	4229.35
508.16	4390.84
508.33	4308.93
508.50	4636.60
508.68	4526.60
508.85	4737.24
509.03	4575.75
509.20	4580.43
509.38	4580.43
509.55	4269.14
509.73	4407.23
509.90	4568.73
510.08	4575.75
510.25	4751.29
510.42	4365.10
510.60	4552.34
510.77	4615.54
510.95	4613.20
511.12	4594.47
511.30	4688.09
511.47	4926.83
511.64	4917.47
511.82	4830.87
511.99	4629.58
512.17	4486.81
512.34	4418.93
512.51	4442.34
512.69	4603.83
512.86	4479.79
513.04	4528.94
513.21	4587.45
513.38	4512.55
513.56	4475.10
513.73	4311.27
513.90	4449.36
514.08	4442.34
514.25	4599.15
514.43	4498.51
514.60	4573.41
514.77	4657.67
514.95	4734.90
515.12	4468.08
515.29	4655.33
515.47	4730.22
515.64	4734.90
515.81	4748.95
515.99	4674.05
516.16	4292.54
516.33	3995.29
516.51	3805.71
516.68	3866.56
516.85	3641.87
517.03	3772.94
517.20	4135.73
517.37	4423.61
517.54	4587.45
517.72	4709.16
517.89	4341.69
518.06	3918.06
518.24	3957.85
518.41	4187.22
518.58	4269.14
518.75	4372.12
518.93	4386.16
519.10	4411.91
519.27	4542.98
519.45	4493.83
519.62	4575.75
519.79	4753.63
519.96	4683.41
520.14	4720.86
520.31	4482.13
520.48	4393.19
520.65	4606.17
520.83	4650.64
521.00	4746.61
521.17	4622.56
521.34	4674.05
521.52	4638.94
521.69	4807.46
521.86	4896.40
522.03	4887.04
522.20	4681.07
522.38	4395.53
522.55	4383.82
522.72	4566.39
522.89	4503.19
523.07	4613.20
523.24	4720.86
523.41	4601.49
523.58	4739.58
523.75	4772.35
523.92	4957.25
524.10	4730.22
524.27	4753.63
524.44	4912.78
524.61	4854.27
524.78	4704.48
524.96	4716.18
525.13	4812.14
525.30	4734.90
525.47	4910.44
525.64	4826.18
525.81	4650.64
525.98	4624.90
526.16	4351.06
526.33	4133.39
526.50	4133.39
526.67	4025.72
526.84	4262.12
527.01	4271.48
527.18	4395.53
527.36	4430.63
527.53	4674.05
527.70	4681.07
527.87	4674.05
528.04	4727.88
528.21	4734.90
528.38	4903.42
528.55	5097.69
528.72	4877.68
528.89	4983.00
529.07	4947.89
529.24	4784.06
529.41	4882.36
529.58	4697.46
529.75	4652.98
529.92	4568.73
530.09	4830.87
530.26	4793.42
530.43	4863.63
530.60	4959.60
530.77	4952.57
530.94	5018.11
531.11	4807.46
531.28	4753.63
531.46	4816.82
531.63	4840.23
531.80	4823.84
531.97	4744.27
532.14	4713.84
532.31	4500.85
532.48	4402.55
532.65	4320.63
532.82	4514.89
532.99	4746.61
533.16	4704.48
533.33	4753.63
533.50	4905.76
533.67	4847.25
533.84	4674.05
534.01	4770.01
534.18	4667.03
534.35	4688.09
534.52	4664.69
534.69	4748.95
534.86	4844.91
535.03	4786.40
535.20	4933.85
535.37	4959.60
535.54	4947.89
535.71	4978.32
535.88	4819.16
536.05	4704.48
536.22	4812.14
536.38	4716.18
536.55	4533.62
536.72	4451.70
536.89	4381.48
537.06	4652.98
537.23	4784.06
537.40	4868.31
537.57	4758.31
537.74	4809.80
537.91	4891.72
538.08	4800.44
538.25	4849.59
538.42	4884.70
538.59	4795.76
538.75	4802.78
538.92	4692.77
539.09	4858.95
539.26	4664.69
539.43	4634.26
539.60	4692.77
539.77	4732.56
539.94	4922.15
540.11	4741.93
540.28	4620.22
540.44	4751.29
540.61	4664.69
540.78	4821.50
540.95	5011.09
541.12	5266.21
541.29	5130.45
541.46	5149.18
541.62	5289.61
541.79	5240.46
541.96	5188.97
542.13	5146.84
542.30	5219.39
542.47	5203.01
542.63	5109.39
542.80	5097.69
542.97	5036.83
543.14	5022.79
543.31	5055.56
543.48	4983.00
543.64	5191.31
543.81	5203.01
543.98	5142.16
544.15	5100.03
544.32	5163.22
544.48	5001.72
544.65	5018.11
544.82	5205.35
544.99	5034.49
545.16	5064.92
545.32	5116.41
545.49	5696.86
545.66	6150.93
545.83	6729.04
546.00	6459.88
546.16	5699.20
546.33	5387.91
546.50	5097.69
546.67	5111.73
546.83	5020.45
547.00	5102.37
547.17	4863.63
547.34	4788.74
547.50	4826.18
547.67	4821.50
547.84	4755.97
548.00	4875.34
548.17	4983.00
548.34	4903.42
548.51	4814.48
548.67	4931.51
548.84	4919.81
549.01	4725.54
549.18	4676.39
549.34	4884.70
549.51	4894.06
549.68	4746.61
549.84	4727.88
550.01	4734.90
550.18	4821.50
550.34	4725.54
550.51	4652.98
550.68	4634.26
550.84	4528.94
551.01	4601.49
551.18	4491.49
551.34	4699.80
551.51	4746.61
551.68	4875.34
551.84	4793.42
552.01	4767.67
552.18	4638.94
552.34	4545.32
552.51	4526.60
552.68	4421.27
552.84	4407.23
553.01	4622.56
553.18	4463.40
553.34	4573.41
553.51	4550.00
553.67	4463.40
553.84	4690.43
554.01	4770.01
554.17	4559.36
554.34	4456.38
554.51	4552.34
554.67	4657.67
554.84	4641.28
555.00	4711.50
555.17	4507.87
555.33	4596.81
555.50	4542.98
555.67	4681.07
555.83	4435.32
556.00	4362.76
556.16	4631.92
556.33	4393.19
556.50	4334.67
556.66	4339.35
556.83	4227.01
556.99	4184.88
557.16	4318.29
557.32	4322.97
557.49	4449.36
557.65	4435.32
557.82	4400.21
557.98	4360.42
558.15	4416.59
558.32	4161.47
558.48	4002.32
558.65	4091.26
558.81	4124.02
558.98	4189.56
559.14	4215.30
559.31	4196.58
559.47	4250.41
559.64	4102.96
559.80	4229.35
559.97	4229.35
560.13	4262.12
560.30	4299.56
560.46	4447.02
560.63	4454.04
560.79	4344.03
560.96	4297.22
561.12	4339.35
561.29	4126.36
561.45	4177.86
561.61	4098.28
561.78	4320.63
561.94	4430.63
562.11	4257.43
562.27	4154.45
562.44	4210.62
562.60	4081.89
562.77	4264.46
562.93	4224.67
563.10	4250.41
563.26	4273.82
563.42	4227.01
563.59	4140.41
563.75	4231.69
563.92	4177.86
564.08	4276.16
564.24	4117.00
564.41	4231.69
564.57	4058.49
564.74	4112.32
564.90	4163.81
565.07	4161.47
565.23	4074.87
565.39	4093.60
565.56	3976.57
565.72	4002.32
565.88	3815.07
566.05	4009.34
566.21	4009.34
566.38	4138.07
566.54	4095.94
566.70	4201.26
566.87	4095.94
567.03	4159.13
567.19	4217.65
567.36	4088.92
567.52	4145.09
567.68	3946.14
567.85	4016.36
568.01	3784.65
568.17	3882.95
568.34	3826.78
568.50	3833.80
568.66	3812.73
568.83	3824.44
568.99	3777.62
569.15	3873.59
569.32	3896.99
569.48	3857.20
569.64	3761.24
569.81	3817.41
569.97	3674.64
570.13	3803.37
570.30	3904.01
570.46	3702.73
570.62	3693.37
570.78	3618.47
570.95	3632.51
571.11	3833.80
571.27	3829.12
571.43	3707.41
571.60	3822.09
571.76	3817.41
571.92	3836.14
572.09	3866.56
572.25	3744.86
572.41	3871.25
572.57	3918.06
572.74	3761.24
572.90	3861.88
573.06	3911.04
573.22	3955.51
573.38	3845.50
573.55	3803.37
573.71	3997.64
573.87	3840.82
574.03	3803.37
574.20	3763.58
574.36	3702.73
574.52	3737.84
574.68	3688.68
574.84	3768.26
575.01	3784.65
575.17	3609.11
575.33	3534.21
575.49	3684.00
575.65	3726.13
575.82	3581.02
575.98	3648.90
576.14	3726.13
576.30	3815.07
576.46	4023.38
576.62	4021.04
576.79	4203.60
576.95	3964.87
577.11	3786.99
577.27	3740.18
577.43	3852.52
577.59	3688.68
577.75	3637.19
577.92	3707.41
578.08	3644.21
578.24	3478.04
578.40	3623.15
578.56	3911.04
578.72	4004.66
578.88	4023.38
579.04	3873.59
579.21	3901.67
579.37	3817.41
579.53	3775.28
579.69	3765.92
579.85	3747.20
580.01	3852.52
580.17	3775.28
580.33	3843.16
580.49	3768.26
580.65	3721.45
580.82	3866.56
580.98	3796.35
581.14	3660.60
581.30	3943.80
581.46	3794.01
581.62	3887.63
581.78	3763.58
581.94	3957.85
582.10	3726.13
582.26	3901.67
582.42	3843.16
582.58	3936.78
582.74	3854.86
582.90	3953.16
583.06	3929.76
583.22	3852.52
583.38	3864.22
583.54	3857.20
583.70	3857.20
583.86	3906.35
584.02	3679.32
584.18	3845.50
584.34	3763.58
584.50	3815.07
584.66	3761.24
584.82	3744.86
584.98	3662.94
585.14	3634.85
585.30	3803.37
585.46	3550.59
585.62	3655.92
585.78	3641.87
585.94	3613.79
586.10	3583.36
586.26	3644.21
586.42	3700.39
586.58	3644.21
586.74	3885.29
586.90	3714.43
587.06	3782.31
587.22	3772.94
587.38	3700.39
587.54	3510.80
587.70	3527.19
587.86	3391.44
588.02	3272.07
588.18	3337.60
588.34	3126.96
588.49	2864.82
588.65	2729.06
588.81	2647.15
588.97	2710.34
589.13	2590.97
589.29	2724.38
589.45	2682.25
589.61	2738.43
589.77	2843.75
589.93	2937.37
590.08	2951.42
590.24	3073.12
590.40	3009.93
590.56	3066.10
590.72	3009.93
590.88	3014.61
591.04	3021.63
591.20	2974.82
591.35	3045.04
591.51	3026.31
591.67	2843.75
591.83	3023.97
591.99	2895.24
592.15	3014.61
592.31	3070.78
592.46	3316.54
592.62	3185.47
592.78	3279.09
592.94	3166.74
593.10	3258.03
593.26	3323.56
593.41	3288.45
593.57	3225.26
593.73	3148.02
593.89	3059.08
594.05	2846.09
594.20	2829.71
594.36	2834.39
594.52	2750.13
594.68	2864.82
594.84	3038.02
594.99	3021.63
595.15	3091.85
595.31	3026.31
595.47	3117.59
595.62	2881.20
595.78	3136.32
595.94	3211.22
596.10	3283.77
596.25	3246.32
596.41	3084.83
596.57	3061.42
596.73	3042.70
596.88	3056.74
597.04	3164.40
597.20	3098.87
597.36	3000.57
597.51	3101.21
597.67	3035.67
597.83	3068.44
597.99	3143.34
