SpectraSuite Data File
++++++++++++++++++++++++++++++++++++
Date: Fri Oct 04 11:44:27 GMT-05:00 2013
User: price-jones
Dark Spectrum Present: No
Reference Spectrum Present: No
Number of Sampled Component Spectra: 1
Spectrometers: USB2+H05261
Integration Time (usec): 100000 (USB2+H05261)
Spectra Averaged: 1 (USB2+H05261)
Boxcar Smoothing: 0 (USB2+H05261)
Correct for Electrical Dark: No (USB2+H05261)
Strobe/Lamp Enabled: No (USB2+H05261)
Correct for Detector Non-linearity: No (USB2+H05261)
Correct for Stray Light: No (USB2+H05261)
Number of Pixels in Processed Spectrum: 2048
>>>>>Begin Processed Spectral Data<<<<<
365.73	60.85
365.92	60.85
366.12	60.85
366.32	0.00
366.52	0.00
366.72	0.00
366.91	0.00
367.11	0.00
367.31	0.00
367.51	0.00
367.70	0.00
367.90	0.00
368.10	0.00
368.30	0.00
368.49	0.00
368.69	0.00
368.89	0.00
369.09	0.00
369.28	0.00
369.48	0.00
369.68	0.00
369.87	28.09
370.07	0.00
370.27	49.15
370.47	0.00
370.66	297.25
370.86	411.93
371.06	484.49
371.25	491.51
371.45	337.04
371.65	372.15
371.84	365.12
372.04	407.25
372.24	433.00
372.44	388.53
372.63	437.68
372.83	498.53
373.03	407.25
373.22	280.86
373.42	397.89
373.62	395.55
373.81	472.79
374.01	442.36
374.21	449.38
374.40	435.34
374.60	407.25
374.79	433.00
374.99	552.37
375.19	470.45
375.38	559.39
375.58	498.53
375.78	505.56
375.97	517.26
376.17	526.62
376.37	463.43
376.56	489.17
376.76	545.34
376.95	550.03
377.15	601.52
377.35	608.54
377.54	664.71
377.74	660.03
377.93	737.27
378.13	606.20
378.33	674.07
378.52	566.41
378.72	599.18
378.91	671.73
379.11	491.51
379.31	533.64
379.50	528.96
379.70	531.30
379.89	596.84
380.09	557.05
380.28	615.56
380.48	648.33
380.68	650.67
380.87	681.10
381.07	507.90
381.26	587.47
381.46	533.64
381.65	489.17
381.85	447.04
382.04	482.15
382.24	418.96
382.43	433.00
382.63	449.38
382.83	411.93
383.02	414.27
383.22	416.62
383.41	425.98
383.61	479.81
383.80	437.68
384.00	566.41
384.19	589.82
384.39	650.67
384.58	638.97
384.78	634.29
384.97	571.09
385.17	573.43
385.36	615.56
385.56	519.60
385.75	543.00
385.95	660.03
386.14	676.41
386.34	641.31
386.53	636.63
386.72	657.69
386.92	643.65
387.11	688.12
387.31	690.46
387.50	653.01
387.70	578.11
387.89	624.92
388.09	578.11
388.28	594.50
388.48	629.60
388.67	711.52
388.86	812.17
389.06	755.99
389.25	713.86
389.45	788.76
389.64	786.42
389.84	807.48
390.03	751.31
390.22	720.88
390.42	763.01
390.61	821.53
390.81	744.29
391.00	816.85
391.19	870.68
391.39	870.68
391.58	821.53
391.78	746.63
391.97	755.99
392.16	617.90
392.36	702.16
392.55	545.34
392.75	414.27
392.94	414.27
393.13	433.00
393.33	491.51
393.52	580.45
393.71	617.90
393.91	662.37
394.10	713.86
394.29	774.72
394.49	884.72
394.68	938.55
394.88	976.00
395.07	1015.79
395.26	997.07
395.46	999.41
395.65	905.79
395.84	875.36
396.04	823.87
396.23	594.50
396.42	486.83
396.62	449.38
396.81	575.77
397.00	655.35
397.19	767.70
397.39	924.51
397.58	1048.56
397.77	1029.84
397.97	1125.80
398.16	1107.07
398.35	1146.86
398.55	1203.04
398.74	1151.54
398.93	1247.51
399.12	1240.48
399.32	1247.51
399.51	1214.74
399.70	1385.60
399.90	1249.85
400.09	1291.98
400.28	1196.01
400.47	1294.32
400.67	1373.89
400.86	1378.58
401.05	1350.49
401.24	1275.59
401.44	1385.60
401.63	1338.79
401.82	1413.68
402.01	1352.83
402.21	1519.01
402.40	1399.64
402.59	1427.73
402.78	1231.12
402.97	1254.53
403.17	1350.49
403.36	1399.64
403.55	1533.05
403.74	1460.49
403.93	1439.43
404.13	1467.52
404.32	1420.71
404.51	1291.98
404.70	1420.71
404.89	1352.83
405.09	1493.26
405.28	1387.94
405.47	1451.13
405.66	1366.87
405.85	1401.98
406.05	1383.26
406.24	1277.93
406.43	1376.24
406.62	1451.13
406.81	1483.90
407.00	1306.02
407.20	1458.15
407.39	1348.15
407.58	1352.83
407.77	1504.96
407.96	1530.71
408.15	1486.24
408.34	1568.16
408.54	1481.56
408.73	1586.88
408.92	1584.54
409.11	1589.22
409.30	1490.92
409.49	1430.07
409.68	1266.23
409.87	1291.98
410.07	1350.49
410.26	1385.60
410.45	1460.49
410.64	1575.18
410.83	1645.40
411.02	1682.85
411.21	1696.89
411.40	1652.42
411.59	1579.86
411.78	1680.50
411.98	1661.78
412.17	1584.54
412.36	1640.72
412.55	1739.02
412.74	1528.37
412.93	1706.25
413.12	1621.99
413.31	1886.47
413.50	1732.00
413.69	1774.13
413.88	1776.47
414.07	1776.47
414.26	1764.76
414.45	1741.36
414.64	1687.53
414.83	1720.29
415.02	1647.74
415.22	1671.14
415.41	1799.87
415.60	1764.76
415.79	1963.71
415.98	1909.88
416.17	1860.73
416.36	1949.67
416.55	1823.28
416.74	1863.07
416.93	1673.48
417.12	1736.68
417.31	1671.14
417.50	1891.15
417.69	1994.14
417.88	1921.58
418.07	1762.42
418.26	1769.44
418.45	1771.79
418.64	1893.49
418.83	1928.60
419.02	1956.69
419.21	1898.17
419.39	1783.49
419.58	1671.14
419.77	1701.57
419.96	1799.87
420.15	1949.67
420.34	1959.03
420.53	2062.01
420.72	2111.16
420.91	2033.93
421.10	2029.24
421.29	2019.88
421.48	1884.13
421.67	2047.97
421.86	2019.88
422.05	1886.47
422.24	1832.64
422.43	1717.95
422.61	1703.91
422.80	1966.05
422.99	2026.90
423.18	1989.46
423.37	1949.67
423.56	1809.23
423.75	1818.60
423.94	1853.70
424.13	1858.39
424.32	1839.66
424.50	1790.51
424.69	1870.09
424.88	1813.92
425.07	1806.89
425.26	1708.59
425.45	1856.04
425.64	1767.10
425.83	1720.29
426.01	1823.28
426.20	1811.57
426.39	1863.07
426.58	1774.13
426.77	1703.91
426.96	1671.14
427.15	1614.97
427.33	1720.29
427.52	1886.47
427.71	1764.76
427.90	1717.95
428.09	1767.10
428.28	1757.74
428.46	1607.95
428.65	1647.74
428.84	1771.79
429.03	1816.26
429.22	1654.76
429.40	1636.03
429.59	1516.67
429.78	1242.82
429.97	1289.64
430.16	1352.83
430.34	1423.05
430.53	1362.19
430.72	1324.74
430.91	1593.90
431.10	1680.50
431.28	1966.05
431.47	2050.31
431.66	2083.08
431.85	2085.42
432.03	1816.26
432.22	1867.75
432.41	1825.62
432.60	2001.16
432.79	1996.48
432.97	2045.63
433.16	2047.97
433.35	1764.76
433.54	1736.68
433.72	1645.40
433.91	1589.22
434.10	1778.81
434.28	2066.69
434.47	2012.86
434.66	2118.18
434.85	2043.29
435.03	1937.96
435.22	2251.60
435.41	2497.35
435.59	2509.05
435.78	2368.62
435.97	2230.53
436.16	2270.32
436.34	2235.21
436.53	2132.23
436.72	2193.08
436.90	2125.21
437.09	2045.63
437.28	1996.48
437.46	2071.37
437.65	2136.91
437.84	2026.90
438.02	1851.36
438.21	1839.66
438.40	1865.41
438.58	1984.77
438.77	2069.03
438.96	2047.97
439.14	2132.23
439.33	2200.10
439.52	2176.70
439.70	2169.68
439.89	2167.34
440.08	2090.10
440.26	2040.95
440.45	2181.38
440.63	2242.23
440.82	2342.88
441.01	2363.94
441.19	2340.54
441.38	2380.32
441.57	2368.62
441.75	2448.20
441.94	2572.25
442.12	2513.74
442.31	2466.92
442.50	2394.37
442.68	2434.16
442.87	2272.66
443.05	2349.90
443.24	2429.48
443.43	2537.14
443.61	2560.55
443.80	2581.61
443.98	2478.63
444.17	2448.20
444.35	2518.42
444.54	2548.84
444.73	2607.36
444.91	2537.14
445.10	2392.03
445.28	2319.47
445.47	2293.72
445.65	2333.51
445.84	2394.37
446.02	2408.41
446.21	2455.22
446.39	2502.03
446.58	2356.92
446.77	2431.82
446.95	2424.80
447.14	2621.40
447.32	2740.77
447.51	2492.67
447.69	2520.76
447.88	2452.88
448.06	2546.50
448.25	2628.42
448.43	2586.29
448.62	2581.61
448.80	2654.17
448.99	2471.61
449.17	2616.72
449.36	2586.29
449.54	2602.68
449.73	2700.98
449.91	2818.00
450.10	2703.32
450.28	2810.98
450.46	2829.71
450.65	2899.92
450.83	2750.13
451.02	2731.41
451.20	2712.68
451.39	2689.28
451.57	2722.04
451.76	2670.55
451.94	2647.15
452.13	2654.17
452.31	2576.93
452.49	2284.36
452.68	2373.30
452.86	2462.24
453.05	2516.08
453.23	2532.46
453.42	2621.40
453.60	2614.38
453.78	2691.62
453.97	2663.53
454.15	2605.02
454.34	2551.18
454.52	2523.10
454.70	2586.29
454.89	2497.35
455.07	2588.63
455.26	2555.86
455.44	2712.68
455.62	2853.11
455.81	2836.73
455.99	2593.31
456.17	2778.22
456.36	2820.35
456.54	2864.82
456.73	2796.94
456.91	2773.53
457.09	2883.54
457.28	2860.13
457.46	2867.16
457.64	2771.19
457.83	2703.32
458.01	2574.59
458.19	2759.49
458.38	2729.06
458.56	2782.90
458.74	2757.15
458.93	2724.38
459.11	2740.77
459.29	2764.17
459.48	2745.45
459.66	2792.26
459.84	2731.41
460.03	2813.32
460.21	2808.64
460.39	2843.75
460.57	2853.11
460.76	2850.77
460.94	2925.67
461.12	2846.09
461.31	2813.32
461.49	2874.18
461.67	2892.90
461.85	3005.25
462.04	2958.44
462.22	3243.98
462.40	2972.48
462.59	2970.14
462.77	3005.25
462.95	2860.13
463.13	2951.42
463.32	2906.95
463.50	2827.37
463.68	2857.79
463.86	2754.81
464.05	2970.14
464.23	2874.18
464.41	2745.45
464.59	2654.17
464.78	2796.94
464.96	2834.39
465.14	2850.77
465.32	2902.26
465.50	2888.22
465.69	2958.44
465.87	2895.24
466.05	2825.03
466.23	2745.45
466.41	2649.49
466.60	2724.38
466.78	2715.02
466.96	2785.24
467.14	2775.88
467.32	2834.39
467.51	2869.50
467.69	2743.11
467.87	2867.16
468.05	2787.58
468.23	2782.90
468.41	2911.63
468.60	2822.69
468.78	2967.80
468.96	2813.32
469.14	2850.77
469.32	2754.81
469.50	2839.07
469.69	2787.58
469.87	2719.70
470.05	2787.58
470.23	2799.28
470.41	2775.88
470.59	2637.78
470.77	2705.66
470.95	2738.43
471.14	2867.16
471.32	2813.32
471.50	3096.53
471.68	3141.00
471.86	2932.69
472.04	3049.72
472.22	3122.27
472.40	2939.71
472.58	2920.99
472.77	2876.52
472.95	2698.64
473.13	3059.08
473.31	2967.80
473.49	2871.84
473.67	3101.21
473.85	3021.63
474.03	2967.80
474.21	3131.64
474.39	3164.40
474.57	3096.53
474.75	3187.81
474.93	3155.04
475.12	3145.68
475.30	3066.10
475.48	2998.23
475.66	3122.27
475.84	2965.46
476.02	3115.25
476.20	3112.91
476.38	2998.23
476.56	3108.23
476.74	3136.32
476.92	3171.43
477.10	3190.15
477.28	3316.54
477.46	3236.96
477.64	3295.47
477.82	3403.14
478.00	3215.90
478.18	3286.11
478.36	3328.24
478.54	3344.63
478.72	3325.90
478.90	3480.38
479.08	3468.67
479.26	3552.93
479.44	3599.74
479.62	3653.58
479.80	3463.99
479.98	3503.78
480.16	3461.65
480.34	3531.87
480.52	3681.66
480.70	3618.47
480.88	3529.53
481.06	3712.09
481.24	3700.39
481.41	3730.81
481.59	3808.05
481.77	3880.61
481.95	3779.97
482.13	3688.68
482.31	3784.65
482.49	3822.09
482.67	3812.73
482.85	3815.07
483.03	3817.41
483.21	3899.33
483.39	3904.01
483.57	3880.61
483.74	3819.75
483.92	3983.59
484.10	3906.35
484.28	3978.91
484.46	3932.10
484.64	3915.72
484.82	3978.91
485.00	3887.63
485.18	3901.67
485.35	3733.15
485.53	3492.08
485.71	3454.63
485.89	3110.57
486.07	3157.38
486.25	3520.17
486.43	3658.26
486.61	3772.94
486.78	4037.42
486.96	3953.16
487.14	4037.42
487.32	3941.46
487.50	4007.00
487.68	4259.78
487.85	4374.46
488.03	4404.89
488.21	4386.16
488.39	4236.37
488.57	4173.18
488.75	4147.43
488.92	4571.07
489.10	4325.31
489.28	4573.41
489.46	4737.24
489.64	4814.48
489.81	4772.35
489.99	4704.48
490.17	4667.03
490.35	4830.87
490.53	4657.67
490.70	4706.82
490.88	4545.32
491.06	4772.35
491.24	4667.03
491.41	4697.46
491.59	4482.13
491.77	4435.32
491.95	4388.50
492.13	4517.23
492.30	4685.75
492.48	4858.95
492.66	4781.71
492.84	4985.34
493.01	4858.95
493.19	4938.53
493.37	4894.06
493.54	4819.16
493.72	4896.40
493.90	4966.62
494.08	5025.13
494.25	5200.67
494.43	5074.28
494.61	5369.19
494.79	5334.08
494.96	5109.39
495.14	5071.94
495.32	5074.28
495.49	4858.95
495.67	5011.09
495.85	5097.69
496.02	5320.04
496.20	5219.39
496.38	5359.83
496.55	5315.36
496.73	5266.21
496.91	5203.01
497.09	5636.01
497.26	5516.64
497.44	5589.20
497.62	5266.21
497.79	5259.18
497.97	5125.77
498.14	5001.72
498.32	5247.48
498.50	5273.23
498.67	5268.55
498.85	5327.06
499.03	5420.68
499.20	5387.91
499.38	5518.98
499.56	5514.30
499.73	5254.50
499.91	5221.74
500.08	5320.04
500.26	5081.30
500.44	5181.95
500.61	5233.44
500.79	5322.38
500.97	5116.41
501.14	5144.50
501.32	4884.70
501.49	5095.35
501.67	5174.92
501.84	5214.71
502.02	5371.53
502.20	5366.85
502.37	5284.93
502.55	5249.82
502.72	5366.85
502.90	5434.72
503.07	5205.35
503.25	5188.97
503.43	5048.54
503.60	4950.23
503.78	4882.36
503.95	4943.21
504.13	4983.00
504.30	5385.57
504.48	5448.77
504.65	5423.02
504.83	5514.30
505.01	5476.85
505.18	5481.53
505.36	5514.30
505.53	5509.62
505.71	5610.26
505.88	5760.06
506.06	5544.73
506.23	5582.18
506.41	5474.51
506.58	5554.09
506.76	5369.19
506.93	5476.85
507.11	5334.08
507.28	5542.39
507.46	5404.30
507.63	5165.56
507.81	5081.30
507.98	5387.91
508.16	5504.94
508.33	5533.03
508.50	5652.39
508.68	5668.78
508.85	5750.70
509.03	5673.46
509.20	5781.12
509.38	5558.77
509.55	5497.92
509.73	5416.00
509.90	5551.75
510.08	5762.40
510.25	5619.63
510.42	5776.44
510.60	5652.39
510.77	5636.01
510.95	5951.98
511.12	5703.89
511.30	5830.27
511.47	5905.17
511.64	6019.86
511.82	5933.26
511.99	5551.75
512.17	5757.72
512.34	5441.75
512.51	5628.99
512.69	5682.82
512.86	5586.86
513.04	5802.19
513.21	5834.96
513.38	5701.54
513.56	5528.35
513.73	5350.46
513.90	5565.79
514.08	5570.48
514.25	5678.14
514.43	5617.29
514.60	5593.88
514.77	5628.99
514.95	5668.78
515.12	5596.22
515.29	5617.29
515.47	5856.02
515.64	5898.15
515.81	5921.56
515.99	5703.89
516.16	5490.90
516.33	5142.16
516.51	4877.68
516.68	4634.26
516.85	4718.52
517.03	4706.82
517.20	5116.41
517.37	5352.81
517.54	5795.17
517.72	5418.34
517.89	5324.72
518.06	4844.91
518.24	4863.63
518.41	5057.90
518.58	5591.54
518.75	5322.38
518.93	5511.96
519.10	5516.64
519.27	5507.28
519.45	5577.50
519.62	5781.12
519.79	5860.70
519.96	5694.52
520.14	5778.78
520.31	5729.63
520.48	5497.92
520.65	5504.94
520.83	5727.29
521.00	5954.32
521.17	5900.49
521.34	5809.21
521.52	5717.93
521.69	6160.29
521.86	6024.54
522.03	6033.90
522.20	5830.27
522.38	5521.32
522.55	5549.41
522.72	5589.20
522.89	5643.03
523.07	5841.98
523.24	5713.25
523.41	5867.72
523.58	5914.53
523.75	6179.01
523.92	5961.34
524.10	6054.97
524.27	6127.52
524.44	5900.49
524.61	6019.86
524.78	5881.77
524.96	5865.38
525.13	5692.18
525.30	6001.13
525.47	6179.01
525.64	6043.26
525.81	6038.58
525.98	5561.11
526.16	5551.75
526.33	5366.85
526.50	5217.05
526.67	5146.84
526.84	5111.73
527.01	5380.89
527.18	5638.35
527.36	5659.42
527.53	5837.30
527.70	5956.66
527.87	6040.92
528.04	5762.40
528.21	5771.76
528.38	5954.32
528.55	6265.61
528.72	6270.30
528.89	6380.30
529.07	6338.17
529.24	6176.67
529.41	5849.00
529.58	5607.92
529.75	5706.23
529.92	5982.41
530.09	6043.26
530.26	6108.80
530.43	6057.31
530.60	6197.74
530.77	6420.09
530.94	6277.32
531.11	6408.39
531.28	6157.95
531.46	6094.76
531.63	6162.63
531.80	6010.50
531.97	5914.53
532.14	6026.88
532.31	5750.70
532.48	5514.30
532.65	5373.87
532.82	5631.33
532.99	5884.11
533.16	5881.77
533.33	6017.52
533.50	6127.52
533.67	5886.45
533.84	5743.67
534.01	5912.19
534.18	5921.56
534.35	5891.13
534.52	5912.19
534.69	6038.58
534.86	6031.56
535.03	6073.69
535.20	6253.91
535.37	6127.52
535.54	6335.83
535.71	6195.40
535.88	6305.40
536.05	5954.32
536.22	6029.22
536.38	5844.32
536.55	5898.15
536.72	5724.95
536.89	5544.73
537.06	5813.89
537.23	6090.07
537.40	6010.50
537.57	5980.07
537.74	6061.99
537.91	6176.67
538.08	6064.33
538.25	6071.35
538.42	5884.11
538.59	6066.67
538.75	5930.92
538.92	5811.55
539.09	5872.40
539.26	5865.38
539.43	5675.80
539.60	5727.29
539.77	5865.38
539.94	5881.77
540.11	5769.42
540.28	5565.79
540.44	5544.73
540.61	5598.56
540.78	5638.35
540.95	5668.78
541.12	6064.33
541.29	6078.37
541.46	6122.84
541.62	6267.95
541.79	6148.59
541.96	6069.01
542.13	5844.32
542.30	6099.44
542.47	6150.93
542.63	6085.39
542.80	5996.45
542.97	6153.27
543.14	5968.37
543.31	5865.38
543.48	5851.34
543.64	6052.63
543.81	6349.87
543.98	6312.42
544.15	6289.02
544.32	6050.28
544.48	5928.58
544.65	5980.07
544.82	6164.97
544.99	6019.86
545.16	6078.37
545.32	5989.43
545.49	6361.58
545.66	6738.40
545.83	6888.20
546.00	6792.23
546.16	6394.34
546.33	6186.04
546.50	6111.14
546.67	6080.71
546.83	5914.53
547.00	6054.97
547.17	5944.96
547.34	5626.65
547.50	5699.20
547.67	5776.44
547.84	5619.63
548.00	5961.34
548.17	5980.07
548.34	6059.65
548.51	6052.63
548.67	5914.53
548.84	5830.27
549.01	5994.11
549.18	5886.45
549.34	5811.55
549.51	5881.77
549.68	5877.09
549.84	5879.43
550.01	5820.91
550.18	5767.08
550.34	5863.04
550.51	5701.54
550.68	5837.30
550.84	5607.92
551.01	5757.72
551.18	5706.23
551.34	5905.17
551.51	5717.93
551.68	5753.04
551.84	5874.74
552.01	5830.27
552.18	5830.27
552.34	5668.78
552.51	5582.18
552.68	5348.12
552.84	5575.16
553.01	5760.06
553.18	5713.25
553.34	5767.08
553.51	5673.46
553.67	5720.27
553.84	5937.94
554.01	5729.63
554.17	5839.64
554.34	5769.42
554.51	5706.23
554.67	5898.15
554.84	5790.49
555.00	5783.46
555.17	5701.54
555.33	5804.53
555.50	5743.67
555.67	5816.23
555.83	5589.20
556.00	5523.66
556.16	5710.91
556.33	5549.41
556.50	5432.38
556.66	5544.73
556.83	5392.59
556.99	5387.91
557.16	5547.07
557.32	5556.43
557.49	5575.16
557.65	5416.00
557.82	5511.96
557.98	5528.35
558.15	5420.68
558.32	5504.94
558.48	5221.74
558.65	5195.99
558.81	5247.48
558.98	5423.02
559.14	5303.65
559.31	5331.74
559.47	5465.15
559.64	5205.35
559.80	5352.81
559.97	5294.29
560.13	5104.71
560.30	5657.07
560.46	5418.34
560.63	5696.86
560.79	5600.90
560.96	5453.45
561.12	5301.31
561.29	5350.46
561.45	5109.39
561.61	5303.65
561.78	5488.56
561.94	5453.45
562.11	5275.57
562.27	5233.44
562.44	5416.00
562.60	5357.49
562.77	5256.84
562.93	5408.98
563.10	5479.19
563.26	5352.81
563.42	5430.04
563.59	5404.30
563.75	5235.78
563.92	5261.52
564.08	5247.48
564.24	5195.99
564.41	5439.40
564.57	5425.36
564.74	5249.82
564.90	5425.36
565.07	5383.23
565.23	5247.48
565.39	5121.09
565.56	5186.63
565.72	5093.01
565.88	5090.67
566.05	5004.07
566.21	5301.31
566.38	5179.61
566.54	5221.74
566.70	5146.84
566.87	5198.33
567.03	5198.33
567.19	5153.86
567.36	5156.20
567.52	5095.35
567.68	5100.03
567.85	4952.57
568.01	4741.93
568.17	4898.74
568.34	4828.53
568.50	4880.02
568.66	4774.69
568.83	4959.60
568.99	4870.65
569.15	4868.31
569.32	4959.60
569.48	4882.36
569.64	4833.21
569.81	4727.88
569.97	4910.44
570.13	4702.14
570.30	4847.25
570.46	4917.47
570.62	4528.94
570.78	4582.77
570.95	4765.33
571.11	4837.89
571.27	4917.47
571.43	4671.71
571.60	4692.77
571.76	4734.90
571.92	4739.58
572.09	4847.25
572.25	4882.36
572.41	4814.48
572.57	4793.42
572.74	4844.91
572.90	4943.21
573.06	4905.76
573.22	4952.57
573.38	4884.70
573.55	4924.49
573.71	5029.81
573.87	4709.16
574.03	4816.82
574.20	4692.77
574.36	4655.33
574.52	4774.69
574.68	4606.17
574.84	4643.62
575.01	4699.80
575.17	4503.19
575.33	4596.81
575.49	4554.68
575.65	4802.78
575.82	4624.90
575.98	4599.15
576.14	4645.96
576.30	4781.71
576.46	4840.23
576.62	4861.29
576.79	4770.01
576.95	4854.27
577.11	4800.44
577.27	4889.38
577.43	4634.26
577.59	4655.33
577.75	4603.83
577.92	4578.09
578.08	4496.17
578.24	4379.14
578.40	4580.43
578.56	4805.12
578.72	4791.08
578.88	4784.06
579.04	4734.90
579.21	4627.24
579.37	4645.96
579.53	4585.11
579.69	4823.84
579.85	4755.97
580.01	4891.72
580.17	4788.74
580.33	4631.92
580.49	4690.43
580.65	4781.71
580.82	4685.75
580.98	4718.52
581.14	4650.64
581.30	4791.08
581.46	4627.24
581.62	4854.27
581.78	4711.50
581.94	4819.16
582.10	4814.48
582.26	4865.97
582.42	4947.89
582.58	4957.25
582.74	4774.69
582.90	4952.57
583.06	4805.12
583.22	4683.41
583.38	4741.93
583.54	4809.80
583.70	4868.31
583.86	4833.21
584.02	4650.64
584.18	4823.84
584.34	4660.01
584.50	4788.74
584.66	4748.95
584.82	4617.88
584.98	4603.83
585.14	4732.56
585.30	4430.63
585.46	4545.32
585.62	4606.17
585.78	4564.04
585.94	4418.93
586.10	4477.44
586.26	4435.32
586.42	4599.15
586.58	4454.04
586.74	4599.15
586.90	4624.90
587.06	4636.60
587.22	4648.30
587.38	4491.49
587.54	4308.93
587.70	4283.18
587.86	4126.36
588.02	4009.34
588.18	3957.85
588.34	3850.18
588.49	3438.25
588.65	3480.38
588.81	3239.30
588.97	3276.75
589.13	3293.13
589.29	3449.95
589.45	3262.71
589.61	3304.84
589.77	3382.07
589.93	3524.85
590.08	3684.00
590.24	3742.52
590.40	3964.87
590.56	3761.24
590.72	3798.69
590.88	3679.32
591.04	3854.86
591.20	3740.18
591.35	3749.54
591.51	3695.71
591.67	3655.92
591.83	3691.02
591.99	3669.96
592.15	3789.33
592.31	3892.31
592.46	3904.01
592.62	3906.35
592.78	3974.23
592.94	3911.04
593.10	4014.02
593.26	4138.07
593.41	4070.19
593.57	3983.59
593.73	3859.54
593.89	3852.52
594.05	3655.92
594.20	3583.36
594.36	3562.30
594.52	3445.27
594.68	3637.19
594.84	3646.55
594.99	3801.03
595.15	3992.95
595.31	3866.56
595.47	3948.48
595.62	3932.10
595.78	3808.05
595.94	4070.19
596.10	4023.38
596.25	3925.08
596.41	3868.91
596.57	3569.32
596.73	3770.60
596.88	3988.27
597.04	3990.61
597.20	4046.79
597.36	3861.88
597.51	3875.93
597.67	3904.01
597.83	3852.52
