SpectraSuite Data File
++++++++++++++++++++++++++++++++++++
Date: Fri Oct 04 11:44:12 GMT-05:00 2013
User: price-jones
Dark Spectrum Present: No
Reference Spectrum Present: No
Number of Sampled Component Spectra: 1
Spectrometers: USB2+H05261
Integration Time (usec): 100000 (USB2+H05261)
Spectra Averaged: 1 (USB2+H05261)
Boxcar Smoothing: 0 (USB2+H05261)
Correct for Electrical Dark: No (USB2+H05261)
Strobe/Lamp Enabled: No (USB2+H05261)
Correct for Detector Non-linearity: No (USB2+H05261)
Correct for Stray Light: No (USB2+H05261)
Number of Pixels in Processed Spectrum: 2048
>>>>>Begin Processed Spectral Data<<<<<
365.73	37.45
365.92	37.45
366.12	37.45
366.32	0.00
366.52	0.00
366.72	0.00
366.91	0.00
367.11	0.00
367.31	0.00
367.51	0.00
367.70	0.00
367.90	0.00
368.10	0.00
368.30	0.00
368.49	0.00
368.69	0.00
368.89	0.00
369.09	0.00
369.28	21.06
369.48	0.00
369.68	0.00
369.87	0.00
370.07	0.00
370.27	0.00
370.47	100.64
370.66	386.19
370.86	388.53
371.06	493.85
371.25	489.17
371.45	437.68
371.65	369.80
371.84	341.72
372.04	449.38
372.24	395.55
372.44	461.09
372.63	463.43
372.83	458.74
373.03	388.53
373.22	500.87
373.42	514.92
373.62	397.89
373.81	517.26
374.01	447.04
374.21	388.53
374.40	402.57
374.60	444.70
374.79	493.85
374.99	505.56
375.19	613.22
375.38	615.56
375.58	496.19
375.78	568.75
375.97	552.37
376.17	655.35
376.37	486.83
376.56	538.32
376.76	496.19
376.95	547.69
377.15	594.50
377.35	667.05
377.54	645.99
377.74	645.99
377.93	645.99
378.13	667.05
378.33	692.80
378.52	643.65
378.72	641.31
378.91	617.90
379.11	622.58
379.31	573.43
379.50	535.98
379.70	606.20
379.89	638.97
380.09	662.37
380.28	643.65
380.48	702.16
380.68	725.57
380.87	634.29
381.07	692.80
381.26	638.97
381.46	526.62
381.65	526.62
381.85	454.06
382.04	486.83
382.24	442.36
382.43	421.30
382.63	454.06
382.83	341.72
383.02	447.04
383.22	472.79
383.41	447.04
383.61	484.49
383.80	552.37
384.00	608.54
384.19	554.71
384.39	655.35
384.58	720.88
384.78	669.39
384.97	716.20
385.17	641.31
385.36	608.54
385.56	622.58
385.75	507.90
385.95	765.36
386.14	653.01
386.34	716.20
386.53	643.65
386.72	667.05
386.92	664.71
387.11	641.31
387.31	678.76
387.50	631.94
387.70	685.78
387.89	634.29
388.09	667.05
388.28	617.90
388.48	688.12
388.67	737.27
388.86	777.06
389.06	823.87
389.25	830.89
389.45	805.14
389.64	828.55
389.84	889.40
390.03	842.59
390.22	884.72
390.42	807.48
390.61	858.98
390.81	835.57
391.00	884.72
391.19	936.21
391.39	842.59
391.58	770.04
391.78	877.70
391.97	819.19
392.16	669.39
392.36	739.61
392.55	641.31
392.75	496.19
392.94	421.30
393.13	447.04
393.33	442.36
393.52	587.47
393.71	723.23
393.91	737.27
394.10	851.96
394.29	940.90
394.49	866.00
394.68	1008.77
394.88	973.66
395.07	1048.56
395.26	947.92
395.46	933.87
395.65	931.53
395.84	896.43
396.04	819.19
396.23	592.16
396.42	493.85
396.62	512.58
396.81	620.24
397.00	739.61
397.19	940.90
397.39	980.68
397.58	1062.60
397.77	1057.92
397.97	1256.87
398.16	1219.42
398.35	1219.42
398.55	1245.16
398.74	1256.87
398.93	1296.66
399.12	1294.32
399.32	1280.27
399.51	1390.28
399.70	1338.79
399.90	1362.19
400.09	1380.92
400.28	1465.18
400.47	1437.09
400.67	1385.60
400.86	1493.26
401.05	1446.45
401.24	1371.55
401.44	1614.97
401.63	1472.20
401.82	1493.26
402.01	1369.21
402.21	1511.99
402.40	1549.43
402.59	1472.20
402.78	1437.09
402.97	1334.11
403.17	1364.53
403.36	1399.64
403.55	1556.46
403.74	1629.01
403.93	1441.77
404.13	1448.79
404.32	1362.19
404.51	1387.94
404.70	1519.01
404.89	1469.86
405.09	1509.65
405.28	1362.19
405.47	1434.75
405.66	1507.30
405.85	1432.41
406.05	1341.13
406.24	1469.86
406.43	1437.09
406.62	1401.98
406.81	1589.22
407.00	1502.62
407.20	1451.13
407.39	1561.14
407.58	1502.62
407.77	1537.73
407.96	1621.99
408.15	1586.88
408.34	1633.69
408.54	1703.91
408.73	1713.27
408.92	1661.78
409.11	1640.72
409.30	1521.35
409.49	1523.69
409.68	1432.41
409.87	1291.98
410.07	1439.43
410.26	1575.18
410.45	1619.65
410.64	1593.90
410.83	1753.06
411.02	1701.57
411.21	1818.60
411.40	1678.16
411.59	1682.85
411.78	1734.34
411.98	1813.92
412.17	1774.13
412.36	1713.27
412.55	1710.93
412.74	1703.91
412.93	1675.82
413.12	1689.87
413.31	1818.60
413.50	1732.00
413.69	1881.79
413.88	1867.75
414.07	1832.64
414.26	1729.66
414.45	1776.47
414.64	1809.23
414.83	1827.96
415.02	1858.39
415.22	1790.51
415.41	2043.29
415.60	1905.20
415.79	1886.47
415.98	1952.01
416.17	1867.75
416.36	1952.01
416.55	1834.98
416.74	1968.39
416.93	1816.26
417.12	1732.00
417.31	1806.89
417.50	1954.35
417.69	2127.55
417.88	1816.26
418.07	1933.28
418.26	2022.22
418.45	1926.26
418.64	1956.69
418.83	1900.52
419.02	2118.18
419.21	1844.34
419.39	1949.67
419.58	1813.92
419.77	1717.95
419.96	1966.05
420.15	1973.07
420.34	2022.22
420.53	2083.08
420.72	2190.74
420.91	2033.93
421.10	2076.06
421.29	2057.33
421.48	1947.33
421.67	2129.89
421.86	2108.82
422.05	1961.37
422.24	1781.15
422.43	1685.19
422.61	1870.09
422.80	2066.69
422.99	2083.08
423.18	1984.77
423.37	1879.45
423.56	1982.43
423.75	1912.22
423.94	1877.11
424.13	1905.20
424.32	1900.52
424.50	2008.18
424.69	1872.43
424.88	1860.73
425.07	1877.11
425.26	1856.04
425.45	1860.73
425.64	1842.00
425.83	1853.70
426.01	1865.41
426.20	1954.35
426.39	1998.82
426.58	1781.15
426.77	1706.25
426.96	1750.72
427.15	1671.14
427.33	1902.86
427.52	1935.62
427.71	1900.52
427.90	1982.43
428.09	2012.86
428.28	1774.13
428.46	1790.51
428.65	1827.96
428.84	1881.79
429.03	1886.47
429.22	1849.02
429.40	1703.91
429.59	1598.59
429.78	1401.98
429.97	1423.05
430.16	1378.58
430.34	1406.66
430.53	1413.68
430.72	1448.79
430.91	1603.27
431.10	1678.16
431.28	1970.73
431.47	2160.31
431.66	2260.96
431.85	2092.44
432.03	1905.20
432.22	1790.51
432.41	1851.36
432.60	2214.15
432.79	2080.74
432.97	2139.25
433.16	2132.23
433.35	2040.95
433.54	1926.26
433.72	1781.15
433.91	1881.79
434.10	1982.43
434.28	1968.39
434.47	2211.81
434.66	2202.44
434.85	2043.29
435.03	2155.63
435.22	2363.94
435.41	2600.34
435.59	2600.34
435.78	2548.84
435.97	2513.74
436.16	2406.07
436.34	2267.98
436.53	2415.43
436.72	2380.32
436.90	2230.53
437.09	2251.60
437.28	2150.95
437.46	2298.41
437.65	2223.51
437.84	2066.69
438.02	1916.90
438.21	1912.22
438.40	1944.99
438.58	2040.95
438.77	2094.78
438.96	2272.66
439.14	2270.32
439.33	2420.11
439.52	2347.56
439.70	2342.88
439.89	2349.90
440.08	2256.28
440.26	2099.46
440.45	2326.49
440.63	2485.65
440.82	2644.81
441.01	2504.37
441.19	2492.67
441.38	2466.92
441.57	2654.17
441.75	2740.77
441.94	2759.49
442.12	2590.97
442.31	2597.99
442.50	2495.01
442.68	2654.17
442.87	2672.89
443.05	2567.57
443.24	2630.76
443.43	2640.12
443.61	2689.28
443.80	2630.76
443.98	2595.65
444.17	2602.68
444.35	2696.30
444.54	2719.70
444.73	2768.85
444.91	2635.44
445.10	2473.95
445.28	2434.16
445.47	2464.58
445.65	2471.61
445.84	2441.18
446.02	2605.02
446.21	2633.10
446.39	2541.82
446.58	2548.84
446.77	2649.49
446.95	2590.97
447.14	2738.43
447.32	2829.71
447.51	2712.68
447.69	2686.94
447.88	2623.74
448.06	2663.53
448.25	2590.97
448.43	2799.28
448.62	2523.10
448.80	2548.84
448.99	2729.06
449.17	2750.13
449.36	2675.23
449.54	2864.82
449.73	2974.82
449.91	2876.52
450.10	2899.92
450.28	2988.86
450.46	3002.91
450.65	2937.37
450.83	2974.82
451.02	2724.38
451.20	2750.13
451.39	2848.43
451.57	2930.35
451.76	2801.62
451.94	2752.47
452.13	2654.17
452.31	2670.55
452.49	2483.31
452.68	2588.63
452.86	2497.35
453.05	2569.91
453.23	2686.94
453.42	2782.90
453.60	2876.52
453.78	2747.79
453.97	2789.92
454.15	2743.11
454.34	2602.68
454.52	2693.96
454.70	2818.00
454.89	2813.32
455.07	2796.94
455.26	2740.77
455.44	2935.03
455.62	3005.25
455.81	2995.89
455.99	2960.78
456.17	2869.50
456.36	2899.92
456.54	2916.31
456.73	2843.75
456.91	3077.80
457.09	2981.84
457.28	3162.06
457.46	3026.31
457.64	2965.46
457.83	2834.39
458.01	2785.24
458.19	2876.52
458.38	3000.57
458.56	3016.95
458.74	2958.44
458.93	2899.92
459.11	3000.57
459.29	3000.57
459.48	2984.18
459.66	2920.99
459.84	2956.10
460.03	3014.61
460.21	2935.03
460.39	2920.99
460.57	2949.08
460.76	3133.98
460.94	3005.25
461.12	3030.99
461.31	3042.70
461.49	2960.78
461.67	3033.33
461.85	3035.67
462.04	2972.48
462.22	3578.68
462.40	3206.53
462.59	3061.42
462.77	3021.63
462.95	3145.68
463.13	3066.10
463.32	2979.50
463.50	3005.25
463.68	2932.69
463.86	3052.06
464.05	3007.59
464.23	3033.33
464.41	2972.48
464.59	2892.90
464.78	3091.85
464.96	2979.50
465.14	2979.50
465.32	2979.50
465.50	3119.93
465.69	3063.76
465.87	3141.00
466.05	2946.73
466.23	2860.13
466.41	2942.05
466.60	2974.82
466.78	2787.58
466.96	2848.43
467.14	3007.59
467.32	3005.25
467.51	2953.76
467.69	2810.98
467.87	3117.59
468.05	2883.54
468.23	3000.57
468.41	3070.78
468.60	3040.36
468.78	3052.06
468.96	2944.39
469.14	3063.76
469.32	3012.27
469.50	2846.09
469.69	2928.01
469.87	2974.82
470.05	2890.56
470.23	2937.37
470.41	3035.67
470.59	3075.46
470.77	2815.66
470.95	3005.25
471.14	3054.40
471.32	3030.99
471.50	3119.93
471.68	3251.00
471.86	3290.79
472.04	3145.68
472.22	3321.22
472.40	3089.51
472.58	3082.49
472.77	2981.84
472.95	3066.10
473.13	3176.11
473.31	3068.44
473.49	3171.43
473.67	3332.92
473.85	3098.87
474.03	3192.49
474.21	3251.00
474.39	3314.20
474.57	3372.71
474.75	3234.62
474.93	3255.69
475.12	3222.92
475.30	3283.77
475.48	3148.02
475.66	3239.30
475.84	3236.96
476.02	3190.15
476.20	3183.13
476.38	3211.22
476.56	3311.86
476.74	3384.41
476.92	3400.80
477.10	3410.16
477.28	3604.42
477.46	3449.95
477.64	3543.57
477.82	3538.89
478.00	3578.68
478.18	3620.81
478.36	3559.95
478.54	3485.06
478.72	3489.74
478.90	3478.04
479.08	3517.83
479.26	3765.92
479.44	3595.06
479.62	3716.77
479.80	3653.58
479.98	3751.88
480.16	3847.84
480.34	3620.81
480.52	3688.68
480.70	3775.28
480.88	3784.65
481.06	3819.75
481.24	3875.93
481.41	3992.95
481.59	4161.47
481.77	3962.53
481.95	3889.97
482.13	4051.47
482.31	4065.51
482.49	4093.60
482.67	4128.70
482.85	4014.02
483.03	4161.47
483.21	4100.62
483.39	4100.62
483.57	4030.40
483.74	4049.13
483.92	4032.74
484.10	4039.76
484.28	4189.56
484.46	4320.63
484.64	4262.12
484.82	4210.62
485.00	4124.02
485.18	4084.23
485.35	3854.86
485.53	3592.72
485.71	3503.78
485.89	3372.71
486.07	3346.97
486.25	3779.97
486.43	3988.27
486.61	4032.74
486.78	4112.32
486.96	4004.66
487.14	4173.18
487.32	4341.69
487.50	4407.23
487.68	4493.83
487.85	4648.30
488.03	4662.35
488.21	4472.76
488.39	4517.23
488.57	4472.76
488.75	4397.87
488.92	4582.77
489.10	4793.42
489.28	4908.10
489.46	4961.94
489.64	5107.05
489.81	5053.22
489.99	4978.32
490.17	5093.01
490.35	5308.34
490.53	4975.98
490.70	4828.53
490.88	4781.71
491.06	4863.63
491.24	5146.84
491.41	4903.42
491.59	4919.81
491.77	4400.21
491.95	4585.11
492.13	4767.67
492.30	5074.28
492.48	5093.01
492.66	5242.80
492.84	5266.21
493.01	5109.39
493.19	5001.72
493.37	5193.65
493.54	5156.20
493.72	5064.92
493.90	5217.05
494.08	5451.11
494.25	5495.58
494.43	5509.62
494.61	5476.85
494.79	5558.77
494.96	5469.83
495.14	5479.19
495.32	5390.25
495.49	5163.22
495.67	5242.80
495.85	5444.09
496.02	5755.38
496.20	5701.54
496.38	5558.77
496.55	5575.16
496.73	5636.01
496.91	5600.90
497.09	5717.93
497.26	5802.19
497.44	5734.31
497.62	5586.86
497.79	5451.11
497.97	5355.15
498.14	5186.63
498.32	5394.93
498.50	5544.73
498.67	5802.19
498.85	5849.00
499.03	5722.61
499.20	5830.27
499.38	5856.02
499.56	5834.96
499.73	5617.29
499.91	5570.48
500.08	5434.72
500.26	5298.97
500.44	5476.85
500.61	5479.19
500.79	5493.24
500.97	5406.64
501.14	5481.53
501.32	5280.25
501.49	5418.34
501.67	5451.11
501.84	5411.32
502.02	5507.28
502.20	5610.26
502.37	5666.44
502.55	5605.58
502.72	5582.18
502.90	5729.63
503.07	5738.99
503.25	5530.69
503.43	5357.49
503.60	5062.58
503.78	5191.31
503.95	5116.41
504.13	5561.11
504.30	5626.65
504.48	5664.10
504.65	5626.65
504.83	5856.02
505.01	5657.07
505.18	5860.70
505.36	5874.74
505.53	5783.46
505.71	5933.26
505.88	6052.63
506.06	6015.18
506.23	5998.79
506.41	5724.95
506.58	5806.87
506.76	5657.07
506.93	5682.82
507.11	5825.59
507.28	5755.38
507.46	5598.56
507.63	5652.39
507.81	5572.82
507.98	5502.60
508.16	5701.54
508.33	5760.06
508.50	5839.64
508.68	5954.32
508.85	6097.10
509.03	6005.81
509.20	6066.67
509.38	5881.77
509.55	5877.09
509.73	5919.21
509.90	5996.45
510.08	6019.86
510.25	5989.43
510.42	5975.39
510.60	6073.69
510.77	5834.96
510.95	6099.44
511.12	6125.18
511.30	6345.19
511.47	6389.66
511.64	6443.49
511.82	6253.91
511.99	6162.63
512.17	5933.26
512.34	6003.47
512.51	5970.71
512.69	5874.74
512.86	6040.92
513.04	6066.67
513.21	5970.71
513.38	5982.41
513.56	6003.47
513.73	5734.31
513.90	5870.06
514.08	5673.46
514.25	5991.77
514.43	5968.37
514.60	5994.11
514.77	5944.96
514.95	5949.64
515.12	5928.58
515.29	6092.41
515.47	6265.61
515.64	6267.95
515.81	6190.72
515.99	6033.90
516.16	5626.65
516.33	5392.59
516.51	4950.23
516.68	4924.49
516.85	4730.22
517.03	4713.84
517.20	5301.31
517.37	5701.54
517.54	5858.36
517.72	5909.85
517.89	5420.68
518.06	4947.89
518.24	5179.61
518.41	5462.81
518.58	5788.14
518.75	5820.91
518.93	5783.46
519.10	5839.64
519.27	5825.59
519.45	5933.26
519.62	5933.26
519.79	6136.88
519.96	6204.76
520.14	6162.63
520.31	5902.83
520.48	5973.05
520.65	5809.21
520.83	6092.41
521.00	6216.46
521.17	6031.56
521.34	6052.63
521.52	6249.23
521.69	6228.17
521.86	6389.66
522.03	6296.04
522.20	6083.05
522.38	5783.46
522.55	5823.25
522.72	5762.40
522.89	5853.68
523.07	5977.73
523.24	5989.43
523.41	6071.35
523.58	6319.45
523.75	6445.84
523.92	6279.66
524.10	6279.66
524.27	6483.28
524.44	6338.17
524.61	6204.76
524.78	6204.76
524.96	6143.91
525.13	6111.14
525.30	6370.94
525.47	6265.61
525.64	6349.87
525.81	6366.26
525.98	6101.78
526.16	5832.62
526.33	5636.01
526.50	5338.76
526.67	5533.03
526.84	5619.63
527.01	5652.39
527.18	5778.78
527.36	5921.56
527.53	6115.82
527.70	6389.66
527.87	6045.60
528.04	6258.59
528.21	6008.16
528.38	6258.59
528.55	6457.54
528.72	6436.47
528.89	6597.97
529.07	6576.91
529.24	6279.66
529.41	6136.88
529.58	6010.50
529.75	6078.37
529.92	6174.33
530.09	6015.18
530.26	6473.92
530.43	6366.26
530.60	6272.64
530.77	6607.33
530.94	6619.04
531.11	6485.62
531.28	6321.79
531.46	6303.06
531.63	6284.34
531.80	6387.32
531.97	6265.61
532.14	6143.91
532.31	5755.38
532.48	5877.09
532.65	5713.25
532.82	5926.24
532.99	6087.73
533.16	6267.95
533.33	6370.94
533.50	6338.17
533.67	6260.93
533.84	6132.20
534.01	6317.11
534.18	6076.03
534.35	6176.67
534.52	6195.40
534.69	6387.32
534.86	6502.01
535.03	6422.43
535.20	6567.54
535.37	6476.26
535.54	6480.94
535.71	6490.31
535.88	6523.07
536.05	6389.66
536.22	6204.76
536.38	6221.14
536.55	6052.63
536.72	5902.83
536.89	5818.57
537.06	5968.37
537.23	6333.49
537.40	6150.93
537.57	6258.59
537.74	6452.86
537.91	6370.94
538.08	6239.87
538.25	6326.47
538.42	6335.83
538.59	6291.36
538.75	6125.18
538.92	6094.76
539.09	6129.86
539.26	6001.13
539.43	6108.80
539.60	6078.37
539.77	6036.24
539.94	5928.58
540.11	6024.54
540.28	5921.56
540.44	5823.25
540.61	5849.00
540.78	5776.44
540.95	6097.10
541.12	6214.12
541.29	6127.52
541.46	6349.87
541.62	6352.21
541.79	6415.41
541.96	6127.52
542.13	6352.21
542.30	6452.86
542.47	6452.86
542.63	6324.13
542.80	6146.25
542.97	6244.55
543.14	6129.86
543.31	6071.35
543.48	6258.59
543.64	6394.34
543.81	6635.42
543.98	6637.76
544.15	6604.99
544.32	6258.59
544.48	6118.16
544.65	6342.85
544.82	6361.58
544.99	6338.17
545.16	6429.45
545.32	6209.44
545.49	6684.57
545.66	7084.80
545.83	6977.14
546.00	6803.94
546.16	6513.71
546.33	6340.51
546.50	6221.14
546.67	6312.42
546.83	6256.25
547.00	6232.85
547.17	6017.52
547.34	5930.92
547.50	5867.72
547.67	6017.52
547.84	6092.41
548.00	6097.10
548.17	6134.54
548.34	6193.06
548.51	6139.23
548.67	6232.85
548.84	6169.65
549.01	6076.03
549.18	6237.53
549.34	6256.25
549.51	6026.88
549.68	6274.98
549.84	6122.84
550.01	5991.77
550.18	6244.55
550.34	6076.03
550.51	5951.98
550.68	6057.31
550.84	5907.51
551.01	5867.72
551.18	5923.90
551.34	5977.73
551.51	5996.45
551.68	6101.78
551.84	6120.50
552.01	6111.14
552.18	6134.54
552.34	5994.11
552.51	5902.83
552.68	5785.80
552.84	5837.30
553.01	5893.47
553.18	5806.87
553.34	5956.66
553.51	5849.00
553.67	6085.39
553.84	6092.41
554.01	6038.58
554.17	5949.64
554.34	5961.34
554.51	6078.37
554.67	6167.31
554.84	5994.11
555.00	6045.60
555.17	6052.63
555.33	6017.52
555.50	5928.58
555.67	6001.13
555.83	5888.79
556.00	5776.44
556.16	5942.62
556.33	5701.54
556.50	5802.19
556.66	5813.89
556.83	5748.36
556.99	5790.49
557.16	5841.98
557.32	5650.05
557.49	5860.70
557.65	5874.74
557.82	5645.37
557.98	5893.47
558.15	5628.99
558.32	5631.33
558.48	5331.74
558.65	5437.06
558.81	5605.58
558.98	5411.32
559.14	5537.71
559.31	5490.90
559.47	5624.31
559.64	5584.52
559.80	5355.15
559.97	5434.72
560.13	5678.14
560.30	5661.76
560.46	5809.21
560.63	5879.43
560.79	5738.99
560.96	5666.44
561.12	5788.14
561.29	5547.07
561.45	5406.64
561.61	5490.90
561.78	5790.49
561.94	5671.12
562.11	5603.24
562.27	5497.92
562.44	5582.18
562.60	5575.16
562.77	5638.35
562.93	5762.40
563.10	5724.95
563.26	5582.18
563.42	5741.33
563.59	5533.03
563.75	5434.72
563.92	5467.49
564.08	5411.32
564.24	5495.58
564.41	5549.41
564.57	5668.78
564.74	5497.92
564.90	5542.39
565.07	5551.75
565.23	5521.32
565.39	5425.36
565.56	5245.14
565.72	5217.05
565.88	5315.36
566.05	5305.99
566.21	5343.44
566.38	5266.21
566.54	5324.72
566.70	5268.55
566.87	5533.03
567.03	5423.02
567.19	5530.69
567.36	5516.64
567.52	5362.17
567.68	5291.95
567.85	5371.53
568.01	5121.09
568.17	5097.69
568.34	4980.66
568.50	4915.12
568.66	4994.70
568.83	5100.03
568.99	5041.51
569.15	5151.52
569.32	5078.96
569.48	5043.85
569.64	4898.74
569.81	5020.45
569.97	4910.44
570.13	4917.47
570.30	4889.38
570.46	4908.10
570.62	4788.74
570.78	4786.40
570.95	4645.96
571.11	5020.45
571.27	5006.41
571.43	5149.18
571.60	4968.96
571.76	5076.62
571.92	5116.41
572.09	5078.96
572.25	5198.33
572.41	5039.17
572.57	4959.60
572.74	5198.33
572.90	5093.01
573.06	5123.43
573.22	4847.25
573.38	5163.22
573.55	4919.81
573.71	5282.59
573.87	4994.70
574.03	4954.91
574.20	5032.15
574.36	5111.73
574.52	4901.08
574.68	4854.27
574.84	4828.53
575.01	4833.21
575.17	4842.57
575.33	4947.89
575.49	4889.38
575.65	4828.53
575.82	4823.84
575.98	4800.44
576.14	4835.55
576.30	5057.90
576.46	4994.70
576.62	5039.17
576.79	5165.56
576.95	5156.20
577.11	5036.83
577.27	4973.64
577.43	5034.49
577.59	4898.74
577.75	4732.56
577.92	4690.43
578.08	4720.86
578.24	4692.77
578.40	4730.22
578.56	4947.89
578.72	4924.49
578.88	4947.89
579.04	5004.07
579.21	4966.62
579.37	4877.68
579.53	4973.64
579.69	4903.42
579.85	4854.27
580.01	4910.44
580.17	4997.04
580.33	4952.57
580.49	4915.12
580.65	5022.79
580.82	4917.47
580.98	4844.91
581.14	4917.47
581.30	4983.00
581.46	4814.48
581.62	4903.42
581.78	4894.06
581.94	5123.43
582.10	4964.28
582.26	4966.62
582.42	4912.78
582.58	5139.82
582.74	5095.35
582.90	4933.85
583.06	4973.64
583.22	4908.10
583.38	4945.55
583.54	4889.38
583.70	5088.32
583.86	4835.55
584.02	4908.10
584.18	4973.64
584.34	5128.11
584.50	4858.95
584.66	4880.02
584.82	4880.02
584.98	4800.44
585.14	4856.61
585.30	4805.12
585.46	4645.96
585.62	4498.51
585.78	4622.56
585.94	4601.49
586.10	4657.67
586.26	4739.58
586.42	4660.01
586.58	4805.12
586.74	4699.80
586.90	4713.84
587.06	4781.71
587.22	4451.70
587.38	4559.36
587.54	4573.41
587.70	4442.34
587.86	4381.48
588.02	4119.34
588.18	4088.92
588.34	3995.29
588.49	3627.83
588.65	3513.14
588.81	3405.48
588.97	3314.20
589.13	3506.12
589.29	3428.88
589.45	3398.46
589.61	3522.51
589.77	3459.31
589.93	3810.39
590.08	3826.78
590.24	4072.53
590.40	4037.42
590.56	3997.64
590.72	3857.20
590.88	3997.64
591.04	3988.27
591.20	4004.66
591.35	3953.16
591.51	3861.88
591.67	3829.12
591.83	3936.78
591.99	3789.33
592.15	3808.05
592.31	4072.53
592.46	4058.49
592.62	4166.15
592.78	4198.92
592.94	4109.98
593.10	4241.05
593.26	4086.58
593.41	4280.84
593.57	4234.03
593.73	4142.75
593.89	3763.58
594.05	3705.07
594.20	3527.19
594.36	3651.24
594.52	3606.77
594.68	3709.75
594.84	3791.67
594.99	3960.19
595.15	4056.15
595.31	3974.23
595.47	3932.10
595.62	3946.14
595.78	4107.64
595.94	4290.20
596.10	4283.18
596.25	4030.40
596.41	3960.19
596.57	3822.09
596.73	4044.45
596.88	4102.96
597.04	4053.81
597.20	3974.23
597.36	3974.23
597.51	3962.53
597.67	4011.68
597.83	4109.98
