SpectraSuite Data File
++++++++++++++++++++++++++++++++++++
Date: Fri Oct 04 11:44:20 GMT-05:00 2013
User: price-jones
Dark Spectrum Present: No
Reference Spectrum Present: No
Number of Sampled Component Spectra: 1
Spectrometers: USB2+H05261
Integration Time (usec): 100000 (USB2+H05261)
Spectra Averaged: 1 (USB2+H05261)
Boxcar Smoothing: 0 (USB2+H05261)
Correct for Electrical Dark: No (USB2+H05261)
Strobe/Lamp Enabled: No (USB2+H05261)
Correct for Detector Non-linearity: No (USB2+H05261)
Correct for Stray Light: No (USB2+H05261)
Number of Pixels in Processed Spectrum: 2048
>>>>>Begin Processed Spectral Data<<<<<
365.73	74.90
365.92	74.90
366.12	74.90
366.32	0.00
366.52	0.00
366.72	51.49
366.91	0.00
367.11	4.68
367.31	0.00
367.51	0.00
367.70	0.00
367.90	0.00
368.10	0.00
368.30	0.00
368.49	0.00
368.69	0.00
368.89	0.00
369.09	0.00
369.28	9.36
369.48	0.00
369.68	0.00
369.87	0.00
370.07	0.00
370.27	9.36
370.47	70.22
370.66	318.31
370.86	304.27
371.06	346.40
371.25	369.80
371.45	290.23
371.65	320.65
371.84	330.02
372.04	320.65
372.24	304.27
372.44	414.27
372.63	411.93
372.83	311.29
373.03	292.57
373.22	264.48
373.42	337.04
373.62	308.95
373.81	404.91
374.01	433.00
374.21	365.12
374.40	367.46
374.60	423.64
374.79	367.46
374.99	468.11
375.19	489.17
375.38	512.58
375.58	437.68
375.78	524.28
375.97	367.46
376.17	402.57
376.37	461.09
376.56	475.13
376.76	416.62
376.95	512.58
377.15	496.19
377.35	491.51
377.54	498.53
377.74	535.98
377.93	575.77
378.13	566.41
378.33	493.85
378.52	496.19
378.72	440.02
378.91	510.24
379.11	449.38
379.31	454.06
379.50	447.04
379.70	458.74
379.89	477.47
380.09	554.71
380.28	543.00
380.48	547.69
380.68	566.41
380.87	545.34
381.07	475.13
381.26	486.83
381.46	456.40
381.65	334.70
381.85	493.85
382.04	395.55
382.24	489.17
382.43	397.89
382.63	325.33
382.83	409.59
383.02	451.72
383.22	390.87
383.41	308.95
383.61	442.36
383.80	367.46
384.00	491.51
384.19	521.94
384.39	568.75
384.58	510.24
384.78	596.84
384.97	550.03
385.17	486.83
385.36	421.30
385.56	601.52
385.75	493.85
385.95	533.64
386.14	622.58
386.34	578.11
386.53	545.34
386.72	533.64
386.92	547.69
387.11	535.98
387.31	592.16
387.50	533.64
387.70	526.62
387.89	540.66
388.09	568.75
388.28	493.85
388.48	540.66
388.67	580.45
388.86	634.29
389.06	589.82
389.25	676.41
389.45	751.31
389.64	727.91
389.84	643.65
390.03	606.20
390.22	650.67
390.42	676.41
390.61	683.44
390.81	706.84
391.00	826.21
391.19	809.83
391.39	814.51
391.58	697.48
391.78	650.67
391.97	615.56
392.16	592.16
392.36	550.03
392.55	454.06
392.75	400.23
392.94	393.21
393.13	416.62
393.33	337.04
393.52	440.02
393.71	554.71
393.91	582.79
394.10	660.03
394.29	648.33
394.49	711.52
394.68	770.04
394.88	854.30
395.07	716.20
395.26	807.48
395.46	760.67
395.65	753.65
395.84	641.31
396.04	638.97
396.23	486.83
396.42	407.25
396.62	472.79
396.81	528.96
397.00	540.66
397.19	688.12
397.39	786.42
397.58	856.64
397.77	887.06
397.97	929.19
398.16	971.32
398.35	999.41
398.55	1022.81
398.74	1006.43
398.93	1074.31
399.12	1046.22
399.32	919.83
399.51	1020.47
399.70	1020.47
399.90	1078.99
400.09	1090.69
400.28	1149.20
400.47	1114.10
400.67	1139.84
400.86	1156.22
401.05	1181.97
401.24	1104.73
401.44	1160.91
401.63	1118.78
401.82	1188.99
402.01	1083.67
402.21	1181.97
402.40	1186.65
402.59	1130.48
402.78	1086.01
402.97	1149.20
403.17	1062.60
403.36	1165.59
403.55	1242.82
403.74	1247.51
403.93	1273.25
404.13	1233.46
404.32	1137.50
404.51	1163.25
404.70	1355.17
404.89	1193.67
405.09	1256.87
405.28	1109.41
405.47	1102.39
405.66	1198.35
405.85	1172.61
406.05	1067.28
406.24	1121.12
406.43	1114.10
406.62	1172.61
406.81	1221.76
407.00	1212.40
407.20	1151.54
407.39	1111.75
407.58	1198.35
407.77	1299.00
407.96	1317.72
408.15	1296.66
408.34	1329.42
408.54	1174.95
408.73	1345.81
408.92	1359.85
409.11	1280.27
409.30	1275.59
409.49	1174.95
409.68	1179.63
409.87	1046.22
410.07	1156.22
410.26	1196.01
410.45	1170.27
410.64	1207.72
410.83	1341.13
411.02	1284.95
411.21	1359.85
411.40	1299.00
411.59	1378.58
411.78	1460.49
411.98	1359.85
412.17	1483.90
412.36	1327.08
412.55	1390.28
412.74	1301.34
412.93	1437.09
413.12	1359.85
413.31	1453.47
413.50	1401.98
413.69	1575.18
413.88	1469.86
414.07	1366.87
414.26	1455.81
414.45	1514.33
414.64	1444.11
414.83	1483.90
415.02	1467.52
415.22	1273.25
415.41	1479.22
415.60	1554.12
415.79	1490.92
415.98	1554.12
416.17	1596.25
416.36	1556.46
416.55	1554.12
416.74	1535.39
416.93	1479.22
417.12	1432.41
417.31	1469.86
417.50	1488.58
417.69	1516.67
417.88	1521.35
418.07	1591.56
418.26	1533.05
418.45	1434.75
418.64	1521.35
418.83	1624.33
419.02	1582.20
419.21	1526.03
419.39	1425.39
419.58	1268.57
419.77	1504.96
419.96	1547.09
420.15	1626.67
420.34	1521.35
420.53	1607.95
420.72	1633.69
420.91	1614.97
421.10	1551.78
421.29	1722.63
421.48	1605.61
421.67	1572.84
421.86	1596.25
422.05	1458.15
422.24	1317.72
422.43	1383.26
422.61	1469.86
422.80	1535.39
422.99	1621.99
423.18	1584.54
423.37	1554.12
423.56	1544.75
423.75	1549.43
423.94	1558.80
424.13	1465.18
424.32	1556.46
424.50	1425.39
424.69	1486.24
424.88	1488.58
425.07	1369.21
425.26	1432.41
425.45	1488.58
425.64	1439.43
425.83	1380.92
426.01	1462.83
426.20	1544.75
426.39	1547.09
426.58	1425.39
426.77	1294.32
426.96	1474.54
427.15	1476.88
427.33	1394.96
427.52	1479.22
427.71	1509.65
427.90	1479.22
428.09	1481.56
428.28	1488.58
428.46	1355.17
428.65	1425.39
428.84	1439.43
429.03	1380.92
429.22	1343.47
429.40	1242.82
429.59	1245.16
429.78	1156.22
429.97	1130.48
430.16	1160.91
430.34	1088.35
430.53	1053.24
430.72	1095.37
430.91	1146.86
431.10	1437.09
431.28	1591.56
431.47	1743.70
431.66	1776.47
431.85	1586.88
432.03	1551.78
432.22	1523.69
432.41	1404.32
432.60	1582.20
432.79	1673.48
432.97	1603.27
433.16	1643.06
433.35	1554.12
433.54	1441.77
433.72	1411.34
433.91	1317.72
434.10	1523.69
434.28	1624.33
434.47	1736.68
434.66	1647.74
434.85	1743.70
435.03	1724.97
435.22	1914.56
435.41	2155.63
435.59	2188.40
435.78	2125.21
435.97	2008.18
436.16	1870.09
436.34	1853.70
436.53	1872.43
436.72	1781.15
436.90	1685.19
437.09	1689.87
437.28	1675.82
437.46	1760.08
437.65	1710.93
437.84	1722.63
438.02	1523.69
438.21	1577.52
438.40	1586.88
438.58	1682.85
438.77	1680.50
438.96	1689.87
439.14	1724.97
439.33	1827.96
439.52	1891.15
439.70	1858.39
439.89	1860.73
440.08	1753.06
440.26	1776.47
440.45	1867.75
440.63	1872.43
440.82	2085.42
441.01	1975.41
441.19	1994.14
441.38	1926.26
441.57	2003.50
441.75	2160.31
441.94	2104.14
442.12	2008.18
442.31	2005.84
442.50	1975.41
442.68	2146.27
442.87	1954.35
443.05	2001.16
443.24	1998.82
443.43	2104.14
443.61	2232.87
443.80	2125.21
443.98	1973.07
444.17	1975.41
444.35	2162.66
444.54	2125.21
444.73	2118.18
444.91	2083.08
445.10	1921.58
445.28	1954.35
445.47	1900.52
445.65	1928.60
445.84	1912.22
446.02	2050.31
446.21	1909.88
446.39	2043.29
446.58	1989.46
446.77	2008.18
446.95	1961.37
447.14	2106.48
447.32	2129.89
447.51	2169.68
447.69	2012.86
447.88	2097.12
448.06	2125.21
448.25	2134.57
448.43	2146.27
448.62	2033.93
448.80	2076.06
448.99	2167.34
449.17	2071.37
449.36	2211.81
449.54	2127.55
449.73	2218.83
449.91	2223.51
450.10	2352.24
450.28	2394.37
450.46	2370.96
450.65	2373.30
450.83	2312.45
451.02	2186.06
451.20	2181.38
451.39	2228.19
451.57	2162.66
451.76	2260.96
451.94	2277.34
452.13	2146.27
452.31	2104.14
452.49	1966.05
452.68	1998.82
452.86	1980.09
453.05	2071.37
453.23	2022.22
453.42	2172.02
453.60	2160.31
453.78	2218.83
453.97	2012.86
454.15	2122.87
454.34	2157.97
454.52	2169.68
454.70	2209.47
454.89	2111.16
455.07	2153.29
455.26	2148.61
455.44	2249.25
455.62	2282.02
455.81	2282.02
455.99	2300.75
456.17	2216.49
456.36	2195.42
456.54	2228.19
456.73	2310.11
456.91	2223.51
457.09	2293.72
457.28	2370.96
457.46	2333.51
457.64	2319.47
457.83	2232.87
458.01	2165.00
458.19	2232.87
458.38	2253.94
458.56	2284.36
458.74	2272.66
458.93	2321.81
459.11	2246.91
459.29	2331.17
459.48	2230.53
459.66	2239.89
459.84	2284.36
460.03	2328.83
460.21	2267.98
460.39	2340.54
460.57	2293.72
460.76	2403.73
460.94	2354.58
461.12	2438.84
461.31	2403.73
461.49	2413.09
461.67	2375.64
461.85	2396.71
462.04	2356.92
462.22	2918.65
462.40	2438.84
462.59	2324.15
462.77	2263.30
462.95	2387.35
463.13	2352.24
463.32	2387.35
463.50	2359.26
463.68	2286.70
463.86	2326.49
464.05	2328.83
464.23	2345.22
464.41	2200.10
464.59	2190.74
464.78	2342.88
464.96	2361.60
465.14	2354.58
465.32	2228.19
465.50	2314.79
465.69	2455.22
465.87	2317.13
466.05	2356.92
466.23	2202.44
466.41	2216.49
466.60	2209.47
466.78	2193.08
466.96	2366.28
467.14	2256.28
467.32	2401.39
467.51	2237.55
467.69	2179.04
467.87	2303.09
468.05	2296.07
468.23	2305.43
468.41	2401.39
468.60	2272.66
468.78	2345.22
468.96	2307.77
469.14	2363.94
469.32	2286.70
469.50	2197.76
469.69	2263.30
469.87	2176.70
470.05	2148.61
470.23	2244.57
470.41	2293.72
470.59	2251.60
470.77	2333.51
470.95	2399.05
471.14	2431.82
471.32	2356.92
471.50	2534.80
471.68	2567.57
471.86	2413.09
472.04	2593.31
472.22	2516.08
472.40	2462.24
472.58	2401.39
472.77	2377.98
472.95	2401.39
473.13	2499.69
473.31	2375.64
473.49	2359.26
473.67	2394.37
473.85	2455.22
474.03	2525.44
474.21	2574.59
474.39	2630.76
474.57	2537.14
474.75	2530.12
474.93	2537.14
475.12	2457.56
475.30	2389.69
475.48	2560.55
475.66	2466.92
475.84	2487.99
476.02	2544.16
476.20	2410.75
476.38	2438.84
476.56	2504.37
476.74	2586.29
476.92	2656.51
477.10	2614.38
477.28	2724.38
477.46	2663.53
477.64	2794.60
477.82	2710.34
478.00	2752.47
478.18	2705.66
478.36	2780.56
478.54	2628.42
478.72	2651.83
478.90	2679.91
479.08	2752.47
479.26	2888.22
479.44	2909.29
479.62	2815.66
479.80	2857.79
479.98	2792.26
480.16	2944.39
480.34	2935.03
480.52	2869.50
480.70	2970.14
480.88	2913.97
481.06	3040.36
481.24	3042.70
481.41	2979.50
481.59	3155.04
481.77	3176.11
481.95	2995.89
482.13	3026.31
482.31	3038.02
482.49	3014.61
482.67	3096.53
482.85	3110.57
483.03	3260.37
483.21	3185.47
483.39	3255.69
483.57	3159.72
483.74	3194.83
483.92	3141.00
484.10	3187.81
484.28	3272.07
484.46	3248.66
484.64	3213.56
484.82	3225.26
485.00	3173.77
485.18	3197.17
485.35	2949.08
485.53	2892.90
485.71	2672.89
485.89	2565.23
486.07	2502.03
486.25	2998.23
486.43	2892.90
486.61	3150.36
486.78	3103.55
486.96	3157.38
487.14	3232.28
487.32	3272.07
487.50	3339.94
487.68	3396.12
487.85	3548.25
488.03	3527.19
488.21	3578.68
488.39	3590.38
488.57	3349.31
488.75	3405.48
488.92	3550.59
489.10	3566.98
489.28	3817.41
489.46	3894.65
489.64	3808.05
489.81	3831.46
489.99	3838.48
490.17	3810.39
490.35	3992.95
490.53	3779.97
490.70	3829.12
490.88	3768.26
491.06	3859.54
491.24	3866.56
491.41	3712.09
491.59	3585.70
491.77	3370.37
491.95	3515.48
492.13	3529.53
492.30	3838.48
492.48	3899.33
492.66	4084.23
492.84	4030.40
493.01	3936.78
493.19	3805.71
493.37	3920.40
493.54	3808.05
493.72	4035.08
493.90	4060.83
494.08	4128.70
494.25	4287.86
494.43	4194.24
494.61	4301.90
494.79	4224.67
494.96	4283.18
495.14	4269.14
495.32	4117.00
495.49	4021.04
495.67	4112.32
495.85	4344.03
496.02	4341.69
496.20	4365.10
496.38	4259.78
496.55	4187.22
496.73	4280.84
496.91	4393.19
497.09	4554.68
497.26	4540.64
497.44	4435.32
497.62	4346.37
497.79	4252.75
497.97	4156.79
498.14	4042.11
498.32	4093.60
498.50	4397.87
498.67	4432.97
498.85	4266.80
499.03	4395.53
499.20	4348.72
499.38	4339.35
499.56	4468.08
499.73	4390.84
499.91	4315.95
500.08	4346.37
500.26	4128.70
500.44	4252.75
500.61	4212.96
500.79	4208.28
500.97	4138.07
501.14	4180.20
501.32	4219.99
501.49	4131.05
501.67	4154.45
501.84	4219.99
502.02	4208.28
502.20	4358.08
502.37	4388.50
502.55	4332.33
502.72	4353.40
502.90	4458.72
503.07	4332.33
503.25	4135.73
503.43	4018.70
503.60	3976.57
503.78	4042.11
503.95	3857.20
504.13	4049.13
504.30	4409.57
504.48	4278.50
504.65	4531.28
504.83	4320.63
505.01	4636.60
505.18	4463.40
505.36	4477.44
505.53	4444.68
505.71	4655.33
505.88	4594.47
506.06	4545.32
506.23	4465.74
506.41	4456.38
506.58	4292.54
506.76	4231.69
506.93	4362.76
507.11	4400.21
507.28	4337.01
507.46	4238.71
507.63	4264.46
507.81	4271.48
507.98	4224.67
508.16	4311.27
508.33	4491.49
508.50	4496.17
508.68	4683.41
508.85	4613.20
509.03	4697.46
509.20	4695.11
509.38	4587.45
509.55	4447.02
509.73	4526.60
509.90	4650.64
510.08	4697.46
510.25	4695.11
510.42	4554.68
510.60	4526.60
510.77	4547.66
510.95	4720.86
511.12	4634.26
511.30	4828.53
511.47	4748.95
511.64	4912.78
511.82	4812.14
511.99	4720.86
512.17	4505.53
512.34	4447.02
512.51	4458.72
512.69	4475.10
512.86	4589.79
513.04	4678.73
513.21	4800.44
513.38	4592.13
513.56	4540.64
513.73	4456.38
513.90	4496.17
514.08	4458.72
514.25	4526.60
514.43	4629.58
514.60	4622.56
514.77	4624.90
514.95	4664.69
515.12	4755.97
515.29	4564.04
515.47	4587.45
515.64	4725.54
515.81	4751.29
515.99	4706.82
516.16	4449.36
516.33	4163.81
516.51	3913.38
516.68	3810.39
516.85	3782.31
517.03	3737.84
517.20	4032.74
517.37	4409.57
517.54	4540.64
517.72	4489.15
517.89	4250.41
518.06	3927.42
518.24	3810.39
518.41	4149.77
518.58	4269.14
518.75	4456.38
518.93	4484.47
519.10	4381.48
519.27	4596.81
519.45	4512.55
519.62	4718.52
519.79	4802.78
519.96	4706.82
520.14	4624.90
520.31	4601.49
520.48	4407.23
520.65	4606.17
520.83	4753.63
521.00	4837.89
521.17	4868.31
521.34	4662.35
521.52	4755.97
521.69	4814.48
521.86	4781.71
522.03	4688.09
522.20	4678.73
522.38	4477.44
522.55	4496.17
522.72	4376.80
522.89	4571.07
523.07	4615.54
523.24	4638.94
523.41	4870.65
523.58	4915.12
523.75	4882.36
523.92	4926.83
524.10	4957.25
524.27	4999.38
524.44	4938.53
524.61	4947.89
524.78	4887.04
524.96	4875.34
525.13	4968.96
525.30	4865.97
525.47	4992.36
525.64	4837.89
525.81	4802.78
525.98	4587.45
526.16	4388.50
526.33	4278.50
526.50	4273.82
526.67	4058.49
526.84	4121.68
527.01	4332.33
527.18	4477.44
527.36	4489.15
527.53	4915.12
527.70	4868.31
527.87	4821.50
528.04	4905.76
528.21	4566.39
528.38	4950.23
528.55	5074.28
528.72	5071.94
528.89	5060.24
529.07	5104.71
529.24	4961.94
529.41	4873.00
529.58	4557.02
529.75	4774.69
529.92	4802.78
530.09	4933.85
530.26	4985.34
530.43	4917.47
530.60	5013.43
530.77	5041.51
530.94	4868.31
531.11	5114.07
531.28	4971.30
531.46	5027.47
531.63	4805.12
531.80	4880.02
531.97	4924.49
532.14	4603.83
532.31	4526.60
532.48	4432.97
532.65	4517.23
532.82	4535.96
532.99	4718.52
533.16	4798.10
533.33	4835.55
533.50	4945.55
533.67	4784.06
533.84	4760.65
534.01	4713.84
534.18	4791.08
534.35	4861.29
534.52	4891.72
534.69	4987.68
534.86	4748.95
535.03	4985.34
535.20	4980.66
535.37	5102.37
535.54	5071.94
535.71	5020.45
535.88	4992.36
536.05	4833.21
536.22	4762.99
536.38	4807.46
536.55	4709.16
536.72	4685.75
536.89	4580.43
537.06	4592.13
537.23	4744.27
537.40	4945.55
537.57	4966.62
537.74	4990.02
537.91	4917.47
538.08	4865.97
538.25	4823.84
538.42	4987.68
538.59	4849.59
538.75	4809.80
538.92	4709.16
539.09	4704.48
539.26	4660.01
539.43	4671.71
539.60	4695.11
539.77	4662.35
539.94	4826.18
540.11	4545.32
540.28	4690.43
540.44	4622.56
540.61	4676.39
540.78	4727.88
540.95	4830.87
541.12	4973.64
541.29	4915.12
541.46	5137.48
541.62	5008.75
541.79	4975.98
541.96	4950.23
542.13	4915.12
542.30	5015.77
542.47	4961.94
542.63	4926.83
542.80	4947.89
542.97	5071.94
543.14	4830.87
543.31	4894.06
543.48	5032.15
543.64	4943.21
543.81	5261.52
543.98	5123.43
544.15	5104.71
544.32	5060.24
544.48	4821.50
544.65	5050.88
544.82	5071.94
544.99	4959.60
545.16	4926.83
545.32	5097.69
545.49	5366.85
545.66	5554.09
545.83	5825.59
546.00	5643.03
546.16	5235.78
546.33	4926.83
546.50	5081.30
546.67	4929.17
546.83	4882.36
547.00	5027.47
547.17	4880.02
547.34	4636.60
547.50	4538.30
547.67	4779.37
547.84	4688.09
548.00	4793.42
548.17	4807.46
548.34	4760.65
548.51	4936.19
548.67	4828.53
548.84	4788.74
549.01	4746.61
549.18	4770.01
549.34	4795.76
549.51	4870.65
549.68	4896.40
549.84	4713.84
550.01	4821.50
550.18	4781.71
550.34	4784.06
550.51	4751.29
550.68	4730.22
550.84	4610.86
551.01	4669.37
551.18	4601.49
551.34	4734.90
551.51	4798.10
551.68	4938.53
551.84	4645.96
552.01	4720.86
552.18	4767.67
552.34	4533.62
552.51	4521.92
552.68	4517.23
552.84	4671.71
553.01	4681.07
553.18	4760.65
553.34	4627.24
553.51	4547.66
553.67	4655.33
553.84	4854.27
554.01	4685.75
554.17	4528.94
554.34	4655.33
554.51	4695.11
554.67	4524.26
554.84	4697.46
555.00	4770.01
555.17	4716.18
555.33	4716.18
555.50	4667.03
555.67	4500.85
555.83	4533.62
556.00	4535.96
556.16	4594.47
556.33	4458.72
556.50	4423.61
556.66	4498.51
556.83	4482.13
556.99	4461.06
557.16	4423.61
557.32	4447.02
557.49	4580.43
557.65	4587.45
557.82	4423.61
557.98	4648.30
558.15	4568.73
558.32	4489.15
558.48	4271.48
558.65	4142.75
558.81	4205.94
558.98	4372.12
559.14	4255.09
559.31	4425.95
559.47	4329.99
559.64	4315.95
559.80	4245.73
559.97	4203.60
560.13	4411.91
560.30	4388.50
560.46	4500.85
560.63	4533.62
560.79	4596.81
560.96	4631.92
561.12	4294.88
561.29	4248.07
561.45	4243.39
561.61	4212.96
561.78	4442.34
561.94	4358.08
562.11	4428.29
562.27	4306.59
562.44	4283.18
562.60	4383.82
562.77	4367.44
562.93	4451.70
563.10	4402.55
563.26	4311.27
563.42	4346.37
563.59	4367.44
563.75	4297.22
563.92	4187.22
564.08	4440.00
564.24	4245.73
564.41	4386.16
564.57	4390.84
564.74	4329.99
564.90	4315.95
565.07	4170.83
565.23	4311.27
565.39	4184.88
565.56	4084.23
565.72	4086.58
565.88	4177.86
566.05	4133.39
566.21	4177.86
566.38	4198.92
566.54	4276.16
566.70	4201.26
566.87	4320.63
567.03	4334.67
567.19	4245.73
567.36	4241.05
567.52	4262.12
567.68	4313.61
567.85	4175.52
568.01	4091.26
568.17	3929.76
568.34	3868.91
568.50	3950.82
568.66	3833.80
568.83	4046.79
568.99	3920.40
569.15	4093.60
569.32	3922.74
569.48	3861.88
569.64	3913.38
569.81	3934.44
569.97	3971.89
570.13	3932.10
570.30	3981.25
570.46	3838.48
570.62	3854.86
570.78	3808.05
570.95	3681.66
571.11	3833.80
571.27	4035.08
571.43	3833.80
571.60	3978.91
571.76	3964.87
571.92	3946.14
572.09	3967.21
572.25	3978.91
572.41	3960.19
572.57	3810.39
572.74	4035.08
572.90	3932.10
573.06	3957.85
573.22	3960.19
573.38	3943.80
573.55	3932.10
573.71	4007.00
573.87	3901.67
574.03	3885.29
574.20	3852.52
574.36	3850.18
574.52	3873.59
574.68	3918.06
574.84	3758.90
575.01	3845.50
575.17	3794.01
575.33	3740.18
575.49	3672.30
575.65	4063.17
575.82	3833.80
575.98	3925.08
576.14	3763.58
576.30	3946.14
576.46	3871.25
576.62	3920.40
576.79	3960.19
576.95	3955.51
577.11	3922.74
577.27	3859.54
577.43	3824.44
577.59	3882.95
577.75	3754.22
577.92	3648.90
578.08	3700.39
578.24	3737.84
578.40	3728.47
578.56	3918.06
578.72	3932.10
578.88	3948.48
579.04	3899.33
579.21	3756.56
579.37	3850.18
579.53	3880.61
579.69	3892.31
579.85	3934.44
580.01	3803.37
580.17	3889.97
580.33	3798.69
580.49	3812.73
580.65	3829.12
580.82	3971.89
580.98	3985.93
581.14	3859.54
581.30	3934.44
581.46	3819.75
581.62	3932.10
581.78	3829.12
581.94	4009.34
582.10	3875.93
582.26	3934.44
582.42	3892.31
582.58	3957.85
582.74	3871.25
582.90	3911.04
583.06	3999.98
583.22	3957.85
583.38	3786.99
583.54	3861.88
583.70	3918.06
583.86	3939.12
584.02	3854.86
584.18	3995.29
584.34	3932.10
584.50	3899.33
584.66	3660.60
584.82	3817.41
584.98	3679.32
585.14	3861.88
585.30	3726.13
585.46	3557.61
585.62	3667.62
585.78	3798.69
585.94	3681.66
586.10	3698.05
586.26	3653.58
586.42	3702.73
586.58	3801.03
586.74	3805.71
586.90	3613.79
587.06	3794.01
587.22	3709.75
587.38	3468.67
587.54	3438.25
587.70	3492.08
587.86	3304.84
588.02	3267.39
588.18	3246.32
588.34	3190.15
588.49	2944.39
588.65	2698.64
588.81	2722.04
588.97	2665.87
589.13	2562.89
589.29	2686.94
589.45	2712.68
589.61	2775.88
589.77	2890.56
589.93	2810.98
590.08	3082.49
590.24	3183.13
590.40	3063.76
590.56	3166.74
590.72	3026.31
590.88	3052.06
591.04	3026.31
591.20	3042.70
591.35	3089.51
591.51	3000.57
591.67	2963.12
591.83	3021.63
591.99	2876.52
592.15	2899.92
592.31	3056.74
592.46	3239.30
592.62	3220.58
592.78	3211.22
592.94	3220.58
593.10	3342.28
593.26	3375.05
593.41	3440.59
593.57	3272.07
593.73	3211.22
593.89	3201.85
594.05	2773.53
594.20	2757.15
594.36	2939.71
594.52	2768.85
594.68	2813.32
594.84	2855.45
594.99	3141.00
595.15	3199.51
595.31	3295.47
595.47	3276.75
595.62	2979.50
595.78	3171.43
595.94	3286.11
596.10	3258.03
596.25	3283.77
596.41	3166.74
596.57	3038.02
596.73	3190.15
596.88	3185.47
597.04	3304.84
597.20	3077.80
597.36	3164.40
597.51	3143.34
597.67	3180.79
597.83	3169.09
597.99	3255.69
