SpectraSuite Data File
++++++++++++++++++++++++++++++++++++
Date: Fri Oct 04 11:44:13 GMT-05:00 2013
User: price-jones
Dark Spectrum Present: No
Reference Spectrum Present: No
Number of Sampled Component Spectra: 1
Spectrometers: USB2+H05261
Integration Time (usec): 100000 (USB2+H05261)
Spectra Averaged: 1 (USB2+H05261)
Boxcar Smoothing: 0 (USB2+H05261)
Correct for Electrical Dark: No (USB2+H05261)
Strobe/Lamp Enabled: No (USB2+H05261)
Correct for Detector Non-linearity: No (USB2+H05261)
Correct for Stray Light: No (USB2+H05261)
Number of Pixels in Processed Spectrum: 2048
>>>>>Begin Processed Spectral Data<<<<<
365.73	126.39
365.92	126.39
366.12	126.39
366.32	0.00
366.52	0.00
366.72	0.00
366.91	0.00
367.11	0.00
367.31	0.00
367.51	0.00
367.70	0.00
367.90	0.00
368.10	0.00
368.30	0.00
368.49	0.00
368.69	0.00
368.89	0.00
369.09	0.00
369.28	0.00
369.48	0.00
369.68	4.68
369.87	0.00
370.07	0.00
370.27	44.47
370.47	212.99
370.66	568.75
370.86	587.47
371.06	713.86
371.25	795.78
371.45	695.14
371.65	734.93
371.84	587.47
372.04	638.97
372.24	737.27
372.44	730.25
372.63	753.65
372.83	678.76
373.03	650.67
373.22	535.98
373.42	662.37
373.62	695.14
373.81	755.99
374.01	781.74
374.21	755.99
374.40	711.52
374.60	709.18
374.79	711.52
374.99	910.47
375.19	910.47
375.38	837.91
375.58	943.24
375.78	842.59
375.97	851.96
376.17	842.59
376.37	847.27
376.56	896.43
376.76	976.00
376.95	959.62
377.15	1043.88
377.35	1090.69
377.54	1224.10
377.74	1015.79
377.93	1083.67
378.13	1027.50
378.33	1095.37
378.52	971.32
378.72	976.00
378.91	973.66
379.11	917.49
379.31	905.79
379.50	952.60
379.70	999.41
379.89	1114.10
380.09	1013.45
380.28	1039.20
380.48	1156.22
380.68	999.41
380.87	943.24
381.07	1027.50
381.26	947.92
381.46	889.40
381.65	847.27
381.85	837.91
382.04	847.27
382.24	688.12
382.43	711.52
382.63	760.67
382.83	683.44
383.02	760.67
383.22	676.41
383.41	784.08
383.61	767.70
383.80	830.89
384.00	947.92
384.19	1107.07
384.39	1064.94
384.58	1001.75
384.78	1029.84
384.97	987.71
385.17	999.41
385.36	999.41
385.56	868.34
385.75	957.28
385.95	1057.92
386.14	1109.41
386.34	1153.88
386.53	1144.52
386.72	990.05
386.92	1081.33
387.11	1139.84
387.31	1060.26
387.50	1149.20
387.70	1027.50
387.89	1046.22
388.09	980.68
388.28	1022.81
388.48	1046.22
388.67	1078.99
388.86	1123.46
389.06	1214.74
389.25	1371.55
389.45	1329.42
389.64	1409.00
389.84	1385.60
390.03	1385.60
390.22	1427.73
390.42	1322.40
390.61	1511.99
390.81	1497.94
391.00	1619.65
391.19	1530.71
391.39	1390.28
391.58	1341.13
391.78	1299.00
391.97	1280.27
392.16	1247.51
392.36	1128.14
392.55	1011.11
392.75	826.21
392.94	753.65
393.13	758.33
393.33	814.51
393.52	966.64
393.71	1076.65
393.91	1219.42
394.10	1282.61
394.29	1397.30
394.49	1547.09
394.68	1600.93
394.88	1570.50
395.07	1652.42
395.26	1661.78
395.46	1614.97
395.65	1547.09
395.84	1390.28
396.04	1275.59
396.23	950.26
396.42	842.59
396.62	971.32
396.81	931.53
397.00	1142.18
397.19	1427.73
397.39	1600.93
397.58	1813.92
397.77	1846.68
397.97	1916.90
398.16	2010.52
398.35	1994.14
398.55	2024.56
398.74	2153.29
398.93	2153.29
399.12	2146.27
399.32	2099.46
399.51	2253.94
399.70	2310.11
399.90	2253.94
400.09	2106.48
400.28	2207.13
400.47	2310.11
400.67	2293.72
400.86	2331.17
401.05	2342.88
401.24	2377.98
401.44	2368.62
401.63	2445.86
401.82	2408.41
402.01	2436.50
402.21	2504.37
402.40	2473.95
402.59	2373.30
402.78	2270.32
402.97	2284.36
403.17	2368.62
403.36	2450.54
403.55	2457.56
403.74	2530.12
403.93	2525.44
404.13	2476.29
404.32	2574.59
404.51	2672.89
404.70	2612.04
404.89	2471.61
405.09	2558.21
405.28	2443.52
405.47	2422.45
405.66	2389.69
405.85	2366.28
406.05	2324.15
406.24	2275.00
406.43	2459.90
406.62	2396.71
406.81	2506.71
407.00	2438.84
407.20	2394.37
407.39	2422.45
407.58	2588.63
407.77	2597.99
407.96	2672.89
408.15	2663.53
408.34	2651.83
408.54	2780.56
408.73	2703.32
408.92	2754.81
409.11	2682.25
409.30	2492.67
409.49	2363.94
409.68	2197.76
409.87	2260.96
410.07	2363.94
410.26	2539.48
410.45	2600.34
410.64	2649.49
410.83	2700.98
411.02	2764.17
411.21	2946.73
411.40	2963.12
411.59	2918.65
411.78	2855.45
411.98	2822.69
412.17	2944.39
412.36	2867.16
412.55	2815.66
412.74	2850.77
412.93	2834.39
413.12	2862.48
413.31	2965.46
413.50	3082.49
413.69	3026.31
413.88	2939.71
414.07	2944.39
414.26	2913.97
414.45	3028.65
414.64	3094.19
414.83	3023.97
415.02	2993.55
415.22	3026.31
415.41	3150.36
415.60	3206.53
415.79	3190.15
415.98	3363.35
416.17	3375.05
416.36	3185.47
416.55	3227.60
416.74	3082.49
416.93	3016.95
417.12	2981.84
417.31	3073.12
417.50	3049.72
417.69	3220.58
417.88	3136.32
418.07	3108.23
418.26	3126.96
418.45	3199.51
418.64	3080.14
418.83	3396.12
419.02	3286.11
419.21	3236.96
419.39	3176.11
419.58	2888.22
419.77	3045.04
419.96	3115.25
420.15	3412.50
420.34	3286.11
420.53	3463.99
420.72	3520.17
420.91	3463.99
421.10	3346.97
421.29	3536.55
421.48	3309.52
421.67	3414.84
421.86	3435.91
422.05	3066.10
422.24	2885.88
422.43	2991.20
422.61	3178.45
422.80	3389.10
422.99	3412.50
423.18	3178.45
423.37	3325.90
423.56	3204.19
423.75	3253.34
423.94	3279.09
424.13	3236.96
424.32	3215.90
424.50	3297.81
424.69	3183.13
424.88	3239.30
425.07	3159.72
425.26	3045.04
425.45	3098.87
425.64	3045.04
425.83	3103.55
426.01	3302.50
426.20	3208.87
426.39	3332.92
426.58	3000.57
426.77	2888.22
426.96	2715.02
427.15	2768.85
427.33	2972.48
427.52	3199.51
427.71	3197.17
427.90	3023.97
428.09	3066.10
428.28	2946.73
428.46	2909.29
428.65	2906.95
428.84	3061.42
429.03	2958.44
429.22	2775.88
429.40	2747.79
429.59	2560.55
429.78	2279.68
429.97	2251.60
430.16	2101.80
430.34	2317.13
430.53	2303.09
430.72	2392.03
430.91	2534.80
431.10	2970.14
431.28	3379.73
431.47	3562.30
431.66	3496.76
431.85	3438.25
432.03	3164.40
432.22	3225.26
432.41	3206.53
432.60	3375.05
432.79	3562.30
432.97	3557.61
433.16	3630.17
433.35	3262.71
433.54	2920.99
433.72	2836.73
433.91	3016.95
434.10	3274.41
434.28	3396.12
434.47	3566.98
434.66	3487.40
434.85	3435.91
435.03	3501.44
435.22	4070.19
435.41	5085.98
435.59	5235.78
435.78	4840.23
435.97	4376.80
436.16	3992.95
436.34	3798.69
436.53	3875.93
436.72	3857.20
436.90	3653.58
437.09	3620.81
437.28	3576.34
437.46	3590.38
437.65	3480.38
437.84	3243.98
438.02	3206.53
438.21	3115.25
438.40	3316.54
438.58	3372.71
438.77	3531.87
438.96	3676.98
439.14	3796.35
439.33	3920.40
439.52	3836.14
439.70	3779.97
439.89	3637.19
440.08	3709.75
440.26	3691.02
440.45	3779.97
440.63	3845.50
440.82	4269.14
441.01	4109.98
441.19	4093.60
441.38	4119.34
441.57	4245.73
441.75	4423.61
441.94	4440.00
442.12	4376.80
442.31	4425.95
442.50	4381.48
442.68	4351.06
442.87	4259.78
443.05	4191.90
443.24	4339.35
443.43	4224.67
443.61	4447.02
443.80	4393.19
443.98	4133.39
444.17	4208.28
444.35	4449.36
444.54	4550.00
444.73	4454.04
444.91	4269.14
445.10	4007.00
445.28	4109.98
445.47	3985.93
445.65	4056.15
445.84	4025.72
446.02	4182.54
446.21	4194.24
446.39	4299.56
446.58	4219.99
446.77	4194.24
446.95	4456.38
447.14	4505.53
447.32	4695.11
447.51	4603.83
447.69	4304.25
447.88	4348.72
448.06	4400.21
448.25	4444.68
448.43	4470.42
448.62	4402.55
448.80	4311.27
448.99	4358.08
449.17	4418.93
449.36	4435.32
449.54	4746.61
449.73	4805.12
449.91	4826.18
450.10	4844.91
450.28	4873.00
450.46	5043.85
450.65	4992.36
450.83	4690.43
451.02	4636.60
451.20	4681.07
451.39	4755.97
451.57	4650.64
451.76	4690.43
451.94	4662.35
452.13	4524.26
452.31	4365.10
452.49	4224.67
452.68	4287.86
452.86	4308.93
453.05	4365.10
453.23	4498.51
453.42	4521.92
453.60	4655.33
453.78	4575.75
453.97	4578.09
454.15	4564.04
454.34	4493.83
454.52	4589.79
454.70	4472.76
454.89	4554.68
455.07	4383.82
455.26	4369.78
455.44	4697.46
455.62	4739.58
455.81	4758.31
455.99	4910.44
456.17	4812.14
456.36	4770.01
456.54	4814.48
456.73	4798.10
456.91	4835.55
457.09	5060.24
457.28	4985.34
457.46	4901.08
457.64	4777.03
457.83	4512.55
458.01	4624.90
458.19	4709.16
458.38	4660.01
458.56	4770.01
458.74	4910.44
458.93	4779.37
459.11	4727.88
459.29	4737.24
459.48	4805.12
459.66	4662.35
459.84	4873.00
460.03	4779.37
460.21	4826.18
460.39	5039.17
460.57	5060.24
460.76	5097.69
460.94	5013.43
461.12	5011.09
461.31	4947.89
461.49	4990.02
461.67	4987.68
461.85	5041.51
462.04	5064.92
462.22	5533.03
462.40	5139.82
462.59	5259.18
462.77	4875.34
462.95	5146.84
463.13	4924.49
463.32	4847.25
463.50	4957.25
463.68	4954.91
463.86	5039.17
464.05	4863.63
464.23	4896.40
464.41	4725.54
464.59	4678.73
464.78	4961.94
464.96	4767.67
465.14	4856.61
465.32	4924.49
465.50	4926.83
465.69	5179.61
465.87	5048.54
466.05	4802.78
466.23	4667.03
466.41	4599.15
466.60	4744.27
466.78	4795.76
466.96	4667.03
467.14	4896.40
467.32	4919.81
467.51	4999.38
467.69	4706.82
467.87	4844.91
468.05	4870.65
468.23	4938.53
468.41	4887.04
468.60	4938.53
468.78	4999.38
468.96	4896.40
469.14	4985.34
469.32	4964.28
469.50	4657.67
469.69	4816.82
469.87	4716.18
470.05	4697.46
470.23	4758.31
470.41	4648.30
470.59	4809.80
470.77	4819.16
470.95	4973.64
471.14	4992.36
471.32	4788.74
471.50	5205.35
471.68	5268.55
471.86	5217.05
472.04	5357.49
472.22	5200.67
472.40	5036.83
472.58	4882.36
472.77	4980.66
472.95	5158.54
473.13	5486.22
473.31	4999.38
473.49	5090.67
473.67	5235.78
473.85	5217.05
474.03	5366.85
474.21	5270.89
474.39	5420.68
474.57	5411.32
474.75	5359.83
474.93	5280.25
475.12	5158.54
475.30	5280.25
475.48	5336.42
475.66	5310.68
475.84	5247.48
476.02	5238.12
476.20	5242.80
476.38	5259.18
476.56	5345.78
476.74	5441.75
476.92	5523.66
477.10	5554.09
477.28	5682.82
477.46	5722.61
477.64	5804.53
477.82	5741.33
478.00	5916.87
478.18	5788.14
478.36	5678.14
478.54	5621.97
478.72	5785.80
478.90	5888.79
479.08	6092.41
479.26	6120.50
479.44	6171.99
479.62	6157.95
479.80	6202.42
479.98	5912.19
480.16	6134.54
480.34	6221.14
480.52	6279.66
480.70	6377.96
480.88	6132.20
481.06	6415.41
481.24	6162.63
481.41	6443.49
481.59	6633.08
481.77	6600.31
481.95	6471.58
482.13	6466.90
482.31	6574.56
482.49	6530.09
482.67	6576.91
482.85	6593.29
483.03	6867.13
483.21	6752.45
483.39	6836.70
483.57	6612.01
483.74	6590.95
483.92	6820.32
484.10	6574.56
484.28	6785.21
484.46	6946.71
484.64	7089.48
484.82	6754.79
485.00	6705.63
485.18	6544.14
485.35	6607.33
485.53	6078.37
485.71	5762.40
485.89	5401.96
486.07	5849.00
486.25	6115.82
486.43	6649.46
486.61	6628.40
486.78	6771.17
486.96	6604.99
487.14	6927.99
487.32	7059.06
487.50	7040.33
487.68	7349.28
487.85	7588.02
488.03	7641.85
488.21	7405.46
488.39	7304.81
488.57	7290.77
488.75	7070.76
488.92	7485.03
489.10	7791.64
489.28	8004.63
489.46	8217.62
489.64	8215.28
489.81	8374.44
489.99	8098.25
490.17	8124.00
490.35	8131.02
490.53	8058.46
490.70	7988.25
490.88	8100.59
491.06	8257.41
491.24	8276.13
491.41	8058.46
491.59	7793.98
491.77	7351.62
491.95	7756.54
492.13	7847.82
492.30	8194.22
492.48	8496.14
492.66	8538.27
492.84	8540.61
493.01	8535.93
493.19	8418.91
493.37	8315.92
493.54	8248.05
493.72	8374.44
493.90	8755.94
494.08	8772.33
494.25	9158.52
494.43	9193.62
494.61	9329.38
494.79	9305.97
494.96	9188.94
495.14	8879.99
495.32	8767.65
495.49	8582.74
495.67	8695.09
495.85	9067.24
496.02	9366.82
496.20	9231.07
496.38	9111.71
496.55	9146.81
496.73	9067.24
496.91	9212.35
497.09	9441.72
497.26	9425.34
497.44	9266.18
497.62	9207.67
497.79	8823.82
497.97	8585.08
498.14	8596.79
498.32	8877.65
498.50	9219.37
498.67	9289.59
498.85	9266.18
499.03	9261.50
499.20	9643.01
499.38	9317.67
499.56	9294.27
499.73	9130.43
499.91	9109.36
500.08	9029.79
500.26	8641.26
500.44	8671.68
500.61	9146.81
500.79	9202.99
500.97	8709.13
501.14	8718.50
501.32	8863.61
501.49	8798.07
501.67	8870.63
501.84	8865.95
502.02	8898.72
502.20	8971.27
502.37	9102.34
502.55	9064.89
502.72	9146.81
502.90	9277.88
503.07	9212.35
503.25	8879.99
503.43	8610.83
503.60	8432.95
503.78	8355.71
503.95	8334.65
504.13	8732.54
504.30	9123.41
504.48	9305.97
504.65	9305.97
504.83	9114.05
505.01	9315.33
505.18	9673.43
505.36	9549.39
505.53	9378.53
505.71	9760.03
505.88	9991.75
506.06	9692.16
506.23	9352.78
506.41	9301.29
506.58	9509.60
506.76	9448.74
506.93	9401.93
507.11	9268.52
507.28	9547.05
507.46	9060.21
507.63	8924.46
507.81	9088.30
507.98	8978.30
508.16	9415.98
508.33	9537.68
508.50	9666.41
508.68	9605.56
508.85	9736.63
509.03	9984.73
509.20	9809.19
509.38	9741.31
509.55	9628.96
509.73	9455.76
509.90	9582.15
510.08	9619.60
510.25	9724.93
510.42	9605.56
510.60	9675.77
510.77	9584.49
510.95	9942.60
511.12	9935.57
511.30	10076.01
511.47	10328.78
511.64	10246.87
511.82	10363.89
511.99	9820.89
512.17	9647.69
512.34	9668.75
512.51	9689.82
512.69	9371.50
512.86	9853.66
513.04	9830.25
513.21	9795.14
513.38	9582.15
513.56	9439.38
513.73	9249.80
513.90	9483.85
514.08	9362.14
514.25	9575.13
514.43	9687.48
514.60	9577.47
514.77	9650.03
514.95	9736.63
515.12	9727.27
515.29	9743.65
515.47	10120.48
515.64	9893.44
515.81	9783.44
515.99	9713.22
516.16	9305.97
516.33	8564.02
516.51	8095.91
516.68	7925.05
516.85	7789.30
517.03	7866.54
517.20	8425.93
517.37	9312.99
517.54	9638.33
517.72	9603.22
517.89	8814.46
518.06	8479.76
518.24	8182.51
518.41	8891.70
518.58	9198.31
518.75	9495.55
518.93	9444.06
519.10	9408.95
519.27	9408.95
519.45	9682.80
519.62	9944.94
519.79	9834.93
519.96	9797.48
520.14	9628.96
520.31	9341.08
520.48	9357.46
520.65	9441.72
520.83	9804.50
521.00	10223.46
521.17	9940.26
521.34	9535.34
521.52	9884.08
521.69	9886.42
521.86	10232.82
522.03	10111.11
522.20	9586.83
522.38	9200.65
522.55	9282.56
522.72	9586.83
522.89	9575.13
523.07	9769.40
523.24	9837.27
523.41	9865.36
523.58	9839.61
523.75	10204.74
523.92	10321.76
524.10	10169.63
524.27	10270.27
524.44	10031.54
524.61	10083.03
524.78	10003.45
524.96	10047.92
525.13	9898.13
525.30	10003.45
525.47	10338.15
525.64	10326.44
525.81	10073.67
525.98	9675.77
526.16	9142.13
526.33	8865.95
526.50	8931.48
526.67	8613.17
526.84	8777.01
527.01	8950.21
527.18	9263.84
527.36	9528.32
527.53	9830.25
527.70	10183.67
527.87	9724.93
528.04	9781.10
528.21	10019.83
528.38	10104.09
528.55	10246.87
528.72	10267.93
528.89	10551.14
529.07	10480.92
529.24	10178.99
529.41	10031.54
529.58	9617.26
529.75	9659.39
529.92	9628.96
530.09	10186.01
530.26	10267.93
530.43	10258.57
530.60	10347.51
530.77	10221.12
530.94	10551.14
531.11	10235.16
531.28	10160.27
531.46	10010.47
531.63	10328.78
531.80	10202.40
531.97	10174.31
532.14	9895.78
532.31	9610.24
532.48	9149.15
532.65	8985.32
532.82	9303.63
532.99	9841.95
533.16	10001.11
533.33	10209.42
533.50	10083.03
533.67	9914.51
533.84	9654.71
534.01	9717.90
534.18	9666.41
534.35	9989.41
534.52	10043.24
534.69	10190.69
534.86	10249.21
535.03	10125.16
535.20	10450.49
535.37	10314.74
535.54	10377.94
535.71	10354.53
535.88	10469.22
536.05	9966.00
536.22	9954.30
536.38	9888.76
536.55	9549.39
536.72	9586.83
536.89	9476.83
537.06	9659.39
537.23	9963.66
537.40	10244.52
537.57	10160.27
537.74	10090.05
537.91	10129.84
538.08	10164.95
538.25	10153.24
538.42	10356.87
538.59	10115.80
538.75	9902.81
538.92	9771.74
539.09	9977.70
539.26	9706.20
539.43	9650.03
539.60	9671.09
539.77	9989.41
539.94	9907.49
540.11	9778.76
540.28	9514.28
540.44	9586.83
540.61	9680.46
540.78	9980.04
540.95	10122.82
541.12	10221.12
541.29	10583.90
541.46	10761.78
541.62	10764.12
541.79	10813.28
541.96	10593.26
542.13	10630.71
542.30	10703.27
542.47	10602.63
542.63	10459.85
542.80	10303.04
542.97	10377.94
543.14	10286.65
543.31	10303.04
543.48	10382.62
543.64	10693.91
543.81	10874.13
543.98	10668.16
544.15	10586.24
544.32	10457.51
544.48	10317.08
544.65	10654.12
544.82	10703.27
544.99	10473.90
545.16	10317.08
545.32	10389.64
545.49	11239.25
545.66	12521.87
545.83	13465.10
546.00	13018.06
546.16	11541.18
546.33	11035.63
546.50	10609.65
546.67	10600.29
546.83	10436.45
547.00	10279.63
547.17	10150.90
547.34	9839.61
547.50	9820.89
547.67	9961.32
547.84	9998.77
548.00	10001.11
548.17	10045.58
548.34	10129.84
548.51	10167.29
548.67	10157.92
548.84	9937.91
549.01	9900.47
549.18	9884.08
549.34	9930.89
549.51	9923.87
549.68	9825.57
549.84	9783.44
550.01	9870.04
550.18	9989.41
550.34	9788.12
550.51	9659.39
550.68	9710.88
550.84	9425.34
551.01	9511.94
551.18	9469.81
551.34	9650.03
551.51	9776.42
551.68	9790.46
551.84	9914.51
552.01	9619.60
552.18	9956.64
552.34	9472.15
552.51	9329.38
552.68	9245.12
552.84	9399.59
553.01	9446.40
553.18	9432.36
553.34	9329.38
553.51	9591.52
553.67	9657.05
553.84	9551.73
554.01	9493.21
554.17	9680.46
554.34	9444.06
554.51	9689.82
554.67	9687.48
554.84	9867.70
555.00	9420.66
555.17	9591.52
555.33	9327.03
555.50	9380.87
555.67	9146.81
555.83	9289.59
556.00	9366.82
556.16	9371.50
556.33	9263.84
556.50	8889.35
556.66	9078.94
556.83	9107.02
556.99	9111.71
557.16	8924.46
557.32	8982.98
557.49	9324.69
557.65	9233.41
557.82	9245.12
557.98	9109.36
558.15	9088.30
558.32	8861.27
558.48	8578.06
558.65	8479.76
558.81	8795.73
558.98	8828.50
559.14	8772.33
559.31	8891.70
559.47	8882.33
559.64	8725.52
559.80	8748.92
559.97	8676.37
560.13	8585.08
560.30	8952.55
560.46	9125.75
560.63	9067.24
560.79	9210.01
560.96	9158.52
561.12	8812.12
561.29	8692.75
561.45	8645.94
561.61	8741.90
561.78	8767.65
561.94	8781.69
562.11	8898.72
562.27	8744.24
562.44	8901.06
562.60	8753.60
562.77	8912.76
562.93	8882.33
563.10	9062.55
563.26	8954.89
563.42	8922.12
563.59	8690.41
563.75	8688.07
563.92	8732.54
564.08	8585.08
564.24	8758.28
564.41	8697.43
564.57	8821.48
564.74	8587.43
564.90	8566.36
565.07	8568.70
565.23	8454.02
565.39	8416.57
565.56	8351.03
565.72	8198.90
565.88	8264.43
566.05	8229.32
566.21	8437.63
566.38	8159.11
566.54	8465.72
566.70	8585.08
566.87	8648.28
567.03	8854.25
567.19	8718.50
567.36	8524.23
567.52	8610.83
567.68	8465.72
567.85	8194.22
568.01	8168.47
568.17	7913.35
568.34	7819.73
568.50	7672.28
568.66	7700.36
568.83	7796.32
568.99	7803.35
569.15	8070.17
569.32	8006.97
569.48	7885.26
569.64	7796.32
569.81	7754.19
569.97	7999.95
570.13	8093.57
570.30	7873.56
570.46	7688.66
570.62	7651.21
570.78	7625.47
570.95	7634.83
571.11	7845.48
571.27	7836.11
571.43	7618.44
571.60	7992.93
571.76	7899.31
571.92	7843.14
572.09	8203.58
572.25	7903.99
572.41	7878.24
572.57	8058.46
572.74	7920.37
572.90	8107.62
573.06	7911.01
573.22	7927.39
573.38	7896.97
573.55	7819.73
573.71	7974.21
573.87	7957.82
574.03	7770.58
574.20	7793.98
574.36	7566.95
574.52	7768.24
574.68	7683.98
574.84	7625.47
575.01	7442.90
575.17	7627.81
575.33	7576.31
575.49	7651.21
575.65	7548.23
575.82	7447.58
575.98	7419.50
576.14	7536.52
576.30	7707.38
576.46	8063.15
576.62	8161.45
576.79	8510.19
576.95	8131.02
577.11	7988.25
577.27	7751.85
577.43	7803.35
577.59	7770.58
577.75	7564.61
577.92	7391.41
578.08	7377.37
578.24	7318.86
578.40	7555.25
578.56	7915.69
578.72	7932.08
578.88	8257.41
579.04	8023.36
579.21	7765.90
579.37	7875.90
579.53	7826.75
579.69	7698.02
579.85	7845.48
580.01	8051.44
580.17	7896.97
580.33	7831.43
580.49	7815.05
580.65	7686.32
580.82	7798.66
580.98	7639.51
581.14	7597.38
581.30	7946.12
581.46	7609.08
581.62	7786.96
581.78	7901.65
581.94	7868.88
582.10	7950.80
582.26	7922.71
582.42	7903.99
582.58	7836.11
582.74	7985.91
582.90	8028.04
583.06	7880.58
583.22	7887.61
583.38	7744.83
583.54	7700.36
583.70	8006.97
583.86	7875.90
584.02	7695.68
584.18	7999.95
584.34	7761.22
584.50	7782.28
584.66	7826.75
584.82	7758.88
584.98	7435.88
585.14	7599.72
585.30	7438.22
585.46	7524.82
585.62	7412.48
585.78	7419.50
585.94	7597.38
586.10	7438.22
586.26	7639.51
586.42	7564.61
586.58	7632.49
586.74	7733.13
586.90	7737.81
587.06	7576.31
587.22	7597.38
587.38	7328.22
587.54	7302.47
587.70	7035.65
587.86	6869.47
588.02	6707.98
588.18	6516.05
588.34	6090.07
588.49	5682.82
588.65	5628.99
588.81	5348.12
588.97	5453.45
589.13	5383.23
589.29	5577.50
589.45	5430.04
589.61	5502.60
589.77	5685.16
589.93	5898.15
590.08	6197.74
590.24	6134.54
590.40	6164.97
590.56	6232.85
590.72	6314.77
590.88	6221.14
591.04	6422.43
591.20	6258.59
591.35	6104.12
591.51	6183.70
591.67	5844.32
591.83	6057.31
591.99	5884.11
592.15	6167.31
592.31	6263.27
592.46	6539.46
592.62	6541.80
592.78	6651.80
592.94	6537.12
593.10	6686.91
593.26	6855.43
593.41	6869.47
593.57	6644.78
593.73	6415.41
593.89	6118.16
594.05	5874.74
594.20	5975.39
594.36	5680.48
594.52	5746.02
594.68	5661.76
594.84	5818.57
594.99	6321.79
595.15	6483.28
595.31	6258.59
595.47	6176.67
595.62	6225.82
595.78	6511.37
595.94	6424.77
596.10	6846.07
