SpectraSuite Data File
++++++++++++++++++++++++++++++++++++
Date: Fri Oct 04 11:44:19 GMT-05:00 2013
User: price-jones
Dark Spectrum Present: No
Reference Spectrum Present: No
Number of Sampled Component Spectra: 1
Spectrometers: USB2+H05261
Integration Time (usec): 100000 (USB2+H05261)
Spectra Averaged: 1 (USB2+H05261)
Boxcar Smoothing: 0 (USB2+H05261)
Correct for Electrical Dark: No (USB2+H05261)
Strobe/Lamp Enabled: No (USB2+H05261)
Correct for Detector Non-linearity: No (USB2+H05261)
Correct for Stray Light: No (USB2+H05261)
Number of Pixels in Processed Spectrum: 2048
>>>>>Begin Processed Spectral Data<<<<<
365.73	0.00
365.92	0.00
366.12	0.00
366.32	0.00
366.52	0.00
366.72	0.00
366.91	0.00
367.11	0.00
367.31	0.00
367.51	0.00
367.70	0.00
367.90	21.06
368.10	0.00
368.30	0.00
368.49	0.00
368.69	0.00
368.89	0.00
369.09	0.00
369.28	0.00
369.48	21.06
369.68	0.00
369.87	0.00
370.07	0.00
370.27	70.22
370.47	110.01
370.66	332.36
370.86	526.62
371.06	519.60
371.25	622.58
371.45	470.45
371.65	496.19
371.84	428.32
372.04	383.85
372.24	472.79
372.44	489.17
372.63	514.92
372.83	540.66
373.03	486.83
373.22	479.81
373.42	496.19
373.62	456.40
373.81	540.66
374.01	517.26
374.21	465.77
374.40	463.43
374.60	545.34
374.79	528.96
374.99	470.45
375.19	622.58
375.38	718.54
375.58	601.52
375.78	634.29
375.97	643.65
376.17	653.01
376.37	657.69
376.56	540.66
376.76	629.60
376.95	662.37
377.15	755.99
377.35	760.67
377.54	786.42
377.74	833.23
377.93	767.70
378.13	627.26
378.33	727.91
378.52	713.86
378.72	653.01
378.91	645.99
379.11	704.50
379.31	622.58
379.50	627.26
379.70	671.73
379.89	755.99
380.09	613.22
380.28	681.10
380.48	784.08
380.68	723.23
380.87	662.37
381.07	770.04
381.26	650.67
381.46	578.11
381.65	573.43
381.85	568.75
382.04	498.53
382.24	543.00
382.43	489.17
382.63	486.83
382.83	458.74
383.02	500.87
383.22	538.32
383.41	517.26
383.61	526.62
383.80	636.63
384.00	697.48
384.19	737.27
384.39	777.06
384.58	730.25
384.78	674.07
384.97	760.67
385.17	692.80
385.36	662.37
385.56	573.43
385.75	627.26
385.95	739.61
386.14	645.99
386.34	753.65
386.53	643.65
386.72	739.61
386.92	716.20
387.11	732.59
387.31	627.26
387.50	760.67
387.70	608.54
387.89	716.20
388.09	739.61
388.28	692.80
388.48	709.18
388.67	732.59
388.86	777.06
389.06	842.59
389.25	926.85
389.45	936.21
389.64	943.24
389.84	861.32
390.03	891.74
390.22	873.02
390.42	908.13
390.61	905.79
390.81	1062.60
391.00	950.26
391.19	1064.94
391.39	961.96
391.58	973.66
391.78	903.45
391.97	887.06
392.16	777.06
392.36	739.61
392.55	578.11
392.75	486.83
392.94	512.58
393.13	461.09
393.33	496.19
393.52	702.16
393.71	882.38
393.91	840.25
394.10	861.32
394.29	901.11
394.49	929.19
394.68	1067.28
394.88	1125.80
395.07	1090.69
395.26	1128.14
395.46	1015.79
395.65	978.34
395.84	812.17
396.04	844.93
396.23	734.93
396.42	545.34
396.62	557.05
396.81	674.07
397.00	791.10
397.19	896.43
397.39	1086.01
397.58	1263.89
397.77	1210.06
397.97	1217.08
398.16	1217.08
398.35	1455.81
398.55	1460.49
398.74	1544.75
398.93	1540.07
399.12	1507.30
399.32	1451.13
399.51	1406.66
399.70	1455.81
399.90	1458.15
400.09	1420.71
400.28	1521.35
400.47	1474.54
400.67	1544.75
400.86	1542.41
401.05	1549.43
401.24	1540.07
401.44	1743.70
401.63	1600.93
401.82	1612.63
402.01	1694.55
402.21	1680.50
402.40	1626.67
402.59	1584.54
402.78	1586.88
402.97	1509.65
403.17	1664.12
403.36	1603.27
403.55	1741.36
403.74	1790.51
403.93	1701.57
404.13	1764.76
404.32	1755.40
404.51	1757.74
404.70	1825.62
404.89	1685.19
405.09	1673.48
405.28	1579.86
405.47	1474.54
405.66	1624.33
405.85	1570.50
406.05	1626.67
406.24	1523.69
406.43	1645.40
406.62	1626.67
406.81	1617.31
407.00	1598.59
407.20	1575.18
407.39	1643.06
407.58	1661.78
407.77	1724.97
407.96	1739.02
408.15	1769.44
408.34	1776.47
408.54	1853.70
408.73	1778.81
408.92	1748.38
409.11	1806.89
409.30	1813.92
409.49	1636.03
409.68	1556.46
409.87	1493.26
410.07	1647.74
410.26	1675.82
410.45	1750.72
410.64	1748.38
410.83	1865.41
411.02	1811.57
411.21	2010.52
411.40	1977.75
411.59	1940.30
411.78	1900.52
411.98	1881.79
412.17	1928.60
412.36	1839.66
412.55	1851.36
412.74	1858.39
412.93	1825.62
413.12	1867.75
413.31	2062.01
413.50	1970.73
413.69	1959.03
413.88	2003.50
414.07	1975.41
414.26	2029.24
414.45	1912.22
414.64	2134.57
414.83	2054.99
415.02	2024.56
415.22	1970.73
415.41	2059.67
415.60	2134.57
415.79	2141.59
415.98	2186.06
416.17	2136.91
416.36	2150.95
416.55	2057.33
416.74	2073.71
416.93	1858.39
417.12	1959.03
417.31	2024.56
417.50	2125.21
417.69	2125.21
417.88	2078.40
418.07	2134.57
418.26	2083.08
418.45	2076.06
418.64	2143.93
418.83	2160.31
419.02	2129.89
419.21	2115.84
419.39	2066.69
419.58	2101.80
419.77	2045.63
419.96	2059.67
420.15	2204.78
420.34	2207.13
420.53	2244.57
420.72	2310.11
420.91	2239.89
421.10	2256.28
421.29	2293.72
421.48	2115.84
421.67	2216.49
421.86	2239.89
422.05	2162.66
422.24	1954.35
422.43	1884.13
422.61	1989.46
422.80	2094.78
422.99	2162.66
423.18	2162.66
423.37	2127.55
423.56	2111.16
423.75	2022.22
423.94	2129.89
424.13	2050.31
424.32	2181.38
424.50	2120.53
424.69	2157.97
424.88	2127.55
425.07	2045.63
425.26	2036.27
425.45	2054.99
425.64	1968.39
425.83	2026.90
426.01	2150.95
426.20	2085.42
426.39	2120.53
426.58	2099.46
426.77	1926.26
426.96	1851.36
427.15	1952.01
427.33	2024.56
427.52	2132.23
427.71	2022.22
427.90	2038.61
428.09	2017.54
428.28	1954.35
428.46	1966.05
428.65	1888.81
428.84	1928.60
429.03	1966.05
429.22	1842.00
429.40	1781.15
429.59	1643.06
429.78	1638.38
429.97	1423.05
430.16	1462.83
430.34	1537.73
430.53	1598.59
430.72	1483.90
430.91	1755.40
431.10	1954.35
431.28	2200.10
431.47	2387.35
431.66	2443.52
431.85	2230.53
432.03	2069.03
432.22	2017.54
432.41	2094.78
432.60	2291.38
432.79	2373.30
432.97	2452.88
433.16	2335.85
433.35	2209.47
433.54	1994.14
433.72	1933.28
433.91	1921.58
434.10	2225.85
434.28	2282.02
434.47	2359.26
434.66	2438.84
434.85	2354.58
435.03	2445.86
435.22	3129.30
435.41	3833.80
435.59	3817.41
435.78	3351.65
435.97	3026.31
436.16	2768.85
436.34	2399.05
436.53	2424.80
436.72	2499.69
436.90	2427.14
437.09	2303.09
437.28	2169.68
437.46	2298.41
437.65	2342.88
437.84	2284.36
438.02	2113.50
438.21	2036.27
438.40	1987.11
438.58	2291.38
438.77	2516.08
438.96	2431.82
439.14	2539.48
439.33	2455.22
439.52	2532.46
439.70	2466.92
439.89	2492.67
440.08	2464.58
440.26	2523.10
440.45	2480.97
440.63	2551.18
440.82	2722.04
441.01	2647.15
441.19	2691.62
441.38	2740.77
441.57	2764.17
441.75	2942.05
441.94	2806.30
442.12	2808.64
442.31	2895.24
442.50	2822.69
442.68	2789.92
442.87	2733.75
443.05	2717.36
443.24	2902.26
443.43	2820.35
443.61	2995.89
443.80	2913.97
443.98	2698.64
444.17	2651.83
444.35	2862.48
444.54	2965.46
444.73	2848.43
444.91	2801.62
445.10	2670.55
445.28	2630.76
445.47	2612.04
445.65	2595.65
445.84	2712.68
446.02	2759.49
446.21	2661.19
446.39	2715.02
446.58	2818.00
446.77	2754.81
446.95	2857.79
447.14	2925.67
447.32	2855.45
447.51	3002.91
447.69	2778.22
447.88	2923.33
448.06	2796.94
448.25	2738.43
448.43	2836.73
448.62	2899.92
448.80	2810.98
448.99	2913.97
449.17	2913.97
449.36	2909.29
449.54	3023.97
449.73	3047.38
449.91	3052.06
450.10	3136.32
450.28	3386.76
450.46	3087.17
450.65	3150.36
450.83	3028.65
451.02	3096.53
451.20	3084.83
451.39	3080.14
451.57	3087.17
451.76	3016.95
451.94	3038.02
452.13	2958.44
452.31	2928.01
452.49	2808.64
452.68	2787.58
452.86	2759.49
453.05	2782.90
453.23	2867.16
453.42	2855.45
453.60	3023.97
453.78	3014.61
453.97	3023.97
454.15	3007.59
454.34	2928.01
454.52	2869.50
454.70	3028.65
454.89	2810.98
455.07	2853.11
455.26	2986.52
455.44	3021.63
455.62	3056.74
455.81	3159.72
455.99	3108.23
456.17	2979.50
456.36	2998.23
456.54	3133.98
456.73	3169.09
456.91	3152.70
457.09	3169.09
457.28	3323.56
457.46	3098.87
457.64	3110.57
457.83	2949.08
458.01	3038.02
458.19	3133.98
458.38	3007.59
458.56	3047.38
458.74	3131.64
458.93	3148.02
459.11	3119.93
459.29	3012.27
459.48	3030.99
459.66	3148.02
459.84	3180.79
460.03	3098.87
460.21	3208.87
460.39	3178.45
460.57	3192.49
460.76	3222.92
460.94	3248.66
461.12	3241.64
461.31	3351.65
461.49	3192.49
461.67	3197.17
461.85	3199.51
462.04	3215.90
462.22	3585.70
462.40	3405.48
462.59	3337.60
462.77	3370.37
462.95	3372.71
463.13	3187.81
463.32	3328.24
463.50	3204.19
463.68	3204.19
463.86	3098.87
464.05	3148.02
464.23	3108.23
464.41	3192.49
464.59	2944.39
464.78	3241.64
464.96	3148.02
465.14	3283.77
465.32	3096.53
465.50	3213.56
465.69	3325.90
465.87	3173.77
466.05	3162.06
466.23	2953.76
466.41	2911.63
466.60	3089.51
466.78	3192.49
466.96	3105.89
467.14	3176.11
467.32	3269.73
467.51	3201.85
467.69	3023.97
467.87	3169.09
468.05	3143.34
468.23	3293.13
468.41	3110.57
468.60	3150.36
468.78	3227.60
468.96	3211.22
469.14	3272.07
469.32	3122.27
469.50	3145.68
469.69	3251.00
469.87	2991.20
470.05	3145.68
470.23	3042.70
470.41	3014.61
470.59	3073.12
470.77	3176.11
470.95	3192.49
471.14	3269.73
471.32	3218.24
471.50	3463.99
471.68	3384.41
471.86	3531.87
472.04	3365.69
472.22	3428.88
472.40	3227.60
472.58	3169.09
472.77	3171.43
472.95	3314.20
473.13	3274.41
473.31	3424.20
473.49	3199.51
473.67	3339.94
473.85	3405.48
474.03	3496.76
474.21	3440.59
474.39	3442.93
474.57	3529.53
474.75	3431.23
474.93	3461.65
475.12	3393.78
475.30	3435.91
475.48	3346.97
475.66	3309.52
475.84	3410.16
476.02	3323.56
476.20	3370.37
476.38	3398.46
476.56	3506.12
476.74	3604.42
476.92	3602.08
477.10	3597.40
477.28	3653.58
477.46	3620.81
477.64	3723.79
477.82	3803.37
478.00	3726.13
478.18	3641.87
478.36	3592.72
478.54	3627.83
478.72	3585.70
478.90	3974.23
479.08	3833.80
479.26	3948.48
479.44	3978.91
479.62	3964.87
479.80	3992.95
479.98	3988.27
480.16	3946.14
480.34	3847.84
480.52	3969.55
480.70	3960.19
480.88	4028.06
481.06	4105.30
481.24	4030.40
481.41	4278.50
481.59	4210.62
481.77	4212.96
481.95	4287.86
482.13	4290.20
482.31	4245.73
482.49	4175.52
482.67	4294.88
482.85	4339.35
483.03	4248.07
483.21	4418.93
483.39	4383.82
483.57	4388.50
483.74	4386.16
483.92	4407.23
484.10	4166.15
484.28	4397.87
484.46	4566.39
484.64	4613.20
484.82	4484.47
485.00	4475.10
485.18	4332.33
485.35	4210.62
485.53	3854.86
485.71	3688.68
485.89	3510.80
486.07	3791.67
486.25	4194.24
486.43	4175.52
486.61	4395.53
486.78	4498.51
486.96	4222.33
487.14	4524.26
487.32	4643.62
487.50	4702.14
487.68	4973.64
487.85	4849.59
488.03	5011.09
488.21	4931.51
488.39	4779.37
488.57	4650.64
488.75	4627.24
488.92	4901.08
489.10	4922.15
489.28	5303.65
489.46	5282.59
489.64	5240.46
489.81	5263.86
489.99	5198.33
490.17	5268.55
490.35	5308.34
490.53	5359.83
490.70	5207.69
490.88	5022.79
491.06	5362.17
491.24	5191.31
491.41	5242.80
491.59	4959.60
491.77	4947.89
491.95	5198.33
492.13	5135.14
492.30	5371.53
492.48	5455.79
492.66	5596.22
492.84	5612.60
493.01	5729.63
493.19	5607.92
493.37	5308.34
493.54	5336.42
493.72	5273.23
493.90	5516.64
494.08	5795.17
494.25	5846.66
494.43	5907.51
494.61	5956.66
494.79	5937.94
494.96	5823.25
495.14	5841.98
495.32	5493.24
495.49	5465.15
495.67	5640.69
495.85	5743.67
496.02	5996.45
496.20	5893.47
496.38	5914.53
496.55	5792.83
496.73	6047.94
496.91	5912.19
497.09	6204.76
497.26	6139.23
497.44	6076.03
497.62	5949.64
497.79	5734.31
497.97	5563.45
498.14	5643.03
498.32	6036.24
498.50	5795.17
498.67	5947.30
498.85	6195.40
499.03	5902.83
499.20	6118.16
499.38	6174.33
499.56	5914.53
499.73	6139.23
499.91	5998.79
500.08	5767.08
500.26	5575.16
500.44	5619.63
500.61	6005.81
500.79	5753.04
500.97	5816.23
501.14	5713.25
501.32	5694.52
501.49	5547.07
501.67	5788.14
501.84	5837.30
502.02	5769.42
502.20	5895.81
502.37	5841.98
502.55	5804.53
502.72	5928.58
502.90	5916.87
503.07	6029.22
503.25	5661.76
503.43	5526.00
503.60	5437.06
503.78	5425.36
503.95	5390.25
504.13	5636.01
504.30	6083.05
504.48	5996.45
504.65	5795.17
504.83	5935.60
505.01	6101.78
505.18	6129.86
505.36	6328.81
505.53	6129.86
505.71	6377.96
505.88	6328.81
506.06	6204.76
506.23	5998.79
506.41	6078.37
506.58	6078.37
506.76	5980.07
506.93	5994.11
507.11	5959.00
507.28	5937.94
507.46	6069.01
507.63	5926.24
507.81	5795.17
507.98	5823.25
508.16	6033.90
508.33	5991.77
508.50	6167.31
508.68	6169.65
508.85	6314.77
509.03	6452.86
509.20	6333.49
509.38	6118.16
509.55	6113.48
509.73	5935.60
509.90	6218.80
510.08	6246.89
510.25	6253.91
510.42	6197.74
510.60	6164.97
510.77	6328.81
510.95	6298.38
511.12	6424.77
511.30	6363.92
511.47	6586.27
511.64	6682.23
511.82	6569.88
511.99	6235.19
512.17	6235.19
512.34	6155.61
512.51	6148.59
512.69	6193.06
512.86	6305.40
513.04	6237.53
513.21	6169.65
513.38	6282.00
513.56	6228.17
513.73	6015.18
513.90	6094.76
514.08	5996.45
514.25	6003.47
514.43	5987.09
514.60	6298.38
514.77	6382.64
514.95	6289.02
515.12	6324.13
515.29	6277.32
515.47	6375.62
515.64	6457.54
515.81	6265.61
515.99	6354.55
516.16	5935.60
516.33	5554.09
516.51	5369.19
516.68	5263.86
516.85	5097.69
517.03	5111.73
517.20	5628.99
517.37	6120.50
517.54	6263.27
517.72	6195.40
517.89	5603.24
518.06	5266.21
518.24	5533.03
518.41	5715.59
518.58	5790.49
518.75	5982.41
518.93	6076.03
519.10	5933.26
519.27	6012.84
519.45	6139.23
519.62	6164.97
519.79	6326.47
519.96	6317.11
520.14	6265.61
520.31	6083.05
520.48	6120.50
520.65	6174.33
520.83	6265.61
521.00	6319.45
521.17	6312.42
521.34	6155.61
521.52	6406.05
521.69	6464.56
521.86	6686.91
522.03	6450.52
522.20	6179.01
522.38	5895.81
522.55	6125.18
522.72	6066.67
522.89	6139.23
523.07	6317.11
523.24	6157.95
523.41	6520.73
523.58	6502.01
523.75	6523.07
523.92	6462.22
524.10	6604.99
524.27	6637.76
524.44	6642.44
524.61	6654.14
524.78	6562.86
524.96	6392.00
525.13	6256.25
525.30	6429.45
525.47	6459.88
525.64	6574.56
525.81	6413.07
525.98	6054.97
526.16	5884.11
526.33	5661.76
526.50	5490.90
526.67	5460.47
526.84	5703.89
527.01	5841.98
527.18	5898.15
527.36	6148.59
527.53	6319.45
527.70	6368.60
527.87	6352.21
528.04	6228.17
528.21	6422.43
528.38	6541.80
528.55	6672.87
528.72	6619.04
528.89	6885.86
529.07	6661.16
529.24	6581.59
529.41	6384.98
529.58	6176.67
529.75	6094.76
529.92	6366.26
530.09	6361.58
530.26	6410.73
530.43	6597.97
530.60	6612.01
530.77	6612.01
530.94	6686.91
531.11	6665.85
531.28	6504.35
531.46	6530.09
531.63	6614.35
531.80	6408.39
531.97	6539.46
532.14	6270.30
532.31	6043.26
532.48	5886.45
532.65	5865.38
532.82	6010.50
532.99	6356.90
533.16	6633.08
533.33	6520.73
533.50	6354.55
533.67	6225.82
533.84	6399.02
534.01	6464.56
534.18	6417.75
534.35	6539.46
534.52	6289.02
534.69	6408.39
534.86	6455.20
535.03	6602.65
535.20	6677.55
535.37	6839.05
535.54	6754.79
535.71	6897.56
535.88	6712.66
536.05	6506.69
536.22	6368.60
536.38	6253.91
536.55	6218.80
536.72	6111.14
536.89	6113.48
537.06	6382.64
537.23	6443.49
537.40	6612.01
537.57	6628.40
537.74	6569.88
537.91	6520.73
538.08	6675.21
538.25	6612.01
538.42	6548.82
538.59	6651.80
538.75	6293.70
538.92	6305.40
539.09	6523.07
539.26	6394.34
539.43	6480.94
539.60	6375.62
539.77	6560.52
539.94	6504.35
540.11	6455.20
540.28	6452.86
540.44	6553.50
540.61	6466.90
540.78	6724.36
540.95	6792.23
541.12	7035.65
541.29	7393.75
541.46	7489.71
541.62	7215.87
541.79	7478.01
541.96	7351.62
542.13	7225.23
542.30	7307.15
542.47	6988.84
542.63	6991.18
542.80	6817.98
542.97	6927.99
543.14	6972.46
543.31	6932.67
543.48	7068.42
543.64	7276.73
543.81	7211.19
543.98	7309.49
544.15	7328.22
544.32	7096.50
544.48	6984.16
544.65	7110.55
544.82	7009.90
544.99	7112.89
545.16	7056.72
545.32	6960.75
545.49	7995.27
545.66	9254.48
545.83	9397.25
546.00	8872.97
546.16	8042.08
546.33	7339.92
546.50	7187.79
546.67	7075.44
546.83	7061.40
547.00	6888.20
547.17	6539.46
547.34	6516.05
547.50	6506.69
547.67	6497.33
547.84	6370.94
548.00	6619.04
548.17	6548.82
548.34	6609.67
548.51	6726.70
548.67	6668.19
548.84	6551.16
549.01	6661.16
549.18	6654.14
549.34	6499.67
549.51	6548.82
549.68	6649.46
549.84	6429.45
550.01	6321.79
550.18	6384.98
550.34	6422.43
550.51	6272.64
550.68	6389.66
550.84	6427.11
551.01	6211.78
551.18	6232.85
551.34	6216.46
551.51	6392.00
551.68	6480.94
551.84	6382.64
552.01	6354.55
552.18	6377.96
552.34	6216.46
552.51	6125.18
552.68	6031.56
552.84	6029.22
553.01	6284.34
553.18	6193.06
553.34	6274.98
553.51	6111.14
553.67	6195.40
553.84	6228.17
554.01	6169.65
554.17	6146.25
554.34	6092.41
554.51	6127.52
554.67	6188.38
554.84	6274.98
555.00	6207.10
555.17	6232.85
555.33	6033.90
555.50	5994.11
555.67	5942.62
555.83	6087.73
556.00	5963.68
556.16	6078.37
556.33	6047.94
556.50	5951.98
556.66	5905.17
556.83	5654.73
556.99	5774.10
557.16	5771.76
557.32	5731.97
557.49	5893.47
557.65	5851.34
557.82	5888.79
557.98	5912.19
558.15	5863.04
558.32	5687.50
558.48	5369.19
558.65	5493.24
558.81	5696.86
558.98	5776.44
559.14	5671.12
559.31	5825.59
559.47	5706.23
559.64	5614.95
559.80	5654.73
559.97	5526.00
560.13	5727.29
560.30	5675.80
560.46	5799.85
560.63	6164.97
560.79	6047.94
560.96	5989.43
561.12	5825.59
561.29	5598.56
561.45	5551.75
561.61	5624.31
561.78	5722.61
561.94	5696.86
562.11	5579.84
562.27	5521.32
562.44	5474.51
562.60	5893.47
562.77	5762.40
562.93	5748.36
563.10	5914.53
563.26	5673.46
563.42	5699.20
563.59	5633.67
563.75	5682.82
563.92	5701.54
564.08	5703.89
564.24	5645.37
564.41	5528.35
564.57	5544.73
564.74	5572.82
564.90	5689.84
565.07	5474.51
565.23	5631.33
565.39	5305.99
565.56	5406.64
565.72	5385.57
565.88	5327.06
566.05	5540.05
566.21	5465.15
566.38	5441.75
566.54	5383.23
566.70	5423.02
566.87	5540.05
567.03	5399.62
567.19	5593.88
567.36	5479.19
567.52	5420.68
567.68	5366.85
567.85	5298.97
568.01	5128.11
568.17	5158.54
568.34	5093.01
568.50	4938.53
568.66	4994.70
568.83	5076.62
568.99	5015.77
569.15	5111.73
569.32	5078.96
569.48	4971.30
569.64	5067.26
569.81	5139.82
569.97	5226.42
570.13	5083.64
570.30	5233.44
570.46	4870.65
570.62	4919.81
570.78	4786.40
570.95	4931.51
571.11	5109.39
571.27	5069.60
571.43	5022.79
571.60	5111.73
571.76	5144.50
571.92	5301.31
572.09	5116.41
572.25	5303.65
572.41	5195.99
572.57	5207.69
572.74	5121.09
572.90	5064.92
573.06	5050.88
573.22	5149.18
573.38	5249.82
573.55	5231.10
573.71	5111.73
573.87	5160.88
574.03	4929.17
574.20	5064.92
574.36	5146.84
574.52	4891.72
574.68	4957.25
574.84	4931.51
575.01	4863.63
575.17	4842.57
575.33	4912.78
575.49	4884.70
575.65	4978.32
575.82	4896.40
575.98	4784.06
576.14	4926.83
576.30	5062.58
576.46	5392.59
576.62	5577.50
576.79	5476.85
576.95	5198.33
577.11	5125.77
577.27	5067.26
577.43	5214.71
577.59	4990.02
577.75	5013.43
577.92	4922.15
578.08	4784.06
578.24	4870.65
578.40	4945.55
578.56	5362.17
578.72	5298.97
578.88	5432.38
579.04	5298.97
579.21	5308.34
579.37	5083.64
579.53	5074.28
579.69	5205.35
579.85	4952.57
580.01	5121.09
580.17	5160.88
580.33	5116.41
580.49	4961.94
580.65	5013.43
580.82	5062.58
580.98	5039.17
581.14	5104.71
581.30	5146.84
581.46	5156.20
581.62	5184.29
581.78	5200.67
581.94	5102.37
582.10	5142.16
582.26	5172.58
582.42	5158.54
582.58	5153.86
582.74	5294.29
582.90	5317.70
583.06	5153.86
583.22	5167.90
583.38	5151.52
583.54	5179.61
583.70	5219.39
583.86	5228.76
584.02	5121.09
584.18	5193.65
584.34	5235.78
584.50	5231.10
584.66	5231.10
584.82	5053.22
584.98	5018.11
585.14	5074.28
585.30	4938.53
585.46	4849.59
585.62	4910.44
585.78	5001.72
585.94	4912.78
586.10	4905.76
586.26	5041.51
586.42	4975.98
586.58	4992.36
586.74	4978.32
586.90	5043.85
587.06	5095.35
587.22	5020.45
587.38	4816.82
587.54	4645.96
587.70	4592.13
587.86	4601.49
588.02	4400.21
588.18	4227.01
588.34	4126.36
588.49	3831.46
588.65	3637.19
588.81	3485.06
588.97	3588.04
589.13	3515.48
589.29	3534.21
589.45	3426.54
589.61	3548.25
589.77	3779.97
589.93	3840.82
590.08	3927.42
590.24	4084.23
590.40	4086.58
590.56	4163.81
590.72	4086.58
590.88	4093.60
591.04	4229.35
591.20	4093.60
591.35	3962.53
591.51	4224.67
591.67	3957.85
591.83	3992.95
591.99	3962.53
592.15	4088.92
592.31	4217.65
592.46	4332.33
592.62	4435.32
592.78	4367.44
592.94	4390.84
593.10	4482.13
593.26	4526.60
593.41	4599.15
593.57	4493.83
593.73	4049.13
593.89	3983.59
594.05	3880.61
594.20	3955.51
594.36	3627.83
594.52	3719.11
594.68	3740.18
594.84	3943.80
594.99	3960.19
595.15	4077.21
595.31	4021.04
595.47	4098.28
595.62	4292.54
595.78	4222.33
595.94	4322.97
596.10	4259.78
596.25	4056.15
596.41	4121.68
596.57	4035.08
596.73	4229.35
596.88	4161.47
597.04	4241.05
597.20	4250.41
597.36	4147.43
597.51	3983.59
597.67	4201.26
597.83	4229.35
