SpectraSuite Data File
++++++++++++++++++++++++++++++++++++
Date: Fri Oct 04 11:44:14 GMT-05:00 2013
User: price-jones
Dark Spectrum Present: No
Reference Spectrum Present: No
Number of Sampled Component Spectra: 1
Spectrometers: USB2+H05261
Integration Time (usec): 100000 (USB2+H05261)
Spectra Averaged: 1 (USB2+H05261)
Boxcar Smoothing: 0 (USB2+H05261)
Correct for Electrical Dark: No (USB2+H05261)
Strobe/Lamp Enabled: No (USB2+H05261)
Correct for Detector Non-linearity: No (USB2+H05261)
Correct for Stray Light: No (USB2+H05261)
Number of Pixels in Processed Spectrum: 2048
>>>>>Begin Processed Spectral Data<<<<<
365.73	44.47
365.92	44.47
366.12	44.47
366.32	23.41
366.52	0.00
366.72	0.00
366.91	0.00
367.11	0.00
367.31	0.00
367.51	35.11
367.70	0.00
367.90	18.72
368.10	0.00
368.30	0.00
368.49	0.00
368.69	14.04
368.89	0.00
369.09	0.00
369.28	0.00
369.48	0.00
369.68	7.02
369.87	0.00
370.07	0.00
370.27	7.02
370.47	154.48
370.66	615.56
370.86	786.42
371.06	805.14
371.25	835.57
371.45	725.57
371.65	638.97
371.84	624.92
372.04	709.18
372.24	805.14
372.44	807.48
372.63	744.29
372.83	706.84
373.03	664.71
373.22	641.31
373.42	554.71
373.62	720.88
373.81	734.93
374.01	821.53
374.21	807.48
374.40	660.03
374.60	741.95
374.79	779.40
374.99	903.45
375.19	915.15
375.38	945.58
375.58	847.27
375.78	863.66
375.97	922.17
376.17	985.37
376.37	828.55
376.56	964.30
376.76	1001.75
376.95	1074.31
377.15	1008.77
377.35	1102.39
377.54	1196.01
377.74	1207.72
377.93	1097.71
378.13	1188.99
378.33	1156.22
378.52	1048.56
378.72	992.39
378.91	1034.52
379.11	999.41
379.31	929.19
379.50	945.58
379.70	1086.01
379.89	1109.41
380.09	1174.95
380.28	1153.88
380.48	1095.37
380.68	1118.78
380.87	1118.78
381.07	938.55
381.26	1001.75
381.46	947.92
381.65	842.59
381.85	894.08
382.04	854.30
382.24	800.46
382.43	770.04
382.63	753.65
382.83	779.40
383.02	706.84
383.22	737.27
383.41	732.59
383.61	837.91
383.80	849.61
384.00	1036.86
384.19	1116.44
384.39	1086.01
384.58	1100.05
384.78	1088.35
384.97	1212.40
385.17	1104.73
385.36	954.94
385.56	985.37
385.75	973.66
385.95	1100.05
386.14	1174.95
386.34	1254.53
386.53	1137.50
386.72	1048.56
386.92	1039.20
387.11	1149.20
387.31	1109.41
387.50	1186.65
387.70	1198.35
387.89	1107.07
388.09	1130.48
388.28	1107.07
388.48	1170.27
388.67	1266.23
388.86	1341.13
389.06	1369.21
389.25	1423.05
389.45	1439.43
389.64	1516.67
389.84	1465.18
390.03	1427.73
390.22	1516.67
390.42	1451.13
390.61	1486.24
390.81	1610.29
391.00	1640.72
391.19	1685.19
391.39	1664.12
391.58	1519.01
391.78	1425.39
391.97	1420.71
392.16	1294.32
392.36	1247.51
392.55	1043.88
392.75	833.23
392.94	772.38
393.13	744.29
393.33	798.12
393.52	966.64
393.71	1067.28
393.91	1214.74
394.10	1270.91
394.29	1458.15
394.49	1647.74
394.68	1710.93
394.88	1727.32
395.07	1664.12
395.26	1804.55
395.46	1664.12
395.65	1617.31
395.84	1413.68
396.04	1308.36
396.23	1046.22
396.42	840.25
396.62	905.79
396.81	1029.84
397.00	1210.06
397.19	1458.15
397.39	1799.87
397.58	1998.82
397.77	2033.93
397.97	2155.63
398.16	2139.25
398.35	2181.38
398.55	2225.85
398.74	2293.72
398.93	2429.48
399.12	2347.56
399.32	2195.42
399.51	2289.04
399.70	2509.05
399.90	2382.67
400.09	2321.81
400.28	2532.46
400.47	2471.61
400.67	2478.63
400.86	2553.52
401.05	2583.95
401.24	2581.61
401.44	2745.45
401.63	2583.95
401.82	2597.99
402.01	2724.38
402.21	2626.08
402.40	2768.85
402.59	2539.48
402.78	2483.31
402.97	2408.41
403.17	2579.27
403.36	2642.46
403.55	2780.56
403.74	2799.28
403.93	2675.23
404.13	2656.51
404.32	2832.05
404.51	2771.19
404.70	2843.75
404.89	2689.28
405.09	2710.34
405.28	2581.61
405.47	2462.24
405.66	2677.57
405.85	2448.20
406.05	2408.41
406.24	2480.97
406.43	2647.15
406.62	2672.89
406.81	2869.50
407.00	2551.18
407.20	2640.12
407.39	2595.65
407.58	2787.58
407.77	2820.35
407.96	2818.00
408.15	2939.71
408.34	2911.63
408.54	2904.60
408.73	3070.78
408.92	2979.50
409.11	3040.36
409.30	2759.49
409.49	2647.15
409.68	2523.10
409.87	2401.39
410.07	2499.69
410.26	2654.17
410.45	2731.41
410.64	2930.35
410.83	2977.16
411.02	3035.67
411.21	3110.57
411.40	3131.64
411.59	3218.24
411.78	3180.79
411.98	3094.19
412.17	3087.17
412.36	3047.38
412.55	3087.17
412.74	3082.49
412.93	3087.17
413.12	2930.35
413.31	3370.37
413.50	3208.87
413.69	3358.67
413.88	3159.72
414.07	3243.98
414.26	3185.47
414.45	3274.41
414.64	3344.63
414.83	3384.41
415.02	3260.37
415.22	3236.96
415.41	3426.54
415.60	3368.03
415.79	3606.77
415.98	3639.53
416.17	3641.87
416.36	3630.17
416.55	3382.07
416.74	3410.16
416.93	3232.28
417.12	3288.45
417.31	3239.30
417.50	3346.97
417.69	3625.49
417.88	3529.53
418.07	3377.39
418.26	3358.67
418.45	3438.25
418.64	3353.99
418.83	3595.06
419.02	3679.32
419.21	3499.10
419.39	3492.08
419.58	3304.84
419.77	3206.53
419.96	3400.80
420.15	3595.06
420.34	3712.09
420.53	3789.33
420.72	3904.01
420.91	3815.07
421.10	3782.31
421.29	3740.18
421.48	3627.83
421.67	3866.56
421.86	3686.34
422.05	3501.44
422.24	3218.24
422.43	3122.27
422.61	3330.58
422.80	3791.67
422.99	3742.52
423.18	3630.17
423.37	3555.27
423.56	3475.70
423.75	3445.27
423.94	3562.30
424.13	3382.07
424.32	3482.72
424.50	3468.67
424.69	3426.54
424.88	3480.38
425.07	3445.27
425.26	3463.99
425.45	3318.88
425.64	3332.92
425.83	3309.52
426.01	3569.32
426.20	3559.95
426.39	3585.70
426.58	3384.41
426.77	3007.59
426.96	3073.12
427.15	2993.55
427.33	3283.77
427.52	3588.04
427.71	3473.36
427.90	3478.04
428.09	3377.39
428.28	3379.73
428.46	3276.75
428.65	3213.56
428.84	3234.62
429.03	3286.11
429.22	3213.56
429.40	2986.52
429.59	2740.77
429.78	2438.84
429.97	2401.39
430.16	2511.39
430.34	2609.70
430.53	2532.46
430.72	2551.18
430.91	2841.41
431.10	3124.62
431.28	3646.55
431.47	3941.46
431.66	4093.60
431.85	3889.97
432.03	3433.57
432.22	3314.20
432.41	3417.18
432.60	3889.97
432.79	3911.04
432.97	3946.14
433.16	3915.72
433.35	3634.85
433.54	3283.77
433.72	3178.45
433.91	3236.96
434.10	3368.03
434.28	3702.73
434.47	3901.67
434.66	3927.42
434.85	3892.31
435.03	3892.31
435.22	4409.57
435.41	5130.45
435.59	5097.69
435.78	4826.18
435.97	4514.89
436.16	4355.74
436.34	4290.20
436.53	4051.47
436.72	4133.39
436.90	3955.51
437.09	3962.53
437.28	3861.88
437.46	3911.04
437.65	4018.70
437.84	3822.09
438.02	3405.48
438.21	3445.27
438.40	3585.70
438.58	3850.18
438.77	4070.19
438.96	4023.38
439.14	4184.88
439.33	4369.78
439.52	4362.76
439.70	4257.43
439.89	4128.70
440.08	4060.83
440.26	4081.89
440.45	4227.01
440.63	4519.57
440.82	4505.53
441.01	4496.17
441.19	4400.21
441.38	4662.35
441.57	4758.31
441.75	4795.76
441.94	4779.37
442.12	4844.91
442.31	4816.82
442.50	4713.84
442.68	4809.80
442.87	4655.33
443.05	4688.09
443.24	4753.63
443.43	4727.88
443.61	4840.23
443.80	5097.69
443.98	4718.52
444.17	4793.42
444.35	4812.14
444.54	5076.62
444.73	4964.28
444.91	4795.76
445.10	4404.89
445.28	4332.33
445.47	4367.44
445.65	4341.69
445.84	4517.23
446.02	4706.82
446.21	4610.86
446.39	4798.10
446.58	4716.18
446.77	4880.02
446.95	5004.07
447.14	4837.89
447.32	4999.38
447.51	4723.20
447.69	4678.73
447.88	4798.10
448.06	4788.74
448.25	4894.06
448.43	4901.08
448.62	4854.27
448.80	4795.76
448.99	4910.44
449.17	4870.65
449.36	5170.24
449.54	5095.35
449.73	5050.88
449.91	5207.69
450.10	5364.51
450.28	5263.86
450.46	5495.58
450.65	5301.31
450.83	5439.40
451.02	5151.52
451.20	5277.91
451.39	5313.02
451.57	5100.03
451.76	5001.72
451.94	5071.94
452.13	5025.13
452.31	4891.72
452.49	4547.66
452.68	4648.30
452.86	4512.55
453.05	4791.08
453.23	4851.93
453.42	5018.11
453.60	4978.32
453.78	5224.08
453.97	5130.45
454.15	5100.03
454.34	5025.13
454.52	4936.19
454.70	4865.97
454.89	4959.60
455.07	4847.25
455.26	5102.37
455.44	5287.27
455.62	5238.12
455.81	5348.12
455.99	5261.52
456.17	5184.29
456.36	5137.48
456.54	5301.31
456.73	5273.23
456.91	5444.09
457.09	5504.94
457.28	5516.64
457.46	5352.81
457.64	5284.93
457.83	5156.20
458.01	5050.88
458.19	5200.67
458.38	5249.82
458.56	5301.31
458.74	5275.57
458.93	5256.84
459.11	5280.25
459.29	5390.25
459.48	5252.16
459.66	5268.55
459.84	5298.97
460.03	5479.19
460.21	5404.30
460.39	5373.87
460.57	5617.29
460.76	5516.64
460.94	5617.29
461.12	5614.95
461.31	5509.62
461.49	5547.07
461.67	5411.32
461.85	5448.77
462.04	5696.86
462.22	6015.18
462.40	5722.61
462.59	5530.69
462.77	5643.03
462.95	5584.52
463.13	5572.82
463.32	5551.75
463.50	5460.47
463.68	5497.92
463.86	5584.52
464.05	5394.93
464.23	5345.78
464.41	5224.08
464.59	5093.01
464.78	5331.74
464.96	5423.02
465.14	5383.23
465.32	5465.15
465.50	5476.85
465.69	5659.42
465.87	5577.50
466.05	5518.98
466.23	5331.74
466.41	5078.96
466.60	5057.90
466.78	5123.43
466.96	5380.89
467.14	5128.11
467.32	5584.52
467.51	5476.85
467.69	5460.47
467.87	5387.91
468.05	5411.32
468.23	5408.98
468.41	5341.10
468.60	5439.40
468.78	5439.40
468.96	5535.37
469.14	5563.45
469.32	5504.94
469.50	5172.58
469.69	5289.61
469.87	5359.83
470.05	5432.38
470.23	5195.99
470.41	5263.86
470.59	5291.95
470.77	5284.93
470.95	5390.25
471.14	5570.48
471.32	5530.69
471.50	5767.08
471.68	5809.21
471.86	5837.30
472.04	5949.64
472.22	5921.56
472.40	5661.76
472.58	5500.26
472.77	5507.28
472.95	5586.86
473.13	5767.08
473.31	5832.62
473.49	5495.58
473.67	5659.42
473.85	5839.64
474.03	5935.60
474.21	5858.36
474.39	5921.56
474.57	5916.87
474.75	5902.83
474.93	5872.40
475.12	5820.91
475.30	5849.00
475.48	6010.50
475.66	5849.00
475.84	5980.07
476.02	5757.72
476.20	5813.89
476.38	5806.87
476.56	5996.45
476.74	6134.54
476.92	6118.16
477.10	6246.89
477.28	6471.58
477.46	6457.54
477.64	6396.68
477.82	6354.55
478.00	6462.22
478.18	6436.47
478.36	6450.52
478.54	6548.82
478.72	6438.81
478.90	6665.85
479.08	6642.44
479.26	6913.94
479.44	6878.83
479.62	6782.87
479.80	6935.01
479.98	6972.46
480.16	7014.59
480.34	6848.41
480.52	6904.58
480.70	6890.54
480.88	7094.16
481.06	7033.31
481.24	7162.04
481.41	7192.47
481.59	7248.64
481.77	7288.43
481.95	7417.16
482.13	7321.20
482.31	7204.17
482.49	7356.30
482.67	7265.02
482.85	7480.35
483.03	7482.69
483.21	7368.01
483.39	7714.41
483.57	7321.20
483.74	7435.88
483.92	7463.97
484.10	7529.50
484.28	7733.13
484.46	7777.60
484.64	7843.14
484.82	7885.26
485.00	7571.63
485.18	7389.07
485.35	7133.95
485.53	6782.87
485.71	6239.87
485.89	5989.43
486.07	6251.57
486.25	6825.00
486.43	7225.23
486.61	7478.01
486.78	7276.73
486.96	7360.98
487.14	7768.24
487.32	7889.95
487.50	7971.86
487.68	8304.22
487.85	8510.19
488.03	8503.17
488.21	8414.23
488.39	8287.84
488.57	8098.25
488.75	7887.61
488.92	8255.07
489.10	8554.66
489.28	8725.52
489.46	9088.30
489.64	9163.20
489.81	9233.41
489.99	8994.68
490.17	9104.68
490.35	9195.96
490.53	9020.42
490.70	9078.94
490.88	8784.03
491.06	9158.52
491.24	9324.69
491.41	9015.74
491.59	8533.59
491.77	8322.94
491.95	8751.26
492.13	8762.97
492.30	9008.72
492.48	9305.97
492.66	9462.79
492.84	9483.85
493.01	9565.77
493.19	9376.19
493.37	9523.64
493.54	9228.73
493.72	9446.40
493.90	9757.69
494.08	9886.42
494.25	10008.13
494.43	10092.39
494.61	10169.63
494.79	10181.33
494.96	10193.03
495.14	10111.11
495.32	9973.02
495.49	9350.44
495.67	9933.23
495.85	10225.80
496.02	10555.82
496.20	10389.64
496.38	10153.24
496.55	10300.70
496.73	10333.47
496.91	10410.70
497.09	10469.22
497.26	10572.20
497.44	10506.66
497.62	10235.16
497.79	10040.90
497.97	9621.94
498.14	9549.39
498.32	10106.43
498.50	10403.68
498.67	10640.08
498.85	10459.85
499.03	10619.01
499.20	10408.36
499.38	10951.37
499.56	10619.01
499.73	10406.02
499.91	10361.55
500.08	10120.48
500.26	9916.85
500.44	9970.68
500.61	10148.56
500.79	10403.68
500.97	9954.30
501.14	9715.56
501.32	9937.91
501.49	9715.56
501.67	9928.55
501.84	10279.63
502.02	10160.27
502.20	10265.59
502.37	10263.25
502.55	10218.78
502.72	10541.77
502.90	10569.86
503.07	10469.22
503.25	10331.12
503.43	9673.43
503.60	9701.52
503.78	9516.62
503.95	9273.20
504.13	10085.37
504.30	10478.58
504.48	10466.88
504.65	10326.44
504.83	10546.45
505.01	10597.95
505.18	10754.76
505.36	10752.42
505.53	10789.87
505.71	10944.34
505.88	11154.99
506.06	11014.56
506.23	10700.93
506.41	10492.62
506.58	10546.45
506.76	10677.52
506.93	10511.35
507.11	10469.22
507.28	10480.92
507.46	10221.12
507.63	10160.27
507.81	10073.67
507.98	10333.47
508.16	10511.35
508.33	10686.89
508.50	11082.44
508.68	10998.18
508.85	11187.76
509.03	11204.14
509.20	11346.92
509.38	10974.77
509.55	11000.52
509.73	10499.64
509.90	10789.87
510.08	11265.00
510.25	11080.10
510.42	10960.73
510.60	11084.78
510.77	10934.98
510.95	11302.45
511.12	11136.27
511.30	11609.06
511.47	11602.04
511.64	11543.52
511.82	11440.54
511.99	11176.06
512.17	11171.38
512.34	10857.75
512.51	10937.32
512.69	11129.25
512.86	10885.83
513.04	11037.97
513.21	11248.61
513.38	11124.57
513.56	10548.79
513.73	10654.12
513.90	10595.61
514.08	10607.31
514.25	10820.30
514.43	10803.91
514.60	10934.98
514.77	10949.03
514.95	11239.25
515.12	10820.30
515.29	11129.25
515.47	11515.44
515.64	11166.70
515.81	11232.23
515.99	11208.83
516.16	10424.75
516.33	9673.43
516.51	9282.56
516.68	9046.17
516.85	8814.46
517.03	8872.97
517.20	9561.09
517.37	10518.37
517.54	10956.05
517.72	10993.50
517.89	10331.12
518.06	9184.26
518.24	9404.27
518.41	10061.96
518.58	10441.13
518.75	10497.30
518.93	10614.33
519.10	10689.23
519.27	10827.32
519.45	10670.50
519.62	11044.99
519.79	11178.40
519.96	11066.05
520.14	11279.04
520.31	10888.17
520.48	10576.88
520.65	10768.80
520.83	11091.80
521.00	11405.43
521.17	11522.46
521.34	11089.46
521.52	11307.13
521.69	11393.73
521.86	11672.25
522.03	11613.74
522.20	11337.56
522.38	10864.77
522.55	10527.73
522.72	10759.44
522.89	10906.90
523.07	10885.83
523.24	10937.32
523.41	11197.12
523.58	11260.32
523.75	11529.48
523.92	11442.88
524.10	11653.53
524.27	11651.19
524.44	11602.04
524.61	11578.63
524.78	11243.93
524.96	11541.18
525.13	11316.49
525.30	11356.28
525.47	11819.71
525.64	11515.44
525.81	11449.90
525.98	10923.28
526.16	10258.57
526.33	9987.07
526.50	9933.23
526.67	9818.55
526.84	9848.97
527.01	10202.40
527.18	10600.29
527.36	10789.87
527.53	11250.96
527.70	11433.52
527.87	11206.48
528.04	11213.51
528.21	11185.42
528.38	11447.56
528.55	11765.87
528.72	12058.44
528.89	11932.05
529.07	11857.15
529.24	11445.22
529.41	11328.19
529.58	10836.68
529.75	10995.84
529.92	11192.44
530.09	11307.13
530.26	11686.29
530.43	11728.42
530.60	11723.74
530.77	11719.06
530.94	11850.13
531.11	11934.39
531.28	11391.39
531.46	11662.89
531.63	11747.15
531.80	11641.82
531.97	11487.35
532.14	11253.30
532.31	10892.85
532.48	10504.32
532.65	10527.73
532.82	10743.06
532.99	11309.47
533.16	11293.08
533.33	11538.84
533.50	11564.59
533.67	11391.39
533.84	11117.54
534.01	11094.14
534.18	11028.60
534.35	11524.80
534.52	11442.88
534.69	11548.20
534.86	11316.49
535.03	11543.52
535.20	11730.76
535.37	11932.05
535.54	11868.86
535.71	11775.24
535.88	11927.37
536.05	11501.39
536.22	11239.25
536.38	11143.29
536.55	11164.36
536.72	10993.50
536.89	10710.29
537.06	11190.10
537.23	11344.58
537.40	11412.45
537.57	11662.89
537.74	11599.70
537.91	11473.31
538.08	11356.28
538.25	11538.84
538.42	11548.20
538.59	11564.59
538.75	11311.81
538.92	11218.19
539.09	10911.58
539.26	10965.41
539.43	10909.24
539.60	10768.80
539.77	11187.76
539.94	11152.65
540.11	10906.90
540.28	10661.14
540.44	10864.77
540.61	10998.18
540.78	10817.96
540.95	11005.20
541.12	11304.79
541.29	11868.86
541.46	11630.12
541.62	11850.13
541.79	11829.07
541.96	11590.33
542.13	11555.22
542.30	11719.06
542.47	11690.98
542.63	11576.29
542.80	11466.28
542.97	11356.28
543.14	11192.44
543.31	11126.91
543.48	11330.53
543.64	11721.40
543.81	12025.67
543.98	12023.33
544.15	11674.59
544.32	11449.90
544.48	11410.11
544.65	11435.86
544.82	11501.39
544.99	11714.38
545.16	11611.40
545.32	11372.66
545.49	12498.46
545.66	13259.13
545.83	13486.17
546.00	12847.20
546.16	12166.10
546.33	11740.13
546.50	11318.83
546.67	11829.07
546.83	11463.94
547.00	11485.01
547.17	11040.31
547.34	11089.46
547.50	10918.60
547.67	10930.30
547.84	10913.92
548.00	11185.42
548.17	11281.38
548.34	11391.39
548.51	11274.36
548.67	11321.17
548.84	11274.36
549.01	11246.27
549.18	10963.07
549.34	11229.89
549.51	11220.53
549.68	11063.71
549.84	11023.92
550.01	10806.25
550.18	11012.22
550.34	11140.95
550.51	10869.45
550.68	11295.43
550.84	10897.53
551.01	10993.50
551.18	10918.60
551.34	11000.52
551.51	10986.47
551.68	11147.97
551.84	11391.39
552.01	11274.36
552.18	11122.23
552.34	10920.94
552.51	10623.69
552.68	10452.83
552.84	10710.29
553.01	10890.51
553.18	10705.61
553.34	10733.70
553.51	10717.31
553.67	11091.80
553.84	10951.37
554.01	11087.12
554.17	10913.92
554.34	10949.03
554.51	10824.98
554.67	11030.94
554.84	11019.24
555.00	10740.72
555.17	10827.32
555.33	10743.06
555.50	10792.21
555.67	10590.92
555.83	10511.35
556.00	10509.01
556.16	10855.40
556.33	10450.49
556.50	10300.70
556.66	10539.43
556.83	10274.95
556.99	10258.57
557.16	10284.31
557.32	10476.24
557.49	10408.36
557.65	10438.79
557.82	10546.45
557.98	10363.89
558.15	10281.97
558.32	10237.50
558.48	9820.89
558.65	9806.84
558.81	9905.15
558.98	9982.38
559.14	10106.43
559.31	10073.67
559.47	10193.03
559.64	10139.20
559.80	9874.72
559.97	9895.78
560.13	10186.01
560.30	10188.35
560.46	10565.18
560.63	10621.35
560.79	10717.31
560.96	10513.69
561.12	10207.08
561.29	9870.04
561.45	9708.54
561.61	9919.19
561.78	10024.51
561.94	10036.22
562.11	10101.75
562.27	10022.17
562.44	10061.96
562.60	10150.90
562.77	10279.63
562.93	10242.18
563.10	10178.99
563.26	10024.51
563.42	10073.67
563.59	10015.15
563.75	10050.26
563.92	9884.08
564.08	9886.42
564.24	9956.64
564.41	9998.77
564.57	9851.31
564.74	9954.30
564.90	10115.80
565.07	9996.43
565.23	9788.12
565.39	9706.20
565.56	9582.15
565.72	9324.69
565.88	9502.58
566.05	9528.32
566.21	9790.46
566.38	9804.50
566.54	9661.73
566.70	9928.55
566.87	9827.91
567.03	9825.57
567.19	10111.11
567.36	9848.97
567.52	9551.73
567.68	9647.69
567.85	9383.21
568.01	9280.22
568.17	9020.42
568.34	9156.18
568.50	8851.91
568.66	9039.15
568.83	9153.84
568.99	9104.68
569.15	9284.91
569.32	9294.27
569.48	9092.98
569.64	9015.74
569.81	9226.39
569.97	9071.92
570.13	9036.81
570.30	9146.81
570.46	8968.93
570.62	8631.90
570.78	8802.75
570.95	8809.78
571.11	8961.91
571.27	9046.17
571.43	9025.11
571.60	9167.88
571.76	9254.48
571.92	9188.94
572.09	9142.13
572.25	9474.49
572.41	9362.14
572.57	9266.18
572.74	9254.48
572.90	8968.93
573.06	9128.09
573.22	9029.79
573.38	9111.71
573.55	9275.54
573.71	9224.05
573.87	9123.41
574.03	9076.60
574.20	9020.42
574.36	8688.07
574.52	8952.55
574.68	8926.80
574.84	8854.25
575.01	8830.84
575.17	8496.14
575.33	8702.11
575.49	8781.69
575.65	8865.95
575.82	8608.49
575.98	8636.58
576.14	8704.45
576.30	8894.04
576.46	9362.14
576.62	9329.38
576.79	9240.44
576.95	9210.01
577.11	8697.43
577.27	8992.34
577.43	8978.30
577.59	8931.48
577.75	8688.07
577.92	8517.21
578.08	8631.90
578.24	8365.07
578.40	8695.09
578.56	8851.91
578.72	8971.27
578.88	9088.30
579.04	9025.11
579.21	8807.44
579.37	8945.53
579.53	8826.16
579.69	8964.25
579.85	9324.69
580.01	9242.78
580.17	8943.19
580.33	8947.87
580.49	8856.59
580.65	8814.46
580.82	8924.46
580.98	9022.77
581.14	8966.59
581.30	8901.06
581.46	8858.93
581.62	8975.95
581.78	8971.27
581.94	8982.98
582.10	9097.66
582.26	9210.01
582.42	9067.24
582.58	9224.05
582.74	9240.44
582.90	8964.25
583.06	9001.70
583.22	9123.41
583.38	8954.89
583.54	8999.36
583.70	9081.28
583.86	9137.45
584.02	8926.80
584.18	9064.89
584.34	9011.06
584.50	8858.93
584.66	8842.54
584.82	8858.93
584.98	8676.37
585.14	8624.87
585.30	8751.26
585.46	8571.04
585.62	8362.73
585.78	8374.44
585.94	8545.30
586.10	8566.36
586.26	8446.99
586.42	8648.28
586.58	8451.67
586.74	8580.40
586.90	8470.40
587.06	8491.46
587.22	8615.51
587.38	8458.70
587.54	8121.66
587.70	7903.99
587.86	7744.83
588.02	7564.61
588.18	7218.21
588.34	7047.35
588.49	6747.76
588.65	6296.04
588.81	6024.54
588.97	6085.39
589.13	6136.88
589.29	5980.07
589.45	5940.28
589.61	6310.08
589.77	6249.23
589.93	6696.27
590.08	7126.93
590.24	7070.76
590.40	7295.45
590.56	7279.07
590.72	7133.95
590.88	7009.90
591.04	7314.17
591.20	7084.80
591.35	7063.74
591.51	7192.47
591.67	6953.73
591.83	6979.48
591.99	6853.09
592.15	7084.80
592.31	7295.45
592.46	7609.08
592.62	7627.81
592.78	7330.56
592.94	7606.74
593.10	7524.82
