SpectraSuite Data File
++++++++++++++++++++++++++++++++++++
Date: Fri Oct 04 11:44:19 GMT-05:00 2013
User: price-jones
Dark Spectrum Present: No
Reference Spectrum Present: No
Number of Sampled Component Spectra: 1
Spectrometers: USB2+H05261
Integration Time (usec): 100000 (USB2+H05261)
Spectra Averaged: 1 (USB2+H05261)
Boxcar Smoothing: 0 (USB2+H05261)
Correct for Electrical Dark: No (USB2+H05261)
Strobe/Lamp Enabled: No (USB2+H05261)
Correct for Detector Non-linearity: No (USB2+H05261)
Correct for Stray Light: No (USB2+H05261)
Number of Pixels in Processed Spectrum: 2048
>>>>>Begin Processed Spectral Data<<<<<
365.73	58.51
365.92	58.51
366.12	58.51
366.32	0.00
366.52	0.00
366.72	0.00
366.91	0.00
367.11	0.00
367.31	0.00
367.51	9.36
367.70	0.00
367.90	0.00
368.10	0.00
368.30	0.00
368.49	0.00
368.69	0.00
368.89	0.00
369.09	0.00
369.28	0.00
369.48	0.00
369.68	0.00
369.87	0.00
370.07	28.09
370.27	51.49
370.47	121.71
370.66	276.18
370.86	355.76
371.06	355.76
371.25	404.91
371.45	365.12
371.65	397.89
371.84	306.61
372.04	334.70
372.24	421.30
372.44	348.74
372.63	290.23
372.83	344.06
373.03	407.25
373.22	341.72
373.42	285.55
373.62	334.70
373.81	402.57
374.01	388.53
374.21	353.42
374.40	348.74
374.60	383.85
374.79	318.31
374.99	402.57
375.19	465.77
375.38	451.72
375.58	409.59
375.78	416.62
375.97	442.36
376.17	507.90
376.37	414.27
376.56	437.68
376.76	519.60
376.95	496.19
377.15	489.17
377.35	458.74
377.54	568.75
377.74	538.32
377.93	531.30
378.13	451.72
378.33	491.51
378.52	400.23
378.72	449.38
378.91	496.19
379.11	423.64
379.31	435.34
379.50	411.93
379.70	514.92
379.89	505.56
380.09	475.13
380.28	451.72
380.48	554.71
380.68	500.87
380.87	498.53
381.07	510.24
381.26	535.98
381.46	402.57
381.65	437.68
381.85	395.55
382.04	315.97
382.24	416.62
382.43	369.80
382.63	376.83
382.83	266.82
383.02	383.85
383.22	454.06
383.41	411.93
383.61	351.08
383.80	437.68
384.00	552.37
384.19	510.24
384.39	468.11
384.58	524.28
384.78	472.79
384.97	416.62
385.17	454.06
385.36	449.38
385.56	468.11
385.75	477.47
385.95	557.05
386.14	571.09
386.34	564.07
386.53	484.49
386.72	451.72
386.92	404.91
387.11	458.74
387.31	557.05
387.50	479.81
387.70	533.64
387.89	510.24
388.09	458.74
388.28	449.38
388.48	486.83
388.67	596.84
388.86	631.94
389.06	634.29
389.25	599.18
389.45	669.39
389.64	674.07
389.84	585.13
390.03	613.22
390.22	580.45
390.42	653.01
390.61	688.12
390.81	774.72
391.00	699.82
391.19	770.04
391.39	653.01
391.58	631.94
391.78	580.45
391.97	606.20
392.16	564.07
392.36	592.16
392.55	503.22
392.75	390.87
392.94	287.89
393.13	327.68
393.33	440.02
393.52	454.06
393.71	559.39
393.91	561.73
394.10	629.60
394.29	601.52
394.49	697.48
394.68	744.29
394.88	760.67
395.07	777.06
395.26	781.74
395.46	720.88
395.65	709.18
395.84	547.69
396.04	594.50
396.23	442.36
396.42	334.70
396.62	477.47
396.81	503.22
397.00	543.00
397.19	746.63
397.39	805.14
397.58	919.83
397.77	795.78
397.97	877.70
398.16	980.68
398.35	931.53
398.55	903.45
398.74	924.51
398.93	1064.94
399.12	903.45
399.32	1029.84
399.51	1062.60
399.70	1090.69
399.90	992.39
400.09	987.71
400.28	950.26
400.47	1027.50
400.67	1039.20
400.86	1011.11
401.05	1090.69
401.24	1053.24
401.44	1048.56
401.63	1102.39
401.82	1100.05
402.01	1139.84
402.21	1102.39
402.40	1123.46
402.59	994.73
402.78	1067.28
402.97	1034.52
403.17	1041.54
403.36	1107.07
403.55	1186.65
403.74	1179.63
403.93	1102.39
404.13	1128.14
404.32	1174.95
404.51	1212.40
404.70	1252.19
404.89	1167.93
405.09	1233.46
405.28	971.32
405.47	1029.84
405.66	1135.16
405.85	1022.81
406.05	1004.09
406.24	1036.86
406.43	1006.43
406.62	1111.75
406.81	1212.40
407.00	1013.45
407.20	1027.50
407.39	1046.22
407.58	1132.82
407.77	1097.71
407.96	1266.23
408.15	1231.12
408.34	1235.80
408.54	1177.29
408.73	1329.42
408.92	1235.80
409.11	1240.48
409.30	1114.10
409.49	1153.88
409.68	957.28
409.87	1046.22
410.07	1053.24
410.26	1160.91
410.45	1284.95
410.64	1200.69
410.83	1174.95
411.02	1270.91
411.21	1345.81
411.40	1423.05
411.59	1317.72
411.78	1320.06
411.98	1284.95
412.17	1214.74
412.36	1214.74
412.55	1301.34
412.74	1313.04
412.93	1193.67
413.12	1259.21
413.31	1434.75
413.50	1357.51
413.69	1385.60
413.88	1308.36
414.07	1327.08
414.26	1327.08
414.45	1322.40
414.64	1378.58
414.83	1413.68
415.02	1310.70
415.22	1380.92
415.41	1411.34
415.60	1313.04
415.79	1439.43
415.98	1418.36
416.17	1544.75
416.36	1430.07
416.55	1455.81
416.74	1385.60
416.93	1308.36
417.12	1296.66
417.31	1291.98
417.50	1331.76
417.69	1460.49
417.88	1380.92
418.07	1359.85
418.26	1373.89
418.45	1357.51
418.64	1465.18
418.83	1448.79
419.02	1434.75
419.21	1425.39
419.39	1315.38
419.58	1254.53
419.77	1366.87
419.96	1444.11
420.15	1636.03
420.34	1425.39
420.53	1462.83
420.72	1638.38
420.91	1572.84
421.10	1535.39
421.29	1472.20
421.48	1467.52
421.67	1636.03
421.86	1425.39
422.05	1341.13
422.24	1219.42
422.43	1266.23
422.61	1352.83
422.80	1486.24
422.99	1465.18
423.18	1397.30
423.37	1404.32
423.56	1455.81
423.75	1406.66
423.94	1348.15
424.13	1380.92
424.32	1348.15
424.50	1418.36
424.69	1483.90
424.88	1425.39
425.07	1345.81
425.26	1399.64
425.45	1364.53
425.64	1357.51
425.83	1446.45
426.01	1451.13
426.20	1401.98
426.39	1488.58
426.58	1343.47
426.77	1256.87
426.96	1256.87
427.15	1261.55
427.33	1345.81
427.52	1406.66
427.71	1376.24
427.90	1427.73
428.09	1413.68
428.28	1392.62
428.46	1284.95
428.65	1336.45
428.84	1390.28
429.03	1413.68
429.22	1317.72
429.40	1308.36
429.59	1158.57
429.78	1041.54
429.97	1006.43
430.16	1008.77
430.34	978.34
430.53	1011.11
430.72	1069.62
430.91	1121.12
431.10	1282.61
431.28	1490.92
431.47	1631.35
431.66	1577.52
431.85	1399.64
432.03	1364.53
432.22	1453.47
432.41	1418.36
432.60	1537.73
432.79	1565.82
432.97	1596.25
433.16	1472.20
433.35	1437.09
433.54	1196.01
433.72	1348.15
433.91	1315.38
434.10	1465.18
434.28	1451.13
434.47	1572.84
434.66	1582.20
434.85	1577.52
435.03	1584.54
435.22	1973.07
435.41	2319.47
435.59	2597.99
435.78	2275.00
435.97	2045.63
436.16	1846.68
436.34	1689.87
436.53	1692.21
436.72	1682.85
436.90	1612.63
437.09	1675.82
437.28	1558.80
437.46	1486.24
437.65	1586.88
437.84	1495.60
438.02	1357.51
438.21	1423.05
438.40	1519.01
438.58	1490.92
438.77	1603.27
438.96	1551.78
439.14	1540.07
439.33	1682.85
439.52	1710.93
439.70	1605.61
439.89	1647.74
440.08	1596.25
440.26	1605.61
440.45	1732.00
440.63	1806.89
440.82	1713.27
441.01	1767.10
441.19	1790.51
441.38	1741.36
441.57	1832.64
441.75	1912.22
441.94	1893.49
442.12	1820.94
442.31	1846.68
442.50	1900.52
442.68	1956.69
442.87	1778.81
443.05	1930.94
443.24	1832.64
443.43	1898.17
443.61	1898.17
443.80	1860.73
443.98	1881.79
444.17	1783.49
444.35	1996.48
444.54	1947.33
444.73	1879.45
444.91	1895.83
445.10	1732.00
445.28	1734.34
445.47	1760.08
445.65	1713.27
445.84	1874.77
446.02	1823.28
446.21	1839.66
446.39	1884.13
446.58	1865.41
446.77	1996.48
446.95	1823.28
447.14	2003.50
447.32	2043.29
447.51	1891.15
447.69	1827.96
447.88	1877.11
448.06	1905.20
448.25	1907.54
448.43	1919.24
448.62	1788.17
448.80	1952.01
448.99	1827.96
449.17	1959.03
449.36	1956.69
449.54	1881.79
449.73	1949.67
449.91	2029.24
450.10	2087.76
450.28	2249.25
450.46	2204.78
450.65	2139.25
450.83	2139.25
451.02	2050.31
451.20	2017.54
451.39	1996.48
451.57	2008.18
451.76	2012.86
451.94	1963.71
452.13	1998.82
452.31	1921.58
452.49	1818.60
452.68	1769.44
452.86	1858.39
453.05	1905.20
453.23	1998.82
453.42	1893.49
453.60	1956.69
453.78	2064.35
453.97	2008.18
454.15	2064.35
454.34	1909.88
454.52	1942.64
454.70	1998.82
454.89	1968.39
455.07	1970.73
455.26	2036.27
455.44	2040.95
455.62	2134.57
455.81	2099.46
455.99	1984.77
456.17	2083.08
456.36	2087.76
456.54	2157.97
456.73	2031.58
456.91	2120.53
457.09	2125.21
457.28	2162.66
457.46	2052.65
457.64	2141.59
457.83	2003.50
458.01	1987.11
458.19	1949.67
458.38	1994.14
458.56	2033.93
458.74	2122.87
458.93	2120.53
459.11	2010.52
459.29	2047.97
459.48	2050.31
459.66	2083.08
459.84	2111.16
460.03	2005.84
460.21	2127.55
460.39	2127.55
460.57	2197.76
460.76	2209.47
460.94	2022.22
461.12	2165.00
461.31	2223.51
461.49	2230.53
461.67	2141.59
461.85	2237.55
462.04	2125.21
462.22	2616.72
462.40	2235.21
462.59	2211.81
462.77	2113.50
462.95	2197.76
463.13	2115.84
463.32	2181.38
463.50	2090.10
463.68	2146.27
463.86	2057.33
464.05	1996.48
464.23	2090.10
464.41	1970.73
464.59	1952.01
464.78	2195.42
464.96	2258.62
465.14	2064.35
465.32	2059.67
465.50	2193.08
465.69	2239.89
465.87	2064.35
466.05	2057.33
466.23	1996.48
466.41	2106.48
466.60	1944.99
466.78	2040.95
466.96	2115.84
467.14	2092.44
467.32	2076.06
467.51	1994.14
467.69	2043.29
467.87	2064.35
468.05	2033.93
468.23	2186.06
468.41	2099.46
468.60	2054.99
468.78	2043.29
468.96	2153.29
469.14	2132.23
469.32	2195.42
469.50	2052.65
469.69	2047.97
469.87	1970.73
470.05	1952.01
470.23	2050.31
470.41	2054.99
470.59	2012.86
470.77	2071.37
470.95	2106.48
471.14	2197.76
471.32	2139.25
471.50	2237.55
471.68	2267.98
471.86	2298.41
472.04	2232.87
472.22	2235.21
472.40	2204.78
472.58	2083.08
472.77	2169.68
472.95	2094.78
473.13	2193.08
473.31	2200.10
473.49	2197.76
473.67	2076.06
473.85	2118.18
474.03	2251.60
474.21	2188.40
474.39	2305.43
474.57	2349.90
474.75	2331.17
474.93	2410.75
475.12	2228.19
475.30	2167.34
475.48	2190.74
475.66	2293.72
475.84	2211.81
476.02	2256.28
476.20	2129.89
476.38	2307.77
476.56	2354.58
476.74	2293.72
476.92	2267.98
477.10	2464.58
477.28	2434.16
477.46	2363.94
477.64	2420.11
477.82	2506.71
478.00	2406.07
478.18	2359.26
478.36	2392.03
478.54	2436.50
478.72	2424.80
478.90	2541.82
479.08	2630.76
479.26	2588.63
479.44	2588.63
479.62	2544.16
479.80	2689.28
479.98	2555.86
480.16	2534.80
480.34	2553.52
480.52	2537.14
480.70	2635.44
480.88	2551.18
481.06	2750.13
481.24	2621.40
481.41	2708.00
481.59	2686.94
481.77	2789.92
481.95	2703.32
482.13	2771.19
482.31	2750.13
482.49	2684.59
482.67	2888.22
482.85	2890.56
483.03	2892.90
483.21	2911.63
483.39	2815.66
483.57	2937.37
483.74	2780.56
483.92	2773.53
484.10	2963.12
484.28	2979.50
484.46	3073.12
484.64	2888.22
484.82	2820.35
485.00	2932.69
485.18	2867.16
485.35	2867.16
485.53	2551.18
485.71	2441.18
485.89	2417.77
486.07	2459.90
486.25	2796.94
486.43	2785.24
486.61	2899.92
486.78	2792.26
486.96	2846.09
487.14	2960.78
487.32	2967.80
487.50	2974.82
487.68	3021.63
487.85	3253.34
488.03	3253.34
488.21	3176.11
488.39	3155.04
488.57	3052.06
488.75	3002.91
488.92	3428.88
489.10	3290.79
489.28	3492.08
489.46	3536.55
489.64	3372.71
489.81	3442.93
489.99	3492.08
490.17	3478.04
490.35	3583.36
490.53	3559.95
490.70	3480.38
490.88	3433.57
491.06	3478.04
491.24	3433.57
491.41	3548.25
491.59	3260.37
491.77	3218.24
491.95	3260.37
492.13	3297.81
492.30	3559.95
492.48	3513.14
492.66	3658.26
492.84	3684.00
493.01	3574.00
493.19	3417.18
493.37	3522.51
493.54	3445.27
493.72	3552.93
493.90	3606.77
494.08	3604.42
494.25	3754.22
494.43	3719.11
494.61	3896.99
494.79	3988.27
494.96	3908.69
495.14	3646.55
495.32	3576.34
495.49	3494.42
495.67	3712.09
495.85	3840.82
496.02	3925.08
496.20	3889.97
496.38	3850.18
496.55	3747.20
496.73	3845.50
496.91	3950.82
497.09	3915.72
497.26	3957.85
497.44	3974.23
497.62	4056.15
497.79	3758.90
497.97	3602.08
498.14	3543.57
498.32	3681.66
498.50	3946.14
498.67	3969.55
498.85	3950.82
499.03	3976.57
499.20	4011.68
499.38	3882.95
499.56	3918.06
499.73	3859.54
499.91	3878.27
500.08	3819.75
500.26	3676.98
500.44	3861.88
500.61	3927.42
500.79	3686.34
500.97	3707.41
501.14	3789.33
501.32	3616.13
501.49	3698.05
501.67	3648.90
501.84	3803.37
502.02	3817.41
502.20	3847.84
502.37	3730.81
502.55	3939.12
502.72	4044.45
502.90	4084.23
503.07	3850.18
503.25	3775.28
503.43	3578.68
503.60	3515.48
503.78	3384.41
503.95	3508.46
504.13	3812.73
504.30	3861.88
504.48	3981.25
504.65	3857.20
504.83	3840.82
505.01	3957.85
505.18	3971.89
505.36	3962.53
505.53	3915.72
505.71	3971.89
505.88	4180.20
506.06	3948.48
506.23	3911.04
506.41	4016.36
506.58	4070.19
506.76	3946.14
506.93	3929.76
507.11	3847.84
507.28	3896.99
507.46	3808.05
507.63	3878.27
507.81	3852.52
507.98	3833.80
508.16	3925.08
508.33	4023.38
508.50	4081.89
508.68	4276.16
508.85	4208.28
509.03	4077.21
509.20	4280.84
509.38	4037.42
509.55	3962.53
509.73	4011.68
509.90	4102.96
510.08	4088.92
510.25	4138.07
510.42	3922.74
510.60	4093.60
510.77	4030.40
510.95	4135.73
511.12	4201.26
511.30	4358.08
511.47	4486.81
511.64	4353.40
511.82	4227.01
511.99	4154.45
512.17	4009.34
512.34	3936.78
512.51	4077.21
512.69	4046.79
512.86	4109.98
513.04	4236.37
513.21	4072.53
513.38	3892.31
513.56	4049.13
513.73	4044.45
513.90	3857.20
514.08	3868.91
514.25	4063.17
514.43	4044.45
514.60	4042.11
514.77	3992.95
514.95	4219.99
515.12	3941.46
515.29	4018.70
515.47	4194.24
515.64	4131.05
515.81	4117.00
515.99	4337.01
516.16	3847.84
516.33	3599.74
516.51	3431.23
516.68	3419.52
516.85	3236.96
517.03	3440.59
517.20	3555.27
517.37	4002.32
517.54	4180.20
517.72	4037.42
517.89	3733.15
518.06	3309.52
518.24	3637.19
518.41	3730.81
518.58	3817.41
518.75	3911.04
518.93	3964.87
519.10	3836.14
519.27	4009.34
519.45	4046.79
519.62	4051.47
519.79	4245.73
519.96	4117.00
520.14	4189.56
520.31	3861.88
520.48	4098.28
520.65	3995.29
520.83	4004.66
521.00	4304.25
521.17	4105.30
521.34	4016.36
521.52	4163.81
521.69	4245.73
521.86	4180.20
522.03	4292.54
522.20	4154.45
522.38	4152.11
522.55	3953.16
522.72	4021.04
522.89	3997.64
523.07	4011.68
523.24	4152.11
523.41	4135.73
523.58	4133.39
523.75	4341.69
523.92	4194.24
524.10	4372.12
524.27	4285.52
524.44	4285.52
524.61	4138.07
524.78	4112.32
524.96	4219.99
525.13	4163.81
525.30	4346.37
525.47	4269.14
525.64	4320.63
525.81	4299.56
525.98	4056.15
526.16	3875.93
526.33	3843.16
526.50	3658.26
526.67	3637.19
526.84	3726.13
527.01	3686.34
527.18	3817.41
527.36	4074.87
527.53	4182.54
527.70	4315.95
527.87	4128.70
528.04	4163.81
528.21	4128.70
528.38	4161.47
528.55	4285.52
528.72	4386.16
528.89	4367.44
529.07	4318.29
529.24	4201.26
529.41	4273.82
529.58	4114.66
529.75	4011.68
529.92	4114.66
530.09	4135.73
530.26	4315.95
530.43	4299.56
530.60	4236.37
530.77	4257.43
530.94	4388.50
531.11	4170.83
531.28	4243.39
531.46	4203.60
531.63	4372.12
531.80	4217.65
531.97	4208.28
532.14	4117.00
532.31	3887.63
532.48	3864.22
532.65	3892.31
532.82	3920.40
532.99	4177.86
533.16	4156.79
533.33	4231.69
533.50	4238.71
533.67	4142.75
533.84	4135.73
534.01	4224.67
534.18	4201.26
534.35	4222.33
534.52	4119.34
534.69	4229.35
534.86	4070.19
535.03	4257.43
535.20	4276.16
535.37	4395.53
535.54	4390.84
535.71	4329.99
535.88	4306.59
536.05	4222.33
536.22	4205.94
536.38	4152.11
536.55	4044.45
536.72	4037.42
536.89	4004.66
537.06	4093.60
537.23	4411.91
537.40	4203.60
537.57	4390.84
537.74	4409.57
537.91	4292.54
538.08	4297.22
538.25	4386.16
538.42	4159.13
538.59	4329.99
538.75	4283.18
538.92	4002.32
539.09	4219.99
539.26	4149.77
539.43	4077.21
539.60	4152.11
539.77	4241.05
539.94	4212.96
540.11	4084.23
540.28	4234.03
540.44	4140.41
540.61	4278.50
540.78	4301.90
540.95	4418.93
541.12	4662.35
541.29	4716.18
541.46	4924.49
541.62	4938.53
541.79	4716.18
541.96	4788.74
542.13	4823.84
542.30	4683.41
542.47	4681.07
542.63	4589.79
542.80	4671.71
542.97	4568.73
543.14	4503.19
543.31	4599.15
543.48	4601.49
543.64	4770.01
543.81	4889.38
543.98	4880.02
544.15	4748.95
544.32	4559.36
544.48	4812.14
544.65	4788.74
544.82	4645.96
544.99	4650.64
545.16	4699.80
545.32	4620.22
545.49	5188.97
545.66	5863.04
545.83	6448.18
546.00	6113.48
546.16	5322.38
546.33	5048.54
546.50	4706.82
546.67	4561.70
546.83	4477.44
547.00	4451.70
547.17	4346.37
547.34	4320.63
547.50	4229.35
547.67	4315.95
547.84	4168.49
548.00	4397.87
548.17	4381.48
548.34	4402.55
548.51	4404.89
548.67	4334.67
548.84	4339.35
549.01	4257.43
549.18	4449.36
549.34	4280.84
549.51	4320.63
549.68	4311.27
549.84	4224.67
550.01	4379.14
550.18	4280.84
550.34	4304.25
550.51	4187.22
550.68	4266.80
550.84	4184.88
551.01	4114.66
551.18	4142.75
551.34	4095.94
551.51	4255.09
551.68	4194.24
551.84	4093.60
552.01	4269.14
552.18	4058.49
552.34	3941.46
552.51	4028.06
552.68	3964.87
552.84	4037.42
553.01	3934.44
553.18	3957.85
553.34	3999.98
553.51	4004.66
553.67	4147.43
553.84	4023.38
554.01	4032.74
554.17	4070.19
554.34	3875.93
554.51	4035.08
554.67	4079.55
554.84	4119.34
555.00	4042.11
555.17	3911.04
555.33	3999.98
555.50	3896.99
555.67	3929.76
555.83	3801.03
556.00	3875.93
556.16	3978.91
556.33	3758.90
556.50	3871.25
556.66	3772.94
556.83	3784.65
556.99	3744.86
557.16	3819.75
557.32	3983.59
557.49	3929.76
557.65	3936.78
557.82	3864.22
557.98	3763.58
558.15	3838.48
558.32	3758.90
558.48	3557.61
558.65	3714.43
558.81	3726.13
558.98	3552.93
559.14	3646.55
559.31	3700.39
559.47	3833.80
559.64	3536.55
559.80	3765.92
559.97	3606.77
560.13	3611.45
560.30	3889.97
560.46	3822.09
560.63	3798.69
560.79	3833.80
560.96	3805.71
561.12	3705.07
561.29	3471.01
561.45	3784.65
561.61	3831.46
561.78	3691.02
561.94	3693.37
562.11	3506.12
562.27	3770.60
562.44	3651.24
562.60	3744.86
562.77	3641.87
562.93	3803.37
563.10	3826.78
563.26	3719.11
563.42	3817.41
563.59	3609.11
563.75	3517.83
563.92	3653.58
564.08	3595.06
564.24	3735.50
564.41	3705.07
564.57	3686.34
564.74	3566.98
564.90	3784.65
565.07	3574.00
565.23	3550.59
565.39	3543.57
565.56	3506.12
565.72	3496.76
565.88	3424.20
566.05	3485.06
566.21	3534.21
566.38	3641.87
566.54	3637.19
566.70	3583.36
566.87	3492.08
567.03	3461.65
567.19	3705.07
567.36	3728.47
567.52	3566.98
567.68	3588.04
567.85	3419.52
568.01	3417.18
568.17	3370.37
568.34	3358.67
568.50	3236.96
568.66	3328.24
568.83	3372.71
568.99	3361.01
569.15	3433.57
569.32	3508.46
569.48	3307.18
569.64	3293.13
569.81	3260.37
569.97	3337.60
570.13	3255.69
570.30	3351.65
570.46	3218.24
570.62	3236.96
570.78	3239.30
570.95	3314.20
571.11	3370.37
571.27	3318.88
571.43	3211.22
571.60	3391.44
571.76	3295.47
571.92	3424.20
572.09	3452.29
572.25	3323.56
572.41	3248.66
572.57	3169.09
572.74	3363.35
572.90	3300.16
573.06	3396.12
573.22	3414.84
573.38	3480.38
573.55	3419.52
573.71	3279.09
573.87	3332.92
574.03	3405.48
574.20	3269.73
574.36	3248.66
574.52	3314.20
574.68	3279.09
574.84	3274.41
575.01	3300.16
575.17	3213.56
575.33	3213.56
575.49	3133.98
575.65	3286.11
575.82	3260.37
575.98	3267.39
576.14	3183.13
576.30	3379.73
576.46	3438.25
576.62	3571.66
576.79	3709.75
576.95	3494.42
577.11	3510.80
577.27	3396.12
577.43	3389.10
577.59	3281.43
577.75	3248.66
577.92	3143.34
578.08	3178.45
578.24	3145.68
578.40	3248.66
578.56	3337.60
578.72	3562.30
578.88	3637.19
579.04	3478.04
579.21	3337.60
579.37	3386.76
579.53	3351.65
579.69	3332.92
579.85	3361.01
580.01	3396.12
580.17	3389.10
580.33	3316.54
580.49	3349.31
580.65	3300.16
580.82	3323.56
580.98	3290.79
581.14	3325.90
581.30	3293.13
581.46	3426.54
581.62	3386.76
581.78	3178.45
581.94	3286.11
582.10	3410.16
582.26	3438.25
582.42	3562.30
582.58	3428.88
582.74	3473.36
582.90	3346.97
583.06	3421.86
583.22	3302.50
583.38	3382.07
583.54	3398.46
583.70	3475.70
583.86	3442.93
584.02	3363.35
584.18	3311.86
584.34	3358.67
584.50	3412.50
584.66	3309.52
584.82	3187.81
584.98	3171.43
585.14	3220.58
585.30	3243.98
585.46	3190.15
585.62	3138.66
585.78	3220.58
585.94	3155.04
586.10	3234.62
586.26	3220.58
586.42	3255.69
586.58	3197.17
586.74	3297.81
586.90	3300.16
587.06	3325.90
587.22	3370.37
587.38	3190.15
587.54	3145.68
587.70	3033.33
587.86	2972.48
588.02	2810.98
588.18	2792.26
588.34	2775.88
588.49	2569.91
588.65	2312.45
588.81	2354.58
588.97	2331.17
589.13	2307.77
589.29	2335.85
589.45	2317.13
589.61	2424.80
589.77	2471.61
589.93	2476.29
590.08	2696.30
590.24	2614.38
590.40	2764.17
590.56	2682.25
590.72	2698.64
590.88	2612.04
591.04	2679.91
591.20	2670.55
591.35	2651.83
591.51	2656.51
591.67	2593.31
591.83	2651.83
591.99	2478.63
592.15	2691.62
592.31	2794.60
592.46	2904.60
592.62	2860.13
592.78	2794.60
592.94	2923.33
593.10	2846.09
593.26	2958.44
593.41	2839.07
593.57	2946.73
593.73	2710.34
593.89	2672.89
594.05	2478.63
594.20	2544.16
594.36	2579.27
594.52	2492.67
594.68	2537.14
594.84	2499.69
594.99	2614.38
595.15	2708.00
595.31	2731.41
595.47	2712.68
595.62	2679.91
595.78	2794.60
595.94	2810.98
596.10	2789.92
596.25	2724.38
596.41	2665.87
596.57	2644.81
596.73	2572.25
596.88	2647.15
597.04	2738.43
597.20	2827.37
597.36	2628.42
597.51	2715.02
597.67	2733.75
597.83	2743.11
597.99	2670.55
