SpectraSuite Data File
++++++++++++++++++++++++++++++++++++
Date: Fri Oct 04 11:44:11 GMT-05:00 2013
User: price-jones
Dark Spectrum Present: No
Reference Spectrum Present: No
Number of Sampled Component Spectra: 1
Spectrometers: USB2+H05261
Integration Time (usec): 100000 (USB2+H05261)
Spectra Averaged: 1 (USB2+H05261)
Boxcar Smoothing: 0 (USB2+H05261)
Correct for Electrical Dark: No (USB2+H05261)
Strobe/Lamp Enabled: No (USB2+H05261)
Correct for Detector Non-linearity: No (USB2+H05261)
Correct for Stray Light: No (USB2+H05261)
Number of Pixels in Processed Spectrum: 2048
>>>>>Begin Processed Spectral Data<<<<<
365.73	25.75
365.92	25.75
366.12	25.75
366.32	0.00
366.52	0.00
366.72	0.00
366.91	0.00
367.11	0.00
367.31	0.00
367.51	0.00
367.70	0.00
367.90	0.00
368.10	0.00
368.30	0.00
368.49	0.00
368.69	4.68
368.89	7.02
369.09	0.00
369.28	0.00
369.48	0.00
369.68	0.00
369.87	0.00
370.07	14.04
370.27	9.36
370.47	159.16
370.66	404.91
370.86	491.51
371.06	543.00
371.25	543.00
371.45	381.51
371.65	463.43
371.84	376.83
372.04	482.15
372.24	475.13
372.44	521.94
372.63	489.17
372.83	486.83
373.03	461.09
373.22	418.96
373.42	411.93
373.62	409.59
373.81	573.43
374.01	545.34
374.21	507.90
374.40	433.00
374.60	528.96
374.79	477.47
374.99	571.09
375.19	566.41
375.38	601.52
375.58	564.07
375.78	627.26
375.97	564.07
376.17	692.80
376.37	622.58
376.56	566.41
376.76	653.01
376.95	685.78
377.15	770.04
377.35	786.42
377.54	758.33
377.74	772.38
377.93	734.93
378.13	688.12
378.33	809.83
378.52	683.44
378.72	634.29
378.91	732.59
379.11	641.31
379.31	634.29
379.50	592.16
379.70	753.65
379.89	704.50
380.09	667.05
380.28	763.01
380.48	828.55
380.68	688.12
380.87	760.67
381.07	678.76
381.26	643.65
381.46	615.56
381.65	599.18
381.85	552.37
382.04	528.96
382.24	512.58
382.43	458.74
382.63	489.17
382.83	449.38
383.02	440.02
383.22	608.54
383.41	517.26
383.61	505.56
383.80	589.82
384.00	617.90
384.19	678.76
384.39	835.57
384.58	795.78
384.78	718.54
384.97	648.33
385.17	587.47
385.36	655.35
385.56	622.58
385.75	709.18
385.95	688.12
386.14	784.08
386.34	725.57
386.53	727.91
386.72	688.12
386.92	718.54
387.11	753.65
387.31	739.61
387.50	678.76
387.70	725.57
387.89	763.01
388.09	692.80
388.28	667.05
388.48	723.23
388.67	779.40
388.86	894.08
389.06	858.98
389.25	1018.13
389.45	924.51
389.64	915.15
389.84	1041.54
390.03	959.62
390.22	887.06
390.42	889.40
390.61	940.90
390.81	1027.50
391.00	1114.10
391.19	1163.25
391.39	1032.18
391.58	985.37
391.78	933.87
391.97	870.68
392.16	765.36
392.36	781.74
392.55	732.59
392.75	561.73
392.94	386.19
393.13	510.24
393.33	601.52
393.52	648.33
393.71	821.53
393.91	903.45
394.10	891.74
394.29	1055.58
394.49	1060.26
394.68	1116.44
394.88	1198.35
395.07	1170.27
395.26	1071.97
395.46	1074.31
395.65	1114.10
395.84	997.07
396.04	952.60
396.23	744.29
396.42	695.14
396.62	620.24
396.81	674.07
397.00	795.78
397.19	938.55
397.39	1111.75
397.58	1196.01
397.77	1296.66
397.97	1376.24
398.16	1362.19
398.35	1455.81
398.55	1350.49
398.74	1509.65
398.93	1593.90
399.12	1481.56
399.32	1472.20
399.51	1385.60
399.70	1582.20
399.90	1528.37
400.09	1495.60
400.28	1624.33
400.47	1542.41
400.67	1650.08
400.86	1727.32
401.05	1579.86
401.24	1610.29
401.44	1734.34
401.63	1788.17
401.82	1621.99
402.01	1743.70
402.21	1671.14
402.40	1736.68
402.59	1657.10
402.78	1607.95
402.97	1544.75
403.17	1638.38
403.36	1708.59
403.55	1675.82
403.74	1757.74
403.93	1769.44
404.13	1621.99
404.32	1614.97
404.51	1689.87
404.70	1736.68
404.89	1820.94
405.09	1867.75
405.28	1701.57
405.47	1591.56
405.66	1661.78
405.85	1636.03
406.05	1636.03
406.24	1636.03
406.43	1521.35
406.62	1792.85
406.81	1713.27
407.00	1732.00
407.20	1689.87
407.39	1619.65
407.58	1671.14
407.77	1809.23
407.96	1816.26
408.15	1905.20
408.34	1926.26
408.54	1935.62
408.73	2040.95
408.92	1919.24
409.11	1795.19
409.30	1811.57
409.49	1624.33
409.68	1694.55
409.87	1561.14
410.07	1664.12
410.26	1741.36
410.45	1907.54
410.64	1874.77
410.83	2015.20
411.02	2003.50
411.21	2129.89
411.40	2029.24
411.59	1994.14
411.78	2043.29
411.98	1947.33
412.17	2108.82
412.36	2073.71
412.55	2003.50
412.74	1916.90
412.93	1980.09
413.12	1928.60
413.31	2141.59
413.50	2111.16
413.69	2108.82
413.88	2183.72
414.07	2197.76
414.26	2099.46
414.45	2026.90
414.64	2148.61
414.83	2132.23
415.02	1947.33
415.22	2230.53
415.41	2043.29
415.60	2050.31
415.79	2136.91
415.98	2436.50
416.17	2305.43
416.36	2256.28
416.55	2195.42
416.74	2080.74
416.93	2258.62
417.12	2057.33
417.31	2104.14
417.50	2195.42
417.69	2211.81
417.88	2188.40
418.07	2197.76
418.26	2239.89
418.45	2277.34
418.64	2331.17
418.83	2221.17
419.02	2282.02
419.21	2188.40
419.39	2118.18
419.58	2073.71
419.77	2160.31
419.96	2165.00
420.15	2293.72
420.34	2326.49
420.53	2380.32
420.72	2434.16
420.91	2443.52
421.10	2410.75
421.29	2373.30
421.48	2385.01
421.67	2420.11
421.86	2431.82
422.05	2235.21
422.24	2120.53
422.43	2026.90
422.61	2106.48
422.80	2221.17
422.99	2293.72
423.18	2298.41
423.37	2260.96
423.56	2298.41
423.75	2214.15
423.94	2235.21
424.13	2076.06
424.32	2160.31
424.50	2165.00
424.69	2136.91
424.88	2200.10
425.07	2197.76
425.26	2071.37
425.45	2092.44
425.64	2003.50
425.83	2127.55
426.01	2289.04
426.20	2239.89
426.39	2289.04
426.58	2155.63
426.77	2022.22
426.96	1959.03
427.15	1947.33
427.33	2108.82
427.52	2160.31
427.71	2214.15
427.90	2207.13
428.09	2331.17
428.28	2176.70
428.46	2071.37
428.65	2160.31
428.84	2050.31
429.03	2188.40
429.22	2003.50
429.40	1886.47
429.59	1790.51
429.78	1607.95
429.97	1584.54
430.16	1643.06
430.34	1617.31
430.53	1626.67
430.72	1617.31
430.91	1689.87
431.10	1926.26
431.28	2284.36
431.47	2483.31
431.66	2553.52
431.85	2541.82
432.03	2267.98
432.22	2286.70
432.41	2162.66
432.60	2422.45
432.79	2476.29
432.97	2567.57
433.16	2602.68
433.35	2260.96
433.54	2106.48
433.72	2012.86
433.91	2059.67
434.10	2183.72
434.28	2403.73
434.47	2504.37
434.66	2476.29
434.85	2406.07
435.03	2389.69
435.22	2553.52
435.41	2930.35
435.59	2867.16
435.78	2871.84
435.97	2743.11
436.16	2670.55
436.34	2600.34
436.53	2684.59
436.72	2602.68
436.90	2583.95
437.09	2523.10
437.28	2424.80
437.46	2502.03
437.65	2490.33
437.84	2445.86
438.02	2284.36
438.21	2265.64
438.40	2270.32
438.58	2438.84
438.77	2450.54
438.96	2532.46
439.14	2504.37
439.33	2719.70
439.52	2691.62
439.70	2663.53
439.89	2754.81
440.08	2553.52
440.26	2651.83
440.45	2607.36
440.63	2806.30
440.82	2906.95
441.01	2815.66
441.19	2977.16
441.38	2857.79
441.57	3098.87
441.75	3084.83
441.94	3131.64
442.12	2953.76
442.31	3019.29
442.50	3171.43
442.68	2993.55
442.87	2963.12
443.05	2942.05
443.24	2958.44
443.43	3141.00
443.61	3293.13
443.80	3045.04
443.98	2911.63
444.17	2918.65
444.35	3141.00
444.54	3171.43
444.73	3110.57
444.91	3035.67
445.10	2923.33
445.28	2796.94
445.47	2792.26
445.65	2754.81
445.84	2775.88
446.02	2874.18
446.21	3000.57
446.39	2946.73
446.58	3033.33
446.77	2958.44
446.95	3033.33
447.14	3169.09
447.32	3358.67
447.51	3112.91
447.69	3087.17
447.88	2803.96
448.06	3073.12
448.25	3101.21
448.43	3162.06
448.62	3101.21
448.80	3084.83
448.99	3126.96
449.17	3133.98
449.36	3028.65
449.54	3236.96
449.73	3328.24
449.91	3293.13
450.10	3328.24
450.28	3346.97
450.46	3499.10
450.65	3363.35
450.83	3407.82
451.02	3295.47
451.20	3393.78
451.39	3400.80
451.57	3290.79
451.76	3246.32
451.94	3253.34
452.13	3405.48
452.31	3286.11
452.49	2850.77
452.68	2874.18
452.86	2998.23
453.05	2928.01
453.23	3148.02
453.42	3019.29
453.60	3239.30
453.78	3325.90
453.97	3234.62
454.15	3321.22
454.34	3101.21
454.52	3028.65
454.70	3122.27
454.89	3234.62
455.07	3126.96
455.26	3159.72
455.44	3293.13
455.62	3370.37
455.81	3297.81
455.99	3358.67
456.17	3424.20
456.36	3349.31
456.54	3403.14
456.73	3204.19
456.91	3447.61
457.09	3396.12
457.28	3531.87
457.46	3358.67
457.64	3323.56
457.83	3393.78
458.01	3141.00
458.19	3363.35
458.38	3220.58
458.56	3463.99
458.74	3510.80
458.93	3318.88
459.11	3251.00
459.29	3330.58
459.48	3295.47
459.66	3323.56
459.84	3475.70
460.03	3655.92
460.21	3316.54
460.39	3456.97
460.57	3548.25
460.76	3517.83
460.94	3548.25
461.12	3384.41
461.31	3473.36
461.49	3403.14
461.67	3501.44
461.85	3400.80
462.04	3564.64
462.22	3983.59
462.40	3592.72
462.59	3426.54
462.77	3550.59
462.95	3672.30
463.13	3566.98
463.32	3578.68
463.50	3410.16
463.68	3351.65
463.86	3403.14
464.05	3368.03
464.23	3501.44
464.41	3447.61
464.59	3255.69
464.78	3449.95
464.96	3339.94
465.14	3335.26
465.32	3506.12
465.50	3602.08
465.69	3536.55
465.87	3559.95
466.05	3487.40
466.23	3318.88
466.41	3323.56
466.60	3386.76
466.78	3342.28
466.96	3482.72
467.14	3461.65
467.32	3630.17
467.51	3510.80
467.69	3246.32
467.87	3386.76
468.05	3321.22
468.23	3410.16
468.41	3372.71
468.60	3461.65
468.78	3679.32
468.96	3548.25
469.14	3412.50
469.32	3449.95
469.50	3372.71
469.69	3466.33
469.87	3478.04
470.05	3335.26
470.23	3286.11
470.41	3363.35
470.59	3281.43
470.77	3330.58
470.95	3454.63
471.14	3489.74
471.32	3449.95
471.50	3707.41
471.68	3735.50
471.86	3756.56
472.04	3698.05
472.22	3836.14
472.40	3550.59
472.58	3520.17
472.77	3438.25
472.95	3513.14
473.13	3641.87
473.31	3449.95
473.49	3461.65
473.67	3576.34
473.85	3801.03
474.03	3744.86
474.21	3686.34
474.39	3702.73
474.57	3836.14
474.75	3777.62
474.93	3810.39
475.12	3658.26
475.30	3723.79
475.48	3765.92
475.66	3756.56
475.84	3803.37
476.02	3693.37
476.20	3651.24
476.38	3681.66
476.56	3749.54
476.74	3761.24
476.92	3658.26
477.10	3976.57
477.28	3838.48
477.46	4037.42
477.64	4079.55
477.82	4035.08
478.00	4126.36
478.18	3990.61
478.36	3873.59
478.54	3950.82
478.72	4053.81
478.90	4107.64
479.08	4196.58
479.26	4187.22
479.44	4430.63
479.62	4077.21
479.80	4262.12
479.98	4147.43
480.16	4365.10
480.34	4327.65
480.52	4329.99
480.70	4358.08
480.88	4301.90
481.06	4603.83
481.24	4587.45
481.41	4645.96
481.59	4533.62
481.77	4667.03
481.95	4599.15
482.13	4622.56
482.31	4552.34
482.49	4669.37
482.67	4484.47
482.85	4573.41
483.03	4535.96
483.21	4699.80
483.39	4634.26
483.57	4617.88
483.74	4751.29
483.92	4512.55
484.10	4641.28
484.28	4828.53
484.46	4877.68
484.64	4835.55
484.82	4793.42
485.00	4624.90
485.18	4683.41
485.35	4526.60
485.53	4273.82
485.71	4095.94
485.89	3707.41
486.07	3868.91
486.25	4327.65
486.43	4531.28
486.61	4601.49
486.78	4669.37
486.96	4578.09
487.14	4807.46
487.32	4957.25
487.50	4987.68
487.68	5029.81
487.85	5317.70
488.03	5338.76
488.21	5238.12
488.39	5170.24
488.57	5114.07
488.75	4812.14
488.92	5462.81
489.10	5392.59
489.28	5619.63
489.46	5586.86
489.64	5874.74
489.81	5783.46
489.99	5720.27
490.17	5774.10
490.35	5881.77
490.53	5657.07
490.70	5678.14
490.88	5504.94
491.06	5783.46
491.24	5799.85
491.41	5626.65
491.59	5455.79
491.77	5233.44
491.95	5418.34
492.13	5561.11
492.30	5706.23
492.48	5757.72
492.66	6045.60
492.84	6092.41
493.01	6132.20
493.19	5907.51
493.37	5823.25
493.54	5689.84
493.72	5973.05
493.90	5970.71
494.08	6225.82
494.25	6312.42
494.43	6286.68
494.61	6291.36
494.79	6415.41
494.96	6370.94
495.14	6258.59
495.32	6267.95
495.49	6101.78
495.67	6111.14
495.85	6389.66
496.02	6443.49
496.20	6445.84
496.38	6537.12
496.55	6452.86
496.73	6677.55
496.91	6534.78
497.09	6597.97
497.26	6729.04
497.44	6626.06
497.62	6436.47
497.79	6197.74
497.97	6146.25
498.14	6076.03
498.32	6129.86
498.50	6586.27
498.67	6377.96
498.85	6738.40
499.03	6548.82
499.20	6640.10
499.38	6541.80
499.56	6745.42
499.73	6555.84
499.91	6373.28
500.08	6392.00
500.26	6200.08
500.44	6214.12
500.61	6574.56
500.79	6471.58
500.97	6286.68
501.14	6228.17
501.32	6216.46
501.49	6136.88
501.67	6148.59
501.84	6347.53
502.02	6204.76
502.20	6352.21
502.37	6506.69
502.55	6352.21
502.72	6303.06
502.90	6553.50
503.07	6569.88
503.25	6314.77
503.43	6141.57
503.60	6080.71
503.78	5973.05
503.95	5970.71
504.13	6193.06
504.30	6282.00
504.48	6555.84
504.65	6640.10
504.83	6600.31
505.01	6759.47
505.18	6796.92
505.36	6703.29
505.53	6991.18
505.71	7019.27
505.88	7140.97
506.06	6743.08
506.23	6633.08
506.41	6642.44
506.58	6733.72
506.76	6602.65
506.93	6633.08
507.11	6616.69
507.28	6633.08
507.46	6476.26
507.63	6239.87
507.81	6396.68
507.98	6321.79
508.16	6387.32
508.33	6698.61
508.50	6862.45
508.68	6848.41
508.85	7035.65
509.03	7049.69
509.20	7136.29
509.38	6909.26
509.55	6738.40
509.73	6726.70
509.90	6878.83
510.08	6988.84
510.25	7070.76
510.42	6970.12
510.60	6883.52
510.77	6897.56
510.95	6993.52
511.12	7052.03
511.30	7204.17
511.47	7356.30
511.64	7255.66
511.82	7136.29
511.99	7040.33
512.17	7023.95
512.34	6761.81
512.51	6832.02
512.69	6869.47
512.86	6988.84
513.04	6942.03
513.21	6817.98
513.38	6906.92
513.56	6623.72
513.73	6635.42
513.90	6492.65
514.08	6682.23
514.25	6651.80
514.43	6745.42
514.60	6801.60
514.77	6745.42
514.95	7101.19
515.12	6675.21
515.29	6951.39
515.47	7077.78
515.64	7126.93
515.81	7131.61
515.99	6892.88
516.16	6654.14
516.33	6253.91
516.51	5619.63
516.68	5720.27
516.85	5720.27
517.03	5509.62
517.20	6047.94
517.37	6677.55
517.54	6965.43
517.72	6937.35
517.89	6246.89
518.06	5970.71
518.24	5757.72
518.41	6352.21
518.58	6672.87
518.75	6553.50
518.93	6630.74
519.10	6764.15
519.27	6679.89
519.45	6691.59
519.62	7009.90
519.79	7133.95
519.96	7091.82
520.14	6960.75
520.31	6656.48
520.48	6642.44
520.65	6750.10
520.83	6946.71
521.00	7105.87
521.17	7052.03
521.34	7045.01
521.52	7211.19
521.69	7070.76
521.86	7337.58
522.03	7190.13
522.20	6864.79
522.38	6733.72
522.55	6792.23
522.72	6579.25
522.89	6839.05
523.07	6942.03
523.24	6927.99
523.41	7019.27
523.58	7393.75
523.75	7358.64
523.92	7520.14
524.10	7201.83
524.27	7262.68
524.44	7342.26
524.61	7396.09
524.78	7246.30
524.96	7063.74
525.13	7126.93
525.30	7115.23
525.47	7435.88
525.64	7349.28
525.81	7274.38
525.98	6960.75
526.16	6747.76
526.33	6253.91
526.50	6258.59
526.67	6164.97
526.84	6202.42
527.01	6307.74
527.18	6698.61
527.36	6869.47
527.53	7061.40
527.70	7094.16
527.87	7148.00
528.04	7014.59
528.21	6918.62
528.38	7227.57
528.55	7379.71
528.72	7389.07
528.89	7641.85
529.07	7496.74
529.24	7485.03
529.41	7478.01
529.58	7016.93
529.75	6850.75
529.92	7213.53
530.09	7112.89
530.26	7372.69
530.43	7234.60
530.60	7403.11
530.77	7407.80
530.94	7384.39
531.11	7290.77
531.28	7265.02
531.46	7227.57
531.63	7265.02
531.80	7274.38
531.97	7169.06
532.14	7126.93
532.31	6803.94
532.48	6724.36
532.65	6684.57
532.82	6604.99
532.99	6890.54
533.16	7115.23
533.33	7185.44
533.50	7220.55
533.67	6965.43
533.84	7021.61
534.01	6946.71
534.18	7112.89
534.35	7126.93
534.52	7157.36
534.69	7215.87
534.86	7164.38
535.03	7279.07
535.20	7445.24
535.37	7578.65
535.54	7571.63
535.71	7489.71
535.88	7417.16
536.05	7213.53
536.22	7000.54
536.38	7047.35
536.55	6661.16
536.72	6857.77
536.89	6733.72
537.06	7016.93
537.23	7103.53
537.40	7262.68
537.57	7424.18
537.74	7435.88
537.91	7157.36
538.08	7215.87
538.25	6904.58
538.42	7180.76
538.59	7405.46
538.75	7218.21
538.92	6899.90
539.09	6979.48
539.26	6925.65
539.43	6850.75
539.60	6911.60
539.77	7007.56
539.94	6967.77
540.11	6775.85
540.28	6616.69
540.44	6595.63
540.61	6799.26
540.78	6843.73
540.95	6869.47
541.12	6974.80
541.29	7002.88
541.46	7052.03
541.62	7241.62
541.79	7089.48
541.96	6946.71
542.13	7075.44
542.30	7126.93
542.47	7232.26
542.63	7105.87
542.80	6956.07
542.97	7047.35
543.14	7042.67
543.31	7000.54
543.48	7152.68
543.64	7445.24
543.81	7428.86
543.98	7368.01
544.15	7316.51
544.32	7274.38
544.48	7302.47
544.65	7110.55
544.82	7112.89
544.99	7178.42
545.16	7045.01
545.32	7070.76
545.49	7510.78
545.66	7903.99
545.83	7824.41
546.00	7777.60
546.16	7250.98
546.33	7211.19
546.50	7129.27
546.67	7131.61
546.83	7021.61
547.00	6965.43
547.17	6937.35
547.34	6810.96
547.50	6738.40
547.67	6949.05
547.84	6813.30
548.00	6799.26
548.17	6967.77
548.34	6993.52
548.51	7059.06
548.67	7222.89
548.84	7068.42
549.01	7115.23
549.18	7033.31
549.34	7026.29
549.51	7070.76
549.68	7009.90
549.84	7082.46
550.01	6937.35
550.18	6993.52
550.34	6813.30
550.51	6745.42
550.68	6825.00
550.84	6825.00
551.01	6806.28
551.18	6848.41
551.34	6874.15
551.51	6906.92
551.68	7138.63
551.84	7061.40
552.01	6998.20
552.18	7037.99
552.34	6771.17
552.51	6665.85
552.68	6523.07
552.84	6675.21
553.01	6651.80
553.18	6895.22
553.34	6780.53
553.51	6979.48
553.67	6988.84
553.84	6981.82
554.01	7052.03
554.17	7033.31
554.34	6867.13
554.51	6860.11
554.67	7042.67
554.84	6965.43
555.00	6967.77
555.17	6703.29
555.33	6768.83
555.50	6799.26
555.67	6736.06
555.83	6593.29
556.00	6642.44
556.16	6775.85
556.33	6668.19
556.50	6539.46
556.66	6672.87
556.83	6415.41
556.99	6693.93
557.16	6541.80
557.32	6576.91
557.49	6656.48
557.65	6628.40
557.82	6593.29
557.98	6663.51
558.15	6609.67
558.32	6253.91
558.48	6256.25
558.65	6211.78
558.81	6305.40
558.98	6394.34
559.14	6375.62
559.31	6436.47
559.47	6684.57
559.64	6279.66
559.80	6445.84
559.97	6204.76
560.13	6307.74
560.30	6466.90
560.46	6469.24
560.63	6703.29
560.79	6731.38
560.96	6579.25
561.12	6366.26
561.29	6071.35
561.45	6296.04
561.61	6403.71
561.78	6485.62
561.94	6394.34
562.11	6513.71
562.27	6286.68
562.44	6368.60
562.60	6408.39
562.77	6672.87
562.93	6382.64
563.10	6530.09
563.26	6307.74
563.42	6544.14
563.59	6164.97
563.75	6406.05
563.92	6455.20
564.08	6176.67
564.24	6115.82
564.41	6326.47
564.57	6331.15
564.74	6265.61
564.90	6506.69
565.07	6256.25
565.23	6361.58
565.39	6167.31
565.56	5954.32
565.72	5809.21
565.88	6087.73
566.05	6207.10
566.21	6104.12
566.38	6143.91
566.54	6040.92
566.70	6260.93
566.87	6363.92
567.03	6399.02
567.19	6265.61
567.36	6197.74
567.52	6134.54
567.68	6164.97
567.85	6162.63
568.01	5820.91
568.17	5621.97
568.34	5678.14
568.50	5699.20
568.66	5764.74
568.83	5722.61
568.99	5832.62
569.15	5830.27
569.32	5865.38
569.48	5841.98
569.64	5699.20
569.81	5856.02
569.97	5872.40
570.13	5865.38
570.30	5891.13
570.46	5699.20
570.62	5605.58
570.78	5570.48
570.95	5465.15
571.11	5734.31
571.27	5621.97
571.43	5724.95
571.60	5769.42
571.76	5734.31
571.92	5879.43
572.09	5860.70
572.25	5661.76
572.41	5790.49
572.57	5841.98
572.74	5650.05
572.90	5844.32
573.06	5774.10
573.22	5771.76
573.38	5738.99
573.55	5860.70
573.71	5839.64
573.87	5701.54
574.03	5722.61
574.20	5769.42
574.36	5598.56
574.52	5664.10
574.68	5600.90
574.84	5624.31
575.01	5530.69
575.17	5624.31
575.33	5514.30
575.49	5628.99
575.65	5877.09
575.82	5526.00
575.98	5526.00
576.14	5483.88
576.30	5657.07
576.46	5696.86
576.62	5771.76
576.79	5767.08
576.95	5872.40
577.11	5568.13
577.27	5685.16
577.43	5654.73
577.59	5685.16
577.75	5547.07
577.92	5423.02
578.08	5308.34
578.24	5416.00
578.40	5458.13
578.56	5591.54
578.72	5694.52
578.88	5853.68
579.04	5671.12
579.21	5703.89
579.37	5572.82
579.53	5724.95
579.69	5509.62
579.85	5668.78
580.01	5870.06
580.17	5596.22
580.33	5621.97
580.49	5673.46
580.65	5654.73
580.82	5654.73
580.98	5682.82
581.14	5717.93
581.30	5668.78
581.46	5591.54
581.62	5743.67
581.78	5568.13
581.94	5654.73
582.10	5724.95
582.26	5701.54
582.42	5769.42
582.58	6001.13
582.74	5832.62
582.90	5790.49
583.06	5799.85
583.22	5760.06
583.38	5626.65
583.54	5710.91
583.70	5624.31
583.86	5736.65
584.02	5696.86
584.18	5743.67
584.34	5640.69
584.50	5605.58
584.66	5598.56
584.82	5593.88
584.98	5518.98
585.14	5366.85
585.30	5296.63
585.46	5434.72
585.62	5247.48
585.78	5310.68
585.94	5310.68
586.10	5561.11
586.26	5418.34
586.42	5418.34
586.58	5364.51
586.74	5446.43
586.90	5462.81
587.06	5439.40
587.22	5284.93
587.38	5247.48
587.54	5156.20
587.70	4957.25
587.86	4889.38
588.02	4636.60
588.18	4809.80
588.34	4615.54
588.49	4243.39
588.65	4004.66
588.81	3873.59
588.97	3772.94
589.13	3887.63
589.29	3838.48
589.45	3859.54
589.61	3985.93
589.77	4107.64
589.93	4273.82
590.08	4454.04
590.24	4557.02
590.40	4704.48
590.56	4582.77
590.72	4449.36
590.88	4631.92
591.04	4531.28
591.20	4571.07
591.35	4594.47
591.51	4348.72
591.67	4231.69
591.83	4255.09
591.99	4346.37
592.15	4334.67
592.31	4613.20
592.46	4599.15
592.62	4805.12
592.78	4650.64
592.94	4681.07
593.10	4751.29
593.26	4798.10
593.41	4964.28
593.57	4781.71
593.73	4554.68
593.89	4358.08
594.05	4224.67
594.20	4262.12
594.36	4278.50
594.52	3967.21
594.68	4154.45
594.84	4482.13
594.99	4477.44
595.15	4622.56
595.31	4585.11
595.47	4650.64
595.62	4564.04
595.78	4660.01
595.94	4683.41
596.10	4814.48
596.25	4880.02
596.41	4627.24
596.57	4477.44
596.73	4615.54
596.88	4547.66
597.04	4854.27
597.20	4564.04
597.36	4620.22
597.51	4603.83
597.67	4713.84
