SpectraSuite Data File
++++++++++++++++++++++++++++++++++++
Date: Fri Oct 04 11:44:21 GMT-05:00 2013
User: price-jones
Dark Spectrum Present: No
Reference Spectrum Present: No
Number of Sampled Component Spectra: 1
Spectrometers: USB2+H05261
Integration Time (usec): 100000 (USB2+H05261)
Spectra Averaged: 1 (USB2+H05261)
Boxcar Smoothing: 0 (USB2+H05261)
Correct for Electrical Dark: No (USB2+H05261)
Strobe/Lamp Enabled: No (USB2+H05261)
Correct for Detector Non-linearity: No (USB2+H05261)
Correct for Stray Light: No (USB2+H05261)
Number of Pixels in Processed Spectrum: 2048
>>>>>Begin Processed Spectral Data<<<<<
365.73	46.81
365.92	46.81
366.12	46.81
366.32	0.00
366.52	0.00
366.72	0.00
366.91	14.04
367.11	0.00
367.31	0.00
367.51	0.00
367.70	0.00
367.90	9.36
368.10	0.00
368.30	0.00
368.49	0.00
368.69	0.00
368.89	0.00
369.09	35.11
369.28	0.00
369.48	21.06
369.68	0.00
369.87	0.00
370.07	7.02
370.27	9.36
370.47	161.50
370.66	585.13
370.86	650.67
371.06	692.80
371.25	741.95
371.45	674.07
371.65	664.71
371.84	615.56
372.04	554.71
372.24	734.93
372.44	664.71
372.63	613.22
372.83	688.12
373.03	641.31
373.22	655.35
373.42	613.22
373.62	755.99
373.81	713.86
374.01	791.10
374.21	718.54
374.40	657.69
374.60	664.71
374.79	671.73
374.99	819.19
375.19	854.30
375.38	1011.11
375.58	833.23
375.78	912.81
375.97	793.44
376.17	858.98
376.37	807.48
376.56	809.83
376.76	882.38
376.95	964.30
377.15	1060.26
377.35	1064.94
377.54	1074.31
377.74	1057.92
377.93	1193.67
378.13	1069.62
378.33	959.62
378.52	1020.47
378.72	938.55
378.91	917.49
379.11	919.83
379.31	833.23
379.50	770.04
379.70	1011.11
379.89	1025.15
380.09	945.58
380.28	1032.18
380.48	1095.37
380.68	999.41
380.87	985.37
381.07	1078.99
381.26	954.94
381.46	917.49
381.65	873.02
381.85	819.19
382.04	835.57
382.24	723.23
382.43	753.65
382.63	779.40
382.83	657.69
383.02	786.42
383.22	720.88
383.41	695.14
383.61	760.67
383.80	772.38
384.00	866.00
384.19	1015.79
384.39	1107.07
384.58	990.05
384.78	1048.56
384.97	1102.39
385.17	1032.18
385.36	807.48
385.56	964.30
385.75	894.08
385.95	1004.09
386.14	990.05
386.34	1057.92
386.53	1013.45
386.72	1081.33
386.92	1034.52
387.11	957.28
387.31	1064.94
387.50	1078.99
387.70	1135.16
387.89	1034.52
388.09	1029.84
388.28	1001.75
388.48	1006.43
388.67	1097.71
388.86	1149.20
389.06	1172.61
389.25	1303.68
389.45	1378.58
389.64	1432.41
389.84	1287.29
390.03	1322.40
390.22	1200.69
390.42	1315.38
390.61	1483.90
390.81	1490.92
391.00	1507.30
391.19	1586.88
391.39	1423.05
391.58	1387.94
391.78	1352.83
391.97	1221.76
392.16	1128.14
392.36	1128.14
392.55	894.08
392.75	800.46
392.94	660.03
393.13	706.84
393.33	791.10
393.52	875.36
393.71	1048.56
393.91	1179.63
394.10	1266.23
394.29	1315.38
394.49	1371.55
394.68	1565.82
394.88	1568.16
395.07	1526.03
395.26	1631.35
395.46	1511.99
395.65	1378.58
395.84	1352.83
396.04	1320.06
396.23	884.72
396.42	854.30
396.62	884.72
396.81	1004.09
397.00	1144.52
397.19	1420.71
397.39	1533.05
397.58	1666.46
397.77	1806.89
397.97	1853.70
398.16	2005.84
398.35	1994.14
398.55	1935.62
398.74	2078.40
398.93	2193.08
399.12	2092.44
399.32	2092.44
399.51	2008.18
399.70	2298.41
399.90	2225.85
400.09	2244.57
400.28	2157.97
400.47	2218.83
400.67	2263.30
400.86	2296.07
401.05	2436.50
401.24	2333.51
401.44	2434.16
401.63	2396.71
401.82	2441.18
402.01	2408.41
402.21	2399.05
402.40	2415.43
402.59	2380.32
402.78	2368.62
402.97	2232.87
403.17	2282.02
403.36	2429.48
403.55	2546.50
403.74	2499.69
403.93	2370.96
404.13	2504.37
404.32	2548.84
404.51	2619.06
404.70	2661.19
404.89	2513.74
405.09	2480.97
405.28	2349.90
405.47	2314.79
405.66	2356.92
405.85	2361.60
406.05	2326.49
406.24	2333.51
406.43	2291.38
406.62	2401.39
406.81	2392.03
407.00	2345.22
407.20	2459.90
407.39	2401.39
407.58	2387.35
407.77	2537.14
407.96	2628.42
408.15	2642.46
408.34	2658.85
408.54	2775.88
408.73	2712.68
408.92	2818.00
409.11	2782.90
409.30	2562.89
409.49	2443.52
409.68	2209.47
409.87	2225.85
410.07	2335.85
410.26	2389.69
410.45	2485.65
410.64	2565.23
410.83	2726.72
411.02	2820.35
411.21	2871.84
411.40	2888.22
411.59	2888.22
411.78	2738.43
411.98	2792.26
412.17	2832.05
412.36	2775.88
412.55	2902.26
412.74	2778.22
412.93	2780.56
413.12	2789.92
413.31	3000.57
413.50	3068.44
413.69	2998.23
413.88	3021.63
414.07	2925.67
414.26	2883.54
414.45	2988.86
414.64	3075.46
414.83	2998.23
415.02	3019.29
415.22	3005.25
415.41	2963.12
415.60	3080.14
415.79	3363.35
415.98	3386.76
416.17	3211.22
416.36	3255.69
416.55	3236.96
416.74	2988.86
416.93	2967.80
417.12	3021.63
417.31	3042.70
417.50	3075.46
417.69	3117.59
417.88	3201.85
418.07	3103.55
418.26	3105.89
418.45	3166.74
418.64	3194.83
418.83	3300.16
419.02	3288.45
419.21	3251.00
419.39	3150.36
419.58	3000.57
419.77	3005.25
419.96	3066.10
420.15	3232.28
420.34	3304.84
420.53	3471.01
420.72	3569.32
420.91	3428.88
421.10	3403.14
421.29	3485.06
421.48	3253.34
421.67	3524.85
421.86	3236.96
422.05	3152.70
422.24	2815.66
422.43	2855.45
422.61	3087.17
422.80	3211.22
422.99	3269.73
423.18	3166.74
423.37	3243.98
423.56	3192.49
423.75	3145.68
423.94	3253.34
424.13	3155.04
424.32	3103.55
424.50	3122.27
424.69	3155.04
424.88	3108.23
425.07	3220.58
425.26	3007.59
425.45	3124.62
425.64	3105.89
425.83	2920.99
426.01	3073.12
426.20	3337.60
426.39	3232.28
426.58	3000.57
426.77	2918.65
426.96	2726.72
427.15	2771.19
427.33	2876.52
427.52	3056.74
427.71	3082.49
427.90	3042.70
428.09	3155.04
428.28	2972.48
428.46	2993.55
428.65	2761.83
428.84	3073.12
429.03	2988.86
429.22	2930.35
429.40	2764.17
429.59	2312.45
429.78	2286.70
429.97	2172.02
430.16	2237.55
430.34	2275.00
430.53	2279.68
430.72	2286.70
430.91	2633.10
431.10	2820.35
431.28	3227.60
431.47	3534.21
431.66	3662.94
431.85	3353.99
432.03	3218.24
432.22	3136.32
432.41	3049.72
432.60	3361.01
432.79	3574.00
432.97	3602.08
433.16	3475.70
433.35	3185.47
433.54	3007.59
433.72	2939.71
433.91	2876.52
434.10	3052.06
434.28	3419.52
434.47	3325.90
434.66	3571.66
434.85	3536.55
435.03	3557.61
435.22	4121.68
435.41	4620.22
435.59	4805.12
435.78	4585.11
435.97	4283.18
436.16	3896.99
436.34	3777.62
436.53	3681.66
436.72	3770.60
436.90	3676.98
437.09	3590.38
437.28	3372.71
437.46	3449.95
437.65	3627.83
437.84	3368.03
438.02	3133.98
438.21	3183.13
438.40	3169.09
438.58	3438.25
438.77	3606.77
438.96	3590.38
439.14	3810.39
439.33	3847.84
439.52	3878.27
439.70	3826.78
439.89	3838.48
440.08	3627.83
440.26	3637.19
440.45	3749.54
440.63	3742.52
440.82	4084.23
441.01	4077.21
441.19	3995.29
441.38	4112.32
441.57	4203.60
441.75	4245.73
441.94	4175.52
442.12	4177.86
442.31	4269.14
442.50	4184.88
442.68	4208.28
442.87	4252.75
443.05	4079.55
443.24	4248.07
443.43	4344.03
443.61	4514.89
443.80	4388.50
443.98	4119.34
444.17	4021.04
444.35	4395.53
444.54	4465.74
444.73	4315.95
444.91	4376.80
445.10	4114.66
445.28	3981.25
445.47	3995.29
445.65	3868.91
445.84	3943.80
446.02	4112.32
446.21	4203.60
446.39	4362.76
446.58	4337.01
446.77	4269.14
446.95	4365.10
447.14	4564.04
447.32	4550.00
447.51	4526.60
447.69	4184.88
447.88	4252.75
448.06	4315.95
448.25	4283.18
448.43	4308.93
448.62	4334.67
448.80	4339.35
448.99	4437.66
449.17	4346.37
449.36	4365.10
449.54	4547.66
449.73	4559.36
449.91	4615.54
450.10	4741.93
450.28	4730.22
450.46	4880.02
450.65	4774.69
450.83	4791.08
451.02	4641.28
451.20	4664.69
451.39	4592.13
451.57	4552.34
451.76	4709.16
451.94	4573.41
452.13	4573.41
452.31	4486.81
452.49	4208.28
452.68	4355.74
452.86	4252.75
453.05	4177.86
453.23	4425.95
453.42	4421.27
453.60	4526.60
453.78	4503.19
453.97	4575.75
454.15	4489.15
454.34	4482.13
454.52	4411.91
454.70	4388.50
454.89	4510.21
455.07	4514.89
455.26	4550.00
455.44	4648.30
455.62	4868.31
455.81	4882.36
455.99	4807.46
456.17	4641.28
456.36	4695.11
456.54	4634.26
456.73	4858.95
456.91	4833.21
457.09	4863.63
457.28	4938.53
457.46	4968.96
457.64	4828.53
457.83	4559.36
458.01	4547.66
458.19	4608.51
458.38	4648.30
458.56	4826.18
458.74	4847.25
458.93	4851.93
459.11	4819.16
459.29	4629.58
459.48	4678.73
459.66	4660.01
459.84	4781.71
460.03	4898.74
460.21	4800.44
460.39	5001.72
460.57	4983.00
460.76	5041.51
460.94	4973.64
461.12	4830.87
461.31	4805.12
461.49	4936.19
461.67	4910.44
461.85	4952.57
462.04	5085.98
462.22	5584.52
462.40	5032.15
462.59	5036.83
462.77	5135.14
462.95	5004.07
463.13	4940.87
463.32	4903.42
463.50	4840.23
463.68	4849.59
463.86	4898.74
464.05	4823.84
464.23	4826.18
464.41	4781.71
464.59	4575.75
464.78	4870.65
464.96	4926.83
465.14	4760.65
465.32	4975.98
465.50	5064.92
465.69	4983.00
465.87	4999.38
466.05	5006.41
466.23	4690.43
466.41	4671.71
466.60	4695.11
466.78	4615.54
466.96	4671.71
467.14	4725.54
467.32	4931.51
467.51	5074.28
467.69	4720.86
467.87	4802.78
468.05	4823.84
468.23	4905.76
468.41	4938.53
468.60	4898.74
468.78	4833.21
468.96	4950.23
469.14	4933.85
469.32	4938.53
469.50	4643.62
469.69	4755.97
469.87	4652.98
470.05	4617.88
470.23	4692.77
470.41	4720.86
470.59	4648.30
470.77	4868.31
470.95	5013.43
471.14	5036.83
471.32	4858.95
471.50	5203.01
471.68	5284.93
471.86	5156.20
472.04	5266.21
472.22	5298.97
472.40	5006.41
472.58	5078.96
472.77	4940.87
472.95	4901.08
473.13	5217.05
473.31	5165.56
473.49	5181.95
473.67	5067.26
473.85	5139.82
474.03	5284.93
474.21	5474.51
474.39	5277.91
474.57	5303.65
474.75	5465.15
474.93	5315.36
475.12	5462.81
475.30	5100.03
475.48	5369.19
475.66	5392.59
475.84	5217.05
476.02	5186.63
476.20	5151.52
476.38	5338.76
476.56	5357.49
476.74	5444.09
476.92	5504.94
477.10	5530.69
477.28	5636.01
477.46	5526.00
477.64	5771.76
477.82	6024.54
478.00	5764.74
478.18	5568.13
478.36	5621.97
478.54	5570.48
478.72	5877.09
478.90	5788.14
479.08	5912.19
479.26	6017.52
479.44	6122.84
479.62	6270.30
479.80	6143.91
479.98	6003.47
480.16	6033.90
480.34	6242.21
480.52	6108.80
480.70	6282.00
480.88	6167.31
481.06	6345.19
481.24	6319.45
481.41	6406.05
481.59	6483.28
481.77	6586.27
481.95	6579.25
482.13	6272.64
482.31	6436.47
482.49	6583.93
482.67	6417.75
482.85	6836.70
483.03	6822.66
483.21	6707.98
483.39	6775.85
483.57	6675.21
483.74	6382.64
483.92	6717.34
484.10	6792.23
484.28	6993.52
484.46	7056.72
484.64	7140.97
484.82	6825.00
485.00	6775.85
485.18	6806.28
485.35	6520.73
485.53	5998.79
485.71	5675.80
485.89	5322.38
486.07	5628.99
486.25	6148.59
486.43	6160.29
486.61	6576.91
486.78	6642.44
486.96	6619.04
487.14	6792.23
487.32	7007.56
487.50	7236.94
487.68	7396.09
487.85	7353.96
488.03	7592.70
488.21	7487.37
488.39	7307.15
488.57	7054.37
488.75	7087.14
488.92	7506.10
489.10	7639.51
489.28	8173.15
489.46	8187.19
489.64	8212.94
489.81	8292.52
489.99	8074.85
490.17	8116.98
490.35	8161.45
490.53	8107.62
490.70	7906.33
490.88	8042.08
491.06	8163.79
491.24	8315.92
491.41	8086.55
491.59	7625.47
491.77	7344.60
491.95	7520.14
492.13	7726.11
492.30	8219.96
492.48	8512.53
492.66	8704.45
492.84	8580.40
493.01	8554.66
493.19	8425.93
493.37	8491.46
493.54	8191.88
493.72	8308.90
493.90	8468.06
494.08	8933.82
494.25	9062.55
494.43	9011.06
494.61	9151.49
494.79	9116.39
494.96	8990.00
495.14	9018.08
495.32	8685.73
495.49	8390.82
495.67	8688.07
495.85	9104.68
496.02	9217.03
496.20	9355.12
496.38	9095.32
496.55	9085.96
496.73	9151.49
496.91	9184.26
497.09	9556.41
497.26	9495.55
497.44	9437.04
497.62	9324.69
497.79	8971.27
497.97	8507.85
498.14	8552.32
498.32	8943.19
498.50	9015.74
498.67	9537.68
498.85	9160.86
499.03	9275.54
499.20	9540.02
499.38	9420.66
499.56	9338.74
499.73	9252.14
499.91	9142.13
500.08	9053.19
500.26	8821.48
500.44	8875.31
500.61	9048.51
500.79	8924.46
500.97	9090.64
501.14	9006.38
501.32	8809.78
501.49	8931.48
501.67	8805.10
501.84	9032.13
502.02	9053.19
502.20	9252.14
502.37	9261.50
502.55	9205.33
502.72	8912.76
502.90	9252.14
503.07	9280.22
503.25	9069.58
503.43	8601.47
503.60	8540.61
503.78	8182.51
503.95	8304.22
504.13	9085.96
504.30	9310.65
504.48	9322.35
504.65	9277.88
504.83	9387.89
505.01	9401.93
505.18	9544.70
505.36	9504.92
505.53	9551.73
505.71	9694.50
505.88	9947.28
506.06	9624.28
506.23	9628.96
506.41	9280.22
506.58	9284.91
506.76	9458.10
506.93	9336.40
507.11	9280.22
507.28	9511.94
507.46	9268.52
507.63	9064.89
507.81	8835.52
507.98	9043.83
508.16	9329.38
508.33	9479.17
508.50	9736.63
508.68	10022.17
508.85	9991.75
509.03	10094.73
509.20	9797.48
509.38	9888.76
509.55	9500.23
509.73	9472.15
509.90	9640.67
510.08	9804.50
510.25	9565.77
510.42	9944.94
510.60	9806.84
510.77	9776.42
510.95	9935.57
511.12	10101.75
511.30	10127.50
511.47	10441.13
511.64	10265.59
511.82	9954.30
511.99	9788.12
512.17	9764.72
512.34	9544.70
512.51	9544.70
512.69	9638.33
512.86	9521.30
513.04	9827.91
513.21	9816.21
513.38	9860.68
513.56	9446.40
513.73	9535.34
513.90	9556.41
514.08	9469.81
514.25	9617.26
514.43	9626.62
514.60	9755.35
514.77	9788.12
514.95	9647.69
515.12	9612.58
515.29	9886.42
515.47	9858.34
515.64	10148.56
515.81	9984.73
515.99	10029.20
516.16	9493.21
516.33	8627.21
516.51	8271.45
516.68	8119.32
516.85	7831.43
517.03	8009.31
517.20	8617.85
517.37	9430.02
517.54	9734.29
517.72	9628.96
517.89	9179.58
518.06	8315.92
518.24	7992.93
518.41	8847.22
518.58	9179.58
518.75	9362.14
518.93	9399.59
519.10	9315.33
519.27	9635.99
519.45	9607.90
519.62	9764.72
519.79	10029.20
519.96	9844.29
520.14	9975.36
520.31	9514.28
520.48	9610.24
520.65	9362.14
520.83	9987.07
521.00	10321.76
521.17	10003.45
521.34	9973.02
521.52	9921.53
521.69	10251.55
521.86	10174.31
522.03	10307.72
522.20	9865.36
522.38	9345.76
522.55	9476.83
522.72	9731.95
522.89	9652.37
523.07	9799.82
523.24	9734.29
523.41	9895.78
523.58	9994.09
523.75	10410.70
523.92	10078.35
524.10	10361.55
524.27	10281.97
524.44	10244.52
524.61	10211.76
524.78	10148.56
524.96	10209.42
525.13	10139.20
525.30	10230.48
525.47	10356.87
525.64	10523.05
525.81	10071.33
525.98	9694.50
526.16	9144.47
526.33	8915.10
526.50	8821.48
526.67	8699.77
526.84	8861.27
527.01	9001.70
527.18	9320.01
527.36	9582.15
527.53	10010.47
527.70	10157.92
527.87	10071.33
528.04	9825.57
528.21	9973.02
528.38	10118.14
528.55	10548.79
528.72	10670.50
528.89	10677.52
529.07	10583.90
529.24	10223.46
529.41	10125.16
529.58	9956.64
529.75	9881.74
529.92	9673.43
530.09	9977.70
530.26	10162.61
530.43	10462.19
530.60	10319.42
530.77	10523.05
530.94	10686.89
531.11	10490.28
531.28	10176.65
531.46	10150.90
531.63	10335.81
531.80	10377.94
531.97	10038.56
532.14	9790.46
532.31	9563.43
532.48	9444.06
532.65	9195.96
532.82	9404.27
532.99	9846.63
533.16	10061.96
533.33	10218.78
533.50	10340.49
533.67	10146.22
533.84	9680.46
534.01	9991.75
534.18	9909.83
534.35	9998.77
534.52	9593.86
534.69	10193.03
534.86	10342.83
535.03	10207.08
535.20	10382.62
535.37	10628.37
535.54	10607.31
535.71	10497.30
535.88	10452.83
536.05	10214.10
536.22	10148.56
536.38	10083.03
536.55	9830.25
536.72	9483.85
536.89	9488.53
537.06	9626.62
537.23	10132.18
537.40	10228.14
537.57	10258.57
537.74	10284.31
537.91	10272.61
538.08	10026.86
538.25	10218.78
538.42	10155.58
538.59	10286.65
538.75	10033.88
538.92	9930.89
539.09	9820.89
539.26	9734.29
539.43	10195.37
539.60	9867.70
539.77	10026.86
539.94	10003.45
540.11	9748.33
540.28	9593.86
540.44	9350.44
540.61	9657.05
540.78	9788.12
540.95	10083.03
541.12	10389.64
541.29	10422.41
541.46	10974.77
541.62	10766.46
541.79	10815.62
541.96	10459.85
542.13	10483.26
542.30	10473.90
542.47	10569.86
542.63	10457.51
542.80	10204.74
542.97	10340.49
543.14	10303.04
543.31	10132.18
543.48	10317.08
543.64	10644.76
543.81	10984.13
543.98	10876.47
544.15	10745.40
544.32	10494.96
544.48	10239.84
544.65	10408.36
544.82	10546.45
544.99	10785.19
545.16	10214.10
545.32	10286.65
545.49	11222.87
545.66	12222.28
545.83	12793.37
546.00	12187.17
546.16	11342.24
546.33	10904.56
546.50	10558.16
546.67	10562.84
546.83	10370.91
547.00	10202.40
547.17	9933.23
547.34	9738.97
547.50	9757.69
547.67	10113.45
547.84	10036.22
548.00	10040.90
548.17	10380.28
548.34	10349.85
548.51	9951.96
548.67	9994.09
548.84	10153.24
549.01	10207.08
549.18	10136.86
549.34	10024.51
549.51	10115.80
549.68	10148.56
549.84	9858.34
550.01	9764.72
550.18	10083.03
550.34	9654.71
550.51	9701.52
550.68	9930.89
550.84	9603.22
551.01	9530.66
551.18	9720.24
551.34	9792.80
551.51	9825.57
551.68	9991.75
551.84	9942.60
552.01	9867.70
552.18	10094.73
552.34	9591.52
552.51	9577.47
552.68	9210.01
552.84	9437.04
553.01	9652.37
553.18	9600.88
553.34	9694.50
553.51	9472.15
553.67	9689.82
553.84	9624.28
554.01	9654.71
554.17	9509.60
554.34	9537.68
554.51	9612.58
554.67	9703.86
554.84	9621.94
555.00	9603.22
555.17	9547.05
555.33	9598.54
555.50	9432.36
555.67	9448.74
555.83	9263.84
556.00	9357.46
556.16	9514.28
556.33	9214.69
556.50	9100.00
556.66	9224.05
556.83	8950.21
556.99	9214.69
557.16	9338.74
557.32	9181.92
557.49	9401.93
557.65	9219.37
557.82	9341.08
557.98	9172.56
558.15	9085.96
558.32	8982.98
558.48	8669.34
558.65	8659.98
558.81	8713.81
558.98	9006.38
559.14	8826.16
559.31	8844.88
559.47	9008.72
559.64	9036.81
559.80	8856.59
559.97	8798.07
560.13	8706.79
560.30	9160.86
560.46	9179.58
560.63	9507.26
560.79	9270.86
560.96	9121.07
561.12	8905.74
561.29	8767.65
561.45	8774.67
561.61	8992.34
561.78	9128.09
561.94	8872.97
562.11	8837.86
562.27	8746.58
562.44	8791.05
562.60	8971.27
562.77	9055.53
562.93	9221.71
563.10	9160.86
563.26	9025.11
563.42	9067.24
563.59	8980.64
563.75	8926.80
563.92	8903.40
564.08	8908.08
564.24	8858.93
564.41	9048.51
564.57	8947.87
564.74	8933.82
564.90	8737.22
565.07	8910.42
565.23	8678.71
565.39	8458.70
565.56	8620.19
565.72	8472.74
565.88	8269.11
566.05	8414.23
566.21	8557.00
566.38	8493.80
566.54	8744.24
566.70	8795.73
566.87	8624.87
567.03	8748.92
567.19	8898.72
567.36	8659.98
567.52	8681.05
567.68	8554.66
567.85	8421.25
568.01	8175.49
568.17	8182.51
568.34	7939.10
568.50	8018.68
568.66	7971.86
568.83	8119.32
568.99	7948.46
569.15	8142.72
569.32	8116.98
569.48	7969.52
569.64	8006.97
569.81	8170.81
569.97	8035.06
570.13	8084.21
570.30	7878.24
570.46	8081.87
570.62	7915.69
570.78	7768.24
570.95	7616.10
571.11	7999.95
571.27	7908.67
571.43	8039.74
571.60	7992.93
571.76	8152.09
571.92	8278.47
572.09	8189.53
572.25	8049.10
572.41	8250.39
572.57	8002.29
572.74	8131.02
572.90	7964.84
573.06	8149.75
573.22	8138.04
573.38	8142.72
573.55	7976.55
573.71	8229.32
573.87	8088.89
574.03	7939.10
574.20	7847.82
574.36	7775.26
574.52	7695.68
574.68	7761.22
574.84	7808.03
575.01	7744.83
575.17	7658.23
575.33	7721.43
575.49	7817.39
575.65	7791.64
575.82	7573.97
575.98	7660.57
576.14	7812.71
576.30	8072.51
576.46	8234.00
576.62	8278.47
576.79	8381.46
576.95	8060.80
577.11	8060.80
577.27	8035.06
577.43	8049.10
577.59	7887.61
577.75	7906.33
577.92	7679.30
578.08	7377.37
578.24	7527.16
578.40	7681.64
578.56	7918.03
578.72	8208.26
578.88	8276.13
579.04	8088.89
579.21	8142.72
579.37	7971.86
579.53	8049.10
579.69	8107.62
579.85	8112.30
580.01	8072.51
580.17	7974.21
580.33	7843.14
580.49	7630.15
580.65	7939.10
580.82	8065.49
580.98	7995.27
581.14	7868.88
581.30	7946.12
581.46	7866.54
581.62	7896.97
581.78	8006.97
581.94	8222.30
582.10	8238.69
582.26	8152.09
582.42	8189.53
582.58	8121.66
582.74	8135.70
582.90	8133.36
583.06	8044.42
583.22	8100.59
583.38	7978.89
583.54	8049.10
583.70	8084.21
583.86	8180.17
584.02	7999.95
584.18	7941.44
584.34	8011.65
584.50	8056.12
584.66	8013.99
584.82	7793.98
584.98	7859.52
585.14	7885.26
585.30	7597.38
585.46	7599.72
585.62	7435.88
585.78	7541.21
585.94	7564.61
586.10	7702.70
586.26	7503.76
586.42	7637.17
586.58	7791.64
586.74	7859.52
586.90	7793.98
587.06	7658.23
587.22	7714.41
587.38	7426.52
587.54	7349.28
587.70	7236.94
587.86	6911.60
588.02	6817.98
588.18	6466.90
588.34	6415.41
588.49	5998.79
588.65	5692.18
588.81	5350.46
588.97	5455.79
589.13	5472.17
589.29	5289.61
589.45	5397.28
589.61	5458.13
589.77	5813.89
589.93	6129.86
590.08	6298.38
590.24	6413.07
590.40	6490.31
590.56	6434.13
590.72	6347.53
590.88	6373.28
591.04	6401.37
591.20	6394.34
591.35	6338.17
591.51	6113.48
591.67	6101.78
591.83	6143.91
591.99	6221.14
592.15	6244.55
592.31	6492.65
592.46	6684.57
592.62	6574.56
592.78	6595.63
592.94	6792.23
593.10	6750.10
593.26	6888.20
593.41	6923.30
593.57	6768.83
593.73	6483.28
593.89	6188.38
594.05	6052.63
594.20	5942.62
594.36	5898.15
594.52	5898.15
594.68	5736.65
594.84	6153.27
594.99	6506.69
595.15	6546.48
595.31	6504.35
595.47	6480.94
595.62	6473.92
595.78	6733.72
