SpectraSuite Data File
++++++++++++++++++++++++++++++++++++
Date: Fri Oct 04 11:44:20 GMT-05:00 2013
User: price-jones
Dark Spectrum Present: No
Reference Spectrum Present: No
Number of Sampled Component Spectra: 1
Spectrometers: USB2+H05261
Integration Time (usec): 100000 (USB2+H05261)
Spectra Averaged: 1 (USB2+H05261)
Boxcar Smoothing: 0 (USB2+H05261)
Correct for Electrical Dark: No (USB2+H05261)
Strobe/Lamp Enabled: No (USB2+H05261)
Correct for Detector Non-linearity: No (USB2+H05261)
Correct for Stray Light: No (USB2+H05261)
Number of Pixels in Processed Spectrum: 2048
>>>>>Begin Processed Spectral Data<<<<<
365.73	35.11
365.92	35.11
366.12	35.11
366.32	0.00
366.52	0.00
366.72	35.11
366.91	0.00
367.11	0.00
367.31	0.00
367.51	0.00
367.70	0.00
367.90	0.00
368.10	0.00
368.30	0.00
368.49	0.00
368.69	0.00
368.89	0.00
369.09	0.00
369.28	0.00
369.48	0.00
369.68	0.00
369.87	0.00
370.07	0.00
370.27	77.24
370.47	60.85
370.66	234.05
370.86	297.25
371.06	348.74
371.25	355.76
371.45	297.25
371.65	299.59
371.84	248.10
372.04	313.63
372.24	374.49
372.44	339.38
372.63	360.44
372.83	367.46
373.03	327.68
373.22	255.12
373.42	255.12
373.62	346.40
373.81	402.57
374.01	388.53
374.21	294.91
374.40	332.36
374.60	376.83
374.79	383.85
374.99	381.51
375.19	454.06
375.38	444.70
375.58	472.79
375.78	388.53
375.97	423.64
376.17	510.24
376.37	463.43
376.56	512.58
376.76	418.96
376.95	498.53
377.15	582.79
377.35	418.96
377.54	648.33
377.74	503.22
377.93	493.85
378.13	477.47
378.33	479.81
378.52	447.04
378.72	486.83
378.91	463.43
379.11	461.09
379.31	449.38
379.50	383.85
379.70	538.32
379.89	496.19
380.09	407.25
380.28	535.98
380.48	526.62
380.68	533.64
380.87	477.47
381.07	442.36
381.26	496.19
381.46	437.68
381.65	449.38
381.85	365.12
382.04	358.10
382.24	437.68
382.43	348.74
382.63	362.78
382.83	404.91
383.02	386.19
383.22	379.17
383.41	400.23
383.61	301.93
383.80	400.23
384.00	519.60
384.19	468.11
384.39	454.06
384.58	517.26
384.78	498.53
384.97	435.34
385.17	505.56
385.36	479.81
385.56	451.72
385.75	475.13
385.95	550.03
386.14	484.49
386.34	493.85
386.53	512.58
386.72	554.71
386.92	521.94
387.11	454.06
387.31	545.34
387.50	521.94
387.70	442.36
387.89	442.36
388.09	475.13
388.28	505.56
388.48	580.45
388.67	521.94
388.86	486.83
389.06	587.47
389.25	662.37
389.45	662.37
389.64	657.69
389.84	704.50
390.03	755.99
390.22	711.52
390.42	580.45
390.61	702.16
390.81	624.92
391.00	704.50
391.19	739.61
391.39	699.82
391.58	706.84
391.78	634.29
391.97	650.67
392.16	608.54
392.36	599.18
392.55	430.66
392.75	428.32
392.94	348.74
393.13	353.42
393.33	334.70
393.52	461.09
393.71	545.34
393.91	540.66
394.10	657.69
394.29	613.22
394.49	627.26
394.68	690.46
394.88	737.27
395.07	807.48
395.26	690.46
395.46	706.84
395.65	711.52
395.84	624.92
396.04	594.50
396.23	458.74
396.42	510.24
396.62	458.74
396.81	486.83
397.00	484.49
397.19	613.22
397.39	802.80
397.58	877.70
397.77	908.13
397.97	929.19
398.16	961.96
398.35	1006.43
398.55	943.24
398.74	889.40
398.93	1015.79
399.12	912.81
399.32	1081.33
399.51	954.94
399.70	1041.54
399.90	1032.18
400.09	1006.43
400.28	1008.77
400.47	1011.11
400.67	1114.10
400.86	1039.20
401.05	1165.59
401.24	1132.82
401.44	1097.71
401.63	1144.52
401.82	1118.78
402.01	1060.26
402.21	1139.84
402.40	1100.05
402.59	1053.24
402.78	971.32
402.97	1107.07
403.17	1153.88
403.36	1153.88
403.55	1240.48
403.74	1217.08
403.93	999.41
404.13	1071.97
404.32	1118.78
404.51	1116.44
404.70	1158.57
404.89	1188.99
405.09	1167.93
405.28	1097.71
405.47	1060.26
405.66	1114.10
405.85	1111.75
406.05	1090.69
406.24	1074.31
406.43	1137.50
406.62	1146.86
406.81	1247.51
407.00	1135.16
407.20	1076.65
407.39	1107.07
407.58	1109.41
407.77	1167.93
407.96	1275.59
408.15	1233.46
408.34	1191.33
408.54	1348.15
408.73	1259.21
408.92	1261.55
409.11	1172.61
409.30	1203.04
409.49	1142.18
409.68	1100.05
409.87	983.02
410.07	1083.67
410.26	1151.54
410.45	1203.04
410.64	1214.74
410.83	1188.99
411.02	1303.68
411.21	1334.11
411.40	1256.87
411.59	1317.72
411.78	1371.55
411.98	1444.11
412.17	1345.81
412.36	1289.64
412.55	1343.47
412.74	1352.83
412.93	1343.47
413.12	1301.34
413.31	1409.00
413.50	1306.02
413.69	1575.18
413.88	1455.81
414.07	1364.53
414.26	1336.45
414.45	1406.66
414.64	1418.36
414.83	1373.89
415.02	1455.81
415.22	1366.87
415.41	1380.92
415.60	1437.09
415.79	1432.41
415.98	1589.22
416.17	1528.37
416.36	1514.33
416.55	1448.79
416.74	1497.94
416.93	1465.18
417.12	1376.24
417.31	1418.36
417.50	1458.15
417.69	1483.90
417.88	1451.13
418.07	1509.65
418.26	1392.62
418.45	1390.28
418.64	1472.20
418.83	1509.65
419.02	1535.39
419.21	1591.56
419.39	1399.64
419.58	1355.17
419.77	1336.45
419.96	1458.15
420.15	1584.54
420.34	1544.75
420.53	1636.03
420.72	1631.35
420.91	1589.22
421.10	1603.27
421.29	1589.22
421.48	1502.62
421.67	1575.18
421.86	1565.82
422.05	1516.67
422.24	1387.94
422.43	1277.93
422.61	1380.92
422.80	1465.18
422.99	1493.26
423.18	1451.13
423.37	1556.46
423.56	1488.58
423.75	1448.79
423.94	1465.18
424.13	1409.00
424.32	1409.00
424.50	1486.24
424.69	1502.62
424.88	1502.62
425.07	1490.92
425.26	1535.39
425.45	1483.90
425.64	1458.15
425.83	1444.11
426.01	1568.16
426.20	1451.13
426.39	1568.16
426.58	1416.02
426.77	1317.72
426.96	1303.68
427.15	1352.83
427.33	1390.28
427.52	1404.32
427.71	1355.17
427.90	1338.79
428.09	1439.43
428.28	1345.81
428.46	1301.34
428.65	1411.34
428.84	1383.26
429.03	1460.49
429.22	1334.11
429.40	1273.25
429.59	1156.22
429.78	1179.63
429.97	1069.62
430.16	1149.20
430.34	1095.37
430.53	1015.79
430.72	1071.97
430.91	1247.51
431.10	1306.02
431.28	1579.86
431.47	1762.42
431.66	1638.38
431.85	1612.63
432.03	1451.13
432.22	1495.60
432.41	1502.62
432.60	1547.09
432.79	1612.63
432.97	1619.65
433.16	1626.67
433.35	1589.22
433.54	1465.18
433.72	1345.81
433.91	1357.51
434.10	1441.77
434.28	1549.43
434.47	1626.67
434.66	1661.78
434.85	1619.65
435.03	1762.42
435.22	1750.72
435.41	2038.61
435.59	1902.86
435.78	1839.66
435.97	1799.87
436.16	1877.11
436.34	1895.83
436.53	1823.28
436.72	1792.85
436.90	1696.89
437.09	1596.25
437.28	1699.23
437.46	1605.61
437.65	1626.67
437.84	1497.94
438.02	1411.34
438.21	1448.79
438.40	1465.18
438.58	1591.56
438.77	1671.14
438.96	1736.68
439.14	1692.21
439.33	1781.15
439.52	1816.26
439.70	1750.72
439.89	1640.72
440.08	1664.12
440.26	1724.97
440.45	1781.15
440.63	1902.86
440.82	1893.49
441.01	1886.47
441.19	1870.09
441.38	1860.73
441.57	1982.43
441.75	1994.14
441.94	1933.28
442.12	1942.64
442.31	1933.28
442.50	2038.61
442.68	1930.94
442.87	1877.11
443.05	1937.96
443.24	1891.15
443.43	1954.35
443.61	2012.86
443.80	2057.33
443.98	2024.56
444.17	1952.01
444.35	2001.16
444.54	2083.08
444.73	2015.20
444.91	2097.12
445.10	2008.18
445.28	1809.23
445.47	1806.89
445.65	1813.92
445.84	1919.24
446.02	1940.30
446.21	1970.73
446.39	2005.84
446.58	1966.05
446.77	1933.28
446.95	2122.87
447.14	2008.18
447.32	2111.16
447.51	2052.65
447.69	1982.43
447.88	1949.67
448.06	2143.93
448.25	2054.99
448.43	2071.37
448.62	2045.63
448.80	2099.46
448.99	1980.09
449.17	1966.05
449.36	2012.86
449.54	2125.21
449.73	2169.68
449.91	2202.44
450.10	2242.23
450.28	2202.44
450.46	2298.41
450.65	2317.13
450.83	2270.32
451.02	2251.60
451.20	2174.36
451.39	2143.93
451.57	2148.61
451.76	2150.95
451.94	2193.08
452.13	2139.25
452.31	2080.74
452.49	1930.94
452.68	1982.43
452.86	2003.50
453.05	2073.71
453.23	1842.00
453.42	1980.09
453.60	2019.88
453.78	2167.34
453.97	2080.74
454.15	2022.22
454.34	2059.67
454.52	2141.59
454.70	2115.84
454.89	2017.54
455.07	2033.93
455.26	2160.31
455.44	2099.46
455.62	2080.74
455.81	2239.89
455.99	2275.00
456.17	2172.02
456.36	2155.63
456.54	2216.49
456.73	2204.78
456.91	2174.36
457.09	2204.78
457.28	2282.02
457.46	2275.00
457.64	2244.57
457.83	2307.77
458.01	1975.41
458.19	2148.61
458.38	2193.08
458.56	2160.31
458.74	2181.38
458.93	2204.78
459.11	2118.18
459.29	2073.71
459.48	2150.95
459.66	2263.30
459.84	2143.93
460.03	2239.89
460.21	2228.19
460.39	2291.38
460.57	2228.19
460.76	2272.66
460.94	2286.70
461.12	2340.54
461.31	2331.17
461.49	2279.68
461.67	2279.68
461.85	2389.69
462.04	2225.85
462.22	2733.75
462.40	2270.32
462.59	2284.36
462.77	2214.15
462.95	2385.01
463.13	2368.62
463.32	2300.75
463.50	2221.17
463.68	2244.57
463.86	2284.36
464.05	2204.78
464.23	2190.74
464.41	2162.66
464.59	2057.33
464.78	2272.66
464.96	2237.55
465.14	2062.01
465.32	2172.02
465.50	2354.58
465.69	2230.53
465.87	2195.42
466.05	2251.60
466.23	2256.28
466.41	2150.95
466.60	2162.66
466.78	2232.87
466.96	2303.09
467.14	2303.09
467.32	2244.57
467.51	2307.77
467.69	2174.36
467.87	2204.78
468.05	2267.98
468.23	2204.78
468.41	2282.02
468.60	2335.85
468.78	2314.79
468.96	2214.15
469.14	2310.11
469.32	2225.85
469.50	2174.36
469.69	2104.14
469.87	2242.23
470.05	2125.21
470.23	2211.81
470.41	2284.36
470.59	2181.38
470.77	2134.57
470.95	2265.64
471.14	2272.66
471.32	2282.02
471.50	2373.30
471.68	2466.92
471.86	2424.80
472.04	2476.29
472.22	2373.30
472.40	2408.41
472.58	2317.13
472.77	2162.66
472.95	2289.04
473.13	2462.24
473.31	2310.11
473.49	2293.72
473.67	2300.75
473.85	2354.58
474.03	2434.16
474.21	2448.20
474.39	2478.63
474.57	2651.83
474.75	2490.33
474.93	2473.95
475.12	2326.49
475.30	2380.32
475.48	2471.61
475.66	2403.73
475.84	2363.94
476.02	2429.48
476.20	2392.03
476.38	2466.92
476.56	2478.63
476.74	2539.48
476.92	2546.50
477.10	2595.65
477.28	2623.74
477.46	2686.94
477.64	2607.36
477.82	2588.63
478.00	2740.77
478.18	2637.78
478.36	2635.44
478.54	2626.08
478.72	2637.78
478.90	2691.62
479.08	2827.37
479.26	2787.58
479.44	2708.00
479.62	2738.43
479.80	2705.66
479.98	2878.86
480.16	2796.94
480.34	2923.33
480.52	2778.22
480.70	2902.26
480.88	2897.58
481.06	3026.31
481.24	2904.60
481.41	2993.55
481.59	3063.76
481.77	2911.63
481.95	3030.99
482.13	2878.86
482.31	3023.97
482.49	3056.74
482.67	3009.93
482.85	3038.02
483.03	2911.63
483.21	3047.38
483.39	3070.78
483.57	3002.91
483.74	2977.16
483.92	3045.04
484.10	3045.04
484.28	3138.66
484.46	3105.89
484.64	3073.12
484.82	3105.89
485.00	3047.38
485.18	3152.70
485.35	2944.39
485.53	2696.30
485.71	2537.14
485.89	2429.48
486.07	2605.02
486.25	2860.13
486.43	2960.78
486.61	3002.91
486.78	3021.63
486.96	2956.10
487.14	3070.78
487.32	3248.66
487.50	3304.84
487.68	3410.16
487.85	3480.38
488.03	3480.38
488.21	3311.86
488.39	3391.44
488.57	3297.81
488.75	3194.83
488.92	3639.53
489.10	3471.01
489.28	3726.13
489.46	3616.13
489.64	3779.97
489.81	3714.43
489.99	3709.75
490.17	3786.99
490.35	3669.96
490.53	3824.44
490.70	3597.40
490.88	3620.81
491.06	3833.80
491.24	3676.98
491.41	3555.27
491.59	3590.38
491.77	3361.01
491.95	3438.25
492.13	3590.38
492.30	3613.79
492.48	3817.41
492.66	3911.04
492.84	4032.74
493.01	3918.06
493.19	3735.50
493.37	3896.99
493.54	3852.52
493.72	3826.78
493.90	3971.89
494.08	3941.46
494.25	4098.28
494.43	3915.72
494.61	4156.79
494.79	4168.49
494.96	4124.02
495.14	4224.67
495.32	3985.93
495.49	3861.88
495.67	3925.08
495.85	4210.62
496.02	4285.52
496.20	4196.58
496.38	4170.83
496.55	4149.77
496.73	4194.24
496.91	4269.14
497.09	4287.86
497.26	4259.78
497.44	4276.16
497.62	4180.20
497.79	4028.06
497.97	4018.70
498.14	3920.40
498.32	4056.15
498.50	4236.37
498.67	4315.95
498.85	4271.48
499.03	4306.59
499.20	4250.41
499.38	4451.70
499.56	4468.08
499.73	4278.50
499.91	4016.36
500.08	4046.79
500.26	4002.32
500.44	4091.26
500.61	4184.88
500.79	4067.85
500.97	4131.05
501.14	4093.60
501.32	4095.94
501.49	4039.76
501.67	3955.51
501.84	4067.85
502.02	4152.11
502.20	4301.90
502.37	4320.63
502.55	4325.31
502.72	4173.18
502.90	4425.95
503.07	4266.80
503.25	4140.41
503.43	4014.02
503.60	4114.66
503.78	3819.75
503.95	3826.78
504.13	3927.42
504.30	4203.60
504.48	4252.75
504.65	4278.50
504.83	4409.57
505.01	4337.01
505.18	4332.33
505.36	4510.21
505.53	4559.36
505.71	4388.50
505.88	4557.02
506.06	4498.51
506.23	4231.69
506.41	4278.50
506.58	4325.31
506.76	4339.35
506.93	4264.46
507.11	4358.08
507.28	4409.57
507.46	4182.54
507.63	4273.82
507.81	4131.05
507.98	4175.52
508.16	4208.28
508.33	4224.67
508.50	4315.95
508.68	4374.46
508.85	4535.96
509.03	4514.89
509.20	4746.61
509.38	4414.25
509.55	4341.69
509.73	4250.41
509.90	4440.00
510.08	4552.34
510.25	4524.26
510.42	4542.98
510.60	4561.70
510.77	4554.68
510.95	4519.57
511.12	4601.49
511.30	4765.33
511.47	4770.01
511.64	4807.46
511.82	4650.64
511.99	4643.62
512.17	4477.44
512.34	4442.34
512.51	4409.57
512.69	4468.08
512.86	4472.76
513.04	4510.21
513.21	4510.21
513.38	4533.62
513.56	4358.08
513.73	4409.57
513.90	4416.59
514.08	4381.48
514.25	4376.80
514.43	4533.62
514.60	4533.62
514.77	4449.36
514.95	4622.56
515.12	4322.97
515.29	4512.55
515.47	4557.02
515.64	4678.73
515.81	4643.62
515.99	4540.64
516.16	4496.17
516.33	4091.26
516.51	3999.98
516.68	3740.18
516.85	3719.11
517.03	3721.45
517.20	4102.96
517.37	4367.44
517.54	4589.79
517.72	4533.62
517.89	4241.05
518.06	3871.25
518.24	3838.48
518.41	4131.05
518.58	4283.18
518.75	4334.67
518.93	4418.93
519.10	4346.37
519.27	4510.21
519.45	4411.91
519.62	4479.79
519.79	4610.86
519.96	4638.94
520.14	4578.09
520.31	4367.44
520.48	4409.57
520.65	4315.95
520.83	4493.83
521.00	4669.37
521.17	4615.54
521.34	4531.28
521.52	4592.13
521.69	4880.02
521.86	4648.30
522.03	4685.75
522.20	4561.70
522.38	4318.29
522.55	4381.48
522.72	4341.69
522.89	4500.85
523.07	4512.55
523.24	4512.55
523.41	4732.56
523.58	4716.18
523.75	4880.02
523.92	4835.55
524.10	4718.52
524.27	4891.72
524.44	4805.12
524.61	4652.98
524.78	4685.75
524.96	4652.98
525.13	4660.01
525.30	4720.86
525.47	4781.71
525.64	4795.76
525.81	4908.10
525.98	4519.57
526.16	4238.71
526.33	4217.65
526.50	4196.58
526.67	4100.62
526.84	4198.92
527.01	4280.84
527.18	4362.76
527.36	4575.75
527.53	4650.64
527.70	4891.72
527.87	4723.20
528.04	4451.70
528.21	4681.07
528.38	4847.25
528.55	5036.83
528.72	4936.19
528.89	4975.98
529.07	4980.66
529.24	4917.47
529.41	4814.48
529.58	4774.69
529.75	4643.62
529.92	4847.25
530.09	4739.58
530.26	4926.83
530.43	4901.08
530.60	5041.51
530.77	4894.06
530.94	5104.71
531.11	4924.49
531.28	4767.67
531.46	4786.40
531.63	4877.68
531.80	4856.61
531.97	4622.56
532.14	4641.28
532.31	4397.87
532.48	4538.30
532.65	4374.46
532.82	4432.97
532.99	4627.24
533.16	4657.67
533.33	4809.80
533.50	4844.91
533.67	4753.63
533.84	4641.28
534.01	4779.37
534.18	4706.82
534.35	4793.42
534.52	4622.56
534.69	4870.65
534.86	4795.76
535.03	4954.91
535.20	4929.17
535.37	4975.98
535.54	4961.94
535.71	4973.64
535.88	4936.19
536.05	4840.23
536.22	4734.90
536.38	4751.29
536.55	4540.64
536.72	4372.12
536.89	4547.66
537.06	4568.73
537.23	4734.90
537.40	4805.12
537.57	4922.15
537.74	4898.74
537.91	4805.12
538.08	4709.16
538.25	4858.95
538.42	4816.82
538.59	4788.74
538.75	4652.98
538.92	4655.33
539.09	4737.24
539.26	4559.36
539.43	4685.75
539.60	4617.88
539.77	4706.82
539.94	4491.49
540.11	4657.67
540.28	4596.81
540.44	4517.23
540.61	4564.04
540.78	4491.49
540.95	4559.36
541.12	4807.46
541.29	4774.69
541.46	5057.90
541.62	4950.23
541.79	5008.75
541.96	4905.76
542.13	4873.00
542.30	4823.84
542.47	4809.80
542.63	4945.55
542.80	4903.42
542.97	4919.81
543.14	4681.07
543.31	4849.59
543.48	4917.47
543.64	4868.31
543.81	5095.35
543.98	5015.77
544.15	4950.23
544.32	4802.78
544.48	4964.28
544.65	4711.50
544.82	4868.31
544.99	4919.81
545.16	4961.94
545.32	4716.18
545.49	5125.77
545.66	5610.26
545.83	5582.18
546.00	5439.40
546.16	4973.64
546.33	4994.70
546.50	4856.61
546.67	4875.34
546.83	4919.81
547.00	4901.08
547.17	4723.20
547.34	4531.28
547.50	4571.07
547.67	4641.28
547.84	4538.30
548.00	4652.98
548.17	4784.06
548.34	4702.14
548.51	4828.53
548.67	4842.57
548.84	4800.44
549.01	4746.61
549.18	4793.42
549.34	4737.24
549.51	4772.35
549.68	4690.43
549.84	4676.39
550.01	4512.55
550.18	4767.67
550.34	4697.46
550.51	4575.75
550.68	4638.94
550.84	4571.07
551.01	4601.49
551.18	4547.66
551.34	4566.39
551.51	4545.32
551.68	4617.88
551.84	4835.55
552.01	4720.86
552.18	4739.58
552.34	4634.26
552.51	4528.94
552.68	4397.87
552.84	4580.43
553.01	4699.80
553.18	4524.26
553.34	4594.47
553.51	4430.63
553.67	4624.90
553.84	4655.33
554.01	4582.77
554.17	4554.68
554.34	4566.39
554.51	4571.07
554.67	4568.73
554.84	4545.32
555.00	4620.22
555.17	4589.79
555.33	4568.73
555.50	4524.26
555.67	4638.94
555.83	4531.28
556.00	4507.87
556.16	4690.43
556.33	4456.38
556.50	4442.34
556.66	4423.61
556.83	4449.36
556.99	4306.59
557.16	4442.34
557.32	4468.08
557.49	4390.84
557.65	4444.68
557.82	4451.70
557.98	4388.50
558.15	4360.42
558.32	4367.44
558.48	4329.99
558.65	4219.99
558.81	4264.46
558.98	4074.87
559.14	4252.75
559.31	4212.96
559.47	4203.60
559.64	4299.56
559.80	4168.49
559.97	4194.24
560.13	4131.05
560.30	4358.08
560.46	4395.53
560.63	4425.95
560.79	4610.86
560.96	4512.55
561.12	4311.27
561.29	4227.01
561.45	4243.39
561.61	4306.59
561.78	4322.97
561.94	4250.41
562.11	4248.07
562.27	4091.26
562.44	4301.90
562.60	4362.76
562.77	4325.31
562.93	4414.25
563.10	4428.29
563.26	4348.72
563.42	4440.00
563.59	4194.24
563.75	4271.48
563.92	4304.25
564.08	4308.93
564.24	4276.16
564.41	4229.35
564.57	4299.56
564.74	4308.93
564.90	4109.98
565.07	4329.99
565.23	4191.90
565.39	4109.98
565.56	3955.51
565.72	3953.16
565.88	4093.60
566.05	3990.61
566.21	4138.07
566.38	4161.47
566.54	4161.47
566.70	4184.88
566.87	4255.09
567.03	4145.09
567.19	4243.39
567.36	4107.64
567.52	4060.83
567.68	4025.72
567.85	4028.06
568.01	4086.58
568.17	3941.46
568.34	3801.03
568.50	3728.47
568.66	3620.81
568.83	3990.61
568.99	3808.05
569.15	3967.21
569.32	3927.42
569.48	3838.48
569.64	3857.20
569.81	3847.84
569.97	3824.44
570.13	3854.86
570.30	3974.23
570.46	3845.50
570.62	3658.26
570.78	3728.47
570.95	3632.51
571.11	3913.38
571.27	3939.12
571.43	3796.35
571.60	3784.65
571.76	3901.67
571.92	3894.65
572.09	3861.88
572.25	3950.82
572.41	3775.28
572.57	3817.41
572.74	3906.35
572.90	4049.13
573.06	3854.86
573.22	3871.25
573.38	3845.50
573.55	3866.56
573.71	3901.67
573.87	3999.98
574.03	3728.47
574.20	3819.75
574.36	3819.75
574.52	3763.58
574.68	3707.41
574.84	3934.44
575.01	3754.22
575.17	3754.22
575.33	3702.73
575.49	3878.27
575.65	3758.90
575.82	3789.33
575.98	3719.11
576.14	3637.19
576.30	3763.58
576.46	3875.93
576.62	4002.32
576.79	3927.42
576.95	3822.09
577.11	3864.22
577.27	3955.51
577.43	3791.67
577.59	3791.67
577.75	3810.39
577.92	3662.94
578.08	3662.94
578.24	3639.53
578.40	3728.47
578.56	3789.33
578.72	3754.22
578.88	3934.44
579.04	3962.53
579.21	3803.37
579.37	3822.09
579.53	3747.20
579.69	3791.67
579.85	3831.46
580.01	3906.35
580.17	3798.69
580.33	3786.99
580.49	3805.71
580.65	3779.97
580.82	3714.43
580.98	3861.88
581.14	3700.39
581.30	3798.69
581.46	3684.00
581.62	3815.07
581.78	3866.56
581.94	3838.48
582.10	3925.08
582.26	3934.44
582.42	3932.10
582.58	3976.57
582.74	3775.28
582.90	3667.62
583.06	3775.28
583.22	3782.31
583.38	3698.05
583.54	3836.14
583.70	3756.56
583.86	3826.78
584.02	3817.41
584.18	3808.05
584.34	3824.44
584.50	3779.97
584.66	3861.88
584.82	3698.05
584.98	3756.56
585.14	3716.77
585.30	3634.85
585.46	3637.19
585.62	3667.62
585.78	3676.98
585.94	3616.13
586.10	3756.56
586.26	3602.08
586.42	3801.03
586.58	3557.61
586.74	3801.03
586.90	3559.95
587.06	3620.81
587.22	3632.51
587.38	3562.30
587.54	3463.99
587.70	3391.44
587.86	3300.16
588.02	3159.72
588.18	3108.23
588.34	3063.76
588.49	2745.45
588.65	2647.15
588.81	2635.44
588.97	2686.94
589.13	2654.17
589.29	2614.38
589.45	2698.64
589.61	2717.36
589.77	2729.06
589.93	2832.05
590.08	2881.20
590.24	3035.67
590.40	3112.91
590.56	3115.25
590.72	2988.86
590.88	3082.49
591.04	3152.70
591.20	3061.42
591.35	3133.98
591.51	2932.69
591.67	2906.95
591.83	2958.44
591.99	3105.89
592.15	3040.36
592.31	2998.23
592.46	3176.11
592.62	3141.00
592.78	3279.09
592.94	3197.17
593.10	3300.16
593.26	3115.25
593.41	3253.34
593.57	3232.28
593.73	3138.66
593.89	2960.78
594.05	2766.51
594.20	2902.26
594.36	2801.62
594.52	2780.56
594.68	2782.90
594.84	2967.80
594.99	3002.91
595.15	3138.66
595.31	3112.91
595.47	3091.85
595.62	3045.04
595.78	3162.06
595.94	3187.81
596.10	3145.68
596.25	3150.36
596.41	3148.02
596.57	2974.82
596.73	3122.27
596.88	3131.64
597.04	3110.57
597.20	3089.51
597.36	3187.81
597.51	3124.62
597.67	3117.59
597.83	3110.57
597.99	3187.81
