SpectraSuite Data File
++++++++++++++++++++++++++++++++++++
Date: Fri Oct 04 11:44:21 GMT-05:00 2013
User: price-jones
Dark Spectrum Present: No
Reference Spectrum Present: No
Number of Sampled Component Spectra: 1
Spectrometers: USB2+H05261
Integration Time (usec): 100000 (USB2+H05261)
Spectra Averaged: 1 (USB2+H05261)
Boxcar Smoothing: 0 (USB2+H05261)
Correct for Electrical Dark: No (USB2+H05261)
Strobe/Lamp Enabled: No (USB2+H05261)
Correct for Detector Non-linearity: No (USB2+H05261)
Correct for Stray Light: No (USB2+H05261)
Number of Pixels in Processed Spectrum: 2048
>>>>>Begin Processed Spectral Data<<<<<
365.73	117.03
365.92	117.03
366.12	117.03
366.32	0.00
366.52	0.00
366.72	0.00
366.91	0.00
367.11	0.00
367.31	0.00
367.51	0.00
367.70	0.00
367.90	0.00
368.10	0.00
368.30	0.00
368.49	0.00
368.69	0.00
368.89	0.00
369.09	0.00
369.28	0.00
369.48	0.00
369.68	14.04
369.87	0.00
370.07	0.00
370.27	0.00
370.47	74.90
370.66	65.54
370.86	98.30
371.06	159.16
371.25	182.56
371.45	95.96
371.65	229.37
371.84	110.01
372.04	196.60
372.24	234.05
372.44	222.35
372.63	149.79
372.83	217.67
373.03	126.39
373.22	147.45
373.42	189.58
373.62	191.92
373.81	255.12
374.01	280.86
374.21	255.12
374.40	198.95
374.60	266.82
374.79	224.69
374.99	217.67
375.19	220.01
375.38	245.76
375.58	227.03
375.78	231.71
375.97	217.67
376.17	374.49
376.37	245.76
376.56	269.16
376.76	259.80
376.95	243.42
377.15	280.86
377.35	278.52
377.54	299.59
377.74	290.23
377.93	299.59
378.13	276.18
378.33	301.93
378.52	255.12
378.72	320.65
378.91	252.78
379.11	292.57
379.31	205.97
379.50	210.65
379.70	273.84
379.89	266.82
380.09	227.03
380.28	227.03
380.48	276.18
380.68	264.48
380.87	229.37
381.07	287.89
381.26	252.78
381.46	243.42
381.65	287.89
381.85	173.20
382.04	283.20
382.24	210.65
382.43	257.46
382.63	229.37
382.83	154.48
383.02	234.05
383.22	227.03
383.41	140.43
383.61	173.20
383.80	128.73
384.00	198.95
384.19	330.02
384.39	269.16
384.58	238.73
384.78	264.48
384.97	348.74
385.17	283.20
385.36	180.22
385.56	294.91
385.75	252.78
385.95	231.71
386.14	386.19
386.34	276.18
386.53	325.33
386.72	238.73
386.92	308.95
387.11	290.23
387.31	297.25
387.50	266.82
387.70	283.20
387.89	273.84
388.09	351.08
388.28	285.55
388.48	294.91
388.67	346.40
388.86	348.74
389.06	339.38
389.25	344.06
389.45	386.19
389.64	411.93
389.84	409.59
390.03	269.16
390.22	404.91
390.42	315.97
390.61	425.98
390.81	332.36
391.00	428.32
391.19	482.15
391.39	360.44
391.58	360.44
391.78	341.72
391.97	271.50
392.16	313.63
392.36	280.86
392.55	346.40
392.75	264.48
392.94	238.73
393.13	177.88
393.33	227.03
393.52	168.52
393.71	290.23
393.91	346.40
394.10	325.33
394.29	337.04
394.49	341.72
394.68	442.36
394.88	404.91
395.07	437.68
395.26	433.00
395.46	404.91
395.65	430.66
395.84	315.97
396.04	369.80
396.23	241.08
396.42	194.26
396.62	243.42
396.81	278.52
397.00	315.97
397.19	313.63
397.39	416.62
397.58	393.21
397.77	390.87
397.97	482.15
398.16	475.13
398.35	423.64
398.55	465.77
398.74	477.47
398.93	631.94
399.12	433.00
399.32	547.69
399.51	564.07
399.70	587.47
399.90	592.16
400.09	538.32
400.28	505.56
400.47	557.05
400.67	585.13
400.86	484.49
401.05	582.79
401.24	566.41
401.44	599.18
401.63	624.92
401.82	573.43
402.01	517.26
402.21	521.94
402.40	535.98
402.59	566.41
402.78	585.13
402.97	524.28
403.17	428.32
403.36	543.00
403.55	575.77
403.74	559.39
403.93	594.50
404.13	660.03
404.32	683.44
404.51	732.59
404.70	601.52
404.89	629.60
405.09	648.33
405.28	620.24
405.47	620.24
405.66	587.47
405.85	594.50
406.05	491.51
406.24	578.11
406.43	620.24
406.62	552.37
406.81	648.33
407.00	627.26
407.20	606.20
407.39	613.22
407.58	538.32
407.77	606.20
407.96	671.73
408.15	622.58
408.34	533.64
408.54	704.50
408.73	610.88
408.92	657.69
409.11	638.97
409.30	660.03
409.49	615.56
409.68	531.30
409.87	543.00
410.07	557.05
410.26	599.18
410.45	592.16
410.64	564.07
410.83	685.78
411.02	692.80
411.21	688.12
411.40	573.43
411.59	634.29
411.78	718.54
411.98	711.52
412.17	678.76
412.36	685.78
412.55	737.27
412.74	667.05
412.93	620.24
413.12	557.05
413.31	688.12
413.50	711.52
413.69	674.07
413.88	711.52
414.07	678.76
414.26	653.01
414.45	627.26
414.64	795.78
414.83	809.83
415.02	695.14
415.22	711.52
415.41	779.40
415.60	786.42
415.79	758.33
415.98	746.63
416.17	683.44
416.36	746.63
416.55	716.20
416.74	683.44
416.93	617.90
417.12	613.22
417.31	683.44
417.50	716.20
417.69	763.01
417.88	709.18
418.07	718.54
418.26	758.33
418.45	730.25
418.64	863.66
418.83	667.05
419.02	744.29
419.21	713.86
419.39	784.08
419.58	711.52
419.77	704.50
419.96	734.93
420.15	763.01
420.34	730.25
420.53	819.19
420.72	844.93
420.91	807.48
421.10	807.48
421.29	802.80
421.48	741.95
421.67	837.91
421.86	767.70
422.05	755.99
422.24	681.10
422.43	727.91
422.61	751.31
422.80	706.84
422.99	786.42
423.18	753.65
423.37	716.20
423.56	753.65
423.75	699.82
423.94	720.88
424.13	683.44
424.32	760.67
424.50	704.50
424.69	760.67
424.88	711.52
425.07	755.99
425.26	763.01
425.45	765.36
425.64	683.44
425.83	755.99
426.01	788.76
426.20	711.52
426.39	723.23
426.58	744.29
426.77	727.91
426.96	690.46
427.15	638.97
427.33	622.58
427.52	760.67
427.71	695.14
427.90	753.65
428.09	697.48
428.28	676.41
428.46	645.99
428.65	706.84
428.84	681.10
429.03	699.82
429.22	603.86
429.40	561.73
429.59	657.69
429.78	545.34
429.97	557.05
430.16	535.98
430.34	554.71
430.53	533.64
430.72	559.39
430.91	610.88
431.10	716.20
431.28	755.99
431.47	851.96
431.66	915.15
431.85	772.38
432.03	737.27
432.22	765.36
432.41	753.65
432.60	851.96
432.79	814.51
432.97	781.74
433.16	774.72
433.35	758.33
433.54	753.65
433.72	720.88
433.91	795.78
434.10	758.33
434.28	758.33
434.47	706.84
434.66	767.70
434.85	821.53
435.03	898.77
435.22	1212.40
435.41	1558.80
435.59	1757.74
435.78	1441.77
435.97	1097.71
436.16	952.60
436.34	929.19
436.53	837.91
436.72	940.90
436.90	791.10
437.09	833.23
437.28	809.83
437.46	791.10
437.65	851.96
437.84	819.19
438.02	746.63
438.21	748.97
438.40	751.31
438.58	748.97
438.77	861.32
438.96	774.72
439.14	957.28
439.33	870.68
439.52	917.49
439.70	880.04
439.89	854.30
440.08	833.23
440.26	854.30
440.45	786.42
440.63	861.32
440.82	983.02
441.01	910.47
441.19	912.81
441.38	938.55
441.57	1011.11
441.75	1041.54
441.94	990.05
442.12	931.53
442.31	980.68
442.50	957.28
442.68	950.26
442.87	929.19
443.05	990.05
443.24	917.49
443.43	1057.92
443.61	1121.12
443.80	936.21
443.98	922.17
444.17	954.94
444.35	1008.77
444.54	1060.26
444.73	997.07
444.91	971.32
445.10	964.30
445.28	966.64
445.47	882.38
445.65	912.81
445.84	896.43
446.02	929.19
446.21	901.11
446.39	997.07
446.58	924.51
446.77	997.07
446.95	971.32
447.14	1163.25
447.32	976.00
447.51	1001.75
447.69	1013.45
447.88	842.59
448.06	959.62
448.25	978.34
448.43	1004.09
448.62	947.92
448.80	943.24
448.99	1008.77
449.17	985.37
449.36	1060.26
449.54	1013.45
449.73	1027.50
449.91	1071.97
450.10	1097.71
450.28	1107.07
450.46	1074.31
450.65	1167.93
450.83	1121.12
451.02	1046.22
451.20	1109.41
451.39	1027.50
451.57	1039.20
451.76	1100.05
451.94	1069.62
452.13	997.07
452.31	929.19
452.49	912.81
452.68	898.77
452.86	1053.24
453.05	1046.22
453.23	983.02
453.42	990.05
453.60	1078.99
453.78	959.62
453.97	1046.22
454.15	1027.50
454.34	1011.11
454.52	1025.15
454.70	1011.11
454.89	990.05
455.07	1001.75
455.26	1015.79
455.44	1123.46
455.62	1036.86
455.81	1086.01
455.99	1060.26
456.17	1083.67
456.36	1043.88
456.54	1067.28
456.73	1088.35
456.91	1102.39
457.09	1116.44
457.28	1090.69
457.46	1076.65
457.64	1078.99
457.83	1114.10
458.01	1027.50
458.19	1093.03
458.38	1062.60
458.56	1123.46
458.74	1048.56
458.93	1086.01
459.11	973.66
459.29	980.68
459.48	1078.99
459.66	1132.82
459.84	1109.41
460.03	1193.67
460.21	1018.13
460.39	1116.44
460.57	1289.64
460.76	1116.44
460.94	1170.27
461.12	1146.86
461.31	1046.22
461.49	1153.88
461.67	1165.59
461.85	1125.80
462.04	1062.60
462.22	1645.40
462.40	1114.10
462.59	1198.35
462.77	1160.91
462.95	1144.52
463.13	1057.92
463.32	1217.08
463.50	1095.37
463.68	1083.67
463.86	1097.71
464.05	1057.92
464.23	1057.92
464.41	1074.31
464.59	1090.69
464.78	1123.46
464.96	1116.44
465.14	1078.99
465.32	1090.69
465.50	1196.01
465.69	1167.93
465.87	1123.46
466.05	1111.75
466.23	1100.05
466.41	898.77
466.60	1060.26
466.78	1043.88
466.96	1074.31
467.14	1076.65
467.32	1093.03
467.51	1114.10
467.69	1027.50
467.87	1015.79
468.05	1109.41
468.23	1086.01
468.41	1123.46
468.60	1060.26
468.78	1172.61
468.96	1130.48
469.14	1109.41
469.32	1121.12
469.50	1043.88
469.69	1121.12
469.87	1032.18
470.05	1001.75
470.23	1142.18
470.41	1109.41
470.59	1093.03
470.77	1053.24
470.95	1078.99
471.14	1132.82
471.32	1100.05
471.50	1184.31
471.68	1193.67
471.86	1186.65
472.04	1139.84
472.22	1207.72
472.40	1071.97
472.58	1144.52
472.77	1128.14
472.95	1160.91
473.13	1135.16
473.31	1111.75
473.49	1139.84
473.67	1184.31
473.85	1196.01
474.03	1196.01
474.21	1259.21
474.39	1210.06
474.57	1188.99
474.75	1273.25
474.93	1238.14
475.12	1139.84
475.30	1210.06
475.48	1205.38
475.66	1200.69
475.84	1130.48
476.02	1203.04
476.20	1158.57
476.38	1219.42
476.56	1275.59
476.74	1207.72
476.92	1083.67
477.10	1170.27
477.28	1261.55
477.46	1282.61
477.64	1362.19
477.82	1380.92
478.00	1266.23
478.18	1334.11
478.36	1282.61
478.54	1366.87
478.72	1291.98
478.90	1291.98
479.08	1373.89
479.26	1313.04
479.44	1268.57
479.62	1425.39
479.80	1291.98
479.98	1413.68
480.16	1392.62
480.34	1404.32
480.52	1418.36
480.70	1310.70
480.88	1401.98
481.06	1437.09
481.24	1313.04
481.41	1444.11
481.59	1481.56
481.77	1465.18
481.95	1507.30
482.13	1423.05
482.31	1479.22
482.49	1460.49
482.67	1472.20
482.85	1526.03
483.03	1572.84
483.21	1472.20
483.39	1533.05
483.57	1572.84
483.74	1483.90
483.92	1509.65
484.10	1523.69
484.28	1549.43
484.46	1593.90
484.64	1533.05
484.82	1570.50
485.00	1530.71
485.18	1584.54
485.35	1411.34
485.53	1397.30
485.71	1432.41
485.89	1273.25
486.07	1336.45
486.25	1369.21
486.43	1563.48
486.61	1575.18
486.78	1509.65
486.96	1554.12
487.14	1570.50
487.32	1610.29
487.50	1661.78
487.68	1682.85
487.85	1764.76
488.03	1764.76
488.21	1778.81
488.39	1729.66
488.57	1582.20
488.75	1694.55
488.92	1874.77
489.10	1816.26
489.28	1792.85
489.46	1778.81
489.64	1865.41
489.81	1895.83
489.99	1788.17
490.17	1886.47
490.35	1921.58
490.53	1832.64
490.70	1818.60
490.88	1881.79
491.06	1799.87
491.24	1813.92
491.41	1879.45
491.59	1696.89
491.77	1722.63
491.95	1755.40
492.13	1664.12
492.30	1888.81
492.48	1928.60
492.66	1923.92
492.84	1947.33
493.01	1905.20
493.19	1856.04
493.37	1842.00
493.54	1919.24
493.72	1970.73
493.90	1914.56
494.08	1933.28
494.25	1926.26
494.43	2010.52
494.61	2001.16
494.79	2026.90
494.96	1968.39
495.14	2017.54
495.32	1865.41
495.49	1905.20
495.67	1975.41
495.85	2010.52
496.02	1902.86
496.20	2059.67
496.38	1989.46
496.55	1952.01
496.73	2031.58
496.91	1984.77
497.09	2104.14
497.26	2101.80
497.44	1933.28
497.62	2113.50
497.79	2022.22
497.97	1860.73
498.14	1966.05
498.32	1916.90
498.50	2015.20
498.67	1933.28
498.85	2010.52
499.03	2118.18
499.20	2127.55
499.38	2050.31
499.56	1975.41
499.73	2186.06
499.91	2094.78
500.08	2078.40
500.26	1956.69
500.44	1792.85
500.61	2010.52
500.79	1937.96
500.97	2001.16
501.14	1839.66
501.32	1987.11
501.49	1902.86
501.67	1966.05
501.84	2005.84
502.02	1987.11
502.20	2090.10
502.37	1949.67
502.55	2094.78
502.72	2019.88
502.90	2012.86
503.07	1944.99
503.25	2022.22
503.43	1980.09
503.60	1706.25
503.78	1806.89
503.95	1949.67
504.13	1940.30
504.30	1895.83
504.48	2005.84
504.65	2017.54
504.83	2059.67
505.01	1989.46
505.18	2200.10
505.36	2172.02
505.53	2127.55
505.71	2136.91
505.88	2129.89
506.06	2092.44
506.23	2024.56
506.41	2057.33
506.58	1982.43
506.76	2062.01
506.93	2017.54
507.11	1970.73
507.28	2010.52
507.46	1947.33
507.63	2069.03
507.81	1935.62
507.98	1895.83
508.16	1919.24
508.33	2101.80
508.50	2134.57
508.68	2024.56
508.85	2211.81
509.03	2300.75
509.20	2057.33
509.38	2045.63
509.55	2087.76
509.73	2047.97
509.90	2125.21
510.08	2188.40
510.25	2127.55
510.42	2029.24
510.60	2083.08
510.77	2127.55
510.95	2113.50
511.12	2054.99
511.30	2136.91
511.47	2179.04
511.64	2218.83
511.82	2193.08
511.99	2141.59
512.17	2073.71
512.34	2104.14
512.51	2040.95
512.69	2115.84
512.86	2207.13
513.04	2066.69
513.21	2129.89
513.38	2059.67
513.56	2129.89
513.73	2047.97
513.90	2045.63
514.08	2045.63
514.25	2179.04
514.43	2101.80
514.60	2134.57
514.77	2064.35
514.95	2111.16
515.12	2122.87
515.29	2157.97
515.47	2167.34
515.64	2099.46
515.81	2139.25
515.99	2157.97
516.16	2010.52
516.33	1846.68
516.51	1816.26
516.68	1727.32
516.85	1675.82
517.03	1806.89
517.20	1961.37
517.37	2029.24
517.54	2101.80
517.72	2059.67
517.89	1860.73
518.06	1685.19
518.24	1834.98
518.41	1956.69
518.58	2076.06
518.75	1977.75
518.93	2064.35
519.10	2045.63
519.27	2050.31
519.45	2090.10
519.62	2157.97
519.79	2118.18
519.96	2172.02
520.14	2085.42
520.31	2076.06
520.48	2113.50
520.65	1970.73
520.83	2211.81
521.00	2108.82
521.17	2197.76
521.34	2265.64
521.52	2111.16
521.69	2293.72
521.86	2293.72
522.03	2328.83
522.20	2200.10
522.38	1942.64
522.55	2120.53
522.72	2097.12
522.89	2125.21
523.07	2242.23
523.24	2120.53
523.41	2125.21
523.58	2125.21
523.75	2237.55
523.92	2275.00
524.10	2181.38
524.27	2256.28
524.44	2319.47
524.61	2235.21
524.78	2167.34
524.96	2120.53
525.13	2246.91
525.30	2162.66
525.47	2256.28
525.64	2249.25
525.81	2200.10
525.98	2036.27
526.16	2033.93
526.33	1865.41
526.50	1973.07
526.67	1926.26
526.84	1886.47
527.01	1987.11
527.18	2050.31
527.36	2087.76
527.53	2066.69
527.70	2225.85
527.87	2129.89
528.04	2242.23
528.21	2160.31
528.38	2216.49
528.55	2342.88
528.72	2326.49
528.89	2333.51
529.07	2368.62
529.24	2279.68
529.41	2181.38
529.58	2040.95
529.75	2033.93
529.92	2186.06
530.09	2230.53
530.26	2272.66
530.43	2239.89
530.60	2296.07
530.77	2305.43
530.94	2235.21
531.11	2202.44
531.28	2272.66
531.46	2214.15
531.63	2279.68
531.80	2214.15
531.97	2223.51
532.14	2101.80
532.31	2120.53
532.48	2064.35
532.65	2064.35
532.82	1968.39
532.99	2202.44
533.16	2310.11
533.33	2214.15
533.50	2228.19
533.67	2172.02
533.84	2263.30
534.01	2230.53
534.18	2172.02
534.35	2260.96
534.52	2228.19
534.69	2289.04
534.86	2284.36
535.03	2202.44
535.20	2242.23
535.37	2256.28
535.54	2223.51
535.71	2293.72
535.88	2218.83
536.05	2211.81
536.22	2312.45
536.38	2113.50
536.55	2111.16
536.72	2146.27
536.89	2211.81
537.06	2169.68
537.23	2207.13
537.40	2338.20
537.57	2326.49
537.74	2293.72
537.91	2377.98
538.08	2253.94
538.25	2443.52
538.42	2375.64
538.59	2450.54
538.75	2242.23
538.92	2260.96
539.09	2352.24
539.26	2328.83
539.43	2235.21
539.60	2284.36
539.77	2314.79
539.94	2296.07
540.11	2347.56
540.28	2345.22
540.44	2380.32
540.61	2373.30
540.78	2473.95
540.95	2581.61
541.12	2649.49
541.29	2829.71
541.46	2916.31
541.62	2881.20
541.79	2904.60
541.96	2932.69
542.13	2691.62
542.30	2862.48
542.47	2773.53
542.63	2712.68
542.80	2803.96
542.97	2712.68
543.14	2675.23
543.31	2722.04
543.48	2700.98
543.64	2775.88
543.81	2832.05
543.98	2792.26
544.15	2773.53
544.32	2754.81
544.48	2597.99
544.65	2768.85
544.82	2726.72
544.99	2733.75
545.16	2719.70
545.32	2672.89
545.49	3248.66
545.66	3929.76
545.83	4360.42
546.00	4112.32
546.16	3300.16
546.33	3007.59
546.50	2663.53
546.67	2703.32
546.83	2480.97
547.00	2497.35
547.17	2356.92
547.34	2403.73
547.50	2354.58
547.67	2305.43
547.84	2441.18
548.00	2338.20
548.17	2438.84
548.34	2499.69
548.51	2492.67
548.67	2459.90
548.84	2331.17
549.01	2373.30
549.18	2499.69
549.34	2242.23
549.51	2321.81
549.68	2382.67
549.84	2251.60
550.01	2244.57
550.18	2399.05
550.34	2324.15
550.51	2396.71
550.68	2373.30
550.84	2111.16
551.01	2284.36
551.18	2181.38
551.34	2324.15
551.51	2326.49
551.68	2282.02
551.84	2232.87
552.01	2239.89
552.18	2333.51
552.34	2132.23
552.51	2097.12
552.68	2176.70
552.84	2162.66
553.01	2165.00
553.18	2272.66
553.34	2225.85
553.51	2146.27
553.67	2153.29
553.84	2207.13
554.01	2223.51
554.17	2090.10
554.34	2019.88
554.51	2111.16
554.67	2246.91
554.84	2214.15
555.00	2223.51
555.17	2057.33
555.33	2108.82
555.50	2115.84
555.67	2141.59
555.83	2057.33
556.00	2115.84
556.16	2317.13
556.33	2113.50
556.50	2134.57
556.66	2097.12
556.83	1954.35
556.99	2019.88
557.16	1987.11
557.32	1888.81
557.49	2050.31
557.65	1987.11
557.82	1952.01
557.98	1961.37
558.15	2090.10
558.32	2054.99
558.48	1865.41
558.65	1884.13
558.81	2022.22
558.98	2057.33
559.14	1980.09
559.31	1970.73
559.47	1980.09
559.64	2001.16
559.80	1949.67
559.97	1921.58
560.13	2052.65
560.30	1991.80
560.46	2022.22
560.63	1944.99
560.79	2090.10
560.96	2031.58
561.12	1968.39
561.29	2132.23
561.45	1961.37
561.61	1940.30
561.78	2092.44
561.94	1891.15
562.11	1989.46
562.27	1902.86
562.44	1914.56
562.60	1933.28
562.77	1877.11
562.93	2059.67
563.10	2054.99
563.26	2047.97
563.42	1851.36
563.59	1947.33
563.75	1961.37
563.92	1984.77
564.08	1949.67
564.24	1968.39
564.41	1968.39
564.57	1792.85
564.74	1935.62
564.90	1944.99
565.07	1916.90
565.23	1872.43
565.39	1802.21
565.56	1811.57
565.72	1825.62
565.88	1956.69
566.05	1895.83
566.21	1856.04
566.38	1928.60
566.54	1832.64
566.70	1879.45
566.87	2010.52
567.03	1851.36
567.19	1902.86
567.36	1912.22
567.52	1769.44
567.68	1853.70
567.85	1888.81
568.01	1713.27
568.17	1664.12
568.34	1769.44
568.50	1846.68
568.66	1727.32
568.83	1909.88
568.99	1762.42
569.15	1820.94
569.32	1785.83
569.48	1851.36
569.64	1715.61
569.81	1767.10
569.97	1687.53
570.13	1755.40
570.30	1746.04
570.46	1724.97
570.62	1647.74
570.78	1727.32
570.95	1736.68
571.11	1717.95
571.27	1788.17
571.43	1844.34
571.60	1746.04
571.76	1816.26
571.92	1774.13
572.09	1804.55
572.25	1823.28
572.41	1858.39
572.57	1799.87
572.74	1799.87
572.90	1774.13
573.06	1781.15
573.22	1881.79
573.38	1804.55
573.55	1851.36
573.71	1942.64
573.87	1816.26
574.03	1769.44
574.20	1687.53
574.36	1837.32
574.52	1720.29
574.68	1610.29
574.84	1785.83
575.01	1827.96
575.17	1652.42
575.33	1710.93
575.49	1804.55
575.65	1689.87
575.82	1724.97
575.98	1760.08
576.14	1853.70
576.30	1713.27
576.46	1947.33
576.62	2099.46
576.79	2148.61
576.95	2050.31
577.11	1895.83
577.27	1762.42
577.43	1820.94
577.59	1762.42
577.75	1797.53
577.92	1696.89
578.08	1638.38
578.24	1750.72
578.40	1727.32
578.56	1933.28
578.72	2054.99
578.88	2125.21
579.04	1998.82
579.21	1900.52
579.37	1867.75
579.53	1830.30
579.69	1870.09
579.85	1724.97
580.01	1891.15
580.17	1834.98
580.33	1823.28
580.49	1867.75
580.65	1863.07
580.82	1757.74
580.98	1818.60
581.14	1743.70
581.30	1797.53
581.46	1795.19
581.62	1811.57
581.78	1825.62
581.94	1888.81
582.10	1781.15
582.26	1717.95
582.42	1886.47
582.58	1888.81
582.74	1837.32
582.90	1900.52
583.06	1898.17
583.22	1867.75
583.38	1858.39
583.54	1781.15
583.70	1933.28
583.86	1916.90
584.02	1912.22
584.18	1837.32
584.34	1916.90
584.50	1902.86
584.66	1935.62
584.82	1769.44
584.98	1820.94
585.14	1788.17
585.30	1762.42
585.46	1804.55
585.62	1792.85
585.78	1717.95
585.94	1724.97
586.10	1760.08
586.26	1774.13
586.42	1933.28
586.58	1722.63
586.74	1818.60
586.90	1898.17
587.06	1919.24
587.22	1832.64
587.38	1975.41
587.54	1769.44
587.70	1816.26
587.86	1762.42
588.02	1591.56
588.18	1603.27
588.34	1516.67
588.49	1329.42
588.65	1404.32
588.81	1413.68
588.97	1383.26
589.13	1390.28
589.29	1324.74
589.45	1310.70
589.61	1296.66
589.77	1425.39
589.93	1427.73
590.08	1467.52
590.24	1448.79
590.40	1521.35
590.56	1434.75
590.72	1448.79
590.88	1507.30
591.04	1645.40
591.20	1462.83
591.35	1502.62
591.51	1537.73
591.67	1378.58
591.83	1437.09
591.99	1458.15
592.15	1575.18
592.31	1692.21
592.46	1645.40
592.62	1713.27
592.78	1591.56
592.94	1530.71
593.10	1673.48
593.26	1671.14
593.41	1741.36
593.57	1568.16
593.73	1565.82
593.89	1528.37
594.05	1387.94
594.20	1329.42
594.36	1409.00
594.52	1383.26
594.68	1334.11
594.84	1425.39
594.99	1472.20
595.15	1476.88
595.31	1516.67
595.47	1631.35
595.62	1458.15
595.78	1465.18
595.94	1511.99
596.10	1596.25
596.25	1446.45
596.41	1479.22
596.57	1364.53
596.73	1441.77
596.88	1514.33
597.04	1486.24
597.20	1511.99
597.36	1392.62
597.51	1593.90
597.67	1502.62
597.83	1479.22
597.99	1636.03
598.14	1551.78
598.30	1540.07
598.46	1455.81
598.61	1467.52
598.77	1476.88
598.93	1603.27
599.09	1570.50
599.24	1507.30
599.40	1598.59
599.56	1605.61
599.71	1535.39
599.87	1610.29
600.03	1619.65
600.18	1537.73
600.34	1521.35
600.50	1451.13
600.65	1474.54
