SpectraSuite Data File
++++++++++++++++++++++++++++++++++++
Date: Fri Oct 04 11:44:24 GMT-05:00 2013
User: price-jones
Dark Spectrum Present: No
Reference Spectrum Present: No
Number of Sampled Component Spectra: 1
Spectrometers: USB2+H05261
Integration Time (usec): 100000 (USB2+H05261)
Spectra Averaged: 1 (USB2+H05261)
Boxcar Smoothing: 0 (USB2+H05261)
Correct for Electrical Dark: No (USB2+H05261)
Strobe/Lamp Enabled: No (USB2+H05261)
Correct for Detector Non-linearity: No (USB2+H05261)
Correct for Stray Light: No (USB2+H05261)
Number of Pixels in Processed Spectrum: 2048
>>>>>Begin Processed Spectral Data<<<<<
365.73	37.45
365.92	37.45
366.12	37.45
366.32	0.00
366.52	0.00
366.72	0.00
366.91	0.00
367.11	0.00
367.31	0.00
367.51	28.09
367.70	0.00
367.90	0.00
368.10	0.00
368.30	0.00
368.49	0.00
368.69	0.00
368.89	0.00
369.09	0.00
369.28	0.00
369.48	0.00
369.68	0.00
369.87	0.00
370.07	0.00
370.27	91.28
370.47	212.99
370.66	531.30
370.86	676.41
371.06	650.67
371.25	692.80
371.45	531.30
371.65	573.43
371.84	561.73
372.04	582.79
372.24	578.11
372.44	629.60
372.63	699.82
372.83	615.56
373.03	554.71
373.22	610.88
373.42	606.20
373.62	622.58
373.81	723.23
374.01	732.59
374.21	655.35
374.40	568.75
374.60	622.58
374.79	617.90
374.99	751.31
375.19	844.93
375.38	781.74
375.58	744.29
375.78	753.65
375.97	784.08
376.17	901.11
376.37	627.26
376.56	784.08
376.76	901.11
376.95	802.80
377.15	830.89
377.35	1004.09
377.54	891.74
377.74	1039.20
377.93	983.02
378.13	1036.86
378.33	863.66
378.52	842.59
378.72	774.72
378.91	917.49
379.11	770.04
379.31	795.78
379.50	795.78
379.70	880.04
379.89	938.55
380.09	947.92
380.28	915.15
380.48	901.11
380.68	877.70
380.87	915.15
381.07	858.98
381.26	837.91
381.46	842.59
381.65	713.86
381.85	692.80
382.04	730.25
382.24	653.01
382.43	645.99
382.63	606.20
382.83	606.20
383.02	603.86
383.22	615.56
383.41	627.26
383.61	767.70
383.80	807.48
384.00	873.02
384.19	870.68
384.39	901.11
384.58	800.46
384.78	917.49
384.97	1004.09
385.17	828.55
385.36	858.98
385.56	854.30
385.75	842.59
385.95	887.06
386.14	968.98
386.34	971.32
386.53	870.68
386.72	842.59
386.92	875.36
387.11	983.02
387.31	964.30
387.50	985.37
387.70	943.24
387.89	915.15
388.09	971.32
388.28	870.68
388.48	889.40
388.67	952.60
388.86	1032.18
389.06	1142.18
389.25	1308.36
389.45	1228.78
389.64	1132.82
389.84	1210.06
390.03	1219.42
390.22	1046.22
390.42	1235.80
390.61	1219.42
390.81	1291.98
391.00	1481.56
391.19	1399.64
391.39	1303.68
391.58	1095.37
391.78	1210.06
391.97	1125.80
392.16	1025.15
392.36	992.39
392.55	814.51
392.75	671.73
392.94	627.26
393.13	706.84
393.33	683.44
393.52	758.33
393.71	894.08
393.91	1048.56
394.10	1027.50
394.29	1296.66
394.49	1242.82
394.68	1425.39
394.88	1409.00
395.07	1448.79
395.26	1444.11
395.46	1390.28
395.65	1228.78
395.84	1310.70
396.04	1060.26
396.23	868.34
396.42	809.83
396.62	746.63
396.81	798.12
397.00	976.00
397.19	1179.63
397.39	1446.45
397.58	1586.88
397.77	1722.63
397.97	1678.16
398.16	1764.76
398.35	1834.98
398.55	1732.00
398.74	1802.21
398.93	1879.45
399.12	1837.32
399.32	1947.33
399.51	1902.86
399.70	1977.75
399.90	2010.52
400.09	1952.01
400.28	2005.84
400.47	1949.67
400.67	2083.08
400.86	1989.46
401.05	2141.59
401.24	2092.44
401.44	2211.81
401.63	2080.74
401.82	2256.28
402.01	2087.76
402.21	2113.50
402.40	2146.27
402.59	2085.42
402.78	1977.75
402.97	1902.86
403.17	2085.42
403.36	2078.40
403.55	2202.44
403.74	2317.13
403.93	2251.60
404.13	2221.17
404.32	2345.22
404.51	2319.47
404.70	2363.94
404.89	2263.30
405.09	2181.38
405.28	2005.84
405.47	1989.46
405.66	2005.84
405.85	2057.33
406.05	1998.82
406.24	1944.99
406.43	2087.76
406.62	2036.27
406.81	2200.10
407.00	2165.00
407.20	2129.89
407.39	1982.43
407.58	2083.08
407.77	2239.89
407.96	2267.98
408.15	2303.09
408.34	2263.30
408.54	2401.39
408.73	2532.46
408.92	2361.60
409.11	2279.68
409.30	2162.66
409.49	2054.99
409.68	1968.39
409.87	1895.83
410.07	2148.61
410.26	2232.87
410.45	2289.04
410.64	2312.45
410.83	2289.04
411.02	2408.41
411.21	2614.38
411.40	2424.80
411.59	2534.80
411.78	2497.35
411.98	2562.89
412.17	2480.97
412.36	2431.82
412.55	2457.56
412.74	2424.80
412.93	2410.75
413.12	2382.67
413.31	2572.25
413.50	2614.38
413.69	2679.91
413.88	2626.08
414.07	2504.37
414.26	2586.29
414.45	2579.27
414.64	2569.91
414.83	2787.58
415.02	2619.06
415.22	2600.34
415.41	2703.32
415.60	2710.34
415.79	2829.71
415.98	2892.90
416.17	2906.95
416.36	2743.11
416.55	2724.38
416.74	2703.32
416.93	2733.75
417.12	2605.02
417.31	2682.25
417.50	2691.62
417.69	2836.73
417.88	2747.79
418.07	2626.08
418.26	2665.87
418.45	2722.04
418.64	2834.39
418.83	2813.32
419.02	2897.58
419.21	2787.58
419.39	2810.98
419.58	2516.08
419.77	2635.44
419.96	2825.03
420.15	2867.16
420.34	2946.73
420.53	2977.16
420.72	2967.80
420.91	3005.25
421.10	3063.76
421.29	2956.10
421.48	2888.22
421.67	2949.08
421.86	2930.35
422.05	2724.38
422.24	2495.01
422.43	2471.61
422.61	2757.15
422.80	2846.09
422.99	2862.48
423.18	2801.62
423.37	2841.41
423.56	2780.56
423.75	2722.04
423.94	2832.05
424.13	2649.49
424.32	2649.49
424.50	2754.81
424.69	2743.11
424.88	2799.28
425.07	2754.81
425.26	2642.46
425.45	2696.30
425.64	2712.68
425.83	2696.30
426.01	2750.13
426.20	2829.71
426.39	2822.69
426.58	2588.63
426.77	2478.63
426.96	2380.32
427.15	2548.84
427.33	2679.91
427.52	2761.83
427.71	2806.30
427.90	2700.98
428.09	2633.10
428.28	2537.14
428.46	2700.98
428.65	2504.37
428.84	2581.61
429.03	2626.08
429.22	2457.56
429.40	2366.28
429.59	2218.83
429.78	1966.05
429.97	1877.11
430.16	1804.55
430.34	1954.35
430.53	1989.46
430.72	1923.92
430.91	2249.25
431.10	2574.59
431.28	2888.22
431.47	3101.21
431.66	3103.55
431.85	2965.46
432.03	2785.24
432.22	2773.53
432.41	2696.30
432.60	2967.80
432.79	3122.27
432.97	3192.49
433.16	3103.55
433.35	2841.41
433.54	2621.40
433.72	2452.88
433.91	2612.04
434.10	2747.79
434.28	2958.44
434.47	2995.89
434.66	3091.85
434.85	3084.83
435.03	3105.89
435.22	3550.59
435.41	4418.93
435.59	4697.46
435.78	4353.40
435.97	3861.88
436.16	3424.20
436.34	3239.30
436.53	3225.26
436.72	3286.11
436.90	3105.89
437.09	3091.85
437.28	3045.04
437.46	3009.93
437.65	3080.14
437.84	2881.20
438.02	2780.56
438.21	2745.45
438.40	2693.96
438.58	3052.06
438.77	3105.89
438.96	3194.83
439.14	3321.22
439.33	3393.78
439.52	3389.10
439.70	3323.56
439.89	3243.98
440.08	3035.67
440.26	3220.58
440.45	3323.56
440.63	3400.80
440.82	3529.53
441.01	3571.66
441.19	3435.91
441.38	3581.02
441.57	3496.76
441.75	3627.83
441.94	3768.26
442.12	3709.75
442.31	3723.79
442.50	3765.92
442.68	3772.94
442.87	3681.66
443.05	3627.83
443.24	3653.58
443.43	3648.90
443.61	3730.81
443.80	3929.76
443.98	3676.98
444.17	3786.99
444.35	3915.72
444.54	3817.41
444.73	3810.39
444.91	3817.41
445.10	3630.17
445.28	3379.73
445.47	3407.82
445.65	3372.71
445.84	3454.63
446.02	3693.37
446.21	3564.64
446.39	3576.34
446.58	3691.02
446.77	3770.60
446.95	3885.29
447.14	3901.67
447.32	4002.32
447.51	3936.78
447.69	3651.24
447.88	3707.41
448.06	3749.54
448.25	3817.41
448.43	3782.31
448.62	3672.30
448.80	3740.18
448.99	3782.31
449.17	3716.77
449.36	3817.41
449.54	4088.92
449.73	3927.42
449.91	4121.68
450.10	4194.24
450.28	4156.79
450.46	4191.90
450.65	4311.27
450.83	4191.90
451.02	4028.06
451.20	4037.42
451.39	4032.74
451.57	4044.45
451.76	3962.53
451.94	4025.72
452.13	3861.88
452.31	3716.77
452.49	3548.25
452.68	3620.81
452.86	3655.92
453.05	3667.62
453.23	3758.90
453.42	3885.29
453.60	3894.65
453.78	3964.87
453.97	3939.12
454.15	4011.68
454.34	3747.20
454.52	3873.59
454.70	3822.09
454.89	3920.40
455.07	3882.95
455.26	3999.98
455.44	4070.19
455.62	4077.21
455.81	4051.47
455.99	3960.19
456.17	3999.98
456.36	4065.51
456.54	4088.92
456.73	4107.64
456.91	4283.18
457.09	4311.27
457.28	4400.21
457.46	4189.56
457.64	4077.21
457.83	3892.31
458.01	3913.38
458.19	4152.11
458.38	4079.55
458.56	4217.65
458.74	4219.99
458.93	4219.99
459.11	3999.98
459.29	3969.55
459.48	4091.26
459.66	3988.27
459.84	4105.30
460.03	4219.99
460.21	4297.22
460.39	4245.73
460.57	4198.92
460.76	4229.35
460.94	4353.40
461.12	4294.88
461.31	4379.14
461.49	4273.82
461.67	4121.68
461.85	4531.28
462.04	4372.12
462.22	4844.91
462.40	4346.37
462.59	4290.20
462.77	4351.06
462.95	4297.22
463.13	4234.03
463.32	4297.22
463.50	4198.92
463.68	4238.71
463.86	4198.92
464.05	4100.62
464.23	3969.55
464.41	4049.13
464.59	4039.76
464.78	4124.02
464.96	4175.52
465.14	4173.18
465.32	4255.09
465.50	4219.99
465.69	4390.84
465.87	4283.18
466.05	4107.64
466.23	3925.08
466.41	3875.93
466.60	3969.55
466.78	4084.23
466.96	4091.26
467.14	4208.28
467.32	4299.56
467.51	4180.20
467.69	4030.40
467.87	4084.23
468.05	4131.05
468.23	4161.47
468.41	4215.30
468.60	4229.35
468.78	4332.33
468.96	4212.96
469.14	4175.52
469.32	4280.84
469.50	4119.34
469.69	4138.07
469.87	3978.91
470.05	4023.38
470.23	3999.98
470.41	4163.81
470.59	4063.17
470.77	4266.80
470.95	4217.65
471.14	4329.99
471.32	4271.48
471.50	4395.53
471.68	4587.45
471.86	4624.90
472.04	4468.08
472.22	4564.04
472.40	4344.03
472.58	4435.32
472.77	4344.03
472.95	4463.40
473.13	4393.19
473.31	4381.48
473.49	4337.01
473.67	4290.20
473.85	4540.64
474.03	4664.69
474.21	4437.66
474.39	4587.45
474.57	4634.26
474.75	4606.17
474.93	4615.54
475.12	4484.47
475.30	4475.10
475.48	4524.26
475.66	4517.23
475.84	4447.02
476.02	4493.83
476.20	4294.88
476.38	4456.38
476.56	4685.75
476.74	4638.94
476.92	4608.51
477.10	4720.86
477.28	4936.19
477.46	4844.91
477.64	5008.75
477.82	4882.36
478.00	5036.83
478.18	4828.53
478.36	4758.31
478.54	4861.29
478.72	4940.87
478.90	5163.22
479.08	5205.35
479.26	5193.65
479.44	5247.48
479.62	5303.65
479.80	5210.03
479.98	5266.21
480.16	5357.49
480.34	5259.18
480.52	5259.18
480.70	5334.08
480.88	5224.08
481.06	5380.89
481.24	5507.28
481.41	5603.24
481.59	5650.05
481.77	5610.26
481.95	5675.80
482.13	5481.53
482.31	5390.25
482.49	5633.67
482.67	5738.99
482.85	5746.02
483.03	5790.49
483.21	5865.38
483.39	5682.82
483.57	5771.76
483.74	5774.10
483.92	5706.23
484.10	5827.93
484.28	6022.20
484.46	5900.49
484.64	5806.87
484.82	5874.74
485.00	5881.77
485.18	5722.61
485.35	5636.01
485.53	5245.14
485.71	4861.29
485.89	4645.96
486.07	4835.55
486.25	5472.17
486.43	5593.88
486.61	5706.23
486.78	5680.48
486.96	5638.35
487.14	5923.90
487.32	6061.99
487.50	6246.89
487.68	6399.02
487.85	6705.63
488.03	6443.49
488.21	6459.88
488.39	6207.10
488.57	6097.10
488.75	6043.26
488.92	6516.05
489.10	6853.09
489.28	7084.80
489.46	7143.32
489.64	7108.21
489.81	7084.80
489.99	7131.61
490.17	7077.78
490.35	7250.98
490.53	6946.71
490.70	6930.33
490.88	6787.55
491.06	6953.73
491.24	7075.44
491.41	6946.71
491.59	6705.63
491.77	6504.35
491.95	6525.41
492.13	6780.53
492.30	7150.34
492.48	7222.89
492.66	7419.50
492.84	7377.37
493.01	7522.48
493.19	7344.60
493.37	7045.01
493.54	7091.82
493.72	7192.47
493.90	7466.31
494.08	7662.91
494.25	7838.45
494.43	7812.71
494.61	7908.67
494.79	7943.78
494.96	7693.34
495.14	7779.94
495.32	7482.69
495.49	7236.94
495.67	7634.83
495.85	7836.11
496.02	7943.78
496.20	8063.15
496.38	7894.63
496.55	7831.43
496.73	7826.75
496.91	7978.89
497.09	8138.04
497.26	8315.92
497.44	8081.87
497.62	7831.43
497.79	7822.07
497.97	7293.11
498.14	7428.86
498.32	7707.38
498.50	7735.47
498.67	8039.74
498.85	7939.10
499.03	8088.89
499.20	7946.12
499.38	8238.69
499.56	8133.36
499.73	8018.68
499.91	7992.93
500.08	7707.38
500.26	7606.74
500.44	7524.82
500.61	7866.54
500.79	7779.94
500.97	7541.21
501.14	7763.56
501.32	7531.84
501.49	7531.84
501.67	7632.49
501.84	7653.55
502.02	7726.11
502.20	7768.24
502.37	7777.60
502.55	7803.35
502.72	8051.44
502.90	8100.59
503.07	8018.68
503.25	7445.24
503.43	7438.22
503.60	7222.89
503.78	7171.40
503.95	7094.16
504.13	7683.98
504.30	7875.90
504.48	7985.91
504.65	7763.56
504.83	7871.22
505.01	8070.17
505.18	8140.38
505.36	8252.73
505.53	8018.68
505.71	8140.38
505.88	8615.51
506.06	8149.75
506.23	8112.30
506.41	8168.47
506.58	8095.91
506.76	8032.72
506.93	7988.25
507.11	7859.52
507.28	7850.16
507.46	7686.32
507.63	7880.58
507.81	7726.11
507.98	7789.30
508.16	7925.05
508.33	8124.00
508.50	8180.17
508.68	8379.12
508.85	8400.18
509.03	8402.52
509.20	8409.54
509.38	8163.79
509.55	8095.91
509.73	8098.25
509.90	8182.51
510.08	8468.06
510.25	8465.72
510.42	8318.26
510.60	8322.94
510.77	8308.90
510.95	8517.21
511.12	8250.39
511.30	8772.33
511.47	8922.12
511.64	8725.52
511.82	8578.06
511.99	8353.37
512.17	8215.28
512.34	8276.13
512.51	8182.51
512.69	8287.84
512.86	8414.23
513.04	8454.02
513.21	8360.39
513.38	8461.04
513.56	8131.02
513.73	8131.02
513.90	8217.62
514.08	8060.80
514.25	8102.93
514.43	8332.31
514.60	8428.27
514.77	8124.00
514.95	8360.39
515.12	8273.79
515.29	8416.57
515.47	8578.06
515.64	8498.49
515.81	8505.51
515.99	8287.84
516.16	7934.42
516.33	7276.73
516.51	6991.18
516.68	6787.55
516.85	6684.57
517.03	6803.94
517.20	7412.48
517.37	8056.12
517.54	8346.35
517.72	8147.40
517.89	7618.44
518.06	7059.06
518.24	7204.17
518.41	7581.00
518.58	7845.48
518.75	7840.79
518.93	8063.15
519.10	7953.14
519.27	8170.81
519.45	8234.00
519.62	8252.73
519.79	8493.80
519.96	8439.97
520.14	8355.71
520.31	8266.77
520.48	8187.19
520.65	8271.45
520.83	8479.76
521.00	8503.17
521.17	8526.57
521.34	8355.71
521.52	8348.69
521.69	8629.56
521.86	8791.05
522.03	8702.11
522.20	8418.91
522.38	7939.10
522.55	7906.33
522.72	8224.64
522.89	8393.16
523.07	8131.02
523.24	8252.73
523.41	8592.11
523.58	8739.56
523.75	8727.86
523.92	8809.78
524.10	8734.88
524.27	8786.37
524.44	8589.77
524.61	8699.77
524.78	8531.25
524.96	8531.25
525.13	8402.52
525.30	8512.53
525.47	8772.33
525.64	8760.63
525.81	8498.49
525.98	8159.11
526.16	7833.77
526.33	7520.14
526.50	7349.28
526.67	7220.55
526.84	7403.11
527.01	7583.34
527.18	8006.97
527.36	8217.62
527.53	8379.12
527.70	8690.41
527.87	8369.76
528.04	8355.71
528.21	8528.91
528.38	8477.42
528.55	8884.67
528.72	9027.45
528.89	9015.74
529.07	8800.41
529.24	8580.40
529.41	8463.38
529.58	8432.95
529.75	8234.00
529.92	8285.50
530.09	8531.25
530.26	8697.43
530.43	8699.77
530.60	8816.80
530.77	9085.96
530.94	8865.95
531.11	8823.82
531.28	8622.53
531.46	8828.50
531.63	8659.98
531.80	8697.43
531.97	8425.93
532.14	8468.06
532.31	8021.02
532.48	7630.15
532.65	7969.52
532.82	8163.79
532.99	8465.72
533.16	8636.58
533.33	8688.07
533.50	8571.04
533.67	8557.00
533.84	8322.94
534.01	8390.82
534.18	8446.99
534.35	8568.70
534.52	8484.44
534.69	8629.56
534.86	8788.71
535.03	8751.26
535.20	8833.18
535.37	8887.01
535.54	9156.18
535.71	8765.31
535.88	8887.01
536.05	8603.81
536.22	8512.53
536.38	8482.10
536.55	8198.90
536.72	8243.37
536.89	8241.03
537.06	8393.16
537.23	8561.68
537.40	8634.24
537.57	8732.54
537.74	8791.05
537.91	8791.05
538.08	8800.41
538.25	8645.94
538.42	8798.07
538.59	8793.39
538.75	8390.82
538.92	8524.23
539.09	8589.77
539.26	8315.92
539.43	8250.39
539.60	8266.77
539.77	8521.89
539.94	8594.45
540.11	8416.57
540.28	8297.20
540.44	8248.05
540.61	8510.19
540.78	8528.91
540.95	8667.00
541.12	9001.70
541.29	9266.18
541.46	9516.62
541.62	9558.75
541.79	9603.22
541.96	9273.20
542.13	8997.02
542.30	9057.87
542.47	9270.86
542.63	8856.59
542.80	9053.19
542.97	9041.49
543.14	8676.37
543.31	8915.10
543.48	9142.13
543.64	9245.12
543.81	9385.55
543.98	9415.98
544.15	9043.83
544.32	9071.92
544.48	9123.41
544.65	9191.28
544.82	9151.49
544.99	9130.43
545.16	9139.79
545.32	9158.52
545.49	9591.52
545.66	11087.12
545.83	11857.15
546.00	11377.34
546.16	10122.82
546.33	9933.23
546.50	9329.38
546.67	9130.43
546.83	9011.06
547.00	9078.94
547.17	8622.53
547.34	8554.66
547.50	8468.06
547.67	8510.19
547.84	8386.14
548.00	8542.96
548.17	8786.37
548.34	8730.20
548.51	8912.76
548.67	8814.46
548.84	8659.98
549.01	8833.18
549.18	8645.94
549.34	8528.91
549.51	8854.25
549.68	8538.27
549.84	8308.90
550.01	8292.52
550.18	8507.85
550.34	8353.37
550.51	8400.18
550.68	8355.71
550.84	8184.85
551.01	8304.22
551.18	8189.53
551.34	8446.99
551.51	8285.50
551.68	8446.99
551.84	8566.36
552.01	8329.97
552.18	8322.94
552.34	8250.39
552.51	8063.15
552.68	7908.67
552.84	8004.63
553.01	8006.97
553.18	8194.22
553.34	8067.83
553.51	8051.44
553.67	8238.69
553.84	8294.86
554.01	8168.47
554.17	8205.92
554.34	8131.02
554.51	8252.73
554.67	8360.39
554.84	8358.05
555.00	8374.44
555.17	8187.19
555.33	8056.12
555.50	8203.58
555.67	8304.22
555.83	7957.82
556.00	7737.81
556.16	7981.23
556.33	7803.35
556.50	7707.38
556.66	7733.13
556.83	7810.37
556.99	7782.28
557.16	7571.63
557.32	7796.32
557.49	8006.97
557.65	7913.35
557.82	7756.54
557.98	7765.90
558.15	7693.34
558.32	7461.63
558.48	7386.73
558.65	7353.96
558.81	7438.22
558.98	7489.71
559.14	7393.75
559.31	7641.85
559.47	7503.76
559.64	7330.56
559.80	7297.79
559.97	7410.14
560.13	7538.87
560.30	7599.72
560.46	7672.28
560.63	7843.14
560.79	7859.52
560.96	7894.63
561.12	7639.51
561.29	7391.41
561.45	7344.60
561.61	7386.73
561.78	7583.34
561.94	7459.29
562.11	7545.89
562.27	7541.21
562.44	7377.37
562.60	7658.23
562.77	7576.31
562.93	7655.89
563.10	7798.66
563.26	7576.31
563.42	7644.19
563.59	7297.79
563.75	7424.18
563.92	7513.12
564.08	7431.20
564.24	7623.12
564.41	7375.03
564.57	7627.81
564.74	7414.82
564.90	7517.80
565.07	7585.68
565.23	7339.92
565.39	7304.81
565.56	7063.74
565.72	7089.48
565.88	7061.40
566.05	7206.51
566.21	7213.53
566.38	7269.70
566.54	7262.68
566.70	7339.92
566.87	7290.77
567.03	7468.65
567.19	7541.21
567.36	7183.10
567.52	7262.68
567.68	7318.86
567.85	6991.18
568.01	6810.96
568.17	6775.85
568.34	6855.43
568.50	6616.69
568.66	6494.99
568.83	6773.51
568.99	6839.05
569.15	6867.13
569.32	6780.53
569.48	6733.72
569.64	6705.63
569.81	6682.23
569.97	6867.13
570.13	6766.49
570.30	6738.40
570.46	6719.68
570.62	6469.24
570.78	6485.62
570.95	6626.06
571.11	6647.12
571.27	6532.44
571.43	6944.37
571.60	6633.08
571.76	6651.80
571.92	6754.79
572.09	7005.22
572.25	6897.56
572.41	6937.35
572.57	6782.87
572.74	6747.76
572.90	6686.91
573.06	6787.55
573.22	6750.10
573.38	6750.10
573.55	6892.88
573.71	6764.15
573.87	6892.88
574.03	6806.28
574.20	6710.32
574.36	6576.91
574.52	6619.04
574.68	6612.01
574.84	6579.25
575.01	6539.46
575.17	6466.90
575.33	6361.58
575.49	6621.38
575.65	6586.27
575.82	6389.66
575.98	6506.69
576.14	6525.41
576.30	6799.26
576.46	6897.56
576.62	7164.38
576.79	7489.71
576.95	7049.69
577.11	7030.97
577.27	6808.62
577.43	6740.74
577.59	6668.19
577.75	6499.67
577.92	6319.45
578.08	6176.67
578.24	6438.81
578.40	6534.78
578.56	6789.89
578.72	7098.84
578.88	7073.10
579.04	7030.97
579.21	6700.95
579.37	6729.04
579.53	6738.40
579.69	6654.14
579.85	6520.73
580.01	6834.36
580.17	6705.63
580.33	6616.69
580.49	6583.93
580.65	6867.13
580.82	6754.79
580.98	6778.19
581.14	6576.91
581.30	6640.10
581.46	6719.68
581.62	6647.12
581.78	6703.29
581.94	6848.41
582.10	6867.13
582.26	6689.25
582.42	6834.36
582.58	6963.09
582.74	6839.05
582.90	6848.41
583.06	6853.09
583.22	6785.21
583.38	6541.80
583.54	6754.79
583.70	6857.77
583.86	6665.85
584.02	6799.26
584.18	6953.73
584.34	6778.19
584.50	6834.36
584.66	6675.21
584.82	6675.21
584.98	6663.51
585.14	6431.79
585.30	6572.22
585.46	6272.64
585.62	6459.88
585.78	6588.61
585.94	6347.53
586.10	6420.09
586.26	6513.71
586.42	6534.78
586.58	6633.08
586.74	6455.20
586.90	6464.56
587.06	6595.63
587.22	6445.84
587.38	6333.49
587.54	6174.33
587.70	6305.40
587.86	5858.36
588.02	5533.03
588.18	5584.52
588.34	5315.36
588.49	4950.23
588.65	4765.33
588.81	4568.73
588.97	4655.33
589.13	4638.94
589.29	4498.51
589.45	4657.67
589.61	4739.58
589.77	4924.49
589.93	4950.23
590.08	5268.55
590.24	5404.30
590.40	5437.06
590.56	5537.71
590.72	5231.10
590.88	5413.66
591.04	5394.93
591.20	5284.93
591.35	5453.45
591.51	5151.52
591.67	5291.95
591.83	5210.03
591.99	5280.25
592.15	5291.95
592.31	5537.71
592.46	5554.09
592.62	5617.29
592.78	5774.10
592.94	5659.42
593.10	5813.89
593.26	5895.81
593.41	5947.30
593.57	5612.60
593.73	5523.66
593.89	5397.28
594.05	5172.58
594.20	5011.09
594.36	4975.98
594.52	4915.12
594.68	4851.93
594.84	5252.16
594.99	5481.53
595.15	5462.81
595.31	5542.39
595.47	5371.53
595.62	5352.81
595.78	5387.91
595.94	5692.18
596.10	5579.84
596.25	5521.32
596.41	5100.03
596.57	5329.40
596.73	5357.49
596.88	5467.49
597.04	5537.71
597.20	5453.45
597.36	5357.49
597.51	5242.80
