SpectraSuite Data File
++++++++++++++++++++++++++++++++++++
Date: Fri Oct 04 11:44:11 GMT-05:00 2013
User: price-jones
Dark Spectrum Present: No
Reference Spectrum Present: No
Number of Sampled Component Spectra: 1
Spectrometers: USB2+H05261
Integration Time (usec): 100000 (USB2+H05261)
Spectra Averaged: 1 (USB2+H05261)
Boxcar Smoothing: 0 (USB2+H05261)
Correct for Electrical Dark: No (USB2+H05261)
Strobe/Lamp Enabled: No (USB2+H05261)
Correct for Detector Non-linearity: No (USB2+H05261)
Correct for Stray Light: No (USB2+H05261)
Number of Pixels in Processed Spectrum: 2048
>>>>>Begin Processed Spectral Data<<<<<
365.73	0.00
365.92	0.00
366.12	0.00
366.32	0.00
366.52	0.00
366.72	16.38
366.91	0.00
367.11	0.00
367.31	0.00
367.51	0.00
367.70	0.00
367.90	0.00
368.10	0.00
368.30	0.00
368.49	0.00
368.69	0.00
368.89	0.00
369.09	0.00
369.28	0.00
369.48	0.00
369.68	0.00
369.87	0.00
370.07	0.00
370.27	25.75
370.47	77.24
370.66	367.46
370.86	365.12
371.06	505.56
371.25	571.09
371.45	535.98
371.65	444.70
371.84	395.55
372.04	477.47
372.24	610.88
372.44	496.19
372.63	477.47
372.83	458.74
373.03	458.74
373.22	507.90
373.42	435.34
373.62	540.66
373.81	491.51
374.01	543.00
374.21	505.56
374.40	369.80
374.60	552.37
374.79	550.03
374.99	587.47
375.19	627.26
375.38	671.73
375.58	615.56
375.78	629.60
375.97	575.77
376.17	681.10
376.37	582.79
376.56	720.88
376.76	688.12
376.95	737.27
377.15	823.87
377.35	725.57
377.54	760.67
377.74	727.91
377.93	704.50
378.13	770.04
378.33	798.12
378.52	720.88
378.72	695.14
378.91	678.76
379.11	692.80
379.31	592.16
379.50	594.50
379.70	631.94
379.89	772.38
380.09	772.38
380.28	791.10
380.48	739.61
380.68	744.29
380.87	713.86
381.07	746.63
381.26	653.01
381.46	697.48
381.65	657.69
381.85	580.45
382.04	624.92
382.24	585.13
382.43	472.79
382.63	526.62
382.83	592.16
383.02	545.34
383.22	550.03
383.41	629.60
383.61	554.71
383.80	547.69
384.00	643.65
384.19	620.24
384.39	748.97
384.58	849.61
384.78	727.91
384.97	725.57
385.17	676.41
385.36	713.86
385.56	690.46
385.75	755.99
385.95	781.74
386.14	903.45
386.34	823.87
386.53	725.57
386.72	732.59
386.92	807.48
387.11	800.46
387.31	758.33
387.50	802.80
387.70	737.27
387.89	716.20
388.09	802.80
388.28	748.97
388.48	821.53
388.67	798.12
388.86	870.68
389.06	868.34
389.25	933.87
389.45	957.28
389.64	973.66
389.84	990.05
390.03	889.40
390.22	1015.79
390.42	1046.22
390.61	1064.94
390.81	1212.40
391.00	1097.71
391.19	1111.75
391.39	1142.18
391.58	1041.54
391.78	1015.79
391.97	1081.33
392.16	882.38
392.36	788.76
392.55	664.71
392.75	645.99
392.94	489.17
393.13	496.19
393.33	491.51
393.52	580.45
393.71	847.27
393.91	943.24
394.10	903.45
394.29	908.13
394.49	947.92
394.68	1062.60
394.88	1221.76
395.07	1163.25
395.26	1146.86
395.46	1165.59
395.65	1158.57
395.84	933.87
396.04	945.58
396.23	683.44
396.42	582.79
396.62	613.22
396.81	613.22
397.00	830.89
397.19	992.39
397.39	1228.78
397.58	1310.70
397.77	1334.11
397.97	1432.41
398.16	1448.79
398.35	1423.05
398.55	1519.01
398.74	1502.62
398.93	1575.18
399.12	1638.38
399.32	1600.93
399.51	1521.35
399.70	1600.93
399.90	1661.78
400.09	1542.41
400.28	1591.56
400.47	1572.84
400.67	1687.53
400.86	1727.32
401.05	1703.91
401.24	1729.66
401.44	1802.21
401.63	1659.44
401.82	1790.51
402.01	1802.21
402.21	1781.15
402.40	1783.49
402.59	1760.08
402.78	1647.74
402.97	1682.85
403.17	1647.74
403.36	1776.47
403.55	1771.79
403.74	1764.76
403.93	1792.85
404.13	1799.87
404.32	1701.57
404.51	1584.54
404.70	1785.83
404.89	1804.55
405.09	1778.81
405.28	1650.08
405.47	1776.47
405.66	1696.89
405.85	1689.87
406.05	1724.97
406.24	1610.29
406.43	1717.95
406.62	1746.04
406.81	1832.64
407.00	1699.23
407.20	1799.87
407.39	1720.29
407.58	1687.53
407.77	1795.19
407.96	1937.96
408.15	1961.37
408.34	1944.99
408.54	1991.80
408.73	1961.37
408.92	2022.22
409.11	2113.50
409.30	1806.89
409.49	1673.48
409.68	1540.07
409.87	1626.67
410.07	1636.03
410.26	1818.60
410.45	1914.56
410.64	1996.48
410.83	1998.82
411.02	1998.82
411.21	2176.70
411.40	2216.49
411.59	2087.76
411.78	2008.18
411.98	1991.80
412.17	1970.73
412.36	2183.72
412.55	2050.31
412.74	2047.97
412.93	2005.84
413.12	1987.11
413.31	2218.83
413.50	2242.23
413.69	2172.02
413.88	2237.55
414.07	2136.91
414.26	2106.48
414.45	2122.87
414.64	2195.42
414.83	2218.83
415.02	2155.63
415.22	2146.27
415.41	2202.44
415.60	2235.21
415.79	2246.91
415.98	2415.43
416.17	2457.56
416.36	2345.22
416.55	2324.15
416.74	2272.66
416.93	2237.55
417.12	2122.87
417.31	2232.87
417.50	2265.64
417.69	2356.92
417.88	2396.71
418.07	2256.28
418.26	2246.91
418.45	2251.60
418.64	2328.83
418.83	2333.51
419.02	2441.18
419.21	2298.41
419.39	2326.49
419.58	2134.57
419.77	2188.40
419.96	2270.32
420.15	2356.92
420.34	2492.67
420.53	2518.42
420.72	2464.58
420.91	2516.08
421.10	2513.74
421.29	2562.89
421.48	2417.77
421.67	2511.39
421.86	2408.41
422.05	2375.64
422.24	2172.02
422.43	2033.93
422.61	2214.15
422.80	2431.82
422.99	2457.56
423.18	2256.28
423.37	2312.45
423.56	2335.85
423.75	2314.79
423.94	2296.07
424.13	2190.74
424.32	2246.91
424.50	2298.41
424.69	2361.60
424.88	2300.75
425.07	2303.09
425.26	2221.17
425.45	2183.72
425.64	2047.97
425.83	2092.44
426.01	2270.32
426.20	2410.75
426.39	2354.58
426.58	2221.17
426.77	2101.80
426.96	2129.89
427.15	2143.93
427.33	2167.34
427.52	2214.15
427.71	2296.07
427.90	2326.49
428.09	2387.35
428.28	2148.61
428.46	2106.48
428.65	2176.70
428.84	2167.34
429.03	2253.94
429.22	2040.95
429.40	1982.43
429.59	1823.28
429.78	1593.90
429.97	1596.25
430.16	1554.12
430.34	1586.88
430.53	1582.20
430.72	1699.23
430.91	1863.07
431.10	2059.67
431.28	2363.94
431.47	2698.64
431.66	2750.13
431.85	2455.22
432.03	2335.85
432.22	2298.41
432.41	2286.70
432.60	2443.52
432.79	2506.71
432.97	2576.93
433.16	2654.17
433.35	2443.52
433.54	2232.87
433.72	2172.02
433.91	2155.63
434.10	2310.11
434.28	2452.88
434.47	2588.63
434.66	2640.12
434.85	2471.61
435.03	2597.99
435.22	2736.09
435.41	3040.36
435.59	3063.76
435.78	2953.76
435.97	2803.96
436.16	2768.85
436.34	2726.72
436.53	2736.09
436.72	2747.79
436.90	2602.68
437.09	2619.06
437.28	2394.37
437.46	2623.74
437.65	2635.44
437.84	2483.31
438.02	2331.17
438.21	2188.40
438.40	2314.79
438.58	2586.29
438.77	2715.02
438.96	2665.87
439.14	2644.81
439.33	2705.66
439.52	2881.20
439.70	2761.83
439.89	2818.00
440.08	2670.55
440.26	2691.62
440.45	2661.19
440.63	2796.94
440.82	2888.22
441.01	2953.76
441.19	2820.35
441.38	3087.17
441.57	3180.79
441.75	3176.11
441.94	3087.17
442.12	3166.74
442.31	3194.83
442.50	3103.55
442.68	3098.87
442.87	3007.59
443.05	3040.36
443.24	3225.26
443.43	3213.56
443.61	3229.94
443.80	3192.49
443.98	2920.99
444.17	3110.57
444.35	3251.00
444.54	3265.05
444.73	3169.09
444.91	3176.11
445.10	3005.25
445.28	2888.22
445.47	2799.28
445.65	2848.43
445.84	2848.43
446.02	3110.57
446.21	3096.53
446.39	3042.70
446.58	3176.11
446.77	3225.26
446.95	3080.14
447.14	3199.51
447.32	3316.54
447.51	3199.51
447.69	3105.89
447.88	3098.87
448.06	3190.15
448.25	3162.06
448.43	3227.60
448.62	3236.96
448.80	3286.11
448.99	3197.17
449.17	3293.13
449.36	3243.98
449.54	3337.60
449.73	3482.72
449.91	3471.01
450.10	3482.72
450.28	3609.11
450.46	3524.85
450.65	3609.11
450.83	3513.14
451.02	3295.47
451.20	3510.80
451.39	3332.92
451.57	3283.77
451.76	3503.78
451.94	3337.60
452.13	3396.12
452.31	3185.47
452.49	3056.74
452.68	3045.04
452.86	3096.53
453.05	3038.02
453.23	3096.53
453.42	3201.85
453.60	3389.10
453.78	3279.09
453.97	3456.97
454.15	3400.80
454.34	3253.34
454.52	3328.24
454.70	3253.34
454.89	3260.37
455.07	3145.68
455.26	3262.71
455.44	3522.51
455.62	3396.12
455.81	3421.86
455.99	3379.73
456.17	3489.74
456.36	3522.51
456.54	3433.57
456.73	3592.72
456.91	3623.15
457.09	3674.64
457.28	3609.11
457.46	3597.40
457.64	3534.21
457.83	3463.99
458.01	3269.73
458.19	3323.56
458.38	3421.86
458.56	3475.70
458.74	3510.80
458.93	3407.82
459.11	3506.12
459.29	3522.51
459.48	3412.50
459.66	3658.26
459.84	3452.29
460.03	3651.24
460.21	3562.30
460.39	3630.17
460.57	3639.53
460.76	3665.28
460.94	3581.02
461.12	3648.90
461.31	3625.49
461.49	3627.83
461.67	3684.00
461.85	3658.26
462.04	3566.98
462.22	3896.99
462.40	3662.94
462.59	3684.00
462.77	3723.79
462.95	3665.28
463.13	3695.71
463.32	3524.85
463.50	3606.77
463.68	3602.08
463.86	3606.77
464.05	3585.70
464.23	3566.98
464.41	3426.54
464.59	3386.76
464.78	3583.36
464.96	3531.87
465.14	3557.61
465.32	3623.15
465.50	3829.12
465.69	3644.21
465.87	3599.74
466.05	3674.64
466.23	3559.95
466.41	3398.46
466.60	3344.63
466.78	3403.14
466.96	3466.33
467.14	3353.99
467.32	3613.79
467.51	3555.27
467.69	3321.22
467.87	3588.04
468.05	3510.80
468.23	3562.30
468.41	3485.06
468.60	3588.04
468.78	3616.13
468.96	3707.41
469.14	3630.17
469.32	3566.98
469.50	3412.50
469.69	3527.19
469.87	3417.18
470.05	3431.23
470.23	3318.88
470.41	3407.82
470.59	3538.89
470.77	3471.01
470.95	3541.23
471.14	3658.26
471.32	3695.71
471.50	3740.18
471.68	3936.78
471.86	3918.06
472.04	3871.25
472.22	3805.71
472.40	3520.17
472.58	3597.40
472.77	3604.42
472.95	3702.73
473.13	3784.65
473.31	3831.46
473.49	3691.02
473.67	3772.94
473.85	3801.03
474.03	3775.28
474.21	3901.67
474.39	3887.63
474.57	3922.74
474.75	3988.27
474.93	3803.37
475.12	3850.18
475.30	3822.09
475.48	3831.46
475.66	3978.91
475.84	4023.38
476.02	3829.12
476.20	3880.61
476.38	3805.71
476.56	3859.54
476.74	3911.04
476.92	3929.76
477.10	3981.25
477.28	4161.47
477.46	4063.17
477.64	4194.24
477.82	4332.33
478.00	4287.86
478.18	4109.98
478.36	4035.08
478.54	4306.59
478.72	4259.78
478.90	4241.05
479.08	4440.00
479.26	4430.63
479.44	4374.46
479.62	4404.89
479.80	4337.01
479.98	4280.84
480.16	4606.17
480.34	4500.85
480.52	4629.58
480.70	4559.36
480.88	4463.40
481.06	4493.83
481.24	4669.37
481.41	4744.27
481.59	4774.69
481.77	4688.09
481.95	4737.24
482.13	4685.75
482.31	4622.56
482.49	4823.84
482.67	4755.97
482.85	4840.23
483.03	4894.06
483.21	4975.98
483.39	4957.25
483.57	4910.44
483.74	4877.68
483.92	4889.38
484.10	4835.55
484.28	4936.19
484.46	5088.32
484.64	5032.15
484.82	4983.00
485.00	4805.12
485.18	4926.83
485.35	4690.43
485.53	4344.03
485.71	4184.88
485.89	3964.87
486.07	4145.09
486.25	4379.14
486.43	4678.73
486.61	4774.69
486.78	4856.61
486.96	4809.80
487.14	4882.36
487.32	5245.14
487.50	5219.39
487.68	5500.26
487.85	5490.90
488.03	5432.38
488.21	5427.70
488.39	5233.44
488.57	5439.40
488.75	5142.16
488.92	5469.83
489.10	5701.54
489.28	5809.21
489.46	5940.28
489.64	5820.91
489.81	6073.69
489.99	5863.04
490.17	5846.66
490.35	5998.79
490.53	5790.49
490.70	5970.71
490.88	5877.09
491.06	5827.93
491.24	5893.47
491.41	5858.36
491.59	5479.19
491.77	5483.88
491.95	5514.30
492.13	5774.10
492.30	5977.73
492.48	6090.07
492.66	6239.87
492.84	6382.64
493.01	6319.45
493.19	6017.52
493.37	6099.44
493.54	6111.14
493.72	6078.37
493.90	6382.64
494.08	6415.41
494.25	6480.94
494.43	6569.88
494.61	6726.70
494.79	6799.26
494.96	6619.04
495.14	6527.75
495.32	6228.17
495.49	6186.04
495.67	6291.36
495.85	6768.83
496.02	6663.51
496.20	6562.86
496.38	6560.52
496.55	6338.17
496.73	6590.95
496.91	6616.69
497.09	6663.51
497.26	6930.33
497.44	6792.23
497.62	6675.21
497.79	6525.41
497.97	6256.25
498.14	6345.19
498.32	6537.12
498.50	6642.44
498.67	6874.15
498.85	6773.51
499.03	6881.18
499.20	6939.69
499.38	6963.09
499.56	6817.98
499.73	6682.23
499.91	6820.32
500.08	6574.56
500.26	6513.71
500.44	6427.11
500.61	6710.32
500.79	6593.29
500.97	6441.15
501.14	6473.92
501.32	6377.96
501.49	6232.85
501.67	6450.52
501.84	6499.67
502.02	6630.74
502.20	6738.40
502.37	6682.23
502.55	6574.56
502.72	6806.28
502.90	6981.82
503.07	6815.64
503.25	6551.16
503.43	6188.38
503.60	6221.14
503.78	6066.67
503.95	6155.61
504.13	6413.07
504.30	6689.25
504.48	6796.92
504.65	6862.45
504.83	6759.47
505.01	6904.58
505.18	6909.26
505.36	7045.01
505.53	6949.05
505.71	6951.39
505.88	7194.81
506.06	7033.31
506.23	6871.81
506.41	6808.62
506.58	6871.81
506.76	6991.18
506.93	6719.68
507.11	6794.58
507.28	6768.83
507.46	6736.06
507.63	6609.67
507.81	6647.12
507.98	6586.27
508.16	6841.39
508.33	6920.96
508.50	7133.95
508.68	7281.41
508.85	7316.51
509.03	7452.27
509.20	7197.15
509.38	7229.91
509.55	7037.99
509.73	6867.13
509.90	7288.43
510.08	7171.40
510.25	7082.46
510.42	7173.74
510.60	7243.96
510.77	6956.07
510.95	7133.95
511.12	7419.50
511.30	7468.65
511.47	7564.61
511.64	7602.06
511.82	7255.66
511.99	7356.30
512.17	7183.10
512.34	7030.97
512.51	7112.89
512.69	7150.34
512.86	7030.97
513.04	7155.02
513.21	7358.64
513.38	7246.30
513.56	7016.93
513.73	6778.19
513.90	6932.67
514.08	6937.35
514.25	7026.29
514.43	7157.36
514.60	7208.85
514.77	7321.20
514.95	7311.83
515.12	7122.25
515.29	7201.83
515.47	7250.98
515.64	7227.57
515.81	7323.54
515.99	7173.74
516.16	6836.70
516.33	6487.96
516.51	6162.63
516.68	5841.98
516.85	5867.72
517.03	5741.33
517.20	6258.59
517.37	6822.66
517.54	7283.75
517.72	7194.81
517.89	6516.05
518.06	6113.48
518.24	6092.41
518.41	6637.76
518.58	6792.23
518.75	6810.96
518.93	7000.54
519.10	6780.53
519.27	7000.54
519.45	7073.10
519.62	7204.17
519.79	7349.28
519.96	7379.71
520.14	7283.75
520.31	7148.00
520.48	6909.26
520.65	7077.78
520.83	7098.84
521.00	7480.35
521.17	7414.82
521.34	7157.36
521.52	7330.56
521.69	7470.99
521.86	7555.25
522.03	7566.95
522.20	7255.66
522.38	6972.46
522.55	6813.30
522.72	6942.03
522.89	7119.91
523.07	7232.26
523.24	7272.04
523.41	7314.17
523.58	7342.26
523.75	7705.04
523.92	7435.88
524.10	7735.47
524.27	7590.36
524.44	7627.81
524.61	7529.50
524.78	7459.29
524.96	7506.10
525.13	7393.75
525.30	7463.97
525.47	7595.04
525.64	7653.55
525.81	7368.01
525.98	7136.29
526.16	6705.63
526.33	6595.63
526.50	6363.92
526.67	6326.47
526.84	6506.69
527.01	6651.80
527.18	6846.07
527.36	6960.75
527.53	7407.80
527.70	7424.18
527.87	7288.43
528.04	7129.27
528.21	6972.46
528.38	7325.88
528.55	7632.49
528.72	7838.45
528.89	7784.62
529.07	7492.05
529.24	7611.42
529.41	7351.62
529.58	7344.60
529.75	7042.67
529.92	7286.09
530.09	7274.38
530.26	7660.57
530.43	7859.52
530.60	7737.81
530.77	7786.96
530.94	7581.00
531.11	7688.66
531.28	7613.76
531.46	7728.45
531.63	7655.89
531.80	7463.97
531.97	7468.65
532.14	7241.62
532.31	7143.32
532.48	6792.23
532.65	6848.41
532.82	6963.09
532.99	7169.06
533.16	7290.77
533.33	7393.75
533.50	7496.74
533.67	7178.42
533.84	7236.94
534.01	7225.23
534.18	7384.39
534.35	7543.55
534.52	7524.82
534.69	7499.08
534.86	7602.06
535.03	7606.74
535.20	7620.78
535.37	7866.54
535.54	7889.95
535.71	7672.28
535.88	7742.49
536.05	7396.09
536.22	7403.11
536.38	7508.44
536.55	7213.53
536.72	7131.61
536.89	6850.75
537.06	7070.76
537.23	7258.00
537.40	7494.40
537.57	7665.25
537.74	7499.08
537.91	7452.27
538.08	7407.80
538.25	7372.69
538.42	7382.05
538.59	7253.32
538.75	7307.15
538.92	7267.36
539.09	7353.96
539.26	7166.72
539.43	7077.78
539.60	7260.34
539.77	7211.19
539.94	7080.12
540.11	7084.80
540.28	6918.62
540.44	6867.13
540.61	7019.27
540.78	7052.03
540.95	7187.79
541.12	7269.70
541.29	7398.43
541.46	7449.93
541.62	7398.43
541.79	7419.50
541.96	7435.88
542.13	7255.66
542.30	7232.26
542.47	7611.42
542.63	7410.14
542.80	7204.17
542.97	7414.82
543.14	7297.79
543.31	7152.68
543.48	7314.17
543.64	7599.72
543.81	7735.47
543.98	7740.15
544.15	7541.21
544.32	7433.54
544.48	7417.16
544.65	7304.81
544.82	7452.27
544.99	7548.23
545.16	7604.40
545.32	7222.89
545.49	7840.79
545.66	8205.92
545.83	8070.17
546.00	7896.97
546.16	7328.22
546.33	7208.85
546.50	7260.34
546.67	7468.65
546.83	7274.38
547.00	7344.60
547.17	7115.23
547.34	7063.74
547.50	6890.54
547.67	7007.56
547.84	6937.35
548.00	7033.31
548.17	7248.64
548.34	7405.46
548.51	7351.62
548.67	7255.66
548.84	7187.79
549.01	7213.53
549.18	7281.41
549.34	7068.42
549.51	7276.73
549.68	7206.51
549.84	7267.36
550.01	7131.61
550.18	7148.00
550.34	7136.29
550.51	7129.27
550.68	7248.64
550.84	7084.80
551.01	6892.88
551.18	6944.37
551.34	7059.06
551.51	6897.56
551.68	7239.28
551.84	7307.15
552.01	7328.22
552.18	7258.00
552.34	6995.86
552.51	6995.86
552.68	6724.36
552.84	7068.42
553.01	7105.87
553.18	6916.28
553.34	7236.94
553.51	7140.97
553.67	7360.98
553.84	7307.15
554.01	7225.23
554.17	6956.07
554.34	7042.67
554.51	7140.97
554.67	7222.89
554.84	7194.81
555.00	7145.66
555.17	7213.53
555.33	6888.20
555.50	7269.70
555.67	7014.59
555.83	6890.54
556.00	6832.02
556.16	7028.63
556.33	7040.33
556.50	6736.06
556.66	6913.94
556.83	6633.08
556.99	6747.76
557.16	6974.80
557.32	6806.28
557.49	6888.20
557.65	6846.07
557.82	7005.22
557.98	6881.18
558.15	6775.85
558.32	6815.64
558.48	6328.81
558.65	6457.54
558.81	6555.84
558.98	6553.50
559.14	6586.27
559.31	6569.88
559.47	6677.55
559.64	6600.31
559.80	6719.68
559.97	6438.81
560.13	6394.34
560.30	6825.00
560.46	6752.45
560.63	6960.75
560.79	6930.33
560.96	6909.26
561.12	6579.25
561.29	6445.84
561.45	6333.49
561.61	6562.86
561.78	6686.91
561.94	6609.67
562.11	6560.52
562.27	6408.39
562.44	6401.37
562.60	6623.72
562.77	6878.83
562.93	6785.21
563.10	6820.32
563.26	6612.01
563.42	6569.88
563.59	6590.95
563.75	6333.49
563.92	6637.76
564.08	6551.16
564.24	6588.61
564.41	6604.99
564.57	6436.47
564.74	6612.01
564.90	6462.22
565.07	6389.66
565.23	6389.66
565.39	6387.32
565.56	6328.81
565.72	6230.51
565.88	6207.10
566.05	6221.14
566.21	6377.96
566.38	6394.34
566.54	6401.37
566.70	6370.94
566.87	6544.14
567.03	6504.35
567.19	6672.87
567.36	6338.17
567.52	6314.77
567.68	6157.95
567.85	6118.16
568.01	6207.10
568.17	5907.51
568.34	5731.97
568.50	5933.26
568.66	5909.85
568.83	6071.35
568.99	5863.04
569.15	6071.35
569.32	5975.39
569.48	5956.66
569.64	5926.24
569.81	5839.64
569.97	6017.52
570.13	5963.68
570.30	5785.80
570.46	5951.98
570.62	5884.11
570.78	5631.33
570.95	5666.44
571.11	5877.09
571.27	5909.85
571.43	6073.69
571.60	5923.90
571.76	6050.28
571.92	6010.50
572.09	6010.50
572.25	6195.40
572.41	6150.93
572.57	6069.01
572.74	6019.86
572.90	5827.93
573.06	5853.68
573.22	6073.69
573.38	6092.41
573.55	6029.22
573.71	6059.65
573.87	5942.62
574.03	5947.30
574.20	5912.19
574.36	5837.30
574.52	5809.21
574.68	5891.13
574.84	5724.95
575.01	5764.74
575.17	5593.88
575.33	5563.45
575.49	5731.97
575.65	5841.98
575.82	5724.95
575.98	5797.51
576.14	5694.52
576.30	5692.18
576.46	5982.41
576.62	6090.07
576.79	5966.03
576.95	5914.53
577.11	5738.99
577.27	5844.32
577.43	5809.21
577.59	5823.25
577.75	5675.80
577.92	5533.03
578.08	5561.11
578.24	5544.73
578.40	5708.57
578.56	5989.43
578.72	5771.76
578.88	5991.77
579.04	5834.96
579.21	5907.51
579.37	5746.02
579.53	5720.27
579.69	5865.38
579.85	5834.96
580.01	6029.22
580.17	5947.30
580.33	5750.70
580.49	5778.78
580.65	5823.25
580.82	5874.74
580.98	5764.74
581.14	5813.89
581.30	6071.35
581.46	5907.51
581.62	5804.53
581.78	5818.57
581.94	6019.86
582.10	6033.90
582.26	5928.58
582.42	6024.54
582.58	5900.49
582.74	5884.11
582.90	5846.66
583.06	5884.11
583.22	5858.36
583.38	5734.31
583.54	5741.33
583.70	5987.09
583.86	5825.59
584.02	5966.03
584.18	5872.40
584.34	6024.54
584.50	5928.58
584.66	5933.26
584.82	5909.85
584.98	5849.00
585.14	5738.99
585.30	5675.80
585.46	5598.56
585.62	5509.62
585.78	5650.05
585.94	5394.93
586.10	5357.49
586.26	5558.77
586.42	5628.99
586.58	5509.62
586.74	5612.60
586.90	5610.26
587.06	5547.07
587.22	5633.67
587.38	5467.49
587.54	5247.48
587.70	5401.96
587.86	5067.26
588.02	4973.64
588.18	4791.08
588.34	4662.35
588.49	4332.33
588.65	3983.59
588.81	3969.55
588.97	4070.19
589.13	4044.45
589.29	3985.93
589.45	3962.53
589.61	4077.21
589.77	4379.14
589.93	4599.15
590.08	4706.82
590.24	4741.93
590.40	4842.57
590.56	4816.82
590.72	4702.14
590.88	4652.98
591.04	4713.84
591.20	4554.68
591.35	4709.16
591.51	4566.39
591.67	4559.36
591.83	4493.83
591.99	4414.25
592.15	4493.83
592.31	4720.86
592.46	4980.66
592.62	4891.72
592.78	4875.34
592.94	4887.04
593.10	4814.48
593.26	4884.70
593.41	5011.09
593.57	5083.64
593.73	4809.80
593.89	4664.69
594.05	4400.21
594.20	4430.63
594.36	4344.03
594.52	4093.60
594.68	4245.73
594.84	4554.68
594.99	4865.97
595.15	4730.22
595.31	4767.67
595.47	4805.12
595.62	4798.10
595.78	4882.36
595.94	4922.15
596.10	4966.62
596.25	4842.57
596.41	4737.24
596.57	4690.43
596.73	4599.15
596.88	4802.78
597.04	4964.28
597.20	4772.35
597.36	4606.17
597.51	4730.22
597.67	4784.06
