SpectraSuite Data File
++++++++++++++++++++++++++++++++++++
Date: Fri Oct 04 11:44:18 GMT-05:00 2013
User: price-jones
Dark Spectrum Present: No
Reference Spectrum Present: No
Number of Sampled Component Spectra: 1
Spectrometers: USB2+H05261
Integration Time (usec): 100000 (USB2+H05261)
Spectra Averaged: 1 (USB2+H05261)
Boxcar Smoothing: 0 (USB2+H05261)
Correct for Electrical Dark: No (USB2+H05261)
Strobe/Lamp Enabled: No (USB2+H05261)
Correct for Detector Non-linearity: No (USB2+H05261)
Correct for Stray Light: No (USB2+H05261)
Number of Pixels in Processed Spectrum: 2048
>>>>>Begin Processed Spectral Data<<<<<
365.73	0.00
365.92	0.00
366.12	0.00
366.32	0.00
366.52	0.00
366.72	0.00
366.91	0.00
367.11	0.00
367.31	0.00
367.51	0.00
367.70	4.68
367.90	0.00
368.10	0.00
368.30	21.06
368.49	0.00
368.69	28.09
368.89	0.00
369.09	0.00
369.28	0.00
369.48	23.41
369.68	0.00
369.87	14.04
370.07	0.00
370.27	0.00
370.47	163.84
370.66	468.11
370.86	486.83
371.06	533.64
371.25	648.33
371.45	386.19
371.65	491.51
371.84	425.98
372.04	552.37
372.24	564.07
372.44	596.84
372.63	531.30
372.83	524.28
373.03	461.09
373.22	447.04
373.42	545.34
373.62	601.52
373.81	641.31
374.01	615.56
374.21	599.18
374.40	521.94
374.60	482.15
374.79	571.09
374.99	692.80
375.19	627.26
375.38	643.65
375.58	699.82
375.78	692.80
375.97	645.99
376.17	697.48
376.37	660.03
376.56	781.74
376.76	692.80
376.95	688.12
377.15	737.27
377.35	802.80
377.54	826.21
377.74	828.55
377.93	870.68
378.13	823.87
378.33	763.01
378.52	681.10
378.72	781.74
378.91	643.65
379.11	599.18
379.31	683.44
379.50	596.84
379.70	706.84
379.89	795.78
380.09	830.89
380.28	805.14
380.48	823.87
380.68	866.00
380.87	706.84
381.07	732.59
381.26	709.18
381.46	671.73
381.65	697.48
381.85	580.45
382.04	634.29
382.24	573.43
382.43	533.64
382.63	524.28
382.83	491.51
383.02	594.50
383.22	559.39
383.41	538.32
383.61	575.77
383.80	669.39
384.00	671.73
384.19	751.31
384.39	753.65
384.58	788.76
384.78	781.74
384.97	791.10
385.17	688.12
385.36	777.06
385.56	641.31
385.75	713.86
385.95	854.30
386.14	884.72
386.34	709.18
386.53	830.89
386.72	737.27
386.92	784.08
387.11	765.36
387.31	788.76
387.50	905.79
387.70	814.51
387.89	737.27
388.09	770.04
388.28	685.78
388.48	781.74
388.67	851.96
388.86	840.25
389.06	861.32
389.25	1088.35
389.45	1095.37
389.64	1046.22
389.84	999.41
390.03	964.30
390.22	1008.77
390.42	1069.62
390.61	1111.75
390.81	1004.09
391.00	1069.62
391.19	994.73
391.39	1074.31
391.58	1015.79
391.78	980.68
391.97	997.07
392.16	898.77
392.36	826.21
392.55	751.31
392.75	582.79
392.94	461.09
393.13	461.09
393.33	505.56
393.52	662.37
393.71	849.61
393.91	887.06
394.10	915.15
394.29	1057.92
394.49	1067.28
394.68	1217.08
394.88	1128.14
395.07	1174.95
395.26	1217.08
395.46	1165.59
395.65	1090.69
395.84	973.66
396.04	896.43
396.23	702.16
396.42	706.84
396.62	706.84
396.81	772.38
397.00	884.72
397.19	945.58
397.39	1116.44
397.58	1313.04
397.77	1406.66
397.97	1324.74
398.16	1406.66
398.35	1446.45
398.55	1561.14
398.74	1701.57
398.93	1717.95
399.12	1661.78
399.32	1589.22
399.51	1549.43
399.70	1629.01
399.90	1542.41
400.09	1619.65
400.28	1652.42
400.47	1577.52
400.67	1769.44
400.86	1767.10
401.05	1715.61
401.24	1860.73
401.44	1746.04
401.63	1809.23
401.82	1811.57
402.01	1823.28
402.21	1774.13
402.40	1790.51
402.59	1729.66
402.78	1706.25
402.97	1671.14
403.17	1746.04
403.36	1717.95
403.55	1870.09
403.74	1886.47
403.93	1900.52
404.13	2087.76
404.32	2101.80
404.51	2071.37
404.70	2047.97
404.89	1853.70
405.09	1926.26
405.28	1832.64
405.47	1699.23
405.66	1729.66
405.85	1724.97
406.05	1748.38
406.24	1722.63
406.43	1729.66
406.62	1839.66
406.81	1856.04
407.00	1755.40
407.20	1790.51
407.39	1717.95
407.58	1923.92
407.77	1907.54
407.96	1977.75
408.15	1987.11
408.34	1961.37
408.54	2083.08
408.73	1937.96
408.92	1998.82
409.11	1935.62
409.30	1926.26
409.49	1607.95
409.68	1610.29
409.87	1575.18
410.07	1636.03
410.26	1893.49
410.45	1839.66
410.64	2047.97
410.83	2029.24
411.02	2015.20
411.21	2115.84
411.40	2080.74
411.59	2134.57
411.78	2099.46
411.98	1973.07
412.17	2054.99
412.36	1996.48
412.55	2069.03
412.74	2019.88
412.93	1956.69
413.12	1989.46
413.31	2246.91
413.50	2282.02
413.69	2157.97
413.88	2165.00
414.07	2132.23
414.26	2045.63
414.45	2249.25
414.64	2197.76
414.83	2167.34
415.02	2214.15
415.22	2216.49
415.41	2218.83
415.60	2230.53
415.79	2331.17
415.98	2455.22
416.17	2441.18
416.36	2387.35
416.55	2284.36
416.74	2305.43
416.93	2174.36
417.12	2190.74
417.31	2277.34
417.50	2270.32
417.69	2314.79
417.88	2317.13
418.07	2436.50
418.26	2340.54
418.45	2197.76
418.64	2328.83
418.83	2399.05
419.02	2401.39
419.21	2296.07
419.39	2204.78
419.58	2190.74
419.77	2160.31
419.96	2300.75
420.15	2385.01
420.34	2466.92
420.53	2527.78
420.72	2619.06
420.91	2633.10
421.10	2523.10
421.29	2361.60
421.48	2448.20
421.67	2469.27
421.86	2546.50
422.05	2373.30
422.24	2104.14
422.43	2019.88
422.61	2195.42
422.80	2375.64
422.99	2399.05
423.18	2347.56
423.37	2317.13
423.56	2214.15
423.75	2401.39
423.94	2296.07
424.13	2239.89
424.32	2242.23
424.50	2324.15
424.69	2176.70
424.88	2207.13
425.07	2359.26
425.26	2338.20
425.45	2345.22
425.64	2167.34
425.83	2169.68
426.01	2347.56
426.20	2403.73
426.39	2361.60
426.58	2190.74
426.77	2073.71
426.96	1982.43
427.15	2214.15
427.33	2115.84
427.52	2289.04
427.71	2260.96
427.90	2218.83
428.09	2188.40
428.28	2136.91
428.46	2296.07
428.65	2153.29
428.84	2225.85
429.03	2246.91
429.22	2040.95
429.40	1994.14
429.59	1872.43
429.78	1652.42
429.97	1706.25
430.16	1703.91
430.34	1584.54
430.53	1549.43
430.72	1563.48
430.91	1923.92
431.10	2195.42
431.28	2380.32
431.47	2658.85
431.66	2567.57
431.85	2429.48
432.03	2298.41
432.22	2148.61
432.41	2289.04
432.60	2520.76
432.79	2478.63
432.97	2551.18
433.16	2630.76
433.35	2335.85
433.54	2113.50
433.72	2162.66
433.91	2132.23
434.10	2303.09
434.28	2392.03
434.47	2476.29
434.66	2605.02
434.85	2530.12
435.03	2621.40
435.22	3513.14
435.41	4498.51
435.59	4442.34
435.78	3969.55
435.97	3318.88
436.16	3009.93
436.34	2785.24
436.53	2698.64
436.72	2663.53
436.90	2593.31
437.09	2583.95
437.28	2546.50
437.46	2513.74
437.65	2665.87
437.84	2471.61
438.02	2370.96
438.21	2321.81
438.40	2352.24
438.58	2523.10
438.77	2590.97
438.96	2712.68
439.14	2691.62
439.33	2832.05
439.52	2764.17
439.70	2785.24
439.89	2729.06
440.08	2715.02
440.26	2705.66
440.45	2717.36
440.63	2825.03
440.82	2956.10
441.01	2878.86
441.19	2888.22
441.38	2995.89
441.57	3164.40
441.75	3178.45
441.94	2991.20
442.12	3038.02
442.31	3133.98
442.50	3227.60
442.68	3152.70
442.87	3049.72
443.05	2977.16
443.24	3112.91
443.43	3227.60
443.61	3187.81
443.80	3232.28
443.98	3110.57
444.17	3112.91
444.35	3122.27
444.54	3166.74
444.73	3239.30
444.91	2995.89
445.10	3021.63
445.28	2803.96
445.47	2942.05
445.65	2799.28
445.84	2825.03
446.02	2963.12
446.21	3119.93
446.39	3066.10
446.58	3096.53
446.77	3028.65
446.95	3171.43
447.14	3204.19
447.32	3307.18
447.51	3187.81
447.69	3110.57
447.88	3159.72
448.06	3155.04
448.25	3236.96
448.43	3190.15
448.62	3269.73
448.80	3091.85
448.99	3089.51
449.17	3110.57
449.36	3038.02
449.54	3295.47
449.73	3368.03
449.91	3445.27
450.10	3489.74
450.28	3550.59
450.46	3396.12
450.65	3592.72
450.83	3407.82
451.02	3382.07
451.20	3337.60
451.39	3281.43
451.57	3311.86
451.76	3262.71
451.94	3267.39
452.13	3253.34
452.31	3014.61
452.49	3005.25
452.68	2958.44
452.86	3089.51
453.05	3063.76
453.23	3185.47
453.42	3199.51
453.60	3227.60
453.78	3351.65
453.97	3295.47
454.15	3480.38
454.34	3239.30
454.52	3265.05
454.70	3215.90
454.89	3342.28
455.07	3129.30
455.26	3234.62
455.44	3288.45
455.62	3456.97
455.81	3482.72
455.99	3468.67
456.17	3536.55
456.36	3307.18
456.54	3391.44
456.73	3447.61
456.91	3571.66
457.09	3548.25
457.28	3604.42
457.46	3485.06
457.64	3574.00
457.83	3396.12
458.01	3276.75
458.19	3499.10
458.38	3361.01
458.56	3393.78
458.74	3461.65
458.93	3389.10
459.11	3442.93
459.29	3412.50
459.48	3393.78
459.66	3433.57
459.84	3368.03
460.03	3501.44
460.21	3595.06
460.39	3569.32
460.57	3452.29
460.76	3485.06
460.94	3648.90
461.12	3576.34
461.31	3529.53
461.49	3536.55
461.67	3370.37
461.85	3735.50
462.04	3611.45
462.22	4018.70
462.40	3616.13
462.59	3726.13
462.77	3660.60
462.95	3754.22
463.13	3559.95
463.32	3555.27
463.50	3489.74
463.68	3421.86
463.86	3534.21
464.05	3431.23
464.23	3353.99
464.41	3473.36
464.59	3358.67
464.78	3531.87
464.96	3323.56
465.14	3513.14
465.32	3609.11
465.50	3688.68
465.69	3606.77
465.87	3421.86
466.05	3482.72
466.23	3197.17
466.41	3190.15
466.60	3279.09
466.78	3356.33
466.96	3480.38
467.14	3452.29
467.32	3492.08
467.51	3543.57
467.69	3454.63
467.87	3407.82
468.05	3552.93
468.23	3517.83
468.41	3541.23
468.60	3506.12
468.78	3527.19
468.96	3454.63
469.14	3438.25
469.32	3618.47
469.50	3492.08
469.69	3459.31
469.87	3353.99
470.05	3386.76
470.23	3442.93
470.41	3410.16
470.59	3438.25
470.77	3419.52
470.95	3524.85
471.14	3494.42
471.32	3627.83
471.50	3768.26
471.68	3662.94
471.86	3782.31
472.04	3796.35
472.22	3709.75
472.40	3679.32
472.58	3604.42
472.77	3576.34
472.95	3644.21
473.13	3641.87
473.31	3695.71
473.49	3583.36
473.67	3707.41
473.85	3702.73
474.03	3794.01
474.21	3726.13
474.39	3915.72
474.57	3969.55
474.75	3796.35
474.93	3789.33
475.12	3765.92
475.30	3922.74
475.48	3634.85
475.66	3801.03
475.84	3786.99
476.02	3721.45
476.20	3705.07
476.38	3688.68
476.56	3805.71
476.74	3920.40
476.92	3918.06
477.10	3894.65
477.28	4079.55
477.46	4140.41
477.64	4109.98
477.82	4142.75
478.00	4161.47
478.18	4058.49
478.36	4088.92
478.54	4065.51
478.72	4007.00
478.90	4072.53
479.08	4217.65
479.26	4454.04
479.44	4320.63
479.62	4362.76
479.80	4423.61
479.98	4355.74
480.16	4437.66
480.34	4390.84
480.52	4334.67
480.70	4573.41
480.88	4339.35
481.06	4524.26
481.24	4697.46
481.41	4573.41
481.59	4615.54
481.77	4615.54
481.95	4681.07
482.13	4711.50
482.31	4559.36
482.49	4704.48
482.67	4704.48
482.85	4807.46
483.03	4924.49
483.21	4788.74
483.39	4931.51
483.57	4819.16
483.74	4760.65
483.92	4812.14
484.10	4781.71
484.28	4936.19
484.46	5165.56
484.64	4933.85
484.82	5004.07
485.00	4983.00
485.18	4770.01
485.35	4741.93
485.53	4355.74
485.71	4046.79
485.89	4074.87
486.07	4163.81
486.25	4547.66
486.43	4603.83
486.61	4880.02
486.78	4870.65
486.96	4828.53
487.14	5048.54
487.32	5188.97
487.50	5214.71
487.68	5383.23
487.85	5418.34
488.03	5394.93
488.21	5465.15
488.39	5305.99
488.57	5298.97
488.75	4994.70
488.92	5495.58
489.10	5654.73
489.28	5804.53
489.46	5994.11
489.64	5947.30
489.81	5919.21
489.99	5856.02
490.17	5795.17
490.35	5935.60
490.53	5851.34
490.70	5809.21
490.88	5699.20
491.06	5933.26
491.24	5926.24
491.41	5902.83
491.59	5626.65
491.77	5439.40
491.95	5390.25
492.13	5638.35
492.30	5729.63
492.48	6076.03
492.66	6202.42
492.84	6176.67
493.01	6298.38
493.19	5900.49
493.37	5954.32
493.54	5949.64
493.72	5914.53
493.90	6134.54
494.08	6274.98
494.25	6452.86
494.43	6516.05
494.61	6494.99
494.79	6560.52
494.96	6384.98
495.14	6420.09
495.32	6193.06
495.49	6024.54
495.67	6256.25
495.85	6469.24
496.02	6712.66
496.20	6747.76
496.38	6319.45
496.55	6478.60
496.73	6471.58
496.91	6707.98
497.09	6616.69
497.26	6817.98
497.44	6644.78
497.62	6490.31
497.79	6392.00
497.97	6279.66
498.14	6183.70
498.32	6324.13
498.50	6504.35
498.67	6719.68
498.85	6665.85
499.03	6722.02
499.20	6766.49
499.38	6874.15
499.56	6663.51
499.73	6487.96
499.91	6597.97
500.08	6401.37
500.26	6169.65
500.44	6270.30
500.61	6441.15
500.79	6242.21
500.97	6225.82
501.14	6221.14
501.32	6310.08
501.49	6183.70
501.67	6169.65
501.84	6347.53
502.02	6520.73
502.20	6565.20
502.37	6352.21
502.55	6476.26
502.72	6534.78
502.90	6705.63
503.07	6602.65
503.25	6382.64
503.43	6164.97
503.60	6017.52
503.78	6001.13
503.95	5865.38
504.13	6200.08
504.30	6537.12
504.48	6537.12
504.65	6602.65
504.83	6429.45
505.01	6665.85
505.18	6775.85
505.36	6860.11
505.53	6789.89
505.71	6944.37
505.88	7225.23
506.06	6825.00
506.23	6935.01
506.41	6637.76
506.58	6670.53
506.76	6766.49
506.93	6654.14
507.11	6506.69
507.28	6647.12
507.46	6335.83
507.63	6602.65
507.81	6448.18
507.98	6377.96
508.16	6502.01
508.33	6752.45
508.50	6850.75
508.68	6829.68
508.85	7108.21
509.03	7098.84
509.20	6970.12
509.38	6930.33
509.55	6794.58
509.73	6817.98
509.90	6960.75
510.08	6944.37
510.25	6691.59
510.42	6944.37
510.60	6839.05
510.77	7037.99
510.95	7108.21
511.12	7129.27
511.30	7108.21
511.47	7267.36
511.64	7236.94
511.82	7068.42
511.99	6995.86
512.17	6986.50
512.34	6839.05
512.51	6792.23
512.69	6775.85
512.86	6909.26
513.04	7082.46
513.21	6897.56
513.38	6981.82
513.56	6754.79
513.73	6602.65
513.90	6530.09
514.08	6773.51
514.25	6874.15
514.43	6899.90
514.60	6806.28
514.77	6794.58
514.95	7089.48
515.12	7000.54
515.29	6956.07
515.47	7063.74
515.64	7108.21
515.81	7052.03
515.99	6918.62
516.16	6574.56
516.33	6143.91
516.51	5746.02
516.68	5636.01
516.85	5701.54
517.03	5820.91
517.20	6197.74
517.37	6527.75
517.54	6874.15
517.72	6899.90
517.89	6214.12
518.06	5795.17
518.24	5937.94
518.41	6293.70
518.58	6408.39
518.75	6607.33
518.93	6644.78
519.10	6740.74
519.27	6668.19
519.45	6820.32
519.62	6855.43
519.79	7045.01
519.96	7066.08
520.14	6902.24
520.31	6668.19
520.48	6703.29
520.65	6752.45
520.83	7042.67
521.00	7028.63
521.17	6885.86
521.34	6906.92
521.52	7066.08
521.69	7211.19
521.86	7131.61
522.03	7115.23
522.20	6988.84
522.38	6541.80
522.55	6761.81
522.72	6731.38
522.89	6904.58
523.07	6864.79
523.24	6965.43
523.41	7098.84
523.58	7194.81
523.75	7358.64
523.92	7145.66
524.10	7143.32
524.27	7206.51
524.44	7265.02
524.61	7171.40
524.78	7159.70
524.96	7101.19
525.13	6995.86
525.30	7204.17
525.47	7309.49
525.64	7360.98
525.81	7105.87
525.98	6839.05
526.16	6539.46
526.33	6349.87
526.50	6153.27
526.67	6134.54
526.84	6141.57
527.01	6422.43
527.18	6668.19
527.36	6860.11
527.53	7112.89
527.70	7173.74
527.87	7084.80
528.04	6883.52
528.21	6874.15
528.38	7239.28
528.55	7281.41
528.72	7485.03
528.89	7527.16
529.07	7510.78
529.24	6974.80
529.41	6942.03
529.58	6876.49
529.75	6890.54
529.92	7054.37
530.09	7028.63
530.26	7328.22
530.43	7267.36
530.60	7368.01
530.77	7466.31
530.94	7449.93
531.11	7527.16
531.28	7227.57
531.46	7211.19
531.63	7321.20
531.80	7241.62
531.97	7040.33
532.14	6965.43
532.31	6750.10
532.48	6471.58
532.65	6658.82
532.82	6909.26
532.99	7112.89
533.16	7129.27
533.33	7454.61
533.50	7119.91
533.67	7145.66
533.84	7014.59
534.01	7096.50
534.18	6974.80
534.35	7131.61
534.52	7190.13
534.69	6984.16
534.86	7243.96
535.03	7112.89
535.20	7314.17
535.37	7578.65
535.54	7403.11
535.71	7384.39
535.88	7293.11
536.05	7119.91
536.22	7166.72
536.38	6960.75
536.55	6953.73
536.72	6731.38
536.89	6773.51
537.06	7040.33
537.23	7155.02
537.40	7288.43
537.57	7363.33
537.74	7260.34
537.91	7314.17
538.08	7164.38
538.25	7393.75
538.42	7442.90
538.59	7435.88
538.75	7091.82
538.92	7187.79
539.09	7129.27
539.26	6995.86
539.43	7197.15
539.60	7073.10
539.77	7339.92
539.94	7321.20
540.11	7225.23
540.28	6925.65
540.44	7157.36
540.61	7492.05
540.78	7426.52
540.95	7805.69
541.12	8049.10
541.29	8360.39
541.46	8386.14
541.62	8432.95
541.79	8304.22
541.96	8091.23
542.13	8072.51
542.30	7946.12
542.47	8145.06
542.63	7901.65
542.80	7819.73
542.97	7840.79
543.14	7793.98
543.31	7810.37
543.48	8037.40
543.64	8145.06
543.81	8154.43
543.98	8145.06
544.15	8133.36
544.32	8072.51
544.48	7829.09
544.65	7918.03
544.82	8105.28
544.99	8028.04
545.16	8060.80
545.32	7899.31
545.49	9116.39
545.66	10731.36
545.83	11400.75
546.00	10221.12
546.16	9301.29
546.33	8519.55
546.50	8126.34
546.67	8131.02
546.83	7616.10
547.00	7548.23
547.17	7597.38
547.34	7412.48
547.50	7480.35
547.67	7396.09
547.84	7281.41
548.00	7583.34
548.17	7393.75
548.34	7405.46
548.51	7527.16
548.67	7482.69
548.84	7555.25
549.01	7152.68
549.18	7321.20
549.34	7459.29
549.51	7417.16
549.68	7208.85
549.84	7166.72
550.01	7272.04
550.18	7185.44
550.34	7185.44
550.51	7211.19
550.68	7253.32
550.84	7056.72
551.01	6979.48
551.18	6888.20
551.34	6792.23
551.51	6904.58
551.68	7096.50
551.84	7110.55
552.01	7080.12
552.18	6977.14
552.34	6806.28
552.51	6885.86
552.68	7026.29
552.84	6775.85
553.01	6810.96
553.18	6988.84
553.34	6913.94
553.51	6871.81
553.67	6935.01
553.84	7054.37
554.01	7059.06
554.17	6745.42
554.34	6771.17
554.51	6918.62
554.67	6871.81
554.84	6829.68
555.00	6766.49
555.17	6782.87
555.33	6857.77
555.50	6850.75
555.67	6600.31
555.83	6656.48
556.00	6628.40
556.16	6775.85
556.33	6452.86
556.50	6504.35
556.66	6445.84
556.83	6485.62
556.99	6530.09
557.16	6253.91
557.32	6497.33
557.49	6668.19
557.65	6604.99
557.82	6600.31
557.98	6558.18
558.15	6469.24
558.32	6466.90
558.48	6244.55
558.65	6209.44
558.81	6239.87
558.98	6317.11
559.14	6352.21
559.31	6401.37
559.47	6340.51
559.64	6333.49
559.80	6228.17
559.97	6136.88
560.13	6331.15
560.30	6464.56
560.46	6429.45
560.63	6597.97
560.79	6626.06
560.96	6567.54
561.12	6253.91
561.29	6078.37
561.45	6239.87
561.61	6260.93
561.78	6333.49
561.94	6267.95
562.11	6162.63
562.27	6253.91
562.44	6317.11
562.60	6289.02
562.77	6340.51
562.93	6394.34
563.10	6349.87
563.26	6108.80
563.42	6335.83
563.59	6066.67
563.75	6073.69
563.92	6260.93
564.08	6160.29
564.24	6284.34
564.41	6239.87
564.57	6314.77
564.74	6307.74
564.90	6303.06
565.07	6328.81
565.23	5914.53
565.39	5888.79
565.56	5907.51
565.72	5839.64
565.88	5923.90
566.05	5823.25
566.21	6052.63
566.38	5975.39
566.54	6235.19
566.70	6134.54
566.87	6265.61
567.03	6188.38
567.19	6153.27
567.36	6099.44
567.52	6050.28
567.68	5891.13
567.85	5839.64
568.01	5827.93
568.17	5645.37
568.34	5544.73
568.50	5617.29
568.66	5483.88
568.83	5600.90
568.99	5701.54
569.15	5851.34
569.32	5823.25
569.48	5764.74
569.64	5504.94
569.81	5753.04
569.97	5694.52
570.13	5785.80
570.30	5430.04
570.46	5577.50
570.62	5518.98
570.78	5329.40
570.95	5383.23
571.11	5687.50
571.27	5729.63
571.43	5724.95
571.60	5523.66
571.76	5619.63
571.92	5565.79
572.09	5720.27
572.25	5703.89
572.41	5790.49
572.57	5692.18
572.74	5738.99
572.90	5753.04
573.06	5650.05
573.22	5504.94
573.38	5603.24
573.55	5657.07
573.71	5764.74
573.87	5769.42
574.03	5645.37
574.20	5488.56
574.36	5357.49
574.52	5547.07
574.68	5474.51
574.84	5392.59
575.01	5331.74
575.17	5612.60
575.33	5408.98
575.49	5654.73
575.65	5437.06
575.82	5451.11
575.98	5289.61
576.14	5561.11
576.30	5636.01
576.46	5783.46
576.62	6356.90
576.79	6267.95
576.95	6015.18
577.11	5738.99
577.27	5614.95
577.43	5741.33
577.59	5671.12
577.75	5455.79
577.92	5500.26
578.08	5486.22
578.24	5369.19
578.40	5343.44
578.56	5837.30
578.72	6071.35
578.88	6214.12
579.04	6052.63
579.21	5696.86
579.37	5636.01
579.53	5687.50
579.69	5614.95
579.85	5743.67
580.01	5640.69
580.17	5671.12
580.33	5605.58
580.49	5654.73
580.65	5753.04
580.82	5664.10
580.98	5734.31
581.14	5657.07
581.30	5790.49
581.46	5547.07
581.62	5753.04
581.78	5762.40
581.94	5769.42
582.10	5778.78
582.26	5626.65
582.42	5905.17
582.58	5830.27
582.74	5839.64
582.90	5647.71
583.06	5837.30
583.22	5832.62
583.38	5713.25
583.54	5816.23
583.70	5795.17
583.86	5722.61
584.02	5696.86
584.18	5757.72
584.34	5652.39
584.50	5664.10
584.66	5607.92
584.82	5617.29
584.98	5603.24
585.14	5668.78
585.30	5392.59
585.46	5432.38
585.62	5460.47
585.78	5392.59
585.94	5401.96
586.10	5399.62
586.26	5418.34
586.42	5678.14
586.58	5448.77
586.74	5666.44
586.90	5823.25
587.06	5846.66
587.22	5661.76
587.38	5315.36
587.54	5425.36
587.70	5090.67
587.86	4947.89
588.02	4882.36
588.18	4615.54
588.34	4449.36
588.49	4311.27
588.65	3957.85
588.81	3922.74
588.97	4030.40
589.13	3829.12
589.29	3861.88
589.45	3882.95
589.61	4030.40
589.77	4182.54
589.93	4318.29
590.08	4451.70
590.24	4484.47
590.40	4631.92
590.56	4641.28
590.72	4638.94
590.88	4538.30
591.04	4674.05
591.20	4435.32
591.35	4528.94
591.51	4468.08
591.67	4447.02
591.83	4470.42
591.99	4440.00
592.15	4615.54
592.31	4582.77
592.46	4844.91
592.62	4915.12
592.78	4793.42
592.94	4950.23
593.10	4903.42
593.26	4896.40
593.41	4910.44
593.57	4835.55
593.73	4718.52
593.89	4554.68
594.05	4334.67
594.20	4287.86
594.36	4217.65
594.52	4102.96
594.68	4224.67
594.84	4252.75
594.99	4571.07
595.15	4535.96
595.31	4568.73
595.47	4463.40
595.62	4566.39
595.78	4620.22
595.94	4690.43
596.10	4863.63
596.25	4720.86
596.41	4367.44
596.57	4339.35
596.73	4538.30
596.88	4603.83
597.04	4807.46
597.20	4711.50
597.36	4517.23
597.51	4505.53
597.67	4521.92
