SpectraSuite Data File
++++++++++++++++++++++++++++++++++++
Date: Fri Oct 04 11:44:22 GMT-05:00 2013
User: price-jones
Dark Spectrum Present: No
Reference Spectrum Present: No
Number of Sampled Component Spectra: 1
Spectrometers: USB2+H05261
Integration Time (usec): 100000 (USB2+H05261)
Spectra Averaged: 1 (USB2+H05261)
Boxcar Smoothing: 0 (USB2+H05261)
Correct for Electrical Dark: No (USB2+H05261)
Strobe/Lamp Enabled: No (USB2+H05261)
Correct for Detector Non-linearity: No (USB2+H05261)
Correct for Stray Light: No (USB2+H05261)
Number of Pixels in Processed Spectrum: 2048
>>>>>Begin Processed Spectral Data<<<<<
365.73	77.24
365.92	77.24
366.12	77.24
366.32	0.00
366.52	0.00
366.72	0.00
366.91	0.00
367.11	0.00
367.31	0.00
367.51	0.00
367.70	0.00
367.90	0.00
368.10	0.00
368.30	0.00
368.49	0.00
368.69	0.00
368.89	0.00
369.09	0.00
369.28	0.00
369.48	0.00
369.68	35.11
369.87	0.00
370.07	0.00
370.27	0.00
370.47	175.54
370.66	416.62
370.86	528.96
371.06	634.29
371.25	585.13
371.45	521.94
371.65	514.92
371.84	526.62
372.04	524.28
372.24	617.90
372.44	550.03
372.63	580.45
372.83	521.94
373.03	559.39
373.22	554.71
373.42	489.17
373.62	650.67
373.81	648.33
374.01	589.82
374.21	521.94
374.40	493.85
374.60	594.50
374.79	690.46
374.99	671.73
375.19	784.08
375.38	692.80
375.58	678.76
375.78	683.44
375.97	669.39
376.17	767.70
376.37	720.88
376.56	629.60
376.76	727.91
376.95	809.83
377.15	844.93
377.35	912.81
377.54	901.11
377.74	889.40
377.93	877.70
378.13	830.89
378.33	812.17
378.52	725.57
378.72	795.78
378.91	655.35
379.11	725.57
379.31	702.16
379.50	706.84
379.70	863.66
379.89	844.93
380.09	830.89
380.28	901.11
380.48	826.21
380.68	884.72
380.87	788.76
381.07	791.10
381.26	835.57
381.46	711.52
381.65	739.61
381.85	622.58
382.04	748.97
382.24	662.37
382.43	575.77
382.63	479.81
382.83	573.43
383.02	622.58
383.22	650.67
383.41	545.34
383.61	519.60
383.80	627.26
384.00	699.82
384.19	819.19
384.39	844.93
384.58	777.06
384.78	891.74
384.97	861.32
385.17	734.93
385.36	739.61
385.56	856.64
385.75	678.76
385.95	814.51
386.14	870.68
386.34	887.06
386.53	744.29
386.72	861.32
386.92	819.19
387.11	826.21
387.31	908.13
387.50	896.43
387.70	901.11
387.89	774.72
388.09	821.53
388.28	842.59
388.48	781.74
388.67	884.72
388.86	966.64
389.06	1046.22
389.25	1050.90
389.45	1076.65
389.64	1116.44
389.84	1167.93
390.03	1170.27
390.22	1060.26
390.42	1046.22
390.61	1228.78
390.81	1203.04
391.00	1238.14
391.19	1132.82
391.39	1128.14
391.58	1071.97
391.78	1109.41
391.97	1053.24
392.16	908.13
392.36	966.64
392.55	770.04
392.75	613.22
392.94	596.84
393.13	521.94
393.33	667.05
393.52	744.29
393.71	840.25
393.91	983.02
394.10	947.92
394.29	1167.93
394.49	1224.10
394.68	1245.16
394.88	1291.98
395.07	1317.72
395.26	1310.70
395.46	1196.01
395.65	1203.04
395.84	1109.41
396.04	1034.52
396.23	786.42
396.42	645.99
396.62	695.14
396.81	692.80
397.00	954.94
397.19	1132.82
397.39	1268.57
397.58	1425.39
397.77	1516.67
397.97	1516.67
398.16	1526.03
398.35	1600.93
398.55	1664.12
398.74	1692.21
398.93	1724.97
399.12	1753.06
399.32	1668.80
399.51	1661.78
399.70	1666.46
399.90	1673.48
400.09	1778.81
400.28	1839.66
400.47	1802.21
400.67	1886.47
400.86	1865.41
401.05	1856.04
401.24	1959.03
401.44	1944.99
401.63	1914.56
401.82	1928.60
402.01	1966.05
402.21	1928.60
402.40	1973.07
402.59	1825.62
402.78	1893.49
402.97	1664.12
403.17	1799.87
403.36	1947.33
403.55	1959.03
403.74	1935.62
403.93	1975.41
404.13	1954.35
404.32	1893.49
404.51	1891.15
404.70	1998.82
404.89	1912.22
405.09	2038.61
405.28	1839.66
405.47	1795.19
405.66	1902.86
405.85	1872.43
406.05	1795.19
406.24	1809.23
406.43	1867.75
406.62	1956.69
406.81	2008.18
407.00	1827.96
407.20	1935.62
407.39	1907.54
407.58	1982.43
407.77	1996.48
407.96	2148.61
408.15	2197.76
408.34	2172.02
408.54	2209.47
408.73	2148.61
408.92	2167.34
409.11	2193.08
409.30	2090.10
409.49	1879.45
409.68	1809.23
409.87	1699.23
410.07	1837.32
410.26	2033.93
410.45	2076.06
410.64	2087.76
410.83	2232.87
411.02	2232.87
411.21	2312.45
411.40	2303.09
411.59	2420.11
411.78	2293.72
411.98	2202.44
412.17	2251.60
412.36	2289.04
412.55	2260.96
412.74	2207.13
412.93	2195.42
413.12	2289.04
413.31	2375.64
413.50	2303.09
413.69	2502.03
413.88	2438.84
414.07	2282.02
414.26	2275.00
414.45	2427.14
414.64	2487.99
414.83	2485.65
415.02	2424.80
415.22	2455.22
415.41	2359.26
415.60	2462.24
415.79	2630.76
415.98	2738.43
416.17	2565.23
416.36	2588.63
416.55	2513.74
416.74	2459.90
416.93	2361.60
417.12	2406.07
417.31	2410.75
417.50	2480.97
417.69	2534.80
417.88	2539.48
418.07	2499.69
418.26	2483.31
418.45	2427.14
418.64	2616.72
418.83	2593.31
419.02	2614.38
419.21	2576.93
419.39	2436.50
419.58	2410.75
419.77	2319.47
419.96	2544.16
420.15	2576.93
420.34	2682.25
420.53	2796.94
420.72	2771.19
420.91	2801.62
421.10	2696.30
421.29	2780.56
421.48	2562.89
421.67	2806.30
421.86	2754.81
422.05	2457.56
422.24	2361.60
422.43	2298.41
422.61	2532.46
422.80	2710.34
422.99	2686.94
423.18	2586.29
423.37	2595.65
423.56	2504.37
423.75	2626.08
423.94	2576.93
424.13	2495.01
424.32	2541.82
424.50	2532.46
424.69	2513.74
424.88	2576.93
425.07	2590.97
425.26	2511.39
425.45	2548.84
425.64	2399.05
425.83	2403.73
426.01	2649.49
426.20	2619.06
426.39	2539.48
426.58	2370.96
426.77	2321.81
426.96	2267.98
427.15	2263.30
427.33	2518.42
427.52	2495.01
427.71	2466.92
427.90	2471.61
428.09	2370.96
428.28	2445.86
428.46	2277.34
428.65	2216.49
428.84	2270.32
429.03	2403.73
429.22	2265.64
429.40	2223.51
429.59	2043.29
429.78	1783.49
429.97	1732.00
430.16	1839.66
430.34	1823.28
430.53	1769.44
430.72	1795.19
430.91	2008.18
431.10	2314.79
431.28	2583.95
431.47	2944.39
431.66	2930.35
431.85	2747.79
432.03	2595.65
432.22	2504.37
432.41	2471.61
432.60	2649.49
432.79	2773.53
432.97	2928.01
433.16	2796.94
433.35	2661.19
433.54	2413.09
433.72	2256.28
433.91	2279.68
434.10	2565.23
434.28	2693.96
434.47	2752.47
434.66	2834.39
434.85	2736.09
435.03	2757.15
435.22	2981.84
435.41	3262.71
435.59	3323.56
435.78	3124.62
435.97	3073.12
436.16	3103.55
436.34	2951.42
436.53	2960.78
436.72	3056.74
436.90	2675.23
437.09	2832.05
437.28	2785.24
437.46	2918.65
437.65	2916.31
437.84	2710.34
438.02	2579.27
438.21	2375.64
438.40	2555.86
438.58	2642.46
438.77	2899.92
438.96	2768.85
439.14	3112.91
439.33	3117.59
439.52	2986.52
439.70	3096.53
439.89	3019.29
440.08	2787.58
440.26	2918.65
440.45	3145.68
440.63	3007.59
440.82	3215.90
441.01	3246.32
441.19	3206.53
441.38	3194.83
441.57	3407.82
441.75	3475.70
441.94	3520.17
442.12	3398.46
442.31	3463.99
442.50	3452.29
442.68	3426.54
442.87	3372.71
443.05	3351.65
443.24	3318.88
443.43	3459.31
443.61	3489.74
443.80	3599.74
443.98	3321.22
444.17	3251.00
444.35	3522.51
444.54	3627.83
444.73	3513.14
444.91	3421.86
445.10	3253.34
445.28	3138.66
445.47	3180.79
445.65	3183.13
445.84	3258.03
446.02	3269.73
446.21	3421.86
446.39	3337.60
446.58	3414.84
446.77	3499.10
446.95	3407.82
447.14	3674.64
447.32	3679.32
447.51	3552.93
447.69	3433.57
447.88	3393.78
448.06	3440.59
448.25	3480.38
448.43	3536.55
448.62	3361.01
448.80	3386.76
448.99	3473.36
449.17	3552.93
449.36	3566.98
449.54	3808.05
449.73	3632.51
449.91	3723.79
450.10	3817.41
450.28	3843.16
450.46	3864.22
450.65	3824.44
450.83	3840.82
451.02	3894.65
451.20	3768.26
451.39	3726.13
451.57	3571.66
451.76	3625.49
451.94	3597.40
452.13	3714.43
452.31	3365.69
452.49	3403.14
452.68	3335.26
452.86	3253.34
453.05	3321.22
453.23	3501.44
453.42	3520.17
453.60	3583.36
453.78	3599.74
453.97	3562.30
454.15	3658.26
454.34	3597.40
454.52	3597.40
454.70	3562.30
454.89	3676.98
455.07	3641.87
455.26	3655.92
455.44	3850.18
455.62	3838.48
455.81	3904.01
455.99	3833.80
456.17	3852.52
456.36	3779.97
456.54	3782.31
456.73	3904.01
456.91	3913.38
457.09	4060.83
457.28	3971.89
457.46	3833.80
457.64	3875.93
457.83	3707.41
458.01	3604.42
458.19	3744.86
458.38	3808.05
458.56	4035.08
458.74	3779.97
458.93	3864.22
459.11	3747.20
459.29	3822.09
459.48	3838.48
459.66	3852.52
459.84	3716.77
460.03	4025.72
460.21	3728.47
460.39	3939.12
460.57	4037.42
460.76	3885.29
460.94	3880.61
461.12	3939.12
461.31	3950.82
461.49	3967.21
461.67	3920.40
461.85	4016.36
462.04	3967.21
462.22	4465.74
462.40	4079.55
462.59	3990.61
462.77	4044.45
462.95	4093.60
463.13	3964.87
463.32	3999.98
463.50	3967.21
463.68	3904.01
463.86	3892.31
464.05	3927.42
464.23	3831.46
464.41	3808.05
464.59	3744.86
464.78	3920.40
464.96	3758.90
465.14	3819.75
465.32	3948.48
465.50	4002.32
465.69	3999.98
465.87	4091.26
466.05	3875.93
466.23	3660.60
466.41	3646.55
466.60	3730.81
466.78	3878.27
466.96	3709.75
467.14	3922.74
467.32	3967.21
467.51	3915.72
467.69	3681.66
467.87	3688.68
468.05	3908.69
468.23	3819.75
468.41	3960.19
468.60	3880.61
468.78	3817.41
468.96	3840.82
469.14	3859.54
469.32	3861.88
469.50	3817.41
469.69	3798.69
469.87	3770.60
470.05	3847.84
470.23	3822.09
470.41	3674.64
470.59	3723.79
470.77	3894.65
470.95	3873.59
471.14	4016.36
471.32	3880.61
471.50	4227.01
471.68	4107.64
471.86	4145.09
472.04	4236.37
472.22	4325.31
472.40	4016.36
472.58	4011.68
472.77	3819.75
472.95	4091.26
473.13	4187.22
473.31	4004.66
473.49	3971.89
473.67	4011.68
473.85	4060.83
474.03	4166.15
474.21	4219.99
474.39	4332.33
474.57	4348.72
474.75	4304.25
474.93	4241.05
475.12	4072.53
475.30	4170.83
475.48	4236.37
475.66	4315.95
475.84	4255.09
476.02	4262.12
476.20	4002.32
476.38	4208.28
476.56	4372.12
476.74	4362.76
476.92	4404.89
477.10	4353.40
477.28	4498.51
477.46	4554.68
477.64	4542.98
477.82	4704.48
478.00	4533.62
478.18	4479.79
478.36	4615.54
478.54	4552.34
478.72	4657.67
478.90	4709.16
479.08	4814.48
479.26	4781.71
479.44	4786.40
479.62	4697.46
479.80	4882.36
479.98	4898.74
480.16	4840.23
480.34	4903.42
480.52	4950.23
480.70	4933.85
480.88	4809.80
481.06	5163.22
481.24	5111.73
481.41	5210.03
481.59	5423.02
481.77	5273.23
481.95	5081.30
482.13	5111.73
482.31	5186.63
482.49	5011.09
482.67	5280.25
482.85	5224.08
483.03	5369.19
483.21	5385.57
483.39	5441.75
483.57	5203.01
483.74	5291.95
483.92	5301.31
484.10	5247.48
484.28	5551.75
484.46	5561.11
484.64	5500.26
484.82	5303.65
485.00	5458.13
485.18	5331.74
485.35	5193.65
485.53	4842.57
485.71	4440.00
485.89	4257.43
486.07	4498.51
486.25	4856.61
486.43	5200.67
486.61	5210.03
486.78	5327.06
486.96	5158.54
487.14	5406.64
487.32	5682.82
487.50	5764.74
487.68	5785.80
487.85	5975.39
488.03	6008.16
488.21	5940.28
488.39	5785.80
488.57	5769.42
488.75	5607.92
488.92	6038.58
489.10	6125.18
489.28	6216.46
489.46	6527.75
489.64	6464.56
489.81	6457.54
489.99	6380.30
490.17	6527.75
490.35	6504.35
490.53	6436.47
490.70	6333.49
490.88	6438.81
491.06	6445.84
491.24	6586.27
491.41	6469.24
491.59	6085.39
491.77	5928.58
491.95	6092.41
492.13	6375.62
492.30	6574.56
492.48	6640.10
492.66	6848.41
492.84	6794.58
493.01	6642.44
493.19	6595.63
493.37	6691.59
493.54	6420.09
493.72	6759.47
493.90	6813.30
494.08	6984.16
494.25	7225.23
494.43	7220.55
494.61	7492.05
494.79	7248.64
494.96	7133.95
495.14	7143.32
495.32	6986.50
495.49	6724.36
495.67	6956.07
495.85	7204.17
496.02	7356.30
496.20	7501.42
496.38	7335.24
496.55	7386.73
496.73	7307.15
496.91	7358.64
497.09	7473.33
497.26	7651.21
497.44	7398.43
497.62	7363.33
497.79	7398.43
497.97	7082.46
498.14	7002.88
498.32	7314.17
498.50	7274.38
498.67	7447.58
498.85	7435.88
499.03	7562.27
499.20	7620.78
499.38	7543.55
499.56	7403.11
499.73	7461.63
499.91	7433.54
500.08	7239.28
500.26	7119.91
500.44	7070.76
500.61	7204.17
500.79	7377.37
500.97	7035.65
501.14	7068.42
501.32	6965.43
501.49	7098.84
501.67	7178.42
501.84	7302.47
502.02	7215.87
502.20	7372.69
502.37	7302.47
502.55	7272.04
502.72	7414.82
502.90	7667.60
503.07	7461.63
503.25	7243.96
503.43	6958.41
503.60	6722.02
503.78	6616.69
503.95	6635.42
504.13	7056.72
504.30	7433.54
504.48	7480.35
504.65	7293.11
504.83	7712.07
505.01	7428.86
505.18	7765.90
505.36	7616.10
505.53	7662.91
505.71	7747.17
505.88	7911.01
506.06	7747.17
506.23	7733.13
506.41	7564.61
506.58	7473.33
506.76	7660.57
506.93	7391.41
507.11	7438.22
507.28	7576.31
507.46	7445.24
507.63	7349.28
507.81	7178.42
507.98	7424.18
508.16	7599.72
508.33	7597.38
508.50	7777.60
508.68	7880.58
508.85	7915.69
509.03	8067.83
509.20	8030.38
509.38	7885.26
509.55	7667.60
509.73	7541.21
509.90	7812.71
510.08	7946.12
510.25	7915.69
510.42	7686.32
510.60	7925.05
510.77	7793.98
510.95	8201.24
511.12	8053.78
511.30	8084.21
511.47	8121.66
511.64	8379.12
511.82	8161.45
511.99	7901.65
512.17	7756.54
512.34	7850.16
512.51	7798.66
512.69	7903.99
512.86	7791.64
513.04	7915.69
513.21	8112.30
513.38	7864.20
513.56	7803.35
513.73	7550.57
513.90	7520.14
514.08	7683.98
514.25	7728.45
514.43	7793.98
514.60	7756.54
514.77	7997.61
514.95	7934.42
515.12	7817.39
515.29	7936.76
515.47	8056.12
515.64	8243.37
515.81	7997.61
515.99	7878.24
516.16	7641.85
516.33	7269.70
516.51	6504.35
516.68	6487.96
516.85	6291.36
517.03	6380.30
517.20	7000.54
517.37	7531.84
517.54	7768.24
517.72	7761.22
517.89	7349.28
518.06	6511.37
518.24	6656.48
518.41	7035.65
518.58	7461.63
518.75	7559.93
518.93	7634.83
519.10	7569.29
519.27	7911.01
519.45	7756.54
519.62	8093.57
519.79	8212.94
519.96	7932.08
520.14	7953.14
520.31	7758.88
520.48	7655.89
520.65	7838.45
520.83	8025.70
521.00	8131.02
521.17	7974.21
521.34	7803.35
521.52	8011.65
521.69	8243.37
521.86	8243.37
522.03	8154.43
522.20	7983.57
522.38	7438.22
522.55	7676.96
522.72	7602.06
522.89	7595.04
523.07	7950.80
523.24	7861.86
523.41	8023.36
523.58	8376.78
523.75	8369.76
523.92	8175.49
524.10	8381.46
524.27	8472.74
524.44	8093.57
524.61	8308.90
524.78	8238.69
524.96	8184.85
525.13	8084.21
525.30	8135.70
525.47	8383.80
525.64	8315.92
525.81	8198.90
525.98	7688.66
526.16	7681.64
526.33	7358.64
526.50	7262.68
526.67	7042.67
526.84	6895.22
527.01	7304.81
527.18	7470.99
527.36	7871.22
527.53	7957.82
527.70	8376.78
527.87	7955.48
528.04	7964.84
528.21	7995.27
528.38	8250.39
528.55	8425.93
528.72	8681.05
528.89	8521.89
529.07	8674.03
529.24	8360.39
529.41	8182.51
529.58	7978.89
529.75	7941.44
529.92	8152.09
530.09	8236.35
530.26	8358.05
530.43	8512.53
530.60	8545.30
530.77	8489.12
530.94	8514.87
531.11	8437.63
531.28	8362.73
531.46	8423.59
531.63	8512.53
531.80	8407.20
531.97	8229.32
532.14	7903.99
532.31	7581.00
532.48	7625.47
532.65	7365.67
532.82	7581.00
532.99	8035.06
533.16	8145.06
533.33	8320.60
533.50	8313.58
533.67	8102.93
533.84	7817.39
534.01	8095.91
534.18	8367.42
534.35	8355.71
534.52	8009.31
534.69	8374.44
534.86	8252.73
535.03	8280.82
535.20	8454.02
535.37	8437.63
535.54	8758.28
535.71	8484.44
535.88	8336.99
536.05	8109.96
536.22	8184.85
536.38	8156.77
536.55	7871.22
536.72	7953.14
536.89	7590.36
537.06	7913.35
537.23	8290.18
537.40	8219.96
537.57	8278.47
537.74	8198.90
537.91	8390.82
538.08	8238.69
538.25	8292.52
538.42	8238.69
538.59	8252.73
538.75	8266.77
538.92	8191.88
539.09	8208.26
539.26	8004.63
539.43	8018.68
539.60	7864.20
539.77	7840.79
539.94	7995.27
540.11	7712.07
540.28	7581.00
540.44	7782.28
540.61	7604.40
540.78	7712.07
540.95	7850.16
541.12	8060.80
541.29	8006.97
541.46	8070.17
541.62	8376.78
541.79	8091.23
541.96	8030.38
542.13	7950.80
542.30	8016.33
542.47	8360.39
542.63	8126.34
542.80	8147.40
542.97	8196.56
543.14	8077.19
543.31	8105.28
543.48	8138.04
543.64	8259.75
543.81	8444.65
543.98	8566.36
544.15	8322.94
544.32	8116.98
544.48	7983.57
544.65	8142.72
544.82	8353.37
544.99	8252.73
545.16	8198.90
545.32	8112.30
545.49	8528.91
545.66	8758.28
545.83	8674.03
546.00	8617.85
546.16	8219.96
546.33	8128.68
546.50	8037.40
546.67	8135.70
546.83	8081.87
547.00	8091.23
547.17	7873.56
547.34	7913.35
547.50	7786.96
547.67	7866.54
547.84	7852.50
548.00	7836.11
548.17	8238.69
548.34	8212.94
548.51	8135.70
548.67	8072.51
548.84	7974.21
549.01	8189.53
549.18	8145.06
549.34	7864.20
549.51	8091.23
549.68	7908.67
549.84	8028.04
550.01	7892.29
550.18	8025.70
550.34	8025.70
550.51	7747.17
550.68	8018.68
550.84	7861.86
551.01	7868.88
551.18	7845.48
551.34	7676.96
551.51	8241.03
551.68	8025.70
551.84	8161.45
552.01	8098.25
552.18	8105.28
552.34	7934.42
552.51	7583.34
552.68	7407.80
552.84	7763.56
553.01	7812.71
553.18	7817.39
553.34	7861.86
553.51	7826.75
553.67	8006.97
553.84	8065.49
554.01	7981.23
554.17	7747.17
554.34	7796.32
554.51	7613.76
554.67	8102.93
554.84	8039.74
555.00	8021.02
555.17	7889.95
555.33	7885.26
555.50	7721.43
555.67	7698.02
555.83	7726.11
556.00	7564.61
556.16	7850.16
556.33	7396.09
556.50	7564.61
556.66	7573.97
556.83	7517.80
556.99	7527.16
557.16	7602.06
557.32	7456.95
557.49	7714.41
557.65	7667.60
557.82	7524.82
557.98	7796.32
558.15	7616.10
558.32	7503.76
558.48	7138.63
558.65	7070.76
558.81	7255.66
558.98	7199.49
559.14	7241.62
559.31	7145.66
559.47	7321.20
559.64	7365.67
559.80	7220.55
559.97	7171.40
560.13	7412.48
560.30	7517.80
560.46	7597.38
560.63	7705.04
560.79	7672.28
560.96	7536.52
561.12	7475.67
561.29	7269.70
561.45	7192.47
561.61	7222.89
561.78	7461.63
561.94	7454.61
562.11	7276.73
562.27	7302.47
562.44	7356.30
562.60	7435.88
562.77	7461.63
562.93	7588.02
563.10	7482.69
563.26	7335.24
563.42	7433.54
563.59	7344.60
563.75	7162.04
563.92	7372.69
564.08	7342.26
564.24	7356.30
564.41	7435.88
564.57	7412.48
564.74	7421.84
564.90	7321.20
565.07	7290.77
565.23	7133.95
565.39	7054.37
565.56	6944.37
565.72	6832.02
565.88	6977.14
566.05	6923.30
566.21	6883.52
566.38	7037.99
566.54	7019.27
566.70	7162.04
566.87	7353.96
567.03	7431.20
567.19	7258.00
567.36	7162.04
567.52	7030.97
567.68	7016.93
567.85	6923.30
568.01	6766.49
568.17	6595.63
568.34	6572.22
568.50	6640.10
568.66	6518.39
568.83	6757.13
568.99	6654.14
569.15	6668.19
569.32	6752.45
569.48	6656.48
569.64	6516.05
569.81	6633.08
569.97	6644.78
570.13	6597.97
570.30	6682.23
570.46	6616.69
570.62	6471.58
570.78	6483.28
570.95	6462.22
571.11	6530.09
571.27	6476.26
571.43	6649.46
571.60	6682.23
571.76	6670.53
571.92	6602.65
572.09	6789.89
572.25	6633.08
572.41	6609.67
572.57	6719.68
572.74	6736.06
572.90	6693.93
573.06	6686.91
573.22	6612.01
573.38	6677.55
573.55	6574.56
573.71	6806.28
573.87	6548.82
574.03	6483.28
574.20	6565.20
574.36	6548.82
574.52	6406.05
574.68	6506.69
574.84	6431.79
575.01	6277.32
575.17	6384.98
575.33	6373.28
575.49	6609.67
575.65	6396.68
575.82	6335.83
575.98	6223.48
576.14	6377.96
576.30	6274.98
576.46	6544.14
576.62	6565.20
576.79	6782.87
576.95	6490.31
577.11	6403.71
577.27	6469.24
577.43	6384.98
577.59	6296.04
577.75	6363.92
577.92	6141.57
578.08	6218.80
578.24	6193.06
578.40	6392.00
578.56	6370.94
578.72	6406.05
578.88	6595.63
579.04	6485.62
579.21	6427.11
579.37	6286.68
579.53	6644.78
579.69	6534.78
579.85	6497.33
580.01	6471.58
580.17	6525.41
580.33	6581.59
580.49	6373.28
580.65	6466.90
580.82	6445.84
580.98	6462.22
581.14	6424.77
581.30	6576.91
581.46	6480.94
581.62	6516.05
581.78	6539.46
581.94	6604.99
582.10	6558.18
582.26	6738.40
582.42	6511.37
582.58	6546.48
582.74	6691.59
582.90	6586.27
583.06	6663.51
583.22	6544.14
583.38	6469.24
583.54	6403.71
583.70	6389.66
583.86	6736.06
584.02	6513.71
584.18	6696.27
584.34	6525.41
584.50	6609.67
584.66	6431.79
584.82	6399.02
584.98	6232.85
585.14	6279.66
585.30	6136.88
585.46	6176.67
585.62	5994.11
585.78	6174.33
585.94	6181.35
586.10	5951.98
586.26	6017.52
586.42	6263.27
586.58	6284.34
586.74	6146.25
586.90	6279.66
587.06	6267.95
587.22	5975.39
587.38	5823.25
587.54	5961.34
587.70	5757.72
587.86	5451.11
588.02	5362.17
588.18	5350.46
588.34	5172.58
588.49	4819.16
588.65	4486.81
588.81	4407.23
588.97	4418.93
589.13	4369.78
589.29	4428.29
589.45	4561.70
589.61	4395.53
589.77	4601.49
589.93	4868.31
590.08	5018.11
590.24	5015.77
590.40	5263.86
590.56	5270.89
590.72	5327.06
590.88	5025.13
591.04	5200.67
591.20	5256.84
591.35	5088.32
591.51	5039.17
591.67	4959.60
591.83	4882.36
591.99	4765.33
592.15	5036.83
592.31	5156.20
592.46	5313.02
592.62	5301.31
592.78	5385.57
592.94	5338.76
593.10	5439.40
593.26	5488.56
593.41	5624.31
593.57	5544.73
593.73	5308.34
593.89	5114.07
594.05	5015.77
594.20	4748.95
594.36	4662.35
594.52	4592.13
594.68	4777.03
594.84	4978.32
594.99	5195.99
595.15	5247.48
595.31	5217.05
595.47	5280.25
595.62	5336.42
595.78	5338.76
595.94	5310.68
596.10	5612.60
596.25	5472.17
596.41	5055.56
596.57	5078.96
596.73	5172.58
596.88	5240.46
597.04	5404.30
597.20	5291.95
597.36	5205.35
597.51	5130.45
