SpectraSuite Data File
++++++++++++++++++++++++++++++++++++
Date: Fri Oct 04 11:44:16 GMT-05:00 2013
User: price-jones
Dark Spectrum Present: No
Reference Spectrum Present: No
Number of Sampled Component Spectra: 1
Spectrometers: USB2+H05261
Integration Time (usec): 100000 (USB2+H05261)
Spectra Averaged: 1 (USB2+H05261)
Boxcar Smoothing: 0 (USB2+H05261)
Correct for Electrical Dark: No (USB2+H05261)
Strobe/Lamp Enabled: No (USB2+H05261)
Correct for Detector Non-linearity: No (USB2+H05261)
Correct for Stray Light: No (USB2+H05261)
Number of Pixels in Processed Spectrum: 2048
>>>>>Begin Processed Spectral Data<<<<<
365.73	46.81
365.92	46.81
366.12	46.81
366.32	0.00
366.52	0.00
366.72	0.00
366.91	0.00
367.11	0.00
367.31	0.00
367.51	0.00
367.70	0.00
367.90	0.00
368.10	0.00
368.30	0.00
368.49	0.00
368.69	0.00
368.89	0.00
369.09	0.00
369.28	0.00
369.48	0.00
369.68	0.00
369.87	32.77
370.07	0.00
370.27	0.00
370.47	131.07
370.66	458.74
370.86	540.66
371.06	615.56
371.25	573.43
371.45	540.66
371.65	578.11
371.84	521.94
372.04	496.19
372.24	601.52
372.44	631.94
372.63	627.26
372.83	599.18
373.03	491.51
373.22	435.34
373.42	479.81
373.62	631.94
373.81	568.75
374.01	678.76
374.21	601.52
374.40	531.30
374.60	631.94
374.79	641.31
374.99	711.52
375.19	770.04
375.38	732.59
375.58	709.18
375.78	770.04
375.97	657.69
376.17	753.65
376.37	697.48
376.56	781.74
376.76	763.01
376.95	847.27
377.15	903.45
377.35	917.49
377.54	882.38
377.74	884.72
377.93	912.81
378.13	901.11
378.33	823.87
378.52	798.12
378.72	835.57
378.91	748.97
379.11	758.33
379.31	723.23
379.50	725.57
379.70	770.04
379.89	882.38
380.09	884.72
380.28	884.72
380.48	957.28
380.68	774.72
380.87	763.01
381.07	830.89
381.26	786.42
381.46	678.76
381.65	704.50
381.85	706.84
382.04	711.52
382.24	777.06
382.43	655.35
382.63	603.86
382.83	491.51
383.02	587.47
383.22	550.03
383.41	615.56
383.61	671.73
383.80	699.82
384.00	805.14
384.19	833.23
384.39	882.38
384.58	887.06
384.78	877.70
384.97	833.23
385.17	793.44
385.36	777.06
385.56	690.46
385.75	702.16
385.95	786.42
386.14	912.81
386.34	940.90
386.53	844.93
386.72	765.36
386.92	945.58
387.11	924.51
387.31	940.90
387.50	795.78
387.70	905.79
387.89	847.27
388.09	765.36
388.28	807.48
388.48	826.21
388.67	985.37
388.86	973.66
389.06	947.92
389.25	1102.39
389.45	1064.94
389.64	1097.71
389.84	1088.35
390.03	1149.20
390.22	1064.94
390.42	1196.01
390.61	1116.44
390.81	1167.93
391.00	1268.57
391.19	1212.40
391.39	1261.55
391.58	1198.35
391.78	1181.97
391.97	1205.38
392.16	933.87
392.36	985.37
392.55	835.57
392.75	674.07
392.94	573.43
393.13	552.37
393.33	571.09
393.52	725.57
393.71	903.45
393.91	917.49
394.10	1046.22
394.29	1149.20
394.49	1181.97
394.68	1322.40
394.88	1338.79
395.07	1448.79
395.26	1350.49
395.46	1291.98
395.65	1310.70
395.84	1100.05
396.04	1006.43
396.23	889.40
396.42	660.03
396.62	732.59
396.81	807.48
397.00	950.26
397.19	1170.27
397.39	1348.15
397.58	1432.41
397.77	1490.92
397.97	1514.33
398.16	1561.14
398.35	1671.14
398.55	1547.09
398.74	1729.66
398.93	1884.13
399.12	1750.72
399.32	1832.64
399.51	1774.13
399.70	1856.04
399.90	1785.83
400.09	1795.19
400.28	1844.34
400.47	1846.68
400.67	1863.07
400.86	1982.43
401.05	2017.54
401.24	1949.67
401.44	1935.62
401.63	2076.06
401.82	2083.08
402.01	1982.43
402.21	1944.99
402.40	2054.99
402.59	1863.07
402.78	1921.58
402.97	1820.94
403.17	1898.17
403.36	1935.62
403.55	2012.86
403.74	2108.82
403.93	2080.74
404.13	2019.88
404.32	2024.56
404.51	1989.46
404.70	1975.41
404.89	1956.69
405.09	2071.37
405.28	2019.88
405.47	1949.67
405.66	1984.77
405.85	1952.01
406.05	1907.54
406.24	1888.81
406.43	1914.56
406.62	1923.92
406.81	2066.69
407.00	1956.69
407.20	2026.90
407.39	1933.28
407.58	2115.84
407.77	2029.24
407.96	2165.00
408.15	2153.29
408.34	2186.06
408.54	2251.60
408.73	2305.43
408.92	2256.28
409.11	2293.72
409.30	2139.25
409.49	1959.03
409.68	1804.55
409.87	1811.57
410.07	2047.97
410.26	2073.71
410.45	2092.44
410.64	2225.85
410.83	2204.78
411.02	2317.13
411.21	2399.05
411.40	2478.63
411.59	2338.20
411.78	2410.75
411.98	2300.75
412.17	2349.90
412.36	2258.62
412.55	2244.57
412.74	2328.83
412.93	2338.20
413.12	2291.38
413.31	2450.54
413.50	2394.37
413.69	2450.54
413.88	2455.22
414.07	2392.03
414.26	2387.35
414.45	2387.35
414.64	2354.58
414.83	2441.18
415.02	2485.65
415.22	2434.16
415.41	2480.97
415.60	2588.63
415.79	2640.12
415.98	2818.00
416.17	2710.34
416.36	2605.02
416.55	2682.25
416.74	2569.91
416.93	2363.94
417.12	2487.99
417.31	2380.32
417.50	2530.12
417.69	2579.27
417.88	2668.21
418.07	2464.58
418.26	2511.39
418.45	2520.76
418.64	2738.43
418.83	2686.94
419.02	2637.78
419.21	2677.57
419.39	2438.84
419.58	2420.11
419.77	2499.69
419.96	2539.48
420.15	2789.92
420.34	2726.72
420.53	2726.72
420.72	2986.52
420.91	2813.32
421.10	2850.77
421.29	2750.13
421.48	2651.83
421.67	2841.41
421.86	2825.03
422.05	2590.97
422.24	2235.21
422.43	2370.96
422.61	2483.31
422.80	2684.59
422.99	2588.63
423.18	2789.92
423.37	2700.98
423.56	2635.44
423.75	2630.76
423.94	2619.06
424.13	2633.10
424.32	2567.57
424.50	2546.50
424.69	2492.67
424.88	2588.63
425.07	2541.82
425.26	2473.95
425.45	2408.41
425.64	2455.22
425.83	2516.08
426.01	2551.18
426.20	2794.60
426.39	2607.36
426.58	2459.90
426.77	2377.98
426.96	2342.88
427.15	2275.00
427.33	2628.42
427.52	2602.68
427.71	2471.61
427.90	2518.42
428.09	2541.82
428.28	2431.82
428.46	2452.88
428.65	2335.85
428.84	2476.29
429.03	2583.95
429.22	2272.66
429.40	2258.62
429.59	2113.50
429.78	1907.54
429.97	1771.79
430.16	1905.20
430.34	1844.34
430.53	2001.16
430.72	1942.64
430.91	2099.46
431.10	2361.60
431.28	2764.17
431.47	2967.80
431.66	3063.76
431.85	2780.56
432.03	2649.49
432.22	2588.63
432.41	2551.18
432.60	2839.07
432.79	2857.79
432.97	2991.20
433.16	2897.58
433.35	2689.28
433.54	2431.82
433.72	2434.16
433.91	2377.98
434.10	2609.70
434.28	2684.59
434.47	2902.26
434.66	2904.60
434.85	2818.00
435.03	2953.76
435.22	3091.85
435.41	3581.02
435.59	3578.68
435.78	3349.31
435.97	3199.51
436.16	3243.98
436.34	3035.67
436.53	3061.42
436.72	3138.66
436.90	2946.73
437.09	2998.23
437.28	2731.41
437.46	2984.18
437.65	2909.29
437.84	2766.51
438.02	2612.04
438.21	2448.20
438.40	2644.81
438.58	2787.58
438.77	2967.80
438.96	2888.22
439.14	3019.29
439.33	3173.77
439.52	3173.77
439.70	3192.49
439.89	3019.29
440.08	3030.99
440.26	2892.90
440.45	3059.08
440.63	3286.11
440.82	3372.71
441.01	3356.33
441.19	3283.77
441.38	3351.65
441.57	3588.04
441.75	3501.44
441.94	3428.88
442.12	3510.80
442.31	3447.61
442.50	3461.65
442.68	3368.03
442.87	3468.67
443.05	3396.12
443.24	3389.10
443.43	3435.91
443.61	3623.15
443.80	3684.00
443.98	3428.88
444.17	3473.36
444.35	3564.64
444.54	3740.18
444.73	3574.00
444.91	3515.48
445.10	3379.73
445.28	3328.24
445.47	3124.62
445.65	3236.96
445.84	3293.13
446.02	3307.18
446.21	3368.03
446.39	3342.28
446.58	3461.65
446.77	3393.78
446.95	3574.00
447.14	3735.50
447.32	3775.28
447.51	3653.58
447.69	3531.87
447.88	3522.51
448.06	3571.66
448.25	3541.23
448.43	3698.05
448.62	3620.81
448.80	3508.46
448.99	3609.11
449.17	3604.42
449.36	3515.48
449.54	3831.46
449.73	3819.75
449.91	3756.56
450.10	3889.97
450.28	3906.35
450.46	4060.83
450.65	3999.98
450.83	3976.57
451.02	3803.37
451.20	3794.01
451.39	3810.39
451.57	3726.13
451.76	3782.31
451.94	3873.59
452.13	3854.86
452.31	3503.78
452.49	3452.29
452.68	3377.39
452.86	3440.59
453.05	3449.95
453.23	3592.72
453.42	3602.08
453.60	3644.21
453.78	3831.46
453.97	3712.09
454.15	3648.90
454.34	3768.26
454.52	3630.17
454.70	3740.18
454.89	3639.53
455.07	3634.85
455.26	3740.18
455.44	3873.59
455.62	3871.25
455.81	3812.73
455.99	3896.99
456.17	3868.91
456.36	3894.65
456.54	3964.87
456.73	3838.48
456.91	3981.25
457.09	4025.72
457.28	4070.19
457.46	3901.67
457.64	4007.00
457.83	3794.01
458.01	3726.13
458.19	3864.22
458.38	3786.99
458.56	3882.95
458.74	3873.59
458.93	3885.29
459.11	3918.06
459.29	3737.84
459.48	3843.16
459.66	3847.84
459.84	3829.12
460.03	3992.95
460.21	3908.69
460.39	3971.89
460.57	3974.23
460.76	3995.29
460.94	3922.74
461.12	3920.40
461.31	4042.11
461.49	4058.49
461.67	3899.33
461.85	4145.09
462.04	4049.13
462.22	4376.80
462.40	4222.33
462.59	4212.96
462.77	3971.89
462.95	3981.25
463.13	3929.76
463.32	4056.15
463.50	4035.08
463.68	3836.14
463.86	4142.75
464.05	3859.54
464.23	3880.61
464.41	3990.61
464.59	3758.90
464.78	3985.93
464.96	3894.65
465.14	3880.61
465.32	3885.29
465.50	4028.06
465.69	4124.02
465.87	3995.29
466.05	3929.76
466.23	3808.05
466.41	3779.97
466.60	3688.68
466.78	3812.73
466.96	3796.35
467.14	3871.25
467.32	3901.67
467.51	4051.47
467.69	3854.86
467.87	3920.40
468.05	3960.19
468.23	3953.16
468.41	4025.72
468.60	3913.38
468.78	4067.85
468.96	3995.29
469.14	3922.74
469.32	3988.27
469.50	3911.04
469.69	3995.29
469.87	3786.99
470.05	3803.37
470.23	3871.25
470.41	3908.69
470.59	3829.12
470.77	3850.18
470.95	3873.59
471.14	4166.15
471.32	3840.82
471.50	4100.62
471.68	4210.62
471.86	4234.03
472.04	4219.99
472.22	4379.14
472.40	4051.47
472.58	4037.42
472.77	3908.69
472.95	4145.09
473.13	4196.58
473.31	4093.60
473.49	3936.78
473.67	4121.68
473.85	4362.76
474.03	4222.33
474.21	4287.86
474.39	4379.14
474.57	4542.98
474.75	4449.36
474.93	4318.29
475.12	4234.03
475.30	4278.50
475.48	4327.65
475.66	4273.82
475.84	4257.43
476.02	4255.09
476.20	4189.56
476.38	4250.41
476.56	4461.06
476.74	4512.55
476.92	4545.32
477.10	4564.04
477.28	4594.47
477.46	4685.75
477.64	4835.55
477.82	4657.67
478.00	4784.06
478.18	4676.39
478.36	4510.21
478.54	4634.26
478.72	4678.73
478.90	4753.63
479.08	4765.33
479.26	5069.60
479.44	4957.25
479.62	4889.38
479.80	4753.63
479.98	5020.45
480.16	4959.60
480.34	4931.51
480.52	5097.69
480.70	5172.58
480.88	4983.00
481.06	5245.14
481.24	5240.46
481.41	5142.16
481.59	5322.38
481.77	5280.25
481.95	5266.21
482.13	5165.56
482.31	5441.75
482.49	5448.77
482.67	5231.10
482.85	5320.04
483.03	5350.46
483.21	5542.39
483.39	5453.45
483.57	5245.14
483.74	5392.59
483.92	5320.04
484.10	5397.28
484.28	5486.22
484.46	5621.97
484.64	5750.70
484.82	5603.24
485.00	5521.32
485.18	5317.70
485.35	5277.91
485.53	4856.61
485.71	4374.46
485.89	4369.78
486.07	4531.28
486.25	4875.34
486.43	5284.93
486.61	5434.72
486.78	5273.23
486.96	5369.19
487.14	5626.65
487.32	5806.87
487.50	5977.73
487.68	5870.06
487.85	6141.57
488.03	6104.12
488.21	6022.20
488.39	5764.74
488.57	5954.32
488.75	5790.49
488.92	6078.37
489.10	6118.16
489.28	6445.84
489.46	6647.12
489.64	6551.16
489.81	6485.62
489.99	6504.35
490.17	6679.89
490.35	6623.72
490.53	6551.16
490.70	6436.47
490.88	6499.67
491.06	6614.35
491.24	6518.39
491.41	6370.94
491.59	6300.72
491.77	5973.05
491.95	6207.10
492.13	6424.77
492.30	6562.86
492.48	6890.54
492.66	7023.95
492.84	6839.05
493.01	6949.05
493.19	6808.62
493.37	6722.02
493.54	6738.40
493.72	6759.47
493.90	7002.88
494.08	7056.72
494.25	7405.46
494.43	7356.30
494.61	7602.06
494.79	7459.29
494.96	7304.81
495.14	7375.03
495.32	7068.42
495.49	6785.21
495.67	6925.65
495.85	7421.84
496.02	7410.14
496.20	7492.05
496.38	7206.51
496.55	7185.44
496.73	7424.18
496.91	7618.44
497.09	7833.77
497.26	7679.30
497.44	7445.24
497.62	7513.12
497.79	7288.43
497.97	6792.23
498.14	7009.90
498.32	7248.64
498.50	7311.83
498.67	7646.53
498.85	7634.83
499.03	7676.96
499.20	7541.21
499.38	7571.63
499.56	7522.48
499.73	7503.76
499.91	7323.54
500.08	7349.28
500.26	6909.26
500.44	7133.95
500.61	7246.30
500.79	7272.04
500.97	6986.50
501.14	7122.25
501.32	6974.80
501.49	7143.32
501.67	7108.21
501.84	7133.95
502.02	7302.47
502.20	7375.03
502.37	7398.43
502.55	7529.50
502.72	7503.76
502.90	7435.88
503.07	7405.46
503.25	7304.81
503.43	7054.37
503.60	6895.22
503.78	6621.38
503.95	6642.44
504.13	7021.61
504.30	7342.26
504.48	7548.23
504.65	7536.52
504.83	7449.93
505.01	7541.21
505.18	7716.75
505.36	7864.20
505.53	7667.60
505.71	7693.34
505.88	7901.65
506.06	7840.79
506.23	7707.38
506.41	7421.84
506.58	7475.67
506.76	7616.10
506.93	7581.00
507.11	7438.22
507.28	7454.61
507.46	7513.12
507.63	7232.26
507.81	7414.82
507.98	7435.88
508.16	7513.12
508.33	7702.70
508.50	7850.16
508.68	7793.98
508.85	8018.68
509.03	7943.78
509.20	7967.18
509.38	7894.63
509.55	7730.79
509.73	7595.04
509.90	7854.84
510.08	7990.59
510.25	7866.54
510.42	7667.60
510.60	7908.67
510.77	7985.91
510.95	8018.68
511.12	8107.62
511.30	8243.37
511.47	8439.97
511.64	8557.00
511.82	8376.78
511.99	7988.25
512.17	7784.62
512.34	7651.21
512.51	7756.54
512.69	7744.83
512.86	8011.65
513.04	8004.63
513.21	8098.25
513.38	7737.81
513.56	7808.03
513.73	7644.19
513.90	7709.72
514.08	7721.43
514.25	7782.28
514.43	7691.00
514.60	7868.88
514.77	7941.44
514.95	8021.02
515.12	7810.37
515.29	7899.31
515.47	7915.69
515.64	8280.82
515.81	7847.82
515.99	7889.95
516.16	7733.13
516.33	6867.13
516.51	6492.65
516.68	6581.59
516.85	6527.75
517.03	6420.09
517.20	7033.31
517.37	7492.05
517.54	7911.01
517.72	7707.38
517.89	7049.69
518.06	6693.93
518.24	6796.92
518.41	7157.36
518.58	7590.36
518.75	7578.65
518.93	7728.45
519.10	7386.73
519.27	7791.64
519.45	7878.24
519.62	7913.35
519.79	8009.31
519.96	7967.18
520.14	7948.46
520.31	7618.44
520.48	7742.49
520.65	7733.13
520.83	8114.64
521.00	8238.69
521.17	8084.21
521.34	7955.48
521.52	8042.08
521.69	8306.56
521.86	8339.33
522.03	8236.35
522.20	7981.23
522.38	7454.61
522.55	7452.27
522.72	7747.17
522.89	7784.62
523.07	7826.75
523.24	7955.48
523.41	8072.51
523.58	8023.36
523.75	8243.37
523.92	8259.75
524.10	8320.60
524.27	8255.07
524.44	8234.00
524.61	8187.19
524.78	8156.77
524.96	8128.68
525.13	8037.40
525.30	8304.22
525.47	8215.28
525.64	8411.89
525.81	8322.94
525.98	7882.92
526.16	7531.84
526.33	7232.26
526.50	7110.55
526.67	6822.66
526.84	7103.53
527.01	7573.97
527.18	7557.59
527.36	7953.14
527.53	8182.51
527.70	8189.53
527.87	8009.31
528.04	7831.43
528.21	8006.97
528.38	8311.24
528.55	8514.87
528.72	8500.83
528.89	8695.09
529.07	8395.50
529.24	8374.44
529.41	8095.91
529.58	7913.35
529.75	7831.43
529.92	8189.53
530.09	8325.29
530.26	8344.01
530.43	8435.29
530.60	8344.01
530.77	8685.73
530.94	8489.12
531.11	8369.76
531.28	8264.43
531.46	8217.62
531.63	8161.45
531.80	8287.84
531.97	8126.34
532.14	8009.31
532.31	7784.62
532.48	7517.80
532.65	7527.16
532.82	7714.41
532.99	8013.99
533.16	8128.68
533.33	8217.62
533.50	8283.16
533.67	7887.61
533.84	8060.80
534.01	7901.65
534.18	8156.77
534.35	8009.31
534.52	8292.52
534.69	8088.89
534.86	8163.79
535.03	8421.25
535.20	8390.82
535.37	8662.32
535.54	8585.08
535.71	8592.11
535.88	8325.29
536.05	8336.99
536.22	8016.33
536.38	7887.61
536.55	8147.40
536.72	7786.96
536.89	7712.07
537.06	7903.99
537.23	8098.25
537.40	8140.38
537.57	8241.03
537.74	8271.45
537.91	8311.24
538.08	8182.51
538.25	8138.04
538.42	8369.76
538.59	8294.86
538.75	7969.52
538.92	8039.74
539.09	8112.30
539.26	7892.29
539.43	7894.63
539.60	8060.80
539.77	8067.83
539.94	7990.59
540.11	7754.19
540.28	7775.26
540.44	7719.09
540.61	7489.71
540.78	7871.22
540.95	7903.99
541.12	7995.27
541.29	8212.94
541.46	8355.71
541.62	8418.91
541.79	8461.04
541.96	8304.22
542.13	8180.17
542.30	8131.02
542.47	8386.14
542.63	8369.76
542.80	8065.49
542.97	8152.09
543.14	8124.00
543.31	8140.38
543.48	8170.81
543.64	8519.55
543.81	8561.68
543.98	8631.90
544.15	8538.27
544.32	8203.58
544.48	8124.00
544.65	8262.09
544.82	8425.93
544.99	8257.41
545.16	8264.43
545.32	8105.28
545.49	8624.87
545.66	9193.62
545.83	9537.68
546.00	9146.81
546.16	8542.96
546.33	8217.62
546.50	8224.64
546.67	8250.39
546.83	8051.44
547.00	8088.89
547.17	7873.56
547.34	8023.36
547.50	7625.47
547.67	7712.07
547.84	7735.47
548.00	7948.46
548.17	8105.28
548.34	8161.45
548.51	8299.54
548.67	8093.57
548.84	8053.78
549.01	7899.31
549.18	8149.75
549.34	8219.96
549.51	7995.27
549.68	8077.19
549.84	7903.99
550.01	8013.99
550.18	7864.20
550.34	7819.73
550.51	7833.77
550.68	7889.95
550.84	7803.35
551.01	7868.88
551.18	7751.85
551.34	7864.20
551.51	7939.10
551.68	7908.67
551.84	8290.18
552.01	8072.51
552.18	7838.45
552.34	7651.21
552.51	7665.25
552.68	7583.34
552.84	7707.38
553.01	7674.62
553.18	7836.11
553.34	7737.81
553.51	7777.60
553.67	7737.81
553.84	7967.18
554.01	7763.56
554.17	7805.69
554.34	7770.58
554.51	7911.01
554.67	7808.03
554.84	7962.50
555.00	7826.75
555.17	7751.85
555.33	7737.81
555.50	7714.41
555.67	7808.03
555.83	7536.52
556.00	7482.69
556.16	7819.73
556.33	7433.54
556.50	7431.20
556.66	7550.57
556.83	7435.88
556.99	7501.42
557.16	7499.08
557.32	7456.95
557.49	7524.82
557.65	7487.37
557.82	7365.67
557.98	7466.31
558.15	7520.14
558.32	7407.80
558.48	7138.63
558.65	7136.29
558.81	7204.17
558.98	7042.67
559.14	7431.20
559.31	7314.17
559.47	7117.57
559.64	7002.88
559.80	7321.20
559.97	7164.38
560.13	7155.02
560.30	7389.07
560.46	7447.58
560.63	7576.31
560.79	7602.06
560.96	7688.66
561.12	7318.86
561.29	7045.01
561.45	6949.05
561.61	7269.70
561.78	7222.89
561.94	7379.71
562.11	7155.02
562.27	7054.37
562.44	7187.79
562.60	7222.89
562.77	7325.88
562.93	7531.84
563.10	7377.37
563.26	7068.42
563.42	7080.12
563.59	7192.47
563.75	7194.81
563.92	7176.08
564.08	7180.76
564.24	7351.62
564.41	7232.26
564.57	7157.36
564.74	7063.74
564.90	7105.87
565.07	7133.95
565.23	7049.69
565.39	6843.73
565.56	6951.39
565.72	6665.85
565.88	6808.62
566.05	6923.30
566.21	6810.96
566.38	6958.41
566.54	7082.46
566.70	7115.23
566.87	7112.89
567.03	7073.10
567.19	7019.27
567.36	6913.94
567.52	6998.20
567.68	6951.39
567.85	6752.45
568.01	6778.19
568.17	6455.20
568.34	6382.64
568.50	6569.88
568.66	6471.58
568.83	6408.39
568.99	6525.41
569.15	6583.93
569.32	6478.60
569.48	6478.60
569.64	6513.71
569.81	6443.49
569.97	6520.73
570.13	6684.57
570.30	6392.00
570.46	6469.24
570.62	6387.32
570.78	6125.18
570.95	6235.19
571.11	6502.01
571.27	6726.70
571.43	6431.79
571.60	6546.48
571.76	6548.82
571.92	6579.25
572.09	6717.34
572.25	6509.03
572.41	6579.25
572.57	6476.26
572.74	6668.19
572.90	6619.04
573.06	6651.80
573.22	6626.06
573.38	6476.26
573.55	6628.40
573.71	6459.88
573.87	6553.50
574.03	6565.20
574.20	6450.52
574.36	6403.71
574.52	6307.74
574.68	6401.37
574.84	6342.85
575.01	6256.25
575.17	6179.01
575.33	6518.39
575.49	6162.63
575.65	6387.32
575.82	6183.70
575.98	6181.35
576.14	6373.28
576.30	6445.84
576.46	6523.07
576.62	6600.31
576.79	6677.55
576.95	6642.44
577.11	6693.93
577.27	6406.05
577.43	6389.66
577.59	6230.51
577.75	6279.66
577.92	6015.18
578.08	6090.07
578.24	6106.46
578.40	6265.61
578.56	6399.02
578.72	6274.98
578.88	6513.71
579.04	6546.48
579.21	6368.60
579.37	6305.40
579.53	6347.53
579.69	6551.16
579.85	6368.60
580.01	6612.01
580.17	6539.46
580.33	6352.21
580.49	6361.58
580.65	6485.62
580.82	6504.35
580.98	6384.98
581.14	6392.00
581.30	6431.79
581.46	6303.06
581.62	6340.51
581.78	6464.56
581.94	6483.28
582.10	6581.59
582.26	6595.63
582.42	6441.15
582.58	6544.14
582.74	6588.61
582.90	6534.78
583.06	6483.28
583.22	6532.44
583.38	6555.84
583.54	6509.03
583.70	6637.76
583.86	6389.66
584.02	6443.49
584.18	6693.93
584.34	6506.69
584.50	6518.39
584.66	6448.18
584.82	6396.68
584.98	6270.30
585.14	6253.91
585.30	6155.61
585.46	6167.31
585.62	6087.73
585.78	6059.65
585.94	6188.38
586.10	5975.39
586.26	5930.92
586.42	6143.91
586.58	6218.80
586.74	6258.59
586.90	6160.29
587.06	6164.97
587.22	6228.17
587.38	5940.28
587.54	6024.54
587.70	5820.91
587.86	5518.98
588.02	5327.06
588.18	5210.03
588.34	5076.62
588.49	4676.39
588.65	4554.68
588.81	4397.87
588.97	4308.93
589.13	4355.74
589.29	4386.16
589.45	4454.04
589.61	4400.21
589.77	4559.36
589.93	4723.20
590.08	5025.13
590.24	5214.71
590.40	5252.16
590.56	5226.42
590.72	5041.51
590.88	5064.92
591.04	5057.90
591.20	5165.56
591.35	5027.47
591.51	5048.54
591.67	4985.34
591.83	4999.38
591.99	5050.88
592.15	5032.15
592.31	5123.43
592.46	5221.74
592.62	5334.08
592.78	5277.91
592.94	5338.76
593.10	5523.66
593.26	5605.58
593.41	5593.88
593.57	5439.40
593.73	5303.65
593.89	4830.87
594.05	4718.52
594.20	4741.93
594.36	4587.45
594.52	4657.67
594.68	4716.18
594.84	4912.78
594.99	5186.63
595.15	5249.82
595.31	5078.96
595.47	5104.71
595.62	5123.43
595.78	5212.37
595.94	5287.27
596.10	5355.15
596.25	5305.99
596.41	5165.56
596.57	5055.56
596.73	5200.67
596.88	5181.95
597.04	5242.80
597.20	5268.55
597.36	5043.85
597.51	5359.83
