SpectraSuite Data File
++++++++++++++++++++++++++++++++++++
Date: Fri Oct 04 11:44:21 GMT-05:00 2013
User: price-jones
Dark Spectrum Present: No
Reference Spectrum Present: No
Number of Sampled Component Spectra: 1
Spectrometers: USB2+H05261
Integration Time (usec): 100000 (USB2+H05261)
Spectra Averaged: 1 (USB2+H05261)
Boxcar Smoothing: 0 (USB2+H05261)
Correct for Electrical Dark: No (USB2+H05261)
Strobe/Lamp Enabled: No (USB2+H05261)
Correct for Detector Non-linearity: No (USB2+H05261)
Correct for Stray Light: No (USB2+H05261)
Number of Pixels in Processed Spectrum: 2048
>>>>>Begin Processed Spectral Data<<<<<
365.73	44.47
365.92	44.47
366.12	44.47
366.32	0.00
366.52	0.00
366.72	0.00
366.91	0.00
367.11	0.00
367.31	0.00
367.51	0.00
367.70	0.00
367.90	0.00
368.10	0.00
368.30	0.00
368.49	0.00
368.69	0.00
368.89	9.36
369.09	0.00
369.28	0.00
369.48	0.00
369.68	0.00
369.87	0.00
370.07	56.17
370.27	23.41
370.47	35.11
370.66	337.04
370.86	393.21
371.06	458.74
371.25	379.17
371.45	423.64
371.65	381.51
371.84	332.36
372.04	283.20
372.24	423.64
372.44	449.38
372.63	428.32
372.83	404.91
373.03	306.61
373.22	334.70
373.42	332.36
373.62	430.66
373.81	500.87
374.01	437.68
374.21	456.40
374.40	400.23
374.60	397.89
374.79	468.11
374.99	524.28
375.19	514.92
375.38	510.24
375.58	430.66
375.78	491.51
375.97	524.28
376.17	645.99
376.37	409.59
376.56	559.39
376.76	531.30
376.95	589.82
377.15	603.86
377.35	683.44
377.54	650.67
377.74	599.18
377.93	674.07
378.13	683.44
378.33	631.94
378.52	564.07
378.72	594.50
378.91	634.29
379.11	573.43
379.31	557.05
379.50	528.96
379.70	489.17
379.89	575.77
380.09	528.96
380.28	578.11
380.48	589.82
380.68	627.26
380.87	613.22
381.07	608.54
381.26	664.71
381.46	552.37
381.65	519.60
381.85	535.98
382.04	416.62
382.24	470.45
382.43	383.85
382.63	369.80
382.83	440.02
383.02	407.25
383.22	400.23
383.41	311.29
383.61	458.74
383.80	470.45
384.00	510.24
384.19	564.07
384.39	615.56
384.58	688.12
384.78	702.16
384.97	601.52
385.17	550.03
385.36	505.56
385.56	557.05
385.75	582.79
385.95	606.20
386.14	725.57
386.34	559.39
386.53	599.18
386.72	554.71
386.92	610.88
387.11	631.94
387.31	650.67
387.50	603.86
387.70	554.71
387.89	585.13
388.09	594.50
388.28	571.09
388.48	655.35
388.67	629.60
388.86	695.14
389.06	664.71
389.25	875.36
389.45	922.17
389.64	800.46
389.84	854.30
390.03	748.97
390.22	819.19
390.42	772.38
390.61	765.36
390.81	875.36
391.00	917.49
391.19	983.02
391.39	772.38
391.58	781.74
391.78	737.27
391.97	793.44
392.16	671.73
392.36	685.78
392.55	564.07
392.75	540.66
392.94	381.51
393.13	348.74
393.33	461.09
393.52	517.26
393.71	699.82
393.91	713.86
394.10	704.50
394.29	681.10
394.49	866.00
394.68	882.38
394.88	847.27
395.07	945.58
395.26	959.62
395.46	912.81
395.65	856.64
395.84	837.91
396.04	786.42
396.23	634.29
396.42	580.45
396.62	486.83
396.81	514.92
397.00	631.94
397.19	758.33
397.39	854.30
397.58	978.34
397.77	1034.52
397.97	1130.48
398.16	1109.41
398.35	1184.31
398.55	1071.97
398.74	1261.55
398.93	1203.04
399.12	1200.69
399.32	1146.86
399.51	1224.10
399.70	1221.76
399.90	1200.69
400.09	1275.59
400.28	1294.32
400.47	1219.42
400.67	1301.34
400.86	1380.92
401.05	1338.79
401.24	1291.98
401.44	1343.47
401.63	1350.49
401.82	1313.04
402.01	1348.15
402.21	1455.81
402.40	1357.51
402.59	1343.47
402.78	1221.76
402.97	1275.59
403.17	1338.79
403.36	1385.60
403.55	1397.30
403.74	1472.20
403.93	1416.02
404.13	1282.61
404.32	1315.38
404.51	1376.24
404.70	1444.11
404.89	1387.94
405.09	1280.27
405.28	1364.53
405.47	1376.24
405.66	1416.02
405.85	1299.00
406.05	1291.98
406.24	1205.38
406.43	1345.81
406.62	1359.85
406.81	1430.07
407.00	1406.66
407.20	1355.17
407.39	1406.66
407.58	1455.81
407.77	1462.83
407.96	1455.81
408.15	1446.45
408.34	1423.05
408.54	1547.09
408.73	1448.79
408.92	1533.05
409.11	1465.18
409.30	1455.81
409.49	1380.92
409.68	1233.46
409.87	1263.89
410.07	1362.19
410.26	1343.47
410.45	1467.52
410.64	1547.09
410.83	1490.92
411.02	1591.56
411.21	1643.06
411.40	1643.06
411.59	1638.38
411.78	1577.52
411.98	1554.12
412.17	1598.59
412.36	1526.03
412.55	1572.84
412.74	1551.78
412.93	1549.43
413.12	1481.56
413.31	1755.40
413.50	1806.89
413.69	1802.21
413.88	1729.66
414.07	1685.19
414.26	1633.69
414.45	1699.23
414.64	1741.36
414.83	1689.87
415.02	1664.12
415.22	1645.40
415.41	1724.97
415.60	1703.91
415.79	1790.51
415.98	1790.51
416.17	1762.42
416.36	1842.00
416.55	1783.49
416.74	1802.21
416.93	1732.00
417.12	1694.55
417.31	1767.10
417.50	1767.10
417.69	1806.89
417.88	1771.79
418.07	1654.76
418.26	1785.83
418.45	1710.93
418.64	1823.28
418.83	1795.19
419.02	1865.41
419.21	1802.21
419.39	1809.23
419.58	1762.42
419.77	1671.14
419.96	1722.63
420.15	1860.73
420.34	1837.32
420.53	1877.11
420.72	1895.83
420.91	1968.39
421.10	1949.67
421.29	1930.94
421.48	1884.13
421.67	1820.94
421.86	1930.94
422.05	1802.21
422.24	1579.86
422.43	1614.97
422.61	1713.27
422.80	1881.79
422.99	1816.26
423.18	1834.98
423.37	1825.62
423.56	1774.13
423.75	1675.82
423.94	1825.62
424.13	1727.32
424.32	1739.02
424.50	1827.96
424.69	1764.76
424.88	1837.32
425.07	1720.29
425.26	1802.21
425.45	1788.17
425.64	1661.78
425.83	1647.74
426.01	1774.13
426.20	1877.11
426.39	1827.96
426.58	1706.25
426.77	1636.03
426.96	1544.75
427.15	1565.82
427.33	1619.65
427.52	1643.06
427.71	1645.40
427.90	1668.80
428.09	1715.61
428.28	1724.97
428.46	1645.40
428.65	1619.65
428.84	1659.44
429.03	1706.25
429.22	1584.54
429.40	1551.78
429.59	1427.73
429.78	1406.66
429.97	1214.74
430.16	1301.34
430.34	1296.66
430.53	1277.93
430.72	1352.83
430.91	1369.21
431.10	1621.99
431.28	1912.22
431.47	2045.63
431.66	1987.11
431.85	1909.88
432.03	1881.79
432.22	1743.70
432.41	1760.08
432.60	1834.98
432.79	2008.18
432.97	1961.37
433.16	1968.39
433.35	1956.69
433.54	1687.53
433.72	1633.69
433.91	1619.65
434.10	1851.36
434.28	1940.30
434.47	1973.07
434.66	1994.14
434.85	1888.81
435.03	1914.56
435.22	2179.04
435.41	2455.22
435.59	2516.08
435.78	2260.96
435.97	2211.81
436.16	2223.51
436.34	2214.15
436.53	2069.03
436.72	2143.93
436.90	2069.03
437.09	1956.69
437.28	1914.56
437.46	1975.41
437.65	1989.46
437.84	1884.13
438.02	1687.53
438.21	1675.82
438.40	1877.11
438.58	1923.92
438.77	1994.14
438.96	2012.86
439.14	2033.93
439.33	2066.69
439.52	2172.02
439.70	2223.51
439.89	2005.84
440.08	1963.71
440.26	2134.57
440.45	2054.99
440.63	2176.70
440.82	2272.66
441.01	2263.30
441.19	2328.83
441.38	2228.19
441.57	2333.51
441.75	2373.30
441.94	2375.64
442.12	2370.96
442.31	2335.85
442.50	2495.01
442.68	2263.30
442.87	2420.11
443.05	2319.47
443.24	2368.62
443.43	2441.18
443.61	2466.92
443.80	2415.43
443.98	2223.51
444.17	2361.60
444.35	2499.69
444.54	2478.63
444.73	2438.84
444.91	2459.90
445.10	2314.79
445.28	2155.63
445.47	2244.57
445.65	2179.04
445.84	2207.13
446.02	2359.26
446.21	2296.07
446.39	2518.42
446.58	2457.56
446.77	2394.37
446.95	2359.26
447.14	2523.10
447.32	2572.25
447.51	2387.35
447.69	2448.20
447.88	2275.00
448.06	2469.27
448.25	2495.01
448.43	2445.86
448.62	2349.90
448.80	2387.35
448.99	2410.75
449.17	2455.22
449.36	2342.88
449.54	2455.22
449.73	2581.61
449.91	2661.19
450.10	2600.34
450.28	2752.47
450.46	2708.00
450.65	2633.10
450.83	2647.15
451.02	2686.94
451.20	2586.29
451.39	2567.57
451.57	2605.02
451.76	2640.12
451.94	2537.14
452.13	2628.42
452.31	2380.32
452.49	2370.96
452.68	2284.36
452.86	2291.38
453.05	2389.69
453.23	2438.84
453.42	2445.86
453.60	2438.84
453.78	2708.00
453.97	2588.63
454.15	2651.83
454.34	2457.56
454.52	2548.84
454.70	2487.99
454.89	2464.58
455.07	2429.48
455.26	2586.29
455.44	2656.51
455.62	2457.56
455.81	2609.70
455.99	2523.10
456.17	2583.95
456.36	2698.64
456.54	2637.78
456.73	2588.63
456.91	2745.45
457.09	2745.45
457.28	2698.64
457.46	2626.08
457.64	2635.44
457.83	2663.53
458.01	2495.01
458.19	2609.70
458.38	2647.15
458.56	2605.02
458.74	2609.70
458.93	2644.81
459.11	2530.12
459.29	2459.90
459.48	2541.82
459.66	2696.30
459.84	2649.49
460.03	2679.91
460.21	2719.70
460.39	2729.06
460.57	2719.70
460.76	2806.30
460.94	2780.56
461.12	2832.05
461.31	2789.92
461.49	2780.56
461.67	2801.62
461.85	2792.26
462.04	2789.92
462.22	3213.56
462.40	2818.00
462.59	2794.60
462.77	2757.15
462.95	2752.47
463.13	2794.60
463.32	2839.07
463.50	2761.83
463.68	2686.94
463.86	2693.96
464.05	2637.78
464.23	2698.64
464.41	2518.42
464.59	2689.28
464.78	2796.94
464.96	2654.17
465.14	2548.84
465.32	2878.86
465.50	2724.38
465.69	2832.05
465.87	2708.00
466.05	2890.56
466.23	2628.42
466.41	2523.10
466.60	2658.85
466.78	2658.85
466.96	2595.65
467.14	2668.21
467.32	2808.64
467.51	2799.28
467.69	2642.46
467.87	2614.38
468.05	2626.08
468.23	2745.45
468.41	2722.04
468.60	2658.85
468.78	2736.09
468.96	2745.45
469.14	2888.22
469.32	2871.84
469.50	2656.51
469.69	2628.42
469.87	2560.55
470.05	2576.93
470.23	2708.00
470.41	2635.44
470.59	2738.43
470.77	2670.55
470.95	2782.90
471.14	2780.56
471.32	2738.43
471.50	2977.16
471.68	2787.58
471.86	2902.26
472.04	2813.32
472.22	2895.24
472.40	2810.98
472.58	2675.23
472.77	2836.73
472.95	2696.30
473.13	2909.29
473.31	2846.09
473.49	2743.11
473.67	2850.77
473.85	2869.50
474.03	3028.65
474.21	2967.80
474.39	2953.76
474.57	3035.67
474.75	2986.52
474.93	2949.08
475.12	2810.98
475.30	2860.13
475.48	2834.39
475.66	2944.39
475.84	2981.84
476.02	2906.95
476.20	2801.62
476.38	3049.72
476.56	2977.16
476.74	3012.27
476.92	3131.64
477.10	3141.00
477.28	3204.19
477.46	3136.32
477.64	3096.53
477.82	3246.32
478.00	3171.43
478.18	3269.73
478.36	3122.27
478.54	3068.44
478.72	3105.89
478.90	3234.62
479.08	3398.46
479.26	3419.52
479.44	3328.24
479.62	3337.60
479.80	3396.12
479.98	3393.78
480.16	3398.46
480.34	3466.33
480.52	3365.69
480.70	3389.10
480.88	3391.44
481.06	3403.14
481.24	3438.25
481.41	3487.40
481.59	3822.09
481.77	3742.52
481.95	3597.40
482.13	3672.30
482.31	3730.81
482.49	3566.98
482.67	3660.60
482.85	3616.13
483.03	3662.94
483.21	3772.94
483.39	3623.15
483.57	3744.86
483.74	3625.49
483.92	3581.02
484.10	3644.21
484.28	3805.71
484.46	3875.93
484.64	3721.45
484.82	3592.72
485.00	3754.22
485.18	3634.85
485.35	3609.11
485.53	3510.80
485.71	3068.44
485.89	2925.67
486.07	3019.29
486.25	3349.31
486.43	3473.36
486.61	3674.64
486.78	3695.71
486.96	3756.56
487.14	3744.86
487.32	3805.71
487.50	3978.91
487.68	4004.66
487.85	3985.93
488.03	4248.07
488.21	4161.47
488.39	3962.53
488.57	3927.42
488.75	4018.70
488.92	4210.62
489.10	4177.86
489.28	4390.84
489.46	4390.84
489.64	4493.83
489.81	4657.67
489.99	4454.04
490.17	4432.97
490.35	4362.76
490.53	4402.55
490.70	4386.16
490.88	4374.46
491.06	4521.92
491.24	4622.56
491.41	4500.85
491.59	4175.52
491.77	4051.47
491.95	4311.27
492.13	4484.47
492.30	4358.08
492.48	4606.17
492.66	4746.61
492.84	4854.27
493.01	4746.61
493.19	4643.62
493.37	4627.24
493.54	4599.15
493.72	4638.94
493.90	4697.46
494.08	4858.95
494.25	4924.49
494.43	4966.62
494.61	4912.78
494.79	5015.77
494.96	5060.24
495.14	4924.49
495.32	4840.23
495.49	4662.35
495.67	4767.67
495.85	4821.50
496.02	5053.22
496.20	5121.09
496.38	4924.49
496.55	4980.66
496.73	5132.79
496.91	5132.79
497.09	5006.41
497.26	5200.67
497.44	5060.24
497.62	4971.30
497.79	5039.17
497.97	4826.18
498.14	4856.61
498.32	4940.87
498.50	5102.37
498.67	5048.54
498.85	5102.37
499.03	5195.99
499.20	5242.80
499.38	5268.55
499.56	5210.03
499.73	5146.84
499.91	4992.36
500.08	4943.21
500.26	4919.81
500.44	4770.01
500.61	4985.34
500.79	4858.95
500.97	4882.36
501.14	4840.23
501.32	4828.53
501.49	4882.36
501.67	4849.59
501.84	4999.38
502.02	5006.41
502.20	5093.01
502.37	5008.75
502.55	5034.49
502.72	5291.95
502.90	5081.30
503.07	5205.35
503.25	5011.09
503.43	4681.07
503.60	4589.79
503.78	4547.66
503.95	4514.89
504.13	4704.48
504.30	5088.32
504.48	5090.67
504.65	5135.14
504.83	5062.58
505.01	5366.85
505.18	5231.10
505.36	5509.62
505.53	5348.12
505.71	5273.23
505.88	5334.08
506.06	5406.64
506.23	5284.93
506.41	5125.77
506.58	5205.35
506.76	5191.31
506.93	5200.67
507.11	5165.56
507.28	5235.78
507.46	5097.69
507.63	5062.58
507.81	4950.23
507.98	4978.32
508.16	5186.63
508.33	5151.52
508.50	5289.61
508.68	5327.06
508.85	5591.54
509.03	5362.17
509.20	5533.03
509.38	5437.06
509.55	5179.61
509.73	5123.43
509.90	5394.93
510.08	5266.21
510.25	5434.72
510.42	5423.02
510.60	5483.88
510.77	5364.51
510.95	5427.70
511.12	5540.05
511.30	5544.73
511.47	5645.37
511.64	5750.70
511.82	5631.33
511.99	5437.06
512.17	5430.04
512.34	5282.59
512.51	5364.51
512.69	5423.02
512.86	5364.51
513.04	5455.79
513.21	5502.60
513.38	5509.62
513.56	5327.06
513.73	5200.67
513.90	5334.08
514.08	5434.72
514.25	5394.93
514.43	5327.06
514.60	5214.71
514.77	5373.87
514.95	5341.10
515.12	5533.03
515.29	5448.77
515.47	5572.82
515.64	5579.84
515.81	5509.62
515.99	5416.00
516.16	5093.01
516.33	4992.36
516.51	4610.86
516.68	4477.44
516.85	4472.76
517.03	4400.21
517.20	4770.01
517.37	5158.54
517.54	5558.77
517.72	5352.81
517.89	5172.58
518.06	4627.24
518.24	4573.41
518.41	4868.31
518.58	5146.84
518.75	5214.71
518.93	5088.32
519.10	5203.01
519.27	5212.37
519.45	5289.61
519.62	5509.62
519.79	5533.03
519.96	5455.79
520.14	5495.58
520.31	5338.76
520.48	5256.84
520.65	5439.40
520.83	5502.60
521.00	5621.97
521.17	5640.69
521.34	5563.45
521.52	5366.85
521.69	5614.95
521.86	5809.21
522.03	5687.50
522.20	5446.43
522.38	5224.08
522.55	5315.36
522.72	5193.65
522.89	5455.79
523.07	5418.34
523.24	5284.93
523.41	5563.45
523.58	5717.93
523.75	5860.70
523.92	5860.70
524.10	5785.80
524.27	5846.66
524.44	5678.14
524.61	5762.40
524.78	5654.73
524.96	5631.33
525.13	5692.18
525.30	5708.57
525.47	5682.82
525.64	5738.99
525.81	5673.46
525.98	5518.98
526.16	5078.96
526.33	5081.30
526.50	4966.62
526.67	4919.81
526.84	4924.49
527.01	5055.56
527.18	5160.88
527.36	5408.98
527.53	5701.54
527.70	5710.91
527.87	5657.07
528.04	5558.77
528.21	5530.69
528.38	5537.71
528.55	5900.49
528.72	5919.21
528.89	6019.86
529.07	6010.50
529.24	5767.08
529.41	5820.91
529.58	5561.11
529.75	5575.16
529.92	5593.88
530.09	5603.24
530.26	5813.89
530.43	5935.60
530.60	5785.80
530.77	5872.40
530.94	5788.14
531.11	5937.94
531.28	5729.63
531.46	5785.80
531.63	5722.61
531.80	5708.57
531.97	5722.61
532.14	5502.60
532.31	5284.93
532.48	5247.48
532.65	5254.50
532.82	5313.02
532.99	5528.35
533.16	5701.54
533.33	5788.14
533.50	5720.27
533.67	5661.76
533.84	5563.45
534.01	5598.56
534.18	5504.94
534.35	5619.63
534.52	5621.97
534.69	5661.76
534.86	5654.73
535.03	5666.44
535.20	5832.62
535.37	5895.81
535.54	6071.35
535.71	5673.46
535.88	5937.94
536.05	5767.08
536.22	5584.52
536.38	5500.26
536.55	5598.56
536.72	5451.11
536.89	5282.59
537.06	5535.37
537.23	5760.06
537.40	5797.51
537.57	5668.78
537.74	5774.10
537.91	5729.63
538.08	5804.53
538.25	5778.78
538.42	5731.97
538.59	5659.42
538.75	5750.70
538.92	5591.54
539.09	5689.84
539.26	5593.88
539.43	5666.44
539.60	5416.00
539.77	5570.48
539.94	5514.30
540.11	5528.35
540.28	5439.40
540.44	5369.19
540.61	5280.25
540.78	5423.02
540.95	5425.36
541.12	5621.97
541.29	5792.83
541.46	5741.33
541.62	5762.40
541.79	5764.74
541.96	5731.97
542.13	5764.74
542.30	5837.30
542.47	5837.30
542.63	5661.76
542.80	5706.23
542.97	5710.91
543.14	5621.97
543.31	5453.45
543.48	5736.65
543.64	5813.89
543.81	5919.21
543.98	5907.51
544.15	5856.02
544.32	5652.39
544.48	5666.44
544.65	5687.50
544.82	5813.89
544.99	5956.66
545.16	5746.02
545.32	5673.46
545.49	6052.63
545.66	6359.24
545.83	6546.48
546.00	6363.92
546.16	6120.50
546.33	5769.42
546.50	5701.54
546.67	5844.32
546.83	5895.81
547.00	5755.38
547.17	5631.33
547.34	5586.86
547.50	5242.80
547.67	5488.56
547.84	5460.47
548.00	5521.32
548.17	5788.14
548.34	5439.40
548.51	5636.01
548.67	5701.54
548.84	5771.76
549.01	5699.20
549.18	5692.18
549.34	5657.07
549.51	5652.39
549.68	5542.39
549.84	5638.35
550.01	5502.60
550.18	5437.06
550.34	5502.60
550.51	5605.58
550.68	5521.32
550.84	5518.98
551.01	5462.81
551.18	5511.96
551.34	5551.75
551.51	5661.76
551.68	5680.48
551.84	5703.89
552.01	5500.26
552.18	5526.00
552.34	5416.00
552.51	5226.42
552.68	5420.68
552.84	5432.38
553.01	5343.44
553.18	5408.98
553.34	5603.24
553.51	5406.64
553.67	5526.00
553.84	5631.33
554.01	5441.75
554.17	5460.47
554.34	5439.40
554.51	5500.26
554.67	5713.25
554.84	5614.95
555.00	5540.05
555.17	5427.70
555.33	5331.74
555.50	5439.40
555.67	5425.36
555.83	5362.17
556.00	5334.08
556.16	5437.06
556.33	5205.35
556.50	5233.44
556.66	5275.57
556.83	5245.14
556.99	5135.14
557.16	5289.61
557.32	5331.74
557.49	5373.87
557.65	5240.46
557.82	5158.54
557.98	5294.29
558.15	5336.42
558.32	5128.11
558.48	4908.10
558.65	4784.06
558.81	4915.12
558.98	4980.66
559.14	5102.37
559.31	5069.60
559.47	5207.69
559.64	5018.11
559.80	4985.34
559.97	4954.91
560.13	4947.89
560.30	5153.86
560.46	5266.21
560.63	5184.29
560.79	5397.28
560.96	5284.93
561.12	5027.47
561.29	4973.64
561.45	4894.06
561.61	4887.04
561.78	5219.39
561.94	5205.35
562.11	5050.88
562.27	4985.34
562.44	5041.51
562.60	5081.30
562.77	5163.22
562.93	5317.70
563.10	5116.41
563.26	5135.14
563.42	5102.37
563.59	5149.18
563.75	5121.09
563.92	5064.92
564.08	4971.30
564.24	4945.55
564.41	5160.88
564.57	5100.03
564.74	5111.73
564.90	4978.32
565.07	4910.44
565.23	4980.66
565.39	4919.81
565.56	4947.89
565.72	4699.80
565.88	4772.35
566.05	4770.01
566.21	4823.84
566.38	5039.17
566.54	4940.87
566.70	4915.12
566.87	5191.31
567.03	4894.06
567.19	5095.35
567.36	4994.70
567.52	4744.27
567.68	4966.62
567.85	4704.48
568.01	4802.78
568.17	4629.58
568.34	4517.23
568.50	4589.79
568.66	4418.93
568.83	4671.71
568.99	4652.98
569.15	4688.09
569.32	4510.21
569.48	4620.22
569.64	4676.39
569.81	4432.97
569.97	4531.28
570.13	4620.22
570.30	4655.33
570.46	4470.42
570.62	4514.89
570.78	4334.67
570.95	4404.89
571.11	4582.77
571.27	4699.80
571.43	4521.92
571.60	4652.98
571.76	4519.57
571.92	4727.88
572.09	4596.81
572.25	4779.37
572.41	4716.18
572.57	4493.83
572.74	4681.07
572.90	4517.23
573.06	4533.62
573.22	4535.96
573.38	4547.66
573.55	4599.15
573.71	4582.77
573.87	4645.96
574.03	4456.38
574.20	4409.57
574.36	4517.23
574.52	4484.47
574.68	4418.93
574.84	4601.49
575.01	4376.80
575.17	4381.48
575.33	4280.84
575.49	4521.92
575.65	4430.63
575.82	4271.48
575.98	4510.21
576.14	4425.95
576.30	4596.81
576.46	4608.51
576.62	4730.22
576.79	4657.67
576.95	4484.47
577.11	4519.57
577.27	4512.55
577.43	4620.22
577.59	4517.23
577.75	4381.48
577.92	4390.84
578.08	4332.33
578.24	4475.10
578.40	4418.93
578.56	4411.91
578.72	4542.98
578.88	4706.82
579.04	4526.60
579.21	4442.34
579.37	4482.13
579.53	4491.49
579.69	4498.51
579.85	4559.36
580.01	4578.09
580.17	4358.08
580.33	4482.13
580.49	4472.76
580.65	4535.96
580.82	4451.70
580.98	4557.02
581.14	4550.00
581.30	4416.59
581.46	4477.44
581.62	4507.87
581.78	4493.83
581.94	4608.51
582.10	4533.62
582.26	4505.53
582.42	4620.22
582.58	4400.21
582.74	4493.83
582.90	4479.79
583.06	4767.67
583.22	4629.58
583.38	4510.21
583.54	4580.43
583.70	4634.26
583.86	4447.02
584.02	4540.64
584.18	4440.00
584.34	4475.10
584.50	4327.65
584.66	4491.49
584.82	4440.00
584.98	4477.44
585.14	4407.23
585.30	4290.20
585.46	4269.14
585.62	4292.54
585.78	4369.78
585.94	4224.67
586.10	4301.90
586.26	4351.06
586.42	4493.83
586.58	4386.16
586.74	4346.37
586.90	4365.10
587.06	4337.01
587.22	4248.07
587.38	4142.75
587.54	4037.42
587.70	4060.83
587.86	3906.35
588.02	3889.97
588.18	3737.84
588.34	3669.96
588.49	3358.67
588.65	3178.45
588.81	3009.93
588.97	3176.11
589.13	3101.21
589.29	3112.91
589.45	3201.85
589.61	3141.00
589.77	3309.52
589.93	3356.33
590.08	3543.57
590.24	3698.05
590.40	3609.11
590.56	3679.32
590.72	3714.43
590.88	3454.63
591.04	3676.98
591.20	3529.53
591.35	3639.53
591.51	3414.84
591.67	3391.44
591.83	3454.63
591.99	3499.10
592.15	3637.19
592.31	3623.15
592.46	3719.11
592.62	3819.75
592.78	3831.46
592.94	3770.60
593.10	3761.24
593.26	3943.80
593.41	4042.11
593.57	3861.88
593.73	3632.51
593.89	3681.66
594.05	3438.25
594.20	3398.46
594.36	3260.37
594.52	3281.43
594.68	3307.18
594.84	3342.28
594.99	3590.38
595.15	3648.90
595.31	3765.92
595.47	3688.68
595.62	3716.77
595.78	3679.32
595.94	3896.99
596.10	3852.52
596.25	3721.45
596.41	3454.63
596.57	3531.87
596.73	3693.37
596.88	3665.28
597.04	3744.86
597.20	3721.45
597.36	3735.50
597.51	3566.98
597.67	3698.05
597.83	3581.02
