SpectraSuite Data File
++++++++++++++++++++++++++++++++++++
Date: Fri Oct 04 11:44:23 GMT-05:00 2013
User: price-jones
Dark Spectrum Present: No
Reference Spectrum Present: No
Number of Sampled Component Spectra: 1
Spectrometers: USB2+H05261
Integration Time (usec): 100000 (USB2+H05261)
Spectra Averaged: 1 (USB2+H05261)
Boxcar Smoothing: 0 (USB2+H05261)
Correct for Electrical Dark: No (USB2+H05261)
Strobe/Lamp Enabled: No (USB2+H05261)
Correct for Detector Non-linearity: No (USB2+H05261)
Correct for Stray Light: No (USB2+H05261)
Number of Pixels in Processed Spectrum: 2048
>>>>>Begin Processed Spectral Data<<<<<
365.73	86.60
365.92	86.60
366.12	86.60
366.32	0.00
366.52	0.00
366.72	0.00
366.91	0.00
367.11	0.00
367.31	0.00
367.51	0.00
367.70	0.00
367.90	0.00
368.10	0.00
368.30	0.00
368.49	0.00
368.69	0.00
368.89	0.00
369.09	0.00
369.28	0.00
369.48	0.00
369.68	0.00
369.87	18.72
370.07	7.02
370.27	0.00
370.47	142.77
370.66	397.89
370.86	498.53
371.06	664.71
371.25	596.84
371.45	493.85
371.65	519.60
371.84	524.28
372.04	582.79
372.24	543.00
372.44	613.22
372.63	566.41
372.83	622.58
373.03	505.56
373.22	437.68
373.42	510.24
373.62	519.60
373.81	585.13
374.01	575.77
374.21	603.86
374.40	575.77
374.60	592.16
374.79	643.65
374.99	655.35
375.19	727.91
375.38	704.50
375.58	643.65
375.78	582.79
375.97	613.22
376.17	690.46
376.37	671.73
376.56	755.99
376.76	767.70
376.95	821.53
377.15	798.12
377.35	807.48
377.54	802.80
377.74	826.21
377.93	814.51
378.13	821.53
378.33	795.78
378.52	709.18
378.72	748.97
378.91	746.63
379.11	720.88
379.31	608.54
379.50	702.16
379.70	711.52
379.89	767.70
380.09	786.42
380.28	849.61
380.48	800.46
380.68	706.84
380.87	814.51
381.07	746.63
381.26	786.42
381.46	648.33
381.65	657.69
381.85	692.80
382.04	624.92
382.24	702.16
382.43	589.82
382.63	606.20
382.83	610.88
383.02	631.94
383.22	587.47
383.41	564.07
383.61	561.73
383.80	699.82
384.00	718.54
384.19	777.06
384.39	786.42
384.58	809.83
384.78	856.64
384.97	784.08
385.17	833.23
385.36	697.48
385.56	763.01
385.75	720.88
385.95	833.23
386.14	856.64
386.34	833.23
386.53	823.87
386.72	774.72
386.92	779.40
387.11	837.91
387.31	786.42
387.50	840.25
387.70	779.40
387.89	830.89
388.09	812.17
388.28	781.74
388.48	842.59
388.67	912.81
388.86	954.94
389.06	1027.50
389.25	997.07
389.45	1050.90
389.64	1015.79
389.84	1036.86
390.03	983.02
390.22	1055.58
390.42	947.92
390.61	1109.41
390.81	1153.88
391.00	1196.01
391.19	1214.74
391.39	1139.84
391.58	1118.78
391.78	1137.50
391.97	980.68
392.16	931.53
392.36	858.98
392.55	732.59
392.75	594.50
392.94	491.51
393.13	561.73
393.33	557.05
393.52	683.44
393.71	877.70
393.91	922.17
394.10	987.71
394.29	1048.56
394.49	1179.63
394.68	1217.08
394.88	1303.68
395.07	1277.93
395.26	1252.19
395.46	1317.72
395.65	1158.57
395.84	1032.18
396.04	919.83
396.23	758.33
396.42	699.82
396.62	697.48
396.81	781.74
397.00	929.19
397.19	1057.92
397.39	1191.33
397.58	1425.39
397.77	1392.62
397.97	1439.43
398.16	1427.73
398.35	1659.44
398.55	1547.09
398.74	1692.21
398.93	1668.80
399.12	1696.89
399.32	1629.01
399.51	1556.46
399.70	1643.06
399.90	1673.48
400.09	1771.79
400.28	1696.89
400.47	1706.25
400.67	1802.21
400.86	1870.09
401.05	1809.23
401.24	1856.04
401.44	1949.67
401.63	1827.96
401.82	1839.66
402.01	1916.90
402.21	1874.77
402.40	1799.87
402.59	1856.04
402.78	1837.32
402.97	1659.44
403.17	1790.51
403.36	1839.66
403.55	1952.01
403.74	2073.71
403.93	1935.62
404.13	1973.07
404.32	1930.94
404.51	2001.16
404.70	2043.29
404.89	1914.56
405.09	1944.99
405.28	1806.89
405.47	1774.13
405.66	1916.90
405.85	1767.10
406.05	1694.55
406.24	1797.53
406.43	1820.94
406.62	1888.81
406.81	1949.67
407.00	1867.75
407.20	1806.89
407.39	1818.60
407.58	1923.92
407.77	2029.24
407.96	2069.03
408.15	2033.93
408.34	1916.90
408.54	2139.25
408.73	2069.03
408.92	2230.53
409.11	2019.88
409.30	1996.48
409.49	1865.41
409.68	1657.10
409.87	1647.74
410.07	1785.83
410.26	1891.15
410.45	1935.62
410.64	1975.41
410.83	2132.23
411.02	2172.02
411.21	2230.53
411.40	2141.59
411.59	2237.55
411.78	2136.91
411.98	2218.83
412.17	2204.78
412.36	2207.13
412.55	2115.84
412.74	2129.89
412.93	2228.19
413.12	2136.91
413.31	2139.25
413.50	2342.88
413.69	2338.20
413.88	2223.51
414.07	2186.06
414.26	2157.97
414.45	2277.34
414.64	2370.96
414.83	2354.58
415.02	2310.11
415.22	2209.47
415.41	2303.09
415.60	2396.71
415.79	2478.63
415.98	2492.67
416.17	2485.65
416.36	2459.90
416.55	2511.39
416.74	2462.24
416.93	2427.14
417.12	2239.89
417.31	2392.03
417.50	2319.47
417.69	2459.90
417.88	2469.27
418.07	2450.54
418.26	2375.64
418.45	2340.54
418.64	2527.78
418.83	2609.70
419.02	2532.46
419.21	2581.61
419.39	2422.45
419.58	2265.64
419.77	2300.75
419.96	2434.16
420.15	2572.25
420.34	2628.42
420.53	2743.11
420.72	2600.34
420.91	2686.94
421.10	2499.69
421.29	2628.42
421.48	2516.08
421.67	2686.94
421.86	2509.05
422.05	2434.16
422.24	2232.87
422.43	2232.87
422.61	2389.69
422.80	2532.46
422.99	2572.25
423.18	2640.12
423.37	2396.71
423.56	2551.18
423.75	2401.39
423.94	2532.46
424.13	2392.03
424.32	2394.37
424.50	2317.13
424.69	2406.07
424.88	2335.85
425.07	2387.35
425.26	2382.67
425.45	2319.47
425.64	2471.61
425.83	2366.28
426.01	2464.58
426.20	2534.80
426.39	2509.05
426.58	2296.07
426.77	2099.46
426.96	2162.66
427.15	2122.87
427.33	2338.20
427.52	2387.35
427.71	2492.67
427.90	2338.20
428.09	2373.30
428.28	2232.87
428.46	2256.28
428.65	2197.76
428.84	2193.08
429.03	2289.04
429.22	2179.04
429.40	2106.48
429.59	1863.07
429.78	1769.44
429.97	1816.26
430.16	1753.06
430.34	1764.76
430.53	1753.06
430.72	1785.83
430.91	2120.53
431.10	2181.38
431.28	2663.53
431.47	2766.51
431.66	2883.54
431.85	2574.59
432.03	2511.39
432.22	2394.37
432.41	2375.64
432.60	2583.95
432.79	2710.34
432.97	2682.25
433.16	2675.23
433.35	2471.61
433.54	2359.26
433.72	2286.70
433.91	2230.53
434.10	2438.84
434.28	2520.76
434.47	2836.73
434.66	2712.68
434.85	2750.13
435.03	2747.79
435.22	3215.90
435.41	3976.57
435.59	4098.28
435.78	3775.28
435.97	3428.88
436.16	3108.23
436.34	2874.18
436.53	2913.97
436.72	2892.90
436.90	2672.89
437.09	2668.21
437.28	2698.64
437.46	2827.37
437.65	2654.17
437.84	2572.25
438.02	2457.56
438.21	2314.79
438.40	2527.78
438.58	2665.87
438.77	2712.68
438.96	2773.53
439.14	2895.24
439.33	3016.95
439.52	2953.76
439.70	3070.78
439.89	2754.81
440.08	2794.60
440.26	2682.25
440.45	2946.73
440.63	2963.12
440.82	3251.00
441.01	3117.59
441.19	3108.23
441.38	3262.71
441.57	3232.28
441.75	3239.30
441.94	3447.61
442.12	3286.11
442.31	3206.53
442.50	3178.45
442.68	3297.81
442.87	3162.06
443.05	3213.56
443.24	3311.86
443.43	3295.47
443.61	3393.78
443.80	3447.61
443.98	3211.22
444.17	3258.03
444.35	3417.18
444.54	3382.07
444.73	3330.58
444.91	3208.87
445.10	3183.13
445.28	2944.39
445.47	2977.16
445.65	3117.59
445.84	3105.89
446.02	3178.45
446.21	3227.60
446.39	3178.45
446.58	3314.20
446.77	3276.75
446.95	3316.54
447.14	3433.57
447.32	3447.61
447.51	3321.22
447.69	3239.30
447.88	3255.69
448.06	3318.88
448.25	3400.80
448.43	3405.48
448.62	3346.97
448.80	3461.65
448.99	3325.90
449.17	3297.81
449.36	3227.60
449.54	3513.14
449.73	3510.80
449.91	3686.34
450.10	3632.51
450.28	3665.28
450.46	3756.56
450.65	3721.45
450.83	3719.11
451.02	3398.46
451.20	3447.61
451.39	3644.21
451.57	3492.08
451.76	3447.61
451.94	3536.55
452.13	3400.80
452.31	3456.97
452.49	3126.96
452.68	3276.75
452.86	3103.55
453.05	3466.33
453.23	3351.65
453.42	3466.33
453.60	3517.83
453.78	3431.23
453.97	3482.72
454.15	3438.25
454.34	3372.71
454.52	3438.25
454.70	3337.60
454.89	3492.08
455.07	3318.88
455.26	3468.67
455.44	3602.08
455.62	3541.23
455.81	3758.90
455.99	3616.13
456.17	3681.66
456.36	3688.68
456.54	3623.15
456.73	3646.55
456.91	3918.06
457.09	3712.09
457.28	3868.91
457.46	3747.20
457.64	3648.90
457.83	3522.51
458.01	3531.87
458.19	3515.48
458.38	3426.54
458.56	3702.73
458.74	3595.06
458.93	3510.80
459.11	3529.53
459.29	3616.13
459.48	3562.30
459.66	3707.41
459.84	3679.32
460.03	3836.14
460.21	3679.32
460.39	3653.58
460.57	3747.20
460.76	3765.92
460.94	3686.34
461.12	3756.56
461.31	3655.92
461.49	3749.54
461.67	3714.43
461.85	3796.35
462.04	3782.31
462.22	4243.39
462.40	3754.22
462.59	3728.47
462.77	3878.27
462.95	3969.55
463.13	3894.65
463.32	3775.28
463.50	3627.83
463.68	3801.03
463.86	3868.91
464.05	3716.77
464.23	3686.34
464.41	3562.30
464.59	3529.53
464.78	3737.84
464.96	3728.47
465.14	3623.15
465.32	3726.13
465.50	3838.48
465.69	3836.14
465.87	3634.85
466.05	3709.75
466.23	3503.78
466.41	3398.46
466.60	3592.72
466.78	3527.19
466.96	3637.19
467.14	3660.60
467.32	3847.84
467.51	3775.28
467.69	3599.74
467.87	3672.30
468.05	3700.39
468.23	3667.62
468.41	3836.14
468.60	3808.05
468.78	3644.21
468.96	3789.33
469.14	3744.86
469.32	3728.47
469.50	3571.66
469.69	3630.17
469.87	3559.95
470.05	3592.72
470.23	3517.83
470.41	3517.83
470.59	3595.06
470.77	3597.40
470.95	3681.66
471.14	3772.94
471.32	3854.86
471.50	3887.63
471.68	3889.97
471.86	4032.74
472.04	4100.62
472.22	3957.85
472.40	3857.20
472.58	3819.75
472.77	3737.84
472.95	3896.99
473.13	4060.83
473.31	3850.18
473.49	3817.41
473.67	3927.42
473.85	4007.00
474.03	4091.26
474.21	4037.42
474.39	4119.34
474.57	4079.55
474.75	4107.64
474.93	4229.35
475.12	4028.06
475.30	4002.32
475.48	3906.35
475.66	4025.72
475.84	3932.10
476.02	3831.46
476.20	3878.27
476.38	4084.23
476.56	4102.96
476.74	4217.65
476.92	4086.58
477.10	4175.52
477.28	4355.74
477.46	4297.22
477.64	4425.95
477.82	4287.86
478.00	4381.48
478.18	4411.91
478.36	4397.87
478.54	4308.93
478.72	4437.66
478.90	4458.72
479.08	4629.58
479.26	4798.10
479.44	4802.78
479.62	4601.49
479.80	4538.30
479.98	4641.28
480.16	4699.80
480.34	4589.79
480.52	4664.69
480.70	4631.92
480.88	4697.46
481.06	4774.69
481.24	4840.23
481.41	4858.95
481.59	4903.42
481.77	5069.60
481.95	4978.32
482.13	5015.77
482.31	4964.28
482.49	4779.37
482.67	4823.84
482.85	5069.60
483.03	5041.51
483.21	4980.66
483.39	5069.60
483.57	5015.77
483.74	4997.04
483.92	5093.01
484.10	4938.53
484.28	5280.25
484.46	5324.72
484.64	5327.06
484.82	5280.25
485.00	5301.31
485.18	5128.11
485.35	4905.76
485.53	4510.21
485.71	4325.31
485.89	4145.09
486.07	4339.35
486.25	4657.67
486.43	4882.36
486.61	4821.50
486.78	4931.51
486.96	5064.92
487.14	5334.08
487.32	5317.70
487.50	5483.88
487.68	5640.69
487.85	5628.99
488.03	5593.88
488.21	5673.46
488.39	5554.09
488.57	5584.52
488.75	5413.66
488.92	5870.06
489.10	5914.53
489.28	6108.80
489.46	6209.44
489.64	6029.22
489.81	6363.92
489.99	6188.38
490.17	6253.91
490.35	6307.74
490.53	6223.48
490.70	6202.42
490.88	6050.28
491.06	6326.47
491.24	6338.17
491.41	5996.45
491.59	5790.49
491.77	5621.97
491.95	5860.70
492.13	5944.96
492.30	6015.18
492.48	6368.60
492.66	6565.20
492.84	6356.90
493.01	6548.82
493.19	6354.55
493.37	6251.57
493.54	6267.95
493.72	6249.23
493.90	6476.26
494.08	6705.63
494.25	6843.73
494.43	7091.82
494.61	6937.35
494.79	6860.11
494.96	6787.55
495.14	6619.04
495.32	6612.01
495.49	6375.62
495.67	6590.95
495.85	6843.73
496.02	6946.71
496.20	6974.80
496.38	6855.43
496.55	6932.67
496.73	6958.41
496.91	7052.03
497.09	7063.74
497.26	7307.15
497.44	7028.63
497.62	6904.58
497.79	6654.14
497.97	6595.63
498.14	6576.91
498.32	6560.52
498.50	6998.20
498.67	7005.22
498.85	7178.42
499.03	7080.12
499.20	7225.23
499.38	7115.23
499.56	7066.08
499.73	7063.74
499.91	6970.12
500.08	6820.32
500.26	6448.18
500.44	6619.04
500.61	6869.47
500.79	6740.74
500.97	6712.66
501.14	6696.27
501.32	6525.41
501.49	6649.46
501.67	6525.41
501.84	6686.91
502.02	6860.11
502.20	6925.65
502.37	6895.22
502.55	6825.00
502.72	6892.88
502.90	7045.01
503.07	6850.75
503.25	6757.13
503.43	6466.90
503.60	6284.34
503.78	6120.50
503.95	6270.30
504.13	6581.59
504.30	6984.16
504.48	7040.33
504.65	7068.42
504.83	7169.06
505.01	7047.35
505.18	7211.19
505.36	7155.02
505.53	7152.68
505.71	7197.15
505.88	7365.67
506.06	7393.75
506.23	7166.72
506.41	7117.57
506.58	7059.06
506.76	7052.03
506.93	7007.56
507.11	7021.61
507.28	7087.14
507.46	6935.01
507.63	6663.51
507.81	6677.55
507.98	6731.38
508.16	7012.24
508.33	7265.02
508.50	7300.13
508.68	7426.52
508.85	7529.50
509.03	7407.80
509.20	7473.33
509.38	7398.43
509.55	7232.26
509.73	7262.68
509.90	7335.24
510.08	7215.87
510.25	7515.46
510.42	7281.41
510.60	7375.03
510.77	7377.37
510.95	7480.35
511.12	7646.53
511.30	7417.16
511.47	7630.15
511.64	7644.19
511.82	7536.52
511.99	7286.09
512.17	7365.67
512.34	7281.41
512.51	7339.92
512.69	7293.11
512.86	7459.29
513.04	7468.65
513.21	7578.65
513.38	7225.23
513.56	7143.32
513.73	7007.56
513.90	7232.26
514.08	7190.13
514.25	7190.13
514.43	7131.61
514.60	7204.17
514.77	7286.09
514.95	7342.26
515.12	7176.08
515.29	7337.58
515.47	7606.74
515.64	7679.30
515.81	7454.61
515.99	7201.83
516.16	7112.89
516.33	6541.80
516.51	6303.06
516.68	6085.39
516.85	5902.83
517.03	5996.45
517.20	6424.77
517.37	7110.55
517.54	7276.73
517.72	7136.29
517.89	6677.55
518.06	6143.91
518.24	6408.39
518.41	6780.53
518.58	7101.19
518.75	6991.18
518.93	7012.24
519.10	7028.63
519.27	7033.31
519.45	7206.51
519.62	7466.31
519.79	7630.15
519.96	7559.93
520.14	7393.75
520.31	7208.85
520.48	7096.50
520.65	7152.68
520.83	7571.63
521.00	7515.46
521.17	7466.31
521.34	7363.33
521.52	7473.33
521.69	7468.65
521.86	7751.85
522.03	7595.04
522.20	7398.43
522.38	7094.16
522.55	6958.41
522.72	7124.59
522.89	7101.19
523.07	7337.58
523.24	7335.24
523.41	7410.14
523.58	7667.60
523.75	7805.69
523.92	7660.57
524.10	7573.97
524.27	7831.43
524.44	7749.51
524.61	7660.57
524.78	7566.95
524.96	7651.21
525.13	7492.05
525.30	7585.68
525.47	7953.14
525.64	7627.81
525.81	7489.71
525.98	7087.14
526.16	6942.03
526.33	6609.67
526.50	6590.95
526.67	6420.09
526.84	6534.78
527.01	6899.90
527.18	7140.97
527.36	7318.86
527.53	7543.55
527.70	7667.60
527.87	7508.44
528.04	7220.55
528.21	7459.29
528.38	7735.47
528.55	7777.60
528.72	7761.22
528.89	7786.96
529.07	7793.98
529.24	7557.59
529.41	7365.67
529.58	7400.77
529.75	7407.80
529.92	7442.90
530.09	7562.27
530.26	7857.18
530.43	7791.64
530.60	7623.12
530.77	7805.69
530.94	7941.44
531.11	7700.36
531.28	7679.30
531.46	7660.57
531.63	7772.92
531.80	7604.40
531.97	7644.19
532.14	7342.26
532.31	7005.22
532.48	6801.60
532.65	6984.16
532.82	7089.48
532.99	7487.37
533.16	7391.41
533.33	7674.62
533.50	7646.53
533.67	7581.00
533.84	7183.10
534.01	7304.81
534.18	7449.93
534.35	7449.93
534.52	7548.23
534.69	7611.42
534.86	7508.44
535.03	7625.47
535.20	7705.04
535.37	7896.97
535.54	7866.54
535.71	7892.29
535.88	7894.63
536.05	7726.11
536.22	7522.48
536.38	7616.10
536.55	7274.38
536.72	7391.41
536.89	7117.57
537.06	7375.03
537.23	7742.49
537.40	7576.31
537.57	7875.90
537.74	7754.19
537.91	7651.21
538.08	7599.72
538.25	7691.00
538.42	7744.83
538.59	7885.26
538.75	7665.25
538.92	7592.70
539.09	7487.37
539.26	7522.48
539.43	7300.13
539.60	7400.77
539.77	7522.48
539.94	7592.70
540.11	7501.42
540.28	7222.89
540.44	7342.26
540.61	7377.37
540.78	7728.45
540.95	7791.64
541.12	8198.90
541.29	8400.18
541.46	8564.02
541.62	8599.13
541.79	8315.92
541.96	8154.43
542.13	8116.98
542.30	8156.77
542.47	8149.75
542.63	8051.44
542.80	7983.57
542.97	7995.27
543.14	7803.35
543.31	7782.28
543.48	8004.63
543.64	8287.84
543.81	8444.65
543.98	8465.72
544.15	8341.67
544.32	8184.85
544.48	8021.02
544.65	8086.55
544.82	8219.96
544.99	8140.38
545.16	8037.40
545.32	8051.44
545.49	8858.93
545.66	10101.75
545.83	10827.32
546.00	10068.98
546.16	9092.98
546.33	8547.64
546.50	8140.38
546.67	8234.00
546.83	8095.91
547.00	7866.54
547.17	7812.71
547.34	7627.81
547.50	7515.46
547.67	7669.94
547.84	7564.61
548.00	7742.49
548.17	7665.25
548.34	7740.15
548.51	7859.52
548.67	7772.92
548.84	7714.41
549.01	7531.84
549.18	7557.59
549.34	7545.89
549.51	7637.17
549.68	7648.87
549.84	7400.77
550.01	7442.90
550.18	7559.93
550.34	7442.90
550.51	7379.71
550.68	7487.37
550.84	7248.64
551.01	7419.50
551.18	7197.15
551.34	7246.30
551.51	7597.38
551.68	7424.18
551.84	7442.90
552.01	7452.27
552.18	7400.77
552.34	7075.44
552.51	7091.82
552.68	7037.99
552.84	7211.19
553.01	7227.57
553.18	7276.73
553.34	7213.53
553.51	7396.09
553.67	7171.40
553.84	7368.01
554.01	7304.81
554.17	7047.35
554.34	7307.15
554.51	7344.60
554.67	7342.26
554.84	7321.20
555.00	7363.33
555.17	7136.29
555.33	7108.21
555.50	7148.00
555.67	7171.40
555.83	6986.50
556.00	7002.88
556.16	7049.69
556.33	6993.52
556.50	6841.39
556.66	6780.53
556.83	6892.88
556.99	6909.26
557.16	6862.45
557.32	6846.07
557.49	6935.01
557.65	6925.65
557.82	6878.83
557.98	7094.16
558.15	7002.88
558.32	6825.00
558.48	6380.30
558.65	6609.67
558.81	6504.35
558.98	6471.58
559.14	6661.16
559.31	6768.83
559.47	6614.35
559.64	6523.07
559.80	6576.91
559.97	6469.24
560.13	6562.86
560.30	6712.66
560.46	6874.15
560.63	6986.50
560.79	6930.33
560.96	6888.20
561.12	6782.87
561.29	6490.31
561.45	6480.94
561.61	6623.72
561.78	6820.32
561.94	6586.27
562.11	6494.99
562.27	6565.20
562.44	6768.83
562.60	6700.95
562.77	6773.51
562.93	6839.05
563.10	6661.16
563.26	6703.29
563.42	6792.23
563.59	6576.91
563.75	6595.63
563.92	6593.29
564.08	6633.08
564.24	6469.24
564.41	6754.79
564.57	6661.16
564.74	6670.53
564.90	6527.75
565.07	6525.41
565.23	6640.10
565.39	6338.17
565.56	6363.92
565.72	6164.97
565.88	6162.63
566.05	6347.53
566.21	6260.93
566.38	6492.65
566.54	6256.25
566.70	6410.73
566.87	6537.12
567.03	6434.13
567.19	6422.43
567.36	6539.46
567.52	6354.55
567.68	6551.16
567.85	6188.38
568.01	6186.04
568.17	6050.28
568.34	5874.74
568.50	6015.18
568.66	5949.64
568.83	6050.28
568.99	5951.98
569.15	6235.19
569.32	6054.97
569.48	5947.30
569.64	5895.81
569.81	6080.71
569.97	5954.32
570.13	5982.41
570.30	5881.77
570.46	5944.96
570.62	5818.57
570.78	5774.10
570.95	5839.64
571.11	5923.90
571.27	6064.33
571.43	6043.26
571.60	5994.11
571.76	5912.19
571.92	6204.76
572.09	6087.73
572.25	6188.38
572.41	5916.87
572.57	5909.85
572.74	6078.37
572.90	5947.30
573.06	6122.84
573.22	6036.24
573.38	5886.45
573.55	6097.10
573.71	6022.20
573.87	6024.54
574.03	5832.62
574.20	5799.85
574.36	5825.59
574.52	5834.96
574.68	5851.34
574.84	5717.93
575.01	5809.21
575.17	5561.11
575.33	5755.38
575.49	5687.50
575.65	5830.27
575.82	5753.04
575.98	5668.78
576.14	5865.38
576.30	5804.53
576.46	6263.27
576.62	6415.41
576.79	6518.39
576.95	6150.93
577.11	5935.60
577.27	5914.53
577.43	6033.90
577.59	5820.91
577.75	5682.82
577.92	5605.58
578.08	5731.97
578.24	5708.57
578.40	5767.08
578.56	6090.07
578.72	6293.70
578.88	6244.55
579.04	6169.65
579.21	6167.31
579.37	6094.76
579.53	5921.56
579.69	5977.73
579.85	5951.98
580.01	5937.94
580.17	5989.43
580.33	6001.13
580.49	5970.71
580.65	6012.84
580.82	6029.22
580.98	5994.11
581.14	6087.73
581.30	6031.56
581.46	5846.66
581.62	5912.19
581.78	6087.73
581.94	6059.65
582.10	5982.41
582.26	6242.21
582.42	6141.57
582.58	6188.38
582.74	6171.99
582.90	5919.21
583.06	6113.48
583.22	6057.31
583.38	6043.26
583.54	6139.23
583.70	6052.63
583.86	6038.58
584.02	6017.52
584.18	6246.89
584.34	6019.86
584.50	6090.07
584.66	5942.62
584.82	5841.98
584.98	5717.93
585.14	5689.84
585.30	5722.61
585.46	5661.76
585.62	5511.96
585.78	5673.46
585.94	5685.16
586.10	5678.14
586.26	5755.38
586.42	5837.30
586.58	5661.76
586.74	5816.23
586.90	5781.12
587.06	5799.85
587.22	5811.55
587.38	5692.18
587.54	5572.82
587.70	5547.07
587.86	5252.16
588.02	5006.41
588.18	4945.55
588.34	4723.20
588.49	4362.76
588.65	4318.29
588.81	4042.11
588.97	4021.04
589.13	4203.60
589.29	4156.79
589.45	4156.79
589.61	4058.49
589.77	4320.63
589.93	4554.68
590.08	4641.28
590.24	4833.21
590.40	4947.89
590.56	4823.84
590.72	4774.69
590.88	4830.87
591.04	4830.87
591.20	4751.29
591.35	4695.11
591.51	4681.07
591.67	4704.48
591.83	4582.77
591.99	4594.47
592.15	4617.88
592.31	4877.68
592.46	4884.70
592.62	5041.51
592.78	4997.04
592.94	5167.90
593.10	5095.35
593.26	5125.77
593.41	5233.44
593.57	4980.66
593.73	4966.62
593.89	4835.55
594.05	4636.60
594.20	4521.92
594.36	4322.97
594.52	4189.56
594.68	4449.36
594.84	4571.07
594.99	4889.38
595.15	4746.61
595.31	4777.03
595.47	4779.37
595.62	4868.31
595.78	4826.18
595.94	5048.54
596.10	4777.03
596.25	4873.00
596.41	4608.51
596.57	4594.47
596.73	4851.93
596.88	5050.88
597.04	4987.68
597.20	4737.24
597.36	4760.65
597.51	4833.21
597.67	4779.37
