SpectraSuite Data File
++++++++++++++++++++++++++++++++++++
Date: Fri Oct 04 11:44:19 GMT-05:00 2013
User: price-jones
Dark Spectrum Present: No
Reference Spectrum Present: No
Number of Sampled Component Spectra: 1
Spectrometers: USB2+H05261
Integration Time (usec): 100000 (USB2+H05261)
Spectra Averaged: 1 (USB2+H05261)
Boxcar Smoothing: 0 (USB2+H05261)
Correct for Electrical Dark: No (USB2+H05261)
Strobe/Lamp Enabled: No (USB2+H05261)
Correct for Detector Non-linearity: No (USB2+H05261)
Correct for Stray Light: No (USB2+H05261)
Number of Pixels in Processed Spectrum: 2048
>>>>>Begin Processed Spectral Data<<<<<
365.73	53.83
365.92	53.83
366.12	53.83
366.32	0.00
366.52	0.00
366.72	0.00
366.91	0.00
367.11	0.00
367.31	0.00
367.51	0.00
367.70	0.00
367.90	0.00
368.10	0.00
368.30	0.00
368.49	0.00
368.69	0.00
368.89	0.00
369.09	0.00
369.28	0.00
369.48	0.00
369.68	0.00
369.87	4.68
370.07	0.00
370.27	28.09
370.47	95.96
370.66	313.63
370.86	346.40
371.06	465.77
371.25	451.72
371.45	390.87
371.65	330.02
371.84	379.17
372.04	351.08
372.24	416.62
372.44	372.15
372.63	393.21
372.83	397.89
373.03	383.85
373.22	374.49
373.42	367.46
373.62	367.46
373.81	456.40
374.01	442.36
374.21	435.34
374.40	456.40
374.60	491.51
374.79	470.45
374.99	470.45
375.19	564.07
375.38	528.96
375.58	507.90
375.78	503.22
375.97	482.15
376.17	550.03
376.37	482.15
376.56	458.74
376.76	655.35
376.95	603.86
377.15	638.97
377.35	718.54
377.54	692.80
377.74	608.54
377.93	690.46
378.13	709.18
378.33	557.05
378.52	610.88
378.72	528.96
378.91	557.05
379.11	568.75
379.31	592.16
379.50	540.66
379.70	540.66
379.89	592.16
380.09	540.66
380.28	568.75
380.48	653.01
380.68	674.07
380.87	477.47
381.07	531.30
381.26	575.77
381.46	512.58
381.65	500.87
381.85	435.34
382.04	442.36
382.24	461.09
382.43	409.59
382.63	402.57
382.83	463.43
383.02	477.47
383.22	468.11
383.41	407.25
383.61	521.94
383.80	433.00
384.00	493.85
384.19	674.07
384.39	660.03
384.58	627.26
384.78	629.60
384.97	552.37
385.17	566.41
385.36	554.71
385.56	538.32
385.75	554.71
385.95	622.58
386.14	699.82
386.34	664.71
386.53	650.67
386.72	617.90
386.92	580.45
387.11	660.03
387.31	629.60
387.50	669.39
387.70	589.82
387.89	660.03
388.09	582.79
388.28	568.75
388.48	622.58
388.67	643.65
388.86	641.31
389.06	772.38
389.25	772.38
389.45	678.76
389.64	692.80
389.84	741.95
390.03	767.70
390.22	786.42
390.42	716.20
390.61	901.11
390.81	760.67
391.00	800.46
391.19	887.06
391.39	835.57
391.58	812.17
391.78	741.95
391.97	741.95
392.16	664.71
392.36	716.20
392.55	535.98
392.75	411.93
392.94	381.51
393.13	435.34
393.33	397.89
393.52	599.18
393.71	643.65
393.91	683.44
394.10	751.31
394.29	800.46
394.49	840.25
394.68	840.25
394.88	903.45
395.07	950.26
395.26	919.83
395.46	905.79
395.65	887.06
395.84	786.42
396.04	758.33
396.23	575.77
396.42	451.72
396.62	519.60
396.81	528.96
397.00	645.99
397.19	744.29
397.39	964.30
397.58	952.60
397.77	980.68
397.97	1137.50
398.16	1104.73
398.35	1109.41
398.55	1074.31
398.74	1329.42
398.93	1128.14
399.12	1160.91
399.32	1102.39
399.51	1121.12
399.70	1214.74
399.90	1275.59
400.09	1191.33
400.28	1277.93
400.47	1240.48
400.67	1338.79
400.86	1348.15
401.05	1343.47
401.24	1221.76
401.44	1385.60
401.63	1299.00
401.82	1313.04
402.01	1306.02
402.21	1394.96
402.40	1423.05
402.59	1350.49
402.78	1322.40
402.97	1299.00
403.17	1362.19
403.36	1394.96
403.55	1371.55
403.74	1427.73
403.93	1348.15
404.13	1385.60
404.32	1348.15
404.51	1413.68
404.70	1479.22
404.89	1355.17
405.09	1390.28
405.28	1301.34
405.47	1242.82
405.66	1345.81
405.85	1287.29
406.05	1263.89
406.24	1343.47
406.43	1352.83
406.62	1425.39
406.81	1453.47
407.00	1406.66
407.20	1320.06
407.39	1385.60
407.58	1373.89
407.77	1451.13
407.96	1411.34
408.15	1427.73
408.34	1511.99
408.54	1575.18
408.73	1605.61
408.92	1565.82
409.11	1488.58
409.30	1406.66
409.49	1366.87
409.68	1277.93
409.87	1249.85
410.07	1343.47
410.26	1338.79
410.45	1453.47
410.64	1432.41
410.83	1547.09
411.02	1570.50
411.21	1680.50
411.40	1638.38
411.59	1650.08
411.78	1563.48
411.98	1584.54
412.17	1748.38
412.36	1603.27
412.55	1629.01
412.74	1680.50
412.93	1502.62
413.12	1495.60
413.31	1586.88
413.50	1624.33
413.69	1717.95
413.88	1638.38
414.07	1661.78
414.26	1621.99
414.45	1586.88
414.64	1729.66
414.83	1748.38
415.02	1558.80
415.22	1682.85
415.41	1732.00
415.60	1795.19
415.79	1778.81
415.98	1874.77
416.17	1877.11
416.36	1877.11
416.55	1734.34
416.74	1710.93
416.93	1579.86
417.12	1696.89
417.31	1743.70
417.50	1795.19
417.69	1774.13
417.88	1748.38
418.07	1727.32
418.26	1746.04
418.45	1720.29
418.64	1771.79
418.83	1839.66
419.02	1748.38
419.21	1839.66
419.39	1734.34
419.58	1614.97
419.77	1673.48
419.96	1767.10
420.15	1863.07
420.34	1816.26
420.53	1970.73
420.72	1987.11
420.91	1930.94
421.10	1900.52
421.29	1898.17
421.48	1778.81
421.67	1942.64
421.86	1872.43
422.05	1806.89
422.24	1633.69
422.43	1664.12
422.61	1790.51
422.80	1809.23
422.99	1832.64
423.18	1748.38
423.37	1795.19
423.56	1813.92
423.75	1898.17
423.94	1736.68
424.13	1813.92
424.32	1701.57
424.50	1760.08
424.69	1633.69
424.88	1710.93
425.07	1825.62
425.26	1764.76
425.45	1827.96
425.64	1722.63
425.83	1685.19
426.01	1778.81
426.20	1823.28
426.39	1783.49
426.58	1701.57
426.77	1753.06
426.96	1586.88
427.15	1619.65
427.33	1736.68
427.52	1654.76
427.71	1741.36
427.90	1715.61
428.09	1795.19
428.28	1713.27
428.46	1607.95
428.65	1671.14
428.84	1664.12
429.03	1722.63
429.22	1575.18
429.40	1551.78
429.59	1481.56
429.78	1373.89
429.97	1341.13
430.16	1343.47
430.34	1277.93
430.53	1263.89
430.72	1228.78
430.91	1420.71
431.10	1633.69
431.28	1998.82
431.47	1933.28
431.66	2104.14
431.85	1858.39
432.03	1788.17
432.22	1720.29
432.41	1748.38
432.60	1849.02
432.79	1928.60
432.97	1998.82
433.16	2062.01
433.35	1834.98
433.54	1706.25
433.72	1626.67
433.91	1617.31
434.10	1736.68
434.28	1891.15
434.47	1968.39
434.66	1949.67
434.85	1813.92
435.03	1954.35
435.22	2298.41
435.41	2560.55
435.59	2495.01
435.78	2359.26
435.97	2209.47
436.16	2150.95
436.34	2204.78
436.53	2111.16
436.72	2118.18
436.90	1921.58
437.09	2040.95
437.28	1837.32
437.46	1980.09
437.65	2001.16
437.84	1898.17
438.02	1823.28
438.21	1825.62
438.40	1867.75
438.58	1933.28
438.77	1944.99
438.96	2047.97
439.14	2139.25
439.33	2026.90
439.52	2256.28
439.70	2080.74
439.89	2101.80
440.08	2153.29
440.26	1982.43
440.45	2143.93
440.63	2115.84
440.82	2286.70
441.01	2356.92
441.19	2296.07
441.38	2310.11
441.57	2466.92
441.75	2436.50
441.94	2473.95
442.12	2406.07
442.31	2373.30
442.50	2429.48
442.68	2410.75
442.87	2354.58
443.05	2256.28
443.24	2284.36
443.43	2263.30
443.61	2473.95
443.80	2434.16
443.98	2410.75
444.17	2361.60
444.35	2534.80
444.54	2583.95
444.73	2483.31
444.91	2464.58
445.10	2258.62
445.28	2284.36
445.47	2113.50
445.65	2129.89
445.84	2267.98
446.02	2403.73
446.21	2312.45
446.39	2352.24
446.58	2438.84
446.77	2403.73
446.95	2506.71
447.14	2438.84
447.32	2495.01
447.51	2569.91
447.69	2438.84
447.88	2389.69
448.06	2476.29
448.25	2452.88
448.43	2431.82
448.62	2431.82
448.80	2459.90
448.99	2497.35
449.17	2438.84
449.36	2382.67
449.54	2480.97
449.73	2691.62
449.91	2689.28
450.10	2569.91
450.28	2637.78
450.46	2766.51
450.65	2612.04
450.83	2689.28
451.02	2619.06
451.20	2743.11
451.39	2558.21
451.57	2530.12
451.76	2597.99
451.94	2518.42
452.13	2637.78
452.31	2492.67
452.49	2296.07
452.68	2340.54
452.86	2413.09
453.05	2527.78
453.23	2366.28
453.42	2452.88
453.60	2518.42
453.78	2600.34
453.97	2502.03
454.15	2572.25
454.34	2502.03
454.52	2555.86
454.70	2410.75
454.89	2410.75
455.07	2506.71
455.26	2590.97
455.44	2619.06
455.62	2548.84
455.81	2682.25
455.99	2656.51
456.17	2642.46
456.36	2548.84
456.54	2672.89
456.73	2586.29
456.91	2750.13
457.09	2633.10
457.28	2857.79
457.46	2708.00
457.64	2722.04
457.83	2588.63
458.01	2480.97
458.19	2546.50
458.38	2539.48
458.56	2647.15
458.74	2633.10
458.93	2602.68
459.11	2605.02
459.29	2677.57
459.48	2640.12
459.66	2672.89
459.84	2614.38
460.03	2759.49
460.21	2588.63
460.39	2757.15
460.57	2677.57
460.76	2813.32
460.94	2738.43
461.12	2738.43
461.31	2775.88
461.49	2614.38
461.67	2684.59
461.85	2785.24
462.04	2810.98
462.22	3131.64
462.40	2876.52
462.59	2815.66
462.77	2726.72
462.95	2768.85
463.13	2815.66
463.32	2754.81
463.50	2738.43
463.68	2715.02
463.86	2656.51
464.05	2726.72
464.23	2605.02
464.41	2677.57
464.59	2565.23
464.78	2640.12
464.96	2796.94
465.14	2771.19
465.32	2796.94
465.50	2820.35
465.69	2885.88
465.87	2738.43
466.05	2672.89
466.23	2602.68
466.41	2429.48
466.60	2551.18
466.78	2612.04
466.96	2663.53
467.14	2736.09
467.32	2597.99
467.51	2822.69
467.69	2644.81
467.87	2752.47
468.05	2640.12
468.23	2722.04
468.41	2658.85
468.60	2785.24
468.78	2789.92
468.96	2750.13
469.14	2651.83
469.32	2766.51
469.50	2621.40
469.69	2684.59
469.87	2495.01
470.05	2607.36
470.23	2682.25
470.41	2586.29
470.59	2600.34
470.77	2679.91
470.95	2799.28
471.14	2832.05
471.32	2743.11
471.50	2703.32
471.68	2864.82
471.86	2888.22
472.04	2876.52
472.22	3063.76
472.40	2745.45
472.58	2794.60
472.77	2778.22
472.95	2829.71
473.13	2874.18
473.31	2881.20
473.49	2818.00
473.67	2867.16
473.85	2904.60
474.03	2841.41
474.21	2883.54
474.39	2834.39
474.57	2942.05
474.75	3070.78
474.93	2944.39
475.12	2874.18
475.30	2993.55
475.48	2832.05
475.66	2998.23
475.84	2885.88
476.02	2911.63
476.20	2892.90
476.38	2878.86
476.56	3094.19
476.74	3084.83
476.92	2967.80
477.10	3108.23
477.28	3164.40
477.46	3246.32
477.64	3176.11
477.82	3094.19
478.00	3208.87
478.18	3190.15
478.36	3117.59
478.54	3157.38
478.72	3105.89
478.90	3314.20
479.08	3152.70
479.26	3370.37
479.44	3346.97
479.62	3276.75
479.80	3325.90
479.98	3421.86
480.16	3363.35
480.34	3342.28
480.52	3414.84
480.70	3471.01
480.88	3358.67
481.06	3522.51
481.24	3456.97
481.41	3562.30
481.59	3611.45
481.77	3576.34
481.95	3501.44
482.13	3548.25
482.31	3574.00
482.49	3576.34
482.67	3583.36
482.85	3681.66
483.03	3655.92
483.21	3695.71
483.39	3698.05
483.57	3688.68
483.74	3684.00
483.92	3578.68
484.10	3569.32
484.28	3737.84
484.46	3887.63
484.64	3796.35
484.82	3728.47
485.00	3747.20
485.18	3658.26
485.35	3578.68
485.53	3302.50
485.71	3218.24
485.89	3021.63
486.07	3145.68
486.25	3260.37
486.43	3538.89
486.61	3768.26
486.78	3700.39
486.96	3751.88
487.14	3775.28
487.32	3716.77
487.50	3934.44
487.68	4161.47
487.85	4105.30
488.03	4128.70
488.21	3964.87
488.39	4189.56
488.57	3829.12
488.75	3894.65
488.92	4257.43
489.10	4170.83
489.28	4421.27
489.46	4489.15
489.64	4440.00
489.81	4596.81
489.99	4559.36
490.17	4449.36
490.35	4489.15
490.53	4404.89
490.70	4379.14
490.88	4451.70
491.06	4526.60
491.24	4580.43
491.41	4461.06
491.59	4088.92
491.77	4119.34
491.95	4058.49
492.13	4329.99
492.30	4393.19
492.48	4554.68
492.66	4615.54
492.84	4718.52
493.01	4662.35
493.19	4676.39
493.37	4601.49
493.54	4580.43
493.72	4643.62
493.90	4741.93
494.08	4821.50
494.25	4905.76
494.43	5004.07
494.61	4952.57
494.79	4856.61
494.96	4966.62
495.14	4889.38
495.32	4699.80
495.49	4720.86
495.67	4924.49
495.85	4997.04
496.02	5160.88
496.20	5266.21
496.38	5022.79
496.55	5025.13
496.73	5116.41
496.91	5046.20
497.09	5263.86
497.26	5158.54
497.44	5163.22
497.62	5214.71
497.79	4849.59
497.97	4798.10
498.14	4601.49
498.32	4877.68
498.50	5074.28
498.67	5041.51
498.85	5034.49
499.03	5081.30
499.20	5226.42
499.38	5284.93
499.56	5266.21
499.73	5013.43
499.91	5085.98
500.08	4903.42
500.26	4786.40
500.44	4840.23
500.61	4880.02
500.79	4858.95
500.97	4896.40
501.14	4837.89
501.32	4826.18
501.49	4692.77
501.67	4882.36
501.84	4849.59
502.02	4835.55
502.20	4901.08
502.37	5008.75
502.55	5008.75
502.72	5268.55
502.90	5284.93
503.07	5036.83
503.25	4980.66
503.43	4774.69
503.60	4622.56
503.78	4566.39
503.95	4571.07
504.13	4889.38
504.30	5055.56
504.48	5224.08
504.65	5088.32
504.83	5200.67
505.01	5083.64
505.18	5135.14
505.36	5170.24
505.53	5238.12
505.71	5172.58
505.88	5380.89
506.06	5298.97
506.23	5212.37
506.41	5207.69
506.58	5142.16
506.76	5146.84
506.93	5195.99
507.11	5060.24
507.28	5043.85
507.46	5015.77
507.63	4975.98
507.81	5109.39
507.98	4966.62
508.16	5275.57
508.33	5081.30
508.50	5233.44
508.68	5305.99
508.85	5490.90
509.03	5591.54
509.20	5408.98
509.38	5504.94
509.55	5277.91
509.73	5039.17
509.90	5270.89
510.08	5366.85
510.25	5479.19
510.42	5369.19
510.60	5313.02
510.77	5465.15
510.95	5643.03
511.12	5441.75
511.30	5621.97
511.47	5659.42
511.64	5813.89
511.82	5591.54
511.99	5472.17
512.17	5343.44
512.34	5195.99
512.51	5284.93
512.69	5444.09
512.86	5392.59
513.04	5336.42
513.21	5287.27
513.38	5315.36
513.56	5130.45
513.73	5139.82
513.90	5139.82
514.08	5284.93
514.25	5266.21
514.43	5191.31
514.60	5207.69
514.77	5413.66
514.95	5486.22
515.12	5334.08
515.29	5390.25
515.47	5455.79
515.64	5680.48
515.81	5444.09
515.99	5446.43
516.16	5163.22
516.33	4894.06
516.51	4526.60
516.68	4484.47
516.85	4402.55
517.03	4304.25
517.20	4798.10
517.37	5172.58
517.54	5416.00
517.72	5472.17
517.89	4863.63
518.06	4617.88
518.24	4608.51
518.41	4802.78
518.58	5165.56
518.75	5093.01
518.93	5128.11
519.10	5078.96
519.27	5259.18
519.45	5305.99
519.62	5472.17
519.79	5523.66
519.96	5504.94
520.14	5441.75
520.31	5214.71
520.48	5334.08
520.65	5280.25
520.83	5633.67
521.00	5397.28
521.17	5537.71
521.34	5425.36
521.52	5327.06
521.69	5584.52
521.86	5788.14
522.03	5530.69
522.20	5315.36
522.38	5111.73
522.55	5151.52
522.72	5345.78
522.89	5291.95
523.07	5345.78
523.24	5427.70
523.41	5561.11
523.58	5603.24
523.75	5699.20
523.92	5570.48
524.10	5701.54
524.27	5792.83
524.44	5497.92
524.61	5708.57
524.78	5458.13
524.96	5406.64
525.13	5448.77
525.30	5535.37
525.47	5813.89
525.64	5664.10
525.81	5526.00
525.98	5296.63
526.16	5181.95
526.33	4945.55
526.50	4828.53
526.67	4636.60
526.84	4891.72
527.01	5093.01
527.18	5214.71
527.36	5507.28
527.53	5633.67
527.70	5596.22
527.87	5434.72
528.04	5308.34
528.21	5467.49
528.38	5596.22
528.55	5753.04
528.72	5727.29
528.89	5930.92
529.07	5755.38
529.24	5659.42
529.41	5509.62
529.58	5324.72
529.75	5427.70
529.92	5575.16
530.09	5652.39
530.26	5483.88
530.43	5788.14
530.60	5879.43
530.77	5928.58
530.94	5914.53
531.11	5678.14
531.28	5846.66
531.46	5727.29
531.63	5671.12
531.80	5746.02
531.97	5636.01
532.14	5593.88
532.31	5275.57
532.48	5191.31
532.65	4985.34
532.82	5200.67
532.99	5418.34
533.16	5598.56
533.33	5631.33
533.50	5668.78
533.67	5568.13
533.84	5303.65
534.01	5338.76
534.18	5556.43
534.35	5542.39
534.52	5533.03
534.69	5586.86
534.86	5715.59
535.03	5621.97
535.20	5799.85
535.37	5790.49
535.54	5872.40
535.71	5706.23
535.88	5933.26
536.05	5650.05
536.22	5497.92
536.38	5540.05
536.55	5434.72
536.72	5329.40
536.89	5259.18
537.06	5181.95
537.23	5493.24
537.40	5586.86
537.57	5710.91
537.74	5544.73
537.91	5741.33
538.08	5664.10
538.25	5607.92
538.42	5462.81
538.59	5699.20
538.75	5511.96
538.92	5392.59
539.09	5418.34
539.26	5352.81
539.43	5376.21
539.60	5458.13
539.77	5617.29
539.94	5434.72
540.11	5479.19
540.28	5291.95
540.44	5224.08
540.61	5247.48
540.78	5518.98
540.95	5472.17
541.12	5488.56
541.29	5809.21
541.46	5785.80
541.62	5734.31
541.79	5930.92
541.96	5724.95
542.13	5790.49
542.30	5715.59
542.47	5788.14
542.63	5710.91
542.80	5610.26
542.97	5699.20
543.14	5600.90
543.31	5600.90
543.48	5769.42
543.64	5879.43
543.81	5858.36
543.98	5872.40
544.15	5809.21
544.32	5659.42
544.48	5619.63
544.65	5680.48
544.82	5849.00
544.99	5715.59
545.16	5729.63
545.32	5720.27
545.49	5977.73
545.66	6492.65
545.83	6810.96
546.00	6565.20
546.16	6085.39
546.33	5841.98
546.50	5708.57
546.67	5781.12
546.83	5724.95
547.00	5640.69
547.17	5654.73
547.34	5329.40
547.50	5432.38
547.67	5448.77
547.84	5446.43
548.00	5423.02
548.17	5540.05
548.34	5760.06
548.51	5537.71
548.67	5465.15
548.84	5565.79
549.01	5547.07
549.18	5586.86
549.34	5511.96
549.51	5476.85
549.68	5518.98
549.84	5444.09
550.01	5439.40
550.18	5582.18
550.34	5523.66
550.51	5434.72
550.68	5521.32
550.84	5231.10
551.01	5373.87
551.18	5341.10
551.34	5268.55
551.51	5394.93
551.68	5446.43
551.84	5476.85
552.01	5500.26
552.18	5490.90
552.34	5364.51
552.51	5231.10
552.68	5277.91
552.84	5214.71
553.01	5404.30
553.18	5385.57
553.34	5291.95
553.51	5238.12
553.67	5399.62
553.84	5373.87
554.01	5418.34
554.17	5350.46
554.34	5273.23
554.51	5343.44
554.67	5341.10
554.84	5371.53
555.00	5533.03
555.17	5472.17
555.33	5303.65
555.50	5366.85
555.67	5275.57
555.83	5261.52
556.00	5242.80
556.16	5327.06
556.33	5085.98
556.50	5109.39
556.66	5116.41
556.83	5114.07
556.99	5219.39
557.16	5170.24
557.32	5153.86
557.49	5195.99
557.65	5083.64
557.82	5310.68
557.98	5135.14
558.15	5046.20
558.32	4968.96
558.48	4896.40
558.65	4809.80
558.81	4791.08
558.98	4954.91
559.14	5020.45
559.31	5020.45
559.47	5067.26
559.64	4985.34
559.80	4919.81
559.97	4772.35
560.13	4992.36
560.30	5177.26
560.46	5163.22
560.63	5268.55
560.79	5210.03
560.96	5233.44
561.12	4997.04
561.29	5081.30
561.45	4917.47
561.61	5008.75
561.78	5062.58
561.94	5027.47
562.11	4999.38
562.27	4994.70
562.44	4924.49
562.60	4964.28
562.77	5158.54
562.93	5165.56
563.10	5069.60
563.26	4847.25
563.42	5067.26
563.59	4924.49
563.75	4741.93
563.92	4847.25
564.08	5001.72
564.24	4877.68
564.41	5067.26
564.57	4877.68
564.74	4865.97
564.90	4884.70
565.07	5001.72
565.23	4975.98
565.39	4793.42
565.56	4748.95
565.72	4648.30
565.88	4685.75
566.05	4711.50
566.21	4847.25
566.38	4755.97
566.54	4805.12
566.70	4966.62
566.87	4936.19
567.03	4793.42
567.19	4741.93
567.36	5022.79
567.52	4744.27
567.68	4816.82
567.85	4683.41
568.01	4542.98
568.17	4430.63
568.34	4383.82
568.50	4617.88
568.66	4386.16
568.83	4592.13
568.99	4606.17
569.15	4587.45
569.32	4566.39
569.48	4489.15
569.64	4475.10
569.81	4491.49
569.97	4435.32
570.13	4582.77
570.30	4397.87
570.46	4491.49
570.62	4341.69
570.78	4278.50
570.95	4276.16
571.11	4395.53
571.27	4400.21
571.43	4430.63
571.60	4402.55
571.76	4262.12
571.92	4526.60
572.09	4573.41
572.25	4603.83
572.41	4685.75
572.57	4599.15
572.74	4568.73
572.90	4519.57
573.06	4580.43
573.22	4533.62
573.38	4542.98
573.55	4545.32
573.71	4599.15
573.87	4528.94
574.03	4486.81
574.20	4449.36
574.36	4442.34
574.52	4404.89
574.68	4358.08
574.84	4346.37
575.01	4346.37
575.17	4273.82
575.33	4187.22
575.49	4332.33
575.65	4545.32
575.82	4327.65
575.98	4411.91
576.14	4402.55
576.30	4435.32
576.46	4329.99
576.62	4533.62
576.79	4608.51
576.95	4468.08
577.11	4437.66
577.27	4325.31
577.43	4461.06
577.59	4329.99
577.75	4292.54
577.92	4102.96
578.08	4238.71
578.24	4248.07
578.40	4271.48
578.56	4402.55
578.72	4524.26
578.88	4465.74
579.04	4643.62
579.21	4339.35
579.37	4524.26
579.53	4449.36
579.69	4411.91
579.85	4606.17
580.01	4475.10
580.17	4524.26
580.33	4421.27
580.49	4430.63
580.65	4447.02
580.82	4400.21
580.98	4423.61
581.14	4388.50
581.30	4362.76
581.46	4397.87
581.62	4500.85
581.78	4329.99
581.94	4416.59
582.10	4489.15
582.26	4629.58
582.42	4369.78
582.58	4526.60
582.74	4418.93
582.90	4669.37
583.06	4521.92
583.22	4339.35
583.38	4430.63
583.54	4430.63
583.70	4596.81
583.86	4372.12
584.02	4430.63
584.18	4423.61
584.34	4456.38
584.50	4435.32
584.66	4348.72
584.82	4390.84
584.98	4327.65
585.14	4243.39
585.30	4292.54
585.46	4222.33
585.62	4065.51
585.78	4145.09
585.94	4182.54
586.10	4205.94
586.26	4248.07
586.42	4315.95
586.58	4400.21
586.74	4388.50
586.90	4269.14
587.06	4236.37
587.22	4306.59
587.38	3941.46
587.54	4025.72
587.70	4072.53
587.86	3801.03
588.02	3691.02
588.18	3651.24
588.34	3529.53
588.49	3276.75
588.65	3183.13
588.81	2972.48
588.97	2967.80
589.13	2935.03
589.29	3082.49
589.45	3023.97
589.61	2960.78
589.77	3272.07
589.93	3379.73
590.08	3412.50
590.24	3592.72
590.40	3548.25
590.56	3609.11
590.72	3496.76
590.88	3494.42
591.04	3534.21
591.20	3520.17
591.35	3515.48
591.51	3541.23
591.67	3445.27
591.83	3400.80
591.99	3396.12
592.15	3468.67
592.31	3548.25
592.46	3672.30
592.62	3660.60
592.78	3637.19
592.94	3812.73
593.10	3742.52
593.26	3779.97
593.41	3723.79
593.57	3761.24
593.73	3581.02
593.89	3449.95
594.05	3335.26
594.20	3215.90
594.36	3344.63
594.52	3248.66
594.68	3267.39
594.84	3520.17
594.99	3548.25
595.15	3698.05
595.31	3674.64
595.47	3487.40
595.62	3529.53
595.78	3590.38
595.94	3761.24
596.10	3726.13
596.25	3744.86
596.41	3669.96
596.57	3531.87
596.73	3581.02
596.88	3618.47
597.04	3651.24
597.20	3578.68
597.36	3557.61
597.51	3611.45
597.67	3543.57
597.83	3653.58
597.99	3843.16
