SpectraSuite Data File
++++++++++++++++++++++++++++++++++++
Date: Fri Oct 04 11:44:16 GMT-05:00 2013
User: price-jones
Dark Spectrum Present: No
Reference Spectrum Present: No
Number of Sampled Component Spectra: 1
Spectrometers: USB2+H05261
Integration Time (usec): 100000 (USB2+H05261)
Spectra Averaged: 1 (USB2+H05261)
Boxcar Smoothing: 0 (USB2+H05261)
Correct for Electrical Dark: No (USB2+H05261)
Strobe/Lamp Enabled: No (USB2+H05261)
Correct for Detector Non-linearity: No (USB2+H05261)
Correct for Stray Light: No (USB2+H05261)
Number of Pixels in Processed Spectrum: 2048
>>>>>Begin Processed Spectral Data<<<<<
365.73	30.43
365.92	30.43
366.12	30.43
366.32	0.00
366.52	0.00
366.72	11.70
366.91	0.00
367.11	0.00
367.31	0.00
367.51	0.00
367.70	0.00
367.90	0.00
368.10	0.00
368.30	0.00
368.49	0.00
368.69	0.00
368.89	0.00
369.09	0.00
369.28	0.00
369.48	0.00
369.68	0.00
369.87	0.00
370.07	9.36
370.27	0.00
370.47	198.95
370.66	734.93
370.86	777.06
371.06	840.25
371.25	980.68
371.45	889.40
371.65	767.70
371.84	741.95
372.04	741.95
372.24	763.01
372.44	830.89
372.63	875.36
372.83	917.49
373.03	802.80
373.22	732.59
373.42	723.23
373.62	844.93
373.81	814.51
374.01	863.66
374.21	873.02
374.40	732.59
374.60	788.76
374.79	877.70
374.99	896.43
375.19	1027.50
375.38	1015.79
375.58	1060.26
375.78	1006.43
375.97	1022.81
376.17	1123.46
376.37	1011.11
376.56	1074.31
376.76	1151.54
376.95	1203.04
377.15	1280.27
377.35	1266.23
377.54	1303.68
377.74	1308.36
377.93	1359.85
378.13	1352.83
378.33	1301.34
378.52	1167.93
378.72	1224.10
378.91	1181.97
379.11	1027.50
379.31	1118.78
379.50	1008.77
379.70	1203.04
379.89	1226.44
380.09	1172.61
380.28	1270.91
380.48	1369.21
380.68	1296.66
380.87	1205.38
381.07	1188.99
381.26	1107.07
381.46	1160.91
381.65	973.66
381.85	952.60
382.04	978.34
382.24	919.83
382.43	903.45
382.63	844.93
382.83	849.61
383.02	748.97
383.22	812.17
383.41	786.42
383.61	933.87
383.80	987.71
384.00	1114.10
384.19	1263.89
384.39	1207.72
384.58	1291.98
384.78	1376.24
384.97	1324.74
385.17	1172.61
385.36	1118.78
385.56	1132.82
385.75	1111.75
385.95	1245.16
386.14	1345.81
386.34	1357.51
386.53	1247.51
386.72	1167.93
386.92	1282.61
387.11	1387.94
387.31	1296.66
387.50	1343.47
387.70	1205.38
387.89	1238.14
388.09	1275.59
388.28	1174.95
388.48	1336.45
388.67	1373.89
388.86	1551.78
389.06	1572.84
389.25	1624.33
389.45	1734.34
389.64	1598.59
389.84	1675.82
390.03	1659.44
390.22	1650.08
390.42	1582.20
390.61	1792.85
390.81	1846.68
391.00	1860.73
391.19	1926.26
391.39	1750.72
391.58	1755.40
391.78	1675.82
391.97	1619.65
392.16	1551.78
392.36	1277.93
392.55	1114.10
392.75	936.21
392.94	842.59
393.13	781.74
393.33	915.15
393.52	1121.12
393.71	1238.14
393.91	1474.54
394.10	1504.96
394.29	1675.82
394.49	1771.79
394.68	1916.90
394.88	1856.04
395.07	1905.20
395.26	2015.20
395.46	1858.39
395.65	1806.89
395.84	1605.61
396.04	1451.13
396.23	1219.42
396.42	1074.31
396.62	1015.79
396.81	1179.63
397.00	1366.87
397.19	1593.90
397.39	1886.47
397.58	2228.19
397.77	2221.17
397.97	2291.38
398.16	2373.30
398.35	2555.86
398.55	2516.08
398.74	2633.10
398.93	2621.40
399.12	2541.82
399.32	2583.95
399.51	2581.61
399.70	2764.17
399.90	2649.49
400.09	2616.72
400.28	2747.79
400.47	2537.14
400.67	2944.39
400.86	2949.08
401.05	2951.42
401.24	2958.44
401.44	2935.03
401.63	2923.33
401.82	2963.12
402.01	2923.33
402.21	2925.67
402.40	3009.93
402.59	2913.97
402.78	2810.98
402.97	2803.96
403.17	2715.02
403.36	3045.04
403.55	3164.40
403.74	3056.74
403.93	2995.89
404.13	2794.60
404.32	2918.65
404.51	2871.84
404.70	3150.36
404.89	2956.10
405.09	3084.83
405.28	2867.16
405.47	2888.22
405.66	2853.11
405.85	2780.56
406.05	2733.75
406.24	2808.64
406.43	2813.32
406.62	2960.78
406.81	3089.51
407.00	2848.43
407.20	2780.56
407.39	2899.92
407.58	3009.93
407.77	3066.10
407.96	3075.46
408.15	3260.37
408.34	3208.87
408.54	3403.14
408.73	3363.35
408.92	3194.83
409.11	3194.83
409.30	3094.19
409.49	3002.91
409.68	2862.48
409.87	2705.66
410.07	2967.80
410.26	2958.44
410.45	3232.28
410.64	3365.69
410.83	3363.35
411.02	3393.78
411.21	3616.13
411.40	3513.14
411.59	3630.17
411.78	3435.91
411.98	3459.31
412.17	3459.31
412.36	3492.08
412.55	3506.12
412.74	3414.84
412.93	3375.05
413.12	3337.60
413.31	3627.83
413.50	3686.34
413.69	3700.39
413.88	3688.68
414.07	3466.33
414.26	3590.38
414.45	3700.39
414.64	3597.40
414.83	3681.66
415.02	3515.48
415.22	3826.78
415.41	3770.60
415.60	3892.31
415.79	3946.14
415.98	4070.19
416.17	3941.46
416.36	4081.89
416.55	3932.10
416.74	3693.37
416.93	3613.79
417.12	3644.21
417.31	3585.70
417.50	3833.80
417.69	3934.44
417.88	3733.15
418.07	3817.41
418.26	3831.46
418.45	3854.86
418.64	3913.38
418.83	3906.35
419.02	3981.25
419.21	3840.82
419.39	3906.35
419.58	3627.83
419.77	3702.73
419.96	3866.56
420.15	4037.42
420.34	4072.53
420.53	4074.87
420.72	4269.14
420.91	4133.39
421.10	4203.60
421.29	4128.70
421.48	3964.87
421.67	4189.56
421.86	4077.21
422.05	3789.33
422.24	3510.80
422.43	3501.44
422.61	3803.37
422.80	4037.42
422.99	4009.34
423.18	3906.35
423.37	3854.86
423.56	3885.29
423.75	3929.76
423.94	3978.91
424.13	3763.58
424.32	3889.97
424.50	3922.74
424.69	3794.01
424.88	3847.84
425.07	3784.65
425.26	3829.12
425.45	3829.12
425.64	3770.60
425.83	3637.19
426.01	3815.07
426.20	4014.02
426.39	3908.69
426.58	3581.02
426.77	3428.88
426.96	3412.50
427.15	3419.52
427.33	3651.24
427.52	3691.02
427.71	3950.82
427.90	3702.73
428.09	3660.60
428.28	3749.54
428.46	3541.23
428.65	3452.29
428.84	3562.30
429.03	3714.43
429.22	3552.93
429.40	3262.71
429.59	3049.72
429.78	2703.32
429.97	2693.96
430.16	2724.38
430.34	2818.00
430.53	2780.56
430.72	2778.22
430.91	3131.64
431.10	3468.67
431.28	4102.96
431.47	4381.48
431.66	4512.55
431.85	4215.30
432.03	3794.01
432.22	3812.73
432.41	3889.97
432.60	4327.65
432.79	4285.52
432.97	4386.16
433.16	4341.69
433.35	3978.91
433.54	3674.64
433.72	3578.68
433.91	3496.76
434.10	3707.41
434.28	4117.00
434.47	4311.27
434.66	4191.90
434.85	4231.69
435.03	4182.54
435.22	4477.44
435.41	4734.90
435.59	4903.42
435.78	4842.57
435.97	4739.58
436.16	4695.11
436.34	4620.22
436.53	4627.24
436.72	4669.37
436.90	4407.23
437.09	4264.46
437.28	4231.69
437.46	4224.67
437.65	4360.42
437.84	4004.66
438.02	3798.69
438.21	3772.94
438.40	3843.16
438.58	4205.94
438.77	4266.80
438.96	4208.28
439.14	4514.89
439.33	4610.86
439.52	4816.82
439.70	4655.33
439.89	4568.73
440.08	4454.04
440.26	4440.00
440.45	4645.96
440.63	4711.50
440.82	4973.64
441.01	4938.53
441.19	4884.70
441.38	4926.83
441.57	5036.83
441.75	5170.24
441.94	5280.25
442.12	5100.03
442.31	5331.74
442.50	5392.59
442.68	5322.38
442.87	5191.31
443.05	5102.37
443.24	5020.45
443.43	5317.70
443.61	5198.33
443.80	5439.40
443.98	5123.43
444.17	5022.79
444.35	5249.82
444.54	5518.98
444.73	5455.79
444.91	5373.87
445.10	5181.95
445.28	4926.83
445.47	4887.04
445.65	4861.29
445.84	4945.55
446.02	5111.73
446.21	5184.29
446.39	5128.11
446.58	5158.54
446.77	5256.84
446.95	5301.31
447.14	5439.40
447.32	5497.92
447.51	5437.06
447.69	5191.31
447.88	5172.58
448.06	5193.65
448.25	5369.19
448.43	5521.32
448.62	5486.22
448.80	5233.44
448.99	5439.40
449.17	5406.64
449.36	5217.05
449.54	5650.05
449.73	5710.91
449.91	5636.01
450.10	5940.28
450.28	5933.26
450.46	5975.39
450.65	5851.34
450.83	5954.32
451.02	5893.47
451.20	5755.38
451.39	5633.67
451.57	5486.22
451.76	5696.86
451.94	5650.05
452.13	5668.78
452.31	5270.89
452.49	5130.45
452.68	5137.48
452.86	5029.81
453.05	5275.57
453.23	5359.83
453.42	5390.25
453.60	5561.11
453.78	5664.10
453.97	5472.17
454.15	5614.95
454.34	5507.28
454.52	5533.03
454.70	5397.28
454.89	5469.83
455.07	5495.58
455.26	5572.82
455.44	5631.33
455.62	5823.25
455.81	5834.96
455.99	5867.72
456.17	5715.59
456.36	5816.23
456.54	5856.02
456.73	5830.27
456.91	6015.18
457.09	6092.41
457.28	6193.06
457.46	5914.53
457.64	5881.77
457.83	5572.82
458.01	5483.88
458.19	5626.65
458.38	5591.54
458.56	6080.71
458.74	5895.81
458.93	5771.76
459.11	5722.61
459.29	5605.58
459.48	5783.46
459.66	5738.99
459.84	5825.59
460.03	6040.92
460.21	5909.85
460.39	5956.66
460.57	6001.13
460.76	6031.56
460.94	6157.95
461.12	5879.43
461.31	5970.71
461.49	5940.28
461.67	5982.41
461.85	6303.06
462.04	6010.50
462.22	6452.86
462.40	6076.03
462.59	6085.39
462.77	6221.14
462.95	6008.16
463.13	6012.84
463.32	6057.31
463.50	5898.15
463.68	5973.05
463.86	6106.46
464.05	5746.02
464.23	5720.27
464.41	5832.62
464.59	5607.92
464.78	5914.53
464.96	5839.64
465.14	5921.56
465.32	5984.75
465.50	6246.89
465.69	6179.01
465.87	5989.43
466.05	6043.26
466.23	5685.16
466.41	5540.05
466.60	5579.84
466.78	5692.18
466.96	5937.94
467.14	5811.55
467.32	5996.45
467.51	6029.22
467.69	5671.12
467.87	5797.51
468.05	5881.77
468.23	5909.85
468.41	5823.25
468.60	5867.72
468.78	6094.76
468.96	5895.81
469.14	6022.20
469.32	5959.00
469.50	5856.02
469.69	5865.38
469.87	5715.59
470.05	5767.08
470.23	5769.42
470.41	5713.25
470.59	5692.18
470.77	5844.32
470.95	6064.33
471.14	6024.54
471.32	6263.27
471.50	6366.26
471.68	6420.09
471.86	6317.11
472.04	6462.22
472.22	6441.15
472.40	6097.10
472.58	6108.80
472.77	6022.20
472.95	6118.16
473.13	6326.47
473.31	6204.76
473.49	6153.27
473.67	6207.10
473.85	6174.33
474.03	6239.87
474.21	6415.41
474.39	6560.52
474.57	6602.65
474.75	6544.14
474.93	6487.96
475.12	6401.37
475.30	6406.05
475.48	6387.32
475.66	6520.73
475.84	6424.77
476.02	6441.15
476.20	6246.89
476.38	6408.39
476.56	6642.44
476.74	6586.27
476.92	6633.08
477.10	6757.13
477.28	7016.93
477.46	7155.02
477.64	7089.48
477.82	7049.69
478.00	7145.66
478.18	6991.18
478.36	6951.39
478.54	6815.64
478.72	6902.24
478.90	7349.28
479.08	7431.20
479.26	7569.29
479.44	7506.10
479.62	7393.75
479.80	7552.91
479.98	7522.48
480.16	7550.57
480.34	7606.74
480.52	7630.15
480.70	7356.30
480.88	7517.80
481.06	7831.43
481.24	7702.70
481.41	7838.45
481.59	8093.57
481.77	7929.74
481.95	7992.93
482.13	7726.11
482.31	7836.11
482.49	7988.25
482.67	7915.69
482.85	7899.31
483.03	8177.83
483.21	8407.20
483.39	8184.85
483.57	8255.07
483.74	8037.40
483.92	8170.81
484.10	8184.85
484.28	8334.65
484.46	8622.53
484.64	8348.69
484.82	8444.65
485.00	8081.87
485.18	8021.02
485.35	7906.33
485.53	7337.58
485.71	6710.32
485.89	6513.71
486.07	6848.41
486.25	7360.98
486.43	7859.52
486.61	8013.99
486.78	8004.63
486.96	7962.50
487.14	8381.46
487.32	8397.84
487.50	8727.86
487.68	8858.93
487.85	9100.00
488.03	9226.39
488.21	9053.19
488.39	8645.94
488.57	8760.63
488.75	8688.07
488.92	8975.95
489.10	9238.09
489.28	9760.03
489.46	9806.84
489.64	9956.64
489.81	9881.74
489.99	9975.36
490.17	9949.62
490.35	9942.60
490.53	9888.76
490.70	9937.91
490.88	9591.52
491.06	10092.39
491.24	10026.86
491.41	9593.86
491.59	9095.32
491.77	9074.26
491.95	9310.65
492.13	9605.56
492.30	9738.97
492.48	10195.37
492.66	10487.94
492.84	10291.34
493.01	10340.49
493.19	10244.52
493.37	9994.09
493.54	9914.51
493.72	10054.94
493.90	10504.32
494.08	10768.80
494.25	10817.96
494.43	10829.66
494.61	11293.08
494.79	11007.54
494.96	10949.03
495.14	10916.26
495.32	10530.07
495.49	10729.02
495.67	10462.19
495.85	11150.31
496.02	11236.91
496.20	11342.24
496.38	11138.61
496.55	11056.69
496.73	11559.91
496.91	11428.84
497.09	11482.67
497.26	11611.40
497.44	11580.97
497.62	11204.14
497.79	11044.99
497.97	10520.71
498.14	10415.38
498.32	10822.64
498.50	11126.91
498.67	11302.45
498.85	11676.93
499.03	11534.16
499.20	11620.76
499.38	11569.27
499.56	11573.95
499.73	11211.17
499.91	11157.33
500.08	10981.79
500.26	10782.85
500.44	10960.73
500.61	11091.80
500.79	10932.64
500.97	10721.99
501.14	10944.34
501.32	10740.72
501.49	10626.03
501.67	10567.52
501.84	10923.28
502.02	11236.91
502.20	11236.91
502.37	10963.07
502.55	11110.52
502.72	11194.78
502.90	11719.06
503.07	10995.84
503.25	11042.65
503.43	10595.61
503.60	10406.02
503.78	10059.62
503.95	10167.29
504.13	10843.70
504.30	11227.55
504.48	11438.20
504.65	11431.18
504.83	11414.79
505.01	11489.69
505.18	11705.02
505.36	11887.58
505.53	11894.60
505.71	12039.72
505.88	12173.13
506.06	11903.96
506.23	11852.47
506.41	11410.11
506.58	11597.35
506.76	11557.57
506.93	11433.52
507.11	11412.45
507.28	11620.76
507.46	11199.46
507.63	11239.25
507.81	11215.85
507.98	11059.03
508.16	11351.60
508.33	11770.55
508.50	11728.42
508.68	11735.45
508.85	12140.36
509.03	12257.39
509.20	12208.23
509.38	11932.05
509.55	11662.89
509.73	11541.18
509.90	11700.34
510.08	12156.74
510.25	12049.08
510.42	11868.86
510.60	11702.68
510.77	11915.67
510.95	12226.96
511.12	12184.83
511.30	12414.20
511.47	12655.28
511.64	12669.32
511.82	12512.50
511.99	12095.89
512.17	12086.53
512.34	11763.53
512.51	11829.07
512.69	11880.56
512.86	11840.77
513.04	11918.01
513.21	12175.47
513.38	11768.21
513.56	11744.81
513.73	11623.10
513.90	11515.44
514.08	11740.13
514.25	11782.26
514.43	11805.66
514.60	11672.25
514.77	11913.33
514.95	12077.16
515.12	12025.67
515.29	11833.75
515.47	12313.56
515.64	12472.71
515.81	12198.87
515.99	12131.00
516.16	11445.22
516.33	10684.55
516.51	10094.73
516.68	9729.61
516.85	9497.89
517.03	9816.21
517.20	10424.75
517.37	11536.50
517.54	12023.33
517.72	11903.96
517.89	10846.04
518.06	10258.57
518.24	10043.24
518.41	10806.25
518.58	11323.51
518.75	11695.66
518.93	11606.72
519.10	11534.16
519.27	11529.48
519.45	11698.00
519.62	12123.98
519.79	12215.26
519.96	12072.48
520.14	12248.02
520.31	11627.78
520.48	11786.94
520.65	11529.48
520.83	12166.10
521.00	12428.24
521.17	12091.21
521.34	12020.99
521.52	12166.10
521.69	12498.46
521.86	12425.90
522.03	12669.32
522.20	11971.84
522.38	11765.87
522.55	11449.90
522.72	11550.54
522.89	11789.28
523.07	12060.78
523.24	11861.84
523.41	12219.94
523.58	12397.82
523.75	12690.38
523.92	12643.57
524.10	12781.67
524.27	12638.89
524.44	12428.24
524.61	12336.96
524.78	12259.73
524.96	12491.44
525.13	12159.08
525.30	12248.02
525.47	12753.58
525.64	12622.51
525.81	12351.01
525.98	11805.66
526.16	10998.18
526.33	10757.10
526.50	10590.92
526.67	10651.78
526.84	10743.06
527.01	11183.08
527.18	11307.13
527.36	11634.80
527.53	12060.78
527.70	12521.87
527.87	12252.70
528.04	12142.70
528.21	12149.72
528.38	12442.29
528.55	12805.07
528.72	12769.96
528.89	12898.69
529.07	12872.95
529.24	12393.14
529.41	12341.64
529.58	11915.67
529.75	11910.99
529.92	12180.15
530.09	12451.65
530.26	12528.89
530.43	12748.90
530.60	12851.88
530.77	12725.49
530.94	13130.41
531.11	12823.80
531.28	12465.69
531.46	12458.67
531.63	12458.67
531.80	12519.53
531.97	12290.15
532.14	12231.64
532.31	11494.37
532.48	11517.78
532.65	11426.50
532.82	11477.99
532.99	12196.53
533.16	12168.45
533.33	12519.53
533.50	12383.77
533.67	12290.15
533.84	11850.13
534.01	12198.87
534.18	12224.62
534.35	12358.03
534.52	12262.07
534.69	12315.90
534.86	12306.54
535.03	12332.28
535.20	12503.14
535.37	12872.95
535.54	12858.90
535.71	12711.45
535.88	12975.93
536.05	12372.07
536.22	12208.23
536.38	12372.07
536.55	11910.99
536.72	12018.65
536.89	11679.27
537.06	11796.30
537.23	12334.62
537.40	12390.80
537.57	12266.75
537.74	12032.69
537.91	12348.67
538.08	12664.64
538.25	12294.83
538.42	12318.24
538.59	12327.60
538.75	12058.44
538.92	11971.84
539.09	12058.44
539.26	11957.80
539.43	11744.81
539.60	11903.96
539.77	11887.58
539.94	11880.56
540.11	11473.31
540.28	11300.11
540.44	11307.13
540.61	11183.08
540.78	11461.60
540.95	11559.91
541.12	11712.04
541.29	11903.96
541.46	12116.95
541.62	12233.98
541.79	12126.32
541.96	11880.56
542.13	11964.82
542.30	12278.45
542.47	12126.32
542.63	12095.89
542.80	11651.19
542.97	11854.81
543.14	11836.09
543.31	11929.71
543.48	12147.38
543.64	12699.75
543.81	12592.08
543.98	12716.13
544.15	12400.16
544.32	12168.45
544.48	11997.59
544.65	12016.31
544.82	12423.56
544.99	12226.96
545.16	12091.21
545.32	11903.96
545.49	12685.70
545.66	12973.59
545.83	13001.68
546.00	12514.84
546.16	12336.96
546.33	11896.94
546.50	12119.29
546.67	12112.27
546.83	12030.35
547.00	12009.29
547.17	11669.91
547.34	11705.02
547.50	11477.99
547.67	11735.45
547.84	11405.43
548.00	11758.85
548.17	12252.70
548.34	11941.41
548.51	11868.86
548.67	11946.09
548.84	12154.40
549.01	12025.67
549.18	11829.07
549.34	12004.61
549.51	11705.02
549.68	11829.07
549.84	11922.69
550.01	11901.62
550.18	11648.85
550.34	11983.54
550.51	11927.37
550.68	12039.72
550.84	11431.18
551.01	11529.48
551.18	11730.76
551.34	11700.34
551.51	11721.40
551.68	12044.40
551.84	11899.28
552.01	11960.14
552.18	11908.65
552.34	11798.64
552.51	11290.74
552.68	11208.83
552.84	11700.34
553.01	11758.85
553.18	11609.06
553.34	11894.60
553.51	11838.43
553.67	11700.34
553.84	11604.38
554.01	11676.93
554.17	11449.90
554.34	11716.72
554.51	11716.72
554.67	11920.35
554.84	11857.15
555.00	11927.37
555.17	11632.46
555.33	11499.05
555.50	11777.58
555.67	11557.57
555.83	11459.26
556.00	11187.76
556.16	11555.22
556.33	11459.26
556.50	11056.69
556.66	11311.81
556.83	11049.67
556.99	11108.18
557.16	11304.79
557.32	10972.43
557.49	11412.45
557.65	11201.80
557.82	11344.58
557.98	11150.31
558.15	11290.74
558.32	10995.84
558.48	10403.68
558.65	10459.85
558.81	10836.68
558.98	10541.77
559.14	10951.37
559.31	10841.36
559.47	10813.28
559.64	11073.07
559.80	10501.98
559.97	10602.63
560.13	10721.99
560.30	11087.12
560.46	11382.03
560.63	11363.30
560.79	11360.96
560.96	11503.73
561.12	11227.55
561.29	10658.80
561.45	10684.55
561.61	10789.87
561.78	10942.00
561.94	10890.51
562.11	10977.11
562.27	10705.61
562.44	11035.63
562.60	11052.01
562.77	11276.70
562.93	11126.91
563.10	11124.57
563.26	10953.71
563.42	11087.12
563.59	10862.43
563.75	10633.05
563.92	10757.10
564.08	10733.70
564.24	10799.23
564.41	10815.62
564.57	10953.71
564.74	10944.34
564.90	10932.64
565.07	10696.25
565.23	10649.44
565.39	10373.25
565.56	10464.54
565.72	10141.54
565.88	10335.81
566.05	10251.55
566.21	10183.67
566.38	10455.17
566.54	10602.63
566.70	10597.95
566.87	10684.55
567.03	10782.85
567.19	10773.49
567.36	10546.45
567.52	10661.14
567.68	10504.32
567.85	10134.52
568.01	10026.86
568.17	10078.35
568.34	9863.02
568.50	9427.68
568.66	9596.20
568.83	9736.63
568.99	9760.03
569.15	9963.66
569.32	10200.05
569.48	9998.77
569.64	9755.35
569.81	9713.22
569.97	9666.41
570.13	10097.07
570.30	9767.06
570.46	9701.52
570.62	9488.53
570.78	9434.70
570.95	9336.40
571.11	9547.05
571.27	9755.35
571.43	9614.92
571.60	10033.88
571.76	9694.50
571.92	9870.04
572.09	10010.47
572.25	9858.34
572.41	9886.42
572.57	9797.48
572.74	9823.23
572.90	9933.23
573.06	9771.74
573.22	9832.59
573.38	9856.00
573.55	9947.28
573.71	10066.64
573.87	9963.66
574.03	9631.30
574.20	9696.84
574.36	9687.48
574.52	9647.69
574.68	9493.21
574.84	9542.36
575.01	9507.26
575.17	9296.61
575.33	9188.94
575.49	9458.10
575.65	9423.00
575.82	9476.83
575.98	9490.87
576.14	9511.94
576.30	9537.68
576.46	9673.43
576.62	9881.74
576.79	9724.93
576.95	9600.88
577.11	9392.57
577.27	9385.55
577.43	9561.09
577.59	9444.06
577.75	9453.42
577.92	9291.93
578.08	9252.14
578.24	9217.03
578.40	9336.40
578.56	9394.91
578.72	9584.49
578.88	9575.13
579.04	9357.46
579.21	9462.79
579.37	9724.93
579.53	9563.43
579.69	9404.27
579.85	9795.14
580.01	9671.09
580.17	9591.52
580.33	9195.96
580.49	9357.46
580.65	9586.83
580.82	9659.39
580.98	9710.88
581.14	9397.25
581.30	9584.49
581.46	9687.48
581.62	9713.22
581.78	9577.47
581.94	9645.35
582.10	9818.55
582.26	9898.13
582.42	9799.82
582.58	9689.82
582.74	9783.44
582.90	9734.29
583.06	9628.96
583.22	9434.70
583.38	9624.28
583.54	9420.66
583.70	9760.03
583.86	9720.24
584.02	9575.13
584.18	9589.17
584.34	9535.34
584.50	9544.70
584.66	9394.91
584.82	9448.74
584.98	9425.34
585.14	9296.61
585.30	9142.13
585.46	8798.07
585.62	8971.27
585.78	9076.60
585.94	8922.12
586.10	8926.80
586.26	8973.61
586.42	9160.86
586.58	9235.75
586.74	9259.16
586.90	8999.36
587.06	9214.69
587.22	9053.19
587.38	8741.90
587.54	8856.59
587.70	8568.70
587.86	8234.00
588.02	7962.50
588.18	7840.79
588.34	7501.42
588.49	7096.50
588.65	6834.36
588.81	6310.08
588.97	6548.82
589.13	6504.35
589.29	6438.81
589.45	6647.12
589.61	6700.95
589.77	6817.98
589.93	7145.66
590.08	7405.46
590.24	7695.68
590.40	7585.68
590.56	7730.79
590.72	7683.98
590.88	7552.91
591.04	7627.81
591.20	7494.40
591.35	7489.71
591.51	7302.47
591.67	7272.04
591.83	7370.35
591.99	7194.81
592.15	7311.83
