SpectraSuite Data File
++++++++++++++++++++++++++++++++++++
Date: Fri Oct 04 11:44:19 GMT-05:00 2013
User: price-jones
Dark Spectrum Present: No
Reference Spectrum Present: No
Number of Sampled Component Spectra: 1
Spectrometers: USB2+H05261
Integration Time (usec): 100000 (USB2+H05261)
Spectra Averaged: 1 (USB2+H05261)
Boxcar Smoothing: 0 (USB2+H05261)
Correct for Electrical Dark: No (USB2+H05261)
Strobe/Lamp Enabled: No (USB2+H05261)
Correct for Detector Non-linearity: No (USB2+H05261)
Correct for Stray Light: No (USB2+H05261)
Number of Pixels in Processed Spectrum: 2048
>>>>>Begin Processed Spectral Data<<<<<
365.73	77.24
365.92	77.24
366.12	77.24
366.32	0.00
366.52	0.00
366.72	21.06
366.91	0.00
367.11	0.00
367.31	0.00
367.51	0.00
367.70	0.00
367.90	0.00
368.10	0.00
368.30	0.00
368.49	0.00
368.69	0.00
368.89	0.00
369.09	0.00
369.28	0.00
369.48	0.00
369.68	0.00
369.87	23.41
370.07	0.00
370.27	74.90
370.47	0.00
370.66	154.48
370.86	259.80
371.06	306.61
371.25	283.20
371.45	187.24
371.65	290.23
371.84	196.60
372.04	245.76
372.24	285.55
372.44	276.18
372.63	301.93
372.83	308.95
373.03	250.44
373.22	196.60
373.42	231.71
373.62	308.95
373.81	358.10
374.01	280.86
374.21	313.63
374.40	285.55
374.60	339.38
374.79	236.39
374.99	318.31
375.19	308.95
375.38	339.38
375.58	353.42
375.78	358.10
375.97	355.76
376.17	346.40
376.37	269.16
376.56	369.80
376.76	337.04
376.95	339.38
377.15	407.25
377.35	416.62
377.54	381.51
377.74	447.04
377.93	444.70
378.13	428.32
378.33	372.15
378.52	346.40
378.72	313.63
378.91	358.10
379.11	365.12
379.31	280.86
379.50	285.55
379.70	339.38
379.89	393.21
380.09	301.93
380.28	423.64
380.48	367.46
380.68	322.99
380.87	318.31
381.07	311.29
381.26	374.49
381.46	315.97
381.65	341.72
381.85	346.40
382.04	227.03
382.24	311.29
382.43	278.52
382.63	234.05
382.83	234.05
383.02	252.78
383.22	369.80
383.41	287.89
383.61	292.57
383.80	304.27
384.00	318.31
384.19	308.95
384.39	365.12
384.58	395.55
384.78	407.25
384.97	409.59
385.17	372.15
385.36	355.76
385.56	327.68
385.75	276.18
385.95	409.59
386.14	383.85
386.34	381.51
386.53	423.64
386.72	369.80
386.92	341.72
387.11	442.36
387.31	353.42
387.50	334.70
387.70	337.04
387.89	437.68
388.09	353.42
388.28	369.80
388.48	369.80
388.67	456.40
388.86	372.15
389.06	451.72
389.25	451.72
389.45	491.51
389.64	507.90
389.84	491.51
390.03	521.94
390.22	503.22
390.42	535.98
390.61	505.56
390.81	472.79
391.00	468.11
391.19	447.04
391.39	475.13
391.58	489.17
391.78	454.06
391.97	435.34
392.16	456.40
392.36	482.15
392.55	355.76
392.75	315.97
392.94	248.10
393.13	297.25
393.33	292.57
393.52	383.85
393.71	409.59
393.91	430.66
394.10	418.96
394.29	507.90
394.49	519.60
394.68	613.22
394.88	566.41
395.07	550.03
395.26	491.51
395.46	510.24
395.65	561.73
395.84	507.90
396.04	491.51
396.23	360.44
396.42	322.99
396.62	362.78
396.81	409.59
397.00	348.74
397.19	496.19
397.39	564.07
397.58	599.18
397.77	594.50
397.97	688.12
398.16	620.24
398.35	631.94
398.55	641.31
398.74	657.69
398.93	669.39
399.12	753.65
399.32	748.97
399.51	631.94
399.70	774.72
399.90	704.50
400.09	648.33
400.28	786.42
400.47	671.73
400.67	746.63
400.86	861.32
401.05	800.46
401.24	828.55
401.44	828.55
401.63	802.80
401.82	837.91
402.01	774.72
402.21	751.31
402.40	767.70
402.59	770.04
402.78	741.95
402.97	770.04
403.17	781.74
403.36	723.23
403.55	812.17
403.74	919.83
403.93	887.06
404.13	961.96
404.32	844.93
404.51	861.32
404.70	954.94
404.89	798.12
405.09	861.32
405.28	835.57
405.47	770.04
405.66	777.06
405.85	781.74
406.05	786.42
406.24	795.78
406.43	805.14
406.62	837.91
406.81	847.27
407.00	840.25
407.20	741.95
407.39	809.83
407.58	891.74
407.77	826.21
407.96	826.21
408.15	884.72
408.34	901.11
408.54	842.59
408.73	929.19
408.92	854.30
409.11	849.61
409.30	842.59
409.49	781.74
409.68	744.29
409.87	734.93
410.07	767.70
410.26	793.44
410.45	910.47
410.64	882.38
410.83	1022.81
411.02	901.11
411.21	947.92
411.40	1020.47
411.59	947.92
411.78	847.27
411.98	828.55
412.17	954.94
412.36	912.81
412.55	933.87
412.74	861.32
412.93	961.96
413.12	912.81
413.31	966.64
413.50	973.66
413.69	1036.86
413.88	1025.15
414.07	910.47
414.26	976.00
414.45	1025.15
414.64	978.34
414.83	947.92
415.02	968.98
415.22	999.41
415.41	1041.54
415.60	985.37
415.79	973.66
415.98	1116.44
416.17	1114.10
416.36	1043.88
416.55	990.05
416.74	1011.11
416.93	1013.45
417.12	919.83
417.31	961.96
417.50	1029.84
417.69	1039.20
417.88	1102.39
418.07	990.05
418.26	1011.11
418.45	1039.20
418.64	1004.09
418.83	1039.20
419.02	1034.52
419.21	1114.10
419.39	994.73
419.58	994.73
419.77	973.66
419.96	1036.86
420.15	1067.28
420.34	1114.10
420.53	1114.10
420.72	1107.07
420.91	1158.57
421.10	1039.20
421.29	1128.14
421.48	1071.97
421.67	1128.14
421.86	999.41
422.05	1062.60
422.24	891.74
422.43	924.51
422.61	1036.86
422.80	1107.07
422.99	1114.10
423.18	1057.92
423.37	1013.45
423.56	1097.71
423.75	1062.60
423.94	1043.88
424.13	992.39
424.32	1025.15
424.50	987.71
424.69	1006.43
424.88	1088.35
425.07	1053.24
425.26	997.07
425.45	952.60
425.64	1032.18
425.83	1064.94
426.01	1069.62
426.20	1125.80
426.39	1041.54
426.58	954.94
426.77	924.51
426.96	931.53
427.15	882.38
427.33	1022.81
427.52	1006.43
427.71	1086.01
427.90	1032.18
428.09	922.17
428.28	938.55
428.46	1020.47
428.65	919.83
428.84	1006.43
429.03	1064.94
429.22	926.85
429.40	926.85
429.59	737.27
429.78	725.57
429.97	692.80
430.16	727.91
430.34	770.04
430.53	770.04
430.72	765.36
430.91	880.04
431.10	905.79
431.28	1114.10
431.47	1233.46
431.66	1149.20
431.85	1114.10
432.03	1060.26
432.22	1050.90
432.41	1086.01
432.60	1015.79
432.79	1179.63
432.97	1170.27
433.16	1165.59
433.35	1046.22
433.54	950.26
433.72	980.68
433.91	1004.09
434.10	997.07
434.28	983.02
434.47	1121.12
434.66	1086.01
434.85	1137.50
435.03	1205.38
435.22	1568.16
435.41	1952.01
435.59	2036.27
435.78	1783.49
435.97	1460.49
436.16	1390.28
436.34	1233.46
436.53	1212.40
436.72	1231.12
436.90	1160.91
437.09	1083.67
437.28	1097.71
437.46	1153.88
437.65	1217.08
437.84	1121.12
438.02	1036.86
438.21	1022.81
438.40	1109.41
438.58	1004.09
438.77	1097.71
438.96	1167.93
439.14	1160.91
439.33	1331.76
439.52	1086.01
439.70	1167.93
439.89	1221.76
440.08	1268.57
440.26	1128.14
440.45	1270.91
440.63	1228.78
440.82	1380.92
441.01	1296.66
441.19	1275.59
441.38	1263.89
441.57	1336.45
441.75	1275.59
441.94	1336.45
442.12	1331.76
442.31	1425.39
442.50	1294.32
442.68	1310.70
442.87	1383.26
443.05	1357.51
443.24	1390.28
443.43	1369.21
443.61	1371.55
443.80	1481.56
443.98	1418.36
444.17	1380.92
444.35	1453.47
444.54	1401.98
444.73	1401.98
444.91	1310.70
445.10	1301.34
445.28	1327.08
445.47	1299.00
445.65	1268.57
445.84	1317.72
446.02	1238.14
446.21	1299.00
446.39	1313.04
446.58	1359.85
446.77	1401.98
446.95	1282.61
447.14	1460.49
447.32	1434.75
447.51	1434.75
447.69	1322.40
447.88	1329.42
448.06	1528.37
448.25	1425.39
448.43	1352.83
448.62	1376.24
448.80	1373.89
448.99	1310.70
449.17	1385.60
449.36	1313.04
449.54	1409.00
449.73	1451.13
449.91	1486.24
450.10	1516.67
450.28	1612.63
450.46	1636.03
450.65	1556.46
450.83	1607.95
451.02	1514.33
451.20	1469.86
451.39	1451.13
451.57	1380.92
451.76	1469.86
451.94	1474.54
452.13	1460.49
452.31	1427.73
452.49	1350.49
452.68	1336.45
452.86	1331.76
453.05	1273.25
453.23	1355.17
453.42	1387.94
453.60	1394.96
453.78	1385.60
453.97	1462.83
454.15	1474.54
454.34	1516.67
454.52	1331.76
454.70	1486.24
454.89	1467.52
455.07	1406.66
455.26	1427.73
455.44	1511.99
455.62	1519.01
455.81	1465.18
455.99	1558.80
456.17	1483.90
456.36	1558.80
456.54	1610.29
456.73	1537.73
456.91	1544.75
457.09	1556.46
457.28	1584.54
457.46	1535.39
457.64	1568.16
457.83	1437.09
458.01	1324.74
458.19	1467.52
458.38	1472.20
458.56	1523.69
458.74	1547.09
458.93	1460.49
459.11	1404.32
459.29	1596.25
459.48	1514.33
459.66	1540.07
459.84	1516.67
460.03	1495.60
460.21	1476.88
460.39	1547.09
460.57	1603.27
460.76	1570.50
460.94	1533.05
461.12	1631.35
461.31	1526.03
461.49	1596.25
461.67	1530.71
461.85	1577.52
462.04	1614.97
462.22	2050.31
462.40	1561.14
462.59	1582.20
462.77	1680.50
462.95	1544.75
463.13	1486.24
463.32	1551.78
463.50	1542.41
463.68	1593.90
463.86	1575.18
464.05	1530.71
464.23	1535.39
464.41	1570.50
464.59	1483.90
464.78	1533.05
464.96	1490.92
465.14	1458.15
465.32	1528.37
465.50	1626.67
465.69	1626.67
465.87	1453.47
466.05	1572.84
466.23	1493.26
466.41	1345.81
466.60	1497.94
466.78	1497.94
466.96	1582.20
467.14	1537.73
467.32	1444.11
467.51	1509.65
467.69	1493.26
467.87	1451.13
468.05	1490.92
468.23	1547.09
468.41	1549.43
468.60	1509.65
468.78	1544.75
468.96	1561.14
469.14	1509.65
469.32	1474.54
469.50	1490.92
469.69	1490.92
469.87	1392.62
470.05	1551.78
470.23	1514.33
470.41	1526.03
470.59	1521.35
470.77	1519.01
470.95	1603.27
471.14	1547.09
471.32	1544.75
471.50	1739.02
471.68	1657.10
471.86	1624.33
472.04	1619.65
472.22	1682.85
472.40	1568.16
472.58	1530.71
472.77	1509.65
472.95	1521.35
473.13	1666.46
473.31	1467.52
473.49	1645.40
473.67	1474.54
473.85	1624.33
474.03	1629.01
474.21	1708.59
474.39	1619.65
474.57	1846.68
474.75	1720.29
474.93	1629.01
475.12	1619.65
475.30	1598.59
475.48	1554.12
475.66	1696.89
475.84	1661.78
476.02	1591.56
476.20	1607.95
476.38	1673.48
476.56	1612.63
476.74	1743.70
476.92	1673.48
477.10	1764.76
477.28	1657.10
477.46	1732.00
477.64	1856.04
477.82	1856.04
478.00	1741.36
478.18	1748.38
478.36	1811.57
478.54	1757.74
478.72	1839.66
478.90	1949.67
479.08	1944.99
479.26	1930.94
479.44	1900.52
479.62	1849.02
479.80	1797.53
479.98	1902.86
480.16	1935.62
480.34	2038.61
480.52	1942.64
480.70	1839.66
480.88	1888.81
481.06	1973.07
481.24	1996.48
481.41	2052.65
481.59	2050.31
481.77	2038.61
481.95	1937.96
482.13	2113.50
482.31	1973.07
482.49	1998.82
482.67	2010.52
482.85	2085.42
483.03	2216.49
483.21	2111.16
483.39	2139.25
483.57	2097.12
483.74	2076.06
483.92	2162.66
484.10	2054.99
484.28	2073.71
484.46	2244.57
484.64	2242.23
484.82	2083.08
485.00	2204.78
485.18	2127.55
485.35	2017.54
485.53	1902.86
485.71	1694.55
485.89	1724.97
486.07	1788.17
486.25	2022.22
486.43	2076.06
486.61	2134.57
486.78	2040.95
486.96	2052.65
487.14	2200.10
487.32	2162.66
487.50	2111.16
487.68	2286.70
487.85	2354.58
488.03	2335.85
488.21	2333.51
488.39	2162.66
488.57	2305.43
488.75	2188.40
488.92	2555.86
489.10	2380.32
489.28	2424.80
489.46	2457.56
489.64	2492.67
489.81	2424.80
489.99	2497.35
490.17	2511.39
490.35	2546.50
490.53	2513.74
490.70	2511.39
490.88	2466.92
491.06	2562.89
491.24	2576.93
491.41	2499.69
491.59	2492.67
491.77	2303.09
491.95	2303.09
492.13	2438.84
492.30	2485.65
492.48	2609.70
492.66	2658.85
492.84	2595.65
493.01	2700.98
493.19	2551.18
493.37	2724.38
493.54	2480.97
493.72	2534.80
493.90	2740.77
494.08	2745.45
494.25	2778.22
494.43	2715.02
494.61	2789.92
494.79	2743.11
494.96	2698.64
495.14	2719.70
495.32	2708.00
495.49	2693.96
495.67	2670.55
495.85	2700.98
496.02	2757.15
496.20	2775.88
496.38	2743.11
496.55	2806.30
496.73	2843.75
496.91	2759.49
497.09	3002.91
497.26	2906.95
497.44	2841.41
497.62	2719.70
497.79	2724.38
497.97	2609.70
498.14	2525.44
498.32	2731.41
498.50	2759.49
498.67	2808.64
498.85	2820.35
499.03	2803.96
499.20	2829.71
499.38	2841.41
499.56	2787.58
499.73	2974.82
499.91	2738.43
500.08	2773.53
500.26	2672.89
500.44	2612.04
500.61	2700.98
500.79	2712.68
500.97	2663.53
501.14	2796.94
501.32	2710.34
501.49	2752.47
501.67	2724.38
501.84	2778.22
502.02	2759.49
502.20	2841.41
502.37	2677.57
502.55	2768.85
502.72	2768.85
502.90	2897.58
503.07	2733.75
503.25	2635.44
503.43	2623.74
503.60	2605.02
503.78	2555.86
503.95	2527.78
504.13	2768.85
504.30	2729.06
504.48	2731.41
504.65	2764.17
504.83	2768.85
505.01	2822.69
505.18	2883.54
505.36	2850.77
505.53	2867.16
505.71	2928.01
505.88	3002.91
506.06	2958.44
506.23	2750.13
506.41	2810.98
506.58	2794.60
506.76	2799.28
506.93	2871.84
507.11	2766.51
507.28	2792.26
507.46	2843.75
507.63	2724.38
507.81	2815.66
507.98	2766.51
508.16	2888.22
508.33	2766.51
508.50	2909.29
508.68	3054.40
508.85	3005.25
509.03	3028.65
509.20	3052.06
509.38	2935.03
509.55	2766.51
509.73	2874.18
509.90	2853.11
510.08	2876.52
510.25	3016.95
510.42	2703.32
510.60	2895.24
510.77	2937.37
510.95	2967.80
511.12	2951.42
511.30	3045.04
511.47	3098.87
511.64	3159.72
511.82	2972.48
511.99	3005.25
512.17	2904.60
512.34	2888.22
512.51	2944.39
512.69	2993.55
512.86	2935.03
513.04	3040.36
513.21	2979.50
513.38	2902.26
513.56	2871.84
513.73	2675.23
513.90	2771.19
514.08	2820.35
514.25	2726.72
514.43	2911.63
514.60	2942.05
514.77	2832.05
514.95	2998.23
515.12	2918.65
515.29	2892.90
515.47	2897.58
515.64	2883.54
515.81	2946.73
515.99	2979.50
516.16	2780.56
516.33	2675.23
516.51	2469.27
516.68	2403.73
516.85	2401.39
517.03	2413.09
517.20	2544.16
517.37	2839.07
517.54	2715.02
517.72	2792.26
517.89	2717.36
518.06	2476.29
518.24	2616.72
518.41	2691.62
518.58	2818.00
518.75	2820.35
518.93	2909.29
519.10	2895.24
519.27	2754.81
519.45	2876.52
519.62	2892.90
519.79	3005.25
519.96	2857.79
520.14	2935.03
520.31	2864.82
520.48	2794.60
520.65	2883.54
520.83	3054.40
521.00	3005.25
521.17	3023.97
521.34	2850.77
521.52	2876.52
521.69	3075.46
521.86	2930.35
522.03	2991.20
522.20	2972.48
522.38	2850.77
522.55	2717.36
522.72	2820.35
522.89	2946.73
523.07	3045.04
523.24	2993.55
523.41	2937.37
523.58	3136.32
523.75	3098.87
523.92	3049.72
524.10	3077.80
524.27	3136.32
524.44	2995.89
524.61	3040.36
524.78	2923.33
524.96	3103.55
525.13	3087.17
525.30	3148.02
525.47	3155.04
525.64	3138.66
525.81	3133.98
525.98	2839.07
526.16	2644.81
526.33	2595.65
526.50	2560.55
526.67	2546.50
526.84	2546.50
527.01	2675.23
527.18	2827.37
527.36	2949.08
527.53	2942.05
527.70	3171.43
527.87	2993.55
528.04	3030.99
528.21	2986.52
528.38	3059.08
528.55	3096.53
528.72	3150.36
528.89	3110.57
529.07	3136.32
529.24	3105.89
529.41	2951.42
529.58	3026.31
529.75	2967.80
529.92	3061.42
530.09	3047.38
530.26	3105.89
530.43	3068.44
530.60	3073.12
530.77	3087.17
530.94	3185.47
531.11	3056.74
531.28	3016.95
531.46	3070.78
531.63	3229.94
531.80	3164.40
531.97	3087.17
532.14	3000.57
532.31	2892.90
532.48	2832.05
532.65	2775.88
532.82	2871.84
532.99	3002.91
533.16	3098.87
533.33	3180.79
533.50	3094.19
533.67	3026.31
533.84	3075.46
534.01	3066.10
534.18	2904.60
534.35	3019.29
534.52	2904.60
534.69	2984.18
534.86	3016.95
535.03	2970.14
535.20	3122.27
535.37	3082.49
535.54	3185.47
535.71	3098.87
535.88	3199.51
536.05	3159.72
536.22	3068.44
536.38	3098.87
536.55	2986.52
536.72	2829.71
536.89	2899.92
537.06	2963.12
537.23	3213.56
537.40	2995.89
537.57	3059.08
537.74	3204.19
537.91	3185.47
538.08	3110.57
538.25	3094.19
538.42	3229.94
538.59	3187.81
538.75	3136.32
538.92	2993.55
539.09	3091.85
539.26	3148.02
539.43	3157.38
539.60	3049.72
539.77	3122.27
539.94	3089.51
540.11	3143.34
540.28	3084.83
540.44	3131.64
540.61	3169.09
540.78	3236.96
540.95	3316.54
541.12	3506.12
541.29	3585.70
541.46	3742.52
541.62	3651.24
541.79	3646.55
541.96	3569.32
542.13	3555.27
542.30	3461.65
542.47	3599.74
542.63	3445.27
542.80	3426.54
542.97	3485.06
543.14	3447.61
543.31	3461.65
543.48	3468.67
543.64	3492.08
543.81	3691.02
543.98	3513.14
544.15	3662.94
544.32	3346.97
544.48	3384.41
544.65	3583.36
544.82	3428.88
544.99	3377.39
545.16	3506.12
545.32	3538.89
545.49	4014.02
545.66	4606.17
545.83	5111.73
546.00	4884.70
546.16	4215.30
546.33	3784.65
546.50	3480.38
546.67	3400.80
546.83	3363.35
547.00	3346.97
547.17	3236.96
547.34	3012.27
547.50	3220.58
547.67	3164.40
547.84	3141.00
548.00	3243.98
548.17	3215.90
548.34	3164.40
548.51	3356.33
548.67	3192.49
548.84	3206.53
549.01	3089.51
549.18	3241.64
549.34	3241.64
549.51	3281.43
549.68	3194.83
549.84	3094.19
550.01	3141.00
550.18	3183.13
550.34	2949.08
550.51	3061.42
550.68	3038.02
550.84	2979.50
551.01	2904.60
551.18	2949.08
551.34	3070.78
551.51	3038.02
551.68	3208.87
551.84	3038.02
552.01	3105.89
552.18	3045.04
552.34	2920.99
552.51	2928.01
552.68	2874.18
552.84	2918.65
553.01	2853.11
553.18	2911.63
553.34	2904.60
553.51	2897.58
553.67	2949.08
553.84	3115.25
554.01	2965.46
554.17	2918.65
554.34	2942.05
554.51	3009.93
554.67	3002.91
554.84	2942.05
555.00	2967.80
555.17	2939.71
555.33	3007.59
555.50	2925.67
555.67	2822.69
555.83	2864.82
556.00	2700.98
556.16	2979.50
556.33	2834.39
556.50	2768.85
556.66	2747.79
556.83	2712.68
556.99	2778.22
557.16	2820.35
557.32	2752.47
557.49	2864.82
557.65	2846.09
557.82	2834.39
557.98	2827.37
558.15	2745.45
558.32	2775.88
558.48	2546.50
558.65	2579.27
558.81	2633.10
558.98	2729.06
559.14	2731.41
559.31	2778.22
559.47	2670.55
559.64	2668.21
559.80	2750.13
559.97	2485.65
560.13	2736.09
560.30	2663.53
560.46	2806.30
560.63	2764.17
560.79	2787.58
560.96	2654.17
561.12	2672.89
561.29	2642.46
561.45	2731.41
561.61	2628.42
561.78	2736.09
561.94	2670.55
562.11	2546.50
562.27	2574.59
562.44	2558.21
562.60	2775.88
562.77	2754.81
562.93	2691.62
563.10	2750.13
563.26	2757.15
563.42	2796.94
563.59	2656.51
563.75	2799.28
563.92	2684.59
564.08	2750.13
564.24	2696.30
564.41	2822.69
564.57	2729.06
564.74	2663.53
564.90	2768.85
565.07	2750.13
565.23	2593.31
565.39	2541.82
565.56	2527.78
565.72	2513.74
565.88	2553.52
566.05	2607.36
566.21	2576.93
566.38	2576.93
566.54	2602.68
566.70	2595.65
566.87	2719.70
567.03	2700.98
567.19	2583.95
567.36	2560.55
567.52	2623.74
567.68	2567.57
567.85	2450.54
568.01	2480.97
568.17	2483.31
568.34	2363.94
568.50	2415.43
568.66	2438.84
568.83	2485.65
568.99	2457.56
569.15	2523.10
569.32	2464.58
569.48	2455.22
569.64	2338.20
569.81	2422.45
569.97	2267.98
570.13	2457.56
570.30	2307.77
570.46	2380.32
570.62	2406.07
570.78	2317.13
570.95	2345.22
571.11	2363.94
571.27	2408.41
571.43	2347.56
571.60	2466.92
571.76	2305.43
571.92	2368.62
572.09	2450.54
572.25	2387.35
572.41	2441.18
572.57	2370.96
572.74	2382.67
572.90	2448.20
573.06	2436.50
573.22	2434.16
573.38	2471.61
573.55	2319.47
573.71	2429.48
573.87	2466.92
574.03	2422.45
574.20	2338.20
574.36	2420.11
574.52	2324.15
574.68	2424.80
574.84	2445.86
575.01	2249.25
575.17	2380.32
575.33	2352.24
575.49	2354.58
575.65	2347.56
575.82	2424.80
575.98	2352.24
576.14	2356.92
576.30	2363.94
576.46	2537.14
576.62	2773.53
576.79	2684.59
576.95	2691.62
577.11	2469.27
577.27	2441.18
577.43	2487.99
577.59	2356.92
577.75	2445.86
577.92	2216.49
578.08	2242.23
578.24	2207.13
578.40	2314.79
578.56	2541.82
578.72	2630.76
578.88	2677.57
579.04	2588.63
579.21	2466.92
579.37	2473.95
579.53	2485.65
579.69	2537.14
579.85	2403.73
580.01	2560.55
580.17	2469.27
580.33	2471.61
580.49	2392.03
580.65	2410.75
580.82	2326.49
580.98	2410.75
581.14	2406.07
581.30	2483.31
581.46	2366.28
581.62	2415.43
581.78	2443.52
581.94	2431.82
582.10	2464.58
582.26	2462.24
582.42	2506.71
582.58	2619.06
582.74	2525.44
582.90	2466.92
583.06	2602.68
583.22	2434.16
583.38	2532.46
583.54	2511.39
583.70	2672.89
583.86	2455.22
584.02	2459.90
584.18	2607.36
584.34	2532.46
584.50	2466.92
584.66	2326.49
584.82	2340.54
584.98	2385.01
585.14	2377.98
585.30	2370.96
585.46	2370.96
585.62	2342.88
585.78	2347.56
585.94	2427.14
586.10	2394.37
586.26	2340.54
586.42	2345.22
586.58	2441.18
586.74	2441.18
586.90	2485.65
587.06	2455.22
587.22	2532.46
587.38	2410.75
587.54	2242.23
587.70	2347.56
587.86	2223.51
588.02	2146.27
588.18	2099.46
588.34	2094.78
588.49	1774.13
588.65	1870.09
588.81	1640.72
588.97	1710.93
589.13	1717.95
589.29	1666.46
589.45	1708.59
589.61	1743.70
589.77	1851.36
589.93	1954.35
590.08	1933.28
590.24	1959.03
590.40	1956.69
590.56	2066.69
590.72	2064.35
590.88	1966.05
591.04	1921.58
591.20	1940.30
591.35	2005.84
591.51	1968.39
591.67	1881.79
591.83	1944.99
591.99	1933.28
592.15	1956.69
592.31	2050.31
592.46	2059.67
592.62	2085.42
592.78	2176.70
592.94	2162.66
593.10	2085.42
593.26	2176.70
593.41	2202.44
593.57	2162.66
593.73	1949.67
593.89	1959.03
594.05	1860.73
594.20	1785.83
594.36	1832.64
594.52	1741.36
594.68	1799.87
594.84	1877.11
594.99	1968.39
595.15	1977.75
595.31	1977.75
595.47	2003.50
595.62	1952.01
595.78	2057.33
595.94	2008.18
596.10	2062.01
596.25	1937.96
596.41	1870.09
596.57	1881.79
596.73	1994.14
596.88	2069.03
597.04	2047.97
597.20	1982.43
597.36	1860.73
597.51	2024.56
597.67	1886.47
597.83	1907.54
597.99	2012.86
598.14	2059.67
598.30	2026.90
598.46	2045.63
598.61	2157.97
598.77	2111.16
598.93	2122.87
599.09	2134.57
599.24	1977.75
