SpectraSuite Data File
++++++++++++++++++++++++++++++++++++
Date: Fri Oct 04 11:44:20 GMT-05:00 2013
User: price-jones
Dark Spectrum Present: No
Reference Spectrum Present: No
Number of Sampled Component Spectra: 1
Spectrometers: USB2+H05261
Integration Time (usec): 100000 (USB2+H05261)
Spectra Averaged: 1 (USB2+H05261)
Boxcar Smoothing: 0 (USB2+H05261)
Correct for Electrical Dark: No (USB2+H05261)
Strobe/Lamp Enabled: No (USB2+H05261)
Correct for Detector Non-linearity: No (USB2+H05261)
Correct for Stray Light: No (USB2+H05261)
Number of Pixels in Processed Spectrum: 2048
>>>>>Begin Processed Spectral Data<<<<<
365.73	0.00
365.92	0.00
366.12	0.00
366.32	0.00
366.52	0.00
366.72	0.00
366.91	0.00
367.11	0.00
367.31	0.00
367.51	0.00
367.70	0.00
367.90	0.00
368.10	0.00
368.30	16.38
368.49	0.00
368.69	0.00
368.89	0.00
369.09	0.00
369.28	0.00
369.48	0.00
369.68	0.00
369.87	0.00
370.07	0.00
370.27	114.69
370.47	84.26
370.66	306.61
370.86	393.21
371.06	400.23
371.25	484.49
371.45	404.91
371.65	367.46
371.84	395.55
372.04	428.32
372.24	404.91
372.44	388.53
372.63	416.62
372.83	425.98
373.03	428.32
373.22	341.72
373.42	381.51
373.62	468.11
373.81	435.34
374.01	430.66
374.21	388.53
374.40	365.12
374.60	475.13
374.79	472.79
374.99	472.79
375.19	500.87
375.38	547.69
375.58	463.43
375.78	531.30
375.97	411.93
376.17	552.37
376.37	519.60
376.56	535.98
376.76	493.85
376.95	559.39
377.15	606.20
377.35	610.88
377.54	657.69
377.74	704.50
377.93	580.45
378.13	641.31
378.33	547.69
378.52	566.41
378.72	535.98
378.91	519.60
379.11	451.72
379.31	552.37
379.50	528.96
379.70	603.86
379.89	585.13
380.09	571.09
380.28	678.76
380.48	564.07
380.68	657.69
380.87	519.60
381.07	564.07
381.26	578.11
381.46	550.03
381.65	479.81
381.85	482.15
382.04	463.43
382.24	414.27
382.43	479.81
382.63	428.32
382.83	355.76
383.02	404.91
383.22	433.00
383.41	423.64
383.61	454.06
383.80	425.98
384.00	491.51
384.19	559.39
384.39	545.34
384.58	603.86
384.78	744.29
384.97	514.92
385.17	599.18
385.36	564.07
385.56	503.22
385.75	533.64
385.95	524.28
386.14	638.97
386.34	571.09
386.53	648.33
386.72	566.41
386.92	571.09
387.11	650.67
387.31	671.73
387.50	535.98
387.70	636.63
387.89	606.20
388.09	587.47
388.28	657.69
388.48	587.47
388.67	758.33
388.86	648.33
389.06	737.27
389.25	746.63
389.45	777.06
389.64	734.93
389.84	777.06
390.03	678.76
390.22	734.93
390.42	734.93
390.61	737.27
390.81	858.98
391.00	873.02
391.19	884.72
391.39	812.17
391.58	802.80
391.78	690.46
391.97	732.59
392.16	664.71
392.36	653.01
392.55	528.96
392.75	463.43
392.94	442.36
393.13	379.17
393.33	444.70
393.52	519.60
393.71	669.39
393.91	695.14
394.10	709.18
394.29	774.72
394.49	725.57
394.68	884.72
394.88	875.36
395.07	931.53
395.26	858.98
395.46	903.45
395.65	868.34
395.84	737.27
396.04	671.73
396.23	592.16
396.42	505.56
396.62	524.28
396.81	491.51
397.00	603.86
397.19	826.21
397.39	812.17
397.58	908.13
397.77	1050.90
397.97	1032.18
398.16	1041.54
398.35	1188.99
398.55	1050.90
398.74	1116.44
398.93	1203.04
399.12	1123.46
399.32	1086.01
399.51	1163.25
399.70	1235.80
399.90	1299.00
400.09	1235.80
400.28	1252.19
400.47	1324.74
400.67	1336.45
400.86	1310.70
401.05	1345.81
401.24	1296.66
401.44	1376.24
401.63	1341.13
401.82	1348.15
402.01	1331.76
402.21	1427.73
402.40	1352.83
402.59	1294.32
402.78	1357.51
402.97	1287.29
403.17	1259.21
403.36	1315.38
403.55	1404.32
403.74	1392.62
403.93	1362.19
404.13	1390.28
404.32	1282.61
404.51	1205.38
404.70	1404.32
404.89	1350.49
405.09	1425.39
405.28	1380.92
405.47	1336.45
405.66	1277.93
405.85	1336.45
406.05	1256.87
406.24	1210.06
406.43	1238.14
406.62	1406.66
406.81	1359.85
407.00	1373.89
407.20	1380.92
407.39	1359.85
407.58	1315.38
407.77	1343.47
407.96	1493.26
408.15	1437.09
408.34	1390.28
408.54	1535.39
408.73	1486.24
408.92	1568.16
409.11	1511.99
409.30	1432.41
409.49	1299.00
409.68	1289.64
409.87	1160.91
410.07	1336.45
410.26	1324.74
410.45	1401.98
410.64	1542.41
410.83	1514.33
411.02	1575.18
411.21	1675.82
411.40	1614.97
411.59	1551.78
411.78	1636.03
411.98	1528.37
412.17	1537.73
412.36	1451.13
412.55	1629.01
412.74	1563.48
412.93	1507.30
413.12	1493.26
413.31	1603.27
413.50	1614.97
413.69	1675.82
413.88	1652.42
414.07	1621.99
414.26	1636.03
414.45	1633.69
414.64	1575.18
414.83	1666.46
415.02	1621.99
415.22	1687.53
415.41	1647.74
415.60	1678.16
415.79	1746.04
415.98	1753.06
416.17	1799.87
416.36	1741.36
416.55	1757.74
416.74	1743.70
416.93	1647.74
417.12	1706.25
417.31	1682.85
417.50	1671.14
417.69	1722.63
417.88	1799.87
418.07	1722.63
418.26	1746.04
418.45	1767.10
418.64	1703.91
418.83	1874.77
419.02	1720.29
419.21	1764.76
419.39	1708.59
419.58	1659.44
419.77	1685.19
419.96	1774.13
420.15	1746.04
420.34	1832.64
420.53	1928.60
420.72	1977.75
420.91	1856.04
421.10	1860.73
421.29	1767.10
421.48	1863.07
421.67	1919.24
421.86	1743.70
422.05	1626.67
422.24	1582.20
422.43	1671.14
422.61	1617.31
422.80	1820.94
422.99	1699.23
423.18	1865.41
423.37	1797.53
423.56	1617.31
423.75	1799.87
423.94	1722.63
424.13	1692.21
424.32	1561.14
424.50	1685.19
424.69	1694.55
424.88	1675.82
425.07	1727.32
425.26	1792.85
425.45	1741.36
425.64	1682.85
425.83	1626.67
426.01	1818.60
426.20	1722.63
426.39	1760.08
426.58	1643.06
426.77	1563.48
426.96	1600.93
427.15	1596.25
427.33	1685.19
427.52	1692.21
427.71	1757.74
427.90	1746.04
428.09	1645.40
428.28	1624.33
428.46	1593.90
428.65	1638.38
428.84	1678.16
429.03	1607.95
429.22	1659.44
429.40	1472.20
429.59	1345.81
429.78	1214.74
429.97	1245.16
430.16	1240.48
430.34	1345.81
430.53	1240.48
430.72	1240.48
430.91	1352.83
431.10	1593.90
431.28	1792.85
431.47	1952.01
431.66	1947.33
431.85	1844.34
432.03	1736.68
432.22	1661.78
432.41	1701.57
432.60	1963.71
432.79	1956.69
432.97	2026.90
433.16	1893.49
433.35	1888.81
433.54	1577.52
433.72	1572.84
433.91	1577.52
434.10	1753.06
434.28	1872.43
434.47	1909.88
434.66	1954.35
434.85	1926.26
435.03	1912.22
435.22	2127.55
435.41	2214.15
435.59	2251.60
435.78	2239.89
435.97	2125.21
436.16	2111.16
436.34	2057.33
436.53	1998.82
436.72	1966.05
436.90	2012.86
437.09	2017.54
437.28	1872.43
437.46	1914.56
437.65	1987.11
437.84	1900.52
438.02	1746.04
438.21	1685.19
438.40	1771.79
438.58	1827.96
438.77	1963.71
438.96	1982.43
439.14	1912.22
439.33	2120.53
439.52	2085.42
439.70	2120.53
439.89	1970.73
440.08	1963.71
440.26	1935.62
440.45	2183.72
440.63	2188.40
440.82	2190.74
441.01	2235.21
441.19	2202.44
441.38	2197.76
441.57	2202.44
441.75	2354.58
441.94	2401.39
442.12	2312.45
442.31	2286.70
442.50	2469.27
442.68	2228.19
442.87	2328.83
443.05	2249.25
443.24	2270.32
443.43	2406.07
443.61	2504.37
443.80	2459.90
443.98	2260.96
444.17	2291.38
444.35	2452.88
444.54	2473.95
444.73	2387.35
444.91	2347.56
445.10	2298.41
445.28	2293.72
445.47	2260.96
445.65	2214.15
445.84	2286.70
446.02	2356.92
446.21	2352.24
446.39	2394.37
446.58	2396.71
446.77	2340.54
446.95	2275.00
447.14	2450.54
447.32	2513.74
447.51	2457.56
447.69	2342.88
447.88	2319.47
448.06	2457.56
448.25	2473.95
448.43	2307.77
448.62	2331.17
448.80	2298.41
448.99	2394.37
449.17	2422.45
449.36	2459.90
449.54	2588.63
449.73	2525.44
449.91	2532.46
450.10	2539.48
450.28	2752.47
450.46	2654.17
450.65	2684.59
450.83	2656.51
451.02	2532.46
451.20	2551.18
451.39	2583.95
451.57	2455.22
451.76	2469.27
451.94	2485.65
452.13	2469.27
452.31	2417.77
452.49	2354.58
452.68	2368.62
452.86	2359.26
453.05	2408.41
453.23	2480.97
453.42	2415.43
453.60	2490.33
453.78	2516.08
453.97	2450.54
454.15	2464.58
454.34	2406.07
454.52	2417.77
454.70	2473.95
454.89	2413.09
455.07	2495.01
455.26	2537.14
455.44	2654.17
455.62	2574.59
455.81	2466.92
455.99	2523.10
456.17	2656.51
456.36	2541.82
456.54	2595.65
456.73	2628.42
456.91	2773.53
457.09	2649.49
457.28	2775.88
457.46	2555.86
457.64	2588.63
457.83	2520.76
458.01	2399.05
458.19	2672.89
458.38	2612.04
458.56	2534.80
458.74	2619.06
458.93	2504.37
459.11	2469.27
459.29	2579.27
459.48	2602.68
459.66	2619.06
459.84	2506.71
460.03	2619.06
460.21	2616.72
460.39	2551.18
460.57	2806.30
460.76	2794.60
460.94	2686.94
461.12	2787.58
461.31	2619.06
461.49	2572.25
461.67	2609.70
461.85	2693.96
462.04	2693.96
462.22	3152.70
462.40	2698.64
462.59	2726.72
462.77	2693.96
462.95	2712.68
463.13	2729.06
463.32	2789.92
463.50	2722.04
463.68	2642.46
463.86	2588.63
464.05	2654.17
464.23	2677.57
464.41	2443.52
464.59	2537.14
464.78	2656.51
464.96	2628.42
465.14	2665.87
465.32	2597.99
465.50	2710.34
465.69	2759.49
465.87	2705.66
466.05	2651.83
466.23	2572.25
466.41	2506.71
466.60	2553.52
466.78	2509.05
466.96	2539.48
467.14	2663.53
467.32	2743.11
467.51	2658.85
467.69	2586.29
467.87	2597.99
468.05	2562.89
468.23	2649.49
468.41	2672.89
468.60	2513.74
468.78	2745.45
468.96	2689.28
469.14	2640.12
469.32	2899.92
469.50	2502.03
469.69	2590.97
469.87	2672.89
470.05	2595.65
470.23	2502.03
470.41	2677.57
470.59	2621.40
470.77	2743.11
470.95	2651.83
471.14	2649.49
471.32	2740.77
471.50	2761.83
471.68	2766.51
471.86	2740.77
472.04	2853.11
472.22	2888.22
472.40	2619.06
472.58	2764.17
472.77	2614.38
472.95	2832.05
473.13	2911.63
473.31	2750.13
473.49	2801.62
473.67	2801.62
473.85	2850.77
474.03	2881.20
474.21	2972.48
474.39	3042.70
474.57	3059.08
474.75	3030.99
474.93	2895.24
475.12	2881.20
475.30	2810.98
475.48	2885.88
475.66	2785.24
475.84	2832.05
476.02	2792.26
476.20	2759.49
476.38	2869.50
476.56	2935.03
476.74	2949.08
476.92	3042.70
477.10	2988.86
477.28	3016.95
477.46	2993.55
477.64	3164.40
477.82	3180.79
478.00	3246.32
478.18	3185.47
478.36	3098.87
478.54	3126.96
478.72	3087.17
478.90	3236.96
479.08	3318.88
479.26	3267.39
479.44	3323.56
479.62	3255.69
479.80	3375.05
479.98	3332.92
480.16	3353.99
480.34	3489.74
480.52	3332.92
480.70	3365.69
480.88	3323.56
481.06	3311.86
481.24	3489.74
481.41	3419.52
481.59	3466.33
481.77	3665.28
481.95	3562.30
482.13	3358.67
482.31	3552.93
482.49	3531.87
482.67	3527.19
482.85	3721.45
483.03	3522.51
483.21	3620.81
483.39	3740.18
483.57	3756.56
483.74	3611.45
483.92	3487.40
484.10	3557.61
484.28	3721.45
484.46	3751.88
484.64	3581.02
484.82	3658.26
485.00	3562.30
485.18	3522.51
485.35	3590.38
485.53	3148.02
485.71	2970.14
485.89	2920.99
486.07	2967.80
486.25	3379.73
486.43	3536.55
486.61	3623.15
486.78	3513.14
486.96	3562.30
487.14	3765.92
487.32	3840.82
487.50	3920.40
487.68	4091.26
487.85	4053.81
488.03	4060.83
488.21	3997.64
488.39	3967.21
488.57	3859.54
488.75	3983.59
488.92	4210.62
489.10	4140.41
489.28	4304.25
489.46	4437.66
489.64	4367.44
489.81	4369.78
489.99	4519.57
490.17	4402.55
490.35	4372.12
490.53	4381.48
490.70	4432.97
490.88	4346.37
491.06	4339.35
491.24	4372.12
491.41	4423.61
491.59	4114.66
491.77	4170.83
491.95	4098.28
492.13	4278.50
492.30	4416.59
492.48	4528.94
492.66	4641.28
492.84	4578.09
493.01	4702.14
493.19	4608.51
493.37	4622.56
493.54	4456.38
493.72	4395.53
493.90	4564.04
494.08	4781.71
494.25	4865.97
494.43	4847.25
494.61	4964.28
494.79	4795.76
494.96	4840.23
495.14	4730.22
495.32	4737.24
495.49	4514.89
495.67	4650.64
495.85	4835.55
496.02	4943.21
496.20	4950.23
496.38	4898.74
496.55	4830.87
496.73	4997.04
496.91	4966.62
497.09	5029.81
497.26	5207.69
497.44	4975.98
497.62	5057.90
497.79	4926.83
497.97	4695.11
498.14	4606.17
498.32	4716.18
498.50	4983.00
498.67	5053.22
498.85	5053.22
499.03	4975.98
499.20	5235.78
499.38	5146.84
499.56	5046.20
499.73	4983.00
499.91	4919.81
500.08	5034.49
500.26	4802.78
500.44	4784.06
500.61	4877.68
500.79	4936.19
500.97	4805.12
501.14	4816.82
501.32	4751.29
501.49	4702.14
501.67	4816.82
501.84	4835.55
502.02	4983.00
502.20	5116.41
502.37	4894.06
502.55	5062.58
502.72	4950.23
502.90	5055.56
503.07	4863.63
503.25	4931.51
503.43	4599.15
503.60	4559.36
503.78	4393.19
503.95	4692.77
504.13	4774.69
504.30	4926.83
504.48	5095.35
504.65	5085.98
504.83	4971.30
505.01	5102.37
505.18	5102.37
505.36	5242.80
505.53	5156.20
505.71	5308.34
505.88	5406.64
506.06	5083.64
506.23	5174.92
506.41	5186.63
506.58	5107.05
506.76	5177.26
506.93	5128.11
507.11	5135.14
507.28	5104.71
507.46	5032.15
507.63	4957.25
507.81	4877.68
507.98	4931.51
508.16	4880.02
508.33	5186.63
508.50	5179.61
508.68	5380.89
508.85	5476.85
509.03	5444.09
509.20	5425.36
509.38	5242.80
509.55	5156.20
509.73	5050.88
509.90	5348.12
510.08	5313.02
510.25	5350.46
510.42	5259.18
510.60	5207.69
510.77	5256.84
510.95	5376.21
511.12	5488.56
511.30	5493.24
511.47	5617.29
511.64	5678.14
511.82	5643.03
511.99	5303.65
512.17	5380.89
512.34	5221.74
512.51	5366.85
512.69	5240.46
512.86	5172.58
513.04	5371.53
513.21	5493.24
513.38	5350.46
513.56	5275.57
513.73	5057.90
513.90	5018.11
514.08	5146.84
514.25	5277.91
514.43	5444.09
514.60	5291.95
514.77	5289.61
514.95	5301.31
515.12	5504.94
515.29	5341.10
515.47	5408.98
515.64	5451.11
515.81	5460.47
515.99	5521.32
516.16	5240.46
516.33	4849.59
516.51	4624.90
516.68	4372.12
516.85	4402.55
517.03	4243.39
517.20	4727.88
517.37	5055.56
517.54	5177.26
517.72	5291.95
517.89	5043.85
518.06	4578.09
518.24	4482.13
518.41	4924.49
518.58	5048.54
518.75	5074.28
518.93	5123.43
519.10	5172.58
519.27	5301.31
519.45	5195.99
519.62	5446.43
519.79	5657.07
519.96	5547.07
520.14	5322.38
520.31	5284.93
520.48	5219.39
520.65	5221.74
520.83	5462.81
521.00	5687.50
521.17	5479.19
521.34	5514.30
521.52	5439.40
521.69	5703.89
521.86	5586.86
522.03	5724.95
522.20	5575.16
522.38	5163.22
522.55	5163.22
522.72	5214.71
522.89	5308.34
523.07	5277.91
523.24	5373.87
523.41	5584.52
523.58	5535.37
523.75	5640.69
523.92	5610.26
524.10	5720.27
524.27	5696.86
524.44	5521.32
524.61	5640.69
524.78	5469.83
524.96	5654.73
525.13	5554.09
525.30	5579.84
525.47	5769.42
525.64	5706.23
525.81	5717.93
525.98	5483.88
526.16	5081.30
526.33	4980.66
526.50	5036.83
526.67	4938.53
526.84	4844.91
527.01	5064.92
527.18	5207.69
527.36	5238.12
527.53	5521.32
527.70	5659.42
527.87	5394.93
528.04	5437.06
528.21	5432.38
528.38	5607.92
528.55	5774.10
528.72	5753.04
528.89	6094.76
529.07	5888.79
529.24	5856.02
529.41	5706.23
529.58	5589.20
529.75	5483.88
529.92	5612.60
530.09	5706.23
530.26	5650.05
530.43	5776.44
530.60	5998.79
530.77	5881.77
530.94	5837.30
531.11	5919.21
531.28	5736.65
531.46	5675.80
531.63	5708.57
531.80	5727.29
531.97	5591.54
532.14	5460.47
532.31	5284.93
532.48	5214.71
532.65	5165.56
532.82	5118.75
532.99	5486.22
533.16	5378.55
533.33	5717.93
533.50	5736.65
533.67	5605.58
533.84	5472.17
534.01	5474.51
534.18	5486.22
534.35	5476.85
534.52	5537.71
534.69	5753.04
534.86	5514.30
535.03	5671.12
535.20	5774.10
535.37	5902.83
535.54	5928.58
535.71	5748.36
535.88	5736.65
536.05	5687.50
536.22	5689.84
536.38	5666.44
536.55	5282.59
536.72	5554.09
536.89	5284.93
537.06	5371.53
537.23	5607.92
537.40	5631.33
537.57	5638.35
537.74	5636.01
537.91	5528.35
538.08	5937.94
538.25	5661.76
538.42	5678.14
538.59	5760.06
538.75	5528.35
538.92	5575.16
539.09	5479.19
539.26	5575.16
539.43	5462.81
539.60	5399.62
539.77	5317.70
539.94	5369.19
540.11	5214.71
540.28	5352.81
540.44	5203.01
540.61	5252.16
540.78	5291.95
540.95	5518.98
541.12	5633.67
541.29	5692.18
541.46	5743.67
541.62	5687.50
541.79	5734.31
541.96	5582.18
542.13	5668.78
542.30	5933.26
542.47	5678.14
542.63	5673.46
542.80	5664.10
542.97	5561.11
543.14	5650.05
543.31	5502.60
543.48	5619.63
543.64	5797.51
543.81	6001.13
543.98	5865.38
544.15	5731.97
544.32	5643.03
544.48	5753.04
544.65	5738.99
544.82	5804.53
544.99	5743.67
545.16	5788.14
545.32	5640.69
545.49	5966.03
545.66	6361.58
545.83	6530.09
546.00	6141.57
546.16	5687.50
546.33	5811.55
546.50	5558.77
546.67	5738.99
546.83	5668.78
547.00	5664.10
547.17	5446.43
547.34	5418.34
547.50	5430.04
547.67	5430.04
547.84	5352.81
548.00	5495.58
548.17	5640.69
548.34	5696.86
548.51	5650.05
548.67	5617.29
548.84	5706.23
549.01	5802.19
549.18	5575.16
549.34	5659.42
549.51	5547.07
549.68	5411.32
549.84	5540.05
550.01	5298.97
550.18	5483.88
550.34	5511.96
550.51	5476.85
550.68	5544.73
550.84	5430.04
551.01	5280.25
551.18	5341.10
551.34	5231.10
551.51	5390.25
551.68	5434.72
551.84	5474.51
552.01	5575.16
552.18	5476.85
552.34	5423.02
552.51	5305.99
552.68	5334.08
552.84	5303.65
553.01	5427.70
553.18	5401.96
553.34	5366.85
553.51	5385.57
553.67	5507.28
553.84	5654.73
554.01	5406.64
554.17	5423.02
554.34	5453.45
554.51	5352.81
554.67	5420.68
554.84	5390.25
555.00	5423.02
555.17	5488.56
555.33	5364.51
555.50	5420.68
555.67	5277.91
555.83	5247.48
556.00	5247.48
556.16	5425.36
556.33	5004.07
556.50	5238.12
556.66	5149.18
556.83	5118.75
556.99	5156.20
557.16	5163.22
557.32	5137.48
557.49	5137.48
557.65	5247.48
557.82	5308.34
557.98	5282.59
558.15	5221.74
558.32	4992.36
558.48	5088.32
558.65	4987.68
558.81	4938.53
558.98	4884.70
559.14	4961.94
559.31	5088.32
559.47	5114.07
559.64	5207.69
559.80	5093.01
559.97	5053.22
560.13	5048.54
560.30	5104.71
560.46	5224.08
560.63	5231.10
560.79	5362.17
560.96	5338.76
561.12	5123.43
561.29	4980.66
561.45	4987.68
561.61	4980.66
561.78	5186.63
561.94	5172.58
562.11	5008.75
562.27	5114.07
562.44	5001.72
562.60	5041.51
562.77	5228.76
562.93	5226.42
563.10	5172.58
563.26	5177.26
563.42	4929.17
563.59	5085.98
563.75	5174.92
563.92	5142.16
564.08	5057.90
564.24	5022.79
564.41	5170.24
564.57	5067.26
564.74	5078.96
564.90	4966.62
565.07	5090.67
565.23	4901.08
565.39	4931.51
565.56	4667.03
565.72	4720.86
565.88	4807.46
566.05	4791.08
566.21	4727.88
566.38	4915.12
566.54	4940.87
566.70	4887.04
566.87	5039.17
567.03	4933.85
567.19	4851.93
567.36	4971.30
567.52	4835.55
567.68	4915.12
567.85	4716.18
568.01	4709.16
568.17	4643.62
568.34	4493.83
568.50	4627.24
568.66	4578.09
568.83	4629.58
568.99	4507.87
569.15	4528.94
569.32	4662.35
569.48	4561.70
569.64	4418.93
569.81	4486.81
569.97	4519.57
570.13	4608.51
570.30	4425.95
570.46	4505.53
570.62	4465.74
570.78	4444.68
570.95	4194.24
571.11	4486.81
571.27	4456.38
571.43	4554.68
571.60	4503.19
571.76	4622.56
571.92	4681.07
572.09	4627.24
572.25	4615.54
572.41	4601.49
572.57	4582.77
572.74	4498.51
572.90	4404.89
573.06	4428.29
573.22	4528.94
573.38	4418.93
573.55	4451.70
573.71	4564.04
573.87	4627.24
574.03	4514.89
574.20	4596.81
574.36	4421.27
574.52	4505.53
574.68	4465.74
574.84	4442.34
575.01	4404.89
575.17	4411.91
575.33	4482.13
575.49	4306.59
575.65	4613.20
575.82	4381.48
575.98	4381.48
576.14	4311.27
576.30	4421.27
576.46	4610.86
576.62	4589.79
576.79	4627.24
576.95	4447.02
577.11	4367.44
577.27	4411.91
577.43	4432.97
577.59	4416.59
577.75	4294.88
577.92	4381.48
578.08	4348.72
578.24	4278.50
578.40	4327.65
578.56	4383.82
578.72	4512.55
578.88	4652.98
579.04	4535.96
579.21	4482.13
579.37	4503.19
579.53	4454.04
579.69	4510.21
579.85	4409.57
580.01	4517.23
580.17	4442.34
580.33	4435.32
580.49	4465.74
580.65	4461.06
580.82	4416.59
580.98	4421.27
581.14	4334.67
581.30	4531.28
581.46	4498.51
581.62	4568.73
581.78	4491.49
581.94	4484.47
582.10	4601.49
582.26	4535.96
582.42	4788.74
582.58	4601.49
582.74	4538.30
582.90	4566.39
583.06	4381.48
583.22	4552.34
583.38	4521.92
583.54	4435.32
583.70	4542.98
583.86	4447.02
584.02	4578.09
584.18	4496.17
584.34	4470.42
584.50	4533.62
584.66	4507.87
584.82	4395.53
584.98	4346.37
585.14	4355.74
585.30	4400.21
585.46	4098.28
585.62	4114.66
585.78	4248.07
585.94	4315.95
586.10	4177.86
586.26	4442.34
586.42	4346.37
586.58	4346.37
586.74	4381.48
586.90	4243.39
587.06	4133.39
587.22	4344.03
587.38	4203.60
587.54	4042.11
587.70	4273.82
587.86	3889.97
588.02	3728.47
588.18	3747.20
588.34	3637.19
588.49	3260.37
588.65	3087.17
588.81	3197.17
588.97	3155.04
589.13	3136.32
589.29	3110.57
589.45	3094.19
589.61	3082.49
589.77	3302.50
589.93	3398.46
590.08	3559.95
590.24	3604.42
590.40	3648.90
590.56	3578.68
590.72	3566.98
590.88	3543.57
591.04	3672.30
591.20	3646.55
591.35	3522.51
591.51	3524.85
591.67	3426.54
591.83	3342.28
591.99	3503.78
592.15	3506.12
592.31	3651.24
592.46	3646.55
592.62	3740.18
592.78	3758.90
592.94	3562.30
593.10	3756.56
593.26	3819.75
593.41	3880.61
593.57	3826.78
593.73	3590.38
593.89	3454.63
594.05	3478.04
594.20	3389.10
594.36	3204.19
594.52	3166.74
594.68	3288.45
594.84	3494.42
594.99	3595.06
595.15	3592.72
595.31	3747.20
595.47	3515.48
595.62	3758.90
595.78	3770.60
595.94	3782.31
596.10	3875.93
596.25	3768.26
596.41	3686.34
596.57	3550.59
596.73	3662.94
596.88	3578.68
597.04	3749.54
597.20	3665.28
597.36	3691.02
597.51	3616.13
597.67	3604.42
597.83	3576.34
597.99	3691.02
