SpectraSuite Data File
++++++++++++++++++++++++++++++++++++
Date: Fri Oct 04 11:44:17 GMT-05:00 2013
User: price-jones
Dark Spectrum Present: No
Reference Spectrum Present: No
Number of Sampled Component Spectra: 1
Spectrometers: USB2+H05261
Integration Time (usec): 100000 (USB2+H05261)
Spectra Averaged: 1 (USB2+H05261)
Boxcar Smoothing: 0 (USB2+H05261)
Correct for Electrical Dark: No (USB2+H05261)
Strobe/Lamp Enabled: No (USB2+H05261)
Correct for Detector Non-linearity: No (USB2+H05261)
Correct for Stray Light: No (USB2+H05261)
Number of Pixels in Processed Spectrum: 2048
>>>>>Begin Processed Spectral Data<<<<<
365.73	65.54
365.92	65.54
366.12	65.54
366.32	0.00
366.52	0.00
366.72	0.00
366.91	0.00
367.11	0.00
367.31	0.00
367.51	0.00
367.70	0.00
367.90	0.00
368.10	0.00
368.30	0.00
368.49	0.00
368.69	0.00
368.89	0.00
369.09	0.00
369.28	0.00
369.48	0.00
369.68	0.00
369.87	0.00
370.07	0.00
370.27	37.45
370.47	250.44
370.66	664.71
370.86	889.40
371.06	987.71
371.25	990.05
371.45	858.98
371.65	816.85
371.84	760.67
372.04	748.97
372.24	957.28
372.44	910.47
372.63	847.27
372.83	896.43
373.03	875.36
373.22	706.84
373.42	741.95
373.62	894.08
373.81	954.94
374.01	938.55
374.21	898.77
374.40	807.48
374.60	875.36
374.79	990.05
374.99	1100.05
375.19	1060.26
375.38	1078.99
375.58	1055.58
375.78	1179.63
375.97	1067.28
376.17	1067.28
376.37	1041.54
376.56	1151.54
376.76	1214.74
376.95	1172.61
377.15	1341.13
377.35	1432.41
377.54	1331.76
377.74	1462.83
377.93	1364.53
378.13	1373.89
378.33	1320.06
378.52	1256.87
378.72	1231.12
378.91	1167.93
379.11	1170.27
379.31	1083.67
379.50	1205.38
379.70	1233.46
379.89	1329.42
380.09	1366.87
380.28	1343.47
380.48	1317.72
380.68	1413.68
380.87	1322.40
381.07	1153.88
381.26	1114.10
381.46	1025.15
381.65	1144.52
381.85	990.05
382.04	1011.11
382.24	910.47
382.43	851.96
382.63	889.40
382.83	882.38
383.02	793.44
383.22	880.04
383.41	889.40
383.61	931.53
383.80	1004.09
384.00	1153.88
384.19	1313.04
384.39	1385.60
384.58	1420.71
384.78	1270.91
384.97	1322.40
385.17	1214.74
385.36	1303.68
385.56	1228.78
385.75	1188.99
385.95	1282.61
386.14	1446.45
386.34	1364.53
386.53	1357.51
386.72	1296.66
386.92	1387.94
387.11	1350.49
387.31	1441.77
387.50	1383.26
387.70	1343.47
387.89	1214.74
388.09	1245.16
388.28	1378.58
388.48	1401.98
388.67	1357.51
388.86	1603.27
389.06	1678.16
389.25	1692.21
389.45	1774.13
389.64	1715.61
389.84	1732.00
390.03	1645.40
390.22	1652.42
390.42	1706.25
390.61	1792.85
390.81	1919.24
391.00	2026.90
391.19	1984.77
391.39	1844.34
391.58	1785.83
391.78	1661.78
391.97	1734.34
392.16	1432.41
392.36	1500.28
392.55	1156.22
392.75	959.62
392.94	882.38
393.13	847.27
393.33	882.38
393.52	1146.86
393.71	1383.26
393.91	1497.94
394.10	1607.95
394.29	1837.32
394.49	1944.99
394.68	2047.97
394.88	1980.09
395.07	2092.44
395.26	2094.78
395.46	2064.35
395.65	1849.02
395.84	1650.08
396.04	1502.62
396.23	1263.89
396.42	1146.86
396.62	964.30
396.81	1224.10
397.00	1376.24
397.19	1870.09
397.39	2047.97
397.58	2363.94
397.77	2387.35
397.97	2504.37
398.16	2448.20
398.35	2562.89
398.55	2630.76
398.74	2733.75
398.93	2792.26
399.12	2775.88
399.32	2670.55
399.51	2850.77
399.70	2918.65
399.90	2883.54
400.09	2864.82
400.28	2885.88
400.47	2977.16
400.67	3082.49
400.86	3026.31
401.05	3007.59
401.24	2946.73
401.44	3126.96
401.63	3251.00
401.82	3260.37
402.01	3162.06
402.21	3143.34
402.40	3220.58
402.59	3155.04
402.78	2925.67
402.97	2874.18
403.17	2981.84
403.36	3089.51
403.55	3159.72
403.74	3215.90
403.93	3030.99
404.13	3117.59
404.32	2920.99
404.51	2977.16
404.70	3269.73
404.89	3166.74
405.09	3098.87
405.28	3094.19
405.47	3056.74
405.66	3038.02
405.85	2960.78
406.05	2979.50
406.24	3009.93
406.43	2878.86
406.62	3229.94
406.81	3155.04
407.00	3002.91
407.20	3000.57
407.39	3023.97
407.58	3155.04
407.77	3346.97
407.96	3459.31
408.15	3386.76
408.34	3421.86
408.54	3693.37
408.73	3482.72
408.92	3604.42
409.11	3459.31
409.30	3229.94
409.49	3101.21
409.68	2967.80
409.87	2913.97
410.07	2993.55
410.26	3190.15
410.45	3433.57
410.64	3471.01
410.83	3520.17
411.02	3665.28
411.21	3786.99
411.40	3880.61
411.59	3669.96
411.78	3674.64
411.98	3597.40
412.17	3700.39
412.36	3590.38
412.55	3609.11
412.74	3665.28
412.93	3566.98
413.12	3510.80
413.31	3831.46
413.50	3920.40
413.69	3913.38
413.88	3911.04
414.07	3714.43
414.26	3679.32
414.45	4023.38
414.64	3784.65
414.83	3838.48
415.02	3749.54
415.22	3864.22
415.41	4004.66
415.60	4072.53
415.79	4072.53
415.98	4367.44
416.17	4166.15
416.36	4107.64
416.55	4105.30
416.74	3948.48
416.93	3768.26
417.12	3819.75
417.31	3955.51
417.50	3964.87
417.69	4100.62
417.88	4198.92
418.07	4100.62
418.26	3974.23
418.45	3955.51
418.64	4063.17
418.83	4212.96
419.02	4243.39
419.21	4248.07
419.39	3957.85
419.58	3868.91
419.77	3885.29
419.96	3950.82
420.15	4315.95
420.34	4348.72
420.53	4306.59
420.72	4482.13
420.91	4402.55
421.10	4337.01
421.29	4444.68
421.48	4383.82
421.67	4622.56
421.86	4397.87
422.05	4168.49
422.24	3796.35
422.43	3705.07
422.61	3831.46
422.80	4390.84
422.99	4477.44
423.18	4086.58
423.37	4184.88
423.56	4088.92
423.75	4067.85
423.94	4271.48
424.13	3864.22
424.32	4053.81
424.50	4077.21
424.69	4063.17
424.88	4086.58
425.07	4039.76
425.26	3953.16
425.45	3962.53
425.64	3880.61
425.83	3906.35
426.01	4163.81
426.20	4215.30
426.39	4117.00
426.58	3885.29
426.77	3632.51
426.96	3541.23
427.15	3590.38
427.33	3948.48
427.52	3976.57
427.71	3934.44
427.90	4032.74
428.09	3920.40
428.28	3794.01
428.46	3810.39
428.65	3754.22
428.84	3761.24
429.03	4056.15
429.22	3606.77
429.40	3468.67
429.59	3204.19
429.78	2876.52
429.97	2932.69
430.16	2825.03
430.34	3009.93
430.53	3002.91
430.72	2906.95
430.91	3194.83
431.10	3728.47
431.28	4318.29
431.47	4692.77
431.66	4781.71
431.85	4388.50
432.03	4072.53
432.22	4084.23
432.41	4007.00
432.60	4255.09
432.79	4428.29
432.97	4737.24
433.16	4594.47
433.35	4065.51
433.54	3936.78
433.72	3709.75
433.91	3679.32
434.10	4058.49
434.28	4325.31
434.47	4503.19
434.66	4461.06
434.85	4428.29
435.03	4535.96
435.22	4690.43
435.41	4992.36
435.59	4978.32
435.78	4947.89
435.97	5088.32
436.16	5039.17
436.34	4903.42
436.53	4915.12
436.72	4732.56
436.90	4538.30
437.09	4557.02
437.28	4484.47
437.46	4535.96
437.65	4641.28
437.84	4337.01
438.02	4098.28
438.21	3976.57
438.40	4095.94
438.58	4395.53
438.77	4482.13
438.96	4723.20
439.14	4788.74
439.33	4774.69
439.52	5050.88
439.70	4863.63
439.89	4816.82
440.08	4849.59
440.26	4655.33
440.45	4732.56
440.63	5104.71
440.82	5280.25
441.01	5114.07
441.19	5247.48
441.38	5233.44
441.57	5313.02
441.75	5500.26
441.94	5612.60
442.12	5605.58
442.31	5535.37
442.50	5516.64
442.68	5373.87
442.87	5624.31
443.05	5392.59
443.24	5483.88
443.43	5474.51
443.61	5621.97
443.80	5479.19
443.98	5310.68
444.17	5373.87
444.35	5694.52
444.54	5678.14
444.73	5589.20
444.91	5614.95
445.10	5287.27
445.28	5135.14
445.47	5069.60
445.65	5137.48
445.84	5151.52
446.02	5268.55
446.21	5359.83
446.39	5439.40
446.58	5614.95
446.77	5640.69
446.95	5451.11
447.14	5762.40
447.32	5863.04
447.51	5706.23
447.69	5563.45
447.88	5619.63
448.06	5666.44
448.25	5652.39
448.43	5783.46
448.62	5460.47
448.80	5540.05
448.99	5682.82
449.17	5661.76
449.36	5710.91
449.54	5830.27
449.73	5949.64
449.91	5914.53
450.10	6162.63
450.28	6387.32
450.46	6139.23
450.65	6267.95
450.83	6085.39
451.02	5994.11
451.20	6050.28
451.39	6078.37
451.57	5954.32
451.76	5937.94
451.94	5998.79
452.13	5872.40
452.31	5675.80
452.49	5212.37
452.68	5338.76
452.86	5469.83
453.05	5544.73
453.23	5673.46
453.42	5898.15
453.60	5767.08
453.78	6022.20
453.97	5757.72
454.15	5806.87
454.34	5809.21
454.52	6001.13
454.70	5551.75
454.89	5741.33
455.07	5593.88
455.26	5813.89
455.44	6090.07
455.62	6113.48
455.81	6108.80
455.99	6094.76
456.17	6071.35
456.36	6092.41
456.54	5928.58
456.73	6090.07
456.91	6375.62
457.09	6478.60
457.28	6413.07
457.46	6349.87
457.64	6179.01
457.83	6272.64
458.01	5956.66
458.19	5994.11
458.38	5984.75
458.56	6232.85
458.74	6244.55
458.93	6139.23
459.11	6012.84
459.29	5954.32
459.48	6106.46
459.66	6153.27
459.84	6118.16
460.03	6347.53
460.21	6057.31
460.39	6352.21
460.57	6420.09
460.76	6387.32
460.94	6305.40
461.12	6401.37
461.31	6359.24
461.49	6228.17
461.67	6394.34
461.85	6483.28
462.04	6401.37
462.22	6881.18
462.40	6478.60
462.59	6286.68
462.77	6359.24
462.95	6370.94
463.13	6548.82
463.32	6300.72
463.50	6328.81
463.68	6462.22
463.86	6289.02
464.05	6225.82
464.23	6202.42
464.41	6115.82
464.59	5998.79
464.78	6171.99
464.96	6230.51
465.14	6225.82
465.32	6359.24
465.50	6502.01
465.69	6497.33
465.87	6471.58
466.05	6150.93
466.23	6054.97
466.41	6090.07
466.60	6059.65
466.78	5998.79
466.96	6115.82
467.14	6115.82
467.32	6073.69
467.51	6230.51
467.69	6127.52
467.87	6209.44
468.05	6251.57
468.23	6246.89
468.41	6029.22
468.60	6164.97
468.78	6452.86
468.96	6157.95
469.14	6373.28
469.32	6410.73
469.50	6120.50
469.69	6111.14
469.87	6047.94
470.05	6204.76
470.23	6202.42
470.41	6188.38
470.59	6061.99
470.77	6090.07
470.95	6345.19
471.14	6260.93
471.32	6392.00
471.50	6752.45
471.68	6745.42
471.86	6717.34
472.04	6841.39
472.22	6822.66
472.40	6492.65
472.58	6342.85
472.77	6396.68
472.95	6623.72
473.13	6609.67
473.31	6422.43
473.49	6494.99
473.67	6651.80
473.85	6623.72
474.03	6867.13
474.21	6822.66
474.39	7098.84
474.57	6881.18
474.75	6960.75
474.93	6930.33
475.12	6806.28
475.30	6679.89
475.48	6752.45
475.66	6951.39
475.84	6693.93
476.02	6757.13
476.20	6785.21
476.38	6799.26
476.56	6944.37
476.74	7180.76
476.92	7201.83
477.10	7084.80
477.28	7248.64
477.46	7433.54
477.64	7269.70
477.82	7492.05
478.00	7550.57
478.18	7382.05
478.36	7428.86
478.54	7229.91
478.72	7466.31
478.90	7384.39
479.08	7850.16
479.26	7985.91
479.44	7962.50
479.62	8009.31
479.80	7908.67
479.98	7981.23
480.16	8004.63
480.34	7906.33
480.52	7995.27
480.70	7981.23
480.88	8091.23
481.06	8217.62
481.24	8203.58
481.41	8308.90
481.59	8542.96
481.77	8512.53
481.95	8325.29
482.13	8416.57
482.31	8191.88
482.49	8564.02
482.67	8561.68
482.85	8638.92
483.03	8767.65
483.21	8805.10
483.39	8765.31
483.57	8582.74
483.74	8425.93
483.92	8360.39
484.10	8542.96
484.28	8718.50
484.46	9067.24
484.64	8858.93
484.82	8734.88
485.00	8535.93
485.18	8491.46
485.35	8229.32
485.53	7585.68
485.71	7047.35
485.89	6827.34
486.07	7243.96
486.25	7932.08
486.43	8348.69
486.61	8557.00
486.78	8236.35
486.96	8285.50
487.14	8779.35
487.32	8966.59
487.50	9184.26
487.68	9493.21
487.85	9535.34
488.03	9689.82
488.21	9621.94
488.39	9451.08
488.57	9296.61
488.75	9172.56
488.92	9621.94
489.10	9891.10
489.28	10153.24
489.46	10473.90
489.64	10523.05
489.81	10663.48
489.99	10483.26
490.17	10363.89
490.35	10590.92
490.53	10450.49
490.70	10078.35
490.88	10146.22
491.06	10527.73
491.24	10574.54
491.41	10113.45
491.59	9633.64
491.77	9577.47
491.95	9893.44
492.13	10204.74
492.30	10366.23
492.48	10885.83
492.66	11002.86
492.84	10916.26
493.01	10733.70
493.19	10888.17
493.37	10752.42
493.54	10733.70
493.72	10869.45
493.90	11089.46
494.08	11492.03
494.25	11489.69
494.43	11559.91
494.61	11653.53
494.79	11882.90
494.96	11859.49
495.14	11728.42
495.32	11087.12
495.49	10827.32
495.67	11281.38
495.85	11674.59
496.02	12025.67
496.20	11910.99
496.38	11646.51
496.55	11683.95
496.73	11819.71
496.91	11815.02
497.09	12100.57
497.26	12285.47
497.44	12074.82
497.62	11939.07
497.79	11637.14
497.97	11115.20
498.14	11321.17
498.32	11389.05
498.50	11815.02
498.67	12009.29
498.85	12035.03
499.03	12035.03
499.20	12119.29
499.38	12355.69
499.56	12203.55
499.73	11899.28
499.91	11674.59
500.08	11651.19
500.26	11253.30
500.44	11517.78
500.61	11632.46
500.79	11550.54
500.97	11463.94
501.14	11566.93
501.32	11414.79
501.49	11199.46
501.67	11262.66
501.84	11573.95
502.02	11733.11
502.20	11866.52
502.37	11995.25
502.55	11810.34
502.72	11908.65
502.90	12105.25
503.07	12198.87
503.25	11470.97
503.43	11080.10
503.60	10895.19
503.78	10808.59
503.95	10560.50
504.13	11276.70
504.30	12245.68
504.48	11995.25
504.65	11791.62
504.83	12039.72
505.01	12182.49
505.18	12266.75
505.36	12304.20
505.53	12465.69
505.71	12643.57
505.88	12528.89
506.06	12411.86
506.23	12308.88
506.41	12114.61
506.58	12257.39
506.76	12336.96
506.93	12233.98
507.11	12119.29
507.28	12280.79
507.46	12135.68
507.63	11873.54
507.81	11382.03
507.98	11864.18
508.16	12020.99
508.33	12102.91
508.50	12659.96
508.68	12451.65
508.85	12807.41
509.03	12793.37
509.20	12877.63
509.38	12648.26
509.55	12105.25
509.73	12269.09
509.90	12512.50
510.08	12753.58
510.25	12751.24
510.42	12526.55
510.60	12638.89
510.77	12751.24
510.95	12973.59
511.12	13200.62
511.30	12940.82
511.47	13458.08
511.64	13624.26
511.82	13235.73
511.99	12837.84
512.17	12622.51
512.34	12278.45
512.51	12517.18
512.69	12264.41
512.86	12564.00
513.04	12975.93
513.21	12748.90
513.38	12339.30
513.56	12306.54
513.73	12152.06
513.90	12161.42
514.08	12301.86
514.25	12475.06
514.43	12664.64
514.60	12606.13
514.77	12622.51
514.95	12484.42
515.12	12453.99
515.29	12425.90
515.47	12814.43
515.64	12968.91
515.81	12769.96
515.99	12273.77
516.16	12053.76
516.33	11197.12
516.51	10677.52
516.68	10298.36
516.85	10162.61
517.03	10143.88
517.20	10995.84
517.37	12051.42
517.54	12627.19
517.72	12451.65
517.89	11536.50
518.06	10637.73
518.24	10593.26
518.41	11508.41
518.58	11878.22
518.75	11999.93
518.93	12154.40
519.10	12229.30
519.27	12365.05
519.45	12409.52
519.62	12844.86
519.79	12954.87
519.96	13139.77
520.14	12884.65
520.31	12131.00
520.48	12198.87
520.65	12437.61
520.83	12835.50
521.00	12999.34
521.17	12849.54
521.34	12676.34
521.52	12922.10
521.69	13308.29
521.86	13273.18
522.03	13226.37
522.20	12692.73
522.38	11976.52
522.55	12088.87
522.72	12383.77
522.89	12311.22
523.07	12652.94
523.24	12837.84
523.41	12814.43
523.58	13083.59
523.75	13427.65
523.92	13303.60
524.10	13327.01
524.27	13362.12
524.44	13310.63
524.61	13074.23
524.78	12952.52
524.96	12994.65
525.13	13046.15
525.30	12929.12
525.47	13287.22
525.64	13252.11
525.81	13144.45
525.98	12369.73
526.16	11721.40
526.33	11365.64
526.50	11454.58
526.67	11281.38
526.84	11166.70
527.01	11646.51
527.18	12390.80
527.36	12603.78
527.53	12985.29
527.70	13179.56
527.87	12809.75
528.04	12753.58
528.21	12950.18
528.38	13238.07
528.55	13369.14
528.72	13790.44
528.89	13582.13
529.07	13479.15
529.24	13235.73
529.41	13053.17
529.58	12704.43
529.75	12587.40
529.92	13191.26
530.09	13217.01
530.26	13310.63
530.43	13345.73
530.60	13572.77
530.77	13664.05
530.94	13767.03
531.11	13338.71
531.28	13280.20
531.46	13121.04
531.63	13317.65
531.80	13092.96
531.97	12950.18
532.14	12858.90
532.31	12161.42
532.48	11920.35
532.65	11878.22
532.82	12283.13
532.99	12564.00
533.16	12751.24
533.33	13341.05
533.50	12952.52
533.67	12769.96
533.84	12688.04
534.01	12739.54
534.18	12884.65
534.35	13008.70
534.52	12849.54
534.69	13078.91
534.86	13284.88
535.03	13378.50
535.20	13240.41
535.37	13715.54
535.54	13685.11
535.71	13579.79
535.88	13502.55
536.05	13188.92
536.22	13177.22
536.38	12968.91
536.55	12519.53
536.72	12301.86
536.89	12332.28
537.06	12737.20
537.23	12868.27
537.40	12924.44
537.57	13247.43
537.74	13071.89
537.91	13050.83
538.08	12938.48
538.25	13137.43
538.42	13137.43
538.59	13076.57
538.75	12807.41
538.92	12685.70
539.09	12573.36
539.26	12692.73
539.43	12416.54
539.60	12503.14
539.77	12159.08
539.94	12348.67
540.11	11992.90
540.28	12126.32
540.44	11777.58
540.61	11779.92
540.78	12056.10
540.95	12336.96
541.12	12266.75
541.29	12765.28
541.46	12844.86
541.62	12968.91
541.79	12830.82
541.96	12526.55
542.13	12353.35
542.30	12798.05
542.47	12699.75
542.63	12631.87
542.80	12421.22
542.97	12559.31
543.14	12166.10
543.31	12421.22
543.48	12472.71
543.64	13078.91
543.81	13298.92
543.98	13104.66
544.15	12767.62
544.32	12585.06
544.48	12528.89
544.65	12697.41
544.82	12889.33
544.99	12444.63
545.16	12610.81
545.32	12486.76
545.49	12945.50
545.66	13343.39
545.83	13462.76
546.00	13034.44
546.16	12589.74
546.33	12320.58
546.50	12484.42
546.67	12856.56
546.83	12683.36
547.00	12559.31
547.17	12470.37
547.34	12011.63
547.50	12226.96
547.67	12156.74
547.84	12222.28
548.00	12510.16
548.17	12573.36
548.34	12788.69
548.51	12847.20
548.67	12718.47
548.84	12678.68
549.01	12638.89
549.18	12456.33
549.34	12535.91
549.51	12599.10
549.68	12224.62
549.84	12437.61
550.01	12463.35
550.18	12599.10
550.34	12648.26
550.51	12444.63
550.68	12496.12
550.84	12236.32
551.01	12131.00
551.18	12287.81
551.34	12521.87
551.51	12437.61
551.68	12386.12
551.84	12987.63
552.01	12760.60
552.18	12620.17
552.34	12306.54
552.51	11822.05
552.68	12107.59
552.84	12091.21
553.01	12339.30
553.18	12505.48
553.34	12376.75
553.51	12166.10
553.67	12643.57
553.84	12601.44
554.01	12273.77
554.17	12304.20
554.34	12245.68
554.51	12353.35
554.67	12601.44
554.84	12634.21
555.00	12243.34
555.17	12081.85
555.33	12482.08
555.50	12430.59
555.67	12170.79
555.83	11941.41
556.00	12123.98
556.16	11885.24
556.33	11772.89
556.50	11852.47
556.66	11889.92
556.83	11602.04
556.99	11660.55
557.16	11925.03
557.32	11831.41
557.49	11838.43
557.65	11957.80
557.82	11927.37
557.98	11822.05
558.15	11772.89
558.32	11576.29
558.48	10974.77
558.65	11073.07
558.81	11351.60
558.98	11180.74
559.14	11501.39
559.31	11541.18
559.47	11602.04
559.64	11335.21
559.80	11351.60
559.97	11370.32
560.13	11379.68
560.30	11786.94
560.46	12037.38
560.63	11822.05
560.79	12182.49
560.96	12175.47
561.12	11480.33
561.29	11283.72
561.45	11367.98
561.61	11391.39
561.78	11602.04
561.94	11541.18
562.11	11529.48
562.27	11171.38
562.44	11576.29
562.60	11543.52
562.77	11894.60
562.93	11625.44
563.10	11782.26
563.26	11508.41
563.42	11536.50
563.59	11513.10
563.75	11272.02
563.92	11365.64
564.08	11384.37
564.24	11428.84
564.41	11337.56
564.57	11377.34
564.74	11325.85
564.90	11513.10
565.07	11187.76
565.23	11154.99
565.39	10965.41
565.56	10544.11
565.72	10719.65
565.88	10803.91
566.05	10649.44
566.21	10902.22
566.38	11096.48
566.54	11044.99
566.70	11199.46
566.87	11194.78
567.03	11147.97
567.19	11241.59
567.36	11236.91
567.52	11056.69
567.68	11176.06
567.85	10808.59
568.01	10714.97
568.17	10225.80
568.34	10375.59
568.50	10279.63
568.66	10274.95
568.83	10553.48
568.99	10363.89
569.15	10370.91
569.32	10551.14
569.48	10408.36
569.64	10122.82
569.81	10244.52
569.97	10225.80
570.13	10382.62
570.30	10312.40
570.46	10366.23
570.62	10036.22
570.78	9813.87
570.95	10181.33
571.11	10209.42
571.27	10296.02
571.43	10188.35
571.60	10333.47
571.76	10253.89
571.92	10466.88
572.09	10487.94
572.25	10544.11
572.41	10403.68
572.57	10204.74
572.74	10394.32
572.90	10281.97
573.06	10555.82
573.22	10363.89
573.38	10506.66
573.55	10314.74
573.71	10403.68
573.87	10452.83
574.03	10211.76
574.20	10274.95
574.36	10071.33
574.52	9970.68
574.68	10195.37
574.84	10057.28
575.01	9879.40
575.17	9860.68
575.33	9909.83
575.49	9984.73
575.65	9987.07
575.82	9811.53
575.98	9947.28
576.14	9977.70
576.30	10019.83
576.46	10214.10
576.62	10225.80
576.79	10003.45
576.95	10155.58
577.11	10214.10
577.27	9914.51
577.43	10195.37
577.59	9914.51
577.75	9926.21
577.92	9710.88
578.08	9734.29
578.24	9465.13
578.40	9572.79
578.56	9989.41
578.72	10061.96
578.88	10253.89
579.04	10094.73
579.21	10015.15
579.37	10094.73
579.53	10197.71
579.69	9994.09
579.85	10162.61
580.01	10246.87
580.17	9874.72
580.33	10097.07
580.49	9968.34
580.65	10125.16
580.82	10246.87
580.98	10080.69
581.14	10104.09
581.30	10092.39
581.46	9865.36
581.62	9961.32
581.78	10193.03
581.94	10211.76
582.10	10012.81
582.26	10127.50
582.42	9937.91
582.58	10204.74
582.74	10057.28
582.90	10235.16
583.06	10155.58
583.22	9966.00
583.38	10134.52
583.54	10312.40
583.70	9863.02
583.86	10043.24
584.02	10155.58
584.18	10083.03
584.34	10113.45
584.50	10022.17
584.66	10171.97
584.82	9605.56
584.98	9916.85
585.14	9809.19
585.30	9645.35
585.46	9301.29
585.62	9383.21
585.78	9348.10
585.94	9523.64
586.10	9483.85
586.26	9446.40
586.42	9820.89
586.58	9619.60
586.74	9750.67
586.90	9692.16
587.06	9383.21
587.22	9547.05
587.38	9270.86
587.54	9050.85
587.70	8798.07
587.86	8594.45
588.02	8671.68
588.18	8297.20
588.34	8025.70
588.49	7358.64
588.65	7138.63
588.81	6689.25
588.97	7016.93
589.13	6787.55
589.29	6841.39
589.45	6918.62
589.61	6892.88
589.77	7419.50
589.93	7368.01
590.08	7988.25
590.24	7887.61
590.40	8037.40
590.56	8065.49
590.72	8006.97
590.88	7992.93
591.04	8084.21
591.20	7896.97
