SpectraSuite Data File
++++++++++++++++++++++++++++++++++++
Date: Fri Oct 04 11:44:12 GMT-05:00 2013
User: price-jones
Dark Spectrum Present: No
Reference Spectrum Present: No
Number of Sampled Component Spectra: 1
Spectrometers: USB2+H05261
Integration Time (usec): 100000 (USB2+H05261)
Spectra Averaged: 1 (USB2+H05261)
Boxcar Smoothing: 0 (USB2+H05261)
Correct for Electrical Dark: No (USB2+H05261)
Strobe/Lamp Enabled: No (USB2+H05261)
Correct for Detector Non-linearity: No (USB2+H05261)
Correct for Stray Light: No (USB2+H05261)
Number of Pixels in Processed Spectrum: 2048
>>>>>Begin Processed Spectral Data<<<<<
365.73	51.49
365.92	51.49
366.12	51.49
366.32	0.00
366.52	0.00
366.72	2.34
366.91	0.00
367.11	0.00
367.31	0.00
367.51	0.00
367.70	0.00
367.90	9.36
368.10	0.00
368.30	0.00
368.49	0.00
368.69	0.00
368.89	0.00
369.09	0.00
369.28	0.00
369.48	0.00
369.68	0.00
369.87	32.77
370.07	0.00
370.27	23.41
370.47	67.88
370.66	465.77
370.86	451.72
371.06	514.92
371.25	573.43
371.45	425.98
371.65	463.43
371.84	388.53
372.04	496.19
372.24	440.02
372.44	505.56
372.63	564.07
372.83	533.64
373.03	423.64
373.22	421.30
373.42	402.57
373.62	510.24
373.81	498.53
374.01	526.62
374.21	528.96
374.40	507.90
374.60	512.58
374.79	479.81
374.99	599.18
375.19	648.33
375.38	603.86
375.58	589.82
375.78	606.20
375.97	655.35
376.17	702.16
376.37	653.01
376.56	592.16
376.76	631.94
376.95	629.60
377.15	758.33
377.35	660.03
377.54	699.82
377.74	744.29
377.93	713.86
378.13	725.57
378.33	791.10
378.52	730.25
378.72	695.14
378.91	613.22
379.11	582.79
379.31	627.26
379.50	566.41
379.70	763.01
379.89	730.25
380.09	718.54
380.28	805.14
380.48	765.36
380.68	671.73
380.87	711.52
381.07	688.12
381.26	685.78
381.46	631.94
381.65	559.39
381.85	552.37
382.04	589.82
382.24	564.07
382.43	557.05
382.63	535.98
382.83	575.77
383.02	491.51
383.22	489.17
383.41	517.26
383.61	557.05
383.80	634.29
384.00	655.35
384.19	788.76
384.39	767.70
384.58	767.70
384.78	727.91
384.97	732.59
385.17	755.99
385.36	720.88
385.56	709.18
385.75	610.88
385.95	627.26
386.14	770.04
386.34	690.46
386.53	748.97
386.72	763.01
386.92	667.05
387.11	734.93
387.31	779.40
387.50	807.48
387.70	730.25
387.89	660.03
388.09	709.18
388.28	718.54
388.48	772.38
388.67	784.08
388.86	837.91
389.06	894.08
389.25	891.74
389.45	976.00
389.64	964.30
389.84	994.73
390.03	887.06
390.22	976.00
390.42	954.94
390.61	938.55
390.81	1027.50
391.00	1078.99
391.19	997.07
391.39	1057.92
391.58	987.71
391.78	1006.43
391.97	917.49
392.16	753.65
392.36	772.38
392.55	695.14
392.75	531.30
392.94	521.94
393.13	442.36
393.33	517.26
393.52	585.13
393.71	758.33
393.91	887.06
394.10	940.90
394.29	1071.97
394.49	1018.13
394.68	1196.01
394.88	1137.50
395.07	1167.93
395.26	1111.75
395.46	1128.14
395.65	1039.20
395.84	950.26
396.04	884.72
396.23	702.16
396.42	650.67
396.62	589.82
396.81	620.24
397.00	723.23
397.19	931.53
397.39	1177.29
397.58	1245.16
397.77	1334.11
397.97	1310.70
398.16	1313.04
398.35	1462.83
398.55	1348.15
398.74	1481.56
398.93	1568.16
399.12	1626.67
399.32	1380.92
399.51	1469.86
399.70	1561.14
399.90	1563.48
400.09	1502.62
400.28	1488.58
400.47	1575.18
400.67	1568.16
400.86	1701.57
401.05	1654.76
401.24	1724.97
401.44	1661.78
401.63	1694.55
401.82	1732.00
402.01	1722.63
402.21	1736.68
402.40	1631.35
402.59	1605.61
402.78	1647.74
402.97	1596.25
403.17	1661.78
403.36	1736.68
403.55	1788.17
403.74	1736.68
403.93	1802.21
404.13	1774.13
404.32	1629.01
404.51	1687.53
404.70	1664.12
404.89	1898.17
405.09	1834.98
405.28	1748.38
405.47	1610.29
405.66	1636.03
405.85	1675.82
406.05	1678.16
406.24	1554.12
406.43	1776.47
406.62	1685.19
406.81	1692.21
407.00	1729.66
407.20	1600.93
407.39	1682.85
407.58	1715.61
407.77	1732.00
407.96	1757.74
408.15	1877.11
408.34	1856.04
408.54	1944.99
408.73	1961.37
408.92	2003.50
409.11	1867.75
409.30	1853.70
409.49	1671.14
409.68	1533.05
409.87	1479.22
410.07	1533.05
410.26	1715.61
410.45	1849.02
410.64	1949.67
410.83	1909.88
411.02	2003.50
411.21	2043.29
411.40	2078.40
411.59	1921.58
411.78	2010.52
411.98	2092.44
412.17	2062.01
412.36	1954.35
412.55	2036.27
412.74	2062.01
412.93	1905.20
413.12	1858.39
413.31	2174.36
413.50	2120.53
413.69	2237.55
413.88	2024.56
414.07	2017.54
414.26	2120.53
414.45	2066.69
414.64	2024.56
414.83	2092.44
415.02	2148.61
415.22	2150.95
415.41	2197.76
415.60	2139.25
415.79	2338.20
415.98	2333.51
416.17	2289.04
416.36	2239.89
416.55	2319.47
416.74	2134.57
416.93	2101.80
417.12	2026.90
417.31	2188.40
417.50	2108.82
417.69	2335.85
417.88	2230.53
418.07	2188.40
418.26	2094.78
418.45	2129.89
418.64	2246.91
418.83	2296.07
419.02	2363.94
419.21	2296.07
419.39	2162.66
419.58	2111.16
419.77	2040.95
419.96	2143.93
420.15	2298.41
420.34	2377.98
420.53	2429.48
420.72	2487.99
420.91	2401.39
421.10	2490.33
421.29	2462.24
421.48	2289.04
421.67	2455.22
421.86	2303.09
422.05	2249.25
422.24	2017.54
422.43	1989.46
422.61	2200.10
422.80	2307.77
422.99	2408.41
423.18	2291.38
423.37	2328.83
423.56	2232.87
423.75	2347.56
423.94	2307.77
424.13	2256.28
424.32	2307.77
424.50	2310.11
424.69	2216.49
424.88	2298.41
425.07	2270.32
425.26	2225.85
425.45	2204.78
425.64	2174.36
425.83	2080.74
426.01	2303.09
426.20	2307.77
426.39	2230.53
426.58	2111.16
426.77	2003.50
426.96	1837.32
427.15	2080.74
427.33	2085.42
427.52	2246.91
427.71	2193.08
427.90	2291.38
428.09	2129.89
428.28	2059.67
428.46	2111.16
428.65	2001.16
428.84	2108.82
429.03	2113.50
429.22	2073.71
429.40	2001.16
429.59	1713.27
429.78	1699.23
429.97	1631.35
430.16	1614.97
430.34	1621.99
430.53	1687.53
430.72	1732.00
430.91	1783.49
431.10	2045.63
431.28	2300.75
431.47	2658.85
431.66	2665.87
431.85	2558.21
432.03	2277.34
432.22	2169.68
432.41	2207.13
432.60	2497.35
432.79	2450.54
432.97	2497.35
433.16	2583.95
433.35	2328.83
433.54	2146.27
433.72	2080.74
433.91	2139.25
434.10	2293.72
434.28	2385.01
434.47	2466.92
434.66	2523.10
434.85	2457.56
435.03	2387.35
435.22	2602.68
435.41	2963.12
435.59	2895.24
435.78	2970.14
435.97	2773.53
436.16	2780.56
436.34	2689.28
436.53	2581.61
436.72	2623.74
436.90	2534.80
437.09	2406.07
437.28	2305.43
437.46	2487.99
437.65	2614.38
437.84	2450.54
438.02	2230.53
438.21	2064.35
438.40	2296.07
438.58	2415.43
438.77	2534.80
438.96	2614.38
439.14	2593.31
439.33	2647.15
439.52	2691.62
439.70	2799.28
439.89	2583.95
440.08	2502.03
440.26	2612.04
440.45	2640.12
440.63	2801.62
440.82	2888.22
441.01	2911.63
441.19	2818.00
441.38	2916.31
441.57	2918.65
441.75	3080.14
441.94	3009.93
442.12	3089.51
442.31	3091.85
442.50	2930.35
442.68	3000.57
442.87	2972.48
443.05	3021.63
443.24	3016.95
443.43	3052.06
443.61	3143.34
443.80	3122.27
443.98	2888.22
444.17	3059.08
444.35	3190.15
444.54	3166.74
444.73	3119.93
444.91	3101.21
445.10	2939.71
445.28	2869.50
445.47	2754.81
445.65	2825.03
445.84	2888.22
446.02	3026.31
446.21	2995.89
446.39	3019.29
446.58	3077.80
446.77	2988.86
446.95	3035.67
447.14	3201.85
447.32	3445.27
447.51	3290.79
447.69	3082.49
447.88	3021.63
448.06	3194.83
448.25	3105.89
448.43	3197.17
448.62	3063.76
448.80	3166.74
448.99	3131.64
449.17	3056.74
449.36	3082.49
449.54	3213.56
449.73	3276.75
449.91	3307.18
450.10	3473.36
450.28	3564.64
450.46	3515.48
450.65	3494.42
450.83	3386.76
451.02	3314.20
451.20	3218.24
451.39	3262.71
451.57	3279.09
451.76	3141.00
451.94	3220.58
452.13	3379.73
452.31	3159.72
452.49	3047.38
452.68	3016.95
452.86	3049.72
453.05	3178.45
453.23	3199.51
453.42	3197.17
453.60	3124.62
453.78	3227.60
453.97	3276.75
454.15	3251.00
454.34	3194.83
454.52	3166.74
454.70	3145.68
454.89	3063.76
455.07	3211.22
455.26	3335.26
455.44	3386.76
455.62	3344.63
455.81	3541.23
455.99	3323.56
456.17	3433.57
456.36	3379.73
456.54	3454.63
456.73	3396.12
456.91	3398.46
457.09	3613.79
457.28	3611.45
457.46	3574.00
457.64	3459.31
457.83	3243.98
458.01	3211.22
458.19	3295.47
458.38	3304.84
458.56	3414.84
458.74	3485.06
458.93	3171.43
459.11	3503.78
459.29	3426.54
459.48	3382.07
459.66	3365.69
459.84	3442.93
460.03	3534.21
460.21	3335.26
460.39	3440.59
460.57	3545.91
460.76	3574.00
460.94	3606.77
461.12	3597.40
461.31	3463.99
461.49	3456.97
461.67	3585.70
461.85	3543.57
462.04	3613.79
462.22	4098.28
462.40	3609.11
462.59	3637.19
462.77	3538.89
462.95	3583.36
463.13	3463.99
463.32	3552.93
463.50	3529.53
463.68	3517.83
463.86	3531.87
464.05	3377.39
464.23	3368.03
464.41	3370.37
464.59	3290.79
464.78	3426.54
464.96	3400.80
465.14	3431.23
465.32	3487.40
465.50	3623.15
465.69	3655.92
465.87	3461.65
466.05	3513.14
466.23	3225.26
466.41	3145.68
466.60	3300.16
466.78	3201.85
466.96	3403.14
467.14	3358.67
467.32	3459.31
467.51	3531.87
467.69	3431.23
467.87	3456.97
468.05	3499.10
468.23	3445.27
468.41	3440.59
468.60	3449.95
468.78	3459.31
468.96	3489.74
469.14	3585.70
469.32	3562.30
469.50	3384.41
469.69	3466.33
469.87	3377.39
470.05	3311.86
470.23	3297.81
470.41	3363.35
470.59	3353.99
470.77	3424.20
470.95	3398.46
471.14	3478.04
471.32	3475.70
471.50	3674.64
471.68	3552.93
471.86	3728.47
472.04	3758.90
472.22	3688.68
472.40	3574.00
472.58	3494.42
472.77	3585.70
472.95	3599.74
473.13	3721.45
473.31	3562.30
473.49	3571.66
473.67	3644.21
473.85	3660.60
474.03	3789.33
474.21	3712.09
474.39	3887.63
474.57	3775.28
474.75	3803.37
474.93	3878.27
475.12	3775.28
475.30	3707.41
475.48	3695.71
475.66	3866.56
475.84	3698.05
476.02	3782.31
476.20	3740.18
476.38	3702.73
476.56	3627.83
476.74	3953.16
476.92	3833.80
477.10	3939.12
477.28	3974.23
477.46	4007.00
477.64	4145.09
477.82	4072.53
478.00	4222.33
478.18	4180.20
478.36	4014.02
478.54	4187.22
478.72	4077.21
478.90	4180.20
479.08	4184.88
479.26	4322.97
479.44	4327.65
479.62	4348.72
479.80	4271.48
479.98	4468.08
480.16	4255.09
480.34	4512.55
480.52	4444.68
480.70	4423.61
480.88	4264.46
481.06	4362.76
481.24	4519.57
481.41	4559.36
481.59	4704.48
481.77	4624.90
481.95	4755.97
482.13	4638.94
482.31	4624.90
482.49	4697.46
482.67	4580.43
482.85	4533.62
483.03	4748.95
483.21	4627.24
483.39	4716.18
483.57	4671.71
483.74	4638.94
483.92	4699.80
484.10	4842.57
484.28	4781.71
484.46	4868.31
484.64	4924.49
484.82	4805.12
485.00	4648.30
485.18	4798.10
485.35	4566.39
485.53	4121.68
485.71	3995.29
485.89	3859.54
486.07	3969.55
486.25	4346.37
486.43	4650.64
486.61	4519.57
486.78	4765.33
486.96	4634.26
487.14	4828.53
487.32	5013.43
487.50	5144.50
487.68	5369.19
487.85	5179.61
488.03	5135.14
488.21	5266.21
488.39	5240.46
488.57	5008.75
488.75	4917.47
488.92	5224.08
489.10	5392.59
489.28	5715.59
489.46	5771.76
489.64	5680.48
489.81	5715.59
489.99	5757.72
490.17	5703.89
490.35	5907.51
490.53	5781.12
490.70	5556.43
490.88	5563.45
491.06	5593.88
491.24	5956.66
491.41	5823.25
491.59	5486.22
491.77	5188.97
491.95	5507.28
492.13	5591.54
492.30	5818.57
492.48	6003.47
492.66	5856.02
492.84	6090.07
493.01	5973.05
493.19	5851.34
493.37	6017.52
493.54	5951.98
493.72	5921.56
493.90	6094.76
494.08	6139.23
494.25	6363.92
494.43	6396.68
494.61	6588.61
494.79	6593.29
494.96	6473.92
495.14	6392.00
495.32	6235.19
495.49	6127.52
495.67	6258.59
495.85	6520.73
496.02	6658.82
496.20	6527.75
496.38	6595.63
496.55	6464.56
496.73	6794.58
496.91	6555.84
497.09	6663.51
497.26	6766.49
497.44	6604.99
497.62	6576.91
497.79	6483.28
497.97	6069.01
498.14	6064.33
498.32	6282.00
498.50	6459.88
498.67	6621.38
498.85	6857.77
499.03	6679.89
499.20	6729.04
499.38	6750.10
499.56	6738.40
499.73	6600.31
499.91	6452.86
500.08	6434.13
500.26	6214.12
500.44	6455.20
500.61	6553.50
500.79	6492.65
500.97	6258.59
501.14	6209.44
501.32	6296.04
501.49	6424.77
501.67	6106.46
501.84	6455.20
502.02	6319.45
502.20	6565.20
502.37	6443.49
502.55	6537.12
502.72	6497.33
502.90	6729.04
503.07	6551.16
503.25	6466.90
503.43	6106.46
503.60	5994.11
503.78	5853.68
503.95	5776.44
504.13	6291.36
504.30	6417.75
504.48	6628.40
504.65	6663.51
504.83	6604.99
505.01	6808.62
505.18	6642.44
505.36	6836.70
505.53	6864.79
505.71	6876.49
505.88	7094.16
506.06	6949.05
506.23	6780.53
506.41	6506.69
506.58	6686.91
506.76	6520.73
506.93	6640.10
507.11	6569.88
507.28	6712.66
507.46	6544.14
507.63	6427.11
507.81	6303.06
507.98	6436.47
508.16	6619.04
508.33	6677.55
508.50	7042.67
508.68	7035.65
508.85	7014.59
509.03	7070.76
509.20	7047.35
509.38	7080.12
509.55	6817.98
509.73	6834.36
509.90	6747.76
510.08	6871.81
510.25	7014.59
510.42	6806.28
510.60	6895.22
510.77	6895.22
510.95	6991.18
511.12	6993.52
511.30	7424.18
511.47	7152.68
511.64	7557.59
511.82	7162.04
511.99	7049.69
512.17	6888.20
512.34	6850.75
512.51	6899.90
512.69	6897.56
512.86	6918.62
513.04	7063.74
513.21	6986.50
513.38	7040.33
513.56	6789.89
513.73	6565.20
513.90	6700.95
514.08	6780.53
514.25	6853.09
514.43	6813.30
514.60	6956.07
514.77	7007.56
514.95	6911.60
515.12	7028.63
515.29	7042.67
515.47	7140.97
515.64	7208.85
515.81	7122.25
515.99	6970.12
516.16	6787.55
516.33	6274.98
516.51	5884.11
516.68	5722.61
516.85	5680.48
517.03	5762.40
517.20	6085.39
517.37	6588.61
517.54	6888.20
517.72	6724.36
517.89	6434.13
518.06	5951.98
518.24	6040.92
518.41	6204.76
518.58	6513.71
518.75	6679.89
518.93	6726.70
519.10	6700.95
519.27	6621.38
519.45	6691.59
519.62	7007.56
519.79	7241.62
519.96	6913.94
520.14	6974.80
520.31	6857.77
520.48	6813.30
520.65	6764.15
520.83	7080.12
521.00	7035.65
521.17	7005.22
521.34	7066.08
521.52	7035.65
521.69	7152.68
521.86	7286.09
522.03	7288.43
522.20	6958.41
522.38	6799.26
522.55	6612.01
522.72	6820.32
522.89	6841.39
523.07	6888.20
523.24	6895.22
523.41	7173.74
523.58	7190.13
523.75	7318.86
523.92	7248.64
524.10	7360.98
524.27	7351.62
524.44	7662.91
524.61	7187.79
524.78	7119.91
524.96	7140.97
525.13	7012.24
525.30	7295.45
525.47	7529.50
525.64	7396.09
525.81	7283.75
525.98	6946.71
526.16	6553.50
526.33	6541.80
526.50	6239.87
526.67	6106.46
526.84	6328.81
527.01	6427.11
527.18	6773.51
527.36	6883.52
527.53	7049.69
527.70	7365.67
527.87	7227.57
528.04	7089.48
528.21	7225.23
528.38	7309.49
528.55	7428.86
528.72	7531.84
528.89	7831.43
529.07	7470.99
529.24	7194.81
529.41	7162.04
529.58	7028.63
529.75	6839.05
529.92	7229.91
530.09	7272.04
530.26	7386.73
530.43	7517.80
530.60	7456.95
530.77	7602.06
530.94	7573.97
531.11	7349.28
531.28	7431.20
531.46	7321.20
531.63	7110.55
531.80	7288.43
531.97	7267.36
532.14	7131.61
532.31	6773.51
532.48	6691.59
532.65	6572.22
532.82	6719.68
532.99	6927.99
533.16	7101.19
533.33	7185.44
533.50	7386.73
533.67	6965.43
533.84	7157.36
534.01	7105.87
534.18	7101.19
534.35	7176.08
534.52	7009.90
534.69	7026.29
534.86	7253.32
535.03	7520.14
535.20	7356.30
535.37	7681.64
535.54	7543.55
535.71	7316.51
535.88	7534.18
536.05	7368.01
536.22	7281.41
536.38	7049.69
536.55	6857.77
536.72	6862.45
536.89	6846.07
537.06	6965.43
537.23	7265.02
537.40	7178.42
537.57	7363.33
537.74	7346.94
537.91	7246.30
538.08	7035.65
538.25	7213.53
538.42	7286.09
538.59	7265.02
538.75	7037.99
538.92	6895.22
539.09	6970.12
539.26	7112.89
539.43	6967.77
539.60	6885.86
539.77	7080.12
539.94	7021.61
540.11	6707.98
540.28	6689.25
540.44	6590.95
540.61	6747.76
540.78	6745.42
540.95	6977.14
541.12	7180.76
541.29	7164.38
541.46	7304.81
541.62	7258.00
541.79	7314.17
541.96	7129.27
542.13	7124.59
542.30	7194.81
542.47	7239.28
542.63	7206.51
542.80	7073.10
542.97	7157.36
543.14	7021.61
543.31	7129.27
543.48	7063.74
543.64	7578.65
543.81	7564.61
543.98	7356.30
544.15	7328.22
544.32	7073.10
544.48	7059.06
544.65	7169.06
544.82	7262.68
544.99	7262.68
545.16	7337.58
545.32	7094.16
545.49	7555.25
545.66	7941.44
545.83	7927.39
546.00	7810.37
546.16	7452.27
546.33	7166.72
546.50	7030.97
546.67	7307.15
546.83	7035.65
547.00	7098.84
547.17	7049.69
547.34	6752.45
547.50	6787.55
547.67	6871.81
547.84	6853.09
548.00	6768.83
548.17	7059.06
548.34	6932.67
548.51	7220.55
548.67	7028.63
548.84	7328.22
549.01	7101.19
549.18	7091.82
549.34	7129.27
549.51	7012.24
549.68	6991.18
549.84	7042.67
550.01	7190.13
550.18	7089.48
550.34	7007.56
550.51	6998.20
550.68	7052.03
550.84	6956.07
551.01	6897.56
551.18	6801.60
551.34	7028.63
551.51	6904.58
551.68	7040.33
551.84	7101.19
552.01	7122.25
552.18	7030.97
552.34	6920.96
552.51	6677.55
552.68	6724.36
552.84	6792.23
553.01	6862.45
553.18	6593.29
553.34	7042.67
553.51	6956.07
553.67	7140.97
553.84	7136.29
554.01	7005.22
554.17	6850.75
554.34	6857.77
554.51	6939.69
554.67	6965.43
554.84	7033.31
555.00	7045.01
555.17	7052.03
555.33	6988.84
555.50	6881.18
555.67	6888.20
555.83	6794.58
556.00	6726.70
556.16	6799.26
556.33	6766.49
556.50	6651.80
556.66	6576.91
556.83	6553.50
556.99	6588.61
557.16	6616.69
557.32	6466.90
557.49	6707.98
557.65	6572.22
557.82	6782.87
557.98	6682.23
558.15	6703.29
558.32	6462.22
558.48	6284.34
558.65	6127.52
558.81	6394.34
558.98	6424.77
559.14	6471.58
559.31	6424.77
559.47	6368.60
559.64	6478.60
559.80	6232.85
559.97	6394.34
560.13	6406.05
560.30	6569.88
560.46	6729.04
560.63	6630.74
560.79	6621.38
560.96	6754.79
561.12	6612.01
561.29	6230.51
561.45	6352.21
561.61	6466.90
561.78	6562.86
561.94	6375.62
562.11	6597.97
562.27	6197.74
562.44	6382.64
562.60	6333.49
562.77	6392.00
562.93	6619.04
563.10	6621.38
563.26	6434.13
563.42	6504.35
563.59	6413.07
563.75	6258.59
563.92	6443.49
564.08	6347.53
564.24	6469.24
564.41	6333.49
564.57	6293.70
564.74	6485.62
564.90	6518.39
565.07	6361.58
565.23	6291.36
565.39	6267.95
565.56	6101.78
565.72	6071.35
565.88	5959.00
566.05	6069.01
566.21	5996.45
566.38	6181.35
566.54	6207.10
566.70	6291.36
566.87	6382.64
567.03	6253.91
567.19	6277.32
567.36	6307.74
567.52	6204.76
567.68	6157.95
567.85	5921.56
568.01	6033.90
568.17	5795.17
568.34	5785.80
568.50	5813.89
568.66	5682.82
568.83	5998.79
568.99	5841.98
569.15	5968.37
569.32	5879.43
569.48	5776.44
569.64	5626.65
569.81	5764.74
569.97	5755.38
570.13	5825.59
570.30	5799.85
570.46	5767.08
570.62	5554.09
570.78	5603.24
570.95	5554.09
571.11	5692.18
571.27	5750.70
571.43	5806.87
571.60	5930.92
571.76	5781.12
571.92	5947.30
572.09	5968.37
572.25	5818.57
572.41	5902.83
572.57	5834.96
572.74	5811.55
572.90	5687.50
573.06	5860.70
573.22	5956.66
573.38	5813.89
573.55	5837.30
573.71	5870.06
573.87	5961.34
574.03	5570.48
574.20	5722.61
574.36	5792.83
574.52	5678.14
574.68	5495.58
574.84	5643.03
575.01	5589.20
575.17	5542.39
575.33	5593.88
575.49	5710.91
575.65	5650.05
575.82	5645.37
575.98	5474.51
576.14	5650.05
576.30	5612.60
576.46	5722.61
576.62	5813.89
576.79	5783.46
576.95	5724.95
577.11	5734.31
577.27	5626.65
577.43	5542.39
577.59	5746.02
577.75	5792.83
577.92	5401.96
578.08	5493.24
578.24	5479.19
578.40	5432.38
578.56	5701.54
578.72	5687.50
578.88	5771.76
579.04	5591.54
579.21	5533.03
579.37	5607.92
579.53	5636.01
579.69	5682.82
579.85	5891.13
580.01	5921.56
580.17	5724.95
580.33	5621.97
580.49	5713.25
580.65	5713.25
580.82	5600.90
580.98	5806.87
581.14	5570.48
581.30	5746.02
581.46	5839.64
581.62	5762.40
581.78	5806.87
581.94	5928.58
582.10	5724.95
582.26	5881.77
582.42	5820.91
582.58	5937.94
582.74	5799.85
582.90	5926.24
583.06	5811.55
583.22	5643.03
583.38	5631.33
583.54	5694.52
583.70	5729.63
583.86	5877.09
584.02	5755.38
584.18	5799.85
584.34	5455.79
584.50	5542.39
584.66	5596.22
584.82	5467.49
584.98	5586.86
585.14	5612.60
585.30	5481.53
585.46	5305.99
585.62	5315.36
585.78	5373.87
585.94	5406.64
586.10	5371.53
586.26	5526.00
586.42	5472.17
586.58	5579.84
586.74	5427.70
586.90	5502.60
587.06	5474.51
587.22	5359.83
587.38	5217.05
587.54	5205.35
587.70	5128.11
587.86	4896.40
588.02	4683.41
588.18	4638.94
588.34	4503.19
588.49	4285.52
588.65	3999.98
588.81	3962.53
588.97	4023.38
589.13	3875.93
589.29	3929.76
589.45	3896.99
589.61	3941.46
589.77	4212.96
589.93	4299.56
590.08	4493.83
590.24	4582.77
590.40	4512.55
590.56	4702.14
590.72	4526.60
590.88	4578.09
591.04	4418.93
591.20	4334.67
591.35	4388.50
591.51	4468.08
591.67	4430.63
591.83	4367.44
591.99	4374.46
592.15	4334.67
592.31	4589.79
592.46	4688.09
592.62	4758.31
592.78	4706.82
592.94	4617.88
593.10	4828.53
593.26	4938.53
593.41	4915.12
593.57	4741.93
593.73	4669.37
593.89	4484.47
594.05	4208.28
594.20	4414.25
594.36	4175.52
594.52	4077.21
594.68	4170.83
594.84	4329.99
594.99	4566.39
595.15	4571.07
595.31	4599.15
595.47	4571.07
595.62	4442.34
595.78	4739.58
595.94	4755.97
596.10	4795.76
596.25	4699.80
596.41	4564.04
596.57	4423.61
596.73	4585.11
596.88	4697.46
597.04	4788.74
597.20	4610.86
597.36	4580.43
597.51	4667.03
597.67	4690.43
