SpectraSuite Data File
++++++++++++++++++++++++++++++++++++
Date: Fri Oct 04 11:44:25 GMT-05:00 2013
User: price-jones
Dark Spectrum Present: No
Reference Spectrum Present: No
Number of Sampled Component Spectra: 1
Spectrometers: USB2+H05261
Integration Time (usec): 100000 (USB2+H05261)
Spectra Averaged: 1 (USB2+H05261)
Boxcar Smoothing: 0 (USB2+H05261)
Correct for Electrical Dark: No (USB2+H05261)
Strobe/Lamp Enabled: No (USB2+H05261)
Correct for Detector Non-linearity: No (USB2+H05261)
Correct for Stray Light: No (USB2+H05261)
Number of Pixels in Processed Spectrum: 2048
>>>>>Begin Processed Spectral Data<<<<<
365.73	0.00
365.92	0.00
366.12	0.00
366.32	0.00
366.52	0.00
366.72	0.00
366.91	0.00
367.11	0.00
367.31	0.00
367.51	2.34
367.70	0.00
367.90	0.00
368.10	16.38
368.30	0.00
368.49	0.00
368.69	0.00
368.89	0.00
369.09	0.00
369.28	0.00
369.48	0.00
369.68	0.00
369.87	9.36
370.07	0.00
370.27	58.51
370.47	58.51
370.66	220.01
370.86	271.50
371.06	262.14
371.25	339.38
371.45	355.76
371.65	255.12
371.84	264.48
372.04	325.33
372.24	276.18
372.44	304.27
372.63	280.86
372.83	241.08
373.03	257.46
373.22	369.80
373.42	212.99
373.62	294.91
373.81	322.99
374.01	367.46
374.21	304.27
374.40	205.97
374.60	320.65
374.79	358.10
374.99	374.49
375.19	322.99
375.38	315.97
375.58	383.85
375.78	402.57
375.97	304.27
376.17	313.63
376.37	414.27
376.56	311.29
376.76	362.78
376.95	397.89
377.15	470.45
377.35	484.49
377.54	465.77
377.74	444.70
377.93	465.77
378.13	512.58
378.33	461.09
378.52	365.12
378.72	409.59
378.91	402.57
379.11	334.70
379.31	358.10
379.50	372.15
379.70	421.30
379.89	395.55
380.09	344.06
380.28	428.32
380.48	400.23
380.68	381.51
380.87	433.00
381.07	379.17
381.26	428.32
381.46	395.55
381.65	381.51
381.85	330.02
382.04	369.80
382.24	315.97
382.43	290.23
382.63	344.06
382.83	332.36
383.02	283.20
383.22	255.12
383.41	250.44
383.61	322.99
383.80	241.08
384.00	461.09
384.19	353.42
384.39	472.79
384.58	428.32
384.78	454.06
384.97	444.70
385.17	320.65
385.36	402.57
385.56	379.17
385.75	339.38
385.95	433.00
386.14	491.51
386.34	435.34
386.53	444.70
386.72	395.55
386.92	428.32
387.11	416.62
387.31	325.33
387.50	400.23
387.70	454.06
387.89	395.55
388.09	395.55
388.28	388.53
388.48	386.19
388.67	404.91
388.86	444.70
389.06	535.98
389.25	454.06
389.45	500.87
389.64	547.69
389.84	561.73
390.03	594.50
390.22	498.53
390.42	503.22
390.61	503.22
390.81	486.83
391.00	620.24
391.19	589.82
391.39	479.81
391.58	603.86
391.78	507.90
391.97	475.13
392.16	425.98
392.36	463.43
392.55	428.32
392.75	229.37
392.94	276.18
393.13	313.63
393.33	264.48
393.52	397.89
393.71	428.32
393.91	440.02
394.10	454.06
394.29	514.92
394.49	491.51
394.68	624.92
394.88	594.50
395.07	681.10
395.26	524.28
395.46	610.88
395.65	575.77
395.84	585.13
396.04	505.56
396.23	395.55
396.42	341.72
396.62	252.78
396.81	381.51
397.00	454.06
397.19	566.41
397.39	573.43
397.58	716.20
397.77	727.91
397.97	772.38
398.16	748.97
398.35	716.20
398.55	713.86
398.74	713.86
398.93	774.72
399.12	793.44
399.32	709.18
399.51	744.29
399.70	798.12
399.90	800.46
400.09	823.87
400.28	713.86
400.47	690.46
400.67	816.85
400.86	807.48
401.05	870.68
401.24	912.81
401.44	821.53
401.63	863.66
401.82	908.13
402.01	788.76
402.21	880.04
402.40	901.11
402.59	809.83
402.78	851.96
402.97	697.48
403.17	847.27
403.36	835.57
403.55	929.19
403.74	917.49
403.93	1015.79
404.13	978.34
404.32	952.60
404.51	983.02
404.70	994.73
404.89	905.79
405.09	875.36
405.28	917.49
405.47	833.23
405.66	896.43
405.85	812.17
406.05	763.01
406.24	830.89
406.43	882.38
406.62	894.08
406.81	952.60
407.00	884.72
407.20	826.21
407.39	945.58
407.58	851.96
407.77	905.79
407.96	1001.75
408.15	938.55
408.34	926.85
408.54	943.24
408.73	1074.31
408.92	1015.79
409.11	910.47
409.30	898.77
409.49	819.19
409.68	767.70
409.87	842.59
410.07	866.00
410.26	863.66
410.45	917.49
410.64	938.55
410.83	983.02
411.02	990.05
411.21	1086.01
411.40	1116.44
411.59	1039.20
411.78	957.28
411.98	940.90
412.17	931.53
412.36	999.41
412.55	936.21
412.74	1004.09
412.93	1067.28
413.12	964.30
413.31	1153.88
413.50	1109.41
413.69	1022.81
413.88	1057.92
414.07	1067.28
414.26	1088.35
414.45	1027.50
414.64	1060.26
414.83	1090.69
415.02	1111.75
415.22	1067.28
415.41	1104.73
415.60	1067.28
415.79	1057.92
415.98	1132.82
416.17	1139.84
416.36	1167.93
416.55	1100.05
416.74	1074.31
416.93	1167.93
417.12	1006.43
417.31	1020.47
417.50	1111.75
417.69	1196.01
417.88	1142.18
418.07	1088.35
418.26	1086.01
418.45	1121.12
418.64	1043.88
418.83	1163.25
419.02	1156.22
419.21	1062.60
419.39	1036.86
419.58	1144.52
419.77	1083.67
419.96	1142.18
420.15	1144.52
420.34	1186.65
420.53	1200.69
420.72	1266.23
420.91	1163.25
421.10	1123.46
421.29	1233.46
421.48	1200.69
421.67	1245.16
421.86	1100.05
422.05	1128.14
422.24	1046.22
422.43	966.64
422.61	1022.81
422.80	1156.22
422.99	1121.12
423.18	1137.50
423.37	1111.75
423.56	1053.24
423.75	1193.67
423.94	1217.08
424.13	950.26
424.32	1071.97
424.50	1100.05
424.69	1048.56
424.88	1048.56
425.07	1144.52
425.26	1184.31
425.45	1109.41
425.64	1046.22
425.83	1088.35
426.01	1109.41
426.20	1123.46
426.39	1114.10
426.58	1074.31
426.77	1034.52
426.96	1013.45
427.15	1116.44
427.33	1029.84
427.52	1029.84
427.71	1083.67
427.90	1123.46
428.09	1095.37
428.28	1107.07
428.46	1041.54
428.65	1036.86
428.84	1116.44
429.03	1032.18
429.22	990.05
429.40	912.81
429.59	837.91
429.78	741.95
429.97	805.14
430.16	777.06
430.34	772.38
430.53	777.06
430.72	830.89
430.91	938.55
431.10	933.87
431.28	1226.44
431.47	1198.35
431.66	1280.27
431.85	1165.59
432.03	1125.80
432.22	1074.31
432.41	1034.52
432.60	1165.59
432.79	1184.31
432.97	1303.68
433.16	1282.61
433.35	999.41
433.54	1053.24
433.72	1029.84
433.91	1034.52
434.10	1060.26
434.28	1179.63
434.47	1247.51
434.66	1275.59
434.85	1181.97
435.03	1378.58
435.22	1689.87
435.41	2134.57
435.59	2207.13
435.78	1944.99
435.97	1544.75
436.16	1462.83
436.34	1296.66
436.53	1200.69
436.72	1371.55
436.90	1273.25
437.09	1240.48
437.28	1188.99
437.46	1121.12
437.65	1177.29
437.84	1076.65
438.02	1207.72
438.21	1095.37
438.40	1074.31
438.58	1245.16
438.77	1198.35
438.96	1191.33
439.14	1212.40
439.33	1268.57
439.52	1313.04
439.70	1277.93
439.89	1341.13
440.08	1313.04
440.26	1284.95
440.45	1228.78
440.63	1392.62
440.82	1416.02
441.01	1390.28
441.19	1423.05
441.38	1537.73
441.57	1481.56
441.75	1483.90
441.94	1526.03
442.12	1453.47
442.31	1460.49
442.50	1458.15
442.68	1493.26
442.87	1448.79
443.05	1444.11
443.24	1327.08
443.43	1544.75
443.61	1577.52
443.80	1565.82
443.98	1495.60
444.17	1392.62
444.35	1542.41
444.54	1521.35
444.73	1430.07
444.91	1488.58
445.10	1413.68
445.28	1345.81
445.47	1259.21
445.65	1266.23
445.84	1413.68
446.02	1462.83
446.21	1437.09
446.39	1409.00
446.58	1481.56
446.77	1416.02
446.95	1551.78
447.14	1526.03
447.32	1528.37
447.51	1537.73
447.69	1493.26
447.88	1488.58
448.06	1413.68
448.25	1530.71
448.43	1502.62
448.62	1474.54
448.80	1493.26
448.99	1474.54
449.17	1451.13
449.36	1533.05
449.54	1556.46
449.73	1526.03
449.91	1605.61
450.10	1624.33
450.28	1769.44
450.46	1682.85
450.65	1680.50
450.83	1689.87
451.02	1586.88
451.20	1603.27
451.39	1544.75
451.57	1544.75
451.76	1568.16
451.94	1511.99
452.13	1497.94
452.31	1528.37
452.49	1411.34
452.68	1355.17
452.86	1570.50
453.05	1479.22
453.23	1540.07
453.42	1490.92
453.60	1504.96
453.78	1495.60
453.97	1483.90
454.15	1591.56
454.34	1444.11
454.52	1479.22
454.70	1561.14
454.89	1504.96
455.07	1519.01
455.26	1638.38
455.44	1495.60
455.62	1629.01
455.81	1577.52
455.99	1551.78
456.17	1568.16
456.36	1537.73
456.54	1685.19
456.73	1558.80
456.91	1570.50
457.09	1654.76
457.28	1717.95
457.46	1671.14
457.64	1666.46
457.83	1607.95
458.01	1617.31
458.19	1589.22
458.38	1638.38
458.56	1664.12
458.74	1715.61
458.93	1680.50
459.11	1614.97
459.29	1563.48
459.48	1689.87
459.66	1722.63
459.84	1647.74
460.03	1750.72
460.21	1689.87
460.39	1675.82
460.57	1530.71
460.76	1668.80
460.94	1621.99
461.12	1687.53
461.31	1603.27
461.49	1671.14
461.67	1629.01
461.85	1692.21
462.04	1631.35
462.22	2242.23
462.40	1610.29
462.59	1640.72
462.77	1678.16
462.95	1703.91
463.13	1626.67
463.32	1666.46
463.50	1732.00
463.68	1727.32
463.86	1680.50
464.05	1575.18
464.23	1626.67
464.41	1610.29
464.59	1633.69
464.78	1617.31
464.96	1575.18
465.14	1600.93
465.32	1689.87
465.50	1771.79
465.69	1771.79
465.87	1600.93
466.05	1603.27
466.23	1565.82
466.41	1549.43
466.60	1540.07
466.78	1607.95
466.96	1537.73
467.14	1636.03
467.32	1621.99
467.51	1659.44
467.69	1549.43
467.87	1626.67
468.05	1626.67
468.23	1624.33
468.41	1633.69
468.60	1741.36
468.78	1577.52
468.96	1645.40
469.14	1645.40
469.32	1589.22
469.50	1446.45
469.69	1666.46
469.87	1593.90
470.05	1614.97
470.23	1558.80
470.41	1500.28
470.59	1666.46
470.77	1523.69
470.95	1549.43
471.14	1659.44
471.32	1657.10
471.50	1675.82
471.68	1741.36
471.86	1678.16
472.04	1816.26
472.22	1790.51
472.40	1577.52
472.58	1657.10
472.77	1666.46
472.95	1666.46
473.13	1823.28
473.31	1671.14
473.49	1739.02
473.67	1703.91
473.85	1778.81
474.03	1764.76
474.21	1743.70
474.39	1664.12
474.57	1907.54
474.75	1771.79
474.93	1781.15
475.12	1739.02
475.30	1605.61
475.48	1713.27
475.66	1764.76
475.84	1734.34
476.02	1636.03
476.20	1736.68
476.38	1741.36
476.56	1877.11
476.74	1776.47
476.92	1778.81
477.10	1881.79
477.28	1888.81
477.46	1996.48
477.64	1919.24
477.82	1858.39
478.00	1973.07
478.18	1975.41
478.36	1799.87
478.54	1776.47
478.72	1830.30
478.90	1935.62
479.08	1994.14
479.26	1996.48
479.44	2003.50
479.62	1919.24
479.80	1987.11
479.98	2085.42
480.16	2010.52
480.34	2136.91
480.52	2017.54
480.70	2047.97
480.88	2120.53
481.06	1996.48
481.24	2094.78
481.41	2127.55
481.59	2331.17
481.77	2221.17
481.95	2078.40
482.13	2122.87
482.31	2214.15
482.49	2141.59
482.67	2143.93
482.85	2209.47
483.03	2242.23
483.21	2321.81
483.39	2204.78
483.57	2134.57
483.74	2214.15
483.92	2235.21
484.10	2265.64
484.28	2307.77
484.46	2307.77
484.64	2246.91
484.82	2298.41
485.00	2260.96
485.18	2284.36
485.35	2260.96
485.53	2038.61
485.71	1940.30
485.89	1884.13
486.07	2015.20
486.25	2106.48
486.43	2127.55
486.61	2218.83
486.78	2270.32
486.96	2263.30
487.14	2338.20
487.32	2424.80
487.50	2303.09
487.68	2380.32
487.85	2415.43
488.03	2523.10
488.21	2509.05
488.39	2352.24
488.57	2420.11
488.75	2466.92
488.92	2670.55
489.10	2628.42
489.28	2621.40
489.46	2689.28
489.64	2684.59
489.81	2761.83
489.99	2738.43
490.17	2560.55
490.35	2661.19
490.53	2670.55
490.70	2553.52
490.88	2537.14
491.06	2745.45
491.24	2850.77
491.41	2621.40
491.59	2532.46
491.77	2429.48
491.95	2520.76
492.13	2495.01
492.30	2670.55
492.48	2743.11
492.66	2810.98
492.84	2768.85
493.01	2794.60
493.19	2764.17
493.37	2799.28
493.54	2717.36
493.72	2787.58
493.90	2904.60
494.08	2834.39
494.25	2871.84
494.43	2890.56
494.61	2932.69
494.79	2991.20
494.96	2853.11
495.14	2916.31
495.32	2689.28
495.49	2792.26
495.67	2979.50
495.85	2846.09
496.02	3005.25
496.20	3066.10
496.38	2998.23
496.55	2918.65
496.73	2995.89
496.91	3009.93
497.09	3110.57
497.26	3021.63
497.44	2906.95
497.62	2906.95
497.79	2883.54
497.97	2768.85
498.14	2822.69
498.32	2998.23
498.50	2995.89
498.67	3061.42
498.85	3056.74
499.03	3070.78
499.20	3159.72
499.38	3098.87
499.56	3042.70
499.73	3033.33
499.91	2920.99
500.08	2848.43
500.26	2895.24
500.44	2853.11
500.61	2883.54
500.79	2916.31
500.97	2834.39
501.14	2925.67
501.32	2754.81
501.49	2916.31
501.67	2946.73
501.84	2991.20
502.02	3033.33
502.20	2925.67
502.37	2885.88
502.55	3002.91
502.72	3000.57
502.90	2913.97
503.07	3038.02
503.25	2876.52
503.43	2801.62
503.60	2836.73
503.78	2717.36
503.95	2745.45
504.13	2869.50
504.30	3091.85
504.48	2937.37
504.65	2857.79
504.83	3068.44
505.01	3077.80
505.18	2984.18
505.36	3061.42
505.53	3089.51
505.71	3084.83
505.88	3255.69
506.06	3073.12
506.23	3005.25
506.41	3000.57
506.58	2977.16
506.76	2993.55
506.93	3038.02
507.11	3150.36
507.28	2920.99
507.46	3047.38
507.63	2890.56
507.81	2902.26
507.98	2913.97
508.16	3033.33
508.33	3049.72
508.50	3133.98
508.68	3253.34
508.85	3290.79
509.03	3164.40
509.20	3084.83
509.38	3054.40
509.55	3023.97
509.73	3105.89
509.90	3178.45
510.08	3075.46
510.25	3180.79
510.42	3143.34
510.60	3171.43
510.77	3138.66
510.95	3251.00
511.12	3241.64
511.30	3286.11
511.47	3269.73
511.64	3466.33
511.82	3206.53
511.99	3213.56
512.17	3171.43
512.34	3019.29
512.51	3047.38
512.69	3021.63
512.86	3042.70
513.04	3145.68
513.21	3227.60
513.38	2995.89
513.56	3014.61
513.73	2995.89
513.90	3075.46
514.08	3124.62
514.25	3075.46
514.43	3169.09
514.60	3089.51
514.77	2991.20
514.95	3129.30
515.12	3035.67
515.29	3258.03
515.47	3218.24
515.64	3187.81
515.81	3112.91
515.99	3014.61
516.16	3117.59
516.33	2850.77
516.51	2752.47
516.68	2642.46
516.85	2633.10
517.03	2663.53
517.20	2832.05
517.37	3112.91
517.54	3173.77
517.72	3047.38
517.89	2792.26
518.06	2696.30
518.24	2752.47
518.41	2869.50
518.58	2981.84
518.75	2963.12
518.93	3061.42
519.10	3040.36
519.27	3136.32
519.45	3166.74
519.62	3183.13
519.79	3255.69
519.96	3094.19
520.14	3148.02
520.31	3108.23
520.48	3073.12
520.65	3178.45
520.83	3255.69
521.00	3255.69
521.17	3159.72
521.34	3091.85
521.52	3190.15
521.69	3295.47
521.86	3208.87
522.03	3307.18
522.20	3073.12
522.38	3033.33
522.55	2916.31
522.72	3000.57
522.89	3047.38
523.07	3262.71
523.24	3169.09
523.41	3164.40
523.58	3304.84
523.75	3286.11
523.92	3251.00
524.10	3344.63
524.27	3356.33
524.44	3199.51
524.61	3222.92
524.78	3204.19
524.96	3190.15
525.13	3077.80
525.30	3337.60
525.47	3332.92
525.64	3288.45
525.81	3251.00
525.98	3143.34
526.16	2988.86
526.33	2899.92
526.50	2853.11
526.67	2855.45
526.84	2899.92
527.01	2853.11
527.18	3035.67
527.36	3119.93
527.53	3190.15
527.70	3265.05
527.87	3204.19
528.04	3157.38
528.21	3281.43
528.38	3276.75
528.55	3398.46
528.72	3452.29
528.89	3400.80
529.07	3351.65
529.24	3342.28
529.41	3178.45
529.58	3141.00
529.75	3260.37
529.92	3145.68
530.09	3302.50
530.26	3283.77
530.43	3370.37
530.60	3314.20
530.77	3361.01
530.94	3309.52
531.11	3363.35
531.28	3314.20
531.46	3314.20
531.63	3365.69
531.80	3332.92
531.97	3243.98
532.14	3190.15
532.31	2906.95
532.48	2960.78
532.65	2911.63
532.82	3117.59
532.99	3204.19
533.16	3389.10
533.33	3286.11
533.50	3297.81
533.67	3124.62
533.84	3173.77
534.01	3138.66
534.18	3129.30
534.35	3190.15
534.52	3141.00
534.69	3236.96
534.86	3283.77
535.03	3150.36
535.20	3290.79
535.37	3353.99
535.54	3428.88
535.71	3262.71
535.88	3431.23
536.05	3286.11
536.22	3194.83
536.38	3272.07
536.55	3213.56
536.72	3136.32
536.89	3131.64
537.06	3014.61
537.23	3283.77
537.40	3323.56
537.57	3372.71
537.74	3421.86
537.91	3391.44
538.08	3246.32
538.25	3272.07
538.42	3405.48
538.59	3424.20
538.75	3204.19
538.92	3487.40
539.09	3234.62
539.26	3141.00
539.43	3375.05
539.60	3384.41
539.77	3239.30
539.94	3243.98
540.11	3325.90
540.28	3365.69
540.44	3386.76
540.61	3361.01
540.78	3517.83
540.95	3693.37
541.12	3730.81
541.29	3840.82
541.46	4107.64
541.62	4014.02
541.79	3932.10
541.96	3744.86
542.13	3786.99
542.30	3824.44
542.47	3913.38
542.63	3873.59
542.80	3686.34
542.97	3786.99
543.14	3847.84
543.31	3616.13
543.48	3894.65
543.64	3857.20
543.81	3960.19
543.98	3936.78
544.15	3716.77
544.32	3733.15
544.48	3801.03
544.65	3772.94
544.82	3768.26
544.99	3623.15
545.16	3789.33
545.32	3763.58
545.49	4248.07
545.66	5177.26
545.83	5633.67
546.00	5179.61
546.16	4517.23
546.33	4114.66
546.50	3829.12
546.67	3864.22
546.83	3709.75
547.00	3609.11
547.17	3578.68
547.34	3480.38
547.50	3520.17
547.67	3428.88
547.84	3342.28
548.00	3475.70
548.17	3428.88
548.34	3400.80
548.51	3501.44
548.67	3478.04
548.84	3527.19
549.01	3513.14
549.18	3433.57
549.34	3279.09
549.51	3311.86
549.68	3449.95
549.84	3496.76
550.01	3410.16
550.18	3377.39
550.34	3382.07
550.51	3356.33
550.68	3400.80
550.84	3272.07
551.01	3225.26
551.18	3197.17
551.34	3318.88
551.51	3279.09
551.68	3236.96
551.84	3337.60
552.01	3335.26
552.18	3173.77
552.34	3194.83
552.51	3211.22
552.68	3049.72
552.84	2972.48
553.01	3283.77
553.18	3023.97
553.34	3075.46
553.51	3169.09
553.67	3159.72
553.84	3178.45
554.01	3119.93
554.17	3105.89
554.34	3098.87
554.51	3199.51
554.67	3201.85
554.84	3096.53
555.00	3059.08
555.17	3150.36
555.33	3063.76
555.50	3038.02
555.67	3112.91
555.83	3087.17
556.00	3049.72
556.16	3204.19
556.33	2820.35
556.50	2977.16
556.66	2897.58
556.83	2960.78
556.99	2928.01
557.16	2963.12
557.32	2949.08
557.49	3019.29
557.65	2928.01
557.82	3115.25
557.98	2974.82
558.15	2806.30
558.32	2956.10
558.48	2719.70
558.65	2864.82
558.81	2883.54
558.98	2757.15
559.14	2902.26
559.31	2902.26
559.47	2902.26
559.64	2923.33
559.80	2717.36
559.97	2829.71
560.13	2818.00
560.30	2897.58
560.46	2906.95
560.63	2958.44
560.79	2963.12
560.96	2953.76
561.12	2839.07
561.29	2899.92
561.45	2883.54
561.61	2904.60
561.78	2920.99
561.94	2892.90
562.11	2738.43
562.27	2855.45
562.44	2810.98
562.60	2871.84
562.77	2834.39
562.93	2949.08
563.10	2808.64
563.26	2888.22
563.42	2818.00
563.59	2885.88
563.75	2764.17
563.92	2822.69
564.08	2853.11
564.24	2843.75
564.41	2878.86
564.57	2691.62
564.74	2782.90
564.90	2888.22
565.07	2796.94
565.23	2747.79
565.39	2696.30
565.56	2743.11
565.72	2654.17
565.88	2761.83
566.05	2661.19
566.21	2806.30
566.38	2733.75
566.54	2773.53
566.70	2827.37
566.87	2808.64
567.03	2726.72
567.19	2689.28
567.36	2761.83
567.52	2864.82
567.68	2719.70
567.85	2560.55
568.01	2637.78
568.17	2548.84
568.34	2590.97
568.50	2623.74
568.66	2588.63
568.83	2499.69
568.99	2684.59
569.15	2619.06
569.32	2588.63
569.48	2565.23
569.64	2518.42
569.81	2597.99
569.97	2597.99
570.13	2703.32
570.30	2558.21
570.46	2534.80
570.62	2605.02
570.78	2490.33
570.95	2431.82
571.11	2448.20
571.27	2605.02
571.43	2616.72
571.60	2525.44
571.76	2462.24
571.92	2532.46
572.09	2672.89
572.25	2569.91
572.41	2644.81
572.57	2499.69
572.74	2670.55
572.90	2626.08
573.06	2612.04
573.22	2544.16
573.38	2607.36
573.55	2511.39
573.71	2551.18
573.87	2633.10
574.03	2583.95
574.20	2504.37
574.36	2490.33
574.52	2413.09
574.68	2499.69
574.84	2595.65
575.01	2530.12
575.17	2581.61
575.33	2593.31
575.49	2562.89
575.65	2424.80
575.82	2413.09
575.98	2476.29
576.14	2562.89
576.30	2609.70
576.46	2693.96
576.62	2970.14
576.79	2949.08
576.95	2888.22
577.11	2771.19
577.27	2579.27
577.43	2408.41
577.59	2387.35
577.75	2544.16
577.92	2473.95
578.08	2469.27
578.24	2387.35
578.40	2464.58
578.56	2750.13
578.72	3047.38
578.88	2925.67
579.04	2827.37
579.21	2682.25
579.37	2597.99
579.53	2689.28
579.69	2738.43
579.85	2607.36
580.01	2766.51
580.17	2612.04
580.33	2555.86
580.49	2623.74
580.65	2504.37
580.82	2588.63
580.98	2602.68
581.14	2612.04
581.30	2661.19
581.46	2572.25
581.62	2740.77
581.78	2668.21
581.94	2539.48
582.10	2712.68
582.26	2665.87
582.42	2616.72
582.58	2551.18
582.74	2647.15
582.90	2679.91
583.06	2583.95
583.22	2663.53
583.38	2698.64
583.54	2548.84
583.70	2651.83
583.86	2719.70
584.02	2710.34
584.18	2616.72
584.34	2698.64
584.50	2562.89
584.66	2623.74
584.82	2663.53
584.98	2581.61
585.14	2583.95
585.30	2602.68
585.46	2476.29
585.62	2436.50
585.78	2480.97
585.94	2588.63
586.10	2495.01
586.26	2572.25
586.42	2555.86
586.58	2462.24
586.74	2495.01
586.90	2623.74
587.06	2633.10
587.22	2661.19
587.38	2602.68
587.54	2506.71
587.70	2368.62
587.86	2260.96
588.02	2263.30
588.18	2242.23
588.34	2120.53
588.49	1961.37
588.65	1834.98
588.81	1834.98
588.97	1764.76
589.13	1907.54
589.29	1806.89
589.45	1895.83
589.61	1858.39
589.77	1905.20
589.93	1933.28
590.08	2050.31
590.24	2106.48
590.40	2101.80
590.56	2083.08
590.72	2209.47
590.88	2150.95
591.04	1970.73
591.20	2094.78
591.35	2050.31
591.51	2120.53
591.67	2101.80
591.83	1940.30
591.99	2017.54
592.15	2150.95
592.31	2118.18
592.46	2167.34
592.62	2242.23
592.78	2286.70
592.94	2263.30
593.10	2296.07
593.26	2282.02
593.41	2279.68
593.57	2235.21
593.73	2146.27
593.89	2172.02
594.05	2031.58
594.20	1961.37
594.36	1947.33
594.52	1764.76
594.68	1968.39
594.84	1914.56
594.99	2157.97
595.15	2115.84
595.31	2162.66
595.47	2099.46
595.62	2153.29
595.78	2108.82
595.94	2150.95
596.10	2108.82
596.25	2239.89
596.41	2083.08
596.57	2064.35
596.73	2054.99
596.88	2237.55
597.04	2092.44
597.20	1998.82
597.36	2228.19
597.51	2167.34
597.67	2015.20
597.83	2165.00
597.99	2146.27
598.14	2129.89
598.30	2221.17
598.46	2122.87
598.61	2275.00
598.77	2104.14
