SpectraSuite Data File
++++++++++++++++++++++++++++++++++++
Date: Fri Oct 04 11:44:16 GMT-05:00 2013
User: price-jones
Dark Spectrum Present: No
Reference Spectrum Present: No
Number of Sampled Component Spectra: 1
Spectrometers: USB2+H05261
Integration Time (usec): 100000 (USB2+H05261)
Spectra Averaged: 1 (USB2+H05261)
Boxcar Smoothing: 0 (USB2+H05261)
Correct for Electrical Dark: No (USB2+H05261)
Strobe/Lamp Enabled: No (USB2+H05261)
Correct for Detector Non-linearity: No (USB2+H05261)
Correct for Stray Light: No (USB2+H05261)
Number of Pixels in Processed Spectrum: 2048
>>>>>Begin Processed Spectral Data<<<<<
365.73	21.06
365.92	21.06
366.12	21.06
366.32	0.00
366.52	0.00
366.72	0.00
366.91	0.00
367.11	0.00
367.31	0.00
367.51	0.00
367.70	0.00
367.90	0.00
368.10	0.00
368.30	0.00
368.49	0.00
368.69	0.00
368.89	0.00
369.09	0.00
369.28	0.00
369.48	0.00
369.68	0.00
369.87	46.81
370.07	0.00
370.27	0.00
370.47	128.73
370.66	362.78
370.86	430.66
371.06	664.71
371.25	613.22
371.45	428.32
371.65	465.77
371.84	444.70
372.04	505.56
372.24	528.96
372.44	538.32
372.63	552.37
372.83	608.54
373.03	486.83
373.22	507.90
373.42	496.19
373.62	463.43
373.81	594.50
374.01	540.66
374.21	503.22
374.40	404.91
374.60	568.75
374.79	564.07
374.99	634.29
375.19	641.31
375.38	655.35
375.58	641.31
375.78	704.50
375.97	664.71
376.17	692.80
376.37	634.29
376.56	554.71
376.76	629.60
376.95	636.63
377.15	788.76
377.35	894.08
377.54	741.95
377.74	767.70
377.93	788.76
378.13	791.10
378.33	723.23
378.52	664.71
378.72	688.12
378.91	631.94
379.11	751.31
379.31	660.03
379.50	615.56
379.70	744.29
379.89	685.78
380.09	741.95
380.28	837.91
380.48	793.44
380.68	746.63
380.87	727.91
381.07	723.23
381.26	683.44
381.46	620.24
381.65	690.46
381.85	559.39
382.04	535.98
382.24	521.94
382.43	547.69
382.63	528.96
382.83	582.79
383.02	564.07
383.22	573.43
383.41	533.64
383.61	622.58
383.80	657.69
384.00	720.88
384.19	741.95
384.39	746.63
384.58	615.56
384.78	690.46
384.97	807.48
385.17	657.69
385.36	727.91
385.56	732.59
385.75	669.39
385.95	664.71
386.14	763.01
386.34	795.78
386.53	725.57
386.72	784.08
386.92	777.06
387.11	765.36
387.31	704.50
387.50	732.59
387.70	763.01
387.89	765.36
388.09	678.76
388.28	732.59
388.48	835.57
388.67	755.99
388.86	891.74
389.06	847.27
389.25	1071.97
389.45	994.73
389.64	987.71
389.84	1006.43
390.03	950.26
390.22	997.07
390.42	992.39
390.61	1062.60
390.81	1013.45
391.00	1076.65
391.19	1125.80
391.39	1114.10
391.58	1097.71
391.78	929.19
391.97	933.87
392.16	866.00
392.36	835.57
392.55	610.88
392.75	620.24
392.94	517.26
393.13	491.51
393.33	498.53
393.52	653.01
393.71	770.04
393.91	945.58
394.10	884.72
394.29	990.05
394.49	1156.22
394.68	1053.24
394.88	1221.76
395.07	1212.40
395.26	1149.20
395.46	1179.63
395.65	1081.33
395.84	1029.84
396.04	866.00
396.23	786.42
396.42	655.35
396.62	615.56
396.81	692.80
397.00	683.44
397.19	908.13
397.39	1224.10
397.58	1245.16
397.77	1306.02
397.97	1364.53
398.16	1404.32
398.35	1348.15
398.55	1500.28
398.74	1467.52
398.93	1561.14
399.12	1455.81
399.32	1406.66
399.51	1432.41
399.70	1584.54
399.90	1547.09
400.09	1638.38
400.28	1589.22
400.47	1521.35
400.67	1703.91
400.86	1703.91
401.05	1715.61
401.24	1680.50
401.44	1764.76
401.63	1788.17
401.82	1727.32
402.01	1703.91
402.21	1778.81
402.40	1750.72
402.59	1706.25
402.78	1694.55
402.97	1589.22
403.17	1729.66
403.36	1865.41
403.55	1781.15
403.74	1764.76
403.93	1652.42
404.13	1736.68
404.32	1643.06
404.51	1715.61
404.70	1895.83
404.89	1732.00
405.09	1767.10
405.28	1540.07
405.47	1701.57
405.66	1650.08
405.85	1652.42
406.05	1565.82
406.24	1558.80
406.43	1643.06
406.62	1816.26
406.81	1785.83
407.00	1739.02
407.20	1657.10
407.39	1727.32
407.58	1694.55
407.77	1818.60
407.96	1973.07
408.15	1898.17
408.34	1832.64
408.54	2047.97
408.73	1923.92
408.92	1893.49
409.11	1837.32
409.30	1891.15
409.49	1785.83
409.68	1682.85
409.87	1556.46
410.07	1596.25
410.26	1767.10
410.45	1863.07
410.64	1858.39
410.83	1954.35
411.02	2017.54
411.21	2223.51
411.40	2010.52
411.59	2024.56
411.78	2099.46
411.98	2015.20
412.17	2094.78
412.36	1977.75
412.55	1989.46
412.74	1940.30
412.93	1874.77
413.12	1874.77
413.31	2176.70
413.50	2083.08
413.69	2090.10
413.88	2054.99
414.07	2050.31
414.26	2165.00
414.45	2155.63
414.64	2162.66
414.83	2132.23
415.02	2113.50
415.22	2172.02
415.41	2150.95
415.60	2160.31
415.79	2293.72
415.98	2434.16
416.17	2373.30
416.36	2413.09
416.55	2293.72
416.74	2270.32
416.93	2122.87
417.12	2204.78
417.31	2134.57
417.50	2176.70
417.69	2260.96
417.88	2230.53
418.07	2174.36
418.26	2214.15
418.45	2108.82
418.64	2293.72
418.83	2340.54
419.02	2193.08
419.21	2249.25
419.39	2260.96
419.58	2118.18
419.77	2029.24
419.96	2179.04
420.15	2392.03
420.34	2363.94
420.53	2455.22
420.72	2455.22
420.91	2452.88
421.10	2368.62
421.29	2417.77
421.48	2445.86
421.67	2511.39
421.86	2349.90
422.05	2263.30
422.24	2015.20
422.43	2062.01
422.61	2150.95
422.80	2349.90
422.99	2345.22
423.18	2244.57
423.37	2370.96
423.56	2258.62
423.75	2307.77
423.94	2300.75
424.13	2232.87
424.32	2132.23
424.50	2242.23
424.69	2211.81
424.88	2260.96
425.07	2162.66
425.26	2249.25
425.45	2129.89
425.64	2197.76
425.83	2127.55
426.01	2307.77
426.20	2265.64
426.39	2214.15
426.58	2200.10
426.77	2012.86
426.96	1933.28
427.15	2031.58
427.33	2097.12
427.52	2125.21
427.71	2207.13
427.90	2214.15
428.09	2120.53
428.28	2054.99
428.46	2146.27
428.65	2153.29
428.84	2097.12
429.03	2094.78
429.22	2155.63
429.40	1912.22
429.59	1729.66
429.78	1680.50
429.97	1617.31
430.16	1593.90
430.34	1727.32
430.53	1657.10
430.72	1706.25
430.91	1844.34
431.10	2033.93
431.28	2375.64
431.47	2476.29
431.66	2616.72
431.85	2448.20
432.03	2242.23
432.22	2211.81
432.41	2289.04
432.60	2394.37
432.79	2485.65
432.97	2555.86
433.16	2410.75
433.35	2356.92
433.54	2169.68
433.72	2031.58
433.91	1982.43
434.10	2291.38
434.28	2296.07
434.47	2527.78
434.66	2457.56
434.85	2415.43
435.03	2476.29
435.22	2815.66
435.41	3445.27
435.59	3454.63
435.78	3133.98
435.97	2857.79
436.16	2862.48
436.34	2686.94
436.53	2630.76
436.72	2712.68
436.90	2572.25
437.09	2445.86
437.28	2342.88
437.46	2553.52
437.65	2480.97
437.84	2366.28
438.02	2186.06
438.21	2195.42
438.40	2305.43
438.58	2443.52
438.77	2368.62
438.96	2438.84
439.14	2593.31
439.33	2602.68
439.52	2686.94
439.70	2668.21
439.89	2544.16
440.08	2492.67
440.26	2607.36
440.45	2771.19
440.63	2792.26
440.82	2944.39
441.01	2853.11
441.19	2993.55
441.38	2794.60
441.57	2953.76
441.75	3000.57
441.94	3028.65
442.12	2937.37
442.31	3007.59
442.50	3084.83
442.68	3009.93
442.87	2855.45
443.05	2963.12
443.24	3028.65
443.43	3009.93
443.61	3063.76
443.80	3096.53
443.98	2953.76
444.17	2855.45
444.35	3117.59
444.54	3166.74
444.73	3164.40
444.91	2925.67
445.10	2862.48
445.28	2834.39
445.47	2808.64
445.65	2705.66
445.84	2787.58
446.02	2890.56
446.21	2928.01
446.39	2920.99
446.58	3084.83
446.77	3185.47
446.95	2951.42
447.14	3197.17
447.32	3194.83
447.51	3155.04
447.69	2984.18
447.88	3073.12
448.06	3117.59
448.25	3035.67
448.43	3073.12
448.62	3091.85
448.80	2995.89
448.99	3159.72
449.17	3012.27
449.36	3169.09
449.54	3255.69
449.73	3344.63
449.91	3391.44
450.10	3412.50
450.28	3463.99
450.46	3356.33
450.65	3311.86
450.83	3260.37
451.02	3349.31
451.20	3281.43
451.39	3192.49
451.57	3281.43
451.76	3192.49
451.94	3236.96
452.13	3143.34
452.31	2977.16
452.49	3098.87
452.68	2918.65
452.86	3056.74
453.05	2944.39
453.23	3077.80
453.42	3166.74
453.60	3211.22
453.78	3222.92
453.97	3159.72
454.15	3286.11
454.34	3122.27
454.52	3101.21
454.70	3138.66
454.89	3124.62
455.07	3091.85
455.26	3061.42
455.44	3382.07
455.62	3283.77
455.81	3222.92
455.99	3262.71
456.17	3426.54
456.36	3311.86
456.54	3288.45
456.73	3398.46
456.91	3410.16
457.09	3428.88
457.28	3316.54
457.46	3435.91
457.64	3478.04
457.83	3194.83
458.01	3272.07
458.19	3227.60
458.38	3279.09
458.56	3410.16
458.74	3332.92
458.93	3375.05
459.11	3396.12
459.29	3274.41
459.48	3339.94
459.66	3281.43
459.84	3309.52
460.03	3531.87
460.21	3421.86
460.39	3543.57
460.57	3487.40
460.76	3424.20
460.94	3503.78
461.12	3447.61
461.31	3489.74
461.49	3468.67
461.67	3541.23
461.85	3548.25
462.04	3501.44
462.22	4007.00
462.40	3557.61
462.59	3517.83
462.77	3454.63
462.95	3538.89
463.13	3433.57
463.32	3344.63
463.50	3480.38
463.68	3433.57
463.86	3407.82
464.05	3454.63
464.23	3419.52
464.41	3424.20
464.59	3398.46
464.78	3332.92
464.96	3426.54
465.14	3419.52
465.32	3379.73
465.50	3566.98
465.69	3576.34
465.87	3646.55
466.05	3503.78
466.23	3255.69
466.41	3159.72
466.60	3260.37
466.78	3262.71
466.96	3358.67
467.14	3321.22
467.32	3503.78
467.51	3520.17
467.69	3295.47
467.87	3466.33
468.05	3391.44
468.23	3330.58
468.41	3452.29
468.60	3489.74
468.78	3419.52
468.96	3382.07
469.14	3391.44
469.32	3534.21
469.50	3279.09
469.69	3206.53
469.87	3316.54
470.05	3164.40
470.23	3337.60
470.41	3229.94
470.59	3131.64
470.77	3428.88
470.95	3417.18
471.14	3506.12
471.32	3442.93
471.50	3684.00
471.68	3665.28
471.86	3555.27
472.04	3531.87
472.22	3744.86
472.40	3531.87
472.58	3531.87
472.77	3384.41
472.95	3503.78
473.13	3620.81
473.31	3581.02
473.49	3482.72
473.67	3503.78
473.85	3520.17
474.03	3723.79
474.21	3709.75
474.39	3775.28
474.57	3983.59
474.75	3569.32
474.93	3744.86
475.12	3574.00
475.30	3632.51
475.48	3641.87
475.66	3705.07
475.84	3552.93
476.02	3545.91
476.20	3499.10
476.38	3648.90
476.56	3777.62
476.74	3686.34
476.92	3754.22
477.10	3836.14
477.28	3943.80
477.46	3981.25
477.64	3829.12
477.82	4042.11
478.00	4098.28
478.18	4053.81
478.36	3906.35
478.54	3882.95
478.72	3974.23
478.90	4152.11
479.08	4156.79
479.26	4182.54
479.44	4109.98
479.62	4187.22
479.80	4173.18
479.98	4119.34
480.16	4245.73
480.34	4297.22
480.52	4327.65
480.70	4210.62
480.88	4065.51
481.06	4360.42
481.24	4395.53
481.41	4486.81
481.59	4643.62
481.77	4437.66
481.95	4486.81
482.13	4620.22
482.31	4561.70
482.49	4568.73
482.67	4547.66
482.85	4704.48
483.03	4606.17
483.21	4648.30
483.39	4718.52
483.57	4491.49
483.74	4552.34
483.92	4690.43
484.10	4589.79
484.28	4692.77
484.46	4767.67
484.64	4751.29
484.82	4622.56
485.00	4641.28
485.18	4706.82
485.35	4571.07
485.53	4227.01
485.71	3964.87
485.89	3838.48
486.07	4032.74
486.25	4292.54
486.43	4624.90
486.61	4643.62
486.78	4741.93
486.96	4627.24
487.14	4690.43
487.32	5011.09
487.50	4940.87
487.68	5057.90
487.85	5149.18
488.03	5263.86
488.21	5181.95
488.39	4957.25
488.57	4975.98
488.75	4905.76
488.92	5256.84
489.10	5338.76
489.28	5523.66
489.46	5638.35
489.64	5687.50
489.81	5647.71
489.99	5626.65
490.17	5614.95
490.35	5799.85
490.53	5619.63
490.70	5584.52
490.88	5556.43
491.06	5764.74
491.24	5706.23
491.41	5488.56
491.59	5252.16
491.77	5137.48
491.95	5224.08
492.13	5467.49
492.30	5502.60
492.48	5783.46
492.66	5923.90
492.84	5834.96
493.01	6052.63
493.19	5764.74
493.37	5657.07
493.54	5668.78
493.72	5907.51
493.90	5865.38
494.08	6061.99
494.25	6286.68
494.43	6120.50
494.61	6370.94
494.79	6183.70
494.96	6263.27
495.14	6171.99
495.32	6080.71
495.49	5895.81
495.67	6115.82
495.85	6375.62
496.02	6251.57
496.20	6363.92
496.38	6361.58
496.55	6340.51
496.73	6321.79
496.91	6256.25
497.09	6597.97
497.26	6682.23
497.44	6331.15
497.62	6520.73
497.79	6193.06
497.97	6155.61
498.14	5991.77
498.32	5905.17
498.50	6303.06
498.67	6504.35
498.85	6448.18
499.03	6387.32
499.20	6717.34
499.38	6438.81
499.56	6340.51
499.73	6429.45
499.91	6265.61
500.08	6310.08
500.26	6179.01
500.44	6085.39
500.61	6417.75
500.79	6150.93
500.97	6204.76
501.14	6094.76
501.32	6036.24
501.49	6059.65
501.67	6012.84
501.84	6083.05
502.02	6286.68
502.20	6396.68
502.37	6279.66
502.55	6169.65
502.72	6553.50
502.90	6413.07
503.07	6230.51
503.25	6190.72
503.43	5973.05
503.60	5851.34
503.78	5682.82
503.95	5888.79
504.13	6132.20
504.30	6384.98
504.48	6296.04
504.65	6359.24
504.83	6305.40
505.01	6490.31
505.18	6647.12
505.36	6736.06
505.53	6604.99
505.71	6679.89
505.88	6740.74
506.06	6597.97
506.23	6520.73
506.41	6396.68
506.58	6377.96
506.76	6413.07
506.93	6544.14
507.11	6375.62
507.28	6623.72
507.46	6359.24
507.63	6284.34
507.81	6129.86
507.98	6190.72
508.16	6326.47
508.33	6429.45
508.50	6597.97
508.68	6820.32
508.85	6782.87
509.03	6876.49
509.20	7021.61
509.38	6597.97
509.55	6539.46
509.73	6509.03
509.90	6511.37
510.08	6839.05
510.25	6642.44
510.42	6682.23
510.60	6483.28
510.77	6745.42
510.95	6848.41
511.12	6731.38
511.30	6925.65
511.47	7178.42
511.64	7021.61
511.82	6986.50
511.99	6726.70
512.17	6722.02
512.34	6595.63
512.51	6775.85
512.69	6534.78
512.86	6633.08
513.04	6918.62
513.21	6869.47
513.38	6834.36
513.56	6668.19
513.73	6567.54
513.90	6455.20
514.08	6602.65
514.25	6637.76
514.43	6771.17
514.60	6480.94
514.77	6619.04
514.95	6696.27
515.12	6551.16
515.29	6759.47
515.47	6871.81
515.64	6904.58
515.81	6747.76
515.99	6691.59
516.16	6504.35
516.33	5954.32
516.51	5706.23
516.68	5556.43
516.85	5352.81
517.03	5542.39
517.20	5888.79
517.37	6356.90
517.54	6771.17
517.72	6616.69
517.89	6211.78
518.06	5811.55
518.24	5607.92
518.41	6174.33
518.58	6340.51
518.75	6546.48
518.93	6415.41
519.10	6443.49
519.27	6476.26
519.45	6626.06
519.62	6743.08
519.79	6913.94
519.96	6869.47
520.14	6974.80
520.31	6497.33
520.48	6466.90
520.65	6516.05
520.83	6626.06
521.00	6850.75
521.17	6867.13
521.34	6747.76
521.52	6684.57
521.69	7002.88
521.86	7056.72
522.03	7101.19
522.20	6813.30
522.38	6389.66
522.55	6347.53
522.72	6502.01
522.89	6506.69
523.07	6717.34
523.24	6642.44
523.41	6853.09
523.58	6995.86
523.75	6923.30
523.92	7089.48
524.10	7026.29
524.27	7091.82
524.44	7002.88
524.61	7007.56
524.78	6916.28
524.96	6923.30
525.13	7002.88
525.30	6949.05
525.47	7213.53
525.64	6923.30
525.81	6876.49
525.98	6525.41
526.16	6349.87
526.33	6043.26
526.50	5968.37
526.67	5907.51
526.84	5966.03
527.01	6083.05
527.18	6340.51
527.36	6572.22
527.53	6799.26
527.70	7007.56
527.87	6801.60
528.04	6590.95
528.21	6836.70
528.38	6918.62
528.55	7136.29
528.72	7162.04
528.89	7318.86
529.07	7243.96
529.24	6927.99
529.41	6796.92
529.58	6747.76
529.75	6696.27
529.92	6850.75
530.09	6867.13
530.26	6991.18
530.43	7152.68
530.60	7272.04
530.77	7248.64
530.94	7148.00
531.11	7152.68
531.28	7007.56
531.46	7096.50
531.63	7117.57
531.80	7014.59
531.97	6993.52
532.14	6834.36
532.31	6490.31
532.48	6305.40
532.65	6354.55
532.82	6420.09
532.99	6656.48
533.16	6944.37
533.33	7087.14
533.50	7026.29
533.67	6967.77
533.84	6799.26
534.01	6710.32
534.18	6862.45
534.35	6899.90
534.52	6862.45
534.69	7124.59
534.86	6918.62
535.03	7101.19
535.20	6991.18
535.37	7232.26
535.54	7269.70
535.71	7225.23
535.88	7098.84
536.05	7035.65
536.22	6871.81
536.38	6883.52
536.55	6850.75
536.72	6476.26
536.89	6537.12
537.06	6771.17
537.23	6733.72
537.40	6998.20
537.57	7002.88
537.74	7183.10
537.91	7080.12
538.08	7033.31
538.25	6832.02
538.42	6972.46
538.59	7215.87
538.75	7026.29
538.92	6935.01
539.09	6855.43
539.26	6670.53
539.43	6752.45
539.60	6885.86
539.77	6789.89
539.94	6768.83
540.11	6672.87
540.28	6476.26
540.44	6530.09
540.61	6672.87
540.78	6642.44
540.95	6682.23
541.12	7129.27
541.29	7290.77
541.46	7330.56
541.62	7346.94
541.79	7265.02
541.96	7194.81
542.13	7215.87
542.30	7265.02
542.47	7506.10
542.63	7314.17
542.80	7166.72
542.97	7103.53
543.14	7012.24
543.31	7148.00
543.48	7290.77
543.64	7314.17
543.81	7307.15
543.98	7365.67
544.15	7307.15
544.32	7040.33
544.48	7129.27
544.65	7166.72
544.82	7192.47
544.99	7148.00
545.16	7129.27
545.32	6942.03
545.49	7618.44
545.66	8620.19
545.83	8767.65
546.00	8638.92
546.16	7714.41
546.33	7417.16
546.50	7279.07
546.67	7215.87
546.83	7108.21
547.00	7129.27
547.17	6897.56
547.34	6607.33
547.50	6656.48
547.67	6736.06
547.84	6839.05
548.00	6984.16
548.17	7084.80
548.34	6965.43
548.51	7110.55
548.67	6913.94
548.84	6967.77
549.01	7033.31
549.18	6935.01
549.34	6904.58
549.51	6841.39
549.68	6923.30
549.84	6855.43
550.01	6537.12
550.18	6768.83
550.34	6792.23
550.51	6754.79
550.68	7094.16
550.84	6619.04
551.01	6689.25
551.18	6502.01
551.34	6581.59
551.51	6700.95
551.68	6808.62
551.84	7021.61
552.01	6654.14
552.18	6698.61
552.34	6682.23
552.51	6422.43
552.68	6377.96
552.84	6565.20
553.01	6532.44
553.18	6420.09
553.34	6581.59
553.51	6539.46
553.67	6597.97
553.84	6705.63
554.01	6729.04
554.17	6560.52
554.34	6427.11
554.51	6693.93
554.67	6668.19
554.84	6817.98
555.00	6691.59
555.17	6525.41
555.33	6541.80
555.50	6628.40
555.67	6635.42
555.83	6417.75
556.00	6466.90
556.16	6614.35
556.33	6478.60
556.50	6235.19
556.66	6279.66
556.83	6186.04
556.99	6317.11
557.16	6296.04
557.32	6193.06
557.49	6366.26
557.65	6284.34
557.82	6331.15
557.98	6466.90
558.15	6289.02
558.32	6022.20
558.48	5912.19
558.65	5982.41
558.81	5980.07
558.98	6031.56
559.14	6087.73
559.31	6050.28
559.47	6359.24
559.64	6195.40
559.80	6017.52
559.97	6001.13
560.13	6038.58
560.30	6237.53
560.46	6363.92
560.63	6551.16
560.79	6380.30
560.96	6239.87
561.12	6160.29
561.29	5996.45
561.45	5841.98
561.61	6005.81
561.78	6038.58
561.94	5987.09
562.11	6064.33
562.27	5987.09
562.44	6066.67
562.60	6090.07
562.77	6155.61
562.93	6375.62
563.10	6272.64
563.26	6085.39
563.42	6132.20
563.59	6073.69
563.75	6022.20
563.92	6090.07
564.08	5940.28
564.24	6043.26
564.41	6083.05
564.57	6085.39
564.74	5951.98
564.90	6162.63
565.07	6026.88
565.23	5996.45
565.39	5863.04
565.56	5741.33
565.72	5736.65
565.88	5750.70
566.05	5816.23
566.21	5837.30
566.38	5865.38
566.54	5916.87
566.70	5970.71
566.87	6228.17
567.03	6015.18
567.19	5959.00
567.36	5959.00
567.52	5881.77
567.68	5762.40
567.85	5638.35
568.01	5678.14
568.17	5523.66
568.34	5479.19
568.50	5425.36
568.66	5486.22
568.83	5479.19
568.99	5378.55
569.15	5617.29
569.32	5689.84
569.48	5547.07
569.64	5511.96
569.81	5413.66
569.97	5448.77
570.13	5547.07
570.30	5458.13
570.46	5305.99
570.62	5434.72
570.78	5303.65
570.95	5139.82
571.11	5558.77
571.27	5523.66
571.43	5355.15
571.60	5441.75
571.76	5455.79
571.92	5547.07
572.09	5514.30
572.25	5427.70
572.41	5584.52
572.57	5462.81
572.74	5563.45
572.90	5479.19
573.06	5439.40
573.22	5614.95
573.38	5582.18
573.55	5570.48
573.71	5516.64
573.87	5526.00
574.03	5500.26
574.20	5472.17
574.36	5397.28
574.52	5263.86
574.68	5418.34
574.84	5355.15
575.01	5308.34
575.17	5266.21
575.33	5254.50
575.49	5315.36
575.65	5397.28
575.82	5444.09
575.98	5427.70
576.14	5310.68
576.30	5390.25
576.46	5565.79
576.62	5631.33
576.79	5673.46
576.95	5607.92
577.11	5420.68
577.27	5645.37
577.43	5411.32
577.59	5362.17
577.75	5263.86
577.92	5146.84
578.08	5041.51
578.24	5048.54
578.40	5125.77
578.56	5481.53
578.72	5603.24
578.88	5596.22
579.04	5802.19
579.21	5481.53
579.37	5418.34
579.53	5523.66
579.69	5401.96
579.85	5551.75
580.01	5497.92
580.17	5404.30
580.33	5423.02
580.49	5310.68
580.65	5392.59
580.82	5366.85
580.98	5460.47
581.14	5404.30
581.30	5530.69
581.46	5390.25
581.62	5345.78
581.78	5631.33
581.94	5614.95
582.10	5547.07
582.26	5612.60
582.42	5448.77
582.58	5516.64
582.74	5636.01
582.90	5497.92
583.06	5643.03
583.22	5434.72
583.38	5467.49
583.54	5416.00
583.70	5486.22
583.86	5465.15
584.02	5647.71
584.18	5547.07
584.34	5507.28
584.50	5521.32
584.66	5247.48
584.82	5296.63
584.98	5366.85
585.14	5394.93
585.30	5078.96
585.46	4943.21
585.62	5022.79
585.78	5078.96
585.94	5043.85
586.10	5153.86
586.26	5128.11
586.42	5380.89
586.58	5287.27
586.74	5198.33
586.90	5289.61
587.06	5167.90
587.22	5167.90
587.38	5130.45
587.54	4971.30
587.70	4950.23
587.86	4802.78
588.02	4613.20
588.18	4388.50
588.34	4259.78
588.49	4063.17
588.65	3899.33
588.81	3674.64
588.97	3735.50
589.13	3749.54
589.29	3838.48
589.45	3555.27
589.61	3620.81
589.77	3927.42
589.93	4072.53
590.08	4278.50
590.24	4348.72
590.40	4575.75
590.56	4390.84
590.72	4060.83
590.88	4262.12
591.04	4257.43
591.20	4306.59
591.35	4299.56
591.51	4278.50
591.67	4093.60
591.83	4147.43
591.99	4063.17
592.15	4234.03
592.31	4229.35
592.46	4526.60
592.62	4526.60
592.78	4456.38
592.94	4561.70
593.10	4662.35
593.26	4566.39
593.41	4725.54
593.57	4655.33
593.73	4571.07
593.89	4334.67
594.05	4102.96
594.20	4004.66
594.36	3981.25
594.52	3960.19
594.68	3899.33
594.84	4198.92
594.99	4414.25
595.15	4367.44
595.31	4346.37
595.47	4458.72
595.62	4241.05
595.78	4301.90
595.94	4669.37
596.10	4617.88
596.25	4547.66
596.41	4369.78
596.57	4280.84
596.73	4358.08
596.88	4397.87
597.04	4580.43
597.20	4383.82
597.36	4280.84
597.51	4243.39
597.67	4388.50
