SpectraSuite Data File
++++++++++++++++++++++++++++++++++++
Date: Fri Oct 04 11:44:13 GMT-05:00 2013
User: price-jones
Dark Spectrum Present: No
Reference Spectrum Present: No
Number of Sampled Component Spectra: 1
Spectrometers: USB2+H05261
Integration Time (usec): 100000 (USB2+H05261)
Spectra Averaged: 1 (USB2+H05261)
Boxcar Smoothing: 0 (USB2+H05261)
Correct for Electrical Dark: No (USB2+H05261)
Strobe/Lamp Enabled: No (USB2+H05261)
Correct for Detector Non-linearity: No (USB2+H05261)
Correct for Stray Light: No (USB2+H05261)
Number of Pixels in Processed Spectrum: 2048
>>>>>Begin Processed Spectral Data<<<<<
365.73	32.77
365.92	32.77
366.12	32.77
366.32	0.00
366.52	0.00
366.72	0.00
366.91	0.00
367.11	0.00
367.31	0.00
367.51	0.00
367.70	0.00
367.90	0.00
368.10	0.00
368.30	0.00
368.49	0.00
368.69	0.00
368.89	0.00
369.09	0.00
369.28	0.00
369.48	0.00
369.68	0.00
369.87	14.04
370.07	0.00
370.27	60.85
370.47	198.95
370.66	622.58
370.86	791.10
371.06	947.92
371.25	952.60
371.45	748.97
371.65	730.25
371.84	671.73
372.04	683.44
372.24	791.10
372.44	800.46
372.63	779.40
372.83	814.51
373.03	657.69
373.22	699.82
373.42	751.31
373.62	765.36
373.81	781.74
374.01	809.83
374.21	753.65
374.40	725.57
374.60	805.14
374.79	746.63
374.99	905.79
375.19	940.90
375.38	1015.79
375.58	1001.75
375.78	971.32
375.97	959.62
376.17	987.71
376.37	1025.15
376.56	1069.62
376.76	1069.62
376.95	1114.10
377.15	1186.65
377.35	1128.14
377.54	1214.74
377.74	1348.15
377.93	1282.61
378.13	1228.78
378.33	1263.89
378.52	1060.26
378.72	1109.41
378.91	987.71
379.11	1081.33
379.31	905.79
379.50	1015.79
379.70	1146.86
379.89	1212.40
380.09	1238.14
380.28	1210.06
380.48	1252.19
380.68	1219.42
380.87	1135.16
381.07	1055.58
381.26	1057.92
381.46	1069.62
381.65	973.66
381.85	978.34
382.04	910.47
382.24	763.01
382.43	833.23
382.63	889.40
382.83	751.31
383.02	894.08
383.22	765.36
383.41	802.80
383.61	828.55
383.80	924.51
384.00	1076.65
384.19	1238.14
384.39	1254.53
384.58	1125.80
384.78	1252.19
384.97	1207.72
385.17	1144.52
385.36	1137.50
385.56	1102.39
385.75	1043.88
385.95	1172.61
386.14	1291.98
386.34	1217.08
386.53	1299.00
386.72	1158.57
386.92	1146.86
387.11	1181.97
387.31	1270.91
387.50	1132.82
387.70	1200.69
387.89	1261.55
388.09	1111.75
388.28	1203.04
388.48	1212.40
388.67	1233.46
388.86	1380.92
389.06	1460.49
389.25	1547.09
389.45	1556.46
389.64	1633.69
389.84	1551.78
390.03	1490.92
390.22	1598.59
390.42	1514.33
390.61	1746.04
390.81	1760.08
391.00	1619.65
391.19	1750.72
391.39	1650.08
391.58	1680.50
391.78	1565.82
391.97	1509.65
392.16	1378.58
392.36	1392.62
392.55	1095.37
392.75	952.60
392.94	692.80
393.13	758.33
393.33	788.76
393.52	1060.26
393.71	1289.64
393.91	1336.45
394.10	1441.77
394.29	1647.74
394.49	1713.27
394.68	1867.75
394.88	1830.30
395.07	1989.46
395.26	1888.81
395.46	1844.34
395.65	1722.63
395.84	1540.07
396.04	1387.94
396.23	1114.10
396.42	1027.50
396.62	1013.45
396.81	1095.37
397.00	1308.36
397.19	1614.97
397.39	1909.88
397.58	2115.84
397.77	2141.59
397.97	2242.23
398.16	2256.28
398.35	2401.39
398.55	2314.79
398.74	2581.61
398.93	2616.72
399.12	2441.18
399.32	2403.73
399.51	2478.63
399.70	2628.42
399.90	2642.46
400.09	2689.28
400.28	2619.06
400.47	2523.10
400.67	2705.66
400.86	2747.79
401.05	2771.19
401.24	2855.45
401.44	2930.35
401.63	3038.02
401.82	2995.89
402.01	2796.94
402.21	2939.71
402.40	2909.29
402.59	2815.66
402.78	2658.85
402.97	2612.04
403.17	2658.85
403.36	2920.99
403.55	2991.20
403.74	3023.97
403.93	2993.55
404.13	2925.67
404.32	2949.08
404.51	2939.71
404.70	3019.29
404.89	2944.39
405.09	2925.67
405.28	2916.31
405.47	2715.02
405.66	2782.90
405.85	2572.25
406.05	2663.53
406.24	2668.21
406.43	2855.45
406.62	2906.95
406.81	2944.39
407.00	2848.43
407.20	2768.85
407.39	2752.47
407.58	2949.08
407.77	3026.31
407.96	3089.51
408.15	3171.43
408.34	3243.98
408.54	3309.52
408.73	3290.79
408.92	3225.26
409.11	3042.70
409.30	2974.82
409.49	2818.00
409.68	2647.15
409.87	2516.08
410.07	2738.43
410.26	2925.67
410.45	3159.72
410.64	3169.09
410.83	3229.94
411.02	3353.99
411.21	3456.97
411.40	3442.93
411.59	3431.23
411.78	3454.63
411.98	3386.76
412.17	3346.97
412.36	3318.88
412.55	3346.97
412.74	3396.12
412.93	3143.34
413.12	3309.52
413.31	3559.95
413.50	3576.34
413.69	3487.40
413.88	3433.57
414.07	3461.65
414.26	3492.08
414.45	3550.59
414.64	3634.85
414.83	3585.70
415.02	3627.83
415.22	3489.74
415.41	3688.68
415.60	3655.92
415.79	3733.15
415.98	3948.48
416.17	3868.91
416.36	3789.33
416.55	3728.47
416.74	3634.85
416.93	3520.17
417.12	3620.81
417.31	3557.61
417.50	3707.41
417.69	3801.03
417.88	3817.41
418.07	3679.32
418.26	3665.28
418.45	3574.00
418.64	3719.11
418.83	3854.86
419.02	3955.51
419.21	3796.35
419.39	3850.18
419.58	3602.08
419.77	3623.15
419.96	3756.56
420.15	3838.48
420.34	3880.61
420.53	3971.89
420.72	4112.32
420.91	4081.89
421.10	4016.36
421.29	4023.38
421.48	4025.72
421.67	4060.83
421.86	4004.66
422.05	3779.97
422.24	3300.16
422.43	3332.92
422.61	3583.36
422.80	3852.52
422.99	4030.40
423.18	3843.16
423.37	3726.13
423.56	3740.18
423.75	3662.94
423.94	3983.59
424.13	3653.58
424.32	3822.09
424.50	3618.47
424.69	3698.05
424.88	3637.19
425.07	3779.97
425.26	3667.62
425.45	3576.34
425.64	3646.55
425.83	3442.93
426.01	3852.52
426.20	3850.18
426.39	3684.00
426.58	3559.95
426.77	3365.69
426.96	3304.84
427.15	3335.26
427.33	3648.90
427.52	3719.11
427.71	3716.77
427.90	3758.90
428.09	3808.05
428.28	3606.77
428.46	3449.95
428.65	3442.93
428.84	3452.29
429.03	3662.94
429.22	3370.37
429.40	3311.86
429.59	3052.06
429.78	2658.85
429.97	2609.70
430.16	2761.83
430.34	2738.43
430.53	2642.46
430.72	2712.68
430.91	2916.31
431.10	3368.03
431.28	3969.55
431.47	4217.65
431.66	4351.06
431.85	4060.83
432.03	3763.58
432.22	3669.96
432.41	3609.11
432.60	4093.60
432.79	4088.92
432.97	4093.60
433.16	4065.51
433.35	3723.79
433.54	3482.72
433.72	3330.58
433.91	3323.56
434.10	3623.15
434.28	3997.64
434.47	4203.60
434.66	4093.60
434.85	4238.71
435.03	4156.79
435.22	4528.94
435.41	5408.98
435.59	5495.58
435.78	5156.20
435.97	4898.74
436.16	4702.14
436.34	4477.44
436.53	4337.01
436.72	4344.03
436.90	4332.33
437.09	4140.41
437.28	4079.55
437.46	4301.90
437.65	4105.30
437.84	4107.64
438.02	3721.45
438.21	3623.15
438.40	3826.78
438.58	4060.83
438.77	4177.86
438.96	4325.31
439.14	4212.96
439.33	4475.10
439.52	4498.51
439.70	4386.16
439.89	4503.19
440.08	4341.69
440.26	4273.82
440.45	4304.25
440.63	4505.53
440.82	4865.97
441.01	4917.47
441.19	4645.96
441.38	4856.61
441.57	5006.41
441.75	4997.04
441.94	5114.07
442.12	5008.75
442.31	5160.88
442.50	5074.28
442.68	5032.15
442.87	4975.98
443.05	5043.85
443.24	5020.45
443.43	5102.37
443.61	5352.81
443.80	5270.89
443.98	4919.81
444.17	5001.72
444.35	5301.31
444.54	5277.91
444.73	5212.37
444.91	5151.52
445.10	4943.21
445.28	4807.46
445.47	4636.60
445.65	4645.96
445.84	4849.59
446.02	4936.19
446.21	4938.53
446.39	5039.17
446.58	5013.43
446.77	5125.77
446.95	5165.56
447.14	5352.81
447.32	5467.49
447.51	5195.99
447.69	5160.88
447.88	4997.04
448.06	5174.92
448.25	5287.27
448.43	5322.38
448.62	5160.88
448.80	5305.99
448.99	5142.16
449.17	5366.85
449.36	5233.44
449.54	5427.70
449.73	5504.94
449.91	5598.56
450.10	5823.25
450.28	5870.06
450.46	5717.93
450.65	5673.46
450.83	5729.63
451.02	5671.12
451.20	5521.32
451.39	5561.11
451.57	5582.18
451.76	5490.90
451.94	5364.51
452.13	5455.79
452.31	5060.24
452.49	4945.55
452.68	5032.15
452.86	4868.31
453.05	4858.95
453.23	5069.60
453.42	5245.14
453.60	5511.96
453.78	5469.83
453.97	5399.62
454.15	5446.43
454.34	5310.68
454.52	5352.81
454.70	5305.99
454.89	5247.48
455.07	5430.04
455.26	5338.76
455.44	5598.56
455.62	5680.48
455.81	5764.74
455.99	5668.78
456.17	5570.48
456.36	5598.56
456.54	5689.84
456.73	5727.29
456.91	5778.78
457.09	5902.83
457.28	5921.56
457.46	6038.58
457.64	5788.14
457.83	5654.73
458.01	5373.87
458.19	5715.59
458.38	5511.96
458.56	5715.59
458.74	5804.53
458.93	5706.23
459.11	5687.50
459.29	5652.39
459.48	5504.94
459.66	5643.03
459.84	5771.76
460.03	5706.23
460.21	5619.63
460.39	5809.21
460.57	5891.13
460.76	6036.24
460.94	6033.90
461.12	5954.32
461.31	6054.97
461.49	5806.87
461.67	5898.15
461.85	6146.25
462.04	5916.87
462.22	6424.77
462.40	5844.32
462.59	6031.56
462.77	5930.92
462.95	5933.26
463.13	5933.26
463.32	5750.70
463.50	5837.30
463.68	5900.49
463.86	5888.79
464.05	5809.21
464.23	5631.33
464.41	5544.73
464.59	5511.96
464.78	5827.93
464.96	5764.74
465.14	5738.99
465.32	5872.40
465.50	5947.30
465.69	6118.16
465.87	5998.79
466.05	5865.38
466.23	5530.69
466.41	5315.36
466.60	5657.07
466.78	5497.92
466.96	5734.31
467.14	5856.02
467.32	5870.06
467.51	5795.17
467.69	5568.13
467.87	5626.65
468.05	5731.97
468.23	5668.78
468.41	5621.97
468.60	5792.83
468.78	5851.34
468.96	5643.03
469.14	5886.45
469.32	5827.93
469.50	5636.01
469.69	5657.07
469.87	5774.10
470.05	5614.95
470.23	5610.26
470.41	5650.05
470.59	5551.75
470.77	5570.48
470.95	5790.49
471.14	5884.11
471.32	5832.62
471.50	6139.23
471.68	6256.25
471.86	6230.51
472.04	6183.70
472.22	6265.61
472.40	6097.10
472.58	5834.96
472.77	5963.68
472.95	6071.35
473.13	6181.35
473.31	5942.62
473.49	6017.52
473.67	6010.50
473.85	6162.63
474.03	6296.04
474.21	6370.94
474.39	6476.26
474.57	6445.84
474.75	6394.34
474.93	6354.55
475.12	6384.98
475.30	6092.41
475.48	6167.31
475.66	6303.06
475.84	6228.17
476.02	6413.07
476.20	6057.31
476.38	6209.44
476.56	6310.08
476.74	6513.71
476.92	6569.88
477.10	6525.41
477.28	6780.53
477.46	6705.63
477.64	6953.73
477.82	7030.97
478.00	6918.62
478.18	6736.06
478.36	6738.40
478.54	6864.79
478.72	6897.56
478.90	6876.49
479.08	7138.63
479.26	7232.26
479.44	7492.05
479.62	7426.52
479.80	7358.64
479.98	7332.90
480.16	7412.48
480.34	7358.64
480.52	7211.19
480.70	7377.37
480.88	7265.02
481.06	7581.00
481.24	7503.76
481.41	7688.66
481.59	7964.84
481.77	7805.69
481.95	7775.26
482.13	7705.04
482.31	7770.58
482.49	7836.11
482.67	7768.24
482.85	7967.18
483.03	8042.08
483.21	7997.61
483.39	8119.32
483.57	7824.41
483.74	8088.89
483.92	7920.37
484.10	7957.82
484.28	8140.38
484.46	8294.86
484.64	8592.11
484.82	8032.72
485.00	7964.84
485.18	7824.41
485.35	7665.25
485.53	7351.62
485.71	6661.16
485.89	6583.93
486.07	6771.17
486.25	7185.44
486.43	7728.45
486.61	8013.99
486.78	7927.39
486.96	7899.31
487.14	8168.47
487.32	8561.68
487.50	8589.77
487.68	8620.19
487.85	8667.00
488.03	9128.09
488.21	9226.39
488.39	8809.78
488.57	8507.85
488.75	8444.65
488.92	8929.14
489.10	9109.36
489.28	9420.66
489.46	9614.92
489.64	9748.33
489.81	9858.34
489.99	9715.56
490.17	9652.37
490.35	9818.55
490.53	9689.82
490.70	9671.09
490.88	9327.03
491.06	9734.29
491.24	9715.56
491.41	9823.23
491.59	8954.89
491.77	8887.01
491.95	9186.60
492.13	9535.34
492.30	9694.50
492.48	10132.18
492.66	10244.52
492.84	10401.34
493.01	10221.12
493.19	9937.91
493.37	10038.56
493.54	9795.14
493.72	10050.26
493.90	10225.80
494.08	10764.12
494.25	10747.74
494.43	10712.63
494.61	10993.50
494.79	10934.98
494.96	10635.39
495.14	10775.83
495.32	10429.43
495.49	10155.58
495.67	10352.19
495.85	10766.46
496.02	11274.36
496.20	11309.47
496.38	10965.41
496.55	10759.44
496.73	11059.03
496.91	11021.58
497.09	11391.39
497.26	11501.39
497.44	11094.14
497.62	11044.99
497.79	10820.30
497.97	10607.31
498.14	10277.29
498.32	10733.70
498.50	10944.34
498.67	11342.24
498.85	11227.55
499.03	11288.40
499.20	11365.64
499.38	11180.74
499.56	11110.52
499.73	11332.87
499.91	10836.68
500.08	10902.22
500.26	10420.06
500.44	10546.45
500.61	10836.68
500.79	10988.82
500.97	10642.42
501.14	10562.84
501.32	10611.99
501.49	10265.59
501.67	10616.67
501.84	10710.29
502.02	10604.97
502.20	11124.57
502.37	11040.31
502.55	10904.56
502.72	11049.67
502.90	11417.13
503.07	11035.63
503.25	10841.36
503.43	10328.78
503.60	10260.91
503.78	10186.01
503.95	9996.43
504.13	10511.35
504.30	11239.25
504.48	11185.42
504.65	11248.61
504.83	11154.99
505.01	11452.24
505.18	11503.73
505.36	11735.45
505.53	11726.08
505.71	11922.69
505.88	11751.83
506.06	11578.63
506.23	11520.12
506.41	11248.61
506.58	11049.67
506.76	11281.38
506.93	11513.10
507.11	11108.18
507.28	11393.73
507.46	11138.61
507.63	10918.60
507.81	10857.75
507.98	10963.07
508.16	11232.23
508.33	11295.43
508.50	11339.90
508.68	12002.27
508.85	11791.62
509.03	11941.41
509.20	12100.57
509.38	11604.38
509.55	11332.87
509.73	11555.22
509.90	11777.58
510.08	11665.23
510.25	11815.02
510.42	11742.47
510.60	11850.13
510.77	11714.38
510.95	11948.43
511.12	11878.22
511.30	12437.61
511.47	12444.63
511.64	12383.77
511.82	12138.02
511.99	12020.99
512.17	11538.84
512.34	11419.47
512.51	11609.06
512.69	11536.50
512.86	11822.05
513.04	11847.79
513.21	11819.71
513.38	11815.02
513.56	11494.37
513.73	11257.98
513.90	11452.24
514.08	11363.30
514.25	11449.90
514.43	11714.38
514.60	11683.95
514.77	11749.49
514.95	11719.06
515.12	11522.46
515.29	11681.61
515.47	12098.23
515.64	12107.59
515.81	11953.12
515.99	11845.45
516.16	11447.56
516.33	10462.19
516.51	10052.60
516.68	9612.58
516.85	9528.32
517.03	9495.55
517.20	10136.86
517.37	11026.26
517.54	11672.25
517.72	11424.15
517.89	10675.18
518.06	9825.57
518.24	9811.53
518.41	10682.20
518.58	11066.05
518.75	11370.32
518.93	11475.65
519.10	11426.50
519.27	11653.53
519.45	11414.79
519.62	11906.31
519.79	12308.88
519.96	11999.93
520.14	11712.04
520.31	11190.10
520.48	11435.86
520.65	11545.86
520.83	11808.00
521.00	12112.27
521.17	11957.80
521.34	11779.92
521.52	11695.66
521.69	12397.82
521.86	12507.82
522.03	12201.21
522.20	11964.82
522.38	11236.91
522.55	11201.80
522.72	11461.60
522.89	11784.60
523.07	11639.48
523.24	11714.38
523.41	11854.81
523.58	12119.29
523.75	12304.20
523.92	12376.75
524.10	12435.27
524.27	12339.30
524.44	12423.56
524.61	12273.77
524.78	12009.29
524.96	12145.04
525.13	11840.77
525.30	12079.50
525.47	12556.97
525.64	12573.36
525.81	12077.16
525.98	11637.14
526.16	10944.34
526.33	10593.26
526.50	10541.77
526.67	10317.08
526.84	10356.87
527.01	10750.08
527.18	11283.72
527.36	11564.59
527.53	12023.33
527.70	12030.35
527.87	11859.49
528.04	11545.86
528.21	11623.10
528.38	12306.54
528.55	12776.98
528.72	12589.74
528.89	12774.64
529.07	12807.41
529.24	12367.39
529.41	11948.43
529.58	11786.94
529.75	11700.34
529.92	11962.48
530.09	12126.32
530.26	12217.60
530.43	12437.61
530.60	12285.47
530.77	12671.66
530.94	12589.74
531.11	12339.30
531.28	12290.15
531.46	12152.06
531.63	12325.26
531.80	12271.43
531.97	12196.53
532.14	12163.76
532.31	11466.28
532.48	11154.99
532.65	11166.70
532.82	11412.45
532.99	11815.02
533.16	12011.63
533.33	12411.86
533.50	12182.49
533.67	11866.52
533.84	11765.87
534.01	12025.67
534.18	12114.61
534.35	12154.40
534.52	11810.34
534.69	12187.17
534.86	12093.55
535.03	12369.73
535.20	12606.13
535.37	12901.03
535.54	12575.70
535.71	12262.07
535.88	12287.81
536.05	12252.70
536.22	12095.89
536.38	11978.86
536.55	11686.29
536.72	11398.41
536.89	11520.12
537.06	11805.66
537.23	12332.28
537.40	12095.89
537.57	12332.28
537.74	12222.28
537.91	12114.61
538.08	12152.06
538.25	12051.42
538.42	12142.70
538.59	12306.54
538.75	11948.43
538.92	11859.49
539.09	11782.26
539.26	11667.57
539.43	11468.62
539.60	11805.66
539.77	11845.45
539.94	11847.79
540.11	11580.97
540.28	11295.43
540.44	11255.64
540.61	11435.86
540.78	11456.92
540.95	11660.55
541.12	12259.73
541.29	12346.33
541.46	12297.17
541.62	12414.20
541.79	12353.35
541.96	12194.19
542.13	12215.26
542.30	12348.67
542.47	12442.29
542.63	12231.64
542.80	12100.57
542.97	12002.27
543.14	12037.38
543.31	11957.80
543.48	12170.79
543.64	12685.70
543.81	12685.70
543.98	12624.85
544.15	12561.66
544.32	12259.73
544.48	12166.10
544.65	12241.00
544.82	12552.29
544.99	12233.98
545.16	12028.01
545.32	12081.85
545.49	12856.56
545.66	13816.18
545.83	14190.67
546.00	13837.25
546.16	12933.80
546.33	12297.17
546.50	12140.36
546.67	12376.75
546.83	12149.72
547.00	12582.72
547.17	11798.64
547.34	11634.80
547.50	11667.57
547.67	11616.08
547.84	11737.79
548.00	11866.52
548.17	12049.08
548.34	12016.31
548.51	12109.93
548.67	11967.16
548.84	12203.55
549.01	12112.27
549.18	11974.18
549.34	12133.34
549.51	11688.64
549.68	12065.46
549.84	11803.32
550.01	11698.00
550.18	11665.23
550.34	11737.79
550.51	11765.87
550.68	11845.45
550.84	11707.36
551.01	11508.41
551.18	11555.22
551.34	11786.94
551.51	11810.34
551.68	11782.26
551.84	12107.59
552.01	11896.94
552.18	11896.94
552.34	11492.03
552.51	11543.52
552.68	11241.59
552.84	11302.45
553.01	11627.78
553.18	11412.45
553.34	11641.82
553.51	11447.56
553.67	11712.04
553.84	11887.58
554.01	11702.68
554.17	11367.98
554.34	11587.99
554.51	11503.73
554.67	11534.16
554.84	11789.28
555.00	11613.74
555.17	11651.19
555.33	11477.99
555.50	11747.15
555.67	11213.51
555.83	11552.88
556.00	11220.53
556.16	11370.32
556.33	11288.40
556.50	11255.64
556.66	11052.01
556.83	11143.29
556.99	10963.07
557.16	11117.54
557.32	11215.85
557.49	11070.73
557.65	10920.94
557.82	11014.56
557.98	10925.62
558.15	10827.32
558.32	10771.15
558.48	10483.26
558.65	10342.83
558.81	10391.98
558.98	10525.39
559.14	10553.48
559.31	10621.35
559.47	10867.11
559.64	10714.97
559.80	10431.77
559.97	10483.26
560.13	10696.25
560.30	10934.98
560.46	11190.10
560.63	11353.94
560.79	11356.28
560.96	11089.46
561.12	10815.62
561.29	10448.15
561.45	10403.68
561.61	10593.26
561.78	10738.38
561.94	10956.05
562.11	10780.51
562.27	10736.04
562.44	10759.44
562.60	10817.96
562.77	10899.87
562.93	11066.05
563.10	10757.10
563.26	10597.95
563.42	10878.81
563.59	10640.08
563.75	10630.71
563.92	10583.90
564.08	10611.99
564.24	10799.23
564.41	10822.64
564.57	10691.57
564.74	10544.11
564.90	10714.97
565.07	10501.98
565.23	10434.11
565.39	10356.87
565.56	10125.16
565.72	9961.32
565.88	10071.33
566.05	10139.20
566.21	10097.07
566.38	10260.91
566.54	10352.19
566.70	10296.02
566.87	10483.26
567.03	10553.48
567.19	10312.40
567.36	10413.04
567.52	10307.72
567.68	10200.05
567.85	9893.44
568.01	9738.97
568.17	9570.45
568.34	9643.01
568.50	9647.69
568.66	9586.83
568.83	9811.53
568.99	9783.44
569.15	9664.07
569.32	9603.22
569.48	9783.44
569.64	9678.12
569.81	9430.02
569.97	9753.01
570.13	9750.67
570.30	9678.12
570.46	9689.82
570.62	9273.20
570.78	9303.63
570.95	9322.35
571.11	9549.39
571.27	9362.14
571.43	9516.62
571.60	9521.30
571.76	9579.81
571.92	9565.77
572.09	9881.74
572.25	9858.34
572.41	9827.91
572.57	9877.06
572.74	9706.20
572.90	9776.42
573.06	9701.52
573.22	9666.41
573.38	9600.88
573.55	9600.88
573.71	9764.72
573.87	9631.30
574.03	9423.00
574.20	9572.79
574.36	9378.53
574.52	9448.74
574.68	9455.76
574.84	9425.34
575.01	9401.93
575.17	9284.91
575.33	9268.52
575.49	9399.59
575.65	9408.95
575.82	9343.42
575.98	9303.63
576.14	9301.29
576.30	9493.21
576.46	9837.27
576.62	9909.83
576.79	9776.42
576.95	9973.02
577.11	9521.30
577.27	9589.17
577.43	9446.40
577.59	9385.55
577.75	9174.90
577.92	9238.09
578.08	9006.38
578.24	9011.06
578.40	9217.03
578.56	9638.33
578.72	9600.88
578.88	9774.08
579.04	9565.77
579.21	9418.32
579.37	9502.58
579.53	9444.06
579.69	9493.21
579.85	9561.09
580.01	9479.17
580.17	9589.17
580.33	9497.89
580.49	9530.66
580.65	9432.36
580.82	9523.64
580.98	9469.81
581.14	9378.53
581.30	9474.49
581.46	9509.60
581.62	9350.44
581.78	9504.92
581.94	9565.77
582.10	9757.69
582.26	9631.30
582.42	9664.07
582.58	9760.03
582.74	9575.13
582.90	9647.69
583.06	9678.12
583.22	9563.43
583.38	9736.63
583.54	9755.35
583.70	9586.83
583.86	9558.75
584.02	9404.27
584.18	9675.77
584.34	9729.61
584.50	9383.21
584.66	9586.83
584.82	9373.85
584.98	9181.92
585.14	9062.55
585.30	9149.15
585.46	9004.04
585.62	8978.30
585.78	9004.04
585.94	8830.84
586.10	8854.25
586.26	8950.21
586.42	9151.49
586.58	9067.24
586.74	9167.88
586.90	9226.39
587.06	9219.37
587.22	9015.74
587.38	9008.72
587.54	8645.94
587.70	8767.65
587.86	8243.37
588.02	8023.36
588.18	8021.02
588.34	7494.40
588.49	7068.42
588.65	6597.97
588.81	6441.15
588.97	6478.60
589.13	6565.20
589.29	6532.44
589.45	6483.28
589.61	6640.10
589.77	6890.54
589.93	6930.33
590.08	7412.48
590.24	7634.83
590.40	7723.77
590.56	7669.94
590.72	7686.32
590.88	7435.88
591.04	7578.65
591.20	7707.38
591.35	7667.60
591.51	7419.50
591.67	7370.35
591.83	7440.56
591.99	7250.98
592.15	7412.48
592.31	7686.32
