SpectraSuite Data File
++++++++++++++++++++++++++++++++++++
Date: Fri Oct 04 11:44:13 GMT-05:00 2013
User: price-jones
Dark Spectrum Present: No
Reference Spectrum Present: No
Number of Sampled Component Spectra: 1
Spectrometers: USB2+H05261
Integration Time (usec): 100000 (USB2+H05261)
Spectra Averaged: 1 (USB2+H05261)
Boxcar Smoothing: 0 (USB2+H05261)
Correct for Electrical Dark: No (USB2+H05261)
Strobe/Lamp Enabled: No (USB2+H05261)
Correct for Detector Non-linearity: No (USB2+H05261)
Correct for Stray Light: No (USB2+H05261)
Number of Pixels in Processed Spectrum: 2048
>>>>>Begin Processed Spectral Data<<<<<
365.73	9.36
365.92	9.36
366.12	9.36
366.32	0.00
366.52	0.00
366.72	0.00
366.91	0.00
367.11	0.00
367.31	0.00
367.51	0.00
367.70	0.00
367.90	0.00
368.10	0.00
368.30	0.00
368.49	0.00
368.69	0.00
368.89	0.00
369.09	0.00
369.28	21.06
369.48	0.00
369.68	0.00
369.87	0.00
370.07	60.85
370.27	0.00
370.47	212.99
370.66	561.73
370.86	699.82
371.06	774.72
371.25	800.46
371.45	727.91
371.65	676.41
371.84	629.60
372.04	617.90
372.24	727.91
372.44	816.85
372.63	835.57
372.83	781.74
373.03	671.73
373.22	631.94
373.42	662.37
373.62	674.07
373.81	807.48
374.01	758.33
374.21	748.97
374.40	718.54
374.60	793.44
374.79	788.76
374.99	812.17
375.19	858.98
375.38	926.85
375.58	849.61
375.78	898.77
375.97	877.70
376.17	924.51
376.37	915.15
376.56	954.94
376.76	990.05
376.95	1022.81
377.15	985.37
377.35	1100.05
377.54	1107.07
377.74	1252.19
377.93	1121.12
378.13	1125.80
378.33	1104.73
378.52	1071.97
378.72	971.32
378.91	933.87
379.11	968.98
379.31	896.43
379.50	777.06
379.70	1043.88
379.89	1083.67
380.09	1053.24
380.28	1088.35
380.48	1137.50
380.68	983.02
380.87	1039.20
381.07	1041.54
381.26	1004.09
381.46	882.38
381.65	826.21
381.85	840.25
382.04	837.91
382.24	767.70
382.43	739.61
382.63	692.80
382.83	751.31
383.02	741.95
383.22	844.93
383.41	688.12
383.61	781.74
383.80	800.46
384.00	912.81
384.19	976.00
384.39	1062.60
384.58	1102.39
384.78	1125.80
384.97	1076.65
385.17	1015.79
385.36	978.34
385.56	961.96
385.75	922.17
385.95	1088.35
386.14	1123.46
386.34	1135.16
386.53	1008.77
386.72	1057.92
386.92	994.73
387.11	1104.73
387.31	1100.05
387.50	1060.26
387.70	1177.29
387.89	1114.10
388.09	968.98
388.28	1027.50
388.48	1074.31
388.67	1245.16
388.86	1245.16
389.06	1348.15
389.25	1371.55
389.45	1327.08
389.64	1334.11
389.84	1476.88
390.03	1341.13
390.22	1366.87
390.42	1451.13
390.61	1565.82
390.81	1572.84
391.00	1568.16
391.19	1617.31
391.39	1591.56
391.58	1526.03
391.78	1416.02
391.97	1416.02
392.16	1287.29
392.36	1221.76
392.55	1043.88
392.75	821.53
392.94	755.99
393.13	770.04
393.33	809.83
393.52	990.05
393.71	1062.60
393.91	1334.11
394.10	1364.53
394.29	1481.56
394.49	1483.90
394.68	1598.59
394.88	1619.65
395.07	1778.81
395.26	1708.59
395.46	1584.54
395.65	1542.41
395.84	1376.24
396.04	1282.61
396.23	1015.79
396.42	830.89
396.62	861.32
396.81	997.07
397.00	1235.80
397.19	1430.07
397.39	1650.08
397.58	1916.90
397.77	1937.96
397.97	1935.62
398.16	1975.41
398.35	2078.40
398.55	2045.63
398.74	2225.85
398.93	2270.32
399.12	2176.70
399.32	2176.70
399.51	2195.42
399.70	2389.69
399.90	2305.43
400.09	2333.51
400.28	2282.02
400.47	2284.36
400.67	2375.64
400.86	2438.84
401.05	2539.48
401.24	2516.08
401.44	2581.61
401.63	2616.72
401.82	2537.14
402.01	2492.67
402.21	2459.90
402.40	2619.06
402.59	2485.65
402.78	2246.91
402.97	2307.77
403.17	2441.18
403.36	2459.90
403.55	2658.85
403.74	2672.89
403.93	2537.14
404.13	2567.57
404.32	2619.06
404.51	2647.15
404.70	2619.06
404.89	2579.27
405.09	2602.68
405.28	2502.03
405.47	2452.88
405.66	2459.90
405.85	2342.88
406.05	2335.85
406.24	2457.56
406.43	2560.55
406.62	2452.88
406.81	2670.55
407.00	2527.78
407.20	2399.05
407.39	2555.86
407.58	2520.76
407.77	2675.23
407.96	2731.41
408.15	2724.38
408.34	2698.64
408.54	2801.62
408.73	2839.07
408.92	2820.35
409.11	2719.70
409.30	2729.06
409.49	2462.24
409.68	2469.27
409.87	2347.56
410.07	2410.75
410.26	2562.89
410.45	2544.16
410.64	2715.02
410.83	2775.88
411.02	2916.31
411.21	3012.27
411.40	3049.72
411.59	2998.23
411.78	2890.56
411.98	2953.76
412.17	3002.91
412.36	2766.51
412.55	2981.84
412.74	2977.16
412.93	2857.79
413.12	2848.43
413.31	3084.83
413.50	3176.11
413.69	3108.23
413.88	3143.34
414.07	2895.24
414.26	2998.23
414.45	3077.80
414.64	3103.55
414.83	3101.21
415.02	3023.97
415.22	3136.32
415.41	3197.17
415.60	3091.85
415.79	3206.53
415.98	3356.33
416.17	3337.60
416.36	3337.60
416.55	3262.71
416.74	3286.11
416.93	3112.91
417.12	3068.44
417.31	3239.30
417.50	3272.07
417.69	3279.09
417.88	3061.42
418.07	3187.81
418.26	3255.69
418.45	3148.02
418.64	3281.43
418.83	3335.26
419.02	3438.25
419.21	3300.16
419.39	3316.54
419.58	3054.40
419.77	3082.49
419.96	3220.58
420.15	3501.44
420.34	3510.80
420.53	3536.55
420.72	3595.06
420.91	3468.67
421.10	3616.13
421.29	3527.19
421.48	3632.51
421.67	3641.87
421.86	3515.48
422.05	3318.88
422.24	2984.18
422.43	3054.40
422.61	3206.53
422.80	3482.72
422.99	3487.40
423.18	3398.46
423.37	3358.67
423.56	3258.03
423.75	3234.62
423.94	3358.67
424.13	3328.24
424.32	3131.64
424.50	3290.79
424.69	3117.59
424.88	3190.15
425.07	3300.16
425.26	3316.54
425.45	3141.00
425.64	3190.15
425.83	3262.71
426.01	3286.11
426.20	3405.48
426.39	3421.86
426.58	3108.23
426.77	3049.72
426.96	2925.67
427.15	2815.66
427.33	3091.85
427.52	3269.73
427.71	3288.45
427.90	3220.58
428.09	3143.34
428.28	3082.49
428.46	3005.25
428.65	2928.01
428.84	3096.53
429.03	3171.43
429.22	2909.29
429.40	2834.39
429.59	2686.94
429.78	2387.35
429.97	2235.21
430.16	2387.35
430.34	2366.28
430.53	2385.01
430.72	2385.01
430.91	2612.04
431.10	2998.23
431.28	3494.42
431.47	3721.45
431.66	3665.28
431.85	3452.29
432.03	3248.66
432.22	3117.59
432.41	3293.13
432.60	3571.66
432.79	3669.96
432.97	3808.05
433.16	3606.77
433.35	3487.40
433.54	3080.14
433.72	2902.26
433.91	3016.95
434.10	3279.09
434.28	3482.72
434.47	3531.87
434.66	3543.57
434.85	3611.45
435.03	3709.75
435.22	4119.34
435.41	4912.78
435.59	5406.64
435.78	4823.84
435.97	4594.47
436.16	4227.01
436.34	3955.51
436.53	3859.54
436.72	3932.10
436.90	3733.15
437.09	3672.30
437.28	3510.80
437.46	3712.09
437.65	3669.96
437.84	3405.48
438.02	3276.75
438.21	3272.07
438.40	3297.81
438.58	3585.70
438.77	3625.49
438.96	3768.26
439.14	3679.32
439.33	3922.74
439.52	3948.48
439.70	3960.19
439.89	3826.78
440.08	3681.66
440.26	3641.87
440.45	3850.18
440.63	4018.70
440.82	4285.52
441.01	4145.09
441.19	4100.62
441.38	4245.73
441.57	4517.23
441.75	4535.96
441.94	4512.55
442.12	4381.48
442.31	4367.44
442.50	4416.59
442.68	4435.32
442.87	4390.84
443.05	4269.14
443.24	4297.22
443.43	4465.74
443.61	4531.28
443.80	4678.73
443.98	4472.76
444.17	4367.44
444.35	4594.47
444.54	4692.77
444.73	4634.26
444.91	4451.70
445.10	4248.07
445.28	3999.98
445.47	4072.53
445.65	4004.66
445.84	4107.64
446.02	4121.68
446.21	4423.61
446.39	4379.14
446.58	4526.60
446.77	4489.15
446.95	4559.36
447.14	4559.36
447.32	4814.48
447.51	4699.80
447.69	4432.97
447.88	4531.28
448.06	4613.20
448.25	4622.56
448.43	4519.57
448.62	4514.89
448.80	4524.26
448.99	4559.36
449.17	4517.23
449.36	4624.90
449.54	4695.11
449.73	4723.20
449.91	4851.93
450.10	4830.87
450.28	4910.44
450.46	5029.81
450.65	5048.54
450.83	5015.77
451.02	4863.63
451.20	4861.29
451.39	4861.29
451.57	4894.06
451.76	4671.71
451.94	4795.76
452.13	4805.12
452.31	4456.38
452.49	4271.48
452.68	4390.84
452.86	4414.25
453.05	4482.13
453.23	4514.89
453.42	4573.41
453.60	4835.55
453.78	4688.09
453.97	4622.56
454.15	4657.67
454.34	4800.44
454.52	4425.95
454.70	4531.28
454.89	4545.32
455.07	4587.45
455.26	4706.82
455.44	4922.15
455.62	4931.51
455.81	4821.50
455.99	4910.44
456.17	4854.27
456.36	4767.67
456.54	4889.38
456.73	5041.51
456.91	5085.98
457.09	5149.18
457.28	5249.82
457.46	4858.95
457.64	4830.87
457.83	4856.61
458.01	4718.52
458.19	4915.12
458.38	4882.36
458.56	5057.90
458.74	4770.01
458.93	4868.31
459.11	4835.55
459.29	4854.27
459.48	4849.59
459.66	4903.42
459.84	4844.91
460.03	5057.90
460.21	4964.28
460.39	5116.41
460.57	5226.42
460.76	5078.96
460.94	5083.64
461.12	5041.51
461.31	5067.26
461.49	5022.79
461.67	5001.72
461.85	5130.45
462.04	5263.86
462.22	5692.18
462.40	5179.61
462.59	5191.31
462.77	5212.37
462.95	5139.82
463.13	5153.86
463.32	5132.79
463.50	5114.07
463.68	4994.70
463.86	5125.77
464.05	5074.28
464.23	4875.34
464.41	4865.97
464.59	4816.82
464.78	5177.26
464.96	5046.20
465.14	4940.87
465.32	5153.86
465.50	5205.35
465.69	5203.01
465.87	5186.63
466.05	4933.85
466.23	4830.87
466.41	4781.71
466.60	4950.23
466.78	4938.53
466.96	5029.81
467.14	4952.57
467.32	4994.70
467.51	4968.96
467.69	4816.82
467.87	4870.65
468.05	5034.49
468.23	4938.53
468.41	5130.45
468.60	5006.41
468.78	5102.37
468.96	5018.11
469.14	5095.35
469.32	5116.41
469.50	4861.29
469.69	4830.87
469.87	4814.48
470.05	4816.82
470.23	4830.87
470.41	4873.00
470.59	4816.82
470.77	4912.78
470.95	5104.71
471.14	5029.81
471.32	4985.34
471.50	5563.45
471.68	5280.25
471.86	5343.44
472.04	5359.83
472.22	5530.69
472.40	5085.98
472.58	5085.98
472.77	5128.11
472.95	5224.08
473.13	5296.63
473.31	5170.24
473.49	5228.76
473.67	5329.40
473.85	5324.72
474.03	5488.56
474.21	5416.00
474.39	5657.07
474.57	5598.56
474.75	5572.82
474.93	5401.96
475.12	5343.44
475.30	5446.43
475.48	5430.04
475.66	5418.34
475.84	5507.28
476.02	5469.83
476.20	5390.25
476.38	5380.89
476.56	5591.54
476.74	5612.60
476.92	5678.14
477.10	5708.57
477.28	5898.15
477.46	5907.51
477.64	6010.50
477.82	6047.94
478.00	5998.79
478.18	5846.66
478.36	5837.30
478.54	5947.30
478.72	5921.56
478.90	6071.35
479.08	6237.53
479.26	6258.59
479.44	6382.64
479.62	6258.59
479.80	6214.12
479.98	6394.34
480.16	6148.59
480.34	6181.35
480.52	6438.81
480.70	6403.71
480.88	6497.33
481.06	6471.58
481.24	6675.21
481.41	6726.70
481.59	6836.70
481.77	6885.86
481.95	6743.08
482.13	6677.55
482.31	6799.26
482.49	6864.79
482.67	6789.89
482.85	6707.98
483.03	7082.46
483.21	6986.50
483.39	6988.84
483.57	6839.05
483.74	7030.97
483.92	6885.86
484.10	7007.56
484.28	7108.21
484.46	7140.97
484.64	7190.13
484.82	7063.74
485.00	6918.62
485.18	6970.12
485.35	6621.38
485.53	6232.85
485.71	5678.14
485.89	5797.51
486.07	5937.94
486.25	6392.00
486.43	6642.44
486.61	6836.70
486.78	6890.54
486.96	6932.67
487.14	7171.40
487.32	7335.24
487.50	7581.00
487.68	7634.83
487.85	7969.52
488.03	7714.41
488.21	7728.45
488.39	7681.64
488.57	7515.46
488.75	7531.84
488.92	7698.02
489.10	8030.38
489.28	8285.50
489.46	8559.34
489.64	8439.97
489.81	8638.92
489.99	8540.61
490.17	8505.51
490.35	8430.61
490.53	8257.41
490.70	8212.94
490.88	8390.82
491.06	8669.34
491.24	8578.06
491.41	8306.56
491.59	7880.58
491.77	7740.15
491.95	8013.99
492.13	8180.17
492.30	8407.20
492.48	8788.71
492.66	8943.19
492.84	8966.59
493.01	8828.50
493.19	8664.66
493.37	8599.13
493.54	8514.87
493.72	8706.79
493.90	9107.02
494.08	9142.13
494.25	9193.62
494.43	9434.70
494.61	9502.58
494.79	9523.64
494.96	9432.36
495.14	9254.48
495.32	8861.27
495.49	8910.42
495.67	9022.77
495.85	9329.38
496.02	9589.17
496.20	9378.53
496.38	9497.89
496.55	9554.07
496.73	9769.40
496.91	9504.92
497.09	9720.24
497.26	9872.38
497.44	9675.77
497.62	9474.49
497.79	9289.59
497.97	9069.58
498.14	8912.76
498.32	9280.22
498.50	9308.31
498.67	9593.86
498.85	9481.51
499.03	9724.93
499.20	9603.22
499.38	9774.08
499.56	9540.02
499.73	9467.47
499.91	9266.18
500.08	9256.82
500.26	9020.42
500.44	9018.08
500.61	9474.49
500.79	9465.13
500.97	9151.49
501.14	9228.73
501.32	9032.13
501.49	8830.84
501.67	9025.11
501.84	9256.82
502.02	9254.48
502.20	9439.38
502.37	9329.38
502.55	9558.75
502.72	9617.26
502.90	9596.20
503.07	9554.07
503.25	9277.88
503.43	9111.71
503.60	8823.82
503.78	8685.73
503.95	8620.19
504.13	9170.22
504.30	9664.07
504.48	9392.57
504.65	9544.70
504.83	9771.74
505.01	9834.93
505.18	9799.82
505.36	9902.81
505.53	10040.90
505.71	10200.05
505.88	10317.08
506.06	9832.59
506.23	9671.09
506.41	9790.46
506.58	9628.96
506.76	9717.90
506.93	9727.27
507.11	9516.62
507.28	9600.88
507.46	9685.14
507.63	9210.01
507.81	9069.58
507.98	9549.39
508.16	9525.98
508.33	9825.57
508.50	9795.14
508.68	9933.23
508.85	10263.25
509.03	10209.42
509.20	10340.49
509.38	10092.39
509.55	9664.07
509.73	9881.74
509.90	9935.57
510.08	9921.53
510.25	10083.03
510.42	9827.91
510.60	9944.94
510.77	10181.33
510.95	10281.97
511.12	10312.40
511.30	10565.18
511.47	10726.68
511.64	10487.94
511.82	10469.22
511.99	10363.89
512.17	9963.66
512.34	9935.57
512.51	9907.49
512.69	10008.13
512.86	10101.75
513.04	10267.93
513.21	10270.27
513.38	10225.80
513.56	9818.55
513.73	9610.24
513.90	9600.88
514.08	9884.08
514.25	9916.85
514.43	9940.26
514.60	10001.11
514.77	10174.31
514.95	10216.44
515.12	10136.86
515.29	10024.51
515.47	10076.01
515.64	10391.98
515.81	10249.21
515.99	10183.67
516.16	9666.41
516.33	8877.65
516.51	8456.36
516.68	8327.63
516.85	8231.66
517.03	8168.47
517.20	8833.18
517.37	9823.23
517.54	10113.45
517.72	10099.41
517.89	9078.94
518.06	8533.59
518.24	8496.14
518.41	9352.78
518.58	9380.87
518.75	9486.19
518.93	9865.36
519.10	9497.89
519.27	9837.27
519.45	9771.74
519.62	10286.65
519.79	10200.05
519.96	10218.78
520.14	10094.73
520.31	9715.56
520.48	9865.36
520.65	9701.52
520.83	10303.04
521.00	10277.29
521.17	10321.76
521.34	10052.60
521.52	10204.74
521.69	10443.47
521.86	10513.69
522.03	10375.59
522.20	9944.94
522.38	9582.15
522.55	9540.02
522.72	9816.21
522.89	9919.19
523.07	9867.70
523.24	9867.70
523.41	10361.55
523.58	10539.43
523.75	10506.66
523.92	10494.96
524.10	10647.10
524.27	10707.95
524.44	10607.31
524.61	10399.00
524.78	10406.02
524.96	10209.42
525.13	10300.70
525.30	10452.83
525.47	10546.45
525.64	10640.08
525.81	10509.01
525.98	10059.62
526.16	9502.58
526.33	9118.73
526.50	9224.05
526.67	8725.52
526.84	9142.13
527.01	9322.35
527.18	9451.08
527.36	9942.60
527.53	10239.84
527.70	10300.70
527.87	10352.19
528.04	9905.15
528.21	10242.18
528.38	10387.30
528.55	10714.97
528.72	10771.15
528.89	10848.38
529.07	10813.28
529.24	10403.68
529.41	10120.48
529.58	10157.92
529.75	9923.87
529.92	10176.65
530.09	10431.77
530.26	10471.56
530.43	10747.74
530.60	10839.02
530.77	10752.42
530.94	10803.91
531.11	10614.33
531.28	10796.89
531.46	10565.18
531.63	10375.59
531.80	10530.07
531.97	10525.39
532.14	9963.66
532.31	9687.48
532.48	9525.98
532.65	9626.62
532.82	9650.03
532.99	10197.71
533.16	10422.41
533.33	10600.29
533.50	10487.94
533.67	10143.88
533.84	10052.60
534.01	10043.24
534.18	10174.31
534.35	10441.13
534.52	10366.23
534.69	10356.87
534.86	10562.84
535.03	10452.83
535.20	10937.32
535.37	10883.49
535.54	10738.38
535.71	10619.01
535.88	10600.29
536.05	10389.64
536.22	10291.34
536.38	10249.21
536.55	10003.45
536.72	9944.94
536.89	9563.43
537.06	10244.52
537.23	10408.36
537.40	10506.66
537.57	10684.55
537.74	10476.24
537.91	10647.10
538.08	10427.09
538.25	10352.19
538.42	10452.83
538.59	10630.71
538.75	10211.76
538.92	10064.30
539.09	10223.46
539.26	9933.23
539.43	10195.37
539.60	10043.24
539.77	10097.07
539.94	10249.21
540.11	10047.92
540.28	10162.61
540.44	9851.31
540.61	9891.10
540.78	10260.91
540.95	10640.08
541.12	10766.46
541.29	11075.42
541.46	11227.55
541.62	11215.85
541.79	11147.97
541.96	10712.63
542.13	10871.79
542.30	10869.45
542.47	11073.07
542.63	10731.36
542.80	10506.66
542.97	10750.08
543.14	10504.32
543.31	10530.07
543.48	10731.36
543.64	11002.86
543.81	11129.25
543.98	11412.45
544.15	10815.62
544.32	10686.89
544.48	10918.60
544.65	10881.15
544.82	11047.33
544.99	11136.27
545.16	10733.70
545.32	10663.48
545.49	11676.93
545.66	12964.23
545.83	13675.75
546.00	13261.48
546.16	11733.11
546.33	11225.21
546.50	10906.90
546.67	10839.02
546.83	10799.23
547.00	10647.10
547.17	10640.08
547.34	10389.64
547.50	10040.90
547.67	10342.83
547.84	10291.34
548.00	10190.69
548.17	10310.06
548.34	10558.16
548.51	10361.55
548.67	10431.77
548.84	10459.85
549.01	10551.14
549.18	10094.73
549.34	10300.70
549.51	10494.96
549.68	10204.74
549.84	10501.98
550.01	10153.24
550.18	10270.27
550.34	10167.29
550.51	9987.07
550.68	10176.65
550.84	9958.98
551.01	10017.49
551.18	9888.76
551.34	10031.54
551.51	10178.99
551.68	10328.78
551.84	10202.40
552.01	10176.65
552.18	9984.73
552.34	10001.11
552.51	9465.13
552.68	9785.78
552.84	9802.16
553.01	9961.32
553.18	9675.77
553.34	10066.64
553.51	9879.40
553.67	9966.00
553.84	9937.91
554.01	9944.94
554.17	9867.70
554.34	9748.33
554.51	9783.44
554.67	10097.07
554.84	10083.03
555.00	9895.78
555.17	9816.21
555.33	9788.12
555.50	9738.97
555.67	9788.12
555.83	9905.15
556.00	9556.41
556.16	9741.31
556.33	9394.91
556.50	9338.74
556.66	9423.00
556.83	9423.00
556.99	9273.20
557.16	9392.57
557.32	9301.29
557.49	9423.00
557.65	9493.21
557.82	9502.58
557.98	9497.89
558.15	9303.63
558.32	9296.61
558.48	8816.80
558.65	8711.47
558.81	8947.87
558.98	8884.67
559.14	8931.48
559.31	9207.67
559.47	9277.88
559.64	9107.02
559.80	8849.57
559.97	8973.61
560.13	9032.13
560.30	9465.13
560.46	9465.13
560.63	9549.39
560.79	9448.74
560.96	9394.91
561.12	9137.45
561.29	8748.92
561.45	9118.73
561.61	9179.58
561.78	9348.10
561.94	9249.80
562.11	9114.05
562.27	8980.64
562.44	9217.03
562.60	9186.60
562.77	9338.74
562.93	9097.66
563.10	9324.69
563.26	8929.14
563.42	9135.11
563.59	9128.09
563.75	9043.83
563.92	8819.14
564.08	8980.64
564.24	9095.32
564.41	9153.84
564.57	8936.17
564.74	9116.39
564.90	8980.64
565.07	9160.86
565.23	8772.33
565.39	8627.21
565.56	8734.88
565.72	8521.89
565.88	8676.37
566.05	8711.47
566.21	8636.58
566.38	8664.66
566.54	8765.31
566.70	8997.02
566.87	8952.55
567.03	9092.98
567.19	9184.26
567.36	8954.89
567.52	8662.32
567.68	8758.28
567.85	8594.45
568.01	8344.01
568.17	8393.16
568.34	8138.04
568.50	8145.06
568.66	8372.10
568.83	8231.66
568.99	8121.66
569.15	8283.16
569.32	8432.95
569.48	8379.12
569.64	7964.84
569.81	8098.25
569.97	8241.03
570.13	8292.52
570.30	8147.40
570.46	8100.59
570.62	7777.60
570.78	7988.25
570.95	8077.19
571.11	8070.17
571.27	8229.32
571.43	8037.40
571.60	8442.31
571.76	8224.64
571.92	8315.92
572.09	8238.69
572.25	8250.39
572.41	8388.48
572.57	8170.81
572.74	8393.16
572.90	8290.18
573.06	8234.00
573.22	8128.68
573.38	8236.35
573.55	8114.64
573.71	8264.43
573.87	8395.50
574.03	8037.40
574.20	8212.94
574.36	7908.67
574.52	7962.50
574.68	8065.49
574.84	8133.36
575.01	7843.14
575.17	7676.96
575.33	7889.95
575.49	7992.93
575.65	7943.78
575.82	8079.53
575.98	7772.92
576.14	7866.54
576.30	8273.79
576.46	8641.26
576.62	8545.30
576.79	8805.10
576.95	8606.15
577.11	8308.90
577.27	8084.21
577.43	8147.40
577.59	8093.57
577.75	7831.43
577.92	7602.06
578.08	7712.07
578.24	7648.87
578.40	7889.95
578.56	8042.08
578.72	8489.12
578.88	8545.30
579.04	8418.91
579.21	8276.13
579.37	8339.33
579.53	8107.62
579.69	7974.21
579.85	8203.58
580.01	8280.82
580.17	8198.90
580.33	8051.44
580.49	8039.74
580.65	8009.31
580.82	8039.74
580.98	8184.85
581.14	8100.59
581.30	8098.25
581.46	8168.47
581.62	8126.34
581.78	8198.90
581.94	8236.35
582.10	8278.47
582.26	8259.75
582.42	8304.22
582.58	8276.13
582.74	8393.16
582.90	8332.31
583.06	8318.26
583.22	8180.17
583.38	8100.59
583.54	8140.38
583.70	7985.91
583.86	8355.71
584.02	8379.12
584.18	8222.30
584.34	8086.55
584.50	8039.74
584.66	7990.59
584.82	8051.44
584.98	8060.80
585.14	7875.90
585.30	7681.64
585.46	7761.22
585.62	7463.97
585.78	7735.47
585.94	7742.49
586.10	7756.54
586.26	7597.38
586.42	7833.77
586.58	7777.60
586.74	7875.90
586.90	7761.22
587.06	8112.30
587.22	7985.91
587.38	7691.00
587.54	7419.50
587.70	7407.80
587.86	7030.97
588.02	6773.51
588.18	6689.25
588.34	6340.51
588.49	6057.31
588.65	5736.65
588.81	5706.23
588.97	5647.71
589.13	5586.86
589.29	5596.22
589.45	5589.20
589.61	5652.39
589.77	5984.75
589.93	6202.42
590.08	6354.55
590.24	6466.90
590.40	6464.56
590.56	6586.27
590.72	6457.54
590.88	6483.28
591.04	6616.69
591.20	6483.28
591.35	6445.84
591.51	6380.30
591.67	6291.36
591.83	6214.12
591.99	6122.84
592.15	6466.90
592.31	6679.89
592.46	6717.34
592.62	6848.41
592.78	6792.23
592.94	6970.12
593.10	7049.69
593.26	6956.07
593.41	7056.72
593.57	6960.75
593.73	6511.37
593.89	6312.42
594.05	6174.33
594.20	5996.45
594.36	6003.47
594.52	5877.09
594.68	5987.09
594.84	6272.64
594.99	6670.53
595.15	6619.04
