SpectraSuite Data File
++++++++++++++++++++++++++++++++++++
Date: Fri Oct 04 11:44:21 GMT-05:00 2013
User: price-jones
Dark Spectrum Present: No
Reference Spectrum Present: No
Number of Sampled Component Spectra: 1
Spectrometers: USB2+H05261
Integration Time (usec): 100000 (USB2+H05261)
Spectra Averaged: 1 (USB2+H05261)
Boxcar Smoothing: 0 (USB2+H05261)
Correct for Electrical Dark: No (USB2+H05261)
Strobe/Lamp Enabled: No (USB2+H05261)
Correct for Detector Non-linearity: No (USB2+H05261)
Correct for Stray Light: No (USB2+H05261)
Number of Pixels in Processed Spectrum: 2048
>>>>>Begin Processed Spectral Data<<<<<
365.73	28.09
365.92	28.09
366.12	28.09
366.32	0.00
366.52	0.00
366.72	0.00
366.91	0.00
367.11	0.00
367.31	0.00
367.51	0.00
367.70	0.00
367.90	0.00
368.10	0.00
368.30	0.00
368.49	0.00
368.69	0.00
368.89	0.00
369.09	0.00
369.28	0.00
369.48	0.00
369.68	0.00
369.87	0.00
370.07	0.00
370.27	0.00
370.47	65.54
370.66	330.02
370.86	306.61
371.06	334.70
371.25	500.87
371.45	348.74
371.65	414.27
371.84	294.91
372.04	414.27
372.24	379.17
372.44	418.96
372.63	444.70
372.83	360.44
373.03	367.46
373.22	360.44
373.42	301.93
373.62	444.70
373.81	433.00
374.01	482.15
374.21	351.08
374.40	381.51
374.60	374.49
374.79	393.21
374.99	383.85
375.19	456.40
375.38	568.75
375.58	463.43
375.78	526.62
375.97	524.28
376.17	540.66
376.37	456.40
376.56	484.49
376.76	521.94
376.95	531.30
377.15	514.92
377.35	603.86
377.54	678.76
377.74	608.54
377.93	580.45
378.13	624.92
378.33	645.99
378.52	543.00
378.72	528.96
378.91	601.52
379.11	482.15
379.31	421.30
379.50	557.05
379.70	585.13
379.89	641.31
380.09	608.54
380.28	540.66
380.48	624.92
380.68	582.79
380.87	608.54
381.07	587.47
381.26	613.22
381.46	507.90
381.65	477.47
381.85	456.40
382.04	458.74
382.24	533.64
382.43	379.17
382.63	433.00
382.83	463.43
383.02	454.06
383.22	409.59
383.41	411.93
383.61	400.23
383.80	505.56
384.00	519.60
384.19	596.84
384.39	564.07
384.58	582.79
384.78	592.16
384.97	559.39
385.17	559.39
385.36	484.49
385.56	517.26
385.75	465.77
385.95	498.53
386.14	599.18
386.34	634.29
386.53	514.92
386.72	592.16
386.92	638.97
387.11	575.77
387.31	552.37
387.50	517.26
387.70	491.51
387.89	547.69
388.09	538.32
388.28	589.82
388.48	655.35
388.67	643.65
388.86	667.05
389.06	709.18
389.25	805.14
389.45	793.44
389.64	727.91
389.84	758.33
390.03	706.84
390.22	655.35
390.42	767.70
390.61	763.01
390.81	758.33
391.00	821.53
391.19	844.93
391.39	798.12
391.58	648.33
391.78	737.27
391.97	695.14
392.16	645.99
392.36	596.84
392.55	475.13
392.75	482.15
392.94	416.62
393.13	425.98
393.33	451.72
393.52	505.56
393.71	697.48
393.91	716.20
394.10	704.50
394.29	772.38
394.49	837.91
394.68	849.61
394.88	866.00
395.07	868.34
395.26	866.00
395.46	856.64
395.65	901.11
395.84	681.10
396.04	585.13
396.23	540.66
396.42	482.15
396.62	498.53
396.81	423.64
397.00	634.29
397.19	826.21
397.39	931.53
397.58	976.00
397.77	1015.79
397.97	1041.54
398.16	966.64
398.35	1062.60
398.55	1071.97
398.74	1188.99
398.93	1219.42
399.12	1041.54
399.32	1118.78
399.51	1123.46
399.70	1203.04
399.90	1191.33
400.09	1153.88
400.28	1095.37
400.47	1184.31
400.67	1289.64
400.86	1198.35
401.05	1275.59
401.24	1308.36
401.44	1418.36
401.63	1289.64
401.82	1256.87
402.01	1238.14
402.21	1317.72
402.40	1369.21
402.59	1228.78
402.78	1287.29
402.97	1181.97
403.17	1266.23
403.36	1273.25
403.55	1338.79
403.74	1439.43
403.93	1296.66
404.13	1228.78
404.32	1219.42
404.51	1306.02
404.70	1268.57
404.89	1233.46
405.09	1277.93
405.28	1282.61
405.47	1270.91
405.66	1200.69
405.85	1296.66
406.05	1254.53
406.24	1158.57
406.43	1310.70
406.62	1310.70
406.81	1404.32
407.00	1256.87
407.20	1252.19
407.39	1240.48
407.58	1390.28
407.77	1380.92
407.96	1462.83
408.15	1418.36
408.34	1364.53
408.54	1483.90
408.73	1547.09
408.92	1378.58
409.11	1425.39
409.30	1401.98
409.49	1313.04
409.68	1179.63
409.87	1179.63
410.07	1327.08
410.26	1336.45
410.45	1448.79
410.64	1401.98
410.83	1547.09
411.02	1427.73
411.21	1472.20
411.40	1556.46
411.59	1537.73
411.78	1537.73
411.98	1462.83
412.17	1500.28
412.36	1523.69
412.55	1465.18
412.74	1462.83
412.93	1444.11
413.12	1425.39
413.31	1558.80
413.50	1610.29
413.69	1554.12
413.88	1540.07
414.07	1460.49
414.26	1619.65
414.45	1558.80
414.64	1462.83
414.83	1572.84
415.02	1575.18
415.22	1650.08
415.41	1621.99
415.60	1612.63
415.79	1783.49
415.98	1781.15
416.17	1729.66
416.36	1724.97
416.55	1619.65
416.74	1678.16
416.93	1591.56
417.12	1664.12
417.31	1558.80
417.50	1624.33
417.69	1746.04
417.88	1593.90
418.07	1617.31
418.26	1626.67
418.45	1610.29
418.64	1785.83
418.83	1743.70
419.02	1764.76
419.21	1753.06
419.39	1692.21
419.58	1701.57
419.77	1572.84
419.96	1605.61
420.15	1659.44
420.34	1806.89
420.53	1825.62
420.72	1795.19
420.91	1769.44
421.10	1827.96
421.29	1856.04
421.48	1813.92
421.67	1790.51
421.86	1891.15
422.05	1720.29
422.24	1504.96
422.43	1535.39
422.61	1645.40
422.80	1703.91
422.99	1701.57
423.18	1673.48
423.37	1671.14
423.56	1624.33
423.75	1741.36
423.94	1729.66
424.13	1699.23
424.32	1614.97
424.50	1701.57
424.69	1657.10
424.88	1647.74
425.07	1619.65
425.26	1717.95
425.45	1610.29
425.64	1596.25
425.83	1666.46
426.01	1724.97
426.20	1753.06
426.39	1750.72
426.58	1598.59
426.77	1577.52
426.96	1490.92
427.15	1528.37
427.33	1610.29
427.52	1605.61
427.71	1720.29
427.90	1713.27
428.09	1626.67
428.28	1598.59
428.46	1535.39
428.65	1526.03
428.84	1575.18
429.03	1523.69
429.22	1582.20
429.40	1427.73
429.59	1282.61
429.78	1277.93
429.97	1184.31
430.16	1179.63
430.34	1228.78
430.53	1188.99
430.72	1123.46
430.91	1303.68
431.10	1500.28
431.28	1764.76
431.47	1891.15
431.66	1872.43
431.85	1734.34
432.03	1603.27
432.22	1617.31
432.41	1621.99
432.60	1811.57
432.79	1802.21
432.97	1867.75
433.16	1762.42
433.35	1645.40
433.54	1603.27
433.72	1556.46
433.91	1547.09
434.10	1652.42
434.28	1729.66
434.47	1757.74
434.66	1881.79
434.85	1790.51
435.03	1865.41
435.22	2073.71
435.41	2499.69
435.59	2352.24
435.78	2221.17
435.97	2148.61
436.16	2097.12
436.34	2066.69
436.53	1874.77
436.72	1942.64
436.90	1905.20
437.09	1834.98
437.28	1762.42
437.46	1877.11
437.65	1966.05
437.84	1713.27
438.02	1614.97
438.21	1717.95
438.40	1680.50
438.58	1753.06
438.77	1909.88
438.96	1881.79
439.14	1944.99
439.33	2029.24
439.52	1987.11
439.70	1949.67
439.89	1937.96
440.08	1858.39
440.26	1928.60
440.45	1949.67
440.63	2101.80
440.82	2155.63
441.01	2097.12
441.19	2186.06
441.38	2186.06
441.57	2286.70
441.75	2289.04
441.94	2232.87
442.12	2136.91
442.31	2305.43
442.50	2251.60
442.68	2190.74
442.87	2167.34
443.05	2181.38
443.24	2200.10
443.43	2303.09
443.61	2204.78
443.80	2256.28
443.98	2111.16
444.17	2054.99
444.35	2338.20
444.54	2284.36
444.73	2223.51
444.91	2207.13
445.10	2183.72
445.28	2026.90
445.47	2050.31
445.65	2062.01
445.84	2125.21
446.02	2136.91
446.21	2246.91
446.39	2270.32
446.58	2111.16
446.77	2300.75
446.95	2223.51
447.14	2382.67
447.32	2434.16
447.51	2256.28
447.69	2305.43
447.88	2253.94
448.06	2408.41
448.25	2216.49
448.43	2172.02
448.62	2270.32
448.80	2284.36
448.99	2345.22
449.17	2246.91
449.36	2296.07
449.54	2555.86
449.73	2399.05
449.91	2473.95
450.10	2471.61
450.28	2551.18
450.46	2588.63
450.65	2518.42
450.83	2562.89
451.02	2495.01
451.20	2361.60
451.39	2590.97
451.57	2349.90
451.76	2410.75
451.94	2324.15
452.13	2335.85
452.31	2256.28
452.49	2155.63
452.68	2134.57
452.86	2225.85
453.05	2162.66
453.23	2239.89
453.42	2448.20
453.60	2387.35
453.78	2368.62
453.97	2354.58
454.15	2424.80
454.34	2342.88
454.52	2307.77
454.70	2289.04
454.89	2340.54
455.07	2349.90
455.26	2466.92
455.44	2410.75
455.62	2476.29
455.81	2548.84
455.99	2490.33
456.17	2415.43
456.36	2314.79
456.54	2572.25
456.73	2480.97
456.91	2527.78
457.09	2452.88
457.28	2806.30
457.46	2516.08
457.64	2396.71
457.83	2455.22
458.01	2410.75
458.19	2523.10
458.38	2445.86
458.56	2560.55
458.74	2476.29
458.93	2375.64
459.11	2532.46
459.29	2480.97
459.48	2525.44
459.66	2455.22
459.84	2555.86
460.03	2588.63
460.21	2434.16
460.39	2579.27
460.57	2590.97
460.76	2661.19
460.94	2548.84
461.12	2635.44
461.31	2534.80
461.49	2600.34
461.67	2593.31
461.85	2651.83
462.04	2633.10
462.22	3112.91
462.40	2663.53
462.59	2661.19
462.77	2661.19
462.95	2555.86
463.13	2485.65
463.32	2499.69
463.50	2445.86
463.68	2478.63
463.86	2530.12
464.05	2429.48
464.23	2399.05
464.41	2504.37
464.59	2443.52
464.78	2422.45
464.96	2565.23
465.14	2434.16
465.32	2490.33
465.50	2490.33
465.69	2630.76
465.87	2602.68
466.05	2628.42
466.23	2413.09
466.41	2324.15
466.60	2408.41
466.78	2377.98
466.96	2492.67
467.14	2450.54
467.32	2406.07
467.51	2574.59
467.69	2413.09
467.87	2647.15
468.05	2497.35
468.23	2532.46
468.41	2520.76
468.60	2513.74
468.78	2509.05
468.96	2499.69
469.14	2588.63
469.32	2637.78
469.50	2539.48
469.69	2401.39
469.87	2464.58
470.05	2459.90
470.23	2565.23
470.41	2469.27
470.59	2424.80
470.77	2480.97
470.95	2532.46
471.14	2546.50
471.32	2509.05
471.50	2733.75
471.68	2834.39
471.86	2726.72
472.04	2733.75
472.22	2796.94
472.40	2637.78
472.58	2569.91
472.77	2600.34
472.95	2633.10
473.13	2607.36
473.31	2729.06
473.49	2597.99
473.67	2644.81
473.85	2705.66
474.03	2703.32
474.21	2822.69
474.39	2740.77
474.57	2843.75
474.75	2825.03
474.93	2818.00
475.12	2672.89
475.30	2675.23
475.48	2677.57
475.66	2834.39
475.84	2677.57
476.02	2724.38
476.20	2675.23
476.38	2651.83
476.56	2864.82
476.74	2785.24
476.92	2839.07
477.10	2848.43
477.28	2923.33
477.46	2913.97
477.64	2883.54
477.82	2944.39
478.00	2953.76
478.18	3045.04
478.36	2932.69
478.54	2956.10
478.72	3091.85
478.90	3002.91
479.08	3040.36
479.26	3246.32
479.44	3068.44
479.62	3117.59
479.80	3101.21
479.98	3091.85
480.16	3199.51
480.34	3159.72
480.52	3262.71
480.70	3180.79
480.88	3138.66
481.06	3145.68
481.24	3321.22
481.41	3323.56
481.59	3382.07
481.77	3365.69
481.95	3330.58
482.13	3251.00
482.31	3295.47
482.49	3400.80
482.67	3295.47
482.85	3417.18
483.03	3435.91
483.21	3463.99
483.39	3492.08
483.57	3370.37
483.74	3433.57
483.92	3328.24
484.10	3452.29
484.28	3576.34
484.46	3442.93
484.64	3606.77
484.82	3581.02
485.00	3461.65
485.18	3421.86
485.35	3363.35
485.53	3115.25
485.71	2923.33
485.89	2818.00
486.07	2906.95
486.25	3208.87
486.43	3353.99
486.61	3468.67
486.78	3353.99
486.96	3286.11
487.14	3571.66
487.32	3616.13
487.50	3786.99
487.68	3899.33
487.85	3815.07
488.03	3857.20
488.21	3887.63
488.39	3737.84
488.57	3754.22
488.75	3756.56
488.92	4070.19
489.10	3943.80
489.28	4196.58
489.46	4112.32
489.64	4217.65
489.81	4252.75
489.99	4133.39
490.17	4273.82
490.35	4372.12
490.53	4227.01
490.70	4107.64
490.88	4044.45
491.06	4229.35
491.24	4187.22
491.41	4198.92
491.59	3911.04
491.77	3833.80
491.95	4044.45
492.13	4086.58
492.30	4124.02
492.48	4166.15
492.66	4241.05
492.84	4285.52
493.01	4318.29
493.19	4154.45
493.37	4273.82
493.54	4187.22
493.72	4334.67
493.90	4428.29
494.08	4517.23
494.25	4526.60
494.43	4622.56
494.61	4662.35
494.79	4617.88
494.96	4601.49
495.14	4526.60
495.32	4507.87
495.49	4456.38
495.67	4444.68
495.85	4594.47
496.02	4861.29
496.20	4711.50
496.38	4678.73
496.55	4622.56
496.73	4889.38
496.91	4655.33
497.09	4840.23
497.26	5041.51
497.44	4835.55
497.62	4770.01
497.79	4627.24
497.97	4369.78
498.14	4400.21
498.32	4561.70
498.50	4582.77
498.67	4695.11
498.85	4620.22
499.03	4837.89
499.20	4910.44
499.38	4774.69
499.56	4889.38
499.73	4975.98
499.91	4667.03
500.08	4685.75
500.26	4425.95
500.44	4428.29
500.61	4643.62
500.79	4662.35
500.97	4629.58
501.14	4423.61
501.32	4437.66
501.49	4521.92
501.67	4381.48
501.84	4557.02
502.02	4660.01
502.20	4674.05
502.37	4674.05
502.55	4699.80
502.72	4711.50
502.90	4669.37
503.07	4678.73
503.25	4620.22
503.43	4493.83
503.60	4374.46
503.78	4234.03
503.95	4353.40
504.13	4491.49
504.30	4695.11
504.48	4730.22
504.65	4844.91
504.83	4858.95
505.01	4823.84
505.18	4807.46
505.36	4957.25
505.53	4894.06
505.71	4877.68
505.88	5013.43
506.06	4938.53
506.23	4861.29
506.41	4767.67
506.58	4760.65
506.76	4807.46
506.93	4762.99
507.11	4751.29
507.28	4739.58
507.46	4575.75
507.63	4748.95
507.81	4528.94
507.98	4671.71
508.16	4671.71
508.33	4898.74
508.50	5020.45
508.68	4971.30
508.85	5174.92
509.03	5060.24
509.20	5022.79
509.38	4926.83
509.55	4894.06
509.73	4924.49
509.90	5074.28
510.08	5116.41
510.25	5032.15
510.42	4985.34
510.60	4994.70
510.77	5043.85
510.95	5151.52
511.12	5111.73
511.30	5277.91
511.47	5177.26
511.64	5313.02
511.82	5287.27
511.99	5032.15
512.17	4933.85
512.34	4844.91
512.51	4898.74
512.69	4952.57
512.86	5025.13
513.04	5046.20
513.21	5205.35
513.38	5153.86
513.56	4980.66
513.73	4793.42
513.90	4854.27
514.08	4753.63
514.25	4980.66
514.43	4898.74
514.60	4966.62
514.77	4978.32
514.95	5252.16
515.12	5107.05
515.29	5104.71
515.47	5090.67
515.64	5177.26
515.81	5111.73
515.99	5078.96
516.16	4849.59
516.33	4535.96
516.51	4311.27
516.68	4166.15
516.85	4217.65
517.03	4208.28
517.20	4334.67
517.37	4798.10
517.54	5064.92
517.72	4910.44
517.89	4751.29
518.06	4306.59
518.24	4271.48
518.41	4615.54
518.58	4954.91
518.75	4767.67
518.93	4858.95
519.10	4924.49
519.27	4805.12
519.45	4971.30
519.62	5048.54
519.79	5158.54
519.96	5043.85
520.14	5102.37
520.31	4985.34
520.48	4943.21
520.65	4849.59
520.83	5123.43
521.00	5212.37
521.17	5240.46
521.34	5212.37
521.52	5095.35
521.69	5163.22
521.86	5327.06
522.03	5249.82
522.20	4966.62
522.38	4924.49
522.55	4779.37
522.72	5053.22
522.89	5076.62
523.07	5027.47
523.24	5177.26
523.41	5130.45
523.58	5231.10
523.75	5387.91
523.92	5308.34
524.10	5210.03
524.27	5228.76
524.44	5226.42
524.61	5228.76
524.78	5200.67
524.96	5116.41
525.13	5156.20
525.30	5193.65
525.47	5341.10
525.64	5352.81
525.81	5249.82
525.98	4990.02
526.16	4723.20
526.33	4671.71
526.50	4594.47
526.67	4437.66
526.84	4395.53
527.01	4559.36
527.18	4861.29
527.36	4938.53
527.53	5219.39
527.70	5334.08
527.87	5181.95
528.04	5200.67
528.21	5132.79
528.38	5275.57
528.55	5296.63
528.72	5493.24
528.89	5610.26
529.07	5334.08
529.24	5324.72
529.41	5242.80
529.58	5060.24
529.75	5074.28
529.92	5130.45
530.09	5252.16
530.26	5343.44
530.43	5425.36
530.60	5331.74
530.77	5661.76
530.94	5493.24
531.11	5469.83
531.28	5369.19
531.46	5343.44
531.63	5219.39
531.80	5320.04
531.97	5207.69
532.14	5153.86
532.31	4847.25
532.48	4774.69
532.65	4781.71
532.82	4865.97
532.99	5018.11
533.16	5231.10
533.33	5167.90
533.50	5369.19
533.67	5137.48
533.84	5214.71
534.01	5095.35
534.18	5076.62
534.35	5247.48
534.52	5071.94
534.69	5270.89
534.86	5193.65
535.03	5177.26
535.20	5427.70
535.37	5404.30
535.54	5472.17
535.71	5273.23
535.88	5451.11
536.05	5156.20
536.22	5085.98
536.38	5235.78
536.55	5053.22
536.72	4926.83
536.89	4826.18
537.06	5022.79
537.23	5268.55
537.40	5336.42
537.57	5378.55
537.74	5277.91
537.91	5296.63
538.08	5179.61
538.25	5212.37
538.42	5172.58
538.59	5273.23
538.75	5203.01
538.92	5100.03
539.09	5109.39
539.26	5170.24
539.43	5067.26
539.60	5170.24
539.77	5151.52
539.94	5177.26
540.11	5053.22
540.28	4919.81
540.44	4992.36
540.61	4975.98
540.78	4959.60
540.95	5231.10
541.12	5261.52
541.29	5406.64
541.46	5507.28
541.62	5439.40
541.79	5383.23
541.96	5362.17
542.13	5174.92
542.30	5582.18
542.47	5413.66
542.63	5514.30
542.80	5385.57
542.97	5481.53
543.14	5397.28
543.31	5210.03
543.48	5320.04
543.64	5526.00
543.81	5579.84
543.98	5561.11
544.15	5540.05
544.32	5420.68
544.48	5320.04
544.65	5474.51
544.82	5458.13
544.99	5355.15
545.16	5441.75
545.32	5296.63
545.49	5741.33
545.66	6148.59
545.83	6246.89
546.00	5970.71
546.16	5673.46
546.33	5530.69
546.50	5399.62
546.67	5518.98
546.83	5219.39
547.00	5371.53
547.17	5149.18
547.34	5167.90
547.50	5006.41
547.67	5104.71
547.84	5123.43
548.00	5093.01
548.17	5151.52
548.34	5233.44
548.51	5252.16
548.67	5240.46
548.84	5184.29
549.01	5203.01
549.18	5172.58
549.34	5128.11
549.51	5177.26
549.68	5135.14
549.84	5083.64
550.01	5088.32
550.18	5287.27
550.34	4905.76
550.51	5071.94
550.68	5181.95
550.84	5123.43
551.01	4973.64
551.18	4943.21
551.34	4994.70
551.51	5156.20
551.68	5116.41
551.84	4978.32
552.01	5249.82
552.18	5109.39
552.34	4894.06
552.51	4908.10
552.68	4894.06
552.84	4873.00
553.01	5029.81
553.18	4936.19
553.34	5029.81
553.51	4924.49
553.67	5043.85
553.84	5125.77
554.01	5116.41
554.17	4943.21
554.34	4882.36
554.51	4966.62
554.67	4994.70
554.84	5153.86
555.00	5041.51
555.17	4961.94
555.33	4887.04
555.50	4926.83
555.67	4784.06
555.83	4777.03
556.00	4980.66
556.16	5015.77
556.33	4793.42
556.50	4685.75
556.66	4873.00
556.83	4594.47
556.99	4699.80
557.16	4751.29
557.32	4676.39
557.49	4807.46
557.65	4807.46
557.82	4868.31
557.98	4868.31
558.15	4847.25
558.32	4690.43
558.48	4620.22
558.65	4414.25
558.81	4674.05
558.98	4643.62
559.14	4603.83
559.31	4664.69
559.47	4568.73
559.64	4739.58
559.80	4667.03
559.97	4596.81
560.13	4461.06
560.30	4777.03
560.46	4781.71
560.63	4875.34
560.79	4971.30
560.96	4767.67
561.12	4582.77
561.29	4468.08
561.45	4610.86
561.61	4634.26
561.78	4713.84
561.94	4676.39
562.11	4571.07
562.27	4638.94
562.44	4535.96
562.60	4667.03
562.77	4760.65
562.93	4568.73
563.10	4837.89
563.26	4582.77
563.42	4610.86
563.59	4617.88
563.75	4540.64
563.92	4746.61
564.08	4498.51
564.24	4547.66
564.41	4667.03
564.57	4578.09
564.74	4472.76
564.90	4610.86
565.07	4596.81
565.23	4608.51
565.39	4428.29
565.56	4381.48
565.72	4344.03
565.88	4404.89
566.05	4411.91
566.21	4484.47
566.38	4372.12
566.54	4484.47
566.70	4479.79
566.87	4575.75
567.03	4542.98
567.19	4435.32
567.36	4458.72
567.52	4463.40
567.68	4344.03
567.85	4432.97
568.01	4315.95
568.17	4201.26
568.34	4149.77
568.50	4147.43
568.66	4184.88
568.83	4306.59
568.99	4191.90
569.15	4264.46
569.32	4306.59
569.48	4285.52
569.64	4168.49
569.81	4074.87
569.97	4196.58
570.13	4198.92
570.30	4152.11
570.46	4250.41
570.62	3915.72
570.78	4049.13
570.95	4011.68
571.11	4126.36
571.27	4058.49
571.43	4053.81
571.60	4128.70
571.76	4142.75
571.92	4156.79
572.09	4259.78
572.25	4266.80
572.41	4105.30
572.57	4262.12
572.74	4229.35
572.90	4159.13
573.06	4152.11
573.22	4241.05
573.38	4191.90
573.55	4138.07
573.71	4189.56
573.87	4297.22
574.03	4140.41
574.20	4070.19
574.36	4067.85
574.52	4128.70
574.68	4147.43
574.84	4098.28
575.01	4098.28
575.17	4128.70
575.33	4063.17
575.49	3990.61
575.65	4035.08
575.82	3990.61
575.98	4053.81
576.14	4152.11
576.30	4205.94
576.46	4229.35
576.62	4236.37
576.79	4224.67
576.95	4262.12
577.11	4154.45
577.27	4131.05
577.43	4074.87
577.59	4016.36
577.75	4131.05
577.92	3936.78
578.08	3918.06
578.24	3859.54
578.40	4086.58
578.56	4180.20
578.72	4121.68
578.88	4175.52
579.04	4224.67
579.21	4093.60
579.37	4042.11
579.53	3988.27
579.69	4173.18
579.85	4194.24
580.01	4189.56
580.17	4154.45
580.33	4154.45
580.49	4161.47
580.65	4168.49
580.82	4102.96
580.98	4145.09
581.14	4025.72
581.30	4114.66
581.46	4100.62
581.62	4231.69
581.78	4271.48
581.94	4114.66
582.10	4163.81
582.26	4168.49
582.42	4156.79
582.58	4374.46
582.74	4198.92
582.90	4276.16
583.06	4117.00
583.22	4149.77
583.38	4201.26
583.54	4173.18
583.70	4161.47
583.86	4227.01
584.02	4175.52
584.18	4250.41
584.34	4098.28
584.50	4131.05
584.66	4093.60
584.82	3978.91
584.98	4093.60
585.14	3927.42
585.30	4044.45
585.46	4004.66
585.62	3840.82
585.78	3929.76
585.94	3978.91
586.10	3976.57
586.26	4004.66
586.42	3929.76
586.58	3892.31
586.74	4147.43
586.90	4016.36
587.06	3925.08
587.22	3922.74
587.38	3871.25
587.54	3681.66
587.70	3885.29
587.86	3625.49
588.02	3454.63
588.18	3403.14
588.34	3356.33
588.49	3068.44
588.65	2963.12
588.81	2836.73
588.97	2848.43
589.13	2855.45
589.29	2841.41
589.45	2878.86
589.61	3042.70
589.77	3122.27
589.93	3185.47
590.08	3204.19
590.24	3300.16
590.40	3288.45
590.56	3363.35
590.72	3311.86
590.88	3218.24
591.04	3302.50
591.20	3290.79
591.35	3368.03
591.51	3218.24
591.67	3316.54
591.83	3204.19
591.99	3272.07
592.15	3349.31
592.31	3232.28
592.46	3396.12
592.62	3426.54
592.78	3503.78
592.94	3592.72
593.10	3534.21
593.26	3485.06
593.41	3550.59
593.57	3403.14
593.73	3346.97
593.89	3201.85
594.05	3180.79
594.20	3108.23
594.36	3124.62
594.52	3136.32
594.68	2949.08
594.84	3105.89
594.99	3379.73
595.15	3286.11
595.31	3463.99
595.47	3265.05
595.62	3241.64
595.78	3396.12
595.94	3471.01
596.10	3403.14
596.25	3522.51
596.41	3260.37
596.57	3337.60
596.73	3286.11
596.88	3361.01
597.04	3410.16
597.20	3466.33
597.36	3449.95
597.51	3349.31
597.67	3262.71
597.83	3407.82
597.99	3555.27
