SpectraSuite Data File
++++++++++++++++++++++++++++++++++++
Date: Fri Oct 04 11:44:13 GMT-05:00 2013
User: price-jones
Dark Spectrum Present: No
Reference Spectrum Present: No
Number of Sampled Component Spectra: 1
Spectrometers: USB2+H05261
Integration Time (usec): 100000 (USB2+H05261)
Spectra Averaged: 1 (USB2+H05261)
Boxcar Smoothing: 0 (USB2+H05261)
Correct for Electrical Dark: No (USB2+H05261)
Strobe/Lamp Enabled: No (USB2+H05261)
Correct for Detector Non-linearity: No (USB2+H05261)
Correct for Stray Light: No (USB2+H05261)
Number of Pixels in Processed Spectrum: 2048
>>>>>Begin Processed Spectral Data<<<<<
365.73	102.98
365.92	102.98
366.12	102.98
366.32	0.00
366.52	0.00
366.72	0.00
366.91	0.00
367.11	0.00
367.31	0.00
367.51	0.00
367.70	0.00
367.90	0.00
368.10	0.00
368.30	0.00
368.49	0.00
368.69	0.00
368.89	0.00
369.09	0.00
369.28	0.00
369.48	0.00
369.68	0.00
369.87	16.38
370.07	0.00
370.27	16.38
370.47	128.73
370.66	624.92
370.86	669.39
371.06	748.97
371.25	833.23
371.45	737.27
371.65	737.27
371.84	643.65
372.04	592.16
372.24	798.12
372.44	767.70
372.63	669.39
372.83	704.50
373.03	631.94
373.22	613.22
373.42	685.78
373.62	744.29
373.81	685.78
374.01	809.83
374.21	688.12
374.40	624.92
374.60	695.14
374.79	730.25
374.99	866.00
375.19	887.06
375.38	898.77
375.58	821.53
375.78	837.91
375.97	894.08
376.17	903.45
376.37	863.66
376.56	945.58
376.76	912.81
376.95	1036.86
377.15	1093.03
377.35	1090.69
377.54	1135.16
377.74	1088.35
377.93	1102.39
378.13	1067.28
378.33	1076.65
378.52	980.68
378.72	912.81
378.91	978.34
379.11	910.47
379.31	866.00
379.50	910.47
379.70	992.39
379.89	1036.86
380.09	1020.47
380.28	1076.65
380.48	1055.58
380.68	1116.44
380.87	1137.50
381.07	1025.15
381.26	992.39
381.46	875.36
381.65	894.08
381.85	866.00
382.04	758.33
382.24	770.04
382.43	737.27
382.63	732.59
382.83	777.06
383.02	767.70
383.22	758.33
383.41	732.59
383.61	800.46
383.80	1006.43
384.00	926.85
384.19	1025.15
384.39	1137.50
384.58	1046.22
384.78	1034.52
384.97	1123.46
385.17	1043.88
385.36	891.74
385.56	898.77
385.75	954.94
385.95	1083.67
386.14	1116.44
386.34	1137.50
386.53	1128.14
386.72	947.92
386.92	1128.14
387.11	1146.86
387.31	1100.05
387.50	1086.01
387.70	1029.84
387.89	1076.65
388.09	1013.45
388.28	987.71
388.48	1090.69
388.67	1100.05
388.86	1266.23
389.06	1320.06
389.25	1432.41
389.45	1343.47
389.64	1404.32
389.84	1299.00
390.03	1434.75
390.22	1420.71
390.42	1418.36
390.61	1413.68
390.81	1561.14
391.00	1671.14
391.19	1568.16
391.39	1593.90
391.58	1441.77
391.78	1378.58
391.97	1334.11
392.16	1214.74
392.36	1181.97
392.55	957.28
392.75	830.89
392.94	718.54
393.13	711.52
393.33	716.20
393.52	983.02
393.71	1177.29
393.91	1228.78
394.10	1266.23
394.29	1458.15
394.49	1584.54
394.68	1575.18
394.88	1736.68
395.07	1753.06
395.26	1689.87
395.46	1682.85
395.65	1551.78
395.84	1418.36
396.04	1198.35
396.23	987.71
396.42	891.74
396.62	898.77
396.81	968.98
397.00	1163.25
397.19	1345.81
397.39	1682.85
397.58	1961.37
397.77	1987.11
397.97	2087.76
398.16	2045.63
398.35	2078.40
398.55	2207.13
398.74	2127.55
398.93	2296.07
399.12	2183.72
399.32	2040.95
399.51	2317.13
399.70	2335.85
399.90	2190.74
400.09	2223.51
400.28	2335.85
400.47	2338.20
400.67	2476.29
400.86	2429.48
401.05	2382.67
401.24	2464.58
401.44	2511.39
401.63	2424.80
401.82	2485.65
402.01	2469.27
402.21	2443.52
402.40	2565.23
402.59	2450.54
402.78	2370.96
402.97	2265.64
403.17	2349.90
403.36	2380.32
403.55	2691.62
403.74	2640.12
403.93	2593.31
404.13	2513.74
404.32	2525.44
404.51	2644.81
404.70	2628.42
404.89	2630.76
405.09	2586.29
405.28	2541.82
405.47	2420.11
405.66	2403.73
405.85	2375.64
406.05	2389.69
406.24	2361.60
406.43	2455.22
406.62	2548.84
406.81	2693.96
407.00	2471.61
407.20	2363.94
407.39	2466.92
407.58	2544.16
407.77	2609.70
407.96	2722.04
408.15	2668.21
408.34	2726.72
408.54	2918.65
408.73	2822.69
408.92	2778.22
409.11	2654.17
409.30	2679.91
409.49	2469.27
409.68	2382.67
409.87	2392.03
410.07	2359.26
410.26	2492.67
410.45	2675.23
410.64	2951.42
410.83	2836.73
411.02	2965.46
411.21	3098.87
411.40	2923.33
411.59	2925.67
411.78	2991.20
411.98	2825.03
412.17	2970.14
412.36	2890.56
412.55	2848.43
412.74	2920.99
412.93	2806.30
413.12	2928.01
413.31	3096.53
413.50	3129.30
413.69	3190.15
413.88	3059.08
414.07	2909.29
414.26	3162.06
414.45	3094.19
414.64	3068.44
414.83	3054.40
415.02	3089.51
415.22	3148.02
415.41	3152.70
415.60	3232.28
415.79	3456.97
415.98	3351.65
416.17	3435.91
416.36	3379.73
416.55	3286.11
416.74	3276.75
416.93	3145.68
417.12	3040.36
417.31	3042.70
417.50	3148.02
417.69	3323.56
417.88	3204.19
418.07	3185.47
418.26	3229.94
418.45	3265.05
418.64	3241.64
418.83	3485.06
419.02	3396.12
419.21	3459.31
419.39	3236.96
419.58	3197.17
419.77	3164.40
419.96	3239.30
420.15	3349.31
420.34	3468.67
420.53	3524.85
420.72	3609.11
420.91	3669.96
421.10	3620.81
421.29	3536.55
421.48	3515.48
421.67	3627.83
421.86	3569.32
422.05	3276.75
422.24	2918.65
422.43	2920.99
422.61	3225.26
422.80	3515.48
422.99	3309.52
423.18	3290.79
423.37	3286.11
423.56	3391.44
423.75	3325.90
423.94	3311.86
424.13	3258.03
424.32	3243.98
424.50	3211.22
424.69	3314.20
424.88	3309.52
425.07	3290.79
425.26	3272.07
425.45	3077.80
425.64	3063.76
425.83	3159.72
426.01	3222.92
426.20	3279.09
426.39	3267.39
426.58	3157.38
426.77	2909.29
426.96	2885.88
427.15	2888.22
427.33	3129.30
427.52	3297.81
427.71	3192.49
427.90	3274.41
428.09	3199.51
428.28	3063.76
428.46	3030.99
428.65	2974.82
428.84	3063.76
429.03	3124.62
429.22	2958.44
429.40	2773.53
429.59	2581.61
429.78	2487.99
429.97	2387.35
430.16	2380.32
430.34	2417.77
430.53	2324.15
430.72	2509.05
430.91	2621.40
431.10	3012.27
431.28	3435.91
431.47	3859.54
431.66	3971.89
431.85	3426.54
432.03	3155.04
432.22	3112.91
432.41	3197.17
432.60	3557.61
432.79	3515.48
432.97	3763.58
433.16	3658.26
433.35	3328.24
433.54	3148.02
433.72	2871.84
433.91	2984.18
434.10	3267.39
434.28	3389.10
434.47	3798.69
434.66	3588.04
434.85	3576.34
435.03	3639.53
435.22	4273.82
435.41	4912.78
435.59	5195.99
435.78	4844.91
435.97	4383.82
436.16	4002.32
436.34	3983.59
436.53	3859.54
436.72	3899.33
436.90	3665.28
437.09	3641.87
437.28	3599.74
437.46	3606.77
437.65	3620.81
437.84	3496.76
438.02	3117.59
438.21	3302.50
438.40	3377.39
438.58	3618.47
438.77	3646.55
438.96	3604.42
439.14	3850.18
439.33	3929.76
439.52	3969.55
439.70	3859.54
439.89	3969.55
440.08	3737.84
440.26	3904.01
440.45	3885.29
440.63	4004.66
440.82	4159.13
441.01	4231.69
441.19	4170.83
441.38	4219.99
441.57	4301.90
441.75	4458.72
441.94	4376.80
442.12	4465.74
442.31	4458.72
442.50	4451.70
442.68	4489.15
442.87	4379.14
443.05	4109.98
443.24	4465.74
443.43	4397.87
443.61	4624.90
443.80	4580.43
443.98	4395.53
444.17	4304.25
444.35	4517.23
444.54	4514.89
444.73	4500.85
444.91	4372.12
445.10	4198.92
445.28	4138.07
445.47	4126.36
445.65	4140.41
445.84	4276.16
446.02	4315.95
446.21	4355.74
446.39	4360.42
446.58	4535.96
446.77	4456.38
446.95	4456.38
447.14	4580.43
447.32	4725.54
447.51	4610.86
447.69	4531.28
447.88	4386.16
448.06	4580.43
448.25	4521.92
448.43	4582.77
448.62	4372.12
448.80	4486.81
448.99	4561.70
449.17	4512.55
449.36	4521.92
449.54	4744.27
449.73	4774.69
449.91	4877.68
450.10	4999.38
450.28	5048.54
450.46	5015.77
450.65	5025.13
450.83	4938.53
451.02	4725.54
451.20	4835.55
451.39	4678.73
451.57	4844.91
451.76	4746.61
451.94	4688.09
452.13	4798.10
452.31	4482.13
452.49	4257.43
452.68	4283.18
452.86	4278.50
453.05	4458.72
453.23	4580.43
453.42	4634.26
453.60	4814.48
453.78	4870.65
453.97	4709.16
454.15	4603.83
454.34	4500.85
454.52	4634.26
454.70	4559.36
454.89	4601.49
455.07	4575.75
455.26	4664.69
455.44	5006.41
455.62	4901.08
455.81	4856.61
455.99	4854.27
456.17	4861.29
456.36	4734.90
456.54	4973.64
456.73	4863.63
456.91	5139.82
457.09	5144.50
457.28	5191.31
457.46	5186.63
457.64	5001.72
457.83	4798.10
458.01	4746.61
458.19	4744.27
458.38	4720.86
458.56	4987.68
458.74	5034.49
458.93	4922.15
459.11	4889.38
459.29	4896.40
459.48	4865.97
459.66	4873.00
459.84	4795.76
460.03	4922.15
460.21	4931.51
460.39	5022.79
460.57	4952.57
460.76	5195.99
460.94	5114.07
461.12	5165.56
461.31	5221.74
461.49	5022.79
461.67	4971.30
461.85	5107.05
462.04	5114.07
462.22	5610.26
462.40	5097.69
462.59	5027.47
462.77	5111.73
462.95	5348.12
463.13	5235.78
463.32	4938.53
463.50	5060.24
463.68	5041.51
463.86	4940.87
464.05	4938.53
464.23	4849.59
464.41	4994.70
464.59	4805.12
464.78	4915.12
464.96	5048.54
465.14	4929.17
465.32	4999.38
465.50	5240.46
465.69	5371.53
465.87	5128.11
466.05	5083.64
466.23	4751.29
466.41	4674.05
466.60	4690.43
466.78	4718.52
466.96	4901.08
467.14	4863.63
467.32	5111.73
467.51	4983.00
467.69	4990.02
467.87	4968.96
468.05	5032.15
468.23	5107.05
468.41	4973.64
468.60	5013.43
468.78	4896.40
468.96	5090.67
469.14	5015.77
469.32	5020.45
469.50	4784.06
469.69	4781.71
469.87	4945.55
470.05	4755.97
470.23	4826.18
470.41	5069.60
470.59	4922.15
470.77	5060.24
470.95	5074.28
471.14	5203.01
471.32	4926.83
471.50	5380.89
471.68	5380.89
471.86	5341.10
472.04	5303.65
472.22	5488.56
472.40	5193.65
472.58	5128.11
472.77	5071.94
472.95	5249.82
473.13	5317.70
473.31	5214.71
473.49	5158.54
473.67	5280.25
473.85	5289.61
474.03	5516.64
474.21	5504.94
474.39	5530.69
474.57	5448.77
474.75	5399.62
474.93	5455.79
475.12	5397.28
475.30	5542.39
475.48	5291.95
475.66	5483.88
475.84	5413.66
476.02	5366.85
476.20	5294.29
476.38	5607.92
476.56	5673.46
476.74	5528.35
476.92	5643.03
477.10	5689.84
477.28	5933.26
477.46	5872.40
477.64	6005.81
477.82	5996.45
478.00	6160.29
478.18	5877.09
478.36	5975.39
478.54	5994.11
478.72	5760.06
478.90	6080.71
479.08	6202.42
479.26	6296.04
479.44	6289.02
479.62	6195.40
479.80	6146.25
479.98	6321.79
480.16	6284.34
480.34	6415.41
480.52	6223.48
480.70	6370.94
480.88	6209.44
481.06	6520.73
481.24	6530.09
481.41	6565.20
481.59	6740.74
481.77	6600.31
481.95	6607.33
482.13	6616.69
482.31	6719.68
482.49	6817.98
482.67	6604.99
482.85	6953.73
483.03	6981.82
483.21	6848.41
483.39	6981.82
483.57	6913.94
483.74	7016.93
483.92	6820.32
484.10	6738.40
484.28	7049.69
484.46	7112.89
484.64	7286.09
484.82	7138.63
485.00	7056.72
485.18	6881.18
485.35	6602.65
485.53	6132.20
485.71	5741.33
485.89	5628.99
486.07	5846.66
486.25	6361.58
486.43	6527.75
486.61	6731.38
486.78	6832.02
486.96	6881.18
487.14	7197.15
487.32	7246.30
487.50	7454.61
487.68	7644.19
487.85	7698.02
488.03	7960.16
488.21	7611.42
488.39	7459.29
488.57	7454.61
488.75	7286.09
488.92	7812.71
489.10	7868.88
489.28	8273.79
489.46	8346.35
489.64	8336.99
489.81	8514.87
489.99	8360.39
490.17	8301.88
490.35	8489.12
490.53	8458.70
490.70	8234.00
490.88	8271.45
491.06	8557.00
491.24	8505.51
491.41	8217.62
491.59	7964.84
491.77	7524.82
491.95	7854.84
492.13	8170.81
492.30	8545.30
492.48	8734.88
492.66	8879.99
492.84	8851.91
493.01	8931.48
493.19	8842.54
493.37	8746.58
493.54	8592.11
493.72	8580.40
493.90	8589.77
494.08	9207.67
494.25	9207.67
494.43	9270.86
494.61	9528.32
494.79	9383.21
494.96	9423.00
495.14	9270.86
495.32	8887.01
495.49	8769.99
495.67	8954.89
495.85	9399.59
496.02	9635.99
496.20	9446.40
496.38	9462.79
496.55	9362.14
496.73	9673.43
496.91	9371.50
497.09	9502.58
497.26	9935.57
497.44	9687.48
497.62	9343.42
497.79	9165.54
497.97	8889.35
498.14	8898.72
498.32	9022.77
498.50	9467.47
498.67	9584.49
498.85	9401.93
499.03	9626.62
499.20	9678.12
499.38	9706.20
499.56	9699.18
499.73	9680.46
499.91	9228.73
500.08	9394.91
500.26	8980.64
500.44	8861.27
500.61	9320.01
500.79	9263.84
500.97	9184.26
501.14	8950.21
501.32	9130.43
501.49	8723.18
501.67	8868.29
501.84	9184.26
502.02	9348.10
502.20	9533.00
502.37	9406.61
502.55	9408.95
502.72	9448.74
502.90	9621.94
503.07	9469.81
503.25	9654.71
503.43	8805.10
503.60	8564.02
503.78	8329.97
503.95	8594.45
504.13	9036.81
504.30	9427.68
504.48	9544.70
504.65	9387.89
504.83	9643.01
505.01	9830.25
505.18	9659.39
505.36	9820.89
505.53	9893.44
505.71	10066.64
505.88	10354.53
506.06	9923.87
506.23	9748.33
506.41	9523.64
506.58	9570.45
506.76	9804.50
506.93	9961.32
507.11	9558.75
507.28	9359.80
507.46	9446.40
507.63	9387.89
507.81	9413.63
507.98	9329.38
508.16	9734.29
508.33	9614.92
508.50	9863.02
508.68	9919.19
508.85	10260.91
509.03	10207.08
509.20	10022.17
509.38	10015.15
509.55	9582.15
509.73	9713.22
509.90	9914.51
510.08	9984.73
510.25	9937.91
510.42	9944.94
510.60	10094.73
510.77	10146.22
510.95	10146.22
511.12	10200.05
511.30	10401.34
511.47	10647.10
511.64	10457.51
511.82	10349.85
511.99	10354.53
512.17	10066.64
512.34	9769.40
512.51	10087.71
512.69	9863.02
512.86	9942.60
513.04	10010.47
513.21	10228.14
513.38	9900.47
513.56	9736.63
513.73	9530.66
513.90	9685.14
514.08	9729.61
514.25	9753.01
514.43	9795.14
514.60	9961.32
514.77	10136.86
514.95	10087.71
515.12	9832.59
515.29	9998.77
515.47	10293.68
515.64	10466.88
515.81	10265.59
515.99	10029.20
516.16	9577.47
516.33	8964.25
516.51	8334.65
516.68	8294.86
516.85	8201.24
517.03	8212.94
517.20	8905.74
517.37	9535.34
517.54	9879.40
517.72	9652.37
517.89	9050.85
518.06	8472.74
518.24	8463.38
518.41	9149.15
518.58	9418.32
518.75	9612.58
518.93	9701.52
519.10	9554.07
519.27	9729.61
519.45	9912.17
519.62	10052.60
519.79	10249.21
519.96	10106.43
520.14	10195.37
520.31	9898.13
520.48	9741.31
520.65	9846.63
520.83	10050.26
521.00	10181.33
521.17	10342.83
521.34	10139.20
521.52	9867.70
521.69	10464.54
521.86	10712.63
522.03	10370.91
522.20	10033.88
522.38	9884.08
522.55	9586.83
522.72	9909.83
522.89	9848.97
523.07	9912.17
523.24	10040.90
523.41	10310.06
523.58	10391.98
523.75	10546.45
523.92	10291.34
524.10	10607.31
524.27	10548.79
524.44	10490.28
524.61	10452.83
524.78	10228.14
524.96	10366.23
525.13	10361.55
525.30	10221.12
525.47	10583.90
525.64	10703.27
525.81	10260.91
525.98	9692.16
526.16	9193.62
526.33	9022.77
526.50	8863.61
526.67	8725.52
526.84	8992.34
527.01	9441.72
527.18	9521.30
527.36	9933.23
527.53	10274.95
527.70	10249.21
527.87	10108.77
528.04	9961.32
528.21	10066.64
528.38	10326.44
528.55	10593.26
528.72	10801.57
528.89	10836.68
529.07	10801.57
529.24	10581.56
529.41	10214.10
529.58	9738.97
529.75	10003.45
529.92	10289.00
530.09	10349.85
530.26	10483.26
530.43	10607.31
530.60	10656.46
530.77	10691.57
530.94	10595.61
531.11	10740.72
531.28	10485.60
531.46	10445.81
531.63	10452.83
531.80	10506.66
531.97	10242.18
532.14	10024.51
532.31	9675.77
532.48	9376.19
532.65	9441.72
532.82	9612.58
532.99	10120.48
533.16	10342.83
533.33	10345.17
533.50	10548.79
533.67	10218.78
533.84	9919.19
534.01	9968.34
534.18	10171.97
534.35	10132.18
534.52	10209.42
534.69	10242.18
534.86	10621.35
535.03	10469.22
535.20	10450.49
535.37	10693.91
535.54	10937.32
535.71	10902.22
535.88	10768.80
536.05	10284.31
536.22	10331.12
536.38	10274.95
536.55	10113.45
536.72	9823.23
536.89	9607.90
537.06	9991.75
537.23	10186.01
537.40	10377.94
537.57	10436.45
537.74	10438.79
537.91	10665.82
538.08	10527.73
538.25	10466.88
538.42	10408.36
538.59	10441.13
538.75	10384.96
538.92	10202.40
539.09	10087.71
539.26	10139.20
539.43	10153.24
539.60	9970.68
539.77	10146.22
539.94	10347.51
540.11	9895.78
540.28	9851.31
540.44	9659.39
540.61	9893.44
540.78	9867.70
540.95	10499.64
541.12	10651.78
541.29	10778.17
541.46	11140.95
541.62	11201.80
541.79	11229.89
541.96	10771.15
542.13	10576.88
542.30	10890.51
542.47	10801.57
542.63	10843.70
542.80	10544.11
542.97	10647.10
543.14	10363.89
543.31	10614.33
543.48	10574.54
543.64	10949.03
543.81	11084.78
543.98	10951.37
544.15	11054.35
544.32	10661.14
544.48	10789.87
544.65	10682.20
544.82	10738.38
544.99	10958.39
545.16	10724.33
545.32	10595.61
545.49	11625.44
545.66	12816.77
545.83	13322.33
546.00	12798.05
546.16	11747.15
546.33	11201.80
546.50	10796.89
546.67	10733.70
546.83	10506.66
547.00	10431.77
547.17	10445.81
547.34	10202.40
547.50	10174.31
547.67	10162.61
547.84	9984.73
548.00	10312.40
548.17	10466.88
548.34	10164.95
548.51	10338.15
548.67	10293.68
548.84	10263.25
549.01	10420.06
549.18	10209.42
549.34	9914.51
549.51	10237.50
549.68	10281.97
549.84	10281.97
550.01	9884.08
550.18	10157.92
550.34	10090.05
550.51	9963.66
550.68	10188.35
550.84	9816.21
551.01	9846.63
551.18	9863.02
551.34	9863.02
551.51	9966.00
551.68	10076.01
551.84	9961.32
552.01	10087.71
552.18	10136.86
552.34	9916.85
552.51	9867.70
552.68	9451.08
552.84	9750.67
553.01	9603.22
553.18	9633.64
553.34	9844.29
553.51	9841.95
553.67	9860.68
553.84	10010.47
554.01	9958.98
554.17	9645.35
554.34	9970.68
554.51	9699.18
554.67	10001.11
554.84	9907.49
555.00	9748.33
555.17	9795.14
555.33	9785.78
555.50	9834.93
555.67	9788.12
555.83	9570.45
556.00	9355.12
556.16	9572.79
556.33	9720.24
556.50	9514.28
556.66	9392.57
556.83	9277.88
556.99	9364.48
557.16	9348.10
557.32	9444.06
557.49	9334.06
557.65	9322.35
557.82	9411.29
557.98	9385.55
558.15	9315.33
558.32	9261.50
558.48	8795.73
558.65	8889.35
558.81	8985.32
558.98	9039.15
559.14	9104.68
559.31	9085.96
559.47	9266.18
559.64	9048.51
559.80	8868.29
559.97	8994.68
560.13	9043.83
560.30	9205.33
560.46	9458.10
560.63	9544.70
560.79	9547.05
560.96	9348.10
561.12	9291.93
561.29	8854.25
561.45	8690.41
561.61	9212.35
561.78	9174.90
561.94	9275.54
562.11	9067.24
562.27	9001.70
562.44	9006.38
562.60	9156.18
562.77	9214.69
562.93	9287.25
563.10	9397.25
563.26	8905.74
563.42	9116.39
563.59	9071.92
563.75	9041.49
563.92	9032.13
564.08	8865.95
564.24	9067.24
564.41	9142.13
564.57	9053.19
564.74	8915.10
564.90	9015.74
565.07	9097.66
565.23	9132.77
565.39	8872.97
565.56	8711.47
565.72	8322.94
565.88	8613.17
566.05	8517.21
566.21	8732.54
566.38	8638.92
566.54	8788.71
566.70	8781.69
566.87	8884.67
567.03	8807.44
567.19	8772.33
567.36	8863.61
567.52	8786.37
567.68	8690.41
567.85	8489.12
568.01	8374.44
568.17	8152.09
568.34	8109.96
568.50	8191.88
568.66	7943.78
568.83	8201.24
568.99	8063.15
569.15	8255.07
569.32	8409.54
569.48	8060.80
569.64	8189.53
569.81	7943.78
569.97	8063.15
570.13	8278.47
570.30	8156.77
570.46	8149.75
570.62	7976.55
570.78	7758.88
570.95	7803.35
571.11	8042.08
571.27	7976.55
571.43	8077.19
571.60	8184.85
571.76	8013.99
571.92	8131.02
572.09	8231.66
572.25	8463.38
572.41	8070.17
572.57	8299.54
572.74	8311.24
572.90	8198.90
573.06	8280.82
573.22	8215.28
573.38	8278.47
573.55	8224.64
573.71	8336.99
573.87	8341.67
574.03	8077.19
574.20	7962.50
574.36	8039.74
574.52	7836.11
574.68	8053.78
574.84	8004.63
575.01	7843.14
575.17	7791.64
575.33	7707.38
575.49	7882.92
575.65	7801.01
575.82	7981.23
575.98	7840.79
576.14	7925.05
576.30	8147.40
576.46	8444.65
576.62	8423.59
576.79	8580.40
576.95	8271.45
577.11	7946.12
577.27	7981.23
577.43	8105.28
577.59	7929.74
577.75	7990.59
577.92	7751.85
578.08	7653.55
578.24	7426.52
578.40	7728.45
578.56	8091.23
578.72	8245.71
578.88	8578.06
579.04	8393.16
579.21	8210.60
579.37	8248.05
579.53	8039.74
579.69	8035.06
579.85	8248.05
580.01	8189.53
580.17	8067.83
580.33	8021.02
580.49	8119.32
580.65	8042.08
580.82	8013.99
580.98	8208.26
581.14	8088.89
581.30	8262.09
581.46	7812.71
581.62	8161.45
581.78	7981.23
581.94	8322.94
582.10	8173.15
582.26	8236.35
582.42	8273.79
582.58	8423.59
582.74	8009.31
582.90	7981.23
583.06	8238.69
583.22	8039.74
583.38	8166.13
583.54	7971.86
583.70	8100.59
583.86	8238.69
584.02	8011.65
584.18	8229.32
584.34	8194.22
584.50	8196.56
584.66	8175.49
584.82	8009.31
584.98	7941.44
585.14	7992.93
585.30	7618.44
585.46	7875.90
585.62	7648.87
585.78	7639.51
585.94	7606.74
586.10	7702.70
586.26	7777.60
586.42	7786.96
586.58	7960.16
586.74	7791.64
586.90	8016.33
587.06	7726.11
587.22	7838.45
587.38	7808.03
587.54	7588.02
587.70	7360.98
587.86	7094.16
588.02	6722.02
588.18	6651.80
588.34	6436.47
588.49	5898.15
588.65	5533.03
588.81	5664.10
588.97	5612.60
589.13	5591.54
589.29	5636.01
589.45	5488.56
589.61	5746.02
589.77	5977.73
589.93	6141.57
590.08	6513.71
590.24	6373.28
590.40	6349.87
590.56	6562.86
590.72	6525.41
590.88	6516.05
591.04	6480.94
591.20	6511.37
591.35	6347.53
591.51	6160.29
591.67	6176.67
591.83	6375.62
591.99	6389.66
592.15	6384.98
592.31	6513.71
592.46	6640.10
592.62	6801.60
592.78	6881.18
592.94	6881.18
593.10	6672.87
593.26	6832.02
593.41	7056.72
593.57	6890.54
593.73	6649.46
593.89	6270.30
594.05	6183.70
594.20	6059.65
594.36	5888.79
594.52	5764.74
594.68	6113.48
594.84	6143.91
594.99	6483.28
595.15	6583.93
595.31	6607.33
