SpectraSuite Data File
++++++++++++++++++++++++++++++++++++
Date: Fri Oct 04 11:44:20 GMT-05:00 2013
User: price-jones
Dark Spectrum Present: No
Reference Spectrum Present: No
Number of Sampled Component Spectra: 1
Spectrometers: USB2+H05261
Integration Time (usec): 100000 (USB2+H05261)
Spectra Averaged: 1 (USB2+H05261)
Boxcar Smoothing: 0 (USB2+H05261)
Correct for Electrical Dark: No (USB2+H05261)
Strobe/Lamp Enabled: No (USB2+H05261)
Correct for Detector Non-linearity: No (USB2+H05261)
Correct for Stray Light: No (USB2+H05261)
Number of Pixels in Processed Spectrum: 2048
>>>>>Begin Processed Spectral Data<<<<<
365.73	9.36
365.92	9.36
366.12	9.36
366.32	0.00
366.52	0.00
366.72	0.00
366.91	0.00
367.11	0.00
367.31	0.00
367.51	0.00
367.70	0.00
367.90	0.00
368.10	0.00
368.30	0.00
368.49	0.00
368.69	0.00
368.89	0.00
369.09	0.00
369.28	0.00
369.48	0.00
369.68	0.00
369.87	0.00
370.07	21.06
370.27	9.36
370.47	119.37
370.66	287.89
370.86	262.14
371.06	327.68
371.25	418.96
371.45	311.29
371.65	409.59
371.84	238.73
372.04	257.46
372.24	362.78
372.44	390.87
372.63	440.02
372.83	482.15
373.03	304.27
373.22	290.23
373.42	285.55
373.62	341.72
373.81	358.10
374.01	433.00
374.21	442.36
374.40	353.42
374.60	468.11
374.79	355.76
374.99	416.62
375.19	458.74
375.38	454.06
375.58	442.36
375.78	533.64
375.97	475.13
376.17	447.04
376.37	449.38
376.56	451.72
376.76	435.34
376.95	491.51
377.15	557.05
377.35	636.63
377.54	580.45
377.74	519.60
377.93	629.60
378.13	524.28
378.33	603.86
378.52	454.06
378.72	524.28
378.91	470.45
379.11	489.17
379.31	411.93
379.50	414.27
379.70	470.45
379.89	510.24
380.09	573.43
380.28	547.69
380.48	519.60
380.68	540.66
380.87	568.75
381.07	528.96
381.26	601.52
381.46	531.30
381.65	442.36
381.85	482.15
382.04	470.45
382.24	421.30
382.43	404.91
382.63	367.46
382.83	353.42
383.02	449.38
383.22	482.15
383.41	299.59
383.61	435.34
383.80	472.79
384.00	428.32
384.19	517.26
384.39	514.92
384.58	475.13
384.78	493.85
384.97	510.24
385.17	514.92
385.36	533.64
385.56	454.06
385.75	404.91
385.95	573.43
386.14	557.05
386.34	477.47
386.53	517.26
386.72	433.00
386.92	507.90
387.11	496.19
387.31	507.90
387.50	528.96
387.70	510.24
387.89	514.92
388.09	524.28
388.28	531.30
388.48	559.39
388.67	571.09
388.86	566.41
389.06	573.43
389.25	627.26
389.45	653.01
389.64	692.80
389.84	697.48
390.03	636.63
390.22	704.50
390.42	624.92
390.61	716.20
390.81	695.14
391.00	748.97
391.19	791.10
391.39	641.31
391.58	755.99
391.78	678.76
391.97	727.91
392.16	568.75
392.36	564.07
392.55	496.19
392.75	400.23
392.94	320.65
393.13	379.17
393.33	416.62
393.52	479.81
393.71	599.18
393.91	671.73
394.10	641.31
394.29	650.67
394.49	795.78
394.68	800.46
394.88	781.74
395.07	873.02
395.26	791.10
395.46	784.08
395.65	791.10
395.84	746.63
396.04	669.39
396.23	538.32
396.42	435.34
396.62	416.62
396.81	484.49
397.00	589.82
397.19	744.29
397.39	816.85
397.58	919.83
397.77	884.72
397.97	908.13
398.16	947.92
398.35	997.07
398.55	1008.77
398.74	1121.12
398.93	1153.88
399.12	999.41
399.32	954.94
399.51	1050.90
399.70	1062.60
399.90	1078.99
400.09	1090.69
400.28	1050.90
400.47	1034.52
400.67	1174.95
400.86	1191.33
401.05	1179.63
401.24	1205.38
401.44	1170.27
401.63	1233.46
401.82	1156.22
402.01	1207.72
402.21	1219.42
402.40	1270.91
402.59	1083.67
402.78	1032.18
402.97	1174.95
403.17	1231.12
403.36	1235.80
403.55	1160.91
403.74	1231.12
403.93	1205.38
404.13	1219.42
404.32	1069.62
404.51	1160.91
404.70	1284.95
404.89	1240.48
405.09	1210.06
405.28	1139.84
405.47	1144.52
405.66	1107.07
405.85	1118.78
406.05	1118.78
406.24	1088.35
406.43	1167.93
406.62	1188.99
406.81	1252.19
407.00	1109.41
407.20	1165.59
407.39	1186.65
407.58	1245.16
407.77	1322.40
407.96	1221.76
408.15	1338.79
408.34	1284.95
408.54	1409.00
408.73	1254.53
408.92	1240.48
409.11	1334.11
409.30	1242.82
409.49	1137.50
409.68	1118.78
409.87	1137.50
410.07	1167.93
410.26	1259.21
410.45	1226.44
410.64	1306.02
410.83	1329.42
411.02	1390.28
411.21	1413.68
411.40	1430.07
411.59	1476.88
411.78	1397.30
411.98	1350.49
412.17	1327.08
412.36	1336.45
412.55	1409.00
412.74	1348.15
412.93	1277.93
413.12	1291.98
413.31	1540.07
413.50	1519.01
413.69	1458.15
413.88	1509.65
414.07	1451.13
414.26	1453.47
414.45	1493.26
414.64	1542.41
414.83	1530.71
415.02	1511.99
415.22	1472.20
415.41	1572.84
415.60	1502.62
415.79	1490.92
415.98	1671.14
416.17	1629.01
416.36	1614.97
416.55	1413.68
416.74	1453.47
416.93	1448.79
417.12	1516.67
417.31	1406.66
417.50	1467.52
417.69	1612.63
417.88	1547.09
418.07	1568.16
418.26	1565.82
418.45	1556.46
418.64	1638.38
418.83	1570.50
419.02	1544.75
419.21	1682.85
419.39	1521.35
419.58	1406.66
419.77	1467.52
419.96	1497.94
420.15	1647.74
420.34	1643.06
420.53	1640.72
420.72	1802.21
420.91	1692.21
421.10	1640.72
421.29	1640.72
421.48	1565.82
421.67	1650.08
421.86	1629.01
422.05	1570.50
422.24	1455.81
422.43	1448.79
422.61	1481.56
422.80	1633.69
422.99	1575.18
423.18	1582.20
423.37	1521.35
423.56	1572.84
423.75	1549.43
423.94	1593.90
424.13	1614.97
424.32	1521.35
424.50	1528.37
424.69	1432.41
424.88	1551.78
425.07	1511.99
425.26	1565.82
425.45	1467.52
425.64	1446.45
425.83	1462.83
426.01	1605.61
426.20	1568.16
426.39	1528.37
426.58	1558.80
426.77	1366.87
426.96	1425.39
427.15	1364.53
427.33	1434.75
427.52	1474.54
427.71	1570.50
427.90	1544.75
428.09	1547.09
428.28	1401.98
428.46	1465.18
428.65	1472.20
428.84	1495.60
429.03	1500.28
429.22	1488.58
429.40	1256.87
429.59	1160.91
429.78	1151.54
429.97	1090.69
430.16	1144.52
430.34	1160.91
430.53	1137.50
430.72	1160.91
430.91	1214.74
431.10	1352.83
431.28	1577.52
431.47	1781.15
431.66	1633.69
431.85	1703.91
432.03	1507.30
432.22	1617.31
432.41	1486.24
432.60	1687.53
432.79	1680.50
432.97	1760.08
433.16	1699.23
433.35	1451.13
433.54	1509.65
433.72	1411.34
433.91	1509.65
434.10	1446.45
434.28	1638.38
434.47	1659.44
434.66	1696.89
434.85	1706.25
435.03	1703.91
435.22	1954.35
435.41	2186.06
435.59	2193.08
435.78	2141.59
435.97	1980.09
436.16	1879.45
436.34	1874.77
436.53	1771.79
436.72	1781.15
436.90	1729.66
437.09	1729.66
437.28	1703.91
437.46	1834.98
437.65	1774.13
437.84	1729.66
438.02	1605.61
438.21	1483.90
438.40	1490.92
438.58	1640.72
438.77	1781.15
438.96	1811.57
439.14	1813.92
439.33	1933.28
439.52	1937.96
439.70	1919.24
439.89	1804.55
440.08	1806.89
440.26	1795.19
440.45	1846.68
440.63	2040.95
440.82	1940.30
441.01	2017.54
441.19	1916.90
441.38	1977.75
441.57	2003.50
441.75	2036.27
441.94	2141.59
442.12	1980.09
442.31	2040.95
442.50	2022.22
442.68	2062.01
442.87	2040.95
443.05	2136.91
443.24	2080.74
443.43	2085.42
443.61	2197.76
443.80	2097.12
443.98	2040.95
444.17	1987.11
444.35	2176.70
444.54	2111.16
444.73	2188.40
444.91	2129.89
445.10	2003.50
445.28	1949.67
445.47	1806.89
445.65	1970.73
445.84	1956.69
446.02	2017.54
446.21	2097.12
446.39	2012.86
446.58	2104.14
446.77	2125.21
446.95	2036.27
447.14	2127.55
447.32	2186.06
447.51	2193.08
447.69	2080.74
447.88	2047.97
448.06	2057.33
448.25	2204.78
448.43	2232.87
448.62	2176.70
448.80	2115.84
448.99	2073.71
449.17	2188.40
449.36	2097.12
449.54	2242.23
449.73	2083.08
449.91	2209.47
450.10	2275.00
450.28	2328.83
450.46	2361.60
450.65	2389.69
450.83	2277.34
451.02	2251.60
451.20	2291.38
451.39	2291.38
451.57	2134.57
451.76	2204.78
451.94	2157.97
452.13	2260.96
452.31	2129.89
452.49	2017.54
452.68	2172.02
452.86	2085.42
453.05	2111.16
453.23	1984.77
453.42	2087.76
453.60	2174.36
453.78	2235.21
453.97	2174.36
454.15	2179.04
454.34	2225.85
454.52	2214.15
454.70	2209.47
454.89	2153.29
455.07	2200.10
455.26	2263.30
455.44	2282.02
455.62	2232.87
455.81	2363.94
455.99	2399.05
456.17	2366.28
456.36	2218.83
456.54	2333.51
456.73	2228.19
456.91	2338.20
457.09	2366.28
457.28	2370.96
457.46	2382.67
457.64	2312.45
457.83	2230.53
458.01	2239.89
458.19	2232.87
458.38	2251.60
458.56	2340.54
458.74	2340.54
458.93	2263.30
459.11	2223.51
459.29	2321.81
459.48	2282.02
459.66	2244.57
459.84	2260.96
460.03	2377.98
460.21	2408.41
460.39	2366.28
460.57	2223.51
460.76	2464.58
460.94	2363.94
461.12	2354.58
461.31	2253.94
461.49	2310.11
461.67	2249.25
461.85	2487.99
462.04	2406.07
462.22	2925.67
462.40	2502.03
462.59	2551.18
462.77	2417.77
462.95	2335.85
463.13	2305.43
463.32	2518.42
463.50	2317.13
463.68	2352.24
463.86	2377.98
464.05	2347.56
464.23	2277.34
464.41	2289.04
464.59	2225.85
464.78	2396.71
464.96	2277.34
465.14	2396.71
465.32	2172.02
465.50	2293.72
465.69	2368.62
465.87	2279.68
466.05	2420.11
466.23	2155.63
466.41	2186.06
466.60	2214.15
466.78	2190.74
466.96	2265.64
467.14	2267.98
467.32	2373.30
467.51	2321.81
467.69	2331.17
467.87	2338.20
468.05	2326.49
468.23	2392.03
468.41	2303.09
468.60	2326.49
468.78	2373.30
468.96	2394.37
469.14	2361.60
469.32	2291.38
469.50	2239.89
469.69	2328.83
469.87	2279.68
470.05	2242.23
470.23	2249.25
470.41	2319.47
470.59	2303.09
470.77	2312.45
470.95	2319.47
471.14	2438.84
471.32	2328.83
471.50	2492.67
471.68	2478.63
471.86	2483.31
472.04	2452.88
472.22	2551.18
472.40	2415.43
472.58	2401.39
472.77	2396.71
472.95	2396.71
473.13	2495.01
473.31	2401.39
473.49	2377.98
473.67	2487.99
473.85	2441.18
474.03	2562.89
474.21	2595.65
474.39	2574.59
474.57	2708.00
474.75	2532.46
474.93	2546.50
475.12	2583.95
475.30	2668.21
475.48	2511.39
475.66	2691.62
475.84	2485.65
476.02	2555.86
476.20	2516.08
476.38	2431.82
476.56	2672.89
476.74	2588.63
476.92	2612.04
477.10	2693.96
477.28	2726.72
477.46	2689.28
477.64	2759.49
477.82	2766.51
478.00	2796.94
478.18	2710.34
478.36	2768.85
478.54	2796.94
478.72	2754.81
478.90	2892.90
479.08	2860.13
479.26	2874.18
479.44	2829.71
479.62	2916.31
479.80	2881.20
479.98	2848.43
480.16	2897.58
480.34	3038.02
480.52	3138.66
480.70	2911.63
480.88	2993.55
481.06	3054.40
481.24	3002.91
481.41	3038.02
481.59	3084.83
481.77	3152.70
481.95	3124.62
482.13	3056.74
482.31	3110.57
482.49	3187.81
482.67	3145.68
482.85	3227.60
483.03	3145.68
483.21	3105.89
483.39	3215.90
483.57	3180.79
483.74	3082.49
483.92	3190.15
484.10	3178.45
484.28	3290.79
484.46	3384.41
484.64	3370.37
484.82	3131.64
485.00	3220.58
485.18	3117.59
485.35	3049.72
485.53	2913.97
485.71	2813.32
485.89	2607.36
486.07	2670.55
486.25	2853.11
486.43	3169.09
486.61	3108.23
486.78	3194.83
486.96	3066.10
487.14	3243.98
487.32	3361.01
487.50	3353.99
487.68	3471.01
487.85	3588.04
488.03	3604.42
488.21	3534.21
488.39	3405.48
488.57	3452.29
488.75	3419.52
488.92	3754.22
489.10	3693.37
489.28	3847.84
489.46	3889.97
489.64	3932.10
489.81	3852.52
489.99	3829.12
490.17	3920.40
490.35	4058.49
490.53	3889.97
490.70	3803.37
490.88	3861.88
491.06	3894.65
491.24	4060.83
491.41	3838.48
491.59	3726.13
491.77	3475.70
491.95	3709.75
492.13	3707.41
492.30	3871.25
492.48	3992.95
492.66	4004.66
492.84	4063.17
493.01	4182.54
493.19	3880.61
493.37	3915.72
493.54	4004.66
493.72	3988.27
493.90	4100.62
494.08	4334.67
494.25	4283.18
494.43	4334.67
494.61	4259.78
494.79	4447.02
494.96	4329.99
495.14	4315.95
495.32	4060.83
495.49	4175.52
495.67	4177.86
495.85	4308.93
496.02	4475.10
496.20	4514.89
496.38	4283.18
496.55	4280.84
496.73	4397.87
496.91	4269.14
497.09	4367.44
497.26	4503.19
497.44	4381.48
497.62	4266.80
497.79	4276.16
497.97	4119.34
498.14	3992.95
498.32	4189.56
498.50	4400.21
498.67	4374.46
498.85	4428.29
499.03	4475.10
499.20	4306.59
499.38	4383.82
499.56	4498.51
499.73	4430.63
499.91	4252.75
500.08	4386.16
500.26	4161.47
500.44	4196.58
500.61	4339.35
500.79	4339.35
500.97	4161.47
501.14	4229.35
501.32	4231.69
501.49	4327.65
501.67	4304.25
501.84	4313.61
502.02	4332.33
502.20	4224.67
502.37	4444.68
502.55	4397.87
502.72	4365.10
502.90	4615.54
503.07	4332.33
503.25	4241.05
503.43	4161.47
503.60	4159.13
503.78	4011.68
503.95	3974.23
504.13	4131.05
504.30	4397.87
504.48	4517.23
504.65	4372.12
504.83	4428.29
505.01	4603.83
505.18	4531.28
505.36	4395.53
505.53	4580.43
505.71	4727.88
505.88	4725.54
506.06	4601.49
506.23	4526.60
506.41	4358.08
506.58	4554.68
506.76	4376.80
506.93	4425.95
507.11	4484.47
507.28	4589.79
507.46	4360.42
507.63	4315.95
507.81	4332.33
507.98	4304.25
508.16	4493.83
508.33	4503.19
508.50	4599.15
508.68	4709.16
508.85	4629.58
509.03	4660.01
509.20	4805.12
509.38	4784.06
509.55	4535.96
509.73	4531.28
509.90	4636.60
510.08	4620.22
510.25	4652.98
510.42	4732.56
510.60	4641.28
510.77	4690.43
510.95	4681.07
511.12	4664.69
511.30	4849.59
511.47	4887.04
511.64	4873.00
511.82	4692.77
511.99	4826.18
512.17	4631.92
512.34	4627.24
512.51	4720.86
512.69	4774.69
512.86	4608.51
513.04	4788.74
513.21	4865.97
513.38	4681.07
513.56	4636.60
513.73	4414.25
513.90	4519.57
514.08	4470.42
514.25	4622.56
514.43	4634.26
514.60	4613.20
514.77	4748.95
514.95	4620.22
515.12	4596.81
515.29	4674.05
515.47	4681.07
515.64	4844.91
515.81	4770.01
515.99	4538.30
516.16	4477.44
516.33	4210.62
516.51	3990.61
516.68	3889.97
516.85	3798.69
517.03	3829.12
517.20	4117.00
517.37	4440.00
517.54	4606.17
517.72	4580.43
517.89	4329.99
518.06	3974.23
518.24	3892.31
518.41	4358.08
518.58	4414.25
518.75	4468.08
518.93	4449.36
519.10	4552.34
519.27	4526.60
519.45	4589.79
519.62	4652.98
519.79	4720.86
519.96	4730.22
520.14	4629.58
520.31	4472.76
520.48	4620.22
520.65	4608.51
520.83	4589.79
521.00	4610.86
521.17	4741.93
521.34	4791.08
521.52	4779.37
521.69	4800.44
521.86	4891.72
522.03	4791.08
522.20	4870.65
522.38	4655.33
522.55	4440.00
522.72	4564.04
522.89	4795.76
523.07	4573.41
523.24	4610.86
523.41	4847.25
523.58	4774.69
523.75	4936.19
523.92	4931.51
524.10	4966.62
524.27	4802.78
524.44	4952.57
524.61	4964.28
524.78	4812.14
524.96	4744.27
525.13	4784.06
525.30	4910.44
525.47	4954.91
525.64	4795.76
525.81	4767.67
525.98	4538.30
526.16	4297.22
526.33	4217.65
526.50	4184.88
526.67	4159.13
526.84	4290.20
527.01	4390.84
527.18	4489.15
527.36	4613.20
527.53	4795.76
527.70	4922.15
527.87	4741.93
528.04	4788.74
528.21	4737.24
528.38	4875.34
528.55	5085.98
528.72	5109.39
528.89	5172.58
529.07	5160.88
529.24	4980.66
529.41	4936.19
529.58	4802.78
529.75	4805.12
529.92	4699.80
530.09	4765.33
530.26	5050.88
530.43	4987.68
530.60	4835.55
530.77	4809.80
530.94	5097.69
531.11	4999.38
531.28	5006.41
531.46	4830.87
531.63	4896.40
531.80	4891.72
531.97	4896.40
532.14	4889.38
532.31	4503.19
532.48	4418.93
532.65	4568.73
532.82	4655.33
532.99	4732.56
533.16	4847.25
533.33	5020.45
533.50	4903.42
533.67	4718.52
533.84	4681.07
534.01	4819.16
534.18	4744.27
534.35	4933.85
534.52	4875.34
534.69	4947.89
534.86	4994.70
535.03	4830.87
535.20	5018.11
535.37	5102.37
535.54	5100.03
535.71	5224.08
535.88	5006.41
536.05	5093.01
536.22	4947.89
536.38	4819.16
536.55	4823.84
536.72	4725.54
536.89	4599.15
537.06	4751.29
537.23	4947.89
537.40	4936.19
537.57	4943.21
537.74	4912.78
537.91	4873.00
538.08	4826.18
538.25	4985.34
538.42	4898.74
538.59	4983.00
538.75	4922.15
538.92	4821.50
539.09	4828.53
539.26	4732.56
539.43	4770.01
539.60	4514.89
539.77	4739.58
539.94	4767.67
540.11	4770.01
540.28	4540.64
540.44	4592.13
540.61	4664.69
540.78	4498.51
540.95	4919.81
541.12	5015.77
541.29	4992.36
541.46	5053.22
541.62	5254.50
541.79	5036.83
541.96	5001.72
542.13	5043.85
542.30	5022.79
542.47	5130.45
542.63	4987.68
542.80	4933.85
542.97	4964.28
543.14	4983.00
543.31	4966.62
543.48	4912.78
543.64	5053.22
543.81	5207.69
543.98	5252.16
544.15	5104.71
544.32	4997.04
544.48	5029.81
544.65	5001.72
544.82	5039.17
544.99	5128.11
545.16	4961.94
545.32	5076.62
545.49	5416.00
545.66	5914.53
545.83	5956.66
546.00	5664.10
546.16	5357.49
546.33	5210.03
546.50	5011.09
546.67	5001.72
546.83	4957.25
547.00	4999.38
547.17	4854.27
547.34	4725.54
547.50	4753.63
547.67	4767.67
547.84	4638.94
548.00	4777.03
548.17	4767.67
548.34	4760.65
548.51	5027.47
548.67	4861.29
548.84	4950.23
549.01	4894.06
549.18	4777.03
549.34	4814.48
549.51	4978.32
549.68	4788.74
549.84	4877.68
550.01	4648.30
550.18	4730.22
550.34	4842.57
550.51	4795.76
550.68	4781.71
550.84	4631.92
551.01	4636.60
551.18	4781.71
551.34	4833.21
551.51	4748.95
551.68	4713.84
551.84	4758.31
552.01	4737.24
552.18	4837.89
552.34	4702.14
552.51	4709.16
552.68	4533.62
552.84	4580.43
553.01	4741.93
553.18	4716.18
553.34	4725.54
553.51	4575.75
553.67	4585.11
553.84	4683.41
554.01	4713.84
554.17	4697.46
554.34	4730.22
554.51	4751.29
554.67	4685.75
554.84	4688.09
555.00	4641.28
555.17	4648.30
555.33	4798.10
555.50	4540.64
555.67	4606.17
555.83	4645.96
556.00	4585.11
556.16	4643.62
556.33	4421.27
556.50	4432.97
556.66	4521.92
556.83	4540.64
556.99	4423.61
557.16	4519.57
557.32	4498.51
557.49	4292.54
557.65	4559.36
557.82	4472.76
557.98	4559.36
558.15	4517.23
558.32	4348.72
558.48	4306.59
558.65	4219.99
558.81	4231.69
558.98	4332.33
559.14	4367.44
559.31	4315.95
559.47	4308.93
559.64	4341.69
559.80	4266.80
559.97	4245.73
560.13	4219.99
560.30	4280.84
560.46	4400.21
560.63	4557.02
560.79	4573.41
560.96	4500.85
561.12	4372.12
561.29	4315.95
561.45	4287.86
561.61	4423.61
561.78	4498.51
561.94	4409.57
562.11	4374.46
562.27	4414.25
562.44	4325.31
562.60	4428.29
562.77	4468.08
562.93	4308.93
563.10	4432.97
563.26	4414.25
563.42	4503.19
563.59	4351.06
563.75	4360.42
563.92	4362.76
564.08	4255.09
564.24	4245.73
564.41	4416.59
564.57	4397.87
564.74	4205.94
564.90	4344.03
565.07	4348.72
565.23	4196.58
565.39	4271.48
565.56	4161.47
565.72	4119.34
565.88	4009.34
566.05	4175.52
566.21	4234.03
566.38	4212.96
566.54	4266.80
566.70	4271.48
566.87	4252.75
567.03	4217.65
567.19	4191.90
567.36	4320.63
567.52	4241.05
567.68	4208.28
567.85	4121.68
568.01	3955.51
568.17	3875.93
568.34	3882.95
568.50	3908.69
568.66	3967.21
568.83	3967.21
568.99	3871.25
569.15	3864.22
569.32	3770.60
569.48	3997.64
569.64	3918.06
569.81	3882.95
569.97	3925.08
570.13	4063.17
570.30	3889.97
570.46	3892.31
570.62	3850.18
570.78	3693.37
570.95	3768.26
571.11	3920.40
571.27	3728.47
571.43	3918.06
571.60	3976.57
571.76	3929.76
571.92	3815.07
572.09	3932.10
572.25	3995.29
572.41	3927.42
572.57	4007.00
572.74	3906.35
572.90	3889.97
573.06	3908.69
573.22	3922.74
573.38	3911.04
573.55	3885.29
573.71	3925.08
573.87	3887.63
574.03	3992.95
574.20	3749.54
574.36	3772.94
574.52	3843.16
574.68	3798.69
574.84	3772.94
575.01	3662.94
575.17	3794.01
575.33	3810.39
575.49	3899.33
575.65	3695.71
575.82	3882.95
575.98	3772.94
576.14	3768.26
576.30	3779.97
576.46	4032.74
576.62	3936.78
576.79	4009.34
576.95	3950.82
577.11	3922.74
577.27	3887.63
577.43	3943.80
577.59	3810.39
577.75	3845.50
577.92	3651.24
578.08	3707.41
578.24	3742.52
578.40	3873.59
578.56	3758.90
578.72	3850.18
578.88	3913.38
579.04	3887.63
579.21	3819.75
579.37	3899.33
579.53	3805.71
579.69	3798.69
579.85	3941.46
580.01	3915.72
580.17	3906.35
580.33	3861.88
580.49	3810.39
580.65	3796.35
580.82	3927.42
580.98	3934.44
581.14	3768.26
581.30	3908.69
581.46	3763.58
581.62	3922.74
581.78	3763.58
581.94	4028.06
582.10	3960.19
582.26	4304.25
582.42	3960.19
582.58	4025.72
582.74	3742.52
582.90	3939.12
583.06	3946.14
583.22	3985.93
583.38	3878.27
583.54	3885.29
583.70	3871.25
583.86	3936.78
584.02	3999.98
584.18	3927.42
584.34	3817.41
584.50	3941.46
584.66	3913.38
584.82	3824.44
584.98	3845.50
585.14	3726.13
585.30	3770.60
585.46	3585.70
585.62	3751.88
585.78	3698.05
585.94	3583.36
586.10	3691.02
586.26	3796.35
586.42	3742.52
586.58	3534.21
586.74	3808.05
586.90	3737.84
587.06	3758.90
587.22	3714.43
587.38	3808.05
587.54	3702.73
587.70	3438.25
587.86	3290.79
588.02	3260.37
588.18	3178.45
588.34	3148.02
588.49	2935.03
588.65	2733.75
588.81	2722.04
588.97	2621.40
589.13	2729.06
589.29	2605.02
589.45	2595.65
589.61	2803.96
589.77	2939.71
589.93	2911.63
590.08	3052.06
590.24	3234.62
590.40	3129.30
590.56	3148.02
590.72	3159.72
590.88	3115.25
591.04	3045.04
591.20	3077.80
591.35	3138.66
591.51	3028.65
591.67	3005.25
591.83	3108.23
591.99	3068.44
592.15	2998.23
592.31	3194.83
592.46	3098.87
592.62	3361.01
592.78	3344.63
592.94	3241.64
593.10	3206.53
593.26	3363.35
593.41	3372.71
593.57	3274.41
593.73	3126.96
593.89	2991.20
594.05	2932.69
594.20	2911.63
594.36	2853.11
594.52	2773.53
594.68	2906.95
594.84	3052.06
594.99	3054.40
595.15	3148.02
595.31	3206.53
595.47	3225.26
595.62	3103.55
595.78	3122.27
595.94	3236.96
596.10	3318.88
596.25	3302.50
596.41	3169.09
596.57	3075.46
596.73	3080.14
596.88	3274.41
597.04	3166.74
597.20	3272.07
597.36	3143.34
597.51	3136.32
597.67	3164.40
597.83	3290.79
597.99	3183.13
