SpectraSuite Data File
++++++++++++++++++++++++++++++++++++
Date: Fri Oct 04 11:44:24 GMT-05:00 2013
User: price-jones
Dark Spectrum Present: No
Reference Spectrum Present: No
Number of Sampled Component Spectra: 1
Spectrometers: USB2+H05261
Integration Time (usec): 100000 (USB2+H05261)
Spectra Averaged: 1 (USB2+H05261)
Boxcar Smoothing: 0 (USB2+H05261)
Correct for Electrical Dark: No (USB2+H05261)
Strobe/Lamp Enabled: No (USB2+H05261)
Correct for Detector Non-linearity: No (USB2+H05261)
Correct for Stray Light: No (USB2+H05261)
Number of Pixels in Processed Spectrum: 2048
>>>>>Begin Processed Spectral Data<<<<<
365.73	46.81
365.92	46.81
366.12	46.81
366.32	0.00
366.52	0.00
366.72	0.00
366.91	0.00
367.11	0.00
367.31	0.00
367.51	0.00
367.70	0.00
367.90	0.00
368.10	0.00
368.30	0.00
368.49	0.00
368.69	0.00
368.89	0.00
369.09	0.00
369.28	0.00
369.48	0.00
369.68	0.00
369.87	44.47
370.07	0.00
370.27	0.00
370.47	154.48
370.66	393.21
370.86	524.28
371.06	587.47
371.25	585.13
371.45	510.24
371.65	491.51
371.84	491.51
372.04	463.43
372.24	535.98
372.44	533.64
372.63	498.53
372.83	524.28
373.03	491.51
373.22	423.64
373.42	561.73
373.62	491.51
373.81	627.26
374.01	526.62
374.21	554.71
374.40	510.24
374.60	615.56
374.79	517.26
374.99	697.48
375.19	727.91
375.38	657.69
375.58	674.07
375.78	650.67
375.97	660.03
376.17	805.14
376.37	655.35
376.56	709.18
376.76	802.80
376.95	737.27
377.15	840.25
377.35	854.30
377.54	849.61
377.74	826.21
377.93	802.80
378.13	779.40
378.33	816.85
378.52	805.14
378.72	791.10
378.91	716.20
379.11	746.63
379.31	695.14
379.50	704.50
379.70	786.42
379.89	784.08
380.09	851.96
380.28	793.44
380.48	795.78
380.68	868.34
380.87	781.74
381.07	683.44
381.26	678.76
381.46	613.22
381.65	636.63
381.85	713.86
382.04	638.97
382.24	596.84
382.43	573.43
382.63	486.83
382.83	528.96
383.02	690.46
383.22	610.88
383.41	603.86
383.61	568.75
383.80	641.31
384.00	730.25
384.19	667.05
384.39	826.21
384.58	835.57
384.78	851.96
384.97	908.13
385.17	788.76
385.36	807.48
385.56	671.73
385.75	730.25
385.95	807.48
386.14	863.66
386.34	809.83
386.53	847.27
386.72	739.61
386.92	784.08
387.11	770.04
387.31	924.51
387.50	814.51
387.70	805.14
387.89	851.96
388.09	854.30
388.28	767.70
388.48	833.23
388.67	851.96
388.86	905.79
389.06	968.98
389.25	987.71
389.45	1111.75
389.64	1032.18
389.84	1114.10
390.03	1137.50
390.22	1029.84
390.42	1022.81
390.61	1102.39
390.81	1172.61
391.00	1167.93
391.19	1284.95
391.39	1144.52
391.58	1109.41
391.78	1114.10
391.97	1039.20
392.16	917.49
392.36	945.58
392.55	697.48
392.75	638.97
392.94	449.38
393.13	543.00
393.33	585.13
393.52	786.42
393.71	849.61
393.91	922.17
394.10	1015.79
394.29	1057.92
394.49	1172.61
394.68	1261.55
394.88	1256.87
395.07	1352.83
395.26	1245.16
395.46	1273.25
395.65	1128.14
395.84	1090.69
396.04	983.02
396.23	774.72
396.42	589.82
396.62	681.10
396.81	725.57
397.00	950.26
397.19	1043.88
397.39	1198.35
397.58	1434.75
397.77	1401.98
397.97	1472.20
398.16	1458.15
398.35	1507.30
398.55	1586.88
398.74	1722.63
398.93	1666.46
399.12	1687.53
399.32	1577.52
399.51	1596.25
399.70	1699.23
399.90	1717.95
400.09	1846.68
400.28	1703.91
400.47	1703.91
400.67	1818.60
400.86	1994.14
401.05	1762.42
401.24	1921.58
401.44	1907.54
401.63	1914.56
401.82	1872.43
402.01	1809.23
402.21	1912.22
402.40	1963.71
402.59	1886.47
402.78	1741.36
402.97	1830.30
403.17	1790.51
403.36	1930.94
403.55	1914.56
403.74	1968.39
403.93	1987.11
404.13	2031.58
404.32	1919.24
404.51	2092.44
404.70	2141.59
404.89	2022.22
405.09	1940.30
405.28	1905.20
405.47	1816.26
405.66	1884.13
405.85	1832.64
406.05	1736.68
406.24	1825.62
406.43	1893.49
406.62	1902.86
406.81	1966.05
407.00	1856.04
407.20	1874.77
407.39	1863.07
407.58	1947.33
407.77	2054.99
407.96	2040.95
408.15	2204.78
408.34	2036.27
408.54	2113.50
408.73	2139.25
408.92	2181.38
409.11	2043.29
409.30	1987.11
409.49	1851.36
409.68	1760.08
409.87	1696.89
410.07	1748.38
410.26	1933.28
410.45	1956.69
410.64	2174.36
410.83	2204.78
411.02	2246.91
411.21	2193.08
411.40	2270.32
411.59	2216.49
411.78	2202.44
411.98	2155.63
412.17	2249.25
412.36	2214.15
412.55	2230.53
412.74	2083.08
412.93	2172.02
413.12	2120.53
413.31	2326.49
413.50	2347.56
413.69	2256.28
413.88	2396.71
414.07	2293.72
414.26	2314.79
414.45	2387.35
414.64	2342.88
414.83	2370.96
415.02	2282.02
415.22	2359.26
415.41	2335.85
415.60	2530.12
415.79	2485.65
415.98	2553.52
416.17	2588.63
416.36	2539.48
416.55	2534.80
416.74	2420.11
416.93	2370.96
417.12	2368.62
417.31	2319.47
417.50	2394.37
417.69	2445.86
417.88	2427.14
418.07	2370.96
418.26	2352.24
418.45	2462.24
418.64	2609.70
418.83	2548.84
419.02	2487.99
419.21	2513.74
419.39	2345.22
419.58	2352.24
419.77	2270.32
419.96	2413.09
420.15	2605.02
420.34	2537.14
420.53	2686.94
420.72	2649.49
420.91	2609.70
421.10	2574.59
421.29	2633.10
421.48	2656.51
421.67	2609.70
421.86	2635.44
422.05	2469.27
422.24	2260.96
422.43	2249.25
422.61	2345.22
422.80	2567.57
422.99	2539.48
423.18	2459.90
423.37	2424.80
423.56	2492.67
423.75	2539.48
423.94	2464.58
424.13	2429.48
424.32	2429.48
424.50	2370.96
424.69	2497.35
424.88	2401.39
425.07	2324.15
425.26	2413.09
425.45	2389.69
425.64	2464.58
425.83	2361.60
426.01	2523.10
426.20	2551.18
426.39	2431.82
426.58	2385.01
426.77	2349.90
426.96	2134.57
427.15	2253.94
427.33	2300.75
427.52	2490.33
427.71	2448.20
427.90	2464.58
428.09	2429.48
428.28	2366.28
428.46	2253.94
428.65	2282.02
428.84	2403.73
429.03	2387.35
429.22	2153.29
429.40	2071.37
429.59	1816.26
429.78	1678.16
429.97	1809.23
430.16	1776.47
430.34	1729.66
430.53	1762.42
430.72	1799.87
430.91	2057.33
431.10	2265.64
431.28	2574.59
431.47	2841.41
431.66	2864.82
431.85	2672.89
432.03	2394.37
432.22	2509.05
432.41	2490.33
432.60	2675.23
432.79	2729.06
432.97	2759.49
433.16	2862.48
433.35	2560.55
433.54	2303.09
433.72	2225.85
433.91	2300.75
434.10	2380.32
434.28	2626.08
434.47	2752.47
434.66	2796.94
434.85	2750.13
435.03	2904.60
435.22	3253.34
435.41	3918.06
435.59	4039.76
435.78	3756.56
435.97	3283.77
436.16	3068.44
436.34	3038.02
436.53	2965.46
436.72	2881.20
436.90	2715.02
437.09	2717.36
437.28	2670.55
437.46	2785.24
437.65	2752.47
437.84	2708.00
438.02	2509.05
438.21	2333.51
438.40	2520.76
438.58	2647.15
438.77	2792.26
438.96	2768.85
439.14	2883.54
439.33	2897.58
439.52	2899.92
439.70	3054.40
439.89	2986.52
440.08	2810.98
440.26	2771.19
440.45	2883.54
440.63	3103.55
440.82	3138.66
441.01	3126.96
441.19	3063.76
441.38	3225.26
441.57	3283.77
441.75	3243.98
441.94	3382.07
442.12	3318.88
442.31	3276.75
442.50	3344.63
442.68	3344.63
442.87	3316.54
443.05	3272.07
443.24	3183.13
443.43	3295.47
443.61	3431.23
443.80	3365.69
443.98	3213.56
444.17	3339.94
444.35	3391.44
444.54	3527.19
444.73	3482.72
444.91	3307.18
445.10	3258.03
445.28	3077.80
445.47	3026.31
445.65	3141.00
445.84	3272.07
446.02	3288.45
446.21	3272.07
446.39	3332.92
446.58	3314.20
446.77	3349.31
446.95	3405.48
447.14	3471.01
447.32	3669.96
447.51	3358.67
447.69	3393.78
447.88	3379.73
448.06	3506.12
448.25	3335.26
448.43	3351.65
448.62	3435.91
448.80	3344.63
448.99	3473.36
449.17	3433.57
449.36	3410.16
449.54	3578.68
449.73	3637.19
449.91	3658.26
450.10	3761.24
450.28	3712.09
450.46	3735.50
450.65	3749.54
450.83	3714.43
451.02	3590.38
451.20	3595.06
451.39	3569.32
451.57	3613.79
451.76	3576.34
451.94	3632.51
452.13	3459.31
452.31	3494.42
452.49	3183.13
452.68	3393.78
452.86	3372.71
453.05	3227.60
453.23	3487.40
453.42	3389.10
453.60	3578.68
453.78	3651.24
453.97	3463.99
454.15	3578.68
454.34	3602.08
454.52	3559.95
454.70	3463.99
454.89	3581.02
455.07	3377.39
455.26	3588.04
455.44	3616.13
455.62	3571.66
455.81	3838.48
455.99	3791.67
456.17	3574.00
456.36	3756.56
456.54	3801.03
456.73	3836.14
456.91	3899.33
457.09	3747.20
457.28	3908.69
457.46	3669.96
457.64	3684.00
457.83	3627.83
458.01	3559.95
458.19	3613.79
458.38	3669.96
458.56	3775.28
458.74	3777.62
458.93	3606.77
459.11	3627.83
459.29	3541.23
459.48	3770.60
459.66	3602.08
459.84	3707.41
460.03	3854.86
460.21	3873.59
460.39	3765.92
460.57	3803.37
460.76	3864.22
460.94	3763.58
461.12	3798.69
461.31	3866.56
461.49	3934.44
461.67	3892.31
461.85	3943.80
462.04	3864.22
462.22	4308.93
462.40	3990.61
462.59	3946.14
462.77	3803.37
462.95	4025.72
463.13	3908.69
463.32	3894.65
463.50	3859.54
463.68	4014.02
463.86	3655.92
464.05	3794.01
464.23	3763.58
464.41	3651.24
464.59	3630.17
464.78	3681.66
464.96	3742.52
465.14	3747.20
465.32	3838.48
465.50	3707.41
465.69	3946.14
465.87	3969.55
466.05	3801.03
466.23	3606.77
466.41	3487.40
466.60	3597.40
466.78	3648.90
466.96	3620.81
467.14	3873.59
467.32	3866.56
467.51	3840.82
467.69	3590.38
467.87	3707.41
468.05	3772.94
468.23	3772.94
468.41	3623.15
468.60	3758.90
468.78	3885.29
468.96	3801.03
469.14	3836.14
469.32	3833.80
469.50	3775.28
469.69	3641.87
469.87	3681.66
470.05	3716.77
470.23	3744.86
470.41	3723.79
470.59	3634.85
470.77	3782.31
470.95	3726.13
471.14	3798.69
471.32	3908.69
471.50	4124.02
471.68	4102.96
471.86	4095.94
472.04	4077.21
472.22	4098.28
472.40	3964.87
472.58	3955.51
472.77	3911.04
472.95	3808.05
473.13	4051.47
473.31	3882.95
473.49	3995.29
473.67	3971.89
473.85	3808.05
474.03	4081.89
474.21	4142.75
474.39	4166.15
474.57	4418.93
474.75	4182.54
474.93	4180.20
475.12	4109.98
475.30	4002.32
475.48	4198.92
475.66	4114.66
475.84	4056.15
476.02	4025.72
476.20	3964.87
476.38	4067.85
476.56	4170.83
476.74	4154.45
476.92	4304.25
477.10	4437.66
477.28	4428.29
477.46	4561.70
477.64	4538.30
477.82	4477.44
478.00	4477.44
478.18	4521.92
478.36	4372.12
478.54	4332.33
478.72	4580.43
478.90	4620.22
479.08	4765.33
479.26	4692.77
479.44	4791.08
479.62	4629.58
479.80	4655.33
479.98	4746.61
480.16	4765.33
480.34	4550.00
480.52	4709.16
480.70	4830.87
480.88	4828.53
481.06	4950.23
481.24	4870.65
481.41	5160.88
481.59	5146.84
481.77	5081.30
481.95	5137.48
482.13	4997.04
482.31	5128.11
482.49	5085.98
482.67	5020.45
482.85	5078.96
483.03	5301.31
483.21	5186.63
483.39	5380.89
483.57	5039.17
483.74	5144.50
483.92	5195.99
484.10	5144.50
484.28	5277.91
484.46	5420.68
484.64	5329.40
484.82	5387.91
485.00	5287.27
485.18	5219.39
485.35	5102.37
485.53	4791.08
485.71	4418.93
485.89	4163.81
486.07	4559.36
486.25	4727.88
486.43	5046.20
486.61	5240.46
486.78	5188.97
486.96	5151.52
487.14	5287.27
487.32	5537.71
487.50	5420.68
487.68	5631.33
487.85	5930.92
488.03	5933.26
488.21	5860.70
488.39	5790.49
488.57	5490.90
488.75	5469.83
488.92	5907.51
489.10	5989.43
489.28	6209.44
489.46	6218.80
489.64	6427.11
489.81	6387.32
489.99	6333.49
490.17	6258.59
490.35	6499.67
490.53	6267.95
490.70	6209.44
490.88	6235.19
491.06	6319.45
491.24	6527.75
491.41	6532.44
491.59	6094.76
491.77	5804.53
491.95	5942.62
492.13	6118.16
492.30	6375.62
492.48	6558.18
492.66	6722.02
492.84	6691.59
493.01	6679.89
493.19	6525.41
493.37	6340.51
493.54	6296.04
493.72	6532.44
493.90	6780.53
494.08	6890.54
494.25	7035.65
494.43	7129.27
494.61	7185.44
494.79	6970.12
494.96	6841.39
495.14	6981.82
495.32	6796.92
495.49	6689.25
495.67	6949.05
495.85	7023.95
496.02	7250.98
496.20	7117.57
496.38	7164.38
496.55	7117.57
496.73	7258.00
496.91	7225.23
497.09	7309.49
497.26	7265.02
497.44	7276.73
497.62	7162.04
497.79	7098.84
497.97	6878.83
498.14	6640.10
498.32	6974.80
498.50	7145.66
498.67	7211.19
498.85	7145.66
499.03	7215.87
499.20	7262.68
499.38	7330.56
499.56	7368.01
499.73	7360.98
499.91	7152.68
500.08	7019.27
500.26	6794.58
500.44	6956.07
500.61	7204.17
500.79	7035.65
500.97	6972.46
501.14	6935.01
501.32	6722.02
501.49	6817.98
501.67	6846.07
501.84	6991.18
502.02	7007.56
502.20	7150.34
502.37	6960.75
502.55	7124.59
502.72	7346.94
502.90	7288.43
503.07	7190.13
503.25	7054.37
503.43	6572.22
503.60	6633.08
503.78	6314.77
503.95	6413.07
504.13	6766.49
504.30	7192.47
504.48	7112.89
504.65	7201.83
504.83	7356.30
505.01	7059.06
505.18	7382.05
505.36	7632.49
505.53	7435.88
505.71	7522.48
505.88	7847.82
506.06	7410.14
506.23	7339.92
506.41	7119.91
506.58	7461.63
506.76	7330.56
506.93	7335.24
507.11	7115.23
507.28	7250.98
507.46	7138.63
507.63	7140.97
507.81	6944.37
507.98	6916.28
508.16	7009.90
508.33	7232.26
508.50	7555.25
508.68	7599.72
508.85	7618.44
509.03	7463.97
509.20	7658.23
509.38	7431.20
509.55	7426.52
509.73	7311.83
509.90	7386.73
510.08	7517.80
510.25	7786.96
510.42	7606.74
510.60	7630.15
510.77	7531.84
510.95	7667.60
511.12	7775.26
511.30	7763.56
511.47	7798.66
511.64	7901.65
511.82	7887.61
511.99	7702.70
512.17	7447.58
512.34	7452.27
512.51	7489.71
512.69	7557.59
512.86	7566.95
513.04	7618.44
513.21	7611.42
513.38	7611.42
513.56	7426.52
513.73	7185.44
513.90	7323.54
514.08	7379.71
514.25	7536.52
514.43	7447.58
514.60	7644.19
514.77	7485.03
514.95	7520.14
515.12	7482.69
515.29	7613.76
515.47	7847.82
515.64	7981.23
515.81	7826.75
515.99	7606.74
516.16	7360.98
516.33	6888.20
516.51	6324.13
516.68	6050.28
516.85	6001.13
517.03	6155.61
517.20	6675.21
517.37	7171.40
517.54	7487.37
517.72	7520.14
517.89	6930.33
518.06	6377.96
518.24	6537.12
518.41	6853.09
518.58	7222.89
518.75	7260.34
518.93	7365.67
519.10	7232.26
519.27	7258.00
519.45	7398.43
519.62	7646.53
519.79	7929.74
519.96	7740.15
520.14	7555.25
520.31	7279.07
520.48	7431.20
520.65	7485.03
520.83	7777.60
521.00	7721.43
521.17	7913.35
521.34	7801.01
521.52	7510.78
521.69	7754.19
521.86	7962.50
522.03	7803.35
522.20	7719.09
522.38	7421.84
522.55	7295.45
522.72	7403.11
522.89	7473.33
523.07	7541.21
523.24	7513.12
523.41	7911.01
523.58	7927.39
523.75	7927.39
523.92	8028.04
524.10	8128.68
524.27	8037.40
524.44	8016.33
524.61	7981.23
524.78	7880.58
524.96	7719.09
525.13	7681.64
525.30	7775.26
525.47	8070.17
525.64	7969.52
525.81	7836.11
525.98	7386.73
526.16	6923.30
526.33	6977.14
526.50	6974.80
526.67	6633.08
526.84	6768.83
527.01	6977.14
527.18	7463.97
527.36	7400.77
527.53	7779.94
527.70	7918.03
527.87	7796.32
528.04	7541.21
528.21	7541.21
528.38	7789.30
528.55	7981.23
528.72	7962.50
528.89	8072.51
529.07	8161.45
529.24	7847.82
529.41	7918.03
529.58	7625.47
529.75	7442.90
529.92	7793.98
530.09	7723.77
530.26	8009.31
530.43	8201.24
530.60	8215.28
530.77	8126.34
530.94	8222.30
531.11	8147.40
531.28	8135.70
531.46	7932.08
531.63	7967.18
531.80	7915.69
531.97	7775.26
532.14	7620.78
532.31	7206.51
532.48	7173.74
532.65	7101.19
532.82	7323.54
532.99	7625.47
533.16	7772.92
533.33	8140.38
533.50	7981.23
533.67	7733.13
533.84	7700.36
534.01	7709.72
534.18	7651.21
534.35	7847.82
534.52	7667.60
534.69	7946.12
534.86	7857.18
535.03	7845.48
535.20	8201.24
535.37	8168.47
535.54	8175.49
535.71	7911.01
535.88	7957.82
536.05	7782.28
536.22	7789.30
536.38	7590.36
536.55	7641.85
536.72	7541.21
536.89	7389.07
537.06	7517.80
537.23	7581.00
537.40	7819.73
537.57	7976.55
537.74	8023.36
537.91	7948.46
538.08	7829.09
538.25	7903.99
538.42	7896.97
538.59	8032.72
538.75	7637.17
538.92	7590.36
539.09	7648.87
539.26	7557.59
539.43	7524.82
539.60	7850.16
539.77	7655.89
539.94	7618.44
540.11	7730.79
540.28	7719.09
540.44	7548.23
540.61	7655.89
540.78	7676.96
540.95	7992.93
541.12	8318.26
541.29	8472.74
541.46	8678.71
541.62	8589.77
541.79	8444.65
541.96	8439.97
542.13	8306.56
542.30	8257.41
542.47	8475.08
542.63	8217.62
542.80	8182.51
542.97	8145.06
543.14	8116.98
543.31	7941.44
543.48	8154.43
543.64	8496.14
543.81	8477.42
543.98	8500.83
544.15	8327.63
544.32	8009.31
544.48	8226.98
544.65	8315.92
544.82	8299.54
544.99	8304.22
545.16	8257.41
545.32	8065.49
545.49	9027.45
545.66	9926.21
545.83	10415.38
546.00	10380.28
546.16	9191.28
546.33	8648.28
546.50	8191.88
546.67	8278.47
546.83	8126.34
547.00	8025.70
547.17	8037.40
547.34	7868.88
547.50	7852.50
547.67	7798.66
547.84	7744.83
548.00	7737.81
548.17	7908.67
548.34	7894.63
548.51	8013.99
548.67	7983.57
548.84	8046.76
549.01	8030.38
549.18	7915.69
549.34	7810.37
549.51	7744.83
549.68	7913.35
549.84	7669.94
550.01	7662.91
550.18	7721.43
550.34	7721.43
550.51	7698.02
550.68	7691.00
550.84	7613.76
551.01	7581.00
551.18	7290.77
551.34	7492.05
551.51	7653.55
551.68	7740.15
551.84	7721.43
552.01	7709.72
552.18	7688.66
552.34	7590.36
552.51	7178.42
552.68	7033.31
552.84	7393.75
553.01	7452.27
553.18	7335.24
553.34	7414.82
553.51	7637.17
553.67	7674.62
553.84	7681.64
554.01	7602.06
554.17	7740.15
554.34	7492.05
554.51	7581.00
554.67	7747.17
554.84	7641.85
555.00	7438.22
555.17	7466.31
555.33	7447.58
555.50	7440.56
555.67	7391.41
555.83	7335.24
556.00	7208.85
556.16	7337.58
556.33	7087.14
556.50	7192.47
556.66	7194.81
556.83	6991.18
556.99	6960.75
557.16	7075.44
557.32	7009.90
557.49	7342.26
557.65	7225.23
557.82	7162.04
557.98	7162.04
558.15	7148.00
558.32	6920.96
558.48	6707.98
558.65	6761.81
558.81	6918.62
558.98	6857.77
559.14	7007.56
559.31	7059.06
559.47	6850.75
559.64	6897.56
559.80	6768.83
559.97	6825.00
560.13	7091.82
560.30	7276.73
560.46	7304.81
560.63	7351.62
560.79	7236.94
560.96	7215.87
561.12	6904.58
561.29	6942.03
561.45	6719.68
561.61	7019.27
561.78	7056.72
561.94	6768.83
562.11	7037.99
562.27	6909.26
562.44	6949.05
562.60	7014.59
562.77	6923.30
562.93	7045.01
563.10	7131.61
563.26	7014.59
563.42	6904.58
563.59	6740.74
563.75	6895.22
563.92	6853.09
564.08	6839.05
564.24	6806.28
564.41	6927.99
564.57	6979.48
564.74	6843.73
564.90	6780.53
565.07	6689.25
565.23	6853.09
565.39	6614.35
565.56	6616.69
565.72	6553.50
565.88	6628.40
566.05	6548.82
566.21	6590.95
566.38	6740.74
566.54	6693.93
566.70	6590.95
566.87	6930.33
567.03	6698.61
567.19	6944.37
567.36	6743.08
567.52	6504.35
567.68	6644.78
567.85	6429.45
568.01	6466.90
568.17	6265.61
568.34	6188.38
568.50	6181.35
568.66	6127.52
568.83	6195.40
568.99	6251.57
569.15	6377.96
569.32	6366.26
569.48	6389.66
569.64	6218.80
569.81	6272.64
569.97	6143.91
570.13	6370.94
570.30	6164.97
570.46	6314.77
570.62	5905.17
570.78	5921.56
570.95	6022.20
571.11	6188.38
571.27	6150.93
571.43	6239.87
571.60	6300.72
571.76	6340.51
571.92	6284.34
572.09	6237.53
572.25	6298.38
572.41	6342.85
572.57	6300.72
572.74	6225.82
572.90	6403.71
573.06	6312.42
573.22	6186.04
573.38	6394.34
573.55	6305.40
573.71	6380.30
573.87	6216.46
574.03	6094.76
574.20	6127.52
574.36	6176.67
574.52	6092.41
574.68	6094.76
574.84	6033.90
575.01	5959.00
575.17	5940.28
575.33	5954.32
575.49	5951.98
575.65	6076.03
575.82	5959.00
575.98	6136.88
576.14	6040.92
576.30	6249.23
576.46	6403.71
576.62	6438.81
576.79	6647.12
576.95	6401.37
577.11	6298.38
577.27	6312.42
577.43	6300.72
577.59	6148.59
577.75	5959.00
577.92	5959.00
578.08	5785.80
578.24	5804.53
578.40	5961.34
578.56	6150.93
578.72	6363.92
578.88	6389.66
579.04	6356.90
579.21	6305.40
579.37	6164.97
579.53	6230.51
579.69	6090.07
579.85	6246.89
580.01	6167.31
580.17	6146.25
580.33	6078.37
580.49	6263.27
580.65	6312.42
580.82	6207.10
580.98	6162.63
581.14	6181.35
581.30	6263.27
581.46	6139.23
581.62	6296.04
581.78	6183.70
581.94	6382.64
582.10	6286.68
582.26	6200.08
582.42	6291.36
582.58	6424.77
582.74	6480.94
582.90	6394.34
583.06	6457.54
583.22	6328.81
583.38	6207.10
583.54	6164.97
583.70	6312.42
583.86	6181.35
584.02	6162.63
584.18	6293.70
584.34	6078.37
584.50	6221.14
584.66	6162.63
584.82	6047.94
584.98	5996.45
585.14	6047.94
585.30	6090.07
585.46	5951.98
585.62	5724.95
585.78	5856.02
585.94	5792.83
586.10	5982.41
586.26	5937.94
586.42	6036.24
586.58	6003.47
586.74	5891.13
586.90	6052.63
587.06	6005.81
587.22	5923.90
587.38	5774.10
587.54	5898.15
587.70	5664.10
587.86	5579.84
588.02	5188.97
588.18	5242.80
588.34	5046.20
588.49	4585.11
588.65	4407.23
588.81	4159.13
588.97	4442.34
589.13	4437.66
589.29	4159.13
589.45	4248.07
589.61	4430.63
589.77	4538.30
589.93	4671.71
590.08	4765.33
590.24	4847.25
590.40	5027.47
590.56	5195.99
590.72	4849.59
590.88	4910.44
591.04	4924.49
591.20	4975.98
591.35	4795.76
591.51	4823.84
591.67	4753.63
591.83	4760.65
591.99	4758.31
592.15	4954.91
592.31	5081.30
592.46	5282.59
592.62	5256.84
592.78	5226.42
592.94	5102.37
593.10	5193.65
593.26	5366.85
593.41	5282.59
593.57	5420.68
593.73	4961.94
593.89	4844.91
594.05	4557.02
594.20	4648.30
594.36	4564.04
594.52	4451.70
594.68	4669.37
594.84	4683.41
594.99	4833.21
595.15	4926.83
595.31	5074.28
595.47	4952.57
595.62	5088.32
595.78	5090.67
595.94	5118.75
596.10	5083.64
596.25	5170.24
596.41	4880.02
596.57	4748.95
596.73	4816.82
596.88	5067.26
597.04	5195.99
597.20	4966.62
597.36	4983.00
597.51	5034.49
