SpectraSuite Data File
++++++++++++++++++++++++++++++++++++
Date: Fri Oct 04 11:47:24 GMT-05:00 2013
User: price-jones
Dark Spectrum Present: No
Reference Spectrum Present: No
Number of Sampled Component Spectra: 1
Spectrometers: USB2+H05261
Integration Time (usec): 100000 (USB2+H05261)
Spectra Averaged: 1 (USB2+H05261)
Boxcar Smoothing: 0 (USB2+H05261)
Correct for Electrical Dark: No (USB2+H05261)
Strobe/Lamp Enabled: No (USB2+H05261)
Correct for Detector Non-linearity: No (USB2+H05261)
Correct for Stray Light: No (USB2+H05261)
Number of Pixels in Processed Spectrum: 2048
>>>>>Begin Processed Spectral Data<<<<<
365.73	18.72
365.92	18.72
366.12	18.72
366.32	0.00
366.52	0.00
366.72	0.00
366.91	0.00
367.11	0.00
367.31	0.00
367.51	0.00
367.70	0.00
367.90	0.00
368.10	0.00
368.30	0.00
368.49	0.00
368.69	0.00
368.89	0.00
369.09	0.00
369.28	0.00
369.48	0.00
369.68	21.06
369.87	7.02
370.07	4.68
370.27	0.00
370.47	72.56
370.66	9.36
370.86	46.81
371.06	86.60
371.25	119.37
371.45	32.77
371.65	86.60
371.84	51.49
372.04	44.47
372.24	39.79
372.44	16.38
372.63	63.19
372.83	119.37
373.03	63.19
373.22	84.26
373.42	0.00
373.62	140.43
373.81	117.03
374.01	74.90
374.21	156.82
374.40	133.41
374.60	145.11
374.79	74.90
374.99	53.83
375.19	107.66
375.38	124.05
375.58	112.35
375.78	189.58
375.97	191.92
376.17	91.28
376.37	126.39
376.56	140.43
376.76	119.37
376.95	70.22
377.15	133.41
377.35	180.22
377.54	46.81
377.74	105.32
377.93	77.24
378.13	100.64
378.33	114.69
378.52	53.83
378.72	70.22
378.91	131.07
379.11	37.45
379.31	95.96
379.50	102.98
379.70	110.01
379.89	131.07
380.09	156.82
380.28	86.60
380.48	131.07
380.68	84.26
380.87	114.69
381.07	91.28
381.26	135.75
381.46	79.58
381.65	114.69
381.85	21.06
382.04	105.32
382.24	173.20
382.43	119.37
382.63	56.17
382.83	105.32
383.02	105.32
383.22	114.69
383.41	56.17
383.61	67.88
383.80	112.35
384.00	79.58
384.19	88.94
384.39	102.98
384.58	63.19
384.78	145.11
384.97	128.73
385.17	131.07
385.36	44.47
385.56	102.98
385.75	70.22
385.95	32.77
386.14	25.75
386.34	56.17
386.53	77.24
386.72	191.92
386.92	159.16
387.11	107.66
387.31	30.43
387.50	114.69
387.70	91.28
387.89	152.13
388.09	140.43
388.28	53.83
388.48	88.94
388.67	114.69
388.86	124.05
389.06	86.60
389.25	86.60
389.45	100.64
389.64	98.30
389.84	142.77
390.03	102.98
390.22	79.58
390.42	147.45
390.61	135.75
390.81	128.73
391.00	81.92
391.19	145.11
391.39	175.54
391.58	112.35
391.78	124.05
391.97	60.85
392.16	79.58
392.36	126.39
392.55	91.28
392.75	131.07
392.94	63.19
393.13	135.75
393.33	77.24
393.52	161.50
393.71	177.88
393.91	114.69
394.10	44.47
394.29	30.43
394.49	72.56
394.68	86.60
394.88	107.66
395.07	126.39
395.26	159.16
395.46	156.82
395.65	177.88
395.84	161.50
396.04	168.52
396.23	60.85
396.42	74.90
396.62	93.62
396.81	56.17
397.00	140.43
397.19	84.26
397.39	93.62
397.58	140.43
397.77	133.41
397.97	74.90
398.16	74.90
398.35	110.01
398.55	65.54
398.74	72.56
398.93	161.50
399.12	72.56
399.32	121.71
399.51	119.37
399.70	131.07
399.90	147.45
400.09	182.56
400.28	126.39
400.47	107.66
400.67	107.66
400.86	105.32
401.05	105.32
401.24	135.75
401.44	173.20
401.63	201.29
401.82	152.13
402.01	131.07
402.21	126.39
402.40	84.26
402.59	114.69
402.78	175.54
402.97	84.26
403.17	138.09
403.36	138.09
403.55	161.50
403.74	79.58
403.93	222.35
404.13	184.90
404.32	138.09
404.51	135.75
404.70	177.88
404.89	112.35
405.09	168.52
405.28	107.66
405.47	156.82
405.66	121.71
405.85	266.82
406.05	159.16
406.24	142.77
406.43	128.73
406.62	133.41
406.81	236.39
407.00	159.16
407.20	126.39
407.39	173.20
407.58	145.11
407.77	175.54
407.96	126.39
408.15	175.54
408.34	142.77
408.54	110.01
408.73	203.63
408.92	74.90
409.11	105.32
409.30	84.26
409.49	149.79
409.68	100.64
409.87	142.77
410.07	161.50
410.26	248.10
410.45	196.60
410.64	107.66
410.83	170.86
411.02	182.56
411.21	152.13
411.40	152.13
411.59	168.52
411.78	124.05
411.98	161.50
412.17	161.50
412.36	159.16
412.55	102.98
412.74	131.07
412.93	194.26
413.12	154.48
413.31	184.90
413.50	180.22
413.69	98.30
413.88	184.90
414.07	149.79
414.26	163.84
414.45	154.48
414.64	177.88
414.83	114.69
415.02	187.24
415.22	196.60
415.41	205.97
415.60	131.07
415.79	180.22
415.98	220.01
416.17	189.58
416.36	126.39
416.55	140.43
416.74	194.26
416.93	154.48
417.12	191.92
417.31	182.56
417.50	110.01
417.69	147.45
417.88	208.31
418.07	140.43
418.26	161.50
418.45	105.32
418.64	236.39
418.83	217.67
419.02	201.29
419.21	152.13
419.39	201.29
419.58	102.98
419.77	149.79
419.96	210.65
420.15	205.97
420.34	138.09
420.53	201.29
420.72	201.29
420.91	196.60
421.10	163.84
421.29	147.45
421.48	126.39
421.67	231.71
421.86	156.82
422.05	91.28
422.24	208.31
422.43	184.90
422.61	135.75
422.80	173.20
422.99	196.60
423.18	191.92
423.37	191.92
423.56	166.18
423.75	180.22
423.94	154.48
424.13	114.69
424.32	98.30
424.50	201.29
424.69	152.13
424.88	166.18
425.07	58.51
425.26	173.20
425.45	177.88
425.64	182.56
425.83	196.60
426.01	191.92
426.20	224.69
426.39	133.41
426.58	177.88
426.77	166.18
426.96	177.88
427.15	210.65
427.33	138.09
427.52	149.79
427.71	147.45
427.90	180.22
428.09	187.24
428.28	65.54
428.46	119.37
428.65	180.22
428.84	201.29
429.03	257.46
429.22	170.86
429.40	175.54
429.59	126.39
429.78	257.46
429.97	163.84
430.16	168.52
430.34	194.26
430.53	166.18
430.72	161.50
430.91	177.88
431.10	231.71
431.28	191.92
431.47	163.84
431.66	163.84
431.85	159.16
432.03	170.86
432.22	184.90
432.41	147.45
432.60	264.48
432.79	147.45
432.97	142.77
433.16	189.58
433.35	170.86
433.54	154.48
433.72	156.82
433.91	110.01
434.10	156.82
434.28	88.94
434.47	135.75
434.66	205.97
434.85	95.96
435.03	210.65
435.22	184.90
435.41	175.54
435.59	227.03
435.78	154.48
435.97	238.73
436.16	198.95
436.34	187.24
436.53	170.86
436.72	252.78
436.90	147.45
437.09	159.16
437.28	198.95
437.46	93.62
437.65	182.56
437.84	222.35
438.02	119.37
438.21	198.95
438.40	198.95
438.58	140.43
438.77	175.54
438.96	187.24
439.14	170.86
439.33	189.58
439.52	175.54
439.70	124.05
439.89	142.77
440.08	152.13
440.26	149.79
440.45	180.22
440.63	180.22
440.82	166.18
441.01	212.99
441.19	250.44
441.38	133.41
441.57	236.39
441.75	234.05
441.94	180.22
442.12	177.88
442.31	187.24
442.50	187.24
442.68	259.80
442.87	238.73
443.05	210.65
443.24	121.71
443.43	255.12
443.61	194.26
443.80	224.69
443.98	269.16
444.17	252.78
444.35	177.88
444.54	248.10
444.73	166.18
444.91	189.58
445.10	231.71
445.28	210.65
445.47	180.22
445.65	126.39
445.84	215.33
446.02	182.56
446.21	194.26
446.39	163.84
446.58	126.39
446.77	175.54
446.95	177.88
447.14	231.71
447.32	177.88
447.51	161.50
447.69	205.97
447.88	264.48
448.06	168.52
448.25	152.13
448.43	248.10
448.62	243.42
448.80	241.08
448.99	208.31
449.17	133.41
449.36	255.12
449.54	222.35
449.73	184.90
449.91	161.50
450.10	217.67
450.28	248.10
450.46	220.01
450.65	191.92
450.83	224.69
451.02	177.88
451.20	220.01
451.39	215.33
451.57	257.46
451.76	191.92
451.94	224.69
452.13	168.52
452.31	229.37
452.49	212.99
452.68	121.71
452.86	198.95
453.05	278.52
453.23	191.92
453.42	145.11
453.60	215.33
453.78	215.33
453.97	166.18
454.15	159.16
454.34	189.58
454.52	163.84
454.70	243.42
454.89	217.67
455.07	170.86
455.26	227.03
455.44	252.78
455.62	182.56
455.81	201.29
455.99	283.20
456.17	222.35
456.36	177.88
456.54	311.29
456.73	208.31
456.91	189.58
457.09	222.35
457.28	217.67
457.46	259.80
457.64	201.29
457.83	243.42
458.01	161.50
458.19	191.92
458.38	224.69
458.56	208.31
458.74	191.92
458.93	163.84
459.11	149.79
459.29	173.20
459.48	173.20
459.66	217.67
459.84	210.65
460.03	367.46
460.21	177.88
460.39	196.60
460.57	241.08
460.76	224.69
460.94	224.69
461.12	217.67
461.31	285.55
461.49	205.97
461.67	231.71
461.85	238.73
462.04	203.63
462.22	627.26
462.40	269.16
462.59	252.78
462.77	175.54
462.95	243.42
463.13	220.01
463.32	182.56
463.50	285.55
463.68	236.39
463.86	196.60
464.05	210.65
464.23	234.05
464.41	241.08
464.59	98.30
464.78	245.76
464.96	156.82
465.14	196.60
465.32	280.86
465.50	191.92
465.69	184.90
465.87	138.09
466.05	220.01
466.23	234.05
466.41	175.54
466.60	201.29
466.78	222.35
466.96	252.78
467.14	243.42
467.32	259.80
467.51	332.36
467.69	245.76
467.87	222.35
468.05	311.29
468.23	311.29
468.41	201.29
468.60	189.58
468.78	196.60
468.96	189.58
469.14	201.29
469.32	243.42
469.50	149.79
469.69	236.39
469.87	273.84
470.05	154.48
470.23	222.35
470.41	217.67
470.59	166.18
470.77	163.84
470.95	243.42
471.14	311.29
471.32	208.31
471.50	278.52
471.68	168.52
471.86	227.03
472.04	159.16
472.22	198.95
472.40	191.92
472.58	255.12
472.77	264.48
472.95	229.37
473.13	212.99
473.31	266.82
473.49	250.44
473.67	224.69
473.85	212.99
474.03	229.37
474.21	252.78
474.39	257.46
474.57	194.26
474.75	180.22
474.93	306.61
475.12	234.05
475.30	222.35
475.48	269.16
475.66	191.92
475.84	231.71
476.02	187.24
476.20	194.26
476.38	262.14
476.56	245.76
476.74	238.73
476.92	273.84
477.10	294.91
477.28	294.91
477.46	173.20
477.64	259.80
477.82	297.25
478.00	269.16
478.18	259.80
478.36	203.63
478.54	290.23
478.72	243.42
478.90	231.71
479.08	126.39
479.26	241.08
479.44	212.99
479.62	297.25
479.80	248.10
479.98	215.33
480.16	259.80
480.34	229.37
480.52	217.67
480.70	271.50
480.88	215.33
481.06	262.14
481.24	224.69
481.41	224.69
481.59	220.01
481.77	229.37
481.95	220.01
482.13	243.42
482.31	259.80
482.49	306.61
482.67	231.71
482.85	299.59
483.03	252.78
483.21	220.01
483.39	234.05
483.57	163.84
483.74	252.78
483.92	313.63
484.10	191.92
484.28	257.46
484.46	290.23
484.64	262.14
484.82	252.78
485.00	217.67
485.18	297.25
485.35	257.46
485.53	187.24
485.71	250.44
485.89	184.90
486.07	227.03
486.25	269.16
486.43	220.01
486.61	273.84
486.78	292.57
486.96	217.67
487.14	327.68
487.32	255.12
487.50	304.27
487.68	271.50
487.85	280.86
488.03	301.93
488.21	327.68
488.39	229.37
488.57	294.91
488.75	339.38
488.92	557.05
489.10	400.23
489.28	311.29
489.46	369.80
489.64	308.95
489.81	287.89
489.99	318.31
490.17	315.97
490.35	367.46
490.53	330.02
490.70	290.23
490.88	322.99
491.06	327.68
491.24	337.04
491.41	294.91
491.59	362.78
491.77	283.20
491.95	299.59
492.13	315.97
492.30	304.27
492.48	294.91
492.66	381.51
492.84	376.83
493.01	308.95
493.19	297.25
493.37	430.66
493.54	231.71
493.72	292.57
493.90	322.99
494.08	348.74
494.25	308.95
494.43	325.33
494.61	285.55
494.79	351.08
494.96	297.25
495.14	330.02
495.32	339.38
495.49	292.57
495.67	411.93
495.85	346.40
496.02	248.10
496.20	355.76
496.38	231.71
496.55	362.78
496.73	320.65
496.91	322.99
497.09	299.59
497.26	337.04
497.44	280.86
497.62	287.89
497.79	341.72
497.97	362.78
498.14	318.31
498.32	322.99
498.50	411.93
498.67	285.55
498.85	327.68
499.03	318.31
499.20	383.85
499.38	334.70
499.56	411.93
499.73	355.76
499.91	447.04
500.08	414.27
500.26	299.59
500.44	313.63
500.61	327.68
500.79	376.83
500.97	334.70
501.14	339.38
501.32	390.87
501.49	322.99
501.67	243.42
501.84	327.68
502.02	294.91
502.20	393.21
502.37	308.95
502.55	358.10
502.72	264.48
502.90	393.21
503.07	374.49
503.25	332.36
503.43	351.08
503.60	367.46
503.78	222.35
503.95	294.91
504.13	334.70
504.30	320.65
504.48	304.27
504.65	339.38
504.83	369.80
505.01	393.21
505.18	376.83
505.36	355.76
505.53	348.74
505.71	381.51
505.88	315.97
506.06	355.76
506.23	360.44
506.41	318.31
506.58	402.57
506.76	430.66
506.93	287.89
507.11	360.44
507.28	386.19
507.46	339.38
507.63	301.93
507.81	395.55
507.98	330.02
508.16	383.85
508.33	346.40
508.50	365.12
508.68	327.68
508.85	393.21
509.03	358.10
509.20	355.76
509.38	365.12
509.55	360.44
509.73	397.89
509.90	442.36
510.08	273.84
510.25	388.53
510.42	344.06
510.60	362.78
510.77	337.04
510.95	351.08
511.12	374.49
511.30	369.80
511.47	395.55
511.64	437.68
511.82	383.85
511.99	442.36
512.17	334.70
512.34	285.55
512.51	325.33
512.69	339.38
512.86	327.68
513.04	341.72
513.21	418.96
513.38	332.36
513.56	367.46
513.73	355.76
513.90	346.40
514.08	318.31
514.25	379.17
514.43	397.89
514.60	348.74
514.77	332.36
514.95	393.21
515.12	355.76
515.29	367.46
515.47	435.34
515.64	397.89
515.81	353.42
515.99	442.36
516.16	355.76
516.33	402.57
516.51	386.19
516.68	325.33
516.85	374.49
517.03	285.55
517.20	334.70
517.37	444.70
517.54	348.74
517.72	365.12
517.89	327.68
518.06	325.33
518.24	341.72
518.41	332.36
518.58	416.62
518.75	379.17
518.93	430.66
519.10	351.08
519.27	325.33
519.45	472.79
519.62	388.53
519.79	440.02
519.96	367.46
520.14	402.57
520.31	407.25
520.48	351.08
520.65	414.27
520.83	451.72
521.00	435.34
521.17	425.98
521.34	381.51
521.52	402.57
521.69	358.10
521.86	365.12
522.03	440.02
522.20	416.62
522.38	346.40
522.55	402.57
522.72	344.06
522.89	397.89
523.07	407.25
523.24	360.44
523.41	318.31
523.58	463.43
523.75	369.80
523.92	353.42
524.10	388.53
524.27	451.72
524.44	404.91
524.61	435.34
524.78	465.77
524.96	395.55
525.13	397.89
525.30	409.59
525.47	388.53
525.64	435.34
525.81	344.06
525.98	383.85
526.16	404.91
526.33	346.40
526.50	344.06
526.67	297.25
526.84	425.98
527.01	421.30
527.18	430.66
527.36	386.19
527.53	337.04
527.70	376.83
527.87	395.55
528.04	535.98
528.21	454.06
528.38	440.02
528.55	500.87
528.72	463.43
528.89	418.96
529.07	365.12
529.24	435.34
529.41	465.77
529.58	463.43
529.75	351.08
529.92	416.62
530.09	374.49
530.26	435.34
530.43	372.15
530.60	341.72
530.77	397.89
530.94	411.93
531.11	442.36
531.28	339.38
531.46	353.42
531.63	397.89
531.80	404.91
531.97	402.57
532.14	376.83
532.31	383.85
532.48	374.49
532.65	404.91
532.82	425.98
532.99	353.42
533.16	421.30
533.33	381.51
533.50	341.72
533.67	437.68
533.84	418.96
534.01	400.23
534.18	465.77
534.35	369.80
534.52	418.96
534.69	428.32
534.86	414.27
535.03	383.85
535.20	397.89
535.37	435.34
535.54	397.89
535.71	369.80
535.88	475.13
536.05	470.45
536.22	421.30
536.38	407.25
536.55	395.55
536.72	393.21
536.89	386.19
537.06	360.44
537.23	367.46
537.40	430.66
537.57	409.59
537.74	414.27
537.91	477.47
538.08	437.68
538.25	411.93
538.42	388.53
538.59	383.85
538.75	358.10
538.92	442.36
539.09	470.45
539.26	339.38
539.43	449.38
539.60	411.93
539.77	367.46
539.94	355.76
540.11	430.66
540.28	407.25
540.44	444.70
540.61	456.40
540.78	414.27
540.95	369.80
541.12	397.89
541.29	332.36
541.46	421.30
541.62	430.66
541.79	358.10
541.96	351.08
542.13	437.68
542.30	383.85
542.47	447.04
542.63	334.70
542.80	383.85
542.97	407.25
543.14	397.89
543.31	414.27
543.48	475.13
543.64	400.23
543.81	325.33
543.98	351.08
544.15	376.83
544.32	386.19
544.48	341.72
544.65	381.51
544.82	397.89
544.99	390.87
545.16	425.98
545.32	355.76
545.49	365.12
545.66	351.08
545.83	376.83
546.00	344.06
546.16	402.57
546.33	372.15
546.50	416.62
546.67	395.55
546.83	409.59
547.00	397.89
547.17	435.34
547.34	376.83
547.50	386.19
547.67	414.27
547.84	311.29
548.00	423.64
548.17	390.87
548.34	435.34
548.51	390.87
548.67	482.15
548.84	451.72
549.01	421.30
549.18	465.77
549.34	388.53
549.51	421.30
549.68	477.47
549.84	395.55
550.01	341.72
550.18	514.92
550.34	397.89
550.51	421.30
550.68	440.02
550.84	372.15
551.01	315.97
551.18	451.72
551.34	463.43
551.51	421.30
551.68	383.85
551.84	402.57
552.01	344.06
552.18	344.06
552.34	308.95
552.51	365.12
552.68	390.87
552.84	423.64
553.01	393.21
553.18	365.12
553.34	498.53
553.51	327.68
553.67	500.87
553.84	390.87
554.01	421.30
554.17	433.00
554.34	379.17
554.51	388.53
554.67	418.96
554.84	369.80
555.00	425.98
555.17	339.38
555.33	402.57
555.50	451.72
555.67	416.62
555.83	416.62
556.00	418.96
556.16	528.96
556.33	414.27
556.50	358.10
556.66	351.08
556.83	362.78
556.99	456.40
557.16	421.30
557.32	365.12
557.49	397.89
557.65	344.06
557.82	463.43
557.98	388.53
558.15	327.68
558.32	393.21
558.48	344.06
558.65	362.78
558.81	414.27
558.98	414.27
559.14	374.49
559.31	383.85
559.47	365.12
559.64	355.76
559.80	400.23
559.97	407.25
560.13	435.34
560.30	465.77
560.46	390.87
560.63	358.10
560.79	376.83
560.96	404.91
561.12	353.42
561.29	404.91
561.45	353.42
561.61	425.98
561.78	428.32
561.94	376.83
562.11	386.19
562.27	379.17
562.44	402.57
562.60	425.98
562.77	383.85
562.93	470.45
563.10	447.04
563.26	369.80
563.42	388.53
563.59	372.15
563.75	353.42
563.92	334.70
564.08	393.21
564.24	355.76
564.41	348.74
564.57	330.02
564.74	365.12
564.90	430.66
565.07	449.38
565.23	374.49
565.39	353.42
565.56	367.46
565.72	348.74
565.88	339.38
566.05	313.63
566.21	358.10
566.38	322.99
566.54	386.19
566.70	320.65
566.87	304.27
567.03	334.70
567.19	358.10
567.36	407.25
567.52	339.38
567.68	376.83
567.85	421.30
568.01	346.40
568.17	299.59
568.34	285.55
568.50	458.74
568.66	355.76
568.83	447.04
568.99	276.18
569.15	346.40
569.32	332.36
569.48	292.57
569.64	327.68
569.81	367.46
569.97	404.91
570.13	430.66
570.30	337.04
570.46	344.06
570.62	425.98
570.78	386.19
570.95	339.38
571.11	421.30
571.27	369.80
571.43	376.83
571.60	248.10
571.76	381.51
571.92	358.10
572.09	369.80
572.25	283.20
572.41	332.36
572.57	362.78
572.74	418.96
572.90	369.80
573.06	355.76
573.22	332.36
573.38	388.53
573.55	390.87
573.71	407.25
573.87	416.62
574.03	306.61
574.20	397.89
574.36	451.72
574.52	367.46
574.68	304.27
574.84	315.97
575.01	369.80
575.17	266.82
575.33	285.55
575.49	320.65
575.65	318.31
575.82	374.49
575.98	374.49
576.14	409.59
576.30	397.89
576.46	276.18
576.62	348.74
576.79	344.06
576.95	353.42
577.11	322.99
577.27	393.21
577.43	374.49
577.59	421.30
577.75	308.95
577.92	348.74
578.08	334.70
578.24	355.76
578.40	369.80
578.56	404.91
578.72	390.87
578.88	444.70
579.04	318.31
579.21	423.64
579.37	397.89
579.53	365.12
579.69	369.80
579.85	367.46
580.01	402.57
580.17	337.04
580.33	290.23
580.49	344.06
580.65	285.55
580.82	348.74
580.98	379.17
581.14	355.76
581.30	425.98
581.46	376.83
581.62	341.72
581.78	297.25
581.94	433.00
582.10	348.74
582.26	327.68
582.42	337.04
582.58	327.68
582.74	468.11
582.90	327.68
583.06	386.19
583.22	360.44
583.38	318.31
583.54	393.21
583.70	330.02
583.86	388.53
584.02	337.04
584.18	339.38
584.34	341.72
584.50	306.61
584.66	365.12
584.82	348.74
584.98	334.70
585.14	306.61
585.30	397.89
585.46	437.68
585.62	325.33
585.78	383.85
585.94	416.62
586.10	337.04
586.26	376.83
586.42	360.44
586.58	358.10
586.74	332.36
586.90	362.78
587.06	306.61
587.22	318.31
587.38	348.74
587.54	381.51
587.70	325.33
587.86	393.21
588.02	381.51
588.18	358.10
588.34	306.61
588.49	224.69
588.65	236.39
588.81	250.44
588.97	250.44
589.13	308.95
589.29	301.93
589.45	332.36
589.61	271.50
589.77	287.89
589.93	245.76
590.08	259.80
590.24	301.93
590.40	339.38
590.56	273.84
590.72	276.18
590.88	320.65
591.04	299.59
591.20	285.55
591.35	341.72
591.51	374.49
591.67	313.63
591.83	255.12
591.99	276.18
592.15	306.61
592.31	322.99
592.46	318.31
592.62	320.65
592.78	280.86
592.94	320.65
593.10	365.12
593.26	257.46
593.41	318.31
593.57	332.36
593.73	341.72
593.89	306.61
594.05	292.57
594.20	215.33
594.36	362.78
594.52	229.37
594.68	290.23
594.84	383.85
594.99	367.46
595.15	339.38
595.31	369.80
595.47	280.86
595.62	283.20
595.78	285.55
595.94	318.31
596.10	332.36
596.25	330.02
596.41	388.53
596.57	276.18
596.73	355.76
596.88	353.42
597.04	348.74
597.20	393.21
597.36	339.38
597.51	266.82
597.67	290.23
597.83	287.89
597.99	367.46
598.14	358.10
598.30	353.42
598.46	362.78
598.61	311.29
598.77	362.78
598.93	393.21
599.09	390.87
599.24	339.38
599.40	393.21
599.56	311.29
599.71	292.57
599.87	355.76
600.03	332.36
600.18	271.50
600.34	365.12
600.50	257.46
600.65	278.52
600.81	337.04
600.97	287.89
601.12	334.70
601.28	397.89
601.44	358.10
601.59	292.57
601.75	301.93
601.91	290.23
602.06	318.31
602.22	330.02
602.37	360.44
602.53	304.27
602.69	346.40
602.84	308.95
603.00	332.36
603.16	322.99
603.31	372.15
603.47	332.36
603.62	262.14
603.78	334.70
603.94	341.72
604.09	423.64
604.25	325.33
604.40	292.57
604.56	325.33
604.71	379.17
604.87	318.31
605.03	245.76
605.18	304.27
605.34	313.63
605.49	346.40
605.65	332.36
605.80	358.10
605.96	313.63
606.12	369.80
606.27	388.53
606.43	341.72
606.58	325.33
606.74	402.57
606.89	334.70
607.05	365.12
607.20	383.85
607.36	355.76
607.51	322.99
607.67	367.46
607.82	374.49
607.98	348.74
608.13	290.23
608.29	334.70
608.44	346.40
608.60	315.97
608.75	367.46
608.91	404.91
609.06	400.23
609.22	299.59
609.37	278.52
609.53	313.63
609.68	313.63
609.84	299.59
609.99	255.12
610.15	365.12
610.30	360.44
610.46	297.25
610.61	301.93
610.76	341.72
610.92	362.78
611.07	320.65
611.23	395.55
611.38	311.29
611.54	266.82
