SpectraSuite Data File
++++++++++++++++++++++++++++++++++++
Date: Fri Oct 04 11:47:00 GMT-05:00 2013
User: price-jones
Dark Spectrum Present: No
Reference Spectrum Present: No
Number of Sampled Component Spectra: 1
Spectrometers: USB2+H05261
Integration Time (usec): 100000 (USB2+H05261)
Spectra Averaged: 1 (USB2+H05261)
Boxcar Smoothing: 0 (USB2+H05261)
Correct for Electrical Dark: No (USB2+H05261)
Strobe/Lamp Enabled: No (USB2+H05261)
Correct for Detector Non-linearity: No (USB2+H05261)
Correct for Stray Light: No (USB2+H05261)
Number of Pixels in Processed Spectrum: 2048
>>>>>Begin Processed Spectral Data<<<<<
365.73	51.49
365.92	51.49
366.12	51.49
366.32	23.41
366.52	0.00
366.72	0.00
366.91	0.00
367.11	0.00
367.31	0.00
367.51	0.00
367.70	0.00
367.90	0.00
368.10	0.00
368.30	0.00
368.49	0.00
368.69	0.00
368.89	0.00
369.09	0.00
369.28	0.00
369.48	0.00
369.68	0.00
369.87	0.00
370.07	0.00
370.27	4.68
370.47	21.06
370.66	21.06
370.86	18.72
371.06	49.15
371.25	121.71
371.45	77.24
371.65	28.09
371.84	91.28
372.04	98.30
372.24	23.41
372.44	2.34
372.63	53.83
372.83	154.48
373.03	93.62
373.22	58.51
373.42	37.45
373.62	131.07
373.81	91.28
374.01	114.69
374.21	189.58
374.40	88.94
374.60	184.90
374.79	74.90
374.99	39.79
375.19	58.51
375.38	126.39
375.58	84.26
375.78	128.73
375.97	117.03
376.17	133.41
376.37	105.32
376.56	133.41
376.76	105.32
376.95	35.11
377.15	93.62
377.35	86.60
377.54	147.45
377.74	133.41
377.93	135.75
378.13	93.62
378.33	121.71
378.52	126.39
378.72	138.09
378.91	91.28
379.11	84.26
379.31	138.09
379.50	25.75
379.70	95.96
379.89	145.11
380.09	93.62
380.28	102.98
380.48	65.54
380.68	0.00
380.87	42.13
381.07	65.54
381.26	152.13
381.46	142.77
381.65	88.94
381.85	56.17
382.04	70.22
382.24	170.86
382.43	81.92
382.63	112.35
382.83	95.96
383.02	159.16
383.22	107.66
383.41	93.62
383.61	46.81
383.80	53.83
384.00	60.85
384.19	77.24
384.39	77.24
384.58	102.98
384.78	161.50
384.97	119.37
385.17	70.22
385.36	133.41
385.56	135.75
385.75	91.28
385.95	107.66
386.14	131.07
386.34	67.88
386.53	102.98
386.72	110.01
386.92	86.60
387.11	74.90
387.31	131.07
387.50	35.11
387.70	105.32
387.89	81.92
388.09	32.77
388.28	114.69
388.48	72.56
388.67	117.03
388.86	65.54
389.06	53.83
389.25	140.43
389.45	147.45
389.64	53.83
389.84	84.26
390.03	166.18
390.22	79.58
390.42	142.77
390.61	79.58
390.81	142.77
391.00	105.32
391.19	67.88
391.39	131.07
391.58	177.88
391.78	84.26
391.97	124.05
392.16	2.34
392.36	163.84
392.55	128.73
392.75	42.13
392.94	65.54
393.13	72.56
393.33	86.60
393.52	79.58
393.71	142.77
393.91	133.41
394.10	128.73
394.29	163.84
394.49	154.48
394.68	152.13
394.88	163.84
395.07	145.11
395.26	51.49
395.46	77.24
395.65	138.09
395.84	102.98
396.04	194.26
396.23	67.88
396.42	105.32
396.62	98.30
396.81	98.30
397.00	63.19
397.19	93.62
397.39	128.73
397.58	135.75
397.77	114.69
397.97	147.45
398.16	91.28
398.35	121.71
398.55	117.03
398.74	121.71
398.93	114.69
399.12	81.92
399.32	95.96
399.51	86.60
399.70	42.13
399.90	100.64
400.09	93.62
400.28	81.92
400.47	95.96
400.67	117.03
400.86	98.30
401.05	138.09
401.24	98.30
401.44	159.16
401.63	147.45
401.82	86.60
402.01	4.68
402.21	60.85
402.40	65.54
402.59	107.66
402.78	49.15
402.97	35.11
403.17	166.18
403.36	156.82
403.55	112.35
403.74	138.09
403.93	170.86
404.13	194.26
404.32	234.05
404.51	124.05
404.70	152.13
404.89	117.03
405.09	84.26
405.28	112.35
405.47	133.41
405.66	4.68
405.85	119.37
406.05	124.05
406.24	159.16
406.43	91.28
406.62	163.84
406.81	175.54
407.00	128.73
407.20	74.90
407.39	124.05
407.58	140.43
407.77	163.84
407.96	102.98
408.15	149.79
408.34	145.11
408.54	105.32
408.73	131.07
408.92	117.03
409.11	88.94
409.30	166.18
409.49	39.79
409.68	117.03
409.87	140.43
410.07	42.13
410.26	102.98
410.45	154.48
410.64	84.26
410.83	51.49
411.02	131.07
411.21	112.35
411.40	121.71
411.59	138.09
411.78	112.35
411.98	95.96
412.17	25.75
412.36	74.90
412.55	74.90
412.74	152.13
412.93	149.79
413.12	163.84
413.31	67.88
413.50	124.05
413.69	63.19
413.88	163.84
414.07	107.66
414.26	114.69
414.45	154.48
414.64	95.96
414.83	114.69
415.02	154.48
415.22	159.16
415.41	145.11
415.60	74.90
415.79	168.52
415.98	166.18
416.17	105.32
416.36	93.62
416.55	138.09
416.74	189.58
416.93	145.11
417.12	124.05
417.31	105.32
417.50	159.16
417.69	241.08
417.88	154.48
418.07	255.12
418.26	145.11
418.45	138.09
418.64	252.78
418.83	220.01
419.02	227.03
419.21	198.95
419.39	191.92
419.58	156.82
419.77	131.07
419.96	180.22
420.15	210.65
420.34	117.03
420.53	142.77
420.72	95.96
420.91	88.94
421.10	98.30
421.29	145.11
421.48	156.82
421.67	135.75
421.86	88.94
422.05	147.45
422.24	74.90
422.43	177.88
422.61	88.94
422.80	114.69
422.99	126.39
423.18	198.95
423.37	187.24
423.56	131.07
423.75	119.37
423.94	88.94
424.13	154.48
424.32	114.69
424.50	131.07
424.69	49.15
424.88	74.90
425.07	131.07
425.26	170.86
425.45	222.35
425.64	222.35
425.83	259.80
426.01	217.67
426.20	119.37
426.39	135.75
426.58	131.07
426.77	135.75
426.96	142.77
427.15	110.01
427.33	142.77
427.52	147.45
427.71	112.35
427.90	105.32
428.09	140.43
428.28	138.09
428.46	124.05
428.65	182.56
428.84	117.03
429.03	128.73
429.22	100.64
429.40	121.71
429.59	182.56
429.78	180.22
429.97	98.30
430.16	126.39
430.34	124.05
430.53	98.30
430.72	112.35
430.91	102.98
431.10	72.56
431.28	119.37
431.47	107.66
431.66	131.07
431.85	133.41
432.03	166.18
432.22	147.45
432.41	93.62
432.60	187.24
432.79	163.84
432.97	301.93
433.16	299.59
433.35	238.73
433.54	189.58
433.72	156.82
433.91	133.41
434.10	168.52
434.28	128.73
434.47	133.41
434.66	131.07
434.85	128.73
435.03	159.16
435.22	236.39
435.41	163.84
435.59	166.18
435.78	110.01
435.97	79.58
436.16	198.95
436.34	124.05
436.53	189.58
436.72	128.73
436.90	114.69
437.09	231.71
437.28	95.96
437.46	149.79
437.65	166.18
437.84	147.45
438.02	44.47
438.21	147.45
438.40	117.03
438.58	110.01
438.77	105.32
438.96	145.11
439.14	107.66
439.33	56.17
439.52	65.54
439.70	98.30
439.89	166.18
440.08	100.64
440.26	238.73
440.45	98.30
440.63	100.64
440.82	187.24
441.01	161.50
441.19	121.71
441.38	65.54
441.57	163.84
441.75	149.79
441.94	222.35
442.12	166.18
442.31	110.01
442.50	124.05
442.68	86.60
442.87	121.71
443.05	135.75
443.24	182.56
443.43	198.95
443.61	149.79
443.80	117.03
443.98	65.54
444.17	131.07
444.35	184.90
444.54	119.37
444.73	121.71
444.91	182.56
445.10	102.98
445.28	88.94
445.47	168.52
445.65	142.77
445.84	156.82
446.02	175.54
446.21	117.03
446.39	93.62
446.58	121.71
446.77	117.03
446.95	126.39
447.14	145.11
447.32	161.50
447.51	93.62
447.69	119.37
447.88	152.13
448.06	140.43
448.25	124.05
448.43	56.17
448.62	121.71
448.80	95.96
448.99	152.13
449.17	77.24
449.36	138.09
449.54	46.81
449.73	180.22
449.91	159.16
450.10	133.41
450.28	156.82
450.46	154.48
450.65	49.15
450.83	95.96
451.02	184.90
451.20	81.92
451.39	124.05
451.57	140.43
451.76	182.56
451.94	117.03
452.13	121.71
452.31	187.24
452.49	166.18
452.68	163.84
452.86	175.54
453.05	126.39
453.23	163.84
453.42	126.39
453.60	170.86
453.78	138.09
453.97	140.43
454.15	110.01
454.34	149.79
454.52	152.13
454.70	191.92
454.89	126.39
455.07	135.75
455.26	70.22
455.44	58.51
455.62	124.05
455.81	215.33
455.99	119.37
456.17	86.60
456.36	91.28
456.54	131.07
456.73	147.45
456.91	91.28
457.09	191.92
457.28	184.90
457.46	131.07
457.64	124.05
457.83	124.05
458.01	100.64
458.19	154.48
458.38	126.39
458.56	154.48
458.74	79.58
458.93	212.99
459.11	187.24
459.29	93.62
459.48	149.79
459.66	290.23
459.84	208.31
460.03	278.52
460.21	187.24
460.39	170.86
460.57	182.56
460.76	196.60
460.94	217.67
461.12	152.13
461.31	177.88
461.49	156.82
461.67	44.47
461.85	201.29
462.04	84.26
462.22	585.13
462.40	149.79
462.59	180.22
462.77	51.49
462.95	149.79
463.13	114.69
463.32	124.05
463.50	117.03
463.68	135.75
463.86	189.58
464.05	124.05
464.23	182.56
464.41	161.50
464.59	159.16
464.78	170.86
464.96	124.05
465.14	149.79
465.32	184.90
465.50	149.79
465.69	135.75
465.87	81.92
466.05	161.50
466.23	65.54
466.41	163.84
466.60	177.88
466.78	119.37
466.96	159.16
467.14	180.22
467.32	156.82
467.51	112.35
467.69	140.43
467.87	210.65
468.05	126.39
468.23	208.31
468.41	175.54
468.60	163.84
468.78	91.28
468.96	168.52
469.14	100.64
469.32	112.35
469.50	112.35
469.69	117.03
469.87	177.88
470.05	166.18
470.23	128.73
470.41	145.11
470.59	112.35
470.77	227.03
470.95	198.95
471.14	177.88
471.32	112.35
471.50	110.01
471.68	142.77
471.86	222.35
472.04	147.45
472.22	112.35
472.40	163.84
472.58	145.11
472.77	110.01
472.95	208.31
473.13	215.33
473.31	203.63
473.49	128.73
473.67	81.92
473.85	128.73
474.03	133.41
474.21	229.37
474.39	140.43
474.57	156.82
474.75	105.32
474.93	121.71
475.12	159.16
475.30	110.01
475.48	191.92
475.66	175.54
475.84	114.69
476.02	208.31
476.20	187.24
476.38	81.92
476.56	173.20
476.74	67.88
476.92	135.75
477.10	88.94
477.28	252.78
477.46	133.41
477.64	166.18
477.82	180.22
478.00	86.60
478.18	98.30
478.36	112.35
478.54	126.39
478.72	142.77
478.90	138.09
479.08	175.54
479.26	180.22
479.44	224.69
479.62	95.96
479.80	58.51
479.98	166.18
480.16	102.98
480.34	196.60
480.52	128.73
480.70	149.79
480.88	196.60
481.06	173.20
481.24	163.84
481.41	86.60
481.59	170.86
481.77	161.50
481.95	198.95
482.13	222.35
482.31	210.65
482.49	187.24
482.67	156.82
482.85	166.18
483.03	227.03
483.21	142.77
483.39	110.01
483.57	198.95
483.74	241.08
483.92	222.35
484.10	187.24
484.28	149.79
484.46	182.56
484.64	110.01
484.82	145.11
485.00	205.97
485.18	203.63
485.35	220.01
485.53	159.16
485.71	156.82
485.89	112.35
486.07	152.13
486.25	229.37
486.43	212.99
486.61	208.31
486.78	128.73
486.96	184.90
487.14	161.50
487.32	229.37
487.50	177.88
487.68	112.35
487.85	168.52
488.03	121.71
488.21	177.88
488.39	187.24
488.57	156.82
488.75	184.90
488.92	330.02
489.10	194.26
489.28	278.52
489.46	149.79
489.64	205.97
489.81	117.03
489.99	191.92
490.17	177.88
490.35	220.01
490.53	194.26
490.70	196.60
490.88	229.37
491.06	187.24
491.24	152.13
491.41	257.46
491.59	182.56
491.77	133.41
491.95	121.71
492.13	191.92
492.30	131.07
492.48	203.63
492.66	236.39
492.84	170.86
493.01	194.26
493.19	222.35
493.37	175.54
493.54	182.56
493.72	229.37
493.90	224.69
494.08	102.98
494.25	175.54
494.43	208.31
494.61	210.65
494.79	149.79
494.96	105.32
495.14	198.95
495.32	112.35
495.49	112.35
495.67	145.11
495.85	217.67
496.02	119.37
496.20	194.26
496.38	224.69
496.55	168.52
496.73	149.79
496.91	156.82
497.09	173.20
497.26	241.08
497.44	220.01
497.62	126.39
497.79	163.84
497.97	152.13
498.14	184.90
498.32	189.58
498.50	133.41
498.67	79.58
498.85	184.90
499.03	170.86
499.20	187.24
499.38	170.86
499.56	241.08
499.73	217.67
499.91	196.60
500.08	191.92
500.26	135.75
500.44	198.95
500.61	175.54
500.79	163.84
500.97	210.65
501.14	177.88
501.32	161.50
501.49	287.89
501.67	229.37
501.84	229.37
502.02	215.33
502.20	194.26
502.37	229.37
502.55	154.48
502.72	224.69
502.90	208.31
503.07	177.88
503.25	191.92
503.43	175.54
503.60	182.56
503.78	156.82
503.95	175.54
504.13	161.50
504.30	170.86
504.48	234.05
504.65	271.50
504.83	224.69
505.01	259.80
505.18	229.37
505.36	227.03
505.53	124.05
505.71	189.58
505.88	224.69
506.06	201.29
506.23	180.22
506.41	152.13
506.58	189.58
506.76	215.33
506.93	170.86
507.11	208.31
507.28	208.31
507.46	177.88
507.63	180.22
507.81	154.48
507.98	201.29
508.16	217.67
508.33	131.07
508.50	220.01
508.68	210.65
508.85	189.58
509.03	266.82
509.20	187.24
509.38	259.80
509.55	224.69
509.73	227.03
509.90	243.42
510.08	203.63
510.25	222.35
510.42	147.45
510.60	175.54
510.77	198.95
510.95	252.78
511.12	177.88
511.30	236.39
511.47	355.76
511.64	236.39
511.82	248.10
511.99	177.88
512.17	224.69
512.34	198.95
512.51	170.86
512.69	245.76
512.86	257.46
513.04	191.92
513.21	196.60
513.38	175.54
513.56	299.59
513.73	194.26
513.90	152.13
514.08	191.92
514.25	234.05
514.43	245.76
514.60	156.82
514.77	198.95
514.95	205.97
515.12	189.58
515.29	215.33
515.47	227.03
515.64	229.37
515.81	159.16
515.99	231.71
516.16	196.60
516.33	306.61
516.51	224.69
516.68	238.73
516.85	231.71
517.03	131.07
517.20	220.01
517.37	250.44
517.54	229.37
517.72	208.31
517.89	124.05
518.06	234.05
518.24	191.92
518.41	245.76
518.58	248.10
518.75	168.52
518.93	222.35
519.10	189.58
519.27	215.33
519.45	264.48
519.62	205.97
519.79	255.12
519.96	205.97
520.14	241.08
520.31	250.44
520.48	196.60
520.65	292.57
520.83	212.99
521.00	201.29
521.17	166.18
521.34	163.84
521.52	285.55
521.69	159.16
521.86	182.56
522.03	236.39
522.20	243.42
522.38	173.20
522.55	91.28
522.72	147.45
522.89	217.67
523.07	203.63
523.24	189.58
523.41	266.82
523.58	161.50
523.75	168.52
523.92	152.13
524.10	156.82
524.27	252.78
524.44	217.67
524.61	220.01
524.78	184.90
524.96	227.03
525.13	245.76
525.30	236.39
525.47	156.82
525.64	187.24
525.81	131.07
525.98	175.54
526.16	215.33
526.33	248.10
526.50	255.12
526.67	191.92
526.84	156.82
527.01	205.97
527.18	248.10
527.36	156.82
527.53	177.88
527.70	297.25
527.87	203.63
528.04	189.58
528.21	245.76
528.38	243.42
528.55	292.57
528.72	283.20
528.89	250.44
529.07	243.42
529.24	248.10
529.41	241.08
529.58	229.37
529.75	224.69
529.92	196.60
530.09	238.73
530.26	224.69
530.43	236.39
530.60	217.67
530.77	184.90
530.94	259.80
531.11	208.31
531.28	105.32
531.46	187.24
531.63	217.67
531.80	182.56
531.97	191.92
532.14	264.48
532.31	217.67
532.48	238.73
532.65	454.06
532.82	423.64
532.99	353.42
533.16	259.80
533.33	276.18
533.50	262.14
533.67	388.53
533.84	444.70
534.01	512.58
534.18	348.74
534.35	292.57
534.52	306.61
534.69	262.14
534.86	184.90
535.03	210.65
535.20	159.16
535.37	290.23
535.54	166.18
535.71	271.50
535.88	184.90
536.05	215.33
536.22	217.67
536.38	210.65
536.55	154.48
536.72	224.69
536.89	220.01
537.06	196.60
537.23	215.33
537.40	196.60
537.57	259.80
537.74	262.14
537.91	184.90
538.08	212.99
538.25	287.89
538.42	224.69
538.59	229.37
538.75	191.92
538.92	257.46
539.09	285.55
539.26	229.37
539.43	500.87
539.60	1380.92
539.77	2172.02
539.94	2127.55
540.11	1401.98
540.28	903.45
540.44	477.47
540.61	339.38
540.78	182.56
540.95	145.11
541.12	262.14
541.29	259.80
541.46	299.59
541.62	243.42
541.79	168.52
541.96	250.44
542.13	222.35
542.30	231.71
542.47	287.89
542.63	156.82
542.80	224.69
542.97	243.42
543.14	234.05
543.31	222.35
543.48	271.50
543.64	215.33
543.81	259.80
543.98	196.60
544.15	208.31
544.32	210.65
544.48	189.58
544.65	180.22
544.82	210.65
544.99	180.22
545.16	320.65
545.32	140.43
545.49	255.12
545.66	210.65
545.83	220.01
546.00	264.48
546.16	208.31
546.33	276.18
546.50	198.95
546.67	234.05
546.83	205.97
547.00	238.73
547.17	203.63
547.34	128.73
547.50	114.69
547.67	133.41
547.84	175.54
548.00	203.63
548.17	208.31
548.34	182.56
548.51	208.31
548.67	194.26
548.84	227.03
549.01	262.14
549.18	238.73
549.34	245.76
549.51	264.48
549.68	159.16
549.84	255.12
550.01	182.56
550.18	294.91
550.34	236.39
550.51	198.95
550.68	187.24
550.84	163.84
551.01	243.42
551.18	227.03
551.34	201.29
551.51	203.63
551.68	182.56
551.84	170.86
552.01	189.58
552.18	210.65
552.34	175.54
552.51	231.71
552.68	236.39
552.84	203.63
553.01	163.84
553.18	208.31
553.34	184.90
553.51	217.67
553.67	159.16
553.84	262.14
554.01	201.29
554.17	231.71
554.34	236.39
554.51	208.31
554.67	220.01
554.84	220.01
555.00	124.05
555.17	175.54
555.33	198.95
555.50	184.90
555.67	234.05
555.83	236.39
556.00	264.48
556.16	475.13
556.33	294.91
556.50	187.24
556.66	203.63
556.83	224.69
556.99	220.01
557.16	215.33
557.32	163.84
557.49	229.37
557.65	224.69
557.82	180.22
557.98	147.45
558.15	114.69
558.32	210.65
558.48	215.33
558.65	180.22
558.81	222.35
558.98	212.99
559.14	212.99
559.31	194.26
559.47	205.97
559.64	154.48
559.80	217.67
559.97	154.48
560.13	149.79
560.30	220.01
560.46	250.44
560.63	266.82
560.79	196.60
560.96	147.45
561.12	145.11
561.29	276.18
561.45	266.82
561.61	210.65
561.78	278.52
561.94	189.58
562.11	236.39
562.27	224.69
562.44	205.97
562.60	250.44
562.77	187.24
562.93	320.65
563.10	217.67
563.26	187.24
563.42	238.73
563.59	210.65
563.75	224.69
563.92	325.33
564.08	196.60
564.24	205.97
564.41	212.99
564.57	191.92
564.74	220.01
564.90	269.16
565.07	198.95
565.23	287.89
565.39	243.42
565.56	222.35
565.72	252.78
565.88	264.48
566.05	276.18
566.21	241.08
566.38	229.37
566.54	243.42
566.70	203.63
566.87	147.45
567.03	166.18
567.19	163.84
567.36	234.05
567.52	117.03
567.68	269.16
567.85	255.12
568.01	257.46
568.17	196.60
568.34	243.42
568.50	220.01
568.66	245.76
568.83	217.67
568.99	252.78
569.15	196.60
569.32	189.58
569.48	187.24
569.64	189.58
569.81	259.80
569.97	252.78
570.13	252.78
570.30	184.90
570.46	166.18
570.62	229.37
570.78	266.82
570.95	112.35
571.11	177.88
571.27	222.35
571.43	154.48
571.60	224.69
571.76	201.29
571.92	201.29
572.09	180.22
572.25	215.33
572.41	201.29
572.57	126.39
572.74	161.50
572.90	222.35
573.06	234.05
573.22	198.95
573.38	215.33
573.55	292.57
573.71	222.35
573.87	180.22
574.03	187.24
574.20	257.46
574.36	339.38
574.52	397.89
574.68	318.31
574.84	379.17
575.01	257.46
575.17	294.91
575.33	234.05
575.49	217.67
575.65	337.04
575.82	348.74
575.98	660.03
576.14	919.83
576.30	931.53
576.46	711.52
576.62	564.07
576.79	315.97
576.95	346.40
577.11	308.95
577.27	212.99
577.43	271.50
577.59	290.23
577.75	308.95
577.92	290.23
578.08	262.14
578.24	306.61
578.40	262.14
578.56	292.57
578.72	248.10
578.88	273.84
579.04	285.55
579.21	278.52
579.37	266.82
579.53	306.61
579.69	301.93
579.85	332.36
580.01	503.22
580.17	482.15
580.33	355.76
580.49	409.59
580.65	381.51
580.82	365.12
580.98	383.85
581.14	315.97
581.30	463.43
581.46	519.60
581.62	767.70
581.78	751.31
581.94	784.08
582.10	603.86
582.26	545.34
582.42	482.15
582.58	489.17
582.74	489.17
582.90	510.24
583.06	580.45
583.22	580.45
583.38	603.86
583.54	669.39
583.70	695.14
583.86	828.55
584.02	1064.94
584.18	1291.98
584.34	1598.59
584.50	4341.69
584.66	34045.43
584.82	65535.00
584.98	65535.00
585.14	65535.00
585.30	65352.44
585.46	44514.65
585.62	28037.28
585.78	12624.85
585.94	4800.44
586.10	2193.08
586.26	1394.96
586.42	1151.54
586.58	990.05
586.74	802.80
586.90	847.27
587.06	739.61
587.22	610.88
587.38	650.67
587.54	1577.52
587.70	5032.15
587.86	8777.01
588.02	10015.15
588.18	7052.03
588.34	4280.84
588.49	2803.96
588.65	1584.54
588.81	814.51
588.97	519.60
589.13	374.49
589.29	339.38
589.45	344.06
589.61	372.15
589.77	472.79
589.93	554.71
590.08	585.13
590.24	657.69
590.40	519.60
590.56	528.96
590.72	468.11
590.88	367.46
591.04	390.87
591.20	372.15
591.35	393.21
591.51	400.23
591.67	383.85
591.83	311.29
591.99	264.48
592.15	327.68
592.31	266.82
592.46	320.65
592.62	301.93
592.78	306.61
592.94	320.65
593.10	346.40
593.26	423.64
593.41	421.30
593.57	437.68
593.73	664.71
593.89	4023.38
594.05	10841.36
594.20	16999.31
594.36	16348.64
594.52	10441.13
594.68	6384.98
594.84	4100.62
594.99	2267.98
595.15	997.07
595.31	592.16
595.47	414.27
595.62	341.72
595.78	346.40
595.94	301.93
596.10	327.68
596.25	376.83
596.41	512.58
596.57	327.68
596.73	390.87
596.88	685.78
597.04	1998.82
597.20	3295.47
597.36	4217.65
597.51	3042.70
597.67	1980.09
597.83	1308.36
597.99	856.64
598.14	528.96
598.30	423.64
598.46	369.80
598.61	414.27
598.77	332.36
598.93	395.55
599.09	341.72
599.24	257.46
599.40	348.74
599.56	238.73
599.71	231.71
599.87	320.65
600.03	264.48
600.18	252.78
600.34	220.01
600.50	184.90
600.65	180.22
600.81	238.73
600.97	220.01
601.12	203.63
601.28	264.48
601.44	238.73
601.59	262.14
601.75	196.60
601.91	280.86
602.06	203.63
602.22	451.72
602.37	901.11
602.53	2396.71
602.69	4007.00
602.84	4283.18
603.00	3038.02
603.16	2073.71
603.31	1418.36
603.47	896.43
603.62	543.00
603.78	337.04
603.94	318.31
604.09	280.86
604.25	285.55
604.40	222.35
604.56	220.01
604.71	245.76
604.87	283.20
605.03	236.39
605.18	234.05
605.34	257.46
605.49	315.97
605.65	269.16
605.80	327.68
605.96	360.44
606.12	360.44
606.27	372.15
606.43	353.42
606.58	421.30
606.74	1177.29
606.89	4985.34
607.05	10569.86
607.20	14209.39
607.36	11859.49
607.51	7819.73
607.67	5093.01
607.82	3520.17
607.98	1741.36
608.13	877.70
608.29	528.96
608.44	486.83
608.60	458.74
608.75	653.01
608.91	1593.90
609.06	7735.47
609.22	18162.56
609.37	25144.38
609.53	22235.09
609.68	14438.76
609.84	9233.41
609.99	5989.43
610.15	3082.49
610.30	1453.47
610.46	791.10
610.61	468.11
610.76	372.15
610.92	409.59
611.07	287.89
611.23	498.53
611.38	430.66
611.54	414.27
