SpectraSuite Data File
++++++++++++++++++++++++++++++++++++
Date: Fri Oct 04 11:46:59 GMT-05:00 2013
User: price-jones
Dark Spectrum Present: No
Reference Spectrum Present: No
Number of Sampled Component Spectra: 1
Spectrometers: USB2+H05261
Integration Time (usec): 100000 (USB2+H05261)
Spectra Averaged: 1 (USB2+H05261)
Boxcar Smoothing: 0 (USB2+H05261)
Correct for Electrical Dark: No (USB2+H05261)
Strobe/Lamp Enabled: No (USB2+H05261)
Correct for Detector Non-linearity: No (USB2+H05261)
Correct for Stray Light: No (USB2+H05261)
Number of Pixels in Processed Spectrum: 2048
>>>>>Begin Processed Spectral Data<<<<<
365.73	42.13
365.92	42.13
366.12	42.13
366.32	0.00
366.52	14.04
366.72	4.68
366.91	0.00
367.11	0.00
367.31	0.00
367.51	0.00
367.70	0.00
367.90	0.00
368.10	0.00
368.30	0.00
368.49	0.00
368.69	0.00
368.89	0.00
369.09	0.00
369.28	0.00
369.48	0.00
369.68	0.00
369.87	0.00
370.07	0.00
370.27	0.00
370.47	0.00
370.66	0.00
370.86	25.75
371.06	70.22
371.25	95.96
371.45	93.62
371.65	100.64
371.84	60.85
372.04	51.49
372.24	2.34
372.44	0.00
372.63	114.69
372.83	121.71
373.03	77.24
373.22	25.75
373.42	119.37
373.62	0.00
373.81	152.13
374.01	72.56
374.21	131.07
374.40	121.71
374.60	187.24
374.79	138.09
374.99	67.88
375.19	79.58
375.38	102.98
375.58	77.24
375.78	100.64
375.97	117.03
376.17	140.43
376.37	126.39
376.56	135.75
376.76	79.58
376.95	25.75
377.15	152.13
377.35	102.98
377.54	121.71
377.74	56.17
377.93	28.09
378.13	51.49
378.33	119.37
378.52	60.85
378.72	56.17
378.91	79.58
379.11	81.92
379.31	133.41
379.50	88.94
379.70	46.81
379.89	170.86
380.09	114.69
380.28	70.22
380.48	32.77
380.68	28.09
380.87	147.45
381.07	145.11
381.26	119.37
381.46	65.54
381.65	74.90
381.85	91.28
382.04	159.16
382.24	25.75
382.43	91.28
382.63	128.73
382.83	102.98
383.02	133.41
383.22	60.85
383.41	39.79
383.61	95.96
383.80	37.45
384.00	138.09
384.19	65.54
384.39	74.90
384.58	79.58
384.78	119.37
384.97	161.50
385.17	79.58
385.36	65.54
385.56	95.96
385.75	117.03
385.95	168.52
386.14	9.36
386.34	168.52
386.53	177.88
386.72	91.28
386.92	189.58
387.11	163.84
387.31	128.73
387.50	42.13
387.70	51.49
387.89	163.84
388.09	58.51
388.28	49.15
388.48	53.83
388.67	49.15
388.86	138.09
389.06	74.90
389.25	110.01
389.45	91.28
389.64	56.17
389.84	163.84
390.03	93.62
390.22	126.39
390.42	102.98
390.61	110.01
390.81	79.58
391.00	81.92
391.19	98.30
391.39	72.56
391.58	154.48
391.78	168.52
391.97	128.73
392.16	37.45
392.36	121.71
392.55	98.30
392.75	126.39
392.94	98.30
393.13	114.69
393.33	67.88
393.52	194.26
393.71	98.30
393.91	28.09
394.10	74.90
394.29	154.48
394.49	140.43
394.68	98.30
394.88	149.79
395.07	119.37
395.26	46.81
395.46	149.79
395.65	117.03
395.84	105.32
396.04	117.03
396.23	91.28
396.42	72.56
396.62	119.37
396.81	72.56
397.00	63.19
397.19	63.19
397.39	107.66
397.58	119.37
397.77	65.54
397.97	110.01
398.16	81.92
398.35	88.94
398.55	79.58
398.74	67.88
398.93	138.09
399.12	93.62
399.32	124.05
399.51	133.41
399.70	138.09
399.90	114.69
400.09	121.71
400.28	84.26
400.47	74.90
400.67	128.73
400.86	28.09
401.05	91.28
401.24	100.64
401.44	142.77
401.63	70.22
401.82	145.11
402.01	93.62
402.21	67.88
402.40	107.66
402.59	98.30
402.78	79.58
402.97	156.82
403.17	91.28
403.36	102.98
403.55	98.30
403.74	128.73
403.93	102.98
404.13	201.29
404.32	74.90
404.51	142.77
404.70	140.43
404.89	114.69
405.09	173.20
405.28	110.01
405.47	117.03
405.66	49.15
405.85	128.73
406.05	93.62
406.24	72.56
406.43	79.58
406.62	138.09
406.81	140.43
407.00	107.66
407.20	72.56
407.39	110.01
407.58	124.05
407.77	124.05
407.96	142.77
408.15	91.28
408.34	84.26
408.54	93.62
408.73	72.56
408.92	114.69
409.11	102.98
409.30	84.26
409.49	32.77
409.68	102.98
409.87	126.39
410.07	60.85
410.26	154.48
410.45	63.19
410.64	119.37
410.83	152.13
411.02	72.56
411.21	95.96
411.40	112.35
411.59	163.84
411.78	93.62
411.98	95.96
412.17	74.90
412.36	98.30
412.55	100.64
412.74	107.66
412.93	133.41
413.12	128.73
413.31	154.48
413.50	91.28
413.69	138.09
413.88	142.77
414.07	105.32
414.26	102.98
414.45	98.30
414.64	114.69
414.83	58.51
415.02	91.28
415.22	126.39
415.41	147.45
415.60	110.01
415.79	147.45
415.98	159.16
416.17	163.84
416.36	65.54
416.55	128.73
416.74	163.84
416.93	154.48
417.12	51.49
417.31	170.86
417.50	98.30
417.69	215.33
417.88	203.63
418.07	128.73
418.26	161.50
418.45	119.37
418.64	229.37
418.83	201.29
419.02	110.01
419.21	184.90
419.39	210.65
419.58	198.95
419.77	131.07
419.96	259.80
420.15	177.88
420.34	121.71
420.53	84.26
420.72	168.52
420.91	140.43
421.10	128.73
421.29	145.11
421.48	203.63
421.67	166.18
421.86	163.84
422.05	121.71
422.24	156.82
422.43	220.01
422.61	63.19
422.80	117.03
422.99	166.18
423.18	168.52
423.37	79.58
423.56	112.35
423.75	205.97
423.94	117.03
424.13	105.32
424.32	140.43
424.50	152.13
424.69	112.35
424.88	208.31
425.07	74.90
425.26	140.43
425.45	215.33
425.64	187.24
425.83	299.59
426.01	170.86
426.20	140.43
426.39	156.82
426.58	152.13
426.77	161.50
426.96	128.73
427.15	205.97
427.33	147.45
427.52	173.20
427.71	196.60
427.90	138.09
428.09	70.22
428.28	168.52
428.46	133.41
428.65	102.98
428.84	152.13
429.03	110.01
429.22	77.24
429.40	124.05
429.59	72.56
429.78	168.52
429.97	110.01
430.16	93.62
430.34	121.71
430.53	88.94
430.72	112.35
430.91	65.54
431.10	67.88
431.28	184.90
431.47	119.37
431.66	145.11
431.85	72.56
432.03	95.96
432.22	196.60
432.41	145.11
432.60	180.22
432.79	215.33
432.97	264.48
433.16	255.12
433.35	243.42
433.54	236.39
433.72	163.84
433.91	180.22
434.10	131.07
434.28	184.90
434.47	128.73
434.66	224.69
434.85	145.11
435.03	156.82
435.22	140.43
435.41	159.16
435.59	145.11
435.78	138.09
435.97	156.82
436.16	131.07
436.34	107.66
436.53	0.00
436.72	100.64
436.90	163.84
437.09	107.66
437.28	152.13
437.46	149.79
437.65	105.32
437.84	166.18
438.02	161.50
438.21	170.86
438.40	110.01
438.58	93.62
438.77	124.05
438.96	124.05
439.14	46.81
439.33	91.28
439.52	145.11
439.70	152.13
439.89	119.37
440.08	110.01
440.26	93.62
440.45	149.79
440.63	93.62
440.82	135.75
441.01	93.62
441.19	112.35
441.38	121.71
441.57	128.73
441.75	102.98
441.94	112.35
442.12	91.28
442.31	93.62
442.50	128.73
442.68	140.43
442.87	170.86
443.05	154.48
443.24	131.07
443.43	159.16
443.61	203.63
443.80	117.03
443.98	177.88
444.17	180.22
444.35	189.58
444.54	124.05
444.73	154.48
444.91	114.69
445.10	128.73
445.28	133.41
445.47	154.48
445.65	133.41
445.84	95.96
446.02	156.82
446.21	65.54
446.39	124.05
446.58	124.05
446.77	119.37
446.95	133.41
447.14	88.94
447.32	215.33
447.51	121.71
447.69	46.81
447.88	147.45
448.06	161.50
448.25	159.16
448.43	133.41
448.62	154.48
448.80	138.09
448.99	119.37
449.17	147.45
449.36	140.43
449.54	142.77
449.73	140.43
449.91	131.07
450.10	152.13
450.28	212.99
450.46	198.95
450.65	173.20
450.83	182.56
451.02	147.45
451.20	74.90
451.39	117.03
451.57	91.28
451.76	142.77
451.94	84.26
452.13	173.20
452.31	166.18
452.49	142.77
452.68	114.69
452.86	173.20
453.05	170.86
453.23	152.13
453.42	138.09
453.60	72.56
453.78	145.11
453.97	93.62
454.15	121.71
454.34	105.32
454.52	154.48
454.70	156.82
454.89	112.35
455.07	189.58
455.26	168.52
455.44	140.43
455.62	154.48
455.81	124.05
455.99	131.07
456.17	154.48
456.36	124.05
456.54	147.45
456.73	102.98
456.91	65.54
457.09	117.03
457.28	147.45
457.46	72.56
457.64	138.09
457.83	98.30
458.01	147.45
458.19	180.22
458.38	51.49
458.56	145.11
458.74	65.54
458.93	145.11
459.11	124.05
459.29	159.16
459.48	149.79
459.66	161.50
459.84	131.07
460.03	189.58
460.21	210.65
460.39	107.66
460.57	203.63
460.76	126.39
460.94	93.62
461.12	243.42
461.31	210.65
461.49	124.05
461.67	95.96
461.85	156.82
462.04	107.66
462.22	638.97
462.40	149.79
462.59	166.18
462.77	147.45
462.95	93.62
463.13	58.51
463.32	117.03
463.50	168.52
463.68	234.05
463.86	184.90
464.05	112.35
464.23	126.39
464.41	126.39
464.59	107.66
464.78	98.30
464.96	161.50
465.14	67.88
465.32	110.01
465.50	154.48
465.69	177.88
465.87	100.64
466.05	161.50
466.23	124.05
466.41	161.50
466.60	121.71
466.78	135.75
466.96	128.73
467.14	105.32
467.32	138.09
467.51	163.84
467.69	215.33
467.87	145.11
468.05	121.71
468.23	215.33
468.41	145.11
468.60	152.13
468.78	152.13
468.96	79.58
469.14	182.56
469.32	91.28
469.50	119.37
469.69	184.90
469.87	187.24
470.05	145.11
470.23	53.83
470.41	88.94
470.59	114.69
470.77	194.26
470.95	189.58
471.14	175.54
471.32	100.64
471.50	147.45
471.68	196.60
471.86	142.77
472.04	142.77
472.22	135.75
472.40	112.35
472.58	114.69
472.77	112.35
472.95	131.07
473.13	152.13
473.31	154.48
473.49	117.03
473.67	138.09
473.85	163.84
474.03	119.37
474.21	220.01
474.39	198.95
474.57	156.82
474.75	100.64
474.93	161.50
475.12	126.39
475.30	114.69
475.48	138.09
475.66	161.50
475.84	133.41
476.02	208.31
476.20	152.13
476.38	95.96
476.56	248.10
476.74	135.75
476.92	180.22
477.10	222.35
477.28	133.41
477.46	114.69
477.64	170.86
477.82	191.92
478.00	154.48
478.18	173.20
478.36	194.26
478.54	112.35
478.72	217.67
478.90	119.37
479.08	95.96
479.26	79.58
479.44	114.69
479.62	138.09
479.80	159.16
479.98	65.54
480.16	107.66
480.34	187.24
480.52	105.32
480.70	95.96
480.88	110.01
481.06	121.71
481.24	140.43
481.41	205.97
481.59	194.26
481.77	220.01
481.95	88.94
482.13	161.50
482.31	180.22
482.49	147.45
482.67	145.11
482.85	208.31
483.03	131.07
483.21	95.96
483.39	119.37
483.57	149.79
483.74	180.22
483.92	170.86
484.10	102.98
484.28	191.92
484.46	152.13
484.64	135.75
484.82	175.54
485.00	138.09
485.18	201.29
485.35	112.35
485.53	126.39
485.71	201.29
485.89	72.56
486.07	156.82
486.25	180.22
486.43	112.35
486.61	117.03
486.78	110.01
486.96	63.19
487.14	107.66
487.32	177.88
487.50	161.50
487.68	147.45
487.85	140.43
488.03	266.82
488.21	205.97
488.39	114.69
488.57	149.79
488.75	154.48
488.92	327.68
489.10	142.77
489.28	187.24
489.46	102.98
489.64	154.48
489.81	133.41
489.99	168.52
490.17	156.82
490.35	177.88
490.53	163.84
490.70	229.37
490.88	138.09
491.06	170.86
491.24	201.29
491.41	196.60
491.59	189.58
491.77	208.31
491.95	105.32
492.13	133.41
492.30	140.43
492.48	212.99
492.66	63.19
492.84	152.13
493.01	135.75
493.19	173.20
493.37	231.71
493.54	161.50
493.72	147.45
493.90	156.82
494.08	161.50
494.25	198.95
494.43	208.31
494.61	173.20
494.79	236.39
494.96	161.50
495.14	135.75
495.32	217.67
495.49	173.20
495.67	114.69
495.85	187.24
496.02	203.63
496.20	210.65
496.38	236.39
496.55	149.79
496.73	191.92
496.91	196.60
497.09	128.73
497.26	138.09
497.44	154.48
497.62	163.84
497.79	180.22
497.97	198.95
498.14	236.39
498.32	175.54
498.50	287.89
498.67	217.67
498.85	156.82
499.03	220.01
499.20	215.33
499.38	156.82
499.56	203.63
499.73	266.82
499.91	175.54
500.08	142.77
500.26	131.07
500.44	173.20
500.61	100.64
500.79	138.09
500.97	189.58
501.14	283.20
501.32	135.75
501.49	250.44
501.67	210.65
501.84	173.20
502.02	173.20
502.20	189.58
502.37	166.18
502.55	126.39
502.72	189.58
502.90	133.41
503.07	187.24
503.25	154.48
503.43	245.76
503.60	262.14
503.78	182.56
503.95	210.65
504.13	161.50
504.30	161.50
504.48	124.05
504.65	173.20
504.83	198.95
505.01	131.07
505.18	245.76
505.36	177.88
505.53	220.01
505.71	191.92
505.88	280.86
506.06	194.26
506.23	215.33
506.41	191.92
506.58	152.13
506.76	229.37
506.93	168.52
507.11	191.92
507.28	231.71
507.46	138.09
507.63	248.10
507.81	161.50
507.98	217.67
508.16	182.56
508.33	231.71
508.50	255.12
508.68	278.52
508.85	198.95
509.03	255.12
509.20	224.69
509.38	170.86
509.55	210.65
509.73	245.76
509.90	196.60
510.08	170.86
510.25	208.31
510.42	205.97
510.60	238.73
510.77	180.22
510.95	255.12
511.12	238.73
511.30	173.20
511.47	301.93
511.64	243.42
511.82	248.10
511.99	299.59
512.17	201.29
512.34	114.69
512.51	140.43
512.69	145.11
512.86	332.36
513.04	229.37
513.21	205.97
513.38	142.77
513.56	133.41
513.73	208.31
513.90	145.11
514.08	163.84
514.25	196.60
514.43	224.69
514.60	173.20
514.77	170.86
514.95	227.03
515.12	201.29
515.29	262.14
515.47	238.73
515.64	184.90
515.81	163.84
515.99	173.20
516.16	222.35
516.33	220.01
516.51	159.16
516.68	159.16
516.85	187.24
517.03	161.50
517.20	205.97
517.37	210.65
517.54	236.39
517.72	175.54
517.89	166.18
518.06	170.86
518.24	238.73
518.41	273.84
518.58	311.29
518.75	304.27
518.93	168.52
519.10	231.71
519.27	236.39
519.45	163.84
519.62	215.33
519.79	257.46
519.96	231.71
520.14	210.65
520.31	266.82
520.48	222.35
520.65	208.31
520.83	196.60
521.00	252.78
521.17	196.60
521.34	177.88
521.52	205.97
521.69	196.60
521.86	210.65
522.03	259.80
522.20	285.55
522.38	243.42
522.55	114.69
522.72	217.67
522.89	259.80
523.07	205.97
523.24	210.65
523.41	154.48
523.58	238.73
523.75	212.99
523.92	121.71
524.10	229.37
524.27	269.16
524.44	173.20
524.61	294.91
524.78	224.69
524.96	205.97
525.13	175.54
525.30	224.69
525.47	278.52
525.64	297.25
525.81	168.52
525.98	187.24
526.16	138.09
526.33	203.63
526.50	107.66
526.67	173.20
526.84	191.92
527.01	154.48
527.18	273.84
527.36	189.58
527.53	182.56
527.70	224.69
527.87	189.58
528.04	259.80
528.21	159.16
528.38	245.76
528.55	259.80
528.72	299.59
528.89	222.35
529.07	208.31
529.24	170.86
529.41	222.35
529.58	198.95
529.75	191.92
529.92	229.37
530.09	215.33
530.26	180.22
530.43	180.22
530.60	198.95
530.77	222.35
530.94	191.92
531.11	248.10
531.28	269.16
531.46	231.71
531.63	264.48
531.80	184.90
531.97	184.90
532.14	196.60
532.31	210.65
532.48	283.20
532.65	304.27
532.82	344.06
532.99	374.49
533.16	374.49
533.33	276.18
533.50	332.36
533.67	330.02
533.84	442.36
534.01	421.30
534.18	404.91
534.35	330.02
534.52	241.08
534.69	245.76
534.86	215.33
535.03	203.63
535.20	250.44
535.37	238.73
535.54	217.67
535.71	271.50
535.88	278.52
536.05	189.58
536.22	318.31
536.38	149.79
536.55	203.63
536.72	227.03
536.89	175.54
537.06	175.54
537.23	210.65
537.40	201.29
537.57	250.44
537.74	121.71
537.91	297.25
538.08	175.54
538.25	177.88
538.42	318.31
538.59	187.24
538.75	208.31
538.92	191.92
539.09	252.78
539.26	243.42
539.43	503.22
539.60	1193.67
539.77	1921.58
539.94	1947.33
540.11	1174.95
540.28	727.91
540.44	561.73
540.61	285.55
540.78	285.55
540.95	222.35
541.12	208.31
541.29	241.08
541.46	234.05
541.62	222.35
541.79	266.82
541.96	229.37
542.13	152.13
542.30	217.67
542.47	184.90
542.63	257.46
542.80	229.37
542.97	231.71
543.14	177.88
543.31	236.39
543.48	262.14
543.64	252.78
543.81	154.48
543.98	140.43
544.15	131.07
544.32	208.31
544.48	238.73
544.65	255.12
544.82	180.22
544.99	149.79
545.16	189.58
545.32	203.63
545.49	147.45
545.66	198.95
545.83	220.01
546.00	234.05
546.16	133.41
546.33	156.82
546.50	222.35
546.67	170.86
546.83	308.95
547.00	177.88
547.17	189.58
547.34	212.99
547.50	229.37
547.67	212.99
547.84	201.29
548.00	241.08
548.17	91.28
548.34	170.86
548.51	212.99
548.67	231.71
548.84	145.11
549.01	180.22
549.18	271.50
549.34	271.50
549.51	224.69
549.68	220.01
549.84	180.22
550.01	212.99
550.18	311.29
550.34	273.84
550.51	177.88
550.68	222.35
550.84	231.71
551.01	201.29
551.18	245.76
551.34	255.12
551.51	170.86
551.68	189.58
551.84	198.95
552.01	212.99
552.18	222.35
552.34	173.20
552.51	243.42
552.68	217.67
552.84	173.20
553.01	262.14
553.18	250.44
553.34	203.63
553.51	198.95
553.67	241.08
553.84	252.78
554.01	257.46
554.17	208.31
554.34	227.03
554.51	205.97
554.67	224.69
554.84	215.33
555.00	203.63
555.17	159.16
555.33	264.48
555.50	229.37
555.67	257.46
555.83	236.39
556.00	229.37
556.16	461.09
556.33	229.37
556.50	255.12
556.66	182.56
556.83	201.29
556.99	205.97
557.16	142.77
557.32	255.12
557.49	227.03
557.65	161.50
557.82	175.54
557.98	161.50
558.15	220.01
558.32	238.73
558.48	255.12
558.65	180.22
558.81	175.54
558.98	170.86
559.14	283.20
559.31	152.13
559.47	212.99
559.64	166.18
559.80	156.82
559.97	163.84
560.13	208.31
560.30	231.71
560.46	177.88
560.63	187.24
560.79	189.58
560.96	203.63
561.12	180.22
561.29	133.41
561.45	215.33
561.61	142.77
561.78	273.84
561.94	145.11
562.11	149.79
562.27	138.09
562.44	180.22
562.60	234.05
562.77	227.03
562.93	241.08
563.10	191.92
563.26	203.63
563.42	245.76
563.59	189.58
563.75	168.52
563.92	224.69
564.08	175.54
564.24	227.03
564.41	212.99
564.57	168.52
564.74	231.71
564.90	163.84
565.07	283.20
565.23	266.82
565.39	271.50
565.56	271.50
565.72	252.78
565.88	205.97
566.05	205.97
566.21	243.42
566.38	217.67
566.54	257.46
566.70	234.05
566.87	217.67
567.03	159.16
567.19	234.05
567.36	243.42
567.52	248.10
567.68	269.16
567.85	201.29
568.01	138.09
568.17	194.26
568.34	191.92
568.50	236.39
568.66	191.92
568.83	266.82
568.99	229.37
569.15	271.50
569.32	205.97
569.48	124.05
569.64	119.37
569.81	135.75
569.97	128.73
570.13	205.97
570.30	189.58
570.46	231.71
570.62	220.01
570.78	248.10
570.95	180.22
571.11	276.18
571.27	238.73
571.43	203.63
571.60	304.27
571.76	201.29
571.92	248.10
572.09	198.95
572.25	86.60
572.41	203.63
572.57	217.67
572.74	292.57
572.90	217.67
573.06	227.03
573.22	102.98
573.38	297.25
573.55	191.92
573.71	276.18
573.87	252.78
574.03	177.88
574.20	217.67
574.36	285.55
574.52	358.10
574.68	297.25
574.84	290.23
575.01	271.50
575.17	187.24
575.33	189.58
575.49	301.93
575.65	294.91
575.82	229.37
575.98	608.54
576.14	826.21
576.30	828.55
576.46	550.03
576.62	425.98
576.79	390.87
576.95	283.20
577.11	215.33
577.27	276.18
577.43	224.69
577.59	208.31
577.75	236.39
577.92	257.46
578.08	241.08
578.24	212.99
578.40	337.04
578.56	250.44
578.72	299.59
578.88	245.76
579.04	245.76
579.21	257.46
579.37	283.20
579.53	297.25
579.69	334.70
579.85	236.39
580.01	313.63
580.17	491.51
580.33	433.00
580.49	355.76
580.65	372.15
580.82	365.12
580.98	304.27
581.14	334.70
581.30	400.23
581.46	496.19
581.62	667.05
581.78	683.44
581.94	650.67
582.10	498.53
582.26	491.51
582.42	456.40
582.58	482.15
582.74	442.36
582.90	449.38
583.06	510.24
583.22	447.04
583.38	557.05
583.54	526.62
583.70	713.86
583.86	704.50
584.02	849.61
584.18	1053.24
584.34	1446.45
584.50	3779.97
584.66	28788.59
584.82	61909.51
584.98	65535.00
585.14	65535.00
585.30	62356.55
585.46	38593.09
585.62	23901.55
585.78	10733.70
585.94	3983.59
586.10	1991.80
586.26	1273.25
586.42	912.81
586.58	772.38
586.74	706.84
586.90	704.50
587.06	718.54
587.22	664.71
587.38	552.37
587.54	1444.11
587.70	4304.25
587.86	7325.88
588.02	8587.43
588.18	6003.47
588.34	3749.54
588.49	2293.72
588.65	1378.58
588.81	802.80
588.97	425.98
589.13	344.06
589.29	372.15
589.45	341.72
589.61	339.38
589.77	477.47
589.93	395.55
590.08	496.19
590.24	444.70
590.40	510.24
590.56	454.06
590.72	341.72
590.88	330.02
591.04	379.17
591.20	390.87
591.35	365.12
591.51	330.02
591.67	285.55
591.83	332.36
591.99	234.05
592.15	390.87
592.31	290.23
592.46	266.82
592.62	339.38
592.78	264.48
592.94	308.95
593.10	285.55
593.26	280.86
593.41	355.76
593.57	313.63
593.73	594.50
593.89	3368.03
594.05	9015.74
594.20	14239.82
594.36	14008.11
594.52	9198.31
594.68	5610.26
594.84	3574.00
594.99	1966.05
595.15	950.26
595.31	500.87
595.47	365.12
595.62	224.69
595.78	311.29
595.94	325.33
596.10	332.36
596.25	362.78
596.41	339.38
596.57	255.12
596.73	278.52
596.88	531.30
597.04	1673.48
597.20	2876.52
597.36	3536.55
597.51	2647.15
597.67	1741.36
597.83	1086.01
597.99	809.83
598.14	435.34
598.30	374.49
598.46	320.65
598.61	362.78
598.77	297.25
598.93	322.99
599.09	234.05
599.24	245.76
599.40	285.55
599.56	205.97
599.71	273.84
599.87	217.67
600.03	318.31
600.18	236.39
600.34	210.65
600.50	241.08
600.65	241.08
600.81	229.37
600.97	203.63
601.12	264.48
601.28	273.84
601.44	215.33
601.59	180.22
601.75	173.20
601.91	217.67
602.06	315.97
602.22	264.48
602.37	819.19
602.53	2085.42
602.69	3492.08
602.84	3775.28
603.00	2778.22
603.16	1755.40
603.31	1200.69
603.47	849.61
603.62	444.70
603.78	402.57
603.94	325.33
604.09	334.70
604.25	332.36
604.40	280.86
604.56	290.23
604.71	327.68
604.87	229.37
605.03	297.25
605.18	313.63
605.34	250.44
605.49	229.37
605.65	297.25
605.80	287.89
605.96	283.20
606.12	280.86
606.27	353.42
606.43	374.49
606.58	379.17
606.74	961.96
606.89	4046.79
607.05	8912.76
607.20	12564.00
607.36	10319.42
607.51	6633.08
607.67	4236.37
607.82	2841.41
607.98	1537.73
608.13	828.55
608.29	528.96
608.44	489.17
608.60	454.06
608.75	578.11
608.91	1294.32
609.06	6661.16
609.22	15374.98
609.37	21565.70
609.53	18867.06
609.68	12631.87
609.84	7988.25
609.99	5083.64
610.15	2731.41
610.30	1205.38
610.46	781.74
610.61	512.58
610.76	395.55
610.92	416.62
611.07	344.06
611.23	332.36
611.38	358.10
611.54	252.78
611.69	301.93
