SpectraSuite Data File
++++++++++++++++++++++++++++++++++++
Date: Fri Oct 04 11:47:17 GMT-05:00 2013
User: price-jones
Dark Spectrum Present: No
Reference Spectrum Present: No
Number of Sampled Component Spectra: 1
Spectrometers: USB2+H05261
Integration Time (usec): 100000 (USB2+H05261)
Spectra Averaged: 1 (USB2+H05261)
Boxcar Smoothing: 0 (USB2+H05261)
Correct for Electrical Dark: No (USB2+H05261)
Strobe/Lamp Enabled: No (USB2+H05261)
Correct for Detector Non-linearity: No (USB2+H05261)
Correct for Stray Light: No (USB2+H05261)
Number of Pixels in Processed Spectrum: 2048
>>>>>Begin Processed Spectral Data<<<<<
365.73	0.00
365.92	0.00
366.12	0.00
366.32	0.00
366.52	0.00
366.72	0.00
366.91	0.00
367.11	0.00
367.31	0.00
367.51	0.00
367.70	0.00
367.90	0.00
368.10	0.00
368.30	0.00
368.49	0.00
368.69	11.70
368.89	0.00
369.09	0.00
369.28	0.00
369.48	0.00
369.68	0.00
369.87	0.00
370.07	0.00
370.27	37.45
370.47	11.70
370.66	0.00
370.86	16.38
371.06	95.96
371.25	42.13
371.45	35.11
371.65	100.64
371.84	32.77
372.04	42.13
372.24	77.24
372.44	65.54
372.63	110.01
372.83	51.49
373.03	88.94
373.22	32.77
373.42	93.62
373.62	100.64
373.81	182.56
374.01	149.79
374.21	187.24
374.40	65.54
374.60	121.71
374.79	81.92
374.99	117.03
375.19	119.37
375.38	107.66
375.58	124.05
375.78	126.39
375.97	91.28
376.17	124.05
376.37	133.41
376.56	131.07
376.76	135.75
376.95	140.43
377.15	121.71
377.35	119.37
377.54	32.77
377.74	88.94
377.93	121.71
378.13	95.96
378.33	124.05
378.52	65.54
378.72	93.62
378.91	84.26
379.11	145.11
379.31	119.37
379.50	88.94
379.70	79.58
379.89	124.05
380.09	72.56
380.28	81.92
380.48	124.05
380.68	58.51
380.87	49.15
381.07	74.90
381.26	46.81
381.46	124.05
381.65	63.19
381.85	65.54
382.04	72.56
382.24	98.30
382.43	93.62
382.63	28.09
382.83	79.58
383.02	84.26
383.22	79.58
383.41	91.28
383.61	105.32
383.80	112.35
384.00	32.77
384.19	56.17
384.39	74.90
384.58	0.00
384.78	135.75
384.97	102.98
385.17	30.43
385.36	102.98
385.56	88.94
385.75	58.51
385.95	49.15
386.14	58.51
386.34	79.58
386.53	91.28
386.72	98.30
386.92	173.20
387.11	79.58
387.31	102.98
387.50	72.56
387.70	28.09
387.89	49.15
388.09	60.85
388.28	126.39
388.48	65.54
388.67	65.54
388.86	72.56
389.06	77.24
389.25	86.60
389.45	112.35
389.64	133.41
389.84	154.48
390.03	74.90
390.22	119.37
390.42	72.56
390.61	79.58
390.81	39.79
391.00	112.35
391.19	79.58
391.39	79.58
391.58	70.22
391.78	86.60
391.97	81.92
392.16	35.11
392.36	42.13
392.55	70.22
392.75	70.22
392.94	93.62
393.13	119.37
393.33	93.62
393.52	124.05
393.71	112.35
393.91	60.85
394.10	84.26
394.29	39.79
394.49	133.41
394.68	154.48
394.88	128.73
395.07	161.50
395.26	95.96
395.46	79.58
395.65	100.64
395.84	140.43
396.04	156.82
396.23	42.13
396.42	93.62
396.62	70.22
396.81	180.22
397.00	79.58
397.19	72.56
397.39	140.43
397.58	119.37
397.77	67.88
397.97	112.35
398.16	140.43
398.35	95.96
398.55	121.71
398.74	28.09
398.93	152.13
399.12	138.09
399.32	131.07
399.51	35.11
399.70	119.37
399.90	49.15
400.09	35.11
400.28	126.39
400.47	140.43
400.67	114.69
400.86	126.39
401.05	114.69
401.24	119.37
401.44	140.43
401.63	124.05
401.82	51.49
402.01	49.15
402.21	145.11
402.40	105.32
402.59	140.43
402.78	110.01
402.97	147.45
403.17	65.54
403.36	126.39
403.55	39.79
403.74	161.50
403.93	95.96
404.13	124.05
404.32	140.43
404.51	154.48
404.70	86.60
404.89	93.62
405.09	194.26
405.28	140.43
405.47	102.98
405.66	166.18
405.85	142.77
406.05	32.77
406.24	49.15
406.43	100.64
406.62	110.01
406.81	166.18
407.00	58.51
407.20	124.05
407.39	121.71
407.58	77.24
407.77	117.03
407.96	121.71
408.15	131.07
408.34	72.56
408.54	51.49
408.73	105.32
408.92	105.32
409.11	133.41
409.30	149.79
409.49	42.13
409.68	98.30
409.87	81.92
410.07	133.41
410.26	166.18
410.45	119.37
410.64	112.35
410.83	79.58
411.02	131.07
411.21	128.73
411.40	175.54
411.59	128.73
411.78	110.01
411.98	42.13
412.17	110.01
412.36	74.90
412.55	74.90
412.74	63.19
412.93	152.13
413.12	23.41
413.31	140.43
413.50	147.45
413.69	114.69
413.88	175.54
414.07	133.41
414.26	93.62
414.45	88.94
414.64	189.58
414.83	119.37
415.02	140.43
415.22	159.16
415.41	152.13
415.60	100.64
415.79	60.85
415.98	163.84
416.17	79.58
416.36	159.16
416.55	74.90
416.74	149.79
416.93	100.64
417.12	95.96
417.31	119.37
417.50	173.20
417.69	133.41
417.88	56.17
418.07	196.60
418.26	110.01
418.45	138.09
418.64	285.55
418.83	208.31
419.02	145.11
419.21	98.30
419.39	149.79
419.58	112.35
419.77	189.58
419.96	149.79
420.15	227.03
420.34	177.88
420.53	135.75
420.72	131.07
420.91	124.05
421.10	105.32
421.29	149.79
421.48	187.24
421.67	208.31
421.86	86.60
422.05	56.17
422.24	145.11
422.43	79.58
422.61	105.32
422.80	88.94
422.99	117.03
423.18	133.41
423.37	140.43
423.56	159.16
423.75	177.88
423.94	124.05
424.13	145.11
424.32	72.56
424.50	114.69
424.69	166.18
424.88	177.88
425.07	135.75
425.26	156.82
425.45	229.37
425.64	196.60
425.83	234.05
426.01	86.60
426.20	156.82
426.39	100.64
426.58	58.51
426.77	105.32
426.96	102.98
427.15	154.48
427.33	128.73
427.52	133.41
427.71	60.85
427.90	77.24
428.09	88.94
428.28	105.32
428.46	67.88
428.65	110.01
428.84	182.56
429.03	105.32
429.22	100.64
429.40	128.73
429.59	126.39
429.78	152.13
429.97	166.18
430.16	98.30
430.34	220.01
430.53	107.66
430.72	117.03
430.91	196.60
431.10	77.24
431.28	154.48
431.47	102.98
431.66	145.11
431.85	135.75
432.03	93.62
432.22	189.58
432.41	147.45
432.60	154.48
432.79	191.92
432.97	250.44
433.16	287.89
433.35	182.56
433.54	159.16
433.72	42.13
433.91	117.03
434.10	187.24
434.28	168.52
434.47	163.84
434.66	107.66
434.85	119.37
435.03	93.62
435.22	168.52
435.41	187.24
435.59	88.94
435.78	107.66
435.97	124.05
436.16	196.60
436.34	81.92
436.53	98.30
436.72	102.98
436.90	110.01
437.09	147.45
437.28	65.54
437.46	77.24
437.65	149.79
437.84	138.09
438.02	147.45
438.21	170.86
438.40	138.09
438.58	126.39
438.77	100.64
438.96	126.39
439.14	133.41
439.33	180.22
439.52	168.52
439.70	67.88
439.89	168.52
440.08	128.73
440.26	133.41
440.45	114.69
440.63	184.90
440.82	110.01
441.01	126.39
441.19	37.45
441.38	126.39
441.57	142.77
441.75	168.52
441.94	198.95
442.12	107.66
442.31	145.11
442.50	147.45
442.68	152.13
442.87	154.48
443.05	121.71
443.24	182.56
443.43	145.11
443.61	189.58
443.80	175.54
443.98	100.64
444.17	114.69
444.35	79.58
444.54	112.35
444.73	65.54
444.91	159.16
445.10	95.96
445.28	133.41
445.47	63.19
445.65	124.05
445.84	154.48
446.02	112.35
446.21	102.98
446.39	67.88
446.58	142.77
446.77	145.11
446.95	159.16
447.14	121.71
447.32	100.64
447.51	105.32
447.69	189.58
447.88	124.05
448.06	121.71
448.25	119.37
448.43	133.41
448.62	145.11
448.80	138.09
448.99	180.22
449.17	156.82
449.36	168.52
449.54	84.26
449.73	56.17
449.91	114.69
450.10	163.84
450.28	154.48
450.46	177.88
450.65	107.66
450.83	175.54
451.02	77.24
451.20	187.24
451.39	189.58
451.57	142.77
451.76	124.05
451.94	112.35
452.13	173.20
452.31	154.48
452.49	175.54
452.68	191.92
452.86	166.18
453.05	133.41
453.23	131.07
453.42	121.71
453.60	49.15
453.78	32.77
453.97	107.66
454.15	163.84
454.34	201.29
454.52	95.96
454.70	138.09
454.89	187.24
455.07	107.66
455.26	124.05
455.44	117.03
455.62	173.20
455.81	124.05
455.99	152.13
456.17	117.03
456.36	53.83
456.54	154.48
456.73	84.26
456.91	112.35
457.09	126.39
457.28	154.48
457.46	135.75
457.64	191.92
457.83	152.13
458.01	58.51
458.19	187.24
458.38	128.73
458.56	121.71
458.74	77.24
458.93	147.45
459.11	112.35
459.29	142.77
459.48	128.73
459.66	121.71
459.84	119.37
460.03	224.69
460.21	208.31
460.39	161.50
460.57	170.86
460.76	173.20
460.94	121.71
461.12	95.96
461.31	177.88
461.49	126.39
461.67	140.43
461.85	114.69
462.04	100.64
462.22	561.73
462.40	182.56
462.59	131.07
462.77	166.18
462.95	110.01
463.13	163.84
463.32	128.73
463.50	149.79
463.68	196.60
463.86	112.35
464.05	58.51
464.23	196.60
464.41	196.60
464.59	201.29
464.78	152.13
464.96	156.82
465.14	149.79
465.32	107.66
465.50	79.58
465.69	128.73
465.87	131.07
466.05	170.86
466.23	124.05
466.41	126.39
466.60	84.26
466.78	154.48
466.96	168.52
467.14	93.62
467.32	227.03
467.51	156.82
467.69	168.52
467.87	243.42
468.05	72.56
468.23	189.58
468.41	205.97
468.60	203.63
468.78	152.13
468.96	187.24
469.14	95.96
469.32	138.09
469.50	117.03
469.69	142.77
469.87	173.20
470.05	119.37
470.23	159.16
470.41	159.16
470.59	138.09
470.77	149.79
470.95	37.45
471.14	159.16
471.32	140.43
471.50	191.92
471.68	138.09
471.86	100.64
472.04	159.16
472.22	168.52
472.40	102.98
472.58	152.13
472.77	187.24
472.95	98.30
473.13	166.18
473.31	110.01
473.49	149.79
473.67	114.69
473.85	142.77
474.03	121.71
474.21	133.41
474.39	107.66
474.57	248.10
474.75	138.09
474.93	91.28
475.12	102.98
475.30	135.75
475.48	159.16
475.66	145.11
475.84	142.77
476.02	126.39
476.20	154.48
476.38	133.41
476.56	205.97
476.74	159.16
476.92	149.79
477.10	135.75
477.28	231.71
477.46	117.03
477.64	110.01
477.82	117.03
478.00	210.65
478.18	154.48
478.36	259.80
478.54	74.90
478.72	156.82
478.90	114.69
479.08	93.62
479.26	166.18
479.44	147.45
479.62	142.77
479.80	208.31
479.98	145.11
480.16	189.58
480.34	140.43
480.52	191.92
480.70	182.56
480.88	117.03
481.06	100.64
481.24	168.52
481.41	189.58
481.59	126.39
481.77	182.56
481.95	95.96
482.13	114.69
482.31	180.22
482.49	177.88
482.67	145.11
482.85	142.77
483.03	107.66
483.21	184.90
483.39	131.07
483.57	194.26
483.74	215.33
483.92	135.75
484.10	175.54
484.28	182.56
484.46	234.05
484.64	121.71
484.82	227.03
485.00	212.99
485.18	170.86
485.35	154.48
485.53	110.01
485.71	163.84
485.89	128.73
486.07	173.20
486.25	231.71
486.43	203.63
486.61	138.09
486.78	184.90
486.96	173.20
487.14	212.99
487.32	133.41
487.50	133.41
487.68	205.97
487.85	121.71
488.03	110.01
488.21	170.86
488.39	177.88
488.57	208.31
488.75	177.88
488.92	376.83
489.10	135.75
489.28	133.41
489.46	126.39
489.64	194.26
489.81	168.52
489.99	196.60
490.17	140.43
490.35	266.82
490.53	201.29
490.70	140.43
490.88	224.69
491.06	131.07
491.24	208.31
491.41	210.65
491.59	205.97
491.77	184.90
491.95	112.35
492.13	177.88
492.30	180.22
492.48	156.82
492.66	154.48
492.84	187.24
493.01	180.22
493.19	229.37
493.37	217.67
493.54	168.52
493.72	156.82
493.90	159.16
494.08	259.80
494.25	194.26
494.43	236.39
494.61	201.29
494.79	152.13
494.96	156.82
495.14	133.41
495.32	210.65
495.49	203.63
495.67	135.75
495.85	107.66
496.02	145.11
496.20	234.05
496.38	205.97
496.55	180.22
496.73	201.29
496.91	163.84
497.09	124.05
497.26	208.31
497.44	140.43
497.62	196.60
497.79	138.09
497.97	196.60
498.14	114.69
498.32	177.88
498.50	152.13
498.67	215.33
498.85	156.82
499.03	203.63
499.20	163.84
499.38	133.41
499.56	170.86
499.73	180.22
499.91	231.71
500.08	154.48
500.26	201.29
500.44	145.11
500.61	198.95
500.79	191.92
500.97	215.33
501.14	220.01
501.32	138.09
501.49	205.97
501.67	163.84
501.84	248.10
502.02	175.54
502.20	234.05
502.37	175.54
502.55	194.26
502.72	168.52
502.90	189.58
503.07	212.99
503.25	175.54
503.43	173.20
503.60	175.54
503.78	189.58
503.95	208.31
504.13	250.44
504.30	227.03
504.48	224.69
504.65	205.97
504.83	234.05
505.01	142.77
505.18	215.33
505.36	194.26
505.53	138.09
505.71	168.52
505.88	259.80
506.06	205.97
506.23	227.03
506.41	201.29
506.58	220.01
506.76	170.86
506.93	170.86
507.11	215.33
507.28	220.01
507.46	149.79
507.63	210.65
507.81	215.33
507.98	205.97
508.16	133.41
508.33	182.56
508.50	220.01
508.68	180.22
508.85	255.12
509.03	166.18
509.20	187.24
509.38	224.69
509.55	236.39
509.73	259.80
509.90	259.80
510.08	191.92
510.25	271.50
510.42	152.13
510.60	154.48
510.77	168.52
510.95	217.67
511.12	212.99
511.30	257.46
511.47	184.90
511.64	259.80
511.82	234.05
511.99	238.73
512.17	229.37
512.34	124.05
512.51	196.60
512.69	102.98
512.86	205.97
513.04	159.16
513.21	177.88
513.38	177.88
513.56	149.79
513.73	168.52
513.90	159.16
514.08	224.69
514.25	184.90
514.43	198.95
514.60	112.35
514.77	266.82
514.95	224.69
515.12	191.92
515.29	262.14
515.47	215.33
515.64	236.39
515.81	271.50
515.99	229.37
516.16	198.95
516.33	201.29
516.51	198.95
516.68	166.18
516.85	189.58
517.03	245.76
517.20	259.80
517.37	126.39
517.54	177.88
517.72	163.84
517.89	124.05
518.06	170.86
518.24	205.97
518.41	248.10
518.58	170.86
518.75	196.60
518.93	241.08
519.10	191.92
519.27	210.65
519.45	168.52
519.62	208.31
519.79	161.50
519.96	220.01
520.14	250.44
520.31	250.44
520.48	142.77
520.65	205.97
520.83	208.31
521.00	262.14
521.17	215.33
521.34	177.88
521.52	145.11
521.69	168.52
521.86	198.95
522.03	238.73
522.20	278.52
522.38	224.69
522.55	187.24
522.72	203.63
522.89	259.80
523.07	238.73
523.24	168.52
523.41	227.03
523.58	201.29
523.75	236.39
523.92	198.95
524.10	189.58
524.27	266.82
524.44	187.24
524.61	236.39
524.78	170.86
524.96	184.90
525.13	205.97
525.30	320.65
525.47	168.52
525.64	208.31
525.81	248.10
525.98	276.18
526.16	140.43
526.33	135.75
526.50	100.64
526.67	110.01
526.84	166.18
527.01	215.33
527.18	191.92
527.36	262.14
527.53	280.86
527.70	285.55
527.87	177.88
528.04	215.33
528.21	182.56
528.38	241.08
528.55	184.90
528.72	245.76
528.89	210.65
529.07	245.76
529.24	184.90
529.41	269.16
529.58	215.33
529.75	273.84
529.92	180.22
530.09	173.20
530.26	222.35
530.43	196.60
530.60	161.50
530.77	203.63
530.94	156.82
531.11	234.05
531.28	234.05
531.46	198.95
531.63	187.24
531.80	220.01
531.97	198.95
532.14	205.97
532.31	262.14
532.48	220.01
532.65	327.68
532.82	365.12
532.99	299.59
533.16	287.89
533.33	220.01
533.50	231.71
533.67	287.89
533.84	440.02
534.01	407.25
534.18	311.29
534.35	308.95
534.52	271.50
534.69	271.50
534.86	278.52
535.03	217.67
535.20	276.18
535.37	276.18
535.54	308.95
535.71	184.90
535.88	273.84
536.05	245.76
536.22	161.50
536.38	156.82
536.55	194.26
536.72	191.92
536.89	212.99
537.06	215.33
537.23	241.08
537.40	184.90
537.57	177.88
537.74	163.84
537.91	238.73
538.08	255.12
538.25	163.84
538.42	163.84
538.59	196.60
538.75	175.54
538.92	262.14
539.09	287.89
539.26	217.67
539.43	397.89
539.60	912.81
539.77	1427.73
539.94	1584.54
540.11	1102.39
540.28	629.60
540.44	351.08
540.61	227.03
540.78	191.92
540.95	194.26
541.12	269.16
541.29	168.52
541.46	292.57
541.62	149.79
541.79	234.05
541.96	224.69
542.13	124.05
542.30	252.78
542.47	166.18
542.63	198.95
542.80	238.73
542.97	248.10
543.14	229.37
543.31	257.46
543.48	212.99
543.64	248.10
543.81	175.54
543.98	156.82
544.15	187.24
544.32	234.05
544.48	201.29
544.65	227.03
544.82	215.33
544.99	224.69
545.16	266.82
545.32	248.10
545.49	205.97
545.66	234.05
545.83	215.33
546.00	170.86
546.16	196.60
546.33	152.13
546.50	212.99
546.67	208.31
546.83	234.05
547.00	234.05
547.17	208.31
547.34	231.71
547.50	205.97
547.67	180.22
547.84	224.69
548.00	222.35
548.17	234.05
548.34	210.65
548.51	173.20
548.67	187.24
548.84	201.29
549.01	294.91
549.18	264.48
549.34	210.65
549.51	184.90
549.68	163.84
549.84	210.65
550.01	170.86
550.18	257.46
550.34	201.29
550.51	198.95
550.68	236.39
550.84	131.07
551.01	238.73
551.18	255.12
551.34	166.18
551.51	196.60
551.68	229.37
551.84	201.29
552.01	227.03
552.18	220.01
552.34	191.92
552.51	163.84
552.68	229.37
552.84	177.88
553.01	180.22
553.18	241.08
553.34	297.25
553.51	215.33
553.67	227.03
553.84	311.29
554.01	250.44
554.17	220.01
554.34	191.92
554.51	152.13
554.67	243.42
554.84	259.80
555.00	184.90
555.17	227.03
555.33	269.16
555.50	117.03
555.67	234.05
555.83	266.82
556.00	210.65
556.16	423.64
556.33	210.65
556.50	250.44
556.66	191.92
556.83	198.95
556.99	229.37
557.16	257.46
557.32	184.90
557.49	231.71
557.65	170.86
557.82	156.82
557.98	114.69
558.15	175.54
558.32	217.67
558.48	194.26
558.65	194.26
558.81	175.54
558.98	102.98
559.14	175.54
559.31	117.03
559.47	238.73
559.64	102.98
559.80	201.29
559.97	222.35
560.13	224.69
560.30	234.05
560.46	173.20
560.63	175.54
560.79	194.26
560.96	168.52
561.12	177.88
561.29	238.73
561.45	208.31
561.61	126.39
561.78	299.59
561.94	177.88
562.11	187.24
562.27	297.25
562.44	271.50
562.60	175.54
562.77	210.65
562.93	269.16
563.10	224.69
563.26	159.16
563.42	203.63
563.59	161.50
563.75	227.03
563.92	145.11
564.08	191.92
564.24	208.31
564.41	287.89
564.57	135.75
564.74	196.60
564.90	304.27
565.07	234.05
565.23	257.46
565.39	290.23
565.56	191.92
565.72	163.84
565.88	196.60
566.05	273.84
566.21	184.90
566.38	205.97
566.54	227.03
566.70	234.05
566.87	182.56
567.03	163.84
567.19	149.79
567.36	203.63
567.52	187.24
567.68	168.52
567.85	248.10
568.01	140.43
568.17	175.54
568.34	191.92
568.50	222.35
568.66	250.44
568.83	271.50
568.99	198.95
569.15	245.76
569.32	154.48
569.48	156.82
569.64	180.22
569.81	121.71
569.97	163.84
570.13	196.60
570.30	170.86
570.46	191.92
570.62	203.63
570.78	212.99
570.95	191.92
571.11	266.82
571.27	217.67
571.43	271.50
571.60	301.93
571.76	224.69
571.92	196.60
572.09	283.20
572.25	177.88
572.41	259.80
572.57	177.88
572.74	168.52
572.90	222.35
573.06	210.65
573.22	241.08
573.38	208.31
573.55	250.44
573.71	210.65
573.87	159.16
574.03	264.48
574.20	175.54
574.36	351.08
574.52	294.91
574.68	322.99
574.84	280.86
575.01	215.33
575.17	266.82
575.33	208.31
575.49	215.33
575.65	203.63
575.82	332.36
575.98	500.87
576.14	638.97
576.30	676.41
576.46	603.86
576.62	362.78
576.79	304.27
576.95	355.76
577.11	198.95
577.27	187.24
577.43	301.93
577.59	276.18
577.75	252.78
577.92	231.71
578.08	231.71
578.24	205.97
578.40	252.78
578.56	308.95
578.72	297.25
578.88	327.68
579.04	278.52
579.21	257.46
579.37	201.29
579.53	215.33
579.69	297.25
579.85	257.46
580.01	313.63
580.17	381.51
580.33	353.42
580.49	283.20
580.65	278.52
580.82	306.61
580.98	290.23
581.14	255.12
581.30	365.12
581.46	468.11
581.62	470.45
581.78	580.45
581.94	547.69
582.10	456.40
582.26	386.19
582.42	360.44
582.58	372.15
582.74	369.80
582.90	353.42
583.06	433.00
583.22	414.27
583.38	430.66
583.54	402.57
583.70	554.71
583.86	582.79
584.02	727.91
584.18	873.02
584.34	1167.93
584.50	2937.37
584.66	21476.76
584.82	53675.51
584.98	64996.68
585.14	62981.48
585.30	48430.36
585.46	29032.00
585.62	17642.96
585.78	8187.19
585.94	3192.49
586.10	1540.07
586.26	971.32
586.42	758.33
586.58	547.69
586.74	568.75
586.90	496.19
587.06	589.82
587.22	489.17
587.38	465.77
587.54	1050.90
587.70	3243.98
587.86	5556.43
588.02	6441.15
588.18	4652.98
588.34	2726.72
588.49	1668.80
588.65	1146.86
588.81	606.20
588.97	290.23
589.13	376.83
589.29	365.12
589.45	360.44
589.61	215.33
589.77	418.96
589.93	337.04
590.08	454.06
590.24	379.17
590.40	402.57
590.56	348.74
590.72	325.33
590.88	257.46
591.04	362.78
591.20	358.10
591.35	252.78
591.51	299.59
591.67	238.73
591.83	311.29
591.99	227.03
592.15	308.95
592.31	220.01
592.46	222.35
592.62	250.44
592.78	203.63
592.94	320.65
593.10	236.39
593.26	285.55
593.41	315.97
593.57	362.78
593.73	545.34
593.89	2532.46
594.05	6843.73
594.20	10850.72
594.36	10246.87
594.52	6740.74
594.68	4170.83
594.84	2801.62
594.99	1451.13
595.15	716.20
595.31	456.40
595.47	365.12
595.62	227.03
595.78	154.48
595.94	292.57
596.10	243.42
596.25	299.59
596.41	241.08
596.57	278.52
596.73	287.89
596.88	444.70
597.04	1301.34
597.20	2258.62
597.36	2736.09
597.51	1987.11
597.67	1350.49
597.83	875.36
597.99	634.29
598.14	425.98
598.30	292.57
598.46	210.65
598.61	294.91
598.77	245.76
598.93	227.03
599.09	142.77
599.24	203.63
599.40	283.20
599.56	205.97
599.71	238.73
599.87	175.54
600.03	217.67
600.18	212.99
600.34	222.35
600.50	210.65
600.65	215.33
600.81	198.95
600.97	196.60
601.12	175.54
601.28	203.63
601.44	201.29
601.59	217.67
601.75	287.89
601.91	252.78
602.06	220.01
602.22	372.15
602.37	629.60
602.53	1565.82
602.69	2614.38
602.84	2754.81
603.00	2078.40
603.16	1409.00
603.31	1020.47
603.47	697.48
603.62	351.08
603.78	229.37
603.94	313.63
604.09	212.99
604.25	187.24
604.40	224.69
604.56	215.33
604.71	201.29
604.87	290.23
605.03	250.44
605.18	236.39
605.34	290.23
605.49	292.57
605.65	292.57
605.80	325.33
605.96	231.71
606.12	304.27
606.27	308.95
606.43	234.05
606.58	334.70
606.74	821.53
606.89	3185.47
607.05	6630.74
607.20	9305.97
607.36	7723.77
607.51	5121.09
607.67	3239.30
607.82	2232.87
607.98	1188.99
608.13	760.67
608.29	376.83
608.44	465.77
608.60	372.15
608.75	395.55
608.91	1048.56
609.06	4929.17
609.22	10991.16
609.37	15871.17
609.53	13961.30
609.68	9432.36
609.84	5762.40
609.99	4067.85
610.15	2146.27
610.30	950.26
610.46	624.92
610.61	404.91
610.76	327.68
610.92	306.61
611.07	358.10
611.23	402.57
611.38	330.02
611.54	280.86
611.69	262.14
611.84	238.73
