SpectraSuite Data File
++++++++++++++++++++++++++++++++++++
Date: Fri Oct 04 11:47:23 GMT-05:00 2013
User: price-jones
Dark Spectrum Present: No
Reference Spectrum Present: No
Number of Sampled Component Spectra: 1
Spectrometers: USB2+H05261
Integration Time (usec): 100000 (USB2+H05261)
Spectra Averaged: 1 (USB2+H05261)
Boxcar Smoothing: 0 (USB2+H05261)
Correct for Electrical Dark: No (USB2+H05261)
Strobe/Lamp Enabled: No (USB2+H05261)
Correct for Detector Non-linearity: No (USB2+H05261)
Correct for Stray Light: No (USB2+H05261)
Number of Pixels in Processed Spectrum: 2048
>>>>>Begin Processed Spectral Data<<<<<
365.73	42.13
365.92	42.13
366.12	42.13
366.32	0.00
366.52	25.75
366.72	0.00
366.91	0.00
367.11	0.00
367.31	0.00
367.51	0.00
367.70	0.00
367.90	0.00
368.10	0.00
368.30	0.00
368.49	0.00
368.69	0.00
368.89	0.00
369.09	0.00
369.28	0.00
369.48	0.00
369.68	0.00
369.87	0.00
370.07	0.00
370.27	0.00
370.47	35.11
370.66	0.00
370.86	18.72
371.06	58.51
371.25	156.82
371.45	7.02
371.65	102.98
371.84	53.83
372.04	67.88
372.24	140.43
372.44	72.56
372.63	88.94
372.83	161.50
373.03	79.58
373.22	93.62
373.42	98.30
373.62	58.51
373.81	98.30
374.01	166.18
374.21	138.09
374.40	72.56
374.60	152.13
374.79	161.50
374.99	110.01
375.19	140.43
375.38	58.51
375.58	98.30
375.78	65.54
375.97	147.45
376.17	187.24
376.37	32.77
376.56	86.60
376.76	107.66
376.95	30.43
377.15	135.75
377.35	135.75
377.54	166.18
377.74	107.66
377.93	42.13
378.13	102.98
378.33	149.79
378.52	128.73
378.72	145.11
378.91	112.35
379.11	81.92
379.31	170.86
379.50	63.19
379.70	117.03
379.89	93.62
380.09	39.79
380.28	93.62
380.48	168.52
380.68	152.13
380.87	189.58
381.07	177.88
381.26	102.98
381.46	65.54
381.65	77.24
381.85	53.83
382.04	182.56
382.24	117.03
382.43	67.88
382.63	154.48
382.83	145.11
383.02	133.41
383.22	173.20
383.41	81.92
383.61	112.35
383.80	88.94
384.00	70.22
384.19	93.62
384.39	112.35
384.58	93.62
384.78	72.56
384.97	133.41
385.17	35.11
385.36	112.35
385.56	79.58
385.75	84.26
385.95	4.68
386.14	124.05
386.34	79.58
386.53	124.05
386.72	79.58
386.92	72.56
387.11	44.47
387.31	56.17
387.50	63.19
387.70	77.24
387.89	28.09
388.09	84.26
388.28	98.30
388.48	77.24
388.67	128.73
388.86	63.19
389.06	95.96
389.25	112.35
389.45	187.24
389.64	149.79
389.84	117.03
390.03	145.11
390.22	100.64
390.42	110.01
390.61	117.03
390.81	156.82
391.00	65.54
391.19	119.37
391.39	81.92
391.58	124.05
391.78	112.35
391.97	67.88
392.16	70.22
392.36	81.92
392.55	142.77
392.75	154.48
392.94	145.11
393.13	112.35
393.33	95.96
393.52	86.60
393.71	95.96
393.91	135.75
394.10	128.73
394.29	100.64
394.49	107.66
394.68	189.58
394.88	138.09
395.07	102.98
395.26	81.92
395.46	119.37
395.65	124.05
395.84	107.66
396.04	236.39
396.23	182.56
396.42	112.35
396.62	131.07
396.81	98.30
397.00	126.39
397.19	159.16
397.39	88.94
397.58	147.45
397.77	77.24
397.97	198.95
398.16	133.41
398.35	100.64
398.55	124.05
398.74	98.30
398.93	177.88
399.12	107.66
399.32	65.54
399.51	119.37
399.70	135.75
399.90	138.09
400.09	203.63
400.28	159.16
400.47	156.82
400.67	25.75
400.86	201.29
401.05	117.03
401.24	114.69
401.44	114.69
401.63	140.43
401.82	138.09
402.01	119.37
402.21	140.43
402.40	159.16
402.59	79.58
402.78	95.96
402.97	210.65
403.17	184.90
403.36	147.45
403.55	159.16
403.74	159.16
403.93	119.37
404.13	220.01
404.32	100.64
404.51	114.69
404.70	212.99
404.89	138.09
405.09	128.73
405.28	124.05
405.47	145.11
405.66	168.52
405.85	126.39
406.05	184.90
406.24	142.77
406.43	173.20
406.62	149.79
406.81	177.88
407.00	168.52
407.20	198.95
407.39	102.98
407.58	91.28
407.77	117.03
407.96	168.52
408.15	194.26
408.34	159.16
408.54	156.82
408.73	131.07
408.92	212.99
409.11	152.13
409.30	182.56
409.49	119.37
409.68	145.11
409.87	180.22
410.07	187.24
410.26	84.26
410.45	100.64
410.64	121.71
410.83	161.50
411.02	163.84
411.21	208.31
411.40	215.33
411.59	147.45
411.78	182.56
411.98	208.31
412.17	154.48
412.36	84.26
412.55	161.50
412.74	203.63
412.93	159.16
413.12	140.43
413.31	114.69
413.50	163.84
413.69	131.07
413.88	156.82
414.07	215.33
414.26	184.90
414.45	187.24
414.64	215.33
414.83	191.92
415.02	189.58
415.22	194.26
415.41	170.86
415.60	205.97
415.79	205.97
415.98	110.01
416.17	145.11
416.36	252.78
416.55	126.39
416.74	187.24
416.93	182.56
417.12	152.13
417.31	112.35
417.50	187.24
417.69	215.33
417.88	117.03
418.07	154.48
418.26	138.09
418.45	121.71
418.64	180.22
418.83	154.48
419.02	124.05
419.21	161.50
419.39	128.73
419.58	147.45
419.77	88.94
419.96	203.63
420.15	203.63
420.34	191.92
420.53	229.37
420.72	147.45
420.91	222.35
421.10	154.48
421.29	128.73
421.48	217.67
421.67	140.43
421.86	135.75
422.05	217.67
422.24	147.45
422.43	86.60
422.61	102.98
422.80	152.13
422.99	112.35
423.18	173.20
423.37	168.52
423.56	217.67
423.75	161.50
423.94	124.05
424.13	140.43
424.32	189.58
424.50	238.73
424.69	163.84
424.88	166.18
425.07	182.56
425.26	163.84
425.45	191.92
425.64	138.09
425.83	182.56
426.01	210.65
426.20	133.41
426.39	124.05
426.58	95.96
426.77	182.56
426.96	117.03
427.15	79.58
427.33	166.18
427.52	191.92
427.71	196.60
427.90	170.86
428.09	182.56
428.28	191.92
428.46	110.01
428.65	191.92
428.84	187.24
429.03	152.13
429.22	191.92
429.40	152.13
429.59	117.03
429.78	264.48
429.97	112.35
430.16	227.03
430.34	133.41
430.53	168.52
430.72	110.01
430.91	156.82
431.10	159.16
431.28	119.37
431.47	196.60
431.66	180.22
431.85	124.05
432.03	175.54
432.22	266.82
432.41	147.45
432.60	159.16
432.79	175.54
432.97	194.26
433.16	208.31
433.35	210.65
433.54	205.97
433.72	88.94
433.91	163.84
434.10	166.18
434.28	159.16
434.47	177.88
434.66	203.63
434.85	220.01
435.03	156.82
435.22	191.92
435.41	126.39
435.59	217.67
435.78	194.26
435.97	175.54
436.16	266.82
436.34	145.11
436.53	184.90
436.72	191.92
436.90	180.22
437.09	184.90
437.28	95.96
437.46	142.77
437.65	131.07
437.84	140.43
438.02	177.88
438.21	245.76
438.40	154.48
438.58	205.97
438.77	205.97
438.96	173.20
439.14	142.77
439.33	135.75
439.52	194.26
439.70	105.32
439.89	175.54
440.08	222.35
440.26	205.97
440.45	222.35
440.63	191.92
440.82	224.69
441.01	177.88
441.19	189.58
441.38	142.77
441.57	184.90
441.75	210.65
441.94	220.01
442.12	201.29
442.31	159.16
442.50	138.09
442.68	191.92
442.87	210.65
443.05	191.92
443.24	177.88
443.43	245.76
443.61	175.54
443.80	145.11
443.98	140.43
444.17	243.42
444.35	175.54
444.54	121.71
444.73	191.92
444.91	173.20
445.10	189.58
445.28	117.03
445.47	161.50
445.65	191.92
445.84	184.90
446.02	187.24
446.21	156.82
446.39	184.90
446.58	257.46
446.77	229.37
446.95	250.44
447.14	198.95
447.32	215.33
447.51	203.63
447.69	271.50
447.88	224.69
448.06	222.35
448.25	182.56
448.43	198.95
448.62	222.35
448.80	191.92
448.99	140.43
449.17	234.05
449.36	208.31
449.54	220.01
449.73	138.09
449.91	161.50
450.10	156.82
450.28	220.01
450.46	292.57
450.65	266.82
450.83	229.37
451.02	220.01
451.20	276.18
451.39	184.90
451.57	196.60
451.76	215.33
451.94	273.84
452.13	243.42
452.31	203.63
452.49	163.84
452.68	166.18
452.86	205.97
453.05	154.48
453.23	203.63
453.42	177.88
453.60	142.77
453.78	149.79
453.97	126.39
454.15	117.03
454.34	231.71
454.52	175.54
454.70	243.42
454.89	201.29
455.07	191.92
455.26	159.16
455.44	215.33
455.62	163.84
455.81	196.60
455.99	198.95
456.17	173.20
456.36	259.80
456.54	245.76
456.73	217.67
456.91	243.42
457.09	201.29
457.28	201.29
457.46	205.97
457.64	271.50
457.83	208.31
458.01	241.08
458.19	224.69
458.38	217.67
458.56	191.92
458.74	287.89
458.93	283.20
459.11	208.31
459.29	208.31
459.48	245.76
459.66	194.26
459.84	264.48
460.03	278.52
460.21	210.65
460.39	220.01
460.57	208.31
460.76	208.31
460.94	168.52
461.12	271.50
461.31	241.08
461.49	304.27
461.67	191.92
461.85	182.56
462.04	220.01
462.22	737.27
462.40	248.10
462.59	231.71
462.77	255.12
462.95	166.18
463.13	215.33
463.32	245.76
463.50	238.73
463.68	152.13
463.86	208.31
464.05	180.22
464.23	243.42
464.41	238.73
464.59	117.03
464.78	135.75
464.96	205.97
465.14	250.44
465.32	156.82
465.50	255.12
465.69	187.24
465.87	203.63
466.05	224.69
466.23	234.05
466.41	208.31
466.60	203.63
466.78	245.76
466.96	203.63
467.14	250.44
467.32	229.37
467.51	229.37
467.69	259.80
467.87	262.14
468.05	184.90
468.23	271.50
468.41	175.54
468.60	189.58
468.78	180.22
468.96	215.33
469.14	248.10
469.32	191.92
469.50	173.20
469.69	224.69
469.87	255.12
470.05	152.13
470.23	196.60
470.41	180.22
470.59	170.86
470.77	231.71
470.95	180.22
471.14	252.78
471.32	196.60
471.50	215.33
471.68	241.08
471.86	283.20
472.04	248.10
472.22	217.67
472.40	238.73
472.58	126.39
472.77	229.37
472.95	243.42
473.13	301.93
473.31	269.16
473.49	257.46
473.67	212.99
473.85	203.63
474.03	276.18
474.21	236.39
474.39	271.50
474.57	217.67
474.75	184.90
474.93	234.05
475.12	215.33
475.30	196.60
475.48	201.29
475.66	184.90
475.84	212.99
476.02	215.33
476.20	280.86
476.38	187.24
476.56	285.55
476.74	257.46
476.92	189.58
477.10	269.16
477.28	262.14
477.46	285.55
477.64	273.84
477.82	257.46
478.00	287.89
478.18	318.31
478.36	299.59
478.54	280.86
478.72	201.29
478.90	224.69
479.08	318.31
479.26	245.76
479.44	208.31
479.62	227.03
479.80	215.33
479.98	236.39
480.16	280.86
480.34	306.61
480.52	187.24
480.70	147.45
480.88	210.65
481.06	236.39
481.24	273.84
481.41	168.52
481.59	262.14
481.77	269.16
481.95	304.27
482.13	273.84
482.31	280.86
482.49	262.14
482.67	257.46
482.85	285.55
483.03	194.26
483.21	198.95
483.39	245.76
483.57	210.65
483.74	266.82
483.92	271.50
484.10	262.14
484.28	280.86
484.46	238.73
484.64	229.37
484.82	234.05
485.00	262.14
485.18	243.42
485.35	315.97
485.53	255.12
485.71	257.46
485.89	198.95
486.07	194.26
486.25	266.82
486.43	372.15
486.61	280.86
486.78	208.31
486.96	271.50
487.14	224.69
487.32	252.78
487.50	304.27
487.68	332.36
487.85	159.16
488.03	238.73
488.21	285.55
488.39	360.44
488.57	264.48
488.75	313.63
488.92	564.07
489.10	332.36
489.28	337.04
489.46	330.02
489.64	217.67
489.81	332.36
489.99	269.16
490.17	414.27
490.35	472.79
490.53	278.52
490.70	262.14
490.88	330.02
491.06	238.73
491.24	374.49
491.41	285.55
491.59	346.40
491.77	273.84
491.95	344.06
492.13	278.52
492.30	273.84
492.48	311.29
492.66	229.37
492.84	325.33
493.01	318.31
493.19	238.73
493.37	353.42
493.54	341.72
493.72	341.72
493.90	280.86
494.08	308.95
494.25	367.46
494.43	339.38
494.61	362.78
494.79	330.02
494.96	255.12
495.14	224.69
495.32	348.74
495.49	315.97
495.67	337.04
495.85	259.80
496.02	313.63
496.20	374.49
496.38	283.20
496.55	301.93
496.73	322.99
496.91	360.44
497.09	304.27
497.26	358.10
497.44	294.91
497.62	294.91
497.79	353.42
497.97	276.18
498.14	332.36
498.32	365.12
498.50	322.99
498.67	355.76
498.85	304.27
499.03	395.55
499.20	334.70
499.38	294.91
499.56	271.50
499.73	353.42
499.91	322.99
500.08	402.57
500.26	334.70
500.44	276.18
500.61	376.83
500.79	351.08
500.97	425.98
501.14	404.91
501.32	278.52
501.49	330.02
501.67	234.05
501.84	327.68
502.02	292.57
502.20	367.46
502.37	318.31
502.55	383.85
502.72	393.21
502.90	428.32
503.07	287.89
503.25	292.57
503.43	301.93
503.60	280.86
503.78	322.99
503.95	365.12
504.13	337.04
504.30	376.83
504.48	341.72
504.65	292.57
504.83	339.38
505.01	250.44
505.18	353.42
505.36	339.38
505.53	360.44
505.71	269.16
505.88	304.27
506.06	376.83
506.23	402.57
506.41	330.02
506.58	395.55
506.76	402.57
506.93	294.91
507.11	304.27
507.28	315.97
507.46	468.11
507.63	320.65
507.81	372.15
507.98	294.91
508.16	332.36
508.33	344.06
508.50	346.40
508.68	311.29
508.85	344.06
509.03	386.19
509.20	341.72
509.38	287.89
509.55	369.80
509.73	346.40
509.90	468.11
510.08	407.25
510.25	320.65
510.42	351.08
510.60	386.19
510.77	327.68
510.95	442.36
511.12	315.97
511.30	365.12
511.47	442.36
511.64	367.46
511.82	255.12
511.99	416.62
512.17	402.57
512.34	299.59
512.51	337.04
512.69	322.99
512.86	341.72
513.04	346.40
513.21	423.64
513.38	290.23
513.56	397.89
513.73	353.42
513.90	407.25
514.08	362.78
514.25	332.36
514.43	402.57
514.60	320.65
514.77	351.08
514.95	367.46
515.12	353.42
515.29	397.89
515.47	437.68
515.64	337.04
515.81	402.57
515.99	433.00
516.16	351.08
516.33	362.78
516.51	290.23
516.68	334.70
516.85	297.25
517.03	360.44
517.20	409.59
517.37	454.06
517.54	337.04
517.72	353.42
517.89	348.74
518.06	372.15
518.24	346.40
518.41	346.40
518.58	306.61
518.75	430.66
518.93	372.15
519.10	334.70
519.27	311.29
519.45	355.76
519.62	355.76
519.79	339.38
519.96	322.99
520.14	351.08
520.31	386.19
520.48	320.65
520.65	418.96
520.83	358.10
521.00	409.59
521.17	388.53
521.34	332.36
521.52	341.72
521.69	425.98
521.86	470.45
522.03	451.72
522.20	472.79
522.38	367.46
522.55	390.87
522.72	353.42
522.89	411.93
523.07	489.17
523.24	383.85
523.41	362.78
523.58	369.80
523.75	395.55
523.92	355.76
524.10	411.93
524.27	444.70
524.44	355.76
524.61	447.04
524.78	339.38
524.96	390.87
525.13	372.15
525.30	372.15
525.47	414.27
525.64	393.21
525.81	348.74
525.98	393.21
526.16	320.65
526.33	351.08
526.50	355.76
526.67	365.12
526.84	353.42
527.01	334.70
527.18	339.38
527.36	358.10
527.53	393.21
527.70	395.55
527.87	430.66
528.04	409.59
528.21	402.57
528.38	414.27
528.55	379.17
528.72	423.64
528.89	475.13
529.07	404.91
529.24	386.19
529.41	423.64
529.58	381.51
529.75	402.57
529.92	402.57
530.09	388.53
530.26	414.27
530.43	374.49
530.60	409.59
530.77	390.87
530.94	428.32
531.11	423.64
531.28	442.36
531.46	381.51
531.63	397.89
531.80	484.49
531.97	428.32
532.14	444.70
532.31	414.27
532.48	400.23
532.65	383.85
532.82	369.80
532.99	395.55
533.16	355.76
533.33	348.74
533.50	322.99
533.67	330.02
533.84	358.10
534.01	390.87
534.18	402.57
534.35	311.29
534.52	414.27
534.69	451.72
534.86	353.42
535.03	428.32
535.20	395.55
535.37	383.85
535.54	456.40
535.71	430.66
535.88	376.83
536.05	325.33
536.22	383.85
536.38	411.93
536.55	367.46
536.72	395.55
536.89	322.99
537.06	449.38
537.23	400.23
537.40	447.04
537.57	470.45
537.74	390.87
537.91	297.25
538.08	430.66
538.25	341.72
538.42	372.15
538.59	442.36
538.75	339.38
538.92	479.81
539.09	484.49
539.26	397.89
539.43	423.64
539.60	395.55
539.77	498.53
539.94	341.72
540.11	411.93
540.28	484.49
540.44	292.57
540.61	402.57
540.78	383.85
540.95	430.66
541.12	388.53
541.29	355.76
541.46	383.85
541.62	390.87
541.79	353.42
541.96	315.97
542.13	390.87
542.30	437.68
542.47	418.96
542.63	397.89
542.80	472.79
542.97	423.64
543.14	332.36
543.31	451.72
543.48	397.89
543.64	353.42
543.81	379.17
543.98	395.55
544.15	379.17
544.32	334.70
544.48	362.78
544.65	355.76
544.82	428.32
544.99	325.33
545.16	339.38
545.32	411.93
545.49	433.00
545.66	428.32
545.83	393.21
546.00	308.95
546.16	330.02
546.33	362.78
546.50	379.17
546.67	444.70
546.83	437.68
547.00	351.08
547.17	341.72
547.34	411.93
547.50	388.53
547.67	397.89
547.84	320.65
548.00	435.34
548.17	423.64
548.34	332.36
548.51	418.96
548.67	491.51
548.84	395.55
549.01	397.89
549.18	393.21
549.34	386.19
549.51	388.53
549.68	390.87
549.84	402.57
550.01	416.62
550.18	461.09
550.34	519.60
550.51	360.44
550.68	397.89
550.84	355.76
551.01	407.25
551.18	376.83
551.34	418.96
551.51	351.08
551.68	367.46
551.84	353.42
552.01	346.40
552.18	395.55
552.34	346.40
552.51	348.74
552.68	320.65
552.84	372.15
553.01	437.68
553.18	372.15
553.34	449.38
553.51	306.61
553.67	447.04
553.84	411.93
554.01	390.87
554.17	346.40
554.34	433.00
554.51	409.59
554.67	355.76
554.84	479.81
555.00	414.27
555.17	423.64
555.33	435.34
555.50	334.70
555.67	409.59
555.83	351.08
556.00	390.87
556.16	526.62
556.33	367.46
556.50	411.93
556.66	402.57
556.83	414.27
556.99	433.00
557.16	351.08
557.32	362.78
557.49	416.62
557.65	360.44
557.82	325.33
557.98	367.46
558.15	381.51
558.32	339.38
558.48	402.57
558.65	301.93
558.81	381.51
558.98	365.12
559.14	395.55
559.31	365.12
559.47	346.40
559.64	334.70
559.80	407.25
559.97	400.23
560.13	348.74
560.30	332.36
560.46	299.59
560.63	346.40
560.79	311.29
560.96	322.99
561.12	374.49
561.29	374.49
561.45	383.85
561.61	348.74
561.78	451.72
561.94	313.63
562.11	337.04
562.27	379.17
562.44	365.12
562.60	334.70
562.77	348.74
562.93	507.90
563.10	372.15
563.26	346.40
563.42	353.42
563.59	337.04
563.75	397.89
563.92	400.23
564.08	365.12
564.24	397.89
564.41	454.06
564.57	311.29
564.74	409.59
564.90	297.25
565.07	339.38
565.23	325.33
565.39	388.53
565.56	339.38
565.72	414.27
565.88	320.65
566.05	294.91
566.21	306.61
566.38	418.96
566.54	369.80
566.70	369.80
566.87	334.70
567.03	369.80
567.19	330.02
567.36	372.15
567.52	358.10
567.68	341.72
567.85	287.89
568.01	353.42
568.17	355.76
568.34	416.62
568.50	379.17
568.66	252.78
568.83	437.68
568.99	416.62
569.15	463.43
569.32	372.15
569.48	421.30
569.64	379.17
569.81	390.87
569.97	315.97
570.13	353.42
570.30	327.68
570.46	304.27
570.62	341.72
570.78	297.25
570.95	348.74
571.11	376.83
571.27	390.87
571.43	290.23
571.60	348.74
571.76	367.46
571.92	318.31
572.09	308.95
572.25	348.74
572.41	395.55
572.57	369.80
572.74	348.74
572.90	292.57
573.06	339.38
573.22	362.78
573.38	330.02
573.55	325.33
573.71	320.65
573.87	409.59
574.03	358.10
574.20	400.23
574.36	294.91
574.52	315.97
574.68	339.38
574.84	381.51
575.01	332.36
575.17	341.72
575.33	374.49
575.49	341.72
575.65	404.91
575.82	442.36
575.98	386.19
576.14	355.76
576.30	348.74
576.46	339.38
576.62	290.23
576.79	409.59
576.95	381.51
577.11	313.63
577.27	283.20
577.43	346.40
577.59	334.70
577.75	327.68
577.92	322.99
578.08	374.49
578.24	273.84
578.40	365.12
578.56	390.87
578.72	346.40
578.88	484.49
579.04	339.38
579.21	390.87
579.37	404.91
579.53	322.99
579.69	372.15
579.85	264.48
580.01	339.38
580.17	311.29
580.33	283.20
580.49	355.76
580.65	287.89
580.82	334.70
580.98	386.19
581.14	332.36
581.30	386.19
581.46	327.68
581.62	400.23
581.78	369.80
581.94	425.98
582.10	325.33
582.26	339.38
582.42	379.17
582.58	374.49
582.74	355.76
582.90	381.51
583.06	414.27
583.22	325.33
583.38	390.87
583.54	299.59
583.70	353.42
583.86	318.31
584.02	386.19
584.18	388.53
584.34	360.44
584.50	315.97
584.66	372.15
584.82	339.38
584.98	381.51
585.14	313.63
585.30	332.36
585.46	315.97
585.62	360.44
585.78	348.74
585.94	379.17
586.10	344.06
586.26	304.27
586.42	442.36
586.58	400.23
586.74	322.99
586.90	365.12
587.06	390.87
587.22	388.53
587.38	351.08
587.54	418.96
587.70	367.46
587.86	322.99
588.02	257.46
588.18	320.65
588.34	241.08
588.49	290.23
588.65	241.08
588.81	297.25
588.97	297.25
589.13	355.76
589.29	276.18
589.45	337.04
589.61	344.06
589.77	283.20
589.93	290.23
590.08	259.80
590.24	320.65
590.40	250.44
590.56	306.61
590.72	273.84
590.88	255.12
591.04	273.84
591.20	351.08
591.35	344.06
591.51	290.23
591.67	264.48
591.83	315.97
591.99	297.25
592.15	238.73
592.31	372.15
592.46	313.63
592.62	330.02
592.78	337.04
592.94	301.93
593.10	266.82
593.26	212.99
593.41	362.78
593.57	337.04
593.73	327.68
593.89	334.70
594.05	273.84
594.20	222.35
594.36	322.99
594.52	196.60
594.68	224.69
594.84	301.93
594.99	337.04
595.15	386.19
595.31	315.97
595.47	337.04
595.62	252.78
595.78	278.52
595.94	351.08
596.10	330.02
596.25	301.93
596.41	393.21
596.57	292.57
596.73	315.97
596.88	278.52
597.04	348.74
597.20	337.04
597.36	320.65
597.51	353.42
597.67	311.29
597.83	287.89
597.99	306.61
598.14	276.18
598.30	353.42
598.46	304.27
598.61	344.06
598.77	348.74
598.93	245.76
599.09	308.95
599.24	379.17
599.40	325.33
599.56	308.95
599.71	259.80
599.87	280.86
600.03	283.20
600.18	304.27
600.34	297.25
600.50	334.70
600.65	301.93
600.81	367.46
600.97	332.36
601.12	334.70
601.28	283.20
601.44	271.50
601.59	264.48
601.75	294.91
601.91	264.48
602.06	322.99
602.22	409.59
602.37	313.63
602.53	285.55
602.69	313.63
602.84	311.29
603.00	355.76
603.16	376.83
603.31	297.25
603.47	311.29
603.62	318.31
603.78	322.99
603.94	299.59
604.09	294.91
604.25	334.70
604.40	379.17
604.56	301.93
604.71	367.46
604.87	339.38
605.03	348.74
605.18	330.02
605.34	362.78
605.49	351.08
605.65	341.72
605.80	266.82
605.96	320.65
606.12	285.55
606.27	259.80
606.43	367.46
606.58	353.42
606.74	344.06
606.89	313.63
607.05	374.49
607.20	294.91
607.36	330.02
607.51	299.59
607.67	318.31
607.82	315.97
607.98	348.74
608.13	376.83
608.29	271.50
608.44	334.70
608.60	294.91
608.75	358.10
608.91	290.23
609.06	341.72
609.22	280.86
609.37	320.65
609.53	322.99
609.68	318.31
609.84	327.68
609.99	292.57
610.15	250.44
610.30	355.76
610.46	348.74
610.61	372.15
610.76	294.91
610.92	276.18
611.07	306.61
611.23	292.57
611.38	348.74
611.54	304.27
