SpectraSuite Data File
++++++++++++++++++++++++++++++++++++
Date: Fri Oct 04 11:47:01 GMT-05:00 2013
User: price-jones
Dark Spectrum Present: No
Reference Spectrum Present: No
Number of Sampled Component Spectra: 1
Spectrometers: USB2+H05261
Integration Time (usec): 100000 (USB2+H05261)
Spectra Averaged: 1 (USB2+H05261)
Boxcar Smoothing: 0 (USB2+H05261)
Correct for Electrical Dark: No (USB2+H05261)
Strobe/Lamp Enabled: No (USB2+H05261)
Correct for Detector Non-linearity: No (USB2+H05261)
Correct for Stray Light: No (USB2+H05261)
Number of Pixels in Processed Spectrum: 2048
>>>>>Begin Processed Spectral Data<<<<<
365.73	9.36
365.92	9.36
366.12	9.36
366.32	0.00
366.52	0.00
366.72	0.00
366.91	0.00
367.11	0.00
367.31	0.00
367.51	0.00
367.70	0.00
367.90	0.00
368.10	0.00
368.30	0.00
368.49	0.00
368.69	0.00
368.89	0.00
369.09	0.00
369.28	0.00
369.48	0.00
369.68	0.00
369.87	0.00
370.07	0.00
370.27	4.68
370.47	0.00
370.66	2.34
370.86	0.00
371.06	9.36
371.25	56.17
371.45	74.90
371.65	77.24
371.84	128.73
372.04	44.47
372.24	53.83
372.44	28.09
372.63	91.28
372.83	175.54
373.03	84.26
373.22	58.51
373.42	77.24
373.62	121.71
373.81	81.92
374.01	98.30
374.21	112.35
374.40	102.98
374.60	102.98
374.79	4.68
374.99	79.58
375.19	168.52
375.38	102.98
375.58	156.82
375.78	126.39
375.97	131.07
376.17	98.30
376.37	77.24
376.56	117.03
376.76	51.49
376.95	91.28
377.15	72.56
377.35	154.48
377.54	112.35
377.74	98.30
377.93	93.62
378.13	70.22
378.33	98.30
378.52	119.37
378.72	135.75
378.91	117.03
379.11	91.28
379.31	135.75
379.50	67.88
379.70	84.26
379.89	93.62
380.09	81.92
380.28	131.07
380.48	91.28
380.68	30.43
380.87	56.17
381.07	107.66
381.26	191.92
381.46	126.39
381.65	93.62
381.85	56.17
382.04	39.79
382.24	72.56
382.43	53.83
382.63	67.88
382.83	53.83
383.02	49.15
383.22	72.56
383.41	44.47
383.61	37.45
383.80	81.92
384.00	95.96
384.19	74.90
384.39	117.03
384.58	51.49
384.78	93.62
384.97	124.05
385.17	81.92
385.36	128.73
385.56	217.67
385.75	114.69
385.95	88.94
386.14	128.73
386.34	72.56
386.53	117.03
386.72	88.94
386.92	191.92
387.11	110.01
387.31	86.60
387.50	65.54
387.70	18.72
387.89	51.49
388.09	74.90
388.28	46.81
388.48	51.49
388.67	88.94
388.86	77.24
389.06	95.96
389.25	126.39
389.45	14.04
389.64	93.62
389.84	142.77
390.03	49.15
390.22	23.41
390.42	140.43
390.61	86.60
390.81	0.00
391.00	102.98
391.19	161.50
391.39	95.96
391.58	81.92
391.78	100.64
391.97	49.15
392.16	7.02
392.36	112.35
392.55	131.07
392.75	107.66
392.94	79.58
393.13	81.92
393.33	119.37
393.52	65.54
393.71	102.98
393.91	112.35
394.10	133.41
394.29	93.62
394.49	49.15
394.68	84.26
394.88	119.37
395.07	56.17
395.26	18.72
395.46	117.03
395.65	124.05
395.84	77.24
396.04	159.16
396.23	117.03
396.42	42.13
396.62	93.62
396.81	70.22
397.00	91.28
397.19	142.77
397.39	65.54
397.58	138.09
397.77	124.05
397.97	70.22
398.16	93.62
398.35	138.09
398.55	77.24
398.74	140.43
398.93	105.32
399.12	67.88
399.32	70.22
399.51	100.64
399.70	79.58
399.90	91.28
400.09	100.64
400.28	74.90
400.47	79.58
400.67	91.28
400.86	44.47
401.05	88.94
401.24	135.75
401.44	166.18
401.63	124.05
401.82	86.60
402.01	91.28
402.21	93.62
402.40	30.43
402.59	135.75
402.78	74.90
402.97	88.94
403.17	107.66
403.36	110.01
403.55	30.43
403.74	147.45
403.93	138.09
404.13	163.84
404.32	145.11
404.51	49.15
404.70	121.71
404.89	84.26
405.09	156.82
405.28	124.05
405.47	21.06
405.66	135.75
405.85	145.11
406.05	98.30
406.24	154.48
406.43	114.69
406.62	46.81
406.81	163.84
407.00	107.66
407.20	112.35
407.39	133.41
407.58	91.28
407.77	177.88
407.96	117.03
408.15	81.92
408.34	147.45
408.54	114.69
408.73	133.41
408.92	119.37
409.11	180.22
409.30	210.65
409.49	98.30
409.68	72.56
409.87	117.03
410.07	63.19
410.26	9.36
410.45	105.32
410.64	49.15
410.83	126.39
411.02	114.69
411.21	121.71
411.40	135.75
411.59	102.98
411.78	149.79
411.98	88.94
412.17	112.35
412.36	86.60
412.55	74.90
412.74	189.58
412.93	119.37
413.12	53.83
413.31	140.43
413.50	170.86
413.69	53.83
413.88	145.11
414.07	74.90
414.26	79.58
414.45	74.90
414.64	117.03
414.83	119.37
415.02	142.77
415.22	149.79
415.41	140.43
415.60	220.01
415.79	133.41
415.98	187.24
416.17	102.98
416.36	149.79
416.55	60.85
416.74	149.79
416.93	107.66
417.12	117.03
417.31	135.75
417.50	133.41
417.69	224.69
417.88	142.77
418.07	159.16
418.26	142.77
418.45	91.28
418.64	215.33
418.83	234.05
419.02	196.60
419.21	124.05
419.39	126.39
419.58	142.77
419.77	205.97
419.96	229.37
420.15	166.18
420.34	138.09
420.53	67.88
420.72	163.84
420.91	77.24
421.10	98.30
421.29	189.58
421.48	173.20
421.67	152.13
421.86	77.24
422.05	65.54
422.24	100.64
422.43	138.09
422.61	133.41
422.80	145.11
422.99	67.88
423.18	126.39
423.37	112.35
423.56	131.07
423.75	112.35
423.94	70.22
424.13	93.62
424.32	86.60
424.50	65.54
424.69	93.62
424.88	131.07
425.07	159.16
425.26	222.35
425.45	177.88
425.64	297.25
425.83	147.45
426.01	166.18
426.20	161.50
426.39	140.43
426.58	46.81
426.77	145.11
426.96	117.03
427.15	147.45
427.33	88.94
427.52	105.32
427.71	70.22
427.90	147.45
428.09	63.19
428.28	79.58
428.46	119.37
428.65	112.35
428.84	98.30
429.03	140.43
429.22	117.03
429.40	98.30
429.59	135.75
429.78	210.65
429.97	56.17
430.16	77.24
430.34	88.94
430.53	56.17
430.72	91.28
430.91	117.03
431.10	93.62
431.28	138.09
431.47	117.03
431.66	95.96
431.85	126.39
432.03	135.75
432.22	119.37
432.41	138.09
432.60	168.52
432.79	114.69
432.97	301.93
433.16	266.82
433.35	215.33
433.54	163.84
433.72	135.75
433.91	156.82
434.10	173.20
434.28	159.16
434.47	121.71
434.66	184.90
434.85	175.54
435.03	126.39
435.22	168.52
435.41	156.82
435.59	95.96
435.78	152.13
435.97	124.05
436.16	191.92
436.34	119.37
436.53	110.01
436.72	156.82
436.90	110.01
437.09	107.66
437.28	93.62
437.46	128.73
437.65	133.41
437.84	131.07
438.02	93.62
438.21	105.32
438.40	161.50
438.58	201.29
438.77	145.11
438.96	102.98
439.14	203.63
439.33	117.03
439.52	86.60
439.70	88.94
439.89	100.64
440.08	159.16
440.26	156.82
440.45	91.28
440.63	208.31
440.82	182.56
441.01	149.79
441.19	110.01
441.38	182.56
441.57	135.75
441.75	135.75
441.94	205.97
442.12	18.72
442.31	77.24
442.50	117.03
442.68	60.85
442.87	145.11
443.05	131.07
443.24	210.65
443.43	84.26
443.61	102.98
443.80	102.98
443.98	135.75
444.17	112.35
444.35	128.73
444.54	63.19
444.73	121.71
444.91	163.84
445.10	168.52
445.28	88.94
445.47	173.20
445.65	81.92
445.84	93.62
446.02	142.77
446.21	86.60
446.39	142.77
446.58	152.13
446.77	173.20
446.95	88.94
447.14	105.32
447.32	124.05
447.51	77.24
447.69	86.60
447.88	156.82
448.06	180.22
448.25	187.24
448.43	145.11
448.62	93.62
448.80	191.92
448.99	121.71
449.17	168.52
449.36	163.84
449.54	187.24
449.73	42.13
449.91	74.90
450.10	100.64
450.28	250.44
450.46	184.90
450.65	229.37
450.83	177.88
451.02	159.16
451.20	138.09
451.39	161.50
451.57	198.95
451.76	175.54
451.94	154.48
452.13	163.84
452.31	131.07
452.49	205.97
452.68	152.13
452.86	154.48
453.05	173.20
453.23	215.33
453.42	65.54
453.60	145.11
453.78	135.75
453.97	117.03
454.15	131.07
454.34	70.22
454.52	145.11
454.70	208.31
454.89	121.71
455.07	77.24
455.26	149.79
455.44	142.77
455.62	159.16
455.81	180.22
455.99	142.77
456.17	173.20
456.36	117.03
456.54	70.22
456.73	58.51
456.91	51.49
457.09	124.05
457.28	191.92
457.46	105.32
457.64	152.13
457.83	187.24
458.01	175.54
458.19	138.09
458.38	107.66
458.56	255.12
458.74	149.79
458.93	110.01
459.11	145.11
459.29	124.05
459.48	100.64
459.66	91.28
459.84	154.48
460.03	194.26
460.21	126.39
460.39	119.37
460.57	210.65
460.76	63.19
460.94	110.01
461.12	248.10
461.31	163.84
461.49	126.39
461.67	88.94
461.85	170.86
462.04	119.37
462.22	624.92
462.40	168.52
462.59	102.98
462.77	156.82
462.95	168.52
463.13	163.84
463.32	107.66
463.50	98.30
463.68	140.43
463.86	191.92
464.05	126.39
464.23	159.16
464.41	67.88
464.59	88.94
464.78	107.66
464.96	84.26
465.14	234.05
465.32	117.03
465.50	154.48
465.69	152.13
465.87	198.95
466.05	128.73
466.23	91.28
466.41	201.29
466.60	163.84
466.78	88.94
466.96	224.69
467.14	208.31
467.32	149.79
467.51	117.03
467.69	180.22
467.87	196.60
468.05	88.94
468.23	177.88
468.41	175.54
468.60	135.75
468.78	149.79
468.96	133.41
469.14	170.86
469.32	205.97
469.50	154.48
469.69	114.69
469.87	145.11
470.05	163.84
470.23	142.77
470.41	159.16
470.59	135.75
470.77	194.26
470.95	177.88
471.14	110.01
471.32	220.01
471.50	161.50
471.68	187.24
471.86	177.88
472.04	170.86
472.22	37.45
472.40	107.66
472.58	91.28
472.77	114.69
472.95	46.81
473.13	191.92
473.31	163.84
473.49	105.32
473.67	177.88
473.85	159.16
474.03	142.77
474.21	149.79
474.39	210.65
474.57	149.79
474.75	184.90
474.93	170.86
475.12	100.64
475.30	145.11
475.48	187.24
475.66	175.54
475.84	152.13
476.02	126.39
476.20	152.13
476.38	117.03
476.56	278.52
476.74	149.79
476.92	105.32
477.10	135.75
477.28	196.60
477.46	145.11
477.64	138.09
477.82	95.96
478.00	220.01
478.18	147.45
478.36	182.56
478.54	105.32
478.72	180.22
478.90	166.18
479.08	215.33
479.26	149.79
479.44	210.65
479.62	98.30
479.80	194.26
479.98	86.60
480.16	238.73
480.34	145.11
480.52	159.16
480.70	114.69
480.88	119.37
481.06	91.28
481.24	142.77
481.41	140.43
481.59	114.69
481.77	196.60
481.95	121.71
482.13	168.52
482.31	152.13
482.49	168.52
482.67	229.37
482.85	189.58
483.03	154.48
483.21	107.66
483.39	170.86
483.57	187.24
483.74	177.88
483.92	222.35
484.10	138.09
484.28	114.69
484.46	203.63
484.64	205.97
484.82	168.52
485.00	177.88
485.18	156.82
485.35	107.66
485.53	114.69
485.71	210.65
485.89	126.39
486.07	133.41
486.25	255.12
486.43	189.58
486.61	159.16
486.78	250.44
486.96	114.69
487.14	180.22
487.32	110.01
487.50	114.69
487.68	147.45
487.85	196.60
488.03	191.92
488.21	220.01
488.39	135.75
488.57	35.11
488.75	112.35
488.92	393.21
489.10	238.73
489.28	217.67
489.46	159.16
489.64	159.16
489.81	187.24
489.99	248.10
490.17	173.20
490.35	264.48
490.53	187.24
490.70	238.73
490.88	156.82
491.06	266.82
491.24	189.58
491.41	182.56
491.59	112.35
491.77	140.43
491.95	191.92
492.13	224.69
492.30	212.99
492.48	201.29
492.66	163.84
492.84	201.29
493.01	105.32
493.19	159.16
493.37	238.73
493.54	175.54
493.72	177.88
493.90	119.37
494.08	128.73
494.25	187.24
494.43	173.20
494.61	154.48
494.79	142.77
494.96	205.97
495.14	241.08
495.32	269.16
495.49	224.69
495.67	224.69
495.85	212.99
496.02	124.05
496.20	119.37
496.38	203.63
496.55	231.71
496.73	168.52
496.91	208.31
497.09	184.90
497.26	212.99
497.44	184.90
497.62	191.92
497.79	191.92
497.97	196.60
498.14	220.01
498.32	194.26
498.50	168.52
498.67	114.69
498.85	215.33
499.03	198.95
499.20	236.39
499.38	201.29
499.56	187.24
499.73	168.52
499.91	245.76
500.08	212.99
500.26	245.76
500.44	184.90
500.61	224.69
500.79	255.12
500.97	110.01
501.14	271.50
501.32	208.31
501.49	154.48
501.67	182.56
501.84	222.35
502.02	229.37
502.20	271.50
502.37	131.07
502.55	175.54
502.72	241.08
502.90	166.18
503.07	210.65
503.25	294.91
503.43	238.73
503.60	292.57
503.78	287.89
503.95	210.65
504.13	290.23
504.30	220.01
504.48	156.82
504.65	210.65
504.83	287.89
505.01	182.56
505.18	222.35
505.36	152.13
505.53	224.69
505.71	205.97
505.88	269.16
506.06	170.86
506.23	121.71
506.41	208.31
506.58	236.39
506.76	152.13
506.93	135.75
507.11	217.67
507.28	198.95
507.46	110.01
507.63	217.67
507.81	187.24
507.98	220.01
508.16	236.39
508.33	241.08
508.50	217.67
508.68	224.69
508.85	208.31
509.03	154.48
509.20	212.99
509.38	194.26
509.55	173.20
509.73	189.58
509.90	250.44
510.08	126.39
510.25	201.29
510.42	196.60
510.60	222.35
510.77	248.10
510.95	161.50
511.12	255.12
511.30	236.39
511.47	283.20
511.64	245.76
511.82	166.18
511.99	231.71
512.17	196.60
512.34	170.86
512.51	126.39
512.69	177.88
512.86	231.71
513.04	173.20
513.21	217.67
513.38	212.99
513.56	182.56
513.73	170.86
513.90	163.84
514.08	154.48
514.25	189.58
514.43	252.78
514.60	212.99
514.77	194.26
514.95	149.79
515.12	273.84
515.29	170.86
515.47	163.84
515.64	173.20
515.81	184.90
515.99	222.35
516.16	187.24
516.33	212.99
516.51	156.82
516.68	149.79
516.85	196.60
517.03	159.16
517.20	177.88
517.37	266.82
517.54	252.78
517.72	166.18
517.89	147.45
518.06	170.86
518.24	255.12
518.41	215.33
518.58	248.10
518.75	220.01
518.93	180.22
519.10	252.78
519.27	217.67
519.45	250.44
519.62	191.92
519.79	184.90
519.96	180.22
520.14	201.29
520.31	220.01
520.48	145.11
520.65	210.65
520.83	241.08
521.00	248.10
521.17	217.67
521.34	152.13
521.52	180.22
521.69	208.31
521.86	194.26
522.03	283.20
522.20	280.86
522.38	189.58
522.55	191.92
522.72	152.13
522.89	168.52
523.07	255.12
523.24	215.33
523.41	224.69
523.58	147.45
523.75	198.95
523.92	140.43
524.10	175.54
524.27	203.63
524.44	161.50
524.61	271.50
524.78	170.86
524.96	215.33
525.13	177.88
525.30	273.84
525.47	243.42
525.64	224.69
525.81	243.42
525.98	222.35
526.16	135.75
526.33	147.45
526.50	217.67
526.67	187.24
526.84	191.92
527.01	198.95
527.18	212.99
527.36	201.29
527.53	149.79
527.70	224.69
527.87	175.54
528.04	273.84
528.21	198.95
528.38	234.05
528.55	222.35
528.72	264.48
528.89	248.10
529.07	191.92
529.24	220.01
529.41	262.14
529.58	234.05
529.75	205.97
529.92	229.37
530.09	208.31
530.26	241.08
530.43	191.92
530.60	168.52
530.77	140.43
530.94	208.31
531.11	196.60
531.28	248.10
531.46	248.10
531.63	241.08
531.80	259.80
531.97	159.16
532.14	187.24
532.31	182.56
532.48	318.31
532.65	278.52
532.82	442.36
532.99	423.64
533.16	332.36
533.33	280.86
533.50	292.57
533.67	308.95
533.84	440.02
534.01	526.62
534.18	367.46
534.35	322.99
534.52	234.05
534.69	259.80
534.86	182.56
535.03	201.29
535.20	224.69
535.37	224.69
535.54	208.31
535.71	259.80
535.88	308.95
536.05	259.80
536.22	161.50
536.38	259.80
536.55	184.90
536.72	227.03
536.89	229.37
537.06	224.69
537.23	161.50
537.40	163.84
537.57	205.97
537.74	262.14
537.91	248.10
538.08	182.56
538.25	166.18
538.42	266.82
538.59	231.71
538.75	161.50
538.92	133.41
539.09	133.41
539.26	203.63
539.43	475.13
539.60	1146.86
539.77	2045.63
539.94	2099.46
540.11	1345.81
540.28	858.98
540.44	610.88
540.61	358.10
540.78	264.48
540.95	189.58
541.12	280.86
541.29	245.76
541.46	252.78
541.62	229.37
541.79	189.58
541.96	252.78
542.13	182.56
542.30	203.63
542.47	287.89
542.63	212.99
542.80	208.31
542.97	212.99
543.14	180.22
543.31	257.46
543.48	215.33
543.64	191.92
543.81	264.48
543.98	238.73
544.15	177.88
544.32	180.22
544.48	273.84
544.65	187.24
544.82	189.58
544.99	222.35
545.16	212.99
545.32	168.52
545.49	149.79
545.66	220.01
545.83	217.67
546.00	217.67
546.16	215.33
546.33	266.82
546.50	250.44
546.67	257.46
546.83	203.63
547.00	177.88
547.17	229.37
547.34	205.97
547.50	217.67
547.67	245.76
547.84	220.01
548.00	252.78
548.17	210.65
548.34	205.97
548.51	264.48
548.67	250.44
548.84	121.71
549.01	217.67
549.18	271.50
549.34	297.25
549.51	133.41
549.68	215.33
549.84	210.65
550.01	156.82
550.18	297.25
550.34	264.48
550.51	229.37
550.68	217.67
550.84	257.46
551.01	250.44
551.18	238.73
551.34	208.31
551.51	152.13
551.68	187.24
551.84	210.65
552.01	191.92
552.18	215.33
552.34	175.54
552.51	248.10
552.68	198.95
552.84	191.92
553.01	198.95
553.18	273.84
553.34	194.26
553.51	203.63
553.67	201.29
553.84	201.29
554.01	234.05
554.17	252.78
554.34	142.77
554.51	201.29
554.67	285.55
554.84	163.84
555.00	215.33
555.17	241.08
555.33	229.37
555.50	271.50
555.67	304.27
555.83	301.93
556.00	280.86
556.16	442.36
556.33	255.12
556.50	269.16
556.66	212.99
556.83	170.86
556.99	273.84
557.16	229.37
557.32	266.82
557.49	142.77
557.65	161.50
557.82	163.84
557.98	191.92
558.15	168.52
558.32	245.76
558.48	217.67
558.65	205.97
558.81	222.35
558.98	154.48
559.14	285.55
559.31	163.84
559.47	222.35
559.64	210.65
559.80	210.65
559.97	154.48
560.13	196.60
560.30	191.92
560.46	198.95
560.63	217.67
560.79	173.20
560.96	203.63
561.12	208.31
561.29	149.79
561.45	177.88
561.61	198.95
561.78	215.33
561.94	252.78
562.11	145.11
562.27	269.16
562.44	241.08
562.60	236.39
562.77	163.84
562.93	245.76
563.10	266.82
563.26	203.63
563.42	217.67
563.59	222.35
563.75	222.35
563.92	241.08
564.08	276.18
564.24	236.39
564.41	257.46
564.57	248.10
564.74	212.99
564.90	259.80
565.07	276.18
565.23	285.55
565.39	236.39
565.56	217.67
565.72	191.92
565.88	285.55
566.05	311.29
566.21	224.69
566.38	149.79
566.54	266.82
566.70	255.12
566.87	163.84
567.03	208.31
567.19	187.24
567.36	234.05
567.52	187.24
567.68	203.63
567.85	222.35
568.01	208.31
568.17	180.22
568.34	208.31
568.50	222.35
568.66	231.71
568.83	308.95
568.99	187.24
569.15	187.24
569.32	201.29
569.48	196.60
569.64	175.54
569.81	266.82
569.97	156.82
570.13	203.63
570.30	266.82
570.46	166.18
570.62	196.60
570.78	210.65
570.95	208.31
571.11	259.80
571.27	163.84
571.43	229.37
571.60	203.63
571.76	229.37
571.92	311.29
572.09	238.73
572.25	203.63
572.41	205.97
572.57	238.73
572.74	327.68
572.90	217.67
573.06	189.58
573.22	191.92
573.38	227.03
573.55	212.99
573.71	191.92
573.87	203.63
574.03	182.56
574.20	252.78
574.36	311.29
574.52	374.49
574.68	299.59
574.84	285.55
575.01	191.92
575.17	266.82
575.33	313.63
575.49	224.69
575.65	285.55
575.82	262.14
575.98	610.88
576.14	840.25
576.30	929.19
576.46	636.63
576.62	526.62
576.79	353.42
576.95	330.02
577.11	283.20
577.27	255.12
577.43	252.78
577.59	322.99
577.75	222.35
577.92	236.39
578.08	262.14
578.24	234.05
578.40	308.95
578.56	259.80
578.72	332.36
578.88	292.57
579.04	257.46
579.21	297.25
579.37	222.35
579.53	259.80
579.69	257.46
579.85	318.31
580.01	325.33
580.17	395.55
580.33	383.85
580.49	365.12
580.65	383.85
580.82	360.44
580.98	325.33
581.14	318.31
581.30	461.09
581.46	421.30
581.62	648.33
581.78	727.91
581.94	634.29
582.10	564.07
582.26	503.22
582.42	425.98
582.58	521.94
582.74	458.74
582.90	463.43
583.06	489.17
583.22	435.34
583.38	517.26
583.54	594.50
583.70	723.23
583.86	830.89
584.02	912.81
584.18	1177.29
584.34	1582.20
584.50	4009.34
584.66	29738.85
584.82	63299.79
584.98	65535.00
585.14	65535.00
585.30	64334.31
585.46	42066.45
585.62	26005.69
585.78	11679.27
585.94	4587.45
586.10	2115.84
586.26	1359.85
586.42	964.30
586.58	917.49
586.74	763.01
586.90	695.14
587.06	688.12
587.22	629.60
587.38	585.13
587.54	1409.00
587.70	4477.44
587.86	7885.26
588.02	9514.28
588.18	6504.35
588.34	4011.68
588.49	2553.52
588.65	1446.45
588.81	784.08
588.97	456.40
589.13	393.21
589.29	388.53
589.45	395.55
589.61	339.38
589.77	458.74
589.93	414.27
590.08	489.17
590.24	540.66
590.40	524.28
590.56	430.66
590.72	425.98
590.88	327.68
591.04	383.85
591.20	330.02
591.35	341.72
591.51	276.18
591.67	304.27
591.83	290.23
591.99	306.61
592.15	304.27
592.31	236.39
592.46	297.25
592.62	257.46
592.78	301.93
592.94	262.14
593.10	255.12
593.26	355.76
593.41	348.74
593.57	418.96
593.73	620.24
593.89	3529.53
594.05	9643.01
594.20	15477.96
594.36	15374.98
594.52	9816.21
594.68	6024.54
594.84	3929.76
594.99	2071.37
595.15	905.79
595.31	552.37
595.47	395.55
595.62	362.78
595.78	322.99
595.94	299.59
596.10	325.33
596.25	402.57
596.41	353.42
596.57	355.76
596.73	358.10
596.88	650.67
597.04	1720.29
597.20	2923.33
597.36	3871.25
597.51	2874.18
597.67	1842.00
597.83	1200.69
597.99	884.72
598.14	454.06
598.30	365.12
598.46	365.12
598.61	306.61
598.77	271.50
598.93	276.18
599.09	248.10
599.24	217.67
599.40	231.71
599.56	227.03
599.71	257.46
599.87	238.73
600.03	276.18
600.18	229.37
600.34	187.24
600.50	196.60
600.65	290.23
600.81	222.35
600.97	273.84
601.12	243.42
601.28	248.10
601.44	252.78
601.59	210.65
601.75	252.78
601.91	177.88
602.06	311.29
602.22	374.49
602.37	826.21
602.53	2120.53
602.69	3590.38
602.84	3943.80
603.00	2654.17
603.16	1865.41
603.31	1338.79
603.47	866.00
603.62	456.40
603.78	266.82
603.94	299.59
604.09	227.03
604.25	264.48
604.40	245.76
604.56	266.82
604.71	241.08
604.87	269.16
605.03	341.72
605.18	243.42
605.34	269.16
605.49	257.46
605.65	271.50
605.80	294.91
605.96	315.97
606.12	320.65
606.27	320.65
606.43	348.74
606.58	402.57
606.74	985.37
606.89	4337.01
607.05	9401.93
607.20	13731.92
607.36	11026.26
607.51	7265.02
607.67	4770.01
607.82	3143.34
607.98	1696.89
608.13	791.10
608.29	486.83
608.44	496.19
608.60	489.17
608.75	519.60
608.91	1376.24
609.06	6670.53
609.22	16018.63
609.37	24053.69
609.53	20788.64
609.68	13565.74
609.84	8329.97
609.99	5472.17
610.15	2965.46
610.30	1355.17
610.46	725.57
610.61	465.77
610.76	482.15
610.92	358.10
611.07	341.72
611.23	416.62
611.38	339.38
611.54	292.57
611.69	243.42
611.84	301.93
612.00	442.36
