SpectraSuite Data File
++++++++++++++++++++++++++++++++++++
Date: Fri Oct 04 11:47:00 GMT-05:00 2013
User: price-jones
Dark Spectrum Present: No
Reference Spectrum Present: No
Number of Sampled Component Spectra: 1
Spectrometers: USB2+H05261
Integration Time (usec): 100000 (USB2+H05261)
Spectra Averaged: 1 (USB2+H05261)
Boxcar Smoothing: 0 (USB2+H05261)
Correct for Electrical Dark: No (USB2+H05261)
Strobe/Lamp Enabled: No (USB2+H05261)
Correct for Detector Non-linearity: No (USB2+H05261)
Correct for Stray Light: No (USB2+H05261)
Number of Pixels in Processed Spectrum: 2048
>>>>>Begin Processed Spectral Data<<<<<
365.73	65.54
365.92	65.54
366.12	65.54
366.32	0.00
366.52	0.00
366.72	0.00
366.91	0.00
367.11	14.04
367.31	0.00
367.51	0.00
367.70	0.00
367.90	0.00
368.10	0.00
368.30	0.00
368.49	0.00
368.69	0.00
368.89	0.00
369.09	0.00
369.28	0.00
369.48	0.00
369.68	0.00
369.87	30.43
370.07	14.04
370.27	37.45
370.47	0.00
370.66	23.41
370.86	65.54
371.06	23.41
371.25	152.13
371.45	42.13
371.65	39.79
371.84	56.17
372.04	4.68
372.24	32.77
372.44	72.56
372.63	35.11
372.83	81.92
373.03	58.51
373.22	95.96
373.42	93.62
373.62	128.73
373.81	114.69
374.01	46.81
374.21	95.96
374.40	138.09
374.60	142.77
374.79	152.13
374.99	110.01
375.19	88.94
375.38	70.22
375.58	49.15
375.78	105.32
375.97	152.13
376.17	138.09
376.37	95.96
376.56	91.28
376.76	74.90
376.95	98.30
377.15	105.32
377.35	93.62
377.54	77.24
377.74	2.34
377.93	100.64
378.13	79.58
378.33	121.71
378.52	117.03
378.72	135.75
378.91	65.54
379.11	110.01
379.31	88.94
379.50	60.85
379.70	91.28
379.89	98.30
380.09	70.22
380.28	44.47
380.48	114.69
380.68	35.11
380.87	56.17
381.07	60.85
381.26	128.73
381.46	105.32
381.65	28.09
381.85	35.11
382.04	58.51
382.24	102.98
382.43	67.88
382.63	70.22
382.83	51.49
383.02	88.94
383.22	100.64
383.41	117.03
383.61	194.26
383.80	56.17
384.00	154.48
384.19	56.17
384.39	35.11
384.58	77.24
384.78	93.62
384.97	114.69
385.17	86.60
385.36	63.19
385.56	107.66
385.75	79.58
385.95	121.71
386.14	135.75
386.34	65.54
386.53	79.58
386.72	84.26
386.92	114.69
387.11	105.32
387.31	79.58
387.50	81.92
387.70	23.41
387.89	42.13
388.09	86.60
388.28	81.92
388.48	79.58
388.67	114.69
388.86	53.83
389.06	79.58
389.25	98.30
389.45	124.05
389.64	88.94
389.84	175.54
390.03	107.66
390.22	81.92
390.42	67.88
390.61	79.58
390.81	159.16
391.00	147.45
391.19	135.75
391.39	88.94
391.58	60.85
391.78	91.28
391.97	88.94
392.16	138.09
392.36	119.37
392.55	128.73
392.75	95.96
392.94	142.77
393.13	84.26
393.33	28.09
393.52	147.45
393.71	63.19
393.91	70.22
394.10	86.60
394.29	161.50
394.49	117.03
394.68	222.35
394.88	177.88
395.07	161.50
395.26	105.32
395.46	114.69
395.65	114.69
395.84	67.88
396.04	180.22
396.23	112.35
396.42	37.45
396.62	84.26
396.81	105.32
397.00	74.90
397.19	142.77
397.39	95.96
397.58	44.47
397.77	58.51
397.97	147.45
398.16	95.96
398.35	126.39
398.55	81.92
398.74	126.39
398.93	191.92
399.12	121.71
399.32	133.41
399.51	156.82
399.70	196.60
399.90	121.71
400.09	107.66
400.28	140.43
400.47	86.60
400.67	147.45
400.86	77.24
401.05	119.37
401.24	119.37
401.44	93.62
401.63	184.90
401.82	135.75
402.01	168.52
402.21	107.66
402.40	163.84
402.59	124.05
402.78	58.51
402.97	117.03
403.17	110.01
403.36	114.69
403.55	145.11
403.74	100.64
403.93	149.79
404.13	196.60
404.32	105.32
404.51	147.45
404.70	159.16
404.89	112.35
405.09	91.28
405.28	156.82
405.47	117.03
405.66	189.58
405.85	128.73
406.05	156.82
406.24	74.90
406.43	102.98
406.62	166.18
406.81	79.58
407.00	74.90
407.20	170.86
407.39	74.90
407.58	51.49
407.77	102.98
407.96	88.94
408.15	149.79
408.34	81.92
408.54	131.07
408.73	124.05
408.92	128.73
409.11	121.71
409.30	135.75
409.49	173.20
409.68	112.35
409.87	58.51
410.07	88.94
410.26	86.60
410.45	53.83
410.64	124.05
410.83	74.90
411.02	121.71
411.21	159.16
411.40	133.41
411.59	110.01
411.78	42.13
411.98	53.83
412.17	112.35
412.36	100.64
412.55	112.35
412.74	110.01
412.93	220.01
413.12	159.16
413.31	117.03
413.50	131.07
413.69	84.26
413.88	131.07
414.07	32.77
414.26	102.98
414.45	135.75
414.64	184.90
414.83	98.30
415.02	102.98
415.22	173.20
415.41	189.58
415.60	166.18
415.79	159.16
415.98	194.26
416.17	140.43
416.36	91.28
416.55	107.66
416.74	133.41
416.93	133.41
417.12	159.16
417.31	112.35
417.50	121.71
417.69	245.76
417.88	177.88
418.07	110.01
418.26	196.60
418.45	180.22
418.64	215.33
418.83	227.03
419.02	203.63
419.21	121.71
419.39	194.26
419.58	170.86
419.77	201.29
419.96	222.35
420.15	161.50
420.34	138.09
420.53	126.39
420.72	79.58
420.91	124.05
421.10	117.03
421.29	124.05
421.48	124.05
421.67	142.77
421.86	135.75
422.05	124.05
422.24	117.03
422.43	98.30
422.61	100.64
422.80	84.26
422.99	100.64
423.18	107.66
423.37	88.94
423.56	81.92
423.75	159.16
423.94	67.88
424.13	60.85
424.32	88.94
424.50	117.03
424.69	149.79
424.88	173.20
425.07	124.05
425.26	168.52
425.45	156.82
425.64	304.27
425.83	234.05
426.01	203.63
426.20	142.77
426.39	128.73
426.58	159.16
426.77	67.88
426.96	135.75
427.15	56.17
427.33	18.72
427.52	79.58
427.71	98.30
427.90	147.45
428.09	112.35
428.28	163.84
428.46	121.71
428.65	114.69
428.84	187.24
429.03	198.95
429.22	166.18
429.40	79.58
429.59	11.70
429.78	166.18
429.97	145.11
430.16	222.35
430.34	208.31
430.53	79.58
430.72	86.60
430.91	86.60
431.10	18.72
431.28	56.17
431.47	177.88
431.66	140.43
431.85	91.28
432.03	114.69
432.22	203.63
432.41	117.03
432.60	168.52
432.79	201.29
432.97	297.25
433.16	315.97
433.35	217.67
433.54	166.18
433.72	152.13
433.91	168.52
434.10	124.05
434.28	142.77
434.47	149.79
434.66	133.41
434.85	149.79
435.03	189.58
435.22	135.75
435.41	191.92
435.59	84.26
435.78	110.01
435.97	88.94
436.16	156.82
436.34	102.98
436.53	131.07
436.72	88.94
436.90	128.73
437.09	84.26
437.28	161.50
437.46	74.90
437.65	42.13
437.84	63.19
438.02	128.73
438.21	67.88
438.40	135.75
438.58	182.56
438.77	114.69
438.96	67.88
439.14	88.94
439.33	145.11
439.52	117.03
439.70	177.88
439.89	194.26
440.08	191.92
440.26	56.17
440.45	170.86
440.63	184.90
440.82	159.16
441.01	196.60
441.19	86.60
441.38	74.90
441.57	119.37
441.75	124.05
441.94	88.94
442.12	72.56
442.31	177.88
442.50	140.43
442.68	149.79
442.87	77.24
443.05	124.05
443.24	138.09
443.43	191.92
443.61	133.41
443.80	117.03
443.98	191.92
444.17	142.77
444.35	154.48
444.54	119.37
444.73	63.19
444.91	114.69
445.10	124.05
445.28	95.96
445.47	166.18
445.65	105.32
445.84	107.66
446.02	149.79
446.21	135.75
446.39	126.39
446.58	205.97
446.77	105.32
446.95	133.41
447.14	166.18
447.32	191.92
447.51	128.73
447.69	138.09
447.88	133.41
448.06	196.60
448.25	102.98
448.43	117.03
448.62	84.26
448.80	140.43
448.99	154.48
449.17	79.58
449.36	126.39
449.54	114.69
449.73	53.83
449.91	191.92
450.10	163.84
450.28	117.03
450.46	168.52
450.65	222.35
450.83	161.50
451.02	145.11
451.20	175.54
451.39	105.32
451.57	102.98
451.76	152.13
451.94	114.69
452.13	154.48
452.31	166.18
452.49	182.56
452.68	100.64
452.86	98.30
453.05	187.24
453.23	126.39
453.42	133.41
453.60	65.54
453.78	163.84
453.97	67.88
454.15	72.56
454.34	86.60
454.52	70.22
454.70	112.35
454.89	114.69
455.07	168.52
455.26	182.56
455.44	175.54
455.62	187.24
455.81	100.64
455.99	128.73
456.17	161.50
456.36	147.45
456.54	156.82
456.73	121.71
456.91	112.35
457.09	72.56
457.28	126.39
457.46	72.56
457.64	142.77
457.83	121.71
458.01	46.81
458.19	182.56
458.38	210.65
458.56	114.69
458.74	117.03
458.93	173.20
459.11	79.58
459.29	159.16
459.48	149.79
459.66	163.84
459.84	138.09
460.03	184.90
460.21	170.86
460.39	93.62
460.57	145.11
460.76	154.48
460.94	95.96
461.12	147.45
461.31	168.52
461.49	159.16
461.67	63.19
461.85	210.65
462.04	154.48
462.22	631.94
462.40	133.41
462.59	154.48
462.77	100.64
462.95	81.92
463.13	201.29
463.32	128.73
463.50	84.26
463.68	149.79
463.86	156.82
464.05	198.95
464.23	121.71
464.41	112.35
464.59	107.66
464.78	105.32
464.96	51.49
465.14	166.18
465.32	156.82
465.50	152.13
465.69	166.18
465.87	166.18
466.05	140.43
466.23	114.69
466.41	140.43
466.60	159.16
466.78	191.92
466.96	198.95
467.14	131.07
467.32	156.82
467.51	170.86
467.69	201.29
467.87	201.29
468.05	173.20
468.23	208.31
468.41	88.94
468.60	107.66
468.78	184.90
468.96	198.95
469.14	145.11
469.32	126.39
469.50	131.07
469.69	184.90
469.87	88.94
470.05	159.16
470.23	177.88
470.41	88.94
470.59	159.16
470.77	191.92
470.95	177.88
471.14	142.77
471.32	124.05
471.50	175.54
471.68	95.96
471.86	149.79
472.04	161.50
472.22	196.60
472.40	124.05
472.58	100.64
472.77	72.56
472.95	138.09
473.13	102.98
473.31	133.41
473.49	187.24
473.67	145.11
473.85	170.86
474.03	138.09
474.21	124.05
474.39	201.29
474.57	156.82
474.75	224.69
474.93	152.13
475.12	56.17
475.30	133.41
475.48	110.01
475.66	187.24
475.84	156.82
476.02	168.52
476.20	154.48
476.38	166.18
476.56	243.42
476.74	175.54
476.92	161.50
477.10	177.88
477.28	124.05
477.46	163.84
477.64	208.31
477.82	196.60
478.00	133.41
478.18	180.22
478.36	135.75
478.54	187.24
478.72	142.77
478.90	128.73
479.08	126.39
479.26	163.84
479.44	159.16
479.62	63.19
479.80	170.86
479.98	110.01
480.16	114.69
480.34	224.69
480.52	138.09
480.70	173.20
480.88	215.33
481.06	217.67
481.24	131.07
481.41	175.54
481.59	140.43
481.77	196.60
481.95	152.13
482.13	194.26
482.31	102.98
482.49	88.94
482.67	95.96
482.85	114.69
483.03	156.82
483.21	105.32
483.39	119.37
483.57	149.79
483.74	212.99
483.92	147.45
484.10	154.48
484.28	159.16
484.46	231.71
484.64	95.96
484.82	147.45
485.00	161.50
485.18	161.50
485.35	105.32
485.53	138.09
485.71	91.28
485.89	142.77
486.07	121.71
486.25	201.29
486.43	131.07
486.61	114.69
486.78	168.52
486.96	112.35
487.14	163.84
487.32	173.20
487.50	142.77
487.68	229.37
487.85	215.33
488.03	156.82
488.21	184.90
488.39	112.35
488.57	149.79
488.75	182.56
488.92	390.87
489.10	201.29
489.28	189.58
489.46	149.79
489.64	170.86
489.81	241.08
489.99	180.22
490.17	210.65
490.35	217.67
490.53	201.29
490.70	18.72
490.88	201.29
491.06	159.16
491.24	91.28
491.41	243.42
491.59	105.32
491.77	140.43
491.95	128.73
492.13	102.98
492.30	131.07
492.48	189.58
492.66	159.16
492.84	248.10
493.01	208.31
493.19	180.22
493.37	243.42
493.54	196.60
493.72	156.82
493.90	203.63
494.08	168.52
494.25	196.60
494.43	166.18
494.61	156.82
494.79	224.69
494.96	229.37
495.14	208.31
495.32	201.29
495.49	208.31
495.67	161.50
495.85	170.86
496.02	243.42
496.20	154.48
496.38	245.76
496.55	189.58
496.73	166.18
496.91	163.84
497.09	161.50
497.26	147.45
497.44	215.33
497.62	196.60
497.79	203.63
497.97	187.24
498.14	161.50
498.32	196.60
498.50	191.92
498.67	203.63
498.85	255.12
499.03	189.58
499.20	248.10
499.38	177.88
499.56	177.88
499.73	241.08
499.91	205.97
500.08	152.13
500.26	189.58
500.44	241.08
500.61	212.99
500.79	173.20
500.97	205.97
501.14	245.76
501.32	177.88
501.49	238.73
501.67	194.26
501.84	203.63
502.02	145.11
502.20	224.69
502.37	189.58
502.55	210.65
502.72	159.16
502.90	210.65
503.07	187.24
503.25	255.12
503.43	196.60
503.60	283.20
503.78	259.80
503.95	152.13
504.13	163.84
504.30	252.78
504.48	224.69
504.65	205.97
504.83	194.26
505.01	147.45
505.18	194.26
505.36	234.05
505.53	224.69
505.71	180.22
505.88	227.03
506.06	166.18
506.23	203.63
506.41	182.56
506.58	201.29
506.76	224.69
506.93	257.46
507.11	248.10
507.28	236.39
507.46	184.90
507.63	224.69
507.81	234.05
507.98	245.76
508.16	175.54
508.33	191.92
508.50	163.84
508.68	229.37
508.85	131.07
509.03	149.79
509.20	196.60
509.38	175.54
509.55	215.33
509.73	231.71
509.90	191.92
510.08	161.50
510.25	257.46
510.42	187.24
510.60	187.24
510.77	222.35
510.95	217.67
511.12	194.26
511.30	292.57
511.47	280.86
511.64	299.59
511.82	245.76
511.99	184.90
512.17	231.71
512.34	191.92
512.51	182.56
512.69	161.50
512.86	243.42
513.04	182.56
513.21	173.20
513.38	140.43
513.56	273.84
513.73	166.18
513.90	128.73
514.08	166.18
514.25	245.76
514.43	271.50
514.60	210.65
514.77	184.90
514.95	198.95
515.12	170.86
515.29	241.08
515.47	196.60
515.64	156.82
515.81	234.05
515.99	257.46
516.16	285.55
516.33	243.42
516.51	229.37
516.68	271.50
516.85	203.63
517.03	203.63
517.20	245.76
517.37	168.52
517.54	245.76
517.72	107.66
517.89	196.60
518.06	222.35
518.24	285.55
518.41	290.23
518.58	250.44
518.75	250.44
518.93	220.01
519.10	248.10
519.27	187.24
519.45	187.24
519.62	189.58
519.79	205.97
519.96	145.11
520.14	189.58
520.31	250.44
520.48	196.60
520.65	283.20
520.83	241.08
521.00	184.90
521.17	234.05
521.34	187.24
521.52	198.95
521.69	161.50
521.86	189.58
522.03	182.56
522.20	276.18
522.38	241.08
522.55	217.67
522.72	175.54
522.89	248.10
523.07	229.37
523.24	168.52
523.41	287.89
523.58	250.44
523.75	191.92
523.92	163.84
524.10	205.97
524.27	166.18
524.44	128.73
524.61	280.86
524.78	168.52
524.96	138.09
525.13	203.63
525.30	262.14
525.47	180.22
525.64	166.18
525.81	154.48
525.98	198.95
526.16	259.80
526.33	222.35
526.50	196.60
526.67	161.50
526.84	100.64
527.01	177.88
527.18	227.03
527.36	257.46
527.53	236.39
527.70	152.13
527.87	156.82
528.04	208.31
528.21	208.31
528.38	205.97
528.55	194.26
528.72	166.18
528.89	184.90
529.07	194.26
529.24	252.78
529.41	297.25
529.58	259.80
529.75	234.05
529.92	243.42
530.09	220.01
530.26	243.42
530.43	304.27
530.60	243.42
530.77	229.37
530.94	224.69
531.11	241.08
531.28	184.90
531.46	180.22
531.63	269.16
531.80	210.65
531.97	198.95
532.14	222.35
532.31	229.37
532.48	290.23
532.65	327.68
532.82	374.49
532.99	409.59
533.16	348.74
533.33	212.99
533.50	238.73
533.67	276.18
533.84	423.64
534.01	531.30
534.18	395.55
534.35	292.57
534.52	245.76
534.69	236.39
534.86	248.10
535.03	220.01
535.20	182.56
535.37	266.82
535.54	255.12
535.71	227.03
535.88	285.55
536.05	184.90
536.22	217.67
536.38	170.86
536.55	257.46
536.72	255.12
536.89	229.37
537.06	257.46
537.23	182.56
537.40	222.35
537.57	152.13
537.74	173.20
537.91	210.65
538.08	154.48
538.25	238.73
538.42	201.29
538.59	287.89
538.75	154.48
538.92	212.99
539.09	245.76
539.26	205.97
539.43	585.13
539.60	1348.15
539.77	2162.66
539.94	2265.64
540.11	1345.81
540.28	802.80
540.44	589.82
540.61	283.20
540.78	248.10
540.95	156.82
541.12	194.26
541.29	161.50
541.46	273.84
541.62	140.43
541.79	182.56
541.96	208.31
542.13	128.73
542.30	168.52
542.47	264.48
542.63	241.08
542.80	194.26
542.97	227.03
543.14	180.22
543.31	224.69
543.48	180.22
543.64	210.65
543.81	248.10
543.98	161.50
544.15	173.20
544.32	269.16
544.48	149.79
544.65	245.76
544.82	187.24
544.99	205.97
545.16	250.44
545.32	198.95
545.49	161.50
545.66	180.22
545.83	163.84
546.00	245.76
546.16	208.31
546.33	224.69
546.50	212.99
546.67	222.35
546.83	264.48
547.00	236.39
547.17	138.09
547.34	145.11
547.50	203.63
547.67	140.43
547.84	222.35
548.00	152.13
548.17	177.88
548.34	220.01
548.51	210.65
548.67	205.97
548.84	180.22
549.01	245.76
549.18	243.42
549.34	257.46
549.51	245.76
549.68	262.14
549.84	269.16
550.01	245.76
550.18	273.84
550.34	173.20
550.51	182.56
550.68	187.24
550.84	119.37
551.01	290.23
551.18	227.03
551.34	215.33
551.51	215.33
551.68	196.60
551.84	175.54
552.01	180.22
552.18	145.11
552.34	152.13
552.51	238.73
552.68	241.08
552.84	180.22
553.01	220.01
553.18	248.10
553.34	203.63
553.51	152.13
553.67	264.48
553.84	220.01
554.01	201.29
554.17	198.95
554.34	234.05
554.51	220.01
554.67	236.39
554.84	276.18
555.00	236.39
555.17	173.20
555.33	266.82
555.50	208.31
555.67	250.44
555.83	198.95
556.00	248.10
556.16	435.34
556.33	245.76
556.50	245.76
556.66	264.48
556.83	217.67
556.99	180.22
557.16	212.99
557.32	156.82
557.49	205.97
557.65	205.97
557.82	208.31
557.98	182.56
558.15	208.31
558.32	163.84
558.48	215.33
558.65	191.92
558.81	203.63
558.98	177.88
559.14	138.09
559.31	266.82
559.47	227.03
559.64	182.56
559.80	283.20
559.97	220.01
560.13	229.37
560.30	198.95
560.46	229.37
560.63	220.01
560.79	224.69
560.96	236.39
561.12	217.67
561.29	245.76
561.45	170.86
561.61	159.16
561.78	332.36
561.94	203.63
562.11	128.73
562.27	212.99
562.44	194.26
562.60	248.10
562.77	154.48
562.93	220.01
563.10	250.44
563.26	203.63
563.42	250.44
563.59	173.20
563.75	236.39
563.92	175.54
564.08	229.37
564.24	208.31
564.41	271.50
564.57	149.79
564.74	283.20
564.90	168.52
565.07	234.05
565.23	280.86
565.39	191.92
565.56	351.08
565.72	227.03
565.88	245.76
566.05	234.05
566.21	271.50
566.38	252.78
566.54	222.35
566.70	187.24
566.87	241.08
567.03	189.58
567.19	304.27
567.36	175.54
567.52	203.63
567.68	163.84
567.85	220.01
568.01	215.33
568.17	196.60
568.34	210.65
568.50	215.33
568.66	168.52
568.83	259.80
568.99	259.80
569.15	297.25
569.32	189.58
569.48	234.05
569.64	175.54
569.81	184.90
569.97	283.20
570.13	231.71
570.30	184.90
570.46	138.09
570.62	222.35
570.78	243.42
570.95	161.50
571.11	161.50
571.27	236.39
571.43	220.01
571.60	259.80
571.76	269.16
571.92	271.50
572.09	255.12
572.25	259.80
572.41	269.16
572.57	215.33
572.74	220.01
572.90	276.18
573.06	154.48
573.22	245.76
573.38	227.03
573.55	229.37
573.71	222.35
573.87	299.59
574.03	166.18
574.20	180.22
574.36	337.04
574.52	320.65
574.68	379.17
574.84	301.93
575.01	313.63
575.17	252.78
575.33	269.16
575.49	210.65
575.65	245.76
575.82	395.55
575.98	688.12
576.14	908.13
576.30	964.30
576.46	711.52
576.62	428.32
576.79	463.43
576.95	397.89
577.11	245.76
577.27	191.92
577.43	276.18
577.59	372.15
577.75	304.27
577.92	304.27
578.08	175.54
578.24	292.57
578.40	280.86
578.56	362.78
578.72	318.31
578.88	266.82
579.04	266.82
579.21	238.73
579.37	283.20
579.53	337.04
579.69	304.27
579.85	273.84
580.01	390.87
580.17	355.76
580.33	433.00
580.49	383.85
580.65	376.83
580.82	411.93
580.98	374.49
581.14	379.17
581.30	435.34
581.46	587.47
581.62	786.42
581.78	730.25
581.94	730.25
582.10	638.97
582.26	559.39
582.42	500.87
582.58	552.37
582.74	533.64
582.90	510.24
583.06	531.30
583.22	566.41
583.38	587.47
583.54	561.73
583.70	760.67
583.86	858.98
584.02	966.64
584.18	1320.06
584.34	1596.25
584.50	4484.47
584.66	34101.61
584.82	65535.00
584.98	65535.00
585.14	65535.00
585.30	65293.92
585.46	44835.30
585.62	27496.61
585.78	12369.73
585.94	4760.65
586.10	2193.08
586.26	1540.07
586.42	1156.22
586.58	891.74
586.74	786.42
586.90	753.65
587.06	697.48
587.22	634.29
587.38	645.99
587.54	1476.88
587.70	4987.68
587.86	8461.04
588.02	9942.60
588.18	7005.22
588.34	4297.22
588.49	2696.30
588.65	1682.85
588.81	814.51
588.97	510.24
589.13	355.76
589.29	320.65
589.45	308.95
589.61	400.23
589.77	416.62
589.93	470.45
590.08	578.11
590.24	585.13
590.40	528.96
590.56	475.13
590.72	411.93
590.88	337.04
591.04	524.28
591.20	369.80
591.35	381.51
591.51	355.76
591.67	355.76
591.83	327.68
591.99	332.36
592.15	397.89
592.31	285.55
592.46	330.02
592.62	367.46
592.78	285.55
592.94	304.27
593.10	313.63
593.26	395.55
593.41	393.21
593.57	411.93
593.73	720.88
593.89	4051.47
594.05	10729.02
594.20	16819.09
594.36	16231.62
594.52	10506.66
594.68	6480.94
594.84	4311.27
594.99	2244.57
595.15	1043.88
595.31	603.86
595.47	454.06
595.62	379.17
595.78	374.49
595.94	381.51
596.10	425.98
596.25	376.83
596.41	468.11
596.57	379.17
596.73	400.23
596.88	662.37
597.04	1912.22
597.20	3510.80
597.36	4098.28
597.51	2932.69
597.67	1994.14
597.83	1320.06
597.99	891.74
598.14	489.17
598.30	341.72
598.46	360.44
598.61	292.57
598.77	325.33
598.93	306.61
599.09	290.23
599.24	332.36
599.40	276.18
599.56	229.37
599.71	196.60
599.87	252.78
600.03	243.42
600.18	236.39
600.34	177.88
600.50	229.37
600.65	170.86
600.81	234.05
600.97	255.12
601.12	217.67
601.28	238.73
601.44	229.37
601.59	231.71
601.75	264.48
601.91	264.48
602.06	353.42
602.22	484.49
602.37	980.68
602.53	2403.73
602.69	3943.80
602.84	4271.48
603.00	3077.80
603.16	2015.20
603.31	1490.92
603.47	884.72
603.62	484.49
603.78	393.21
603.94	327.68
604.09	266.82
604.25	290.23
604.40	252.78
604.56	234.05
604.71	264.48
604.87	215.33
605.03	259.80
605.18	238.73
605.34	365.12
605.49	262.14
605.65	322.99
605.80	348.74
605.96	285.55
606.12	365.12
606.27	353.42
606.43	355.76
606.58	486.83
606.74	1196.01
606.89	4947.89
607.05	10368.57
607.20	14434.08
607.36	12072.48
607.51	7735.47
607.67	5025.13
607.82	3410.16
607.98	1834.98
608.13	901.11
608.29	482.15
608.44	538.32
608.60	559.39
608.75	599.18
608.91	1523.69
609.06	7478.01
609.22	18164.90
609.37	25935.48
609.53	22366.16
609.68	14633.03
609.84	9151.49
609.99	6087.73
610.15	3091.85
610.30	1376.24
610.46	716.20
610.61	531.30
610.76	507.90
610.92	365.12
611.07	341.72
611.23	383.85
611.38	339.38
611.54	320.65
611.69	276.18
