SpectraSuite Data File
++++++++++++++++++++++++++++++++++++
Date: Fri Oct 04 11:47:06 GMT-05:00 2013
User: price-jones
Dark Spectrum Present: No
Reference Spectrum Present: No
Number of Sampled Component Spectra: 1
Spectrometers: USB2+H05261
Integration Time (usec): 100000 (USB2+H05261)
Spectra Averaged: 1 (USB2+H05261)
Boxcar Smoothing: 0 (USB2+H05261)
Correct for Electrical Dark: No (USB2+H05261)
Strobe/Lamp Enabled: No (USB2+H05261)
Correct for Detector Non-linearity: No (USB2+H05261)
Correct for Stray Light: No (USB2+H05261)
Number of Pixels in Processed Spectrum: 2048
>>>>>Begin Processed Spectral Data<<<<<
365.73	14.04
365.92	14.04
366.12	14.04
366.32	0.00
366.52	0.00
366.72	0.00
366.91	0.00
367.11	0.00
367.31	0.00
367.51	0.00
367.70	0.00
367.90	0.00
368.10	0.00
368.30	0.00
368.49	0.00
368.69	0.00
368.89	0.00
369.09	0.00
369.28	0.00
369.48	0.00
369.68	0.00
369.87	0.00
370.07	0.00
370.27	56.17
370.47	0.00
370.66	0.00
370.86	30.43
371.06	95.96
371.25	39.79
371.45	21.06
371.65	95.96
371.84	39.79
372.04	49.15
372.24	25.75
372.44	32.77
372.63	65.54
372.83	63.19
373.03	121.71
373.22	56.17
373.42	124.05
373.62	88.94
373.81	42.13
374.01	100.64
374.21	149.79
374.40	49.15
374.60	156.82
374.79	133.41
374.99	65.54
375.19	124.05
375.38	117.03
375.58	187.24
375.78	133.41
375.97	133.41
376.17	198.95
376.37	86.60
376.56	72.56
376.76	51.49
376.95	88.94
377.15	124.05
377.35	93.62
377.54	124.05
377.74	105.32
377.93	79.58
378.13	135.75
378.33	140.43
378.52	117.03
378.72	138.09
378.91	210.65
379.11	51.49
379.31	4.68
379.50	37.45
379.70	191.92
379.89	79.58
380.09	110.01
380.28	100.64
380.48	81.92
380.68	81.92
380.87	91.28
381.07	100.64
381.26	135.75
381.46	98.30
381.65	131.07
381.85	46.81
382.04	39.79
382.24	44.47
382.43	16.38
382.63	154.48
382.83	58.51
383.02	95.96
383.22	98.30
383.41	128.73
383.61	133.41
383.80	110.01
384.00	56.17
384.19	105.32
384.39	117.03
384.58	74.90
384.78	131.07
384.97	91.28
385.17	60.85
385.36	44.47
385.56	93.62
385.75	63.19
385.95	126.39
386.14	72.56
386.34	37.45
386.53	135.75
386.72	7.02
386.92	79.58
387.11	110.01
387.31	84.26
387.50	18.72
387.70	21.06
387.89	105.32
388.09	49.15
388.28	28.09
388.48	67.88
388.67	77.24
388.86	77.24
389.06	119.37
389.25	65.54
389.45	84.26
389.64	112.35
389.84	93.62
390.03	93.62
390.22	91.28
390.42	4.68
390.61	117.03
390.81	65.54
391.00	58.51
391.19	159.16
391.39	166.18
391.58	91.28
391.78	119.37
391.97	133.41
392.16	88.94
392.36	140.43
392.55	187.24
392.75	102.98
392.94	147.45
393.13	147.45
393.33	74.90
393.52	131.07
393.71	86.60
393.91	74.90
394.10	67.88
394.29	56.17
394.49	91.28
394.68	135.75
394.88	142.77
395.07	102.98
395.26	95.96
395.46	67.88
395.65	70.22
395.84	91.28
396.04	154.48
396.23	70.22
396.42	140.43
396.62	102.98
396.81	18.72
397.00	23.41
397.19	140.43
397.39	74.90
397.58	161.50
397.77	25.75
397.97	138.09
398.16	56.17
398.35	86.60
398.55	58.51
398.74	91.28
398.93	142.77
399.12	152.13
399.32	70.22
399.51	60.85
399.70	187.24
399.90	46.81
400.09	81.92
400.28	117.03
400.47	51.49
400.67	145.11
400.86	79.58
401.05	142.77
401.24	58.51
401.44	145.11
401.63	163.84
401.82	77.24
402.01	124.05
402.21	77.24
402.40	63.19
402.59	79.58
402.78	147.45
402.97	65.54
403.17	37.45
403.36	65.54
403.55	119.37
403.74	133.41
403.93	114.69
404.13	208.31
404.32	95.96
404.51	126.39
404.70	163.84
404.89	121.71
405.09	196.60
405.28	112.35
405.47	154.48
405.66	81.92
405.85	86.60
406.05	128.73
406.24	53.83
406.43	44.47
406.62	112.35
406.81	163.84
407.00	128.73
407.20	117.03
407.39	74.90
407.58	117.03
407.77	88.94
407.96	112.35
408.15	72.56
408.34	124.05
408.54	74.90
408.73	117.03
408.92	145.11
409.11	128.73
409.30	63.19
409.49	135.75
409.68	128.73
409.87	86.60
410.07	77.24
410.26	159.16
410.45	77.24
410.64	86.60
410.83	67.88
411.02	98.30
411.21	65.54
411.40	154.48
411.59	42.13
411.78	65.54
411.98	110.01
412.17	147.45
412.36	44.47
412.55	133.41
412.74	112.35
412.93	166.18
413.12	67.88
413.31	107.66
413.50	166.18
413.69	98.30
413.88	102.98
414.07	95.96
414.26	74.90
414.45	74.90
414.64	156.82
414.83	184.90
415.02	142.77
415.22	147.45
415.41	124.05
415.60	112.35
415.79	147.45
415.98	159.16
416.17	100.64
416.36	117.03
416.55	98.30
416.74	145.11
416.93	140.43
417.12	133.41
417.31	117.03
417.50	177.88
417.69	149.79
417.88	126.39
418.07	149.79
418.26	222.35
418.45	177.88
418.64	163.84
418.83	138.09
419.02	220.01
419.21	161.50
419.39	142.77
419.58	173.20
419.77	114.69
419.96	184.90
420.15	187.24
420.34	107.66
420.53	126.39
420.72	149.79
420.91	131.07
421.10	131.07
421.29	0.00
421.48	126.39
421.67	177.88
421.86	86.60
422.05	166.18
422.24	131.07
422.43	32.77
422.61	117.03
422.80	86.60
422.99	142.77
423.18	117.03
423.37	84.26
423.56	159.16
423.75	163.84
423.94	98.30
424.13	110.01
424.32	46.81
424.50	32.77
424.69	112.35
424.88	184.90
425.07	102.98
425.26	203.63
425.45	252.78
425.64	241.08
425.83	220.01
426.01	208.31
426.20	121.71
426.39	168.52
426.58	187.24
426.77	161.50
426.96	128.73
427.15	131.07
427.33	77.24
427.52	100.64
427.71	86.60
427.90	107.66
428.09	81.92
428.28	142.77
428.46	105.32
428.65	93.62
428.84	86.60
429.03	170.86
429.22	44.47
429.40	112.35
429.59	102.98
429.78	161.50
429.97	79.58
430.16	126.39
430.34	114.69
430.53	126.39
430.72	105.32
430.91	191.92
431.10	67.88
431.28	95.96
431.47	105.32
431.66	105.32
431.85	107.66
432.03	149.79
432.22	159.16
432.41	140.43
432.60	133.41
432.79	168.52
432.97	189.58
433.16	259.80
433.35	252.78
433.54	210.65
433.72	126.39
433.91	196.60
434.10	117.03
434.28	166.18
434.47	147.45
434.66	159.16
434.85	149.79
435.03	110.01
435.22	126.39
435.41	131.07
435.59	189.58
435.78	86.60
435.97	170.86
436.16	95.96
436.34	138.09
436.53	107.66
436.72	154.48
436.90	110.01
437.09	119.37
437.28	131.07
437.46	117.03
437.65	154.48
437.84	191.92
438.02	117.03
438.21	121.71
438.40	79.58
438.58	149.79
438.77	161.50
438.96	93.62
439.14	60.85
439.33	191.92
439.52	138.09
439.70	114.69
439.89	184.90
440.08	135.75
440.26	102.98
440.45	163.84
440.63	147.45
440.82	149.79
441.01	102.98
441.19	159.16
441.38	210.65
441.57	163.84
441.75	175.54
441.94	163.84
442.12	138.09
442.31	86.60
442.50	121.71
442.68	196.60
442.87	142.77
443.05	102.98
443.24	114.69
443.43	133.41
443.61	170.86
443.80	131.07
443.98	86.60
444.17	138.09
444.35	102.98
444.54	53.83
444.73	180.22
444.91	187.24
445.10	140.43
445.28	110.01
445.47	128.73
445.65	114.69
445.84	140.43
446.02	133.41
446.21	128.73
446.39	135.75
446.58	145.11
446.77	72.56
446.95	98.30
447.14	156.82
447.32	138.09
447.51	145.11
447.69	121.71
447.88	124.05
448.06	124.05
448.25	102.98
448.43	147.45
448.62	180.22
448.80	159.16
448.99	112.35
449.17	124.05
449.36	84.26
449.54	152.13
449.73	88.94
449.91	182.56
450.10	159.16
450.28	187.24
450.46	168.52
450.65	133.41
450.83	133.41
451.02	133.41
451.20	102.98
451.39	140.43
451.57	119.37
451.76	81.92
451.94	28.09
452.13	152.13
452.31	163.84
452.49	145.11
452.68	105.32
452.86	149.79
453.05	170.86
453.23	163.84
453.42	105.32
453.60	163.84
453.78	117.03
453.97	95.96
454.15	102.98
454.34	102.98
454.52	18.72
454.70	138.09
454.89	161.50
455.07	156.82
455.26	177.88
455.44	133.41
455.62	93.62
455.81	149.79
455.99	138.09
456.17	88.94
456.36	128.73
456.54	60.85
456.73	147.45
456.91	161.50
457.09	102.98
457.28	241.08
457.46	163.84
457.64	121.71
457.83	128.73
458.01	161.50
458.19	154.48
458.38	163.84
458.56	182.56
458.74	67.88
458.93	110.01
459.11	159.16
459.29	126.39
459.48	166.18
459.66	107.66
459.84	262.14
460.03	212.99
460.21	203.63
460.39	154.48
460.57	149.79
460.76	163.84
460.94	46.81
461.12	156.82
461.31	102.98
461.49	140.43
461.67	126.39
461.85	72.56
462.04	140.43
462.22	535.98
462.40	147.45
462.59	191.92
462.77	149.79
462.95	152.13
463.13	124.05
463.32	163.84
463.50	154.48
463.68	93.62
463.86	135.75
464.05	140.43
464.23	126.39
464.41	93.62
464.59	140.43
464.78	133.41
464.96	102.98
465.14	121.71
465.32	79.58
465.50	189.58
465.69	180.22
465.87	79.58
466.05	212.99
466.23	86.60
466.41	51.49
466.60	166.18
466.78	105.32
466.96	156.82
467.14	102.98
467.32	133.41
467.51	107.66
467.69	194.26
467.87	184.90
468.05	112.35
468.23	182.56
468.41	110.01
468.60	131.07
468.78	147.45
468.96	203.63
469.14	93.62
469.32	140.43
469.50	131.07
469.69	163.84
469.87	180.22
470.05	147.45
470.23	93.62
470.41	110.01
470.59	168.52
470.77	154.48
470.95	124.05
471.14	112.35
471.32	84.26
471.50	126.39
471.68	191.92
471.86	163.84
472.04	121.71
472.22	138.09
472.40	72.56
472.58	93.62
472.77	189.58
472.95	159.16
473.13	212.99
473.31	177.88
473.49	65.54
473.67	138.09
473.85	161.50
474.03	105.32
474.21	191.92
474.39	154.48
474.57	121.71
474.75	46.81
474.93	124.05
475.12	110.01
475.30	98.30
475.48	114.69
475.66	124.05
475.84	133.41
476.02	117.03
476.20	173.20
476.38	37.45
476.56	234.05
476.74	212.99
476.92	161.50
477.10	159.16
477.28	114.69
477.46	156.82
477.64	217.67
477.82	114.69
478.00	191.92
478.18	133.41
478.36	131.07
478.54	170.86
478.72	126.39
478.90	194.26
479.08	152.13
479.26	119.37
479.44	124.05
479.62	124.05
479.80	133.41
479.98	191.92
480.16	114.69
480.34	133.41
480.52	154.48
480.70	84.26
480.88	156.82
481.06	140.43
481.24	154.48
481.41	173.20
481.59	168.52
481.77	149.79
481.95	194.26
482.13	114.69
482.31	124.05
482.49	154.48
482.67	161.50
482.85	229.37
483.03	95.96
483.21	145.11
483.39	88.94
483.57	142.77
483.74	184.90
483.92	170.86
484.10	140.43
484.28	159.16
484.46	245.76
484.64	124.05
484.82	191.92
485.00	145.11
485.18	117.03
485.35	243.42
485.53	147.45
485.71	152.13
485.89	161.50
486.07	149.79
486.25	184.90
486.43	159.16
486.61	175.54
486.78	135.75
486.96	159.16
487.14	189.58
487.32	86.60
487.50	182.56
487.68	147.45
487.85	159.16
488.03	189.58
488.21	142.77
488.39	133.41
488.57	126.39
488.75	154.48
488.92	484.49
489.10	210.65
489.28	234.05
489.46	177.88
489.64	149.79
489.81	112.35
489.99	201.29
490.17	196.60
490.35	149.79
490.53	133.41
490.70	194.26
490.88	142.77
491.06	95.96
491.24	170.86
491.41	138.09
491.59	124.05
491.77	112.35
491.95	124.05
492.13	70.22
492.30	166.18
492.48	170.86
492.66	152.13
492.84	133.41
493.01	184.90
493.19	149.79
493.37	248.10
493.54	227.03
493.72	194.26
493.90	154.48
494.08	147.45
494.25	194.26
494.43	133.41
494.61	215.33
494.79	159.16
494.96	184.90
495.14	250.44
495.32	159.16
495.49	182.56
495.67	184.90
495.85	168.52
496.02	154.48
496.20	241.08
496.38	196.60
496.55	166.18
496.73	191.92
496.91	142.77
497.09	203.63
497.26	241.08
497.44	100.64
497.62	173.20
497.79	124.05
497.97	175.54
498.14	215.33
498.32	117.03
498.50	184.90
498.67	205.97
498.85	231.71
499.03	224.69
499.20	212.99
499.38	208.31
499.56	159.16
499.73	236.39
499.91	212.99
500.08	278.52
500.26	163.84
500.44	124.05
500.61	212.99
500.79	220.01
500.97	208.31
501.14	163.84
501.32	159.16
501.49	250.44
501.67	126.39
501.84	180.22
502.02	159.16
502.20	215.33
502.37	182.56
502.55	177.88
502.72	215.33
502.90	212.99
503.07	177.88
503.25	184.90
503.43	203.63
503.60	208.31
503.78	159.16
503.95	194.26
504.13	149.79
504.30	154.48
504.48	215.33
504.65	285.55
504.83	117.03
505.01	159.16
505.18	210.65
505.36	229.37
505.53	229.37
505.71	168.52
505.88	201.29
506.06	156.82
506.23	163.84
506.41	227.03
506.58	56.17
506.76	159.16
506.93	105.32
507.11	187.24
507.28	140.43
507.46	234.05
507.63	257.46
507.81	187.24
507.98	250.44
508.16	191.92
508.33	212.99
508.50	126.39
508.68	147.45
508.85	124.05
509.03	187.24
509.20	238.73
509.38	220.01
509.55	182.56
509.73	229.37
509.90	208.31
510.08	145.11
510.25	145.11
510.42	187.24
510.60	145.11
510.77	280.86
510.95	205.97
511.12	166.18
511.30	301.93
511.47	257.46
511.64	227.03
511.82	227.03
511.99	201.29
512.17	154.48
512.34	147.45
512.51	121.71
512.69	156.82
512.86	163.84
513.04	173.20
513.21	166.18
513.38	212.99
513.56	159.16
513.73	168.52
513.90	110.01
514.08	163.84
514.25	220.01
514.43	243.42
514.60	170.86
514.77	266.82
514.95	220.01
515.12	170.86
515.29	208.31
515.47	112.35
515.64	262.14
515.81	215.33
515.99	231.71
516.16	205.97
516.33	245.76
516.51	182.56
516.68	128.73
516.85	156.82
517.03	154.48
517.20	154.48
517.37	154.48
517.54	205.97
517.72	208.31
517.89	140.43
518.06	147.45
518.24	231.71
518.41	252.78
518.58	238.73
518.75	173.20
518.93	203.63
519.10	304.27
519.27	196.60
519.45	229.37
519.62	112.35
519.79	236.39
519.96	201.29
520.14	170.86
520.31	255.12
520.48	238.73
520.65	285.55
520.83	264.48
521.00	308.95
521.17	180.22
521.34	205.97
521.52	215.33
521.69	205.97
521.86	170.86
522.03	210.65
522.20	252.78
522.38	140.43
522.55	210.65
522.72	180.22
522.89	217.67
523.07	262.14
523.24	269.16
523.41	208.31
523.58	264.48
523.75	198.95
523.92	187.24
524.10	215.33
524.27	243.42
524.44	257.46
524.61	194.26
524.78	161.50
524.96	205.97
525.13	236.39
525.30	243.42
525.47	196.60
525.64	217.67
525.81	255.12
525.98	205.97
526.16	156.82
526.33	110.01
526.50	168.52
526.67	173.20
526.84	147.45
527.01	196.60
527.18	175.54
527.36	245.76
527.53	227.03
527.70	280.86
527.87	177.88
528.04	191.92
528.21	168.52
528.38	243.42
528.55	236.39
528.72	304.27
528.89	217.67
529.07	222.35
529.24	241.08
529.41	238.73
529.58	259.80
529.75	203.63
529.92	210.65
530.09	184.90
530.26	236.39
530.43	194.26
530.60	142.77
530.77	234.05
530.94	252.78
531.11	259.80
531.28	126.39
531.46	231.71
531.63	187.24
531.80	241.08
531.97	168.52
532.14	170.86
532.31	201.29
532.48	201.29
532.65	285.55
532.82	306.61
532.99	341.72
533.16	318.31
533.33	259.80
533.50	196.60
533.67	292.57
533.84	315.97
534.01	379.17
534.18	273.84
534.35	266.82
534.52	229.37
534.69	280.86
534.86	238.73
535.03	217.67
535.20	189.58
535.37	198.95
535.54	259.80
535.71	187.24
535.88	217.67
536.05	290.23
536.22	184.90
536.38	154.48
536.55	238.73
536.72	152.13
536.89	194.26
537.06	182.56
537.23	215.33
537.40	140.43
537.57	177.88
537.74	252.78
537.91	191.92
538.08	163.84
538.25	189.58
538.42	194.26
538.59	252.78
538.75	203.63
538.92	198.95
539.09	191.92
539.26	250.44
539.43	418.96
539.60	1001.75
539.77	1558.80
539.94	1586.88
540.11	1069.62
540.28	606.20
540.44	463.43
540.61	255.12
540.78	250.44
540.95	212.99
541.12	215.33
541.29	264.48
541.46	229.37
541.62	290.23
541.79	196.60
541.96	196.60
542.13	222.35
542.30	175.54
542.47	222.35
542.63	161.50
542.80	262.14
542.97	168.52
543.14	187.24
543.31	203.63
543.48	191.92
543.64	187.24
543.81	198.95
543.98	198.95
544.15	175.54
544.32	184.90
544.48	196.60
544.65	189.58
544.82	166.18
544.99	149.79
545.16	243.42
545.32	173.20
545.49	189.58
545.66	168.52
545.83	212.99
546.00	227.03
546.16	201.29
546.33	271.50
546.50	161.50
546.67	290.23
546.83	208.31
547.00	212.99
547.17	205.97
547.34	238.73
547.50	173.20
547.67	229.37
547.84	128.73
548.00	203.63
548.17	145.11
548.34	147.45
548.51	259.80
548.67	259.80
548.84	124.05
549.01	255.12
549.18	201.29
549.34	262.14
549.51	194.26
549.68	297.25
549.84	168.52
550.01	128.73
550.18	262.14
550.34	283.20
550.51	224.69
550.68	290.23
550.84	264.48
551.01	266.82
551.18	173.20
551.34	257.46
551.51	203.63
551.68	184.90
551.84	217.67
552.01	285.55
552.18	203.63
552.34	163.84
552.51	194.26
552.68	220.01
552.84	205.97
553.01	285.55
553.18	280.86
553.34	147.45
553.51	173.20
553.67	170.86
553.84	297.25
554.01	220.01
554.17	180.22
554.34	191.92
554.51	241.08
554.67	180.22
554.84	189.58
555.00	175.54
555.17	210.65
555.33	215.33
555.50	283.20
555.67	241.08
555.83	252.78
556.00	142.77
556.16	320.65
556.33	201.29
556.50	222.35
556.66	189.58
556.83	264.48
556.99	184.90
557.16	145.11
557.32	227.03
557.49	147.45
557.65	191.92
557.82	152.13
557.98	131.07
558.15	189.58
558.32	159.16
558.48	166.18
558.65	220.01
558.81	229.37
558.98	210.65
559.14	224.69
559.31	187.24
559.47	131.07
559.64	182.56
559.80	215.33
559.97	238.73
560.13	205.97
560.30	257.46
560.46	156.82
560.63	175.54
560.79	252.78
560.96	273.84
561.12	152.13
561.29	255.12
561.45	194.26
561.61	194.26
561.78	241.08
561.94	189.58
562.11	210.65
562.27	208.31
562.44	152.13
562.60	168.52
562.77	168.52
562.93	241.08
563.10	220.01
563.26	220.01
563.42	229.37
563.59	217.67
563.75	224.69
563.92	262.14
564.08	152.13
564.24	205.97
564.41	266.82
564.57	189.58
564.74	161.50
564.90	217.67
565.07	182.56
565.23	269.16
565.39	290.23
565.56	290.23
565.72	187.24
565.88	198.95
566.05	231.71
566.21	201.29
566.38	255.12
566.54	229.37
566.70	170.86
566.87	196.60
567.03	93.62
567.19	156.82
567.36	227.03
567.52	215.33
567.68	119.37
567.85	203.63
568.01	135.75
568.17	208.31
568.34	159.16
568.50	138.09
568.66	147.45
568.83	337.04
568.99	264.48
569.15	264.48
569.32	163.84
569.48	222.35
569.64	131.07
569.81	250.44
569.97	217.67
570.13	201.29
570.30	182.56
570.46	217.67
570.62	147.45
570.78	234.05
570.95	149.79
571.11	276.18
571.27	283.20
571.43	234.05
571.60	243.42
571.76	161.50
571.92	152.13
572.09	224.69
572.25	166.18
572.41	208.31
572.57	163.84
572.74	266.82
572.90	182.56
573.06	161.50
573.22	304.27
573.38	220.01
573.55	236.39
573.71	198.95
573.87	222.35
574.03	86.60
574.20	222.35
574.36	208.31
574.52	250.44
574.68	334.70
574.84	273.84
575.01	243.42
575.17	243.42
575.33	173.20
575.49	255.12
575.65	220.01
575.82	245.76
575.98	517.26
576.14	734.93
576.30	685.78
576.46	535.98
576.62	367.46
576.79	325.33
576.95	320.65
577.11	210.65
577.27	208.31
577.43	191.92
577.59	362.78
577.75	224.69
577.92	227.03
578.08	292.57
578.24	292.57
578.40	220.01
578.56	269.16
578.72	245.76
578.88	208.31
579.04	255.12
579.21	341.72
579.37	245.76
579.53	262.14
579.69	308.95
579.85	252.78
580.01	334.70
580.17	327.68
580.33	299.59
580.49	322.99
580.65	313.63
580.82	322.99
580.98	337.04
581.14	285.55
581.30	372.15
581.46	411.93
581.62	557.05
581.78	669.39
581.94	554.71
582.10	477.47
582.26	454.06
582.42	367.46
582.58	388.53
582.74	409.59
582.90	318.31
583.06	472.79
583.22	404.91
583.38	496.19
583.54	526.62
583.70	510.24
583.86	557.05
584.02	730.25
584.18	983.02
584.34	1296.66
584.50	3290.79
584.66	25305.87
584.82	57059.92
584.98	65535.00
585.14	63505.76
585.30	49801.92
585.46	30382.49
585.62	18530.02
585.78	8561.68
585.94	3323.56
586.10	1603.27
586.26	919.83
586.42	807.48
586.58	732.59
586.74	594.50
586.90	615.56
587.06	631.94
587.22	507.90
587.38	538.32
587.54	1231.12
587.70	3571.66
587.86	5872.40
588.02	6815.64
588.18	4697.46
588.34	2991.20
588.49	1891.15
588.65	1235.80
588.81	599.18
588.97	346.40
589.13	276.18
589.29	311.29
589.45	250.44
589.61	313.63
589.77	379.17
589.93	395.55
590.08	402.57
590.24	482.15
590.40	475.13
590.56	454.06
590.72	346.40
590.88	248.10
591.04	210.65
591.20	308.95
591.35	355.76
591.51	322.99
591.67	273.84
591.83	238.73
591.99	276.18
592.15	250.44
592.31	259.80
592.46	297.25
592.62	290.23
592.78	248.10
592.94	224.69
593.10	290.23
593.26	322.99
593.41	376.83
593.57	322.99
593.73	524.28
593.89	2928.01
594.05	7447.58
594.20	11342.24
594.36	10696.25
594.52	7035.65
594.68	4334.67
594.84	2827.37
594.99	1596.25
595.15	650.67
595.31	418.96
595.47	264.48
595.62	262.14
595.78	238.73
595.94	271.50
596.10	243.42
596.25	269.16
596.41	299.59
596.57	259.80
596.73	266.82
596.88	533.64
597.04	1416.02
597.20	2387.35
597.36	2668.21
597.51	2073.71
597.67	1488.58
597.83	908.13
597.99	699.82
598.14	433.00
598.30	348.74
598.46	287.89
598.61	287.89
598.77	306.61
598.93	318.31
599.09	224.69
599.24	189.58
599.40	234.05
599.56	205.97
599.71	196.60
599.87	245.76
600.03	140.43
600.18	191.92
600.34	229.37
600.50	175.54
600.65	266.82
600.81	334.70
600.97	191.92
601.12	222.35
601.28	210.65
601.44	222.35
601.59	166.18
601.75	231.71
601.91	245.76
602.06	175.54
602.22	318.31
602.37	816.85
602.53	1748.38
602.69	2715.02
602.84	2906.95
603.00	1961.37
603.16	1397.30
603.31	1057.92
603.47	620.24
603.62	372.15
603.78	325.33
603.94	262.14
604.09	257.46
604.25	194.26
604.40	339.38
604.56	238.73
604.71	280.86
604.87	145.11
605.03	276.18
605.18	210.65
605.34	332.36
605.49	238.73
605.65	180.22
605.80	262.14
605.96	287.89
606.12	266.82
606.27	344.06
606.43	276.18
606.58	318.31
606.74	952.60
606.89	3517.83
607.05	7300.13
607.20	9668.75
607.36	7777.60
607.51	5186.63
607.67	3520.17
607.82	2312.45
607.98	1303.68
608.13	540.66
608.29	482.15
608.44	407.25
608.60	358.10
608.75	512.58
608.91	1142.18
609.06	5603.24
609.22	12287.81
609.37	16652.91
609.53	14647.07
609.68	9722.59
609.84	6164.97
609.99	4138.07
610.15	2167.34
610.30	1015.79
610.46	528.96
610.61	411.93
610.76	388.53
610.92	388.53
611.07	304.27
611.23	341.72
611.38	306.61
611.54	266.82
611.69	266.82
611.84	297.25
612.00	271.50
