SpectraSuite Data File
++++++++++++++++++++++++++++++++++++
Date: Fri Oct 04 11:47:01 GMT-05:00 2013
User: price-jones
Dark Spectrum Present: No
Reference Spectrum Present: No
Number of Sampled Component Spectra: 1
Spectrometers: USB2+H05261
Integration Time (usec): 100000 (USB2+H05261)
Spectra Averaged: 1 (USB2+H05261)
Boxcar Smoothing: 0 (USB2+H05261)
Correct for Electrical Dark: No (USB2+H05261)
Strobe/Lamp Enabled: No (USB2+H05261)
Correct for Detector Non-linearity: No (USB2+H05261)
Correct for Stray Light: No (USB2+H05261)
Number of Pixels in Processed Spectrum: 2048
>>>>>Begin Processed Spectral Data<<<<<
365.73	25.75
365.92	25.75
366.12	25.75
366.32	0.00
366.52	0.00
366.72	7.02
366.91	0.00
367.11	0.00
367.31	0.00
367.51	0.00
367.70	11.70
367.90	0.00
368.10	25.75
368.30	0.00
368.49	0.00
368.69	0.00
368.89	0.00
369.09	0.00
369.28	0.00
369.48	0.00
369.68	0.00
369.87	0.00
370.07	0.00
370.27	25.75
370.47	30.43
370.66	30.43
370.86	67.88
371.06	84.26
371.25	112.35
371.45	4.68
371.65	100.64
371.84	77.24
372.04	32.77
372.24	74.90
372.44	98.30
372.63	88.94
372.83	163.84
373.03	72.56
373.22	79.58
373.42	74.90
373.62	51.49
373.81	126.39
374.01	170.86
374.21	128.73
374.40	98.30
374.60	112.35
374.79	112.35
374.99	121.71
375.19	74.90
375.38	91.28
375.58	98.30
375.78	98.30
375.97	72.56
376.17	149.79
376.37	110.01
376.56	121.71
376.76	63.19
376.95	46.81
377.15	119.37
377.35	117.03
377.54	88.94
377.74	159.16
377.93	53.83
378.13	140.43
378.33	180.22
378.52	32.77
378.72	128.73
378.91	142.77
379.11	86.60
379.31	128.73
379.50	119.37
379.70	51.49
379.89	182.56
380.09	88.94
380.28	98.30
380.48	110.01
380.68	112.35
380.87	166.18
381.07	140.43
381.26	77.24
381.46	23.41
381.65	51.49
381.85	100.64
382.04	117.03
382.24	84.26
382.43	51.49
382.63	63.19
382.83	25.75
383.02	88.94
383.22	163.84
383.41	39.79
383.61	117.03
383.80	63.19
384.00	107.66
384.19	53.83
384.39	124.05
384.58	154.48
384.78	133.41
384.97	28.09
385.17	84.26
385.36	131.07
385.56	93.62
385.75	51.49
385.95	86.60
386.14	77.24
386.34	77.24
386.53	74.90
386.72	67.88
386.92	112.35
387.11	63.19
387.31	145.11
387.50	51.49
387.70	91.28
387.89	102.98
388.09	67.88
388.28	79.58
388.48	102.98
388.67	112.35
388.86	126.39
389.06	84.26
389.25	88.94
389.45	79.58
389.64	72.56
389.84	114.69
390.03	131.07
390.22	149.79
390.42	156.82
390.61	44.47
390.81	53.83
391.00	100.64
391.19	46.81
391.39	126.39
391.58	133.41
391.78	110.01
391.97	145.11
392.16	119.37
392.36	70.22
392.55	161.50
392.75	100.64
392.94	84.26
393.13	145.11
393.33	49.15
393.52	114.69
393.71	140.43
393.91	93.62
394.10	112.35
394.29	112.35
394.49	84.26
394.68	168.52
394.88	126.39
395.07	142.77
395.26	63.19
395.46	138.09
395.65	133.41
395.84	126.39
396.04	168.52
396.23	112.35
396.42	177.88
396.62	110.01
396.81	88.94
397.00	46.81
397.19	142.77
397.39	74.90
397.58	95.96
397.77	121.71
397.97	189.58
398.16	114.69
398.35	42.13
398.55	91.28
398.74	46.81
398.93	147.45
399.12	81.92
399.32	131.07
399.51	119.37
399.70	154.48
399.90	114.69
400.09	102.98
400.28	117.03
400.47	84.26
400.67	25.75
400.86	147.45
401.05	95.96
401.24	32.77
401.44	32.77
401.63	145.11
401.82	117.03
402.01	117.03
402.21	161.50
402.40	74.90
402.59	114.69
402.78	110.01
402.97	107.66
403.17	91.28
403.36	77.24
403.55	117.03
403.74	135.75
403.93	168.52
404.13	222.35
404.32	133.41
404.51	140.43
404.70	135.75
404.89	91.28
405.09	159.16
405.28	166.18
405.47	154.48
405.66	128.73
405.85	140.43
406.05	149.79
406.24	93.62
406.43	93.62
406.62	135.75
406.81	114.69
407.00	98.30
407.20	112.35
407.39	42.13
407.58	147.45
407.77	149.79
407.96	149.79
408.15	102.98
408.34	152.13
408.54	67.88
408.73	135.75
408.92	112.35
409.11	177.88
409.30	138.09
409.49	79.58
409.68	105.32
409.87	91.28
410.07	37.45
410.26	100.64
410.45	88.94
410.64	56.17
410.83	93.62
411.02	149.79
411.21	131.07
411.40	119.37
411.59	112.35
411.78	100.64
411.98	152.13
412.17	112.35
412.36	117.03
412.55	84.26
412.74	93.62
412.93	180.22
413.12	39.79
413.31	98.30
413.50	175.54
413.69	145.11
413.88	95.96
414.07	88.94
414.26	79.58
414.45	2.34
414.64	35.11
414.83	147.45
415.02	100.64
415.22	124.05
415.41	198.95
415.60	138.09
415.79	147.45
415.98	163.84
416.17	58.51
416.36	131.07
416.55	121.71
416.74	156.82
416.93	205.97
417.12	93.62
417.31	149.79
417.50	145.11
417.69	208.31
417.88	138.09
418.07	166.18
418.26	191.92
418.45	180.22
418.64	175.54
418.83	217.67
419.02	215.33
419.21	273.84
419.39	170.86
419.58	110.01
419.77	177.88
419.96	220.01
420.15	152.13
420.34	93.62
420.53	105.32
420.72	140.43
420.91	133.41
421.10	168.52
421.29	163.84
421.48	93.62
421.67	159.16
421.86	79.58
422.05	110.01
422.24	93.62
422.43	142.77
422.61	77.24
422.80	184.90
422.99	124.05
423.18	184.90
423.37	138.09
423.56	138.09
423.75	121.71
423.94	79.58
424.13	107.66
424.32	128.73
424.50	100.64
424.69	102.98
424.88	149.79
425.07	177.88
425.26	168.52
425.45	175.54
425.64	208.31
425.83	196.60
426.01	191.92
426.20	107.66
426.39	161.50
426.58	161.50
426.77	156.82
426.96	128.73
427.15	88.94
427.33	77.24
427.52	124.05
427.71	81.92
427.90	128.73
428.09	100.64
428.28	112.35
428.46	180.22
428.65	126.39
428.84	135.75
429.03	177.88
429.22	124.05
429.40	121.71
429.59	84.26
429.78	175.54
429.97	135.75
430.16	124.05
430.34	65.54
430.53	100.64
430.72	121.71
430.91	138.09
431.10	105.32
431.28	105.32
431.47	107.66
431.66	131.07
431.85	140.43
432.03	65.54
432.22	98.30
432.41	49.15
432.60	95.96
432.79	264.48
432.97	322.99
433.16	271.50
433.35	184.90
433.54	224.69
433.72	154.48
433.91	182.56
434.10	131.07
434.28	201.29
434.47	154.48
434.66	112.35
434.85	86.60
435.03	138.09
435.22	142.77
435.41	131.07
435.59	140.43
435.78	100.64
435.97	177.88
436.16	133.41
436.34	58.51
436.53	138.09
436.72	152.13
436.90	79.58
437.09	114.69
437.28	126.39
437.46	102.98
437.65	126.39
437.84	121.71
438.02	126.39
438.21	133.41
438.40	93.62
438.58	63.19
438.77	79.58
438.96	39.79
439.14	175.54
439.33	70.22
439.52	98.30
439.70	119.37
439.89	72.56
440.08	88.94
440.26	173.20
440.45	180.22
440.63	77.24
440.82	145.11
441.01	37.45
441.19	105.32
441.38	105.32
441.57	84.26
441.75	100.64
441.94	110.01
442.12	105.32
442.31	166.18
442.50	49.15
442.68	124.05
442.87	119.37
443.05	201.29
443.24	142.77
443.43	161.50
443.61	205.97
443.80	163.84
443.98	105.32
444.17	166.18
444.35	147.45
444.54	135.75
444.73	81.92
444.91	152.13
445.10	117.03
445.28	84.26
445.47	98.30
445.65	159.16
445.84	121.71
446.02	72.56
446.21	215.33
446.39	112.35
446.58	135.75
446.77	112.35
446.95	112.35
447.14	117.03
447.32	112.35
447.51	166.18
447.69	191.92
447.88	135.75
448.06	196.60
448.25	194.26
448.43	131.07
448.62	124.05
448.80	140.43
448.99	184.90
449.17	119.37
449.36	145.11
449.54	191.92
449.73	142.77
449.91	161.50
450.10	138.09
450.28	177.88
450.46	196.60
450.65	210.65
450.83	126.39
451.02	159.16
451.20	114.69
451.39	147.45
451.57	114.69
451.76	135.75
451.94	175.54
452.13	184.90
452.31	201.29
452.49	180.22
452.68	133.41
452.86	161.50
453.05	140.43
453.23	126.39
453.42	98.30
453.60	198.95
453.78	166.18
453.97	161.50
454.15	114.69
454.34	156.82
454.52	168.52
454.70	173.20
454.89	175.54
455.07	98.30
455.26	112.35
455.44	163.84
455.62	105.32
455.81	133.41
455.99	84.26
456.17	100.64
456.36	128.73
456.54	114.69
456.73	126.39
456.91	152.13
457.09	138.09
457.28	182.56
457.46	124.05
457.64	198.95
457.83	133.41
458.01	117.03
458.19	191.92
458.38	135.75
458.56	112.35
458.74	121.71
458.93	121.71
459.11	154.48
459.29	100.64
459.48	227.03
459.66	189.58
459.84	133.41
460.03	119.37
460.21	159.16
460.39	81.92
460.57	124.05
460.76	119.37
460.94	159.16
461.12	156.82
461.31	161.50
461.49	156.82
461.67	149.79
461.85	105.32
462.04	142.77
462.22	585.13
462.40	170.86
462.59	163.84
462.77	145.11
462.95	88.94
463.13	140.43
463.32	128.73
463.50	198.95
463.68	201.29
463.86	182.56
464.05	182.56
464.23	168.52
464.41	166.18
464.59	161.50
464.78	114.69
464.96	135.75
465.14	124.05
465.32	112.35
465.50	191.92
465.69	194.26
465.87	102.98
466.05	198.95
466.23	114.69
466.41	170.86
466.60	131.07
466.78	182.56
466.96	121.71
467.14	149.79
467.32	210.65
467.51	180.22
467.69	161.50
467.87	124.05
468.05	138.09
468.23	220.01
468.41	201.29
468.60	224.69
468.78	145.11
468.96	110.01
469.14	138.09
469.32	168.52
469.50	105.32
469.69	191.92
469.87	102.98
470.05	166.18
470.23	161.50
470.41	138.09
470.59	114.69
470.77	131.07
470.95	121.71
471.14	154.48
471.32	156.82
471.50	212.99
471.68	140.43
471.86	149.79
472.04	166.18
472.22	159.16
472.40	121.71
472.58	70.22
472.77	159.16
472.95	121.71
473.13	166.18
473.31	189.58
473.49	187.24
473.67	42.13
473.85	128.73
474.03	152.13
474.21	156.82
474.39	196.60
474.57	142.77
474.75	154.48
474.93	126.39
475.12	152.13
475.30	191.92
475.48	189.58
475.66	196.60
475.84	152.13
476.02	154.48
476.20	187.24
476.38	182.56
476.56	212.99
476.74	180.22
476.92	135.75
477.10	236.39
477.28	117.03
477.46	215.33
477.64	189.58
477.82	135.75
478.00	117.03
478.18	147.45
478.36	201.29
478.54	110.01
478.72	198.95
478.90	142.77
479.08	166.18
479.26	187.24
479.44	152.13
479.62	102.98
479.80	128.73
479.98	119.37
480.16	187.24
480.34	149.79
480.52	110.01
480.70	203.63
480.88	131.07
481.06	98.30
481.24	210.65
481.41	236.39
481.59	182.56
481.77	124.05
481.95	175.54
482.13	147.45
482.31	191.92
482.49	180.22
482.67	212.99
482.85	124.05
483.03	107.66
483.21	121.71
483.39	180.22
483.57	131.07
483.74	210.65
483.92	191.92
484.10	133.41
484.28	161.50
484.46	180.22
484.64	255.12
484.82	166.18
485.00	149.79
485.18	168.52
485.35	133.41
485.53	114.69
485.71	166.18
485.89	102.98
486.07	161.50
486.25	224.69
486.43	140.43
486.61	152.13
486.78	184.90
486.96	191.92
487.14	175.54
487.32	142.77
487.50	128.73
487.68	222.35
487.85	170.86
488.03	152.13
488.21	177.88
488.39	177.88
488.57	154.48
488.75	212.99
488.92	444.70
489.10	205.97
489.28	205.97
489.46	128.73
489.64	117.03
489.81	149.79
489.99	161.50
490.17	231.71
490.35	154.48
490.53	166.18
490.70	234.05
490.88	187.24
491.06	79.58
491.24	182.56
491.41	215.33
491.59	128.73
491.77	145.11
491.95	142.77
492.13	126.39
492.30	205.97
492.48	142.77
492.66	161.50
492.84	166.18
493.01	227.03
493.19	173.20
493.37	273.84
493.54	124.05
493.72	201.29
493.90	220.01
494.08	182.56
494.25	212.99
494.43	212.99
494.61	210.65
494.79	142.77
494.96	114.69
495.14	257.46
495.32	170.86
495.49	152.13
495.67	131.07
495.85	205.97
496.02	105.32
496.20	212.99
496.38	215.33
496.55	166.18
496.73	189.58
496.91	220.01
497.09	161.50
497.26	196.60
497.44	159.16
497.62	196.60
497.79	201.29
497.97	203.63
498.14	234.05
498.32	156.82
498.50	182.56
498.67	152.13
498.85	170.86
499.03	196.60
499.20	154.48
499.38	152.13
499.56	238.73
499.73	217.67
499.91	166.18
500.08	217.67
500.26	175.54
500.44	147.45
500.61	198.95
500.79	170.86
500.97	161.50
501.14	166.18
501.32	131.07
501.49	203.63
501.67	271.50
501.84	264.48
502.02	194.26
502.20	203.63
502.37	243.42
502.55	227.03
502.72	173.20
502.90	208.31
503.07	215.33
503.25	163.84
503.43	210.65
503.60	245.76
503.78	229.37
503.95	217.67
504.13	210.65
504.30	203.63
504.48	210.65
504.65	222.35
504.83	203.63
505.01	196.60
505.18	189.58
505.36	262.14
505.53	245.76
505.71	175.54
505.88	285.55
506.06	156.82
506.23	173.20
506.41	198.95
506.58	241.08
506.76	215.33
506.93	191.92
507.11	124.05
507.28	194.26
507.46	184.90
507.63	248.10
507.81	231.71
507.98	180.22
508.16	191.92
508.33	140.43
508.50	224.69
508.68	250.44
508.85	203.63
509.03	173.20
509.20	180.22
509.38	168.52
509.55	175.54
509.73	198.95
509.90	212.99
510.08	191.92
510.25	182.56
510.42	168.52
510.60	187.24
510.77	262.14
510.95	262.14
511.12	259.80
511.30	241.08
511.47	322.99
511.64	318.31
511.82	271.50
511.99	238.73
512.17	220.01
512.34	217.67
512.51	212.99
512.69	149.79
512.86	259.80
513.04	201.29
513.21	201.29
513.38	142.77
513.56	184.90
513.73	140.43
513.90	175.54
514.08	154.48
514.25	280.86
514.43	248.10
514.60	159.16
514.77	173.20
514.95	236.39
515.12	149.79
515.29	191.92
515.47	175.54
515.64	250.44
515.81	243.42
515.99	245.76
516.16	301.93
516.33	248.10
516.51	278.52
516.68	102.98
516.85	147.45
517.03	128.73
517.20	210.65
517.37	142.77
517.54	196.60
517.72	212.99
517.89	121.71
518.06	154.48
518.24	255.12
518.41	220.01
518.58	217.67
518.75	198.95
518.93	215.33
519.10	215.33
519.27	112.35
519.45	196.60
519.62	124.05
519.79	255.12
519.96	170.86
520.14	220.01
520.31	231.71
520.48	203.63
520.65	175.54
520.83	208.31
521.00	238.73
521.17	234.05
521.34	182.56
521.52	201.29
521.69	205.97
521.86	229.37
522.03	203.63
522.20	271.50
522.38	196.60
522.55	229.37
522.72	114.69
522.89	198.95
523.07	262.14
523.24	266.82
523.41	236.39
523.58	175.54
523.75	212.99
523.92	152.13
524.10	241.08
524.27	175.54
524.44	180.22
524.61	220.01
524.78	243.42
524.96	250.44
525.13	166.18
525.30	255.12
525.47	264.48
525.64	180.22
525.81	187.24
525.98	255.12
526.16	217.67
526.33	229.37
526.50	264.48
526.67	212.99
526.84	191.92
527.01	189.58
527.18	229.37
527.36	210.65
527.53	177.88
527.70	238.73
527.87	299.59
528.04	252.78
528.21	194.26
528.38	311.29
528.55	273.84
528.72	208.31
528.89	273.84
529.07	168.52
529.24	229.37
529.41	227.03
529.58	266.82
529.75	241.08
529.92	215.33
530.09	245.76
530.26	175.54
530.43	198.95
530.60	194.26
530.77	224.69
530.94	161.50
531.11	180.22
531.28	231.71
531.46	220.01
531.63	215.33
531.80	238.73
531.97	266.82
532.14	227.03
532.31	278.52
532.48	276.18
532.65	344.06
532.82	425.98
532.99	369.80
533.16	367.46
533.33	330.02
533.50	334.70
533.67	285.55
533.84	519.60
534.01	503.22
534.18	360.44
534.35	374.49
534.52	234.05
534.69	304.27
534.86	194.26
535.03	189.58
535.20	208.31
535.37	231.71
535.54	203.63
535.71	259.80
535.88	234.05
536.05	229.37
536.22	262.14
536.38	201.29
536.55	156.82
536.72	262.14
536.89	189.58
537.06	229.37
537.23	210.65
537.40	194.26
537.57	262.14
537.74	184.90
537.91	166.18
538.08	276.18
538.25	180.22
538.42	245.76
538.59	166.18
538.75	220.01
538.92	252.78
539.09	238.73
539.26	201.29
539.43	500.87
539.60	1397.30
539.77	2356.92
539.94	2380.32
540.11	1472.20
540.28	929.19
540.44	531.30
540.61	271.50
540.78	280.86
540.95	224.69
541.12	184.90
541.29	147.45
541.46	191.92
541.62	236.39
541.79	166.18
541.96	217.67
542.13	114.69
542.30	119.37
542.47	210.65
542.63	210.65
542.80	182.56
542.97	278.52
543.14	215.33
543.31	194.26
543.48	140.43
543.64	220.01
543.81	248.10
543.98	147.45
544.15	145.11
544.32	170.86
544.48	205.97
544.65	177.88
544.82	224.69
544.99	220.01
545.16	252.78
545.32	170.86
545.49	224.69
545.66	191.92
545.83	149.79
546.00	229.37
546.16	215.33
546.33	229.37
546.50	224.69
546.67	231.71
546.83	252.78
547.00	203.63
547.17	191.92
547.34	184.90
547.50	201.29
547.67	201.29
547.84	180.22
548.00	224.69
548.17	173.20
548.34	229.37
548.51	262.14
548.67	231.71
548.84	159.16
549.01	234.05
549.18	238.73
549.34	189.58
549.51	173.20
549.68	203.63
549.84	67.88
550.01	170.86
550.18	355.76
550.34	248.10
550.51	215.33
550.68	283.20
550.84	262.14
551.01	163.84
551.18	201.29
551.34	187.24
551.51	205.97
551.68	161.50
551.84	236.39
552.01	259.80
552.18	271.50
552.34	182.56
552.51	231.71
552.68	177.88
552.84	161.50
553.01	208.31
553.18	220.01
553.34	262.14
553.51	208.31
553.67	180.22
553.84	205.97
554.01	294.91
554.17	180.22
554.34	203.63
554.51	252.78
554.67	203.63
554.84	187.24
555.00	187.24
555.17	224.69
555.33	283.20
555.50	224.69
555.67	159.16
555.83	243.42
556.00	227.03
556.16	449.38
556.33	290.23
556.50	276.18
556.66	269.16
556.83	170.86
556.99	250.44
557.16	227.03
557.32	184.90
557.49	121.71
557.65	177.88
557.82	196.60
557.98	236.39
558.15	194.26
558.32	117.03
558.48	217.67
558.65	184.90
558.81	250.44
558.98	182.56
559.14	229.37
559.31	182.56
559.47	184.90
559.64	198.95
559.80	187.24
559.97	217.67
560.13	250.44
560.30	194.26
560.46	159.16
560.63	231.71
560.79	203.63
560.96	170.86
561.12	201.29
561.29	255.12
561.45	215.33
561.61	184.90
561.78	262.14
561.94	269.16
562.11	205.97
562.27	222.35
562.44	257.46
562.60	156.82
562.77	175.54
562.93	320.65
563.10	189.58
563.26	203.63
563.42	227.03
563.59	189.58
563.75	156.82
563.92	198.95
564.08	234.05
564.24	238.73
564.41	238.73
564.57	212.99
564.74	238.73
564.90	301.93
565.07	280.86
565.23	236.39
565.39	245.76
565.56	306.61
565.72	271.50
565.88	198.95
566.05	189.58
566.21	248.10
566.38	135.75
566.54	198.95
566.70	184.90
566.87	184.90
567.03	133.41
567.19	194.26
567.36	217.67
567.52	262.14
567.68	210.65
567.85	198.95
568.01	238.73
568.17	280.86
568.34	184.90
568.50	210.65
568.66	269.16
568.83	308.95
568.99	215.33
569.15	224.69
569.32	238.73
569.48	257.46
569.64	201.29
569.81	196.60
569.97	201.29
570.13	198.95
570.30	147.45
570.46	238.73
570.62	224.69
570.78	231.71
570.95	205.97
571.11	273.84
571.27	217.67
571.43	191.92
571.60	325.33
571.76	205.97
571.92	245.76
572.09	322.99
572.25	248.10
572.41	229.37
572.57	203.63
572.74	220.01
572.90	208.31
573.06	262.14
573.22	147.45
573.38	210.65
573.55	182.56
573.71	292.57
573.87	290.23
574.03	266.82
574.20	161.50
574.36	313.63
574.52	337.04
574.68	353.42
574.84	351.08
575.01	280.86
575.17	227.03
575.33	276.18
575.49	224.69
575.65	257.46
575.82	374.49
575.98	777.06
576.14	910.47
576.30	980.68
576.46	805.14
576.62	517.26
576.79	344.06
576.95	334.70
577.11	304.27
577.27	259.80
577.43	238.73
577.59	278.52
577.75	273.84
577.92	234.05
578.08	255.12
578.24	255.12
578.40	224.69
578.56	362.78
578.72	287.89
578.88	285.55
579.04	276.18
579.21	304.27
579.37	308.95
579.53	236.39
579.69	287.89
579.85	308.95
580.01	383.85
580.17	435.34
580.33	517.26
580.49	416.62
580.65	351.08
580.82	315.97
580.98	346.40
581.14	447.04
581.30	428.32
581.46	575.77
581.62	784.08
581.78	863.66
581.94	835.57
582.10	655.35
582.26	620.24
582.42	503.22
582.58	528.96
582.74	557.05
582.90	524.28
583.06	592.16
583.22	521.94
583.38	601.52
583.54	681.10
583.70	847.27
583.86	999.41
584.02	1167.93
584.18	1270.91
584.34	1783.49
584.50	4774.69
584.66	37659.22
584.82	65535.00
584.98	65535.00
585.14	65535.00
585.30	65535.00
585.46	49237.85
585.62	30281.85
585.78	13348.08
585.94	5327.06
586.10	2377.98
586.26	1551.78
586.42	1289.64
586.58	908.13
586.74	858.98
586.90	814.51
587.06	720.88
587.22	699.82
587.38	671.73
587.54	1699.23
587.70	5507.28
587.86	9488.53
588.02	10867.11
588.18	7522.48
588.34	4732.56
588.49	2988.86
588.65	1788.17
588.81	835.57
588.97	575.77
589.13	451.72
589.29	322.99
589.45	313.63
589.61	414.27
589.77	512.58
589.93	550.03
590.08	634.29
590.24	566.41
590.40	564.07
590.56	613.22
590.72	400.23
590.88	379.17
591.04	440.02
591.20	372.15
591.35	468.11
591.51	287.89
591.67	337.04
591.83	369.80
591.99	318.31
592.15	280.86
592.31	386.19
592.46	299.59
592.62	290.23
592.78	259.80
592.94	409.59
593.10	332.36
593.26	346.40
593.41	451.72
593.57	465.77
593.73	774.72
593.89	4390.84
594.05	11810.34
594.20	18635.35
594.36	17923.82
594.52	11386.71
594.68	7073.10
594.84	4624.90
594.99	2424.80
595.15	1090.69
595.31	561.73
595.47	444.70
595.62	414.27
595.78	409.59
595.94	390.87
596.10	421.30
596.25	358.10
596.41	425.98
596.57	322.99
596.73	365.12
596.88	610.88
597.04	2108.82
597.20	3655.92
597.36	4444.68
597.51	3321.22
597.67	2223.51
597.83	1437.09
597.99	1004.09
598.14	657.69
598.30	388.53
598.46	287.89
598.61	407.25
598.77	379.17
598.93	306.61
599.09	297.25
599.24	220.01
599.40	255.12
599.56	257.46
599.71	273.84
599.87	236.39
600.03	264.48
600.18	215.33
600.34	297.25
600.50	236.39
600.65	203.63
600.81	248.10
600.97	271.50
601.12	266.82
601.28	255.12
601.44	283.20
601.59	245.76
601.75	320.65
601.91	266.82
602.06	248.10
602.22	435.34
602.37	1032.18
602.53	2656.51
602.69	4341.69
602.84	4599.15
603.00	3260.37
603.16	2244.57
603.31	1448.79
603.47	973.66
603.62	449.38
603.78	386.19
603.94	313.63
604.09	330.02
604.25	341.72
604.40	250.44
604.56	259.80
604.71	318.31
604.87	292.57
605.03	322.99
605.18	299.59
605.34	344.06
605.49	292.57
605.65	332.36
605.80	346.40
605.96	444.70
606.12	435.34
606.27	404.91
606.43	348.74
606.58	456.40
606.74	1170.27
606.89	5584.52
607.05	11386.71
607.20	16182.46
607.36	12863.58
607.51	8336.99
607.67	5596.22
607.82	3691.02
607.98	1926.26
608.13	943.24
608.29	613.22
608.44	461.09
608.60	489.17
608.75	641.31
608.91	1699.23
609.06	8400.18
609.22	19597.31
609.37	27690.88
609.53	24170.71
609.68	15852.45
609.84	9795.14
609.99	6628.40
610.15	3428.88
610.30	1507.30
610.46	809.83
610.61	585.13
610.76	503.22
610.92	437.68
611.07	383.85
611.23	468.11
