SpectraSuite Data File
++++++++++++++++++++++++++++++++++++
Date: Fri Oct 04 11:46:56 GMT-05:00 2013
User: price-jones
Dark Spectrum Present: No
Reference Spectrum Present: No
Number of Sampled Component Spectra: 1
Spectrometers: USB2+H05261
Integration Time (usec): 100000 (USB2+H05261)
Spectra Averaged: 1 (USB2+H05261)
Boxcar Smoothing: 0 (USB2+H05261)
Correct for Electrical Dark: No (USB2+H05261)
Strobe/Lamp Enabled: No (USB2+H05261)
Correct for Detector Non-linearity: No (USB2+H05261)
Correct for Stray Light: No (USB2+H05261)
Number of Pixels in Processed Spectrum: 2048
>>>>>Begin Processed Spectral Data<<<<<
365.73	39.79
365.92	39.79
366.12	39.79
366.32	0.00
366.52	0.00
366.72	0.00
366.91	0.00
367.11	0.00
367.31	0.00
367.51	0.00
367.70	0.00
367.90	0.00
368.10	0.00
368.30	0.00
368.49	0.00
368.69	0.00
368.89	0.00
369.09	0.00
369.28	0.00
369.48	0.00
369.68	0.00
369.87	0.00
370.07	42.13
370.27	39.79
370.47	21.06
370.66	56.17
370.86	79.58
371.06	88.94
371.25	152.13
371.45	0.00
371.65	70.22
371.84	49.15
372.04	107.66
372.24	74.90
372.44	53.83
372.63	53.83
372.83	145.11
373.03	44.47
373.22	70.22
373.42	72.56
373.62	95.96
373.81	124.05
374.01	182.56
374.21	121.71
374.40	124.05
374.60	140.43
374.79	124.05
374.99	91.28
375.19	114.69
375.38	156.82
375.58	131.07
375.78	81.92
375.97	114.69
376.17	140.43
376.37	84.26
376.56	102.98
376.76	84.26
376.95	135.75
377.15	110.01
377.35	119.37
377.54	74.90
377.74	58.51
377.93	81.92
378.13	81.92
378.33	88.94
378.52	56.17
378.72	93.62
378.91	93.62
379.11	67.88
379.31	124.05
379.50	25.75
379.70	100.64
379.89	121.71
380.09	121.71
380.28	107.66
380.48	114.69
380.68	70.22
380.87	35.11
381.07	133.41
381.26	142.77
381.46	102.98
381.65	100.64
381.85	131.07
382.04	30.43
382.24	100.64
382.43	131.07
382.63	51.49
382.83	74.90
383.02	46.81
383.22	74.90
383.41	102.98
383.61	102.98
383.80	46.81
384.00	88.94
384.19	86.60
384.39	81.92
384.58	74.90
384.78	133.41
384.97	102.98
385.17	110.01
385.36	42.13
385.56	84.26
385.75	79.58
385.95	63.19
386.14	154.48
386.34	46.81
386.53	121.71
386.72	126.39
386.92	112.35
387.11	105.32
387.31	95.96
387.50	49.15
387.70	102.98
387.89	79.58
388.09	133.41
388.28	145.11
388.48	95.96
388.67	107.66
388.86	145.11
389.06	84.26
389.25	49.15
389.45	126.39
389.64	65.54
389.84	149.79
390.03	124.05
390.22	152.13
390.42	60.85
390.61	93.62
390.81	77.24
391.00	133.41
391.19	180.22
391.39	42.13
391.58	133.41
391.78	149.79
391.97	72.56
392.16	7.02
392.36	114.69
392.55	152.13
392.75	149.79
392.94	21.06
393.13	124.05
393.33	49.15
393.52	56.17
393.71	159.16
393.91	98.30
394.10	46.81
394.29	81.92
394.49	105.32
394.68	112.35
394.88	147.45
395.07	102.98
395.26	98.30
395.46	79.58
395.65	44.47
395.84	145.11
396.04	234.05
396.23	112.35
396.42	53.83
396.62	58.51
396.81	112.35
397.00	102.98
397.19	98.30
397.39	119.37
397.58	84.26
397.77	135.75
397.97	70.22
398.16	117.03
398.35	105.32
398.55	114.69
398.74	107.66
398.93	117.03
399.12	98.30
399.32	159.16
399.51	93.62
399.70	117.03
399.90	77.24
400.09	79.58
400.28	131.07
400.47	44.47
400.67	166.18
400.86	95.96
401.05	102.98
401.24	149.79
401.44	147.45
401.63	191.92
401.82	124.05
402.01	32.77
402.21	74.90
402.40	126.39
402.59	79.58
402.78	131.07
402.97	119.37
403.17	105.32
403.36	77.24
403.55	86.60
403.74	119.37
403.93	138.09
404.13	243.42
404.32	168.52
404.51	163.84
404.70	187.24
404.89	124.05
405.09	138.09
405.28	88.94
405.47	88.94
405.66	119.37
405.85	114.69
406.05	168.52
406.24	102.98
406.43	117.03
406.62	110.01
406.81	142.77
407.00	147.45
407.20	142.77
407.39	112.35
407.58	128.73
407.77	114.69
407.96	128.73
408.15	98.30
408.34	81.92
408.54	121.71
408.73	154.48
408.92	166.18
409.11	138.09
409.30	100.64
409.49	65.54
409.68	107.66
409.87	98.30
410.07	91.28
410.26	135.75
410.45	9.36
410.64	98.30
410.83	105.32
411.02	119.37
411.21	145.11
411.40	135.75
411.59	142.77
411.78	65.54
411.98	161.50
412.17	142.77
412.36	84.26
412.55	98.30
412.74	65.54
412.93	203.63
413.12	77.24
413.31	98.30
413.50	93.62
413.69	67.88
413.88	175.54
414.07	95.96
414.26	131.07
414.45	35.11
414.64	117.03
414.83	182.56
415.02	74.90
415.22	60.85
415.41	121.71
415.60	147.45
415.79	98.30
415.98	161.50
416.17	154.48
416.36	98.30
416.55	133.41
416.74	133.41
416.93	100.64
417.12	72.56
417.31	161.50
417.50	131.07
417.69	259.80
417.88	166.18
418.07	170.86
418.26	152.13
418.45	114.69
418.64	250.44
418.83	180.22
419.02	196.60
419.21	140.43
419.39	126.39
419.58	166.18
419.77	229.37
419.96	205.97
420.15	161.50
420.34	114.69
420.53	159.16
420.72	117.03
420.91	91.28
421.10	77.24
421.29	98.30
421.48	105.32
421.67	65.54
421.86	95.96
422.05	119.37
422.24	93.62
422.43	135.75
422.61	152.13
422.80	128.73
422.99	100.64
423.18	114.69
423.37	128.73
423.56	112.35
423.75	93.62
423.94	93.62
424.13	114.69
424.32	63.19
424.50	168.52
424.69	128.73
424.88	131.07
425.07	159.16
425.26	182.56
425.45	196.60
425.64	264.48
425.83	208.31
426.01	175.54
426.20	119.37
426.39	30.43
426.58	100.64
426.77	58.51
426.96	156.82
427.15	163.84
427.33	128.73
427.52	53.83
427.71	53.83
427.90	95.96
428.09	98.30
428.28	44.47
428.46	140.43
428.65	110.01
428.84	156.82
429.03	229.37
429.22	72.56
429.40	72.56
429.59	121.71
429.78	257.46
429.97	149.79
430.16	168.52
430.34	135.75
430.53	124.05
430.72	72.56
430.91	215.33
431.10	119.37
431.28	91.28
431.47	128.73
431.66	147.45
431.85	60.85
432.03	100.64
432.22	173.20
432.41	131.07
432.60	138.09
432.79	184.90
432.97	196.60
433.16	243.42
433.35	163.84
433.54	257.46
433.72	145.11
433.91	189.58
434.10	110.01
434.28	149.79
434.47	112.35
434.66	133.41
434.85	98.30
435.03	152.13
435.22	131.07
435.41	191.92
435.59	168.52
435.78	124.05
435.97	114.69
436.16	131.07
436.34	149.79
436.53	135.75
436.72	182.56
436.90	128.73
437.09	105.32
437.28	142.77
437.46	105.32
437.65	110.01
437.84	128.73
438.02	138.09
438.21	152.13
438.40	163.84
438.58	74.90
438.77	140.43
438.96	161.50
439.14	156.82
439.33	119.37
439.52	107.66
439.70	131.07
439.89	140.43
440.08	180.22
440.26	117.03
440.45	102.98
440.63	58.51
440.82	159.16
441.01	175.54
441.19	133.41
441.38	67.88
441.57	70.22
441.75	217.67
441.94	133.41
442.12	184.90
442.31	145.11
442.50	81.92
442.68	63.19
442.87	168.52
443.05	128.73
443.24	105.32
443.43	112.35
443.61	241.08
443.80	133.41
443.98	147.45
444.17	145.11
444.35	159.16
444.54	177.88
444.73	98.30
444.91	203.63
445.10	194.26
445.28	126.39
445.47	154.48
445.65	93.62
445.84	138.09
446.02	159.16
446.21	119.37
446.39	70.22
446.58	117.03
446.77	128.73
446.95	152.13
447.14	110.01
447.32	119.37
447.51	163.84
447.69	154.48
447.88	147.45
448.06	156.82
448.25	60.85
448.43	74.90
448.62	23.41
448.80	133.41
448.99	140.43
449.17	124.05
449.36	88.94
449.54	98.30
449.73	124.05
449.91	163.84
450.10	142.77
450.28	187.24
450.46	175.54
450.65	229.37
450.83	187.24
451.02	149.79
451.20	191.92
451.39	168.52
451.57	159.16
451.76	107.66
451.94	112.35
452.13	126.39
452.31	140.43
452.49	114.69
452.68	159.16
452.86	138.09
453.05	140.43
453.23	105.32
453.42	133.41
453.60	105.32
453.78	131.07
453.97	84.26
454.15	95.96
454.34	114.69
454.52	102.98
454.70	140.43
454.89	182.56
455.07	51.49
455.26	142.77
455.44	203.63
455.62	114.69
455.81	161.50
455.99	196.60
456.17	170.86
456.36	156.82
456.54	77.24
456.73	131.07
456.91	70.22
457.09	39.79
457.28	131.07
457.46	121.71
457.64	124.05
457.83	245.76
458.01	100.64
458.19	117.03
458.38	156.82
458.56	88.94
458.74	46.81
458.93	184.90
459.11	168.52
459.29	72.56
459.48	124.05
459.66	135.75
459.84	107.66
460.03	297.25
460.21	180.22
460.39	91.28
460.57	234.05
460.76	173.20
460.94	105.32
461.12	161.50
461.31	114.69
461.49	222.35
461.67	112.35
461.85	163.84
462.04	166.18
462.22	603.86
462.40	227.03
462.59	107.66
462.77	147.45
462.95	201.29
463.13	159.16
463.32	156.82
463.50	145.11
463.68	177.88
463.86	140.43
464.05	112.35
464.23	203.63
464.41	131.07
464.59	86.60
464.78	102.98
464.96	126.39
465.14	145.11
465.32	149.79
465.50	74.90
465.69	156.82
465.87	182.56
466.05	161.50
466.23	156.82
466.41	198.95
466.60	182.56
466.78	112.35
466.96	140.43
467.14	149.79
467.32	196.60
467.51	191.92
467.69	156.82
467.87	100.64
468.05	154.48
468.23	131.07
468.41	166.18
468.60	145.11
468.78	142.77
468.96	283.20
469.14	126.39
469.32	42.13
469.50	121.71
469.69	112.35
469.87	140.43
470.05	152.13
470.23	191.92
470.41	91.28
470.59	126.39
470.77	201.29
470.95	145.11
471.14	138.09
471.32	138.09
471.50	156.82
471.68	119.37
471.86	198.95
472.04	91.28
472.22	126.39
472.40	102.98
472.58	117.03
472.77	51.49
472.95	138.09
473.13	243.42
473.31	93.62
473.49	145.11
473.67	95.96
473.85	180.22
474.03	135.75
474.21	138.09
474.39	126.39
474.57	126.39
474.75	145.11
474.93	110.01
475.12	145.11
475.30	133.41
475.48	210.65
475.66	110.01
475.84	107.66
476.02	154.48
476.20	145.11
476.38	161.50
476.56	170.86
476.74	124.05
476.92	128.73
477.10	145.11
477.28	170.86
477.46	100.64
477.64	196.60
477.82	152.13
478.00	98.30
478.18	142.77
478.36	102.98
478.54	163.84
478.72	173.20
478.90	156.82
479.08	131.07
479.26	142.77
479.44	117.03
479.62	102.98
479.80	133.41
479.98	168.52
480.16	72.56
480.34	152.13
480.52	133.41
480.70	182.56
480.88	114.69
481.06	198.95
481.24	166.18
481.41	119.37
481.59	159.16
481.77	107.66
481.95	163.84
482.13	220.01
482.31	105.32
482.49	145.11
482.67	140.43
482.85	147.45
483.03	170.86
483.21	168.52
483.39	149.79
483.57	114.69
483.74	198.95
483.92	117.03
484.10	173.20
484.28	205.97
484.46	198.95
484.64	88.94
484.82	196.60
485.00	154.48
485.18	182.56
485.35	166.18
485.53	187.24
485.71	177.88
485.89	245.76
486.07	224.69
486.25	250.44
486.43	142.77
486.61	168.52
486.78	182.56
486.96	121.71
487.14	208.31
487.32	88.94
487.50	184.90
487.68	224.69
487.85	170.86
488.03	191.92
488.21	194.26
488.39	135.75
488.57	201.29
488.75	145.11
488.92	358.10
489.10	154.48
489.28	217.67
489.46	170.86
489.64	161.50
489.81	236.39
489.99	184.90
490.17	210.65
490.35	224.69
490.53	112.35
490.70	140.43
490.88	210.65
491.06	124.05
491.24	212.99
491.41	173.20
491.59	145.11
491.77	145.11
491.95	131.07
492.13	161.50
492.30	124.05
492.48	154.48
492.66	222.35
492.84	210.65
493.01	135.75
493.19	138.09
493.37	248.10
493.54	227.03
493.72	110.01
493.90	208.31
494.08	135.75
494.25	168.52
494.43	168.52
494.61	142.77
494.79	191.92
494.96	184.90
495.14	168.52
495.32	196.60
495.49	163.84
495.67	140.43
495.85	152.13
496.02	163.84
496.20	243.42
496.38	280.86
496.55	187.24
496.73	152.13
496.91	161.50
497.09	191.92
497.26	131.07
497.44	194.26
497.62	201.29
497.79	243.42
497.97	140.43
498.14	238.73
498.32	224.69
498.50	182.56
498.67	166.18
498.85	189.58
499.03	133.41
499.20	196.60
499.38	220.01
499.56	128.73
499.73	224.69
499.91	149.79
500.08	210.65
500.26	182.56
500.44	194.26
500.61	252.78
500.79	156.82
500.97	180.22
501.14	187.24
501.32	201.29
501.49	180.22
501.67	220.01
501.84	175.54
502.02	210.65
502.20	241.08
502.37	205.97
502.55	252.78
502.72	180.22
502.90	259.80
503.07	234.05
503.25	198.95
503.43	238.73
503.60	273.84
503.78	180.22
503.95	163.84
504.13	154.48
504.30	187.24
504.48	166.18
504.65	208.31
504.83	205.97
505.01	128.73
505.18	182.56
505.36	203.63
505.53	152.13
505.71	215.33
505.88	180.22
506.06	205.97
506.23	208.31
506.41	131.07
506.58	285.55
506.76	229.37
506.93	121.71
507.11	177.88
507.28	203.63
507.46	217.67
507.63	201.29
507.81	208.31
507.98	224.69
508.16	177.88
508.33	170.86
508.50	138.09
508.68	182.56
508.85	229.37
509.03	156.82
509.20	248.10
509.38	154.48
509.55	222.35
509.73	220.01
509.90	250.44
510.08	175.54
510.25	248.10
510.42	205.97
510.60	142.77
510.77	245.76
510.95	243.42
511.12	203.63
511.30	325.33
511.47	187.24
511.64	245.76
511.82	269.16
511.99	243.42
512.17	166.18
512.34	212.99
512.51	182.56
512.69	212.99
512.86	255.12
513.04	189.58
513.21	236.39
513.38	205.97
513.56	163.84
513.73	210.65
513.90	124.05
514.08	156.82
514.25	217.67
514.43	259.80
514.60	168.52
514.77	138.09
514.95	119.37
515.12	189.58
515.29	231.71
515.47	243.42
515.64	107.66
515.81	252.78
515.99	269.16
516.16	170.86
516.33	259.80
516.51	189.58
516.68	117.03
516.85	119.37
517.03	166.18
517.20	201.29
517.37	217.67
517.54	149.79
517.72	156.82
517.89	180.22
518.06	203.63
518.24	306.61
518.41	203.63
518.58	201.29
518.75	266.82
518.93	170.86
519.10	177.88
519.27	205.97
519.45	201.29
519.62	189.58
519.79	205.97
519.96	117.03
520.14	133.41
520.31	292.57
520.48	236.39
520.65	196.60
520.83	264.48
521.00	201.29
521.17	189.58
521.34	236.39
521.52	222.35
521.69	173.20
521.86	152.13
522.03	201.29
522.20	194.26
522.38	154.48
522.55	212.99
522.72	140.43
522.89	184.90
523.07	252.78
523.24	224.69
523.41	203.63
523.58	203.63
523.75	196.60
523.92	152.13
524.10	175.54
524.27	262.14
524.44	238.73
524.61	322.99
524.78	198.95
524.96	205.97
525.13	217.67
525.30	140.43
525.47	208.31
525.64	212.99
525.81	238.73
525.98	243.42
526.16	168.52
526.33	208.31
526.50	182.56
526.67	205.97
526.84	189.58
527.01	208.31
527.18	198.95
527.36	224.69
527.53	205.97
527.70	259.80
527.87	196.60
528.04	245.76
528.21	196.60
528.38	229.37
528.55	234.05
528.72	224.69
528.89	283.20
529.07	154.48
529.24	234.05
529.41	203.63
529.58	252.78
529.75	222.35
529.92	217.67
530.09	187.24
530.26	255.12
530.43	170.86
530.60	215.33
530.77	236.39
530.94	229.37
531.11	177.88
531.28	147.45
531.46	217.67
531.63	229.37
531.80	222.35
531.97	191.92
532.14	175.54
532.31	114.69
532.48	238.73
532.65	283.20
532.82	386.19
532.99	358.10
533.16	308.95
533.33	271.50
533.50	257.46
533.67	304.27
533.84	428.32
534.01	409.59
534.18	327.68
534.35	212.99
534.52	257.46
534.69	250.44
534.86	189.58
535.03	145.11
535.20	231.71
535.37	292.57
535.54	168.52
535.71	189.58
535.88	215.33
536.05	201.29
536.22	238.73
536.38	245.76
536.55	217.67
536.72	191.92
536.89	180.22
537.06	196.60
537.23	184.90
537.40	145.11
537.57	161.50
537.74	262.14
537.91	212.99
538.08	217.67
538.25	177.88
538.42	133.41
538.59	175.54
538.75	205.97
538.92	180.22
539.09	299.59
539.26	278.52
539.43	463.43
539.60	1118.78
539.77	1834.98
539.94	1732.00
540.11	1097.71
540.28	580.45
540.44	507.90
540.61	332.36
540.78	215.33
540.95	191.92
541.12	222.35
541.29	250.44
541.46	245.76
541.62	201.29
541.79	259.80
541.96	154.48
542.13	173.20
542.30	205.97
542.47	234.05
542.63	273.84
542.80	238.73
542.97	259.80
543.14	245.76
543.31	191.92
543.48	182.56
543.64	196.60
543.81	198.95
543.98	152.13
544.15	142.77
544.32	161.50
544.48	269.16
544.65	217.67
544.82	124.05
544.99	276.18
545.16	187.24
545.32	170.86
545.49	191.92
545.66	234.05
545.83	163.84
546.00	159.16
546.16	210.65
546.33	173.20
546.50	187.24
546.67	222.35
546.83	152.13
547.00	140.43
547.17	184.90
547.34	119.37
547.50	245.76
547.67	234.05
547.84	229.37
548.00	243.42
548.17	180.22
548.34	234.05
548.51	131.07
548.67	250.44
548.84	72.56
549.01	191.92
549.18	224.69
549.34	266.82
549.51	187.24
549.68	210.65
549.84	194.26
550.01	187.24
550.18	283.20
550.34	315.97
550.51	238.73
550.68	173.20
550.84	266.82
551.01	285.55
551.18	227.03
551.34	140.43
551.51	217.67
551.68	147.45
551.84	220.01
552.01	133.41
552.18	238.73
552.34	208.31
552.51	227.03
552.68	177.88
552.84	198.95
553.01	156.82
553.18	215.33
553.34	170.86
553.51	248.10
553.67	175.54
553.84	215.33
554.01	196.60
554.17	156.82
554.34	107.66
554.51	224.69
554.67	255.12
554.84	269.16
555.00	248.10
555.17	156.82
555.33	163.84
555.50	227.03
555.67	210.65
555.83	238.73
556.00	210.65
556.16	341.72
556.33	212.99
556.50	238.73
556.66	191.92
556.83	215.33
556.99	131.07
557.16	198.95
557.32	168.52
557.49	142.77
557.65	236.39
557.82	145.11
557.98	271.50
558.15	159.16
558.32	140.43
558.48	194.26
558.65	196.60
558.81	217.67
558.98	210.65
559.14	184.90
559.31	250.44
559.47	238.73
559.64	163.84
559.80	173.20
559.97	166.18
560.13	222.35
560.30	236.39
560.46	154.48
560.63	182.56
560.79	212.99
560.96	229.37
561.12	149.79
561.29	152.13
561.45	231.71
561.61	243.42
561.78	341.72
561.94	215.33
562.11	245.76
562.27	203.63
562.44	198.95
562.60	203.63
562.77	166.18
562.93	170.86
563.10	241.08
563.26	147.45
563.42	215.33
563.59	147.45
563.75	212.99
563.92	220.01
564.08	159.16
564.24	203.63
564.41	243.42
564.57	156.82
564.74	215.33
564.90	175.54
565.07	259.80
565.23	205.97
565.39	231.71
565.56	280.86
565.72	177.88
565.88	243.42
566.05	227.03
566.21	248.10
566.38	264.48
566.54	224.69
566.70	189.58
566.87	147.45
567.03	163.84
567.19	189.58
567.36	217.67
567.52	201.29
567.68	220.01
567.85	170.86
568.01	227.03
568.17	152.13
568.34	224.69
568.50	250.44
568.66	212.99
568.83	271.50
568.99	266.82
569.15	243.42
569.32	184.90
569.48	147.45
569.64	191.92
569.81	203.63
569.97	189.58
570.13	259.80
570.30	170.86
570.46	126.39
570.62	210.65
570.78	222.35
570.95	166.18
571.11	236.39
571.27	166.18
571.43	196.60
571.60	290.23
571.76	161.50
571.92	262.14
572.09	203.63
572.25	191.92
572.41	201.29
572.57	238.73
572.74	241.08
572.90	217.67
573.06	180.22
573.22	255.12
573.38	283.20
573.55	212.99
573.71	201.29
573.87	145.11
574.03	227.03
574.20	201.29
574.36	283.20
574.52	337.04
574.68	334.70
574.84	330.02
575.01	271.50
575.17	255.12
575.33	198.95
575.49	243.42
575.65	231.71
575.82	318.31
575.98	557.05
576.14	784.08
576.30	812.17
576.46	594.50
576.62	463.43
576.79	318.31
576.95	325.33
577.11	243.42
577.27	262.14
577.43	313.63
577.59	297.25
577.75	264.48
577.92	266.82
578.08	220.01
578.24	273.84
578.40	180.22
578.56	280.86
578.72	276.18
578.88	287.89
579.04	229.37
579.21	255.12
579.37	220.01
579.53	297.25
579.69	308.95
579.85	285.55
580.01	334.70
580.17	428.32
580.33	346.40
580.49	322.99
580.65	393.21
580.82	376.83
580.98	339.38
581.14	276.18
581.30	428.32
581.46	472.79
581.62	507.90
581.78	655.35
581.94	671.73
582.10	550.03
582.26	442.36
582.42	465.77
582.58	355.76
582.74	379.17
582.90	458.74
583.06	477.47
583.22	507.90
583.38	552.37
583.54	484.49
583.70	599.18
583.86	732.59
584.02	887.06
584.18	1048.56
584.34	1284.95
584.50	3602.08
584.66	27585.55
584.82	60289.86
584.98	65535.00
585.14	65535.00
585.30	58202.10
585.46	35264.85
585.62	21762.30
585.78	9963.66
585.94	3889.97
586.10	1874.77
586.26	1100.05
586.42	947.92
586.58	755.99
586.74	667.05
586.90	613.22
587.06	594.50
587.22	603.86
587.38	568.75
587.54	1259.21
587.70	4009.34
587.86	6724.36
588.02	7667.60
588.18	5535.37
588.34	3438.25
588.49	2167.34
588.65	1409.00
588.81	713.86
588.97	353.42
589.13	315.97
589.29	318.31
589.45	306.61
589.61	313.63
589.77	468.11
589.93	444.70
590.08	491.51
590.24	533.64
590.40	468.11
590.56	409.59
590.72	334.70
590.88	372.15
591.04	341.72
591.20	313.63
591.35	348.74
591.51	369.80
591.67	355.76
591.83	203.63
591.99	280.86
592.15	236.39
592.31	252.78
592.46	301.93
592.62	294.91
592.78	299.59
592.94	220.01
593.10	308.95
593.26	304.27
593.41	313.63
593.57	308.95
593.73	631.94
593.89	3246.32
594.05	8369.76
594.20	13408.93
594.36	12868.27
594.52	8334.65
594.68	5170.24
594.84	3213.56
594.99	1774.13
595.15	812.17
595.31	421.30
595.47	315.97
595.62	330.02
595.78	280.86
595.94	339.38
596.10	320.65
596.25	320.65
596.41	421.30
596.57	365.12
596.73	325.33
596.88	671.73
597.04	1633.69
597.20	2637.78
597.36	3471.01
597.51	2471.61
597.67	1591.56
597.83	1036.86
597.99	716.20
598.14	447.04
598.30	386.19
598.46	327.68
598.61	397.89
598.77	229.37
598.93	325.33
599.09	198.95
599.24	210.65
599.40	322.99
599.56	189.58
599.71	308.95
599.87	231.71
600.03	229.37
600.18	280.86
600.34	243.42
600.50	184.90
600.65	224.69
600.81	217.67
600.97	210.65
601.12	238.73
601.28	229.37
601.44	220.01
601.59	210.65
601.75	231.71
601.91	149.79
602.06	290.23
602.22	334.70
602.37	779.40
602.53	2015.20
602.69	3173.77
602.84	3431.23
603.00	2361.60
603.16	1675.82
603.31	1151.54
603.47	800.46
603.62	423.64
603.78	290.23
603.94	269.16
604.09	236.39
604.25	348.74
604.40	255.12
604.56	191.92
604.71	234.05
604.87	243.42
605.03	205.97
605.18	266.82
605.34	250.44
605.49	304.27
605.65	243.42
605.80	262.14
605.96	241.08
606.12	287.89
606.27	313.63
606.43	344.06
606.58	430.66
606.74	922.17
606.89	4088.92
607.05	8514.87
607.20	11379.68
607.36	9322.35
607.51	6249.23
607.67	4023.38
607.82	2649.49
607.98	1383.26
608.13	805.14
608.29	519.60
608.44	444.70
608.60	489.17
608.75	477.47
608.91	1275.59
609.06	6181.35
609.22	14274.93
609.37	19756.46
609.53	17493.16
609.68	11791.62
609.84	7225.23
609.99	4910.44
610.15	2455.22
610.30	1153.88
610.46	683.44
610.61	517.26
610.76	390.87
610.92	386.19
611.07	341.72
611.23	409.59
611.38	313.63
611.54	360.44
