SpectraSuite Data File
++++++++++++++++++++++++++++++++++++
Date: Fri Oct 04 11:47:04 GMT-05:00 2013
User: price-jones
Dark Spectrum Present: No
Reference Spectrum Present: No
Number of Sampled Component Spectra: 1
Spectrometers: USB2+H05261
Integration Time (usec): 100000 (USB2+H05261)
Spectra Averaged: 1 (USB2+H05261)
Boxcar Smoothing: 0 (USB2+H05261)
Correct for Electrical Dark: No (USB2+H05261)
Strobe/Lamp Enabled: No (USB2+H05261)
Correct for Detector Non-linearity: No (USB2+H05261)
Correct for Stray Light: No (USB2+H05261)
Number of Pixels in Processed Spectrum: 2048
>>>>>Begin Processed Spectral Data<<<<<
365.73	102.98
365.92	102.98
366.12	102.98
366.32	4.68
366.52	0.00
366.72	0.00
366.91	0.00
367.11	0.00
367.31	0.00
367.51	0.00
367.70	0.00
367.90	28.09
368.10	0.00
368.30	0.00
368.49	0.00
368.69	0.00
368.89	0.00
369.09	0.00
369.28	0.00
369.48	0.00
369.68	0.00
369.87	4.68
370.07	0.00
370.27	0.00
370.47	0.00
370.66	32.77
370.86	70.22
371.06	58.51
371.25	124.05
371.45	149.79
371.65	28.09
371.84	67.88
372.04	35.11
372.24	44.47
372.44	25.75
372.63	30.43
372.83	79.58
373.03	84.26
373.22	11.70
373.42	77.24
373.62	93.62
373.81	135.75
374.01	65.54
374.21	140.43
374.40	126.39
374.60	81.92
374.79	112.35
374.99	32.77
375.19	152.13
375.38	140.43
375.58	72.56
375.78	81.92
375.97	133.41
376.17	154.48
376.37	93.62
376.56	105.32
376.76	56.17
376.95	105.32
377.15	149.79
377.35	142.77
377.54	93.62
377.74	70.22
377.93	42.13
378.13	112.35
378.33	114.69
378.52	77.24
378.72	119.37
378.91	95.96
379.11	46.81
379.31	56.17
379.50	100.64
379.70	128.73
379.89	114.69
380.09	88.94
380.28	74.90
380.48	21.06
380.68	56.17
380.87	11.70
381.07	131.07
381.26	28.09
381.46	28.09
381.65	35.11
381.85	0.00
382.04	72.56
382.24	112.35
382.43	81.92
382.63	117.03
382.83	138.09
383.02	126.39
383.22	149.79
383.41	79.58
383.61	79.58
383.80	77.24
384.00	23.41
384.19	112.35
384.39	77.24
384.58	84.26
384.78	133.41
384.97	170.86
385.17	114.69
385.36	159.16
385.56	166.18
385.75	4.68
385.95	77.24
386.14	70.22
386.34	93.62
386.53	102.98
386.72	30.43
386.92	184.90
387.11	67.88
387.31	154.48
387.50	93.62
387.70	0.00
387.89	126.39
388.09	49.15
388.28	138.09
388.48	121.71
388.67	140.43
388.86	102.98
389.06	107.66
389.25	161.50
389.45	95.96
389.64	114.69
389.84	210.65
390.03	53.83
390.22	72.56
390.42	63.19
390.61	16.38
390.81	65.54
391.00	77.24
391.19	128.73
391.39	0.00
391.58	131.07
391.78	79.58
391.97	159.16
392.16	98.30
392.36	135.75
392.55	114.69
392.75	91.28
392.94	72.56
393.13	72.56
393.33	16.38
393.52	133.41
393.71	100.64
393.91	117.03
394.10	95.96
394.29	191.92
394.49	152.13
394.68	140.43
394.88	177.88
395.07	91.28
395.26	102.98
395.46	102.98
395.65	88.94
395.84	86.60
396.04	145.11
396.23	149.79
396.42	100.64
396.62	156.82
396.81	88.94
397.00	110.01
397.19	77.24
397.39	74.90
397.58	149.79
397.77	49.15
397.97	72.56
398.16	30.43
398.35	121.71
398.55	124.05
398.74	114.69
398.93	98.30
399.12	198.95
399.32	107.66
399.51	161.50
399.70	93.62
399.90	131.07
400.09	124.05
400.28	117.03
400.47	170.86
400.67	124.05
400.86	102.98
401.05	117.03
401.24	170.86
401.44	159.16
401.63	112.35
401.82	133.41
402.01	100.64
402.21	128.73
402.40	121.71
402.59	145.11
402.78	37.45
402.97	67.88
403.17	105.32
403.36	147.45
403.55	126.39
403.74	168.52
403.93	145.11
404.13	135.75
404.32	145.11
404.51	121.71
404.70	77.24
404.89	49.15
405.09	152.13
405.28	142.77
405.47	102.98
405.66	119.37
405.85	135.75
406.05	93.62
406.24	140.43
406.43	93.62
406.62	124.05
406.81	135.75
407.00	147.45
407.20	102.98
407.39	65.54
407.58	126.39
407.77	105.32
407.96	175.54
408.15	126.39
408.34	88.94
408.54	86.60
408.73	70.22
408.92	81.92
409.11	105.32
409.30	58.51
409.49	51.49
409.68	140.43
409.87	74.90
410.07	138.09
410.26	163.84
410.45	88.94
410.64	124.05
410.83	100.64
411.02	88.94
411.21	86.60
411.40	131.07
411.59	168.52
411.78	117.03
411.98	166.18
412.17	58.51
412.36	88.94
412.55	77.24
412.74	163.84
412.93	70.22
413.12	79.58
413.31	110.01
413.50	187.24
413.69	107.66
413.88	98.30
414.07	112.35
414.26	70.22
414.45	98.30
414.64	133.41
414.83	163.84
415.02	81.92
415.22	91.28
415.41	161.50
415.60	86.60
415.79	142.77
415.98	112.35
416.17	100.64
416.36	135.75
416.55	88.94
416.74	95.96
416.93	149.79
417.12	145.11
417.31	126.39
417.50	131.07
417.69	205.97
417.88	163.84
418.07	212.99
418.26	175.54
418.45	184.90
418.64	231.71
418.83	285.55
419.02	159.16
419.21	126.39
419.39	196.60
419.58	135.75
419.77	177.88
419.96	175.54
420.15	138.09
420.34	79.58
420.53	114.69
420.72	140.43
420.91	112.35
421.10	88.94
421.29	100.64
421.48	133.41
421.67	156.82
421.86	140.43
422.05	35.11
422.24	114.69
422.43	124.05
422.61	102.98
422.80	84.26
422.99	135.75
423.18	135.75
423.37	121.71
423.56	93.62
423.75	114.69
423.94	46.81
424.13	131.07
424.32	39.79
424.50	102.98
424.69	0.00
424.88	110.01
425.07	102.98
425.26	166.18
425.45	248.10
425.64	252.78
425.83	212.99
426.01	175.54
426.20	126.39
426.39	187.24
426.58	152.13
426.77	88.94
426.96	124.05
427.15	98.30
427.33	147.45
427.52	191.92
427.71	154.48
427.90	135.75
428.09	95.96
428.28	121.71
428.46	140.43
428.65	119.37
428.84	159.16
429.03	135.75
429.22	138.09
429.40	140.43
429.59	98.30
429.78	133.41
429.97	105.32
430.16	56.17
430.34	95.96
430.53	119.37
430.72	168.52
430.91	65.54
431.10	39.79
431.28	79.58
431.47	119.37
431.66	114.69
431.85	79.58
432.03	77.24
432.22	163.84
432.41	93.62
432.60	124.05
432.79	191.92
432.97	238.73
433.16	220.01
433.35	208.31
433.54	159.16
433.72	196.60
433.91	198.95
434.10	212.99
434.28	210.65
434.47	210.65
434.66	182.56
434.85	39.79
435.03	53.83
435.22	210.65
435.41	98.30
435.59	142.77
435.78	159.16
435.97	128.73
436.16	110.01
436.34	152.13
436.53	91.28
436.72	102.98
436.90	119.37
437.09	184.90
437.28	77.24
437.46	98.30
437.65	107.66
437.84	168.52
438.02	152.13
438.21	133.41
438.40	140.43
438.58	30.43
438.77	140.43
438.96	91.28
439.14	91.28
439.33	152.13
439.52	173.20
439.70	126.39
439.89	175.54
440.08	147.45
440.26	74.90
440.45	28.09
440.63	138.09
440.82	177.88
441.01	67.88
441.19	154.48
441.38	138.09
441.57	112.35
441.75	102.98
441.94	220.01
442.12	180.22
442.31	131.07
442.50	121.71
442.68	119.37
442.87	91.28
443.05	163.84
443.24	114.69
443.43	166.18
443.61	177.88
443.80	70.22
443.98	100.64
444.17	67.88
444.35	63.19
444.54	159.16
444.73	0.00
444.91	152.13
445.10	112.35
445.28	147.45
445.47	121.71
445.65	133.41
445.84	140.43
446.02	114.69
446.21	100.64
446.39	35.11
446.58	168.52
446.77	74.90
446.95	84.26
447.14	121.71
447.32	170.86
447.51	154.48
447.69	212.99
447.88	154.48
448.06	257.46
448.25	112.35
448.43	170.86
448.62	145.11
448.80	152.13
448.99	142.77
449.17	147.45
449.36	56.17
449.54	191.92
449.73	91.28
449.91	184.90
450.10	168.52
450.28	215.33
450.46	210.65
450.65	159.16
450.83	131.07
451.02	177.88
451.20	93.62
451.39	147.45
451.57	149.79
451.76	107.66
451.94	124.05
452.13	149.79
452.31	177.88
452.49	180.22
452.68	131.07
452.86	107.66
453.05	168.52
453.23	84.26
453.42	114.69
453.60	194.26
453.78	70.22
453.97	156.82
454.15	91.28
454.34	112.35
454.52	166.18
454.70	189.58
454.89	114.69
455.07	138.09
455.26	133.41
455.44	121.71
455.62	114.69
455.81	77.24
455.99	91.28
456.17	133.41
456.36	161.50
456.54	95.96
456.73	114.69
456.91	114.69
457.09	140.43
457.28	159.16
457.46	142.77
457.64	170.86
457.83	121.71
458.01	140.43
458.19	163.84
458.38	159.16
458.56	98.30
458.74	147.45
458.93	173.20
459.11	187.24
459.29	79.58
459.48	147.45
459.66	182.56
459.84	133.41
460.03	266.82
460.21	133.41
460.39	161.50
460.57	119.37
460.76	149.79
460.94	177.88
461.12	252.78
461.31	86.60
461.49	119.37
461.67	159.16
461.85	142.77
462.04	112.35
462.22	643.65
462.40	161.50
462.59	154.48
462.77	70.22
462.95	126.39
463.13	128.73
463.32	210.65
463.50	105.32
463.68	107.66
463.86	107.66
464.05	84.26
464.23	173.20
464.41	187.24
464.59	126.39
464.78	159.16
464.96	88.94
465.14	138.09
465.32	112.35
465.50	95.96
465.69	175.54
465.87	175.54
466.05	208.31
466.23	173.20
466.41	133.41
466.60	98.30
466.78	152.13
466.96	229.37
467.14	159.16
467.32	189.58
467.51	133.41
467.69	117.03
467.87	208.31
468.05	156.82
468.23	154.48
468.41	72.56
468.60	72.56
468.78	110.01
468.96	98.30
469.14	135.75
469.32	23.41
469.50	72.56
469.69	163.84
469.87	166.18
470.05	100.64
470.23	107.66
470.41	168.52
470.59	91.28
470.77	147.45
470.95	147.45
471.14	212.99
471.32	121.71
471.50	248.10
471.68	60.85
471.86	121.71
472.04	124.05
472.22	201.29
472.40	259.80
472.58	173.20
472.77	133.41
472.95	163.84
473.13	156.82
473.31	161.50
473.49	194.26
473.67	79.58
473.85	184.90
474.03	145.11
474.21	166.18
474.39	196.60
474.57	161.50
474.75	63.19
474.93	145.11
475.12	84.26
475.30	65.54
475.48	191.92
475.66	119.37
475.84	107.66
476.02	117.03
476.20	170.86
476.38	140.43
476.56	201.29
476.74	79.58
476.92	74.90
477.10	177.88
477.28	229.37
477.46	163.84
477.64	119.37
477.82	98.30
478.00	187.24
478.18	154.48
478.36	166.18
478.54	140.43
478.72	114.69
478.90	161.50
479.08	168.52
479.26	149.79
479.44	149.79
479.62	168.52
479.80	131.07
479.98	152.13
480.16	135.75
480.34	236.39
480.52	135.75
480.70	189.58
480.88	114.69
481.06	163.84
481.24	145.11
481.41	133.41
481.59	140.43
481.77	152.13
481.95	152.13
482.13	147.45
482.31	142.77
482.49	140.43
482.67	236.39
482.85	152.13
483.03	159.16
483.21	131.07
483.39	107.66
483.57	173.20
483.74	252.78
483.92	217.67
484.10	163.84
484.28	217.67
484.46	208.31
484.64	117.03
484.82	100.64
485.00	161.50
485.18	159.16
485.35	168.52
485.53	145.11
485.71	189.58
485.89	126.39
486.07	152.13
486.25	220.01
486.43	224.69
486.61	149.79
486.78	194.26
486.96	163.84
487.14	95.96
487.32	156.82
487.50	135.75
487.68	147.45
487.85	168.52
488.03	170.86
488.21	161.50
488.39	147.45
488.57	156.82
488.75	175.54
488.92	383.85
489.10	212.99
489.28	201.29
489.46	140.43
489.64	196.60
489.81	135.75
489.99	205.97
490.17	156.82
490.35	205.97
490.53	201.29
490.70	224.69
490.88	170.86
491.06	114.69
491.24	201.29
491.41	184.90
491.59	177.88
491.77	166.18
491.95	177.88
492.13	126.39
492.30	145.11
492.48	142.77
492.66	170.86
492.84	138.09
493.01	156.82
493.19	156.82
493.37	266.82
493.54	222.35
493.72	175.54
493.90	189.58
494.08	229.37
494.25	201.29
494.43	217.67
494.61	224.69
494.79	121.71
494.96	163.84
495.14	222.35
495.32	149.79
495.49	208.31
495.67	194.26
495.85	147.45
496.02	156.82
496.20	215.33
496.38	180.22
496.55	168.52
496.73	229.37
496.91	175.54
497.09	220.01
497.26	208.31
497.44	236.39
497.62	177.88
497.79	173.20
497.97	212.99
498.14	227.03
498.32	248.10
498.50	135.75
498.67	184.90
498.85	215.33
499.03	245.76
499.20	194.26
499.38	194.26
499.56	252.78
499.73	266.82
499.91	278.52
500.08	248.10
500.26	173.20
500.44	135.75
500.61	175.54
500.79	133.41
500.97	198.95
501.14	159.16
501.32	175.54
501.49	147.45
501.67	131.07
501.84	205.97
502.02	149.79
502.20	201.29
502.37	208.31
502.55	203.63
502.72	241.08
502.90	227.03
503.07	229.37
503.25	163.84
503.43	215.33
503.60	217.67
503.78	227.03
503.95	173.20
504.13	163.84
504.30	238.73
504.48	194.26
504.65	236.39
504.83	215.33
505.01	170.86
505.18	189.58
505.36	208.31
505.53	203.63
505.71	154.48
505.88	217.67
506.06	205.97
506.23	212.99
506.41	201.29
506.58	184.90
506.76	196.60
506.93	161.50
507.11	255.12
507.28	217.67
507.46	126.39
507.63	168.52
507.81	196.60
507.98	208.31
508.16	180.22
508.33	215.33
508.50	255.12
508.68	147.45
508.85	107.66
509.03	121.71
509.20	170.86
509.38	159.16
509.55	215.33
509.73	196.60
509.90	173.20
510.08	215.33
510.25	191.92
510.42	112.35
510.60	234.05
510.77	201.29
510.95	248.10
511.12	196.60
511.30	337.04
511.47	341.72
511.64	276.18
511.82	283.20
511.99	231.71
512.17	191.92
512.34	168.52
512.51	201.29
512.69	161.50
512.86	229.37
513.04	180.22
513.21	119.37
513.38	189.58
513.56	184.90
513.73	201.29
513.90	224.69
514.08	210.65
514.25	175.54
514.43	215.33
514.60	163.84
514.77	114.69
514.95	220.01
515.12	234.05
515.29	180.22
515.47	266.82
515.64	208.31
515.81	161.50
515.99	205.97
516.16	245.76
516.33	257.46
516.51	147.45
516.68	156.82
516.85	156.82
517.03	175.54
517.20	241.08
517.37	198.95
517.54	180.22
517.72	234.05
517.89	128.73
518.06	110.01
518.24	238.73
518.41	191.92
518.58	283.20
518.75	229.37
518.93	227.03
519.10	222.35
519.27	231.71
519.45	212.99
519.62	145.11
519.79	208.31
519.96	140.43
520.14	252.78
520.31	245.76
520.48	271.50
520.65	215.33
520.83	264.48
521.00	283.20
521.17	205.97
521.34	161.50
521.52	159.16
521.69	180.22
521.86	252.78
522.03	241.08
522.20	273.84
522.38	177.88
522.55	229.37
522.72	110.01
522.89	210.65
523.07	227.03
523.24	210.65
523.41	131.07
523.58	173.20
523.75	234.05
523.92	245.76
524.10	273.84
524.27	119.37
524.44	210.65
524.61	299.59
524.78	205.97
524.96	196.60
525.13	166.18
525.30	257.46
525.47	255.12
525.64	170.86
525.81	198.95
525.98	205.97
526.16	177.88
526.33	140.43
526.50	121.71
526.67	234.05
526.84	110.01
527.01	182.56
527.18	243.42
527.36	217.67
527.53	163.84
527.70	236.39
527.87	248.10
528.04	245.76
528.21	133.41
528.38	231.71
528.55	212.99
528.72	290.23
528.89	325.33
529.07	259.80
529.24	180.22
529.41	287.89
529.58	203.63
529.75	177.88
529.92	198.95
530.09	212.99
530.26	177.88
530.43	161.50
530.60	154.48
530.77	224.69
530.94	283.20
531.11	189.58
531.28	133.41
531.46	205.97
531.63	208.31
531.80	257.46
531.97	252.78
532.14	175.54
532.31	203.63
532.48	311.29
532.65	360.44
532.82	386.19
532.99	440.02
533.16	330.02
533.33	262.14
533.50	287.89
533.67	372.15
533.84	440.02
534.01	449.38
534.18	346.40
534.35	318.31
534.52	259.80
534.69	322.99
534.86	152.13
535.03	177.88
535.20	208.31
535.37	222.35
535.54	231.71
535.71	196.60
535.88	285.55
536.05	189.58
536.22	234.05
536.38	138.09
536.55	250.44
536.72	297.25
536.89	262.14
537.06	191.92
537.23	177.88
537.40	238.73
537.57	220.01
537.74	238.73
537.91	257.46
538.08	205.97
538.25	297.25
538.42	212.99
538.59	234.05
538.75	241.08
538.92	264.48
539.09	217.67
539.26	243.42
539.43	524.28
539.60	1444.11
539.77	2209.47
539.94	2097.12
540.11	1282.61
540.28	851.96
540.44	620.24
540.61	344.06
540.78	259.80
540.95	250.44
541.12	313.63
541.29	210.65
541.46	241.08
541.62	257.46
541.79	180.22
541.96	227.03
542.13	191.92
542.30	149.79
542.47	264.48
542.63	191.92
542.80	203.63
542.97	236.39
543.14	276.18
543.31	196.60
543.48	234.05
543.64	243.42
543.81	224.69
543.98	210.65
544.15	189.58
544.32	266.82
544.48	236.39
544.65	191.92
544.82	212.99
544.99	273.84
545.16	257.46
545.32	220.01
545.49	205.97
545.66	191.92
545.83	201.29
546.00	189.58
546.16	170.86
546.33	243.42
546.50	245.76
546.67	208.31
546.83	234.05
547.00	198.95
547.17	222.35
547.34	236.39
547.50	182.56
547.67	152.13
547.84	177.88
548.00	175.54
548.17	189.58
548.34	212.99
548.51	241.08
548.67	212.99
548.84	191.92
549.01	262.14
549.18	201.29
549.34	238.73
549.51	294.91
549.68	201.29
549.84	161.50
550.01	161.50
550.18	341.72
550.34	238.73
550.51	161.50
550.68	341.72
550.84	135.75
551.01	180.22
551.18	203.63
551.34	236.39
551.51	135.75
551.68	222.35
551.84	156.82
552.01	191.92
552.18	180.22
552.34	229.37
552.51	243.42
552.68	203.63
552.84	177.88
553.01	163.84
553.18	191.92
553.34	107.66
553.51	168.52
553.67	222.35
553.84	255.12
554.01	259.80
554.17	224.69
554.34	180.22
554.51	210.65
554.67	210.65
554.84	161.50
555.00	224.69
555.17	208.31
555.33	294.91
555.50	198.95
555.67	259.80
555.83	231.71
556.00	276.18
556.16	374.49
556.33	290.23
556.50	208.31
556.66	238.73
556.83	215.33
556.99	196.60
557.16	201.29
557.32	210.65
557.49	231.71
557.65	161.50
557.82	210.65
557.98	194.26
558.15	187.24
558.32	236.39
558.48	215.33
558.65	231.71
558.81	194.26
558.98	208.31
559.14	297.25
559.31	159.16
559.47	159.16
559.64	187.24
559.80	177.88
559.97	177.88
560.13	210.65
560.30	191.92
560.46	156.82
560.63	271.50
560.79	203.63
560.96	198.95
561.12	208.31
561.29	156.82
561.45	227.03
561.61	187.24
561.78	276.18
561.94	184.90
562.11	152.13
562.27	180.22
562.44	142.77
562.60	271.50
562.77	114.69
562.93	285.55
563.10	229.37
563.26	194.26
563.42	177.88
563.59	266.82
563.75	187.24
563.92	278.52
564.08	203.63
564.24	318.31
564.41	304.27
564.57	168.52
564.74	180.22
564.90	196.60
565.07	177.88
565.23	262.14
565.39	257.46
565.56	266.82
565.72	257.46
565.88	266.82
566.05	227.03
566.21	222.35
566.38	234.05
566.54	194.26
566.70	163.84
566.87	266.82
567.03	180.22
567.19	191.92
567.36	173.20
567.52	124.05
567.68	173.20
567.85	245.76
568.01	201.29
568.17	215.33
568.34	140.43
568.50	280.86
568.66	231.71
568.83	318.31
568.99	189.58
569.15	299.59
569.32	229.37
569.48	208.31
569.64	243.42
569.81	191.92
569.97	198.95
570.13	168.52
570.30	215.33
570.46	159.16
570.62	205.97
570.78	248.10
570.95	170.86
571.11	210.65
571.27	229.37
571.43	196.60
571.60	248.10
571.76	252.78
571.92	184.90
572.09	229.37
572.25	236.39
572.41	189.58
572.57	231.71
572.74	224.69
572.90	227.03
573.06	222.35
573.22	205.97
573.38	205.97
573.55	212.99
573.71	325.33
573.87	182.56
574.03	252.78
574.20	264.48
574.36	322.99
574.52	355.76
574.68	381.51
574.84	360.44
575.01	299.59
575.17	278.52
575.33	196.60
575.49	205.97
575.65	255.12
575.82	388.53
575.98	730.25
576.14	901.11
576.30	814.51
576.46	678.76
576.62	514.92
576.79	402.57
576.95	304.27
577.11	269.16
577.27	220.01
577.43	264.48
577.59	255.12
577.75	266.82
577.92	290.23
578.08	297.25
578.24	243.42
578.40	320.65
578.56	304.27
578.72	344.06
578.88	259.80
579.04	308.95
579.21	297.25
579.37	287.89
579.53	353.42
579.69	318.31
579.85	276.18
580.01	425.98
580.17	486.83
580.33	486.83
580.49	374.49
580.65	416.62
580.82	404.91
580.98	318.31
581.14	374.49
581.30	386.19
581.46	521.94
581.62	692.80
581.78	770.04
581.94	774.72
582.10	533.64
582.26	470.45
582.42	458.74
582.58	468.11
582.74	507.90
582.90	475.13
583.06	458.74
583.22	543.00
583.38	510.24
583.54	610.88
583.70	751.31
583.86	868.34
584.02	1022.81
584.18	1268.57
584.34	1675.82
584.50	4805.12
584.66	37801.99
584.82	65535.00
584.98	65535.00
585.14	65535.00
585.30	64741.56
585.46	44744.02
585.62	27304.69
585.78	12327.60
585.94	4875.34
586.10	2230.53
586.26	1406.66
586.42	1039.20
586.58	947.92
586.74	692.80
586.90	863.66
587.06	744.29
587.22	683.44
587.38	660.03
587.54	1645.40
587.70	5282.59
587.86	8858.93
588.02	9448.74
588.18	6675.21
588.34	4238.71
588.49	2832.05
588.65	1621.99
588.81	791.10
588.97	517.26
589.13	465.77
589.29	320.65
589.45	341.72
589.61	414.27
589.77	444.70
589.93	510.24
590.08	664.71
590.24	505.56
590.40	559.39
590.56	425.98
590.72	320.65
590.88	362.78
591.04	372.15
591.20	388.53
591.35	418.96
591.51	372.15
591.67	416.62
591.83	313.63
591.99	252.78
592.15	304.27
592.31	292.57
592.46	365.12
592.62	301.93
592.78	269.16
592.94	285.55
593.10	341.72
593.26	337.04
593.41	409.59
593.57	393.21
593.73	739.61
593.89	4362.76
594.05	11569.27
594.20	16482.05
594.36	15545.84
594.52	10052.60
594.68	6307.74
594.84	4067.85
594.99	2141.59
595.15	1008.77
595.31	538.32
595.47	447.04
595.62	332.36
595.78	344.06
595.94	351.08
596.10	440.02
596.25	433.00
596.41	386.19
596.57	444.70
596.73	337.04
596.88	727.91
597.04	1912.22
597.20	3361.01
597.36	3894.65
597.51	2965.46
597.67	1977.75
597.83	1313.04
597.99	894.08
598.14	512.58
598.30	407.25
598.46	276.18
598.61	369.80
598.77	344.06
598.93	369.80
599.09	381.51
599.24	327.68
599.40	257.46
599.56	367.46
599.71	355.76
599.87	187.24
600.03	234.05
600.18	220.01
600.34	203.63
600.50	250.44
600.65	191.92
600.81	255.12
600.97	231.71
601.12	189.58
601.28	215.33
601.44	276.18
601.59	215.33
601.75	184.90
601.91	276.18
602.06	271.50
602.22	395.55
602.37	901.11
602.53	2640.12
602.69	3971.89
602.84	4056.15
603.00	2939.71
603.16	1966.05
603.31	1369.21
603.47	887.06
603.62	550.03
603.78	283.20
603.94	252.78
604.09	278.52
604.25	344.06
604.40	283.20
604.56	299.59
604.71	229.37
604.87	271.50
605.03	224.69
605.18	259.80
605.34	285.55
605.49	299.59
605.65	245.76
605.80	276.18
605.96	390.87
606.12	255.12
606.27	383.85
606.43	346.40
606.58	388.53
606.74	1151.54
606.89	5256.84
607.05	10808.59
607.20	13862.99
607.36	11548.20
607.51	7478.01
607.67	4978.32
607.82	3201.85
607.98	1813.92
608.13	830.89
608.29	606.20
608.44	477.47
608.60	503.22
608.75	547.69
608.91	1652.42
609.06	8306.56
609.22	18321.71
609.37	24900.96
609.53	20769.91
609.68	13867.67
609.84	8973.61
609.99	5977.73
610.15	2986.52
610.30	1469.86
610.46	683.44
610.61	486.83
610.76	484.49
610.92	414.27
611.07	285.55
611.23	430.66
611.38	362.78
611.54	322.99
611.69	280.86
