SpectraSuite Data File
++++++++++++++++++++++++++++++++++++
Date: Fri Oct 04 11:47:12 GMT-05:00 2013
User: price-jones
Dark Spectrum Present: No
Reference Spectrum Present: No
Number of Sampled Component Spectra: 1
Spectrometers: USB2+H05261
Integration Time (usec): 100000 (USB2+H05261)
Spectra Averaged: 1 (USB2+H05261)
Boxcar Smoothing: 0 (USB2+H05261)
Correct for Electrical Dark: No (USB2+H05261)
Strobe/Lamp Enabled: No (USB2+H05261)
Correct for Detector Non-linearity: No (USB2+H05261)
Correct for Stray Light: No (USB2+H05261)
Number of Pixels in Processed Spectrum: 2048
>>>>>Begin Processed Spectral Data<<<<<
365.73	28.09
365.92	28.09
366.12	28.09
366.32	0.00
366.52	0.00
366.72	0.00
366.91	0.00
367.11	0.00
367.31	0.00
367.51	0.00
367.70	0.00
367.90	0.00
368.10	0.00
368.30	0.00
368.49	0.00
368.69	0.00
368.89	0.00
369.09	0.00
369.28	0.00
369.48	0.00
369.68	0.00
369.87	0.00
370.07	46.81
370.27	4.68
370.47	42.13
370.66	21.06
370.86	67.88
371.06	63.19
371.25	79.58
371.45	0.00
371.65	35.11
371.84	0.00
372.04	0.00
372.24	28.09
372.44	35.11
372.63	51.49
372.83	4.68
373.03	51.49
373.22	44.47
373.42	81.92
373.62	93.62
373.81	117.03
374.01	131.07
374.21	138.09
374.40	112.35
374.60	84.26
374.79	86.60
374.99	138.09
375.19	119.37
375.38	102.98
375.58	88.94
375.78	131.07
375.97	131.07
376.17	210.65
376.37	112.35
376.56	140.43
376.76	65.54
376.95	100.64
377.15	156.82
377.35	128.73
377.54	124.05
377.74	44.47
377.93	63.19
378.13	74.90
378.33	42.13
378.52	98.30
378.72	161.50
378.91	140.43
379.11	49.15
379.31	149.79
379.50	23.41
379.70	95.96
379.89	114.69
380.09	131.07
380.28	91.28
380.48	93.62
380.68	37.45
380.87	0.00
381.07	84.26
381.26	119.37
381.46	128.73
381.65	91.28
381.85	95.96
382.04	53.83
382.24	25.75
382.43	49.15
382.63	63.19
382.83	91.28
383.02	145.11
383.22	100.64
383.41	23.41
383.61	112.35
383.80	81.92
384.00	21.06
384.19	114.69
384.39	107.66
384.58	114.69
384.78	138.09
384.97	121.71
385.17	114.69
385.36	77.24
385.56	37.45
385.75	110.01
385.95	98.30
386.14	126.39
386.34	114.69
386.53	100.64
386.72	117.03
386.92	112.35
387.11	100.64
387.31	105.32
387.50	63.19
387.70	88.94
387.89	100.64
388.09	74.90
388.28	39.79
388.48	39.79
388.67	119.37
388.86	77.24
389.06	18.72
389.25	93.62
389.45	81.92
389.64	58.51
389.84	147.45
390.03	91.28
390.22	93.62
390.42	58.51
390.61	119.37
390.81	67.88
391.00	135.75
391.19	86.60
391.39	117.03
391.58	107.66
391.78	51.49
391.97	77.24
392.16	93.62
392.36	182.56
392.55	133.41
392.75	110.01
392.94	67.88
393.13	56.17
393.33	79.58
393.52	84.26
393.71	170.86
393.91	60.85
394.10	105.32
394.29	56.17
394.49	229.37
394.68	98.30
394.88	156.82
395.07	133.41
395.26	133.41
395.46	107.66
395.65	67.88
395.84	63.19
396.04	182.56
396.23	70.22
396.42	72.56
396.62	88.94
396.81	156.82
397.00	126.39
397.19	88.94
397.39	166.18
397.58	93.62
397.77	147.45
397.97	70.22
398.16	72.56
398.35	107.66
398.55	46.81
398.74	70.22
398.93	170.86
399.12	133.41
399.32	168.52
399.51	65.54
399.70	110.01
399.90	138.09
400.09	133.41
400.28	63.19
400.47	58.51
400.67	140.43
400.86	163.84
401.05	198.95
401.24	140.43
401.44	86.60
401.63	81.92
401.82	98.30
402.01	124.05
402.21	91.28
402.40	154.48
402.59	184.90
402.78	124.05
402.97	128.73
403.17	98.30
403.36	65.54
403.55	100.64
403.74	166.18
403.93	135.75
404.13	163.84
404.32	131.07
404.51	170.86
404.70	107.66
404.89	79.58
405.09	105.32
405.28	189.58
405.47	100.64
405.66	105.32
405.85	56.17
406.05	32.77
406.24	88.94
406.43	147.45
406.62	65.54
406.81	208.31
407.00	126.39
407.20	138.09
407.39	70.22
407.58	91.28
407.77	72.56
407.96	107.66
408.15	79.58
408.34	93.62
408.54	131.07
408.73	124.05
408.92	140.43
409.11	77.24
409.30	168.52
409.49	161.50
409.68	177.88
409.87	119.37
410.07	105.32
410.26	124.05
410.45	163.84
410.64	117.03
410.83	166.18
411.02	100.64
411.21	100.64
411.40	72.56
411.59	84.26
411.78	105.32
411.98	119.37
412.17	110.01
412.36	91.28
412.55	110.01
412.74	156.82
412.93	117.03
413.12	95.96
413.31	135.75
413.50	140.43
413.69	74.90
413.88	138.09
414.07	88.94
414.26	128.73
414.45	95.96
414.64	131.07
414.83	142.77
415.02	138.09
415.22	147.45
415.41	245.76
415.60	117.03
415.79	84.26
415.98	173.20
416.17	77.24
416.36	166.18
416.55	58.51
416.74	114.69
416.93	201.29
417.12	117.03
417.31	117.03
417.50	149.79
417.69	133.41
417.88	166.18
418.07	135.75
418.26	138.09
418.45	159.16
418.64	227.03
418.83	229.37
419.02	168.52
419.21	152.13
419.39	215.33
419.58	156.82
419.77	110.01
419.96	189.58
420.15	184.90
420.34	166.18
420.53	154.48
420.72	205.97
420.91	112.35
421.10	124.05
421.29	102.98
421.48	91.28
421.67	105.32
421.86	105.32
422.05	70.22
422.24	142.77
422.43	51.49
422.61	72.56
422.80	60.85
422.99	102.98
423.18	112.35
423.37	149.79
423.56	140.43
423.75	107.66
423.94	51.49
424.13	182.56
424.32	152.13
424.50	107.66
424.69	67.88
424.88	168.52
425.07	110.01
425.26	81.92
425.45	177.88
425.64	156.82
425.83	220.01
426.01	145.11
426.20	102.98
426.39	117.03
426.58	98.30
426.77	220.01
426.96	173.20
427.15	184.90
427.33	163.84
427.52	128.73
427.71	98.30
427.90	98.30
428.09	117.03
428.28	117.03
428.46	110.01
428.65	110.01
428.84	67.88
429.03	222.35
429.22	107.66
429.40	105.32
429.59	138.09
429.78	142.77
429.97	81.92
430.16	91.28
430.34	81.92
430.53	58.51
430.72	107.66
430.91	110.01
431.10	107.66
431.28	135.75
431.47	166.18
431.66	98.30
431.85	156.82
432.03	128.73
432.22	170.86
432.41	124.05
432.60	238.73
432.79	131.07
432.97	234.05
433.16	301.93
433.35	234.05
433.54	119.37
433.72	236.39
433.91	191.92
434.10	264.48
434.28	135.75
434.47	156.82
434.66	152.13
434.85	133.41
435.03	147.45
435.22	140.43
435.41	196.60
435.59	128.73
435.78	126.39
435.97	145.11
436.16	112.35
436.34	88.94
436.53	163.84
436.72	88.94
436.90	182.56
437.09	128.73
437.28	147.45
437.46	163.84
437.65	138.09
437.84	142.77
438.02	168.52
438.21	173.20
438.40	95.96
438.58	138.09
438.77	28.09
438.96	70.22
439.14	173.20
439.33	133.41
439.52	105.32
439.70	163.84
439.89	98.30
440.08	154.48
440.26	95.96
440.45	114.69
440.63	145.11
440.82	147.45
441.01	140.43
441.19	126.39
441.38	42.13
441.57	102.98
441.75	128.73
441.94	140.43
442.12	149.79
442.31	173.20
442.50	140.43
442.68	168.52
442.87	147.45
443.05	95.96
443.24	184.90
443.43	140.43
443.61	191.92
443.80	131.07
443.98	124.05
444.17	156.82
444.35	112.35
444.54	184.90
444.73	194.26
444.91	191.92
445.10	95.96
445.28	119.37
445.47	98.30
445.65	135.75
445.84	133.41
446.02	67.88
446.21	124.05
446.39	126.39
446.58	196.60
446.77	156.82
446.95	161.50
447.14	95.96
447.32	159.16
447.51	163.84
447.69	74.90
447.88	121.71
448.06	152.13
448.25	217.67
448.43	112.35
448.62	86.60
448.80	149.79
448.99	248.10
449.17	102.98
449.36	133.41
449.54	182.56
449.73	124.05
449.91	126.39
450.10	138.09
450.28	198.95
450.46	142.77
450.65	121.71
450.83	145.11
451.02	156.82
451.20	156.82
451.39	140.43
451.57	156.82
451.76	100.64
451.94	187.24
452.13	191.92
452.31	79.58
452.49	91.28
452.68	105.32
452.86	44.47
453.05	170.86
453.23	93.62
453.42	173.20
453.60	173.20
453.78	229.37
453.97	210.65
454.15	217.67
454.34	133.41
454.52	112.35
454.70	159.16
454.89	84.26
455.07	177.88
455.26	175.54
455.44	152.13
455.62	117.03
455.81	112.35
455.99	168.52
456.17	156.82
456.36	191.92
456.54	63.19
456.73	117.03
456.91	100.64
457.09	112.35
457.28	208.31
457.46	117.03
457.64	177.88
457.83	86.60
458.01	126.39
458.19	147.45
458.38	152.13
458.56	191.92
458.74	177.88
458.93	112.35
459.11	114.69
459.29	102.98
459.48	170.86
459.66	215.33
459.84	93.62
460.03	170.86
460.21	138.09
460.39	102.98
460.57	147.45
460.76	117.03
460.94	107.66
461.12	229.37
461.31	194.26
461.49	161.50
461.67	156.82
461.85	187.24
462.04	187.24
462.22	531.30
462.40	159.16
462.59	189.58
462.77	140.43
462.95	112.35
463.13	140.43
463.32	173.20
463.50	128.73
463.68	184.90
463.86	210.65
464.05	163.84
464.23	170.86
464.41	77.24
464.59	88.94
464.78	140.43
464.96	142.77
465.14	126.39
465.32	100.64
465.50	81.92
465.69	128.73
465.87	65.54
466.05	119.37
466.23	107.66
466.41	161.50
466.60	236.39
466.78	142.77
466.96	173.20
467.14	168.52
467.32	133.41
467.51	161.50
467.69	98.30
467.87	163.84
468.05	159.16
468.23	180.22
468.41	131.07
468.60	166.18
468.78	84.26
468.96	180.22
469.14	208.31
469.32	117.03
469.50	133.41
469.69	145.11
469.87	135.75
470.05	124.05
470.23	166.18
470.41	107.66
470.59	142.77
470.77	95.96
470.95	105.32
471.14	119.37
471.32	201.29
471.50	145.11
471.68	149.79
471.86	149.79
472.04	117.03
472.22	182.56
472.40	131.07
472.58	86.60
472.77	107.66
472.95	110.01
473.13	173.20
473.31	161.50
473.49	51.49
473.67	32.77
473.85	184.90
474.03	119.37
474.21	117.03
474.39	110.01
474.57	170.86
474.75	175.54
474.93	154.48
475.12	147.45
475.30	128.73
475.48	93.62
475.66	107.66
475.84	140.43
476.02	187.24
476.20	163.84
476.38	145.11
476.56	201.29
476.74	187.24
476.92	133.41
477.10	229.37
477.28	201.29
477.46	128.73
477.64	102.98
477.82	128.73
478.00	203.63
478.18	98.30
478.36	177.88
478.54	184.90
478.72	201.29
478.90	84.26
479.08	133.41
479.26	173.20
479.44	161.50
479.62	117.03
479.80	102.98
479.98	142.77
480.16	133.41
480.34	140.43
480.52	161.50
480.70	98.30
480.88	107.66
481.06	168.52
481.24	170.86
481.41	191.92
481.59	227.03
481.77	154.48
481.95	98.30
482.13	140.43
482.31	126.39
482.49	142.77
482.67	159.16
482.85	194.26
483.03	182.56
483.21	163.84
483.39	114.69
483.57	88.94
483.74	198.95
483.92	77.24
484.10	142.77
484.28	102.98
484.46	271.50
484.64	107.66
484.82	161.50
485.00	117.03
485.18	180.22
485.35	163.84
485.53	124.05
485.71	147.45
485.89	98.30
486.07	119.37
486.25	140.43
486.43	124.05
486.61	191.92
486.78	182.56
486.96	163.84
487.14	112.35
487.32	161.50
487.50	208.31
487.68	140.43
487.85	170.86
488.03	159.16
488.21	215.33
488.39	264.48
488.57	177.88
488.75	196.60
488.92	365.12
489.10	170.86
489.28	198.95
489.46	191.92
489.64	67.88
489.81	217.67
489.99	187.24
490.17	182.56
490.35	194.26
490.53	217.67
490.70	161.50
490.88	161.50
491.06	128.73
491.24	177.88
491.41	238.73
491.59	161.50
491.77	152.13
491.95	126.39
492.13	189.58
492.30	145.11
492.48	147.45
492.66	135.75
492.84	114.69
493.01	124.05
493.19	189.58
493.37	187.24
493.54	161.50
493.72	168.52
493.90	201.29
494.08	138.09
494.25	194.26
494.43	238.73
494.61	149.79
494.79	107.66
494.96	152.13
495.14	255.12
495.32	243.42
495.49	203.63
495.67	229.37
495.85	147.45
496.02	170.86
496.20	196.60
496.38	170.86
496.55	170.86
496.73	187.24
496.91	152.13
497.09	227.03
497.26	154.48
497.44	234.05
497.62	252.78
497.79	161.50
497.97	184.90
498.14	154.48
498.32	152.13
498.50	159.16
498.67	182.56
498.85	234.05
499.03	154.48
499.20	88.94
499.38	173.20
499.56	234.05
499.73	194.26
499.91	194.26
500.08	182.56
500.26	168.52
500.44	147.45
500.61	198.95
500.79	173.20
500.97	269.16
501.14	227.03
501.32	182.56
501.49	215.33
501.67	208.31
501.84	177.88
502.02	198.95
502.20	250.44
502.37	184.90
502.55	142.77
502.72	128.73
502.90	212.99
503.07	166.18
503.25	166.18
503.43	159.16
503.60	191.92
503.78	163.84
503.95	201.29
504.13	243.42
504.30	208.31
504.48	250.44
504.65	236.39
504.83	191.92
505.01	147.45
505.18	227.03
505.36	177.88
505.53	159.16
505.71	117.03
505.88	252.78
506.06	194.26
506.23	156.82
506.41	203.63
506.58	252.78
506.76	292.57
506.93	241.08
507.11	236.39
507.28	173.20
507.46	236.39
507.63	245.76
507.81	248.10
507.98	159.16
508.16	152.13
508.33	184.90
508.50	208.31
508.68	259.80
508.85	224.69
509.03	184.90
509.20	208.31
509.38	222.35
509.55	145.11
509.73	241.08
509.90	262.14
510.08	208.31
510.25	252.78
510.42	194.26
510.60	238.73
510.77	236.39
510.95	229.37
511.12	208.31
511.30	266.82
511.47	285.55
511.64	271.50
511.82	210.65
511.99	177.88
512.17	149.79
512.34	170.86
512.51	121.71
512.69	187.24
512.86	159.16
513.04	161.50
513.21	248.10
513.38	220.01
513.56	173.20
513.73	238.73
513.90	189.58
514.08	215.33
514.25	203.63
514.43	245.76
514.60	280.86
514.77	248.10
514.95	166.18
515.12	198.95
515.29	231.71
515.47	163.84
515.64	110.01
515.81	191.92
515.99	203.63
516.16	201.29
516.33	257.46
516.51	187.24
516.68	60.85
516.85	105.32
517.03	159.16
517.20	182.56
517.37	187.24
517.54	227.03
517.72	191.92
517.89	156.82
518.06	131.07
518.24	248.10
518.41	322.99
518.58	257.46
518.75	159.16
518.93	245.76
519.10	259.80
519.27	217.67
519.45	161.50
519.62	205.97
519.79	266.82
519.96	236.39
520.14	205.97
520.31	234.05
520.48	231.71
520.65	231.71
520.83	215.33
521.00	227.03
521.17	196.60
521.34	168.52
521.52	229.37
521.69	227.03
521.86	194.26
522.03	231.71
522.20	236.39
522.38	180.22
522.55	147.45
522.72	259.80
522.89	114.69
523.07	217.67
523.24	198.95
523.41	156.82
523.58	252.78
523.75	156.82
523.92	189.58
524.10	191.92
524.27	105.32
524.44	217.67
524.61	248.10
524.78	166.18
524.96	217.67
525.13	173.20
525.30	180.22
525.47	168.52
525.64	203.63
525.81	210.65
525.98	159.16
526.16	149.79
526.33	166.18
526.50	187.24
526.67	117.03
526.84	198.95
527.01	196.60
527.18	177.88
527.36	177.88
527.53	170.86
527.70	236.39
527.87	259.80
528.04	264.48
528.21	168.52
528.38	297.25
528.55	227.03
528.72	210.65
528.89	241.08
529.07	208.31
529.24	205.97
529.41	276.18
529.58	241.08
529.75	191.92
529.92	182.56
530.09	201.29
530.26	241.08
530.43	238.73
530.60	191.92
530.77	234.05
530.94	212.99
531.11	210.65
531.28	208.31
531.46	140.43
531.63	191.92
531.80	229.37
531.97	245.76
532.14	145.11
532.31	229.37
532.48	273.84
532.65	367.46
532.82	390.87
532.99	353.42
533.16	245.76
533.33	243.42
533.50	285.55
533.67	386.19
533.84	376.83
534.01	372.15
534.18	369.80
534.35	273.84
534.52	224.69
534.69	191.92
534.86	205.97
535.03	236.39
535.20	222.35
535.37	220.01
535.54	203.63
535.71	198.95
535.88	163.84
536.05	245.76
536.22	294.91
536.38	191.92
536.55	271.50
536.72	203.63
536.89	163.84
537.06	159.16
537.23	234.05
537.40	315.97
537.57	238.73
537.74	205.97
537.91	222.35
538.08	163.84
538.25	166.18
538.42	222.35
538.59	245.76
538.75	227.03
538.92	220.01
539.09	292.57
539.26	210.65
539.43	447.04
539.60	947.92
539.77	1640.72
539.94	1783.49
540.11	1142.18
540.28	702.16
540.44	533.64
540.61	285.55
540.78	191.92
540.95	229.37
541.12	266.82
541.29	212.99
541.46	227.03
541.62	196.60
541.79	220.01
541.96	210.65
542.13	138.09
542.30	234.05
542.47	250.44
542.63	250.44
542.80	95.96
542.97	234.05
543.14	257.46
543.31	271.50
543.48	231.71
543.64	203.63
543.81	170.86
543.98	227.03
544.15	220.01
544.32	201.29
544.48	215.33
544.65	243.42
544.82	243.42
544.99	224.69
545.16	191.92
545.32	184.90
545.49	166.18
545.66	145.11
545.83	236.39
546.00	184.90
546.16	252.78
546.33	201.29
546.50	175.54
546.67	217.67
546.83	154.48
547.00	159.16
547.17	159.16
547.34	224.69
547.50	140.43
547.67	182.56
547.84	117.03
548.00	222.35
548.17	173.20
548.34	243.42
548.51	264.48
548.67	201.29
548.84	156.82
549.01	266.82
549.18	175.54
549.34	243.42
549.51	238.73
549.68	234.05
549.84	203.63
550.01	229.37
550.18	339.38
550.34	339.38
550.51	224.69
550.68	248.10
550.84	184.90
551.01	154.48
551.18	222.35
551.34	196.60
551.51	273.84
551.68	177.88
551.84	224.69
552.01	161.50
552.18	250.44
552.34	189.58
552.51	248.10
552.68	220.01
552.84	187.24
553.01	175.54
553.18	273.84
553.34	138.09
553.51	147.45
553.67	175.54
553.84	210.65
554.01	227.03
554.17	276.18
554.34	140.43
554.51	180.22
554.67	224.69
554.84	229.37
555.00	208.31
555.17	187.24
555.33	229.37
555.50	187.24
555.67	147.45
555.83	252.78
556.00	248.10
556.16	330.02
556.33	262.14
556.50	229.37
556.66	168.52
556.83	194.26
556.99	238.73
557.16	177.88
557.32	222.35
557.49	191.92
557.65	229.37
557.82	100.64
557.98	177.88
558.15	205.97
558.32	250.44
558.48	273.84
558.65	128.73
558.81	110.01
558.98	173.20
559.14	236.39
559.31	126.39
559.47	264.48
559.64	152.13
559.80	222.35
559.97	212.99
560.13	182.56
560.30	194.26
560.46	189.58
560.63	180.22
560.79	248.10
560.96	196.60
561.12	138.09
561.29	170.86
561.45	210.65
561.61	182.56
561.78	241.08
561.94	119.37
562.11	114.69
562.27	198.95
562.44	180.22
562.60	198.95
562.77	196.60
562.93	266.82
563.10	182.56
563.26	285.55
563.42	210.65
563.59	145.11
563.75	194.26
563.92	243.42
564.08	217.67
564.24	297.25
564.41	201.29
564.57	194.26
564.74	273.84
564.90	231.71
565.07	273.84
565.23	297.25
565.39	278.52
565.56	318.31
565.72	191.92
565.88	177.88
566.05	161.50
566.21	142.77
566.38	201.29
566.54	194.26
566.70	217.67
566.87	180.22
567.03	215.33
567.19	187.24
567.36	262.14
567.52	201.29
567.68	182.56
567.85	248.10
568.01	231.71
568.17	154.48
568.34	250.44
568.50	245.76
568.66	196.60
568.83	290.23
568.99	131.07
569.15	259.80
569.32	262.14
569.48	112.35
569.64	201.29
569.81	227.03
569.97	227.03
570.13	201.29
570.30	152.13
570.46	215.33
570.62	154.48
570.78	215.33
570.95	128.73
571.11	212.99
571.27	217.67
571.43	175.54
571.60	257.46
571.76	159.16
571.92	196.60
572.09	189.58
572.25	212.99
572.41	159.16
572.57	152.13
572.74	243.42
572.90	203.63
573.06	224.69
573.22	187.24
573.38	196.60
573.55	208.31
573.71	299.59
573.87	248.10
574.03	227.03
574.20	196.60
574.36	381.51
574.52	320.65
574.68	306.61
574.84	276.18
575.01	236.39
575.17	259.80
575.33	220.01
575.49	222.35
575.65	318.31
575.82	311.29
575.98	489.17
576.14	667.05
576.30	809.83
576.46	573.43
576.62	447.04
576.79	400.23
576.95	315.97
577.11	191.92
577.27	234.05
577.43	304.27
577.59	250.44
577.75	264.48
577.92	215.33
578.08	212.99
578.24	168.52
578.40	255.12
578.56	227.03
578.72	290.23
578.88	187.24
579.04	201.29
579.21	290.23
579.37	238.73
579.53	198.95
579.69	285.55
579.85	236.39
580.01	358.10
580.17	397.89
580.33	393.21
580.49	325.33
580.65	339.38
580.82	259.80
580.98	269.16
581.14	404.91
581.30	299.59
581.46	423.64
581.62	608.54
581.78	648.33
581.94	552.37
582.10	514.92
582.26	454.06
582.42	458.74
582.58	416.62
582.74	402.57
582.90	407.25
583.06	393.21
583.22	444.70
583.38	433.00
583.54	521.94
583.70	564.07
583.86	648.33
584.02	716.20
584.18	968.98
584.34	1324.74
584.50	3260.37
584.66	24166.03
584.82	57441.43
584.98	65535.00
585.14	65535.00
585.30	54239.57
585.46	33537.54
585.62	20987.58
585.78	9336.40
585.94	3740.18
586.10	1675.82
586.26	1086.01
586.42	809.83
586.58	702.16
586.74	653.01
586.90	573.43
587.06	594.50
587.22	596.84
587.38	543.00
587.54	1207.72
587.70	3611.45
587.86	6298.38
588.02	7705.04
588.18	5310.68
588.34	3211.22
588.49	2113.50
588.65	1198.35
588.81	627.26
588.97	407.25
589.13	423.64
589.29	278.52
589.45	346.40
589.61	292.57
589.77	421.30
589.93	397.89
590.08	505.56
590.24	447.04
590.40	421.30
590.56	379.17
590.72	337.04
590.88	325.33
591.04	393.21
591.20	262.14
591.35	301.93
591.51	278.52
591.67	348.74
591.83	243.42
591.99	271.50
592.15	266.82
592.31	248.10
592.46	287.89
592.62	241.08
592.78	252.78
592.94	276.18
593.10	257.46
593.26	285.55
593.41	374.49
593.57	327.68
593.73	552.37
593.89	2848.43
594.05	7726.11
594.20	12535.91
594.36	12145.04
594.52	7864.20
594.68	4781.71
594.84	3070.78
594.99	1736.68
595.15	802.80
595.31	451.72
595.47	402.57
595.62	287.89
595.78	276.18
595.94	367.46
596.10	301.93
596.25	313.63
596.41	325.33
596.57	287.89
596.73	245.76
596.88	561.73
597.04	1373.89
597.20	2523.10
597.36	3082.49
597.51	2186.06
597.67	1500.28
597.83	1064.94
597.99	739.61
598.14	442.36
598.30	346.40
598.46	276.18
598.61	430.66
598.77	348.74
598.93	243.42
599.09	257.46
599.24	257.46
599.40	266.82
599.56	220.01
599.71	222.35
599.87	194.26
600.03	224.69
600.18	241.08
600.34	283.20
600.50	222.35
600.65	243.42
600.81	201.29
600.97	236.39
601.12	313.63
601.28	243.42
601.44	159.16
601.59	191.92
601.75	149.79
601.91	215.33
602.06	245.76
602.22	425.98
602.37	702.16
602.53	1776.47
602.69	2944.39
602.84	3262.71
603.00	2462.24
603.16	1607.95
603.31	1156.22
603.47	812.17
603.62	353.42
603.78	301.93
603.94	224.69
604.09	283.20
604.25	269.16
604.40	304.27
604.56	255.12
604.71	238.73
604.87	241.08
605.03	203.63
605.18	175.54
605.34	294.91
605.49	348.74
605.65	330.02
605.80	248.10
605.96	304.27
606.12	325.33
606.27	278.52
606.43	332.36
606.58	397.89
606.74	812.17
606.89	3393.78
607.05	7665.25
607.20	10815.62
607.36	9090.64
607.51	6066.67
607.67	3726.13
607.82	2562.89
607.98	1411.34
608.13	753.65
608.29	472.79
608.44	414.27
608.60	386.19
608.75	472.79
608.91	1102.39
609.06	5479.19
609.22	12798.05
609.37	19131.54
609.53	16702.06
609.68	10710.29
609.84	7049.69
609.99	4526.60
610.15	2338.20
610.30	1062.60
610.46	573.43
610.61	437.68
610.76	308.95
610.92	358.10
611.07	283.20
611.23	390.87
611.38	351.08
611.54	341.72
611.69	292.57
