SpectraSuite Data File
++++++++++++++++++++++++++++++++++++
Date: Fri Oct 04 11:47:00 GMT-05:00 2013
User: price-jones
Dark Spectrum Present: No
Reference Spectrum Present: No
Number of Sampled Component Spectra: 1
Spectrometers: USB2+H05261
Integration Time (usec): 100000 (USB2+H05261)
Spectra Averaged: 1 (USB2+H05261)
Boxcar Smoothing: 0 (USB2+H05261)
Correct for Electrical Dark: No (USB2+H05261)
Strobe/Lamp Enabled: No (USB2+H05261)
Correct for Detector Non-linearity: No (USB2+H05261)
Correct for Stray Light: No (USB2+H05261)
Number of Pixels in Processed Spectrum: 2048
>>>>>Begin Processed Spectral Data<<<<<
365.73	42.13
365.92	42.13
366.12	42.13
366.32	0.00
366.52	0.00
366.72	0.00
366.91	0.00
367.11	0.00
367.31	0.00
367.51	0.00
367.70	0.00
367.90	0.00
368.10	0.00
368.30	0.00
368.49	0.00
368.69	0.00
368.89	0.00
369.09	0.00
369.28	0.00
369.48	0.00
369.68	0.00
369.87	0.00
370.07	0.00
370.27	37.45
370.47	25.75
370.66	14.04
370.86	28.09
371.06	44.47
371.25	56.17
371.45	70.22
371.65	107.66
371.84	39.79
372.04	44.47
372.24	110.01
372.44	46.81
372.63	77.24
372.83	163.84
373.03	100.64
373.22	81.92
373.42	42.13
373.62	79.58
373.81	117.03
374.01	180.22
374.21	84.26
374.40	79.58
374.60	142.77
374.79	70.22
374.99	110.01
375.19	95.96
375.38	175.54
375.58	72.56
375.78	93.62
375.97	119.37
376.17	159.16
376.37	102.98
376.56	93.62
376.76	42.13
376.95	140.43
377.15	79.58
377.35	131.07
377.54	95.96
377.74	119.37
377.93	117.03
378.13	126.39
378.33	112.35
378.52	110.01
378.72	140.43
378.91	107.66
379.11	65.54
379.31	98.30
379.50	124.05
379.70	46.81
379.89	163.84
380.09	131.07
380.28	37.45
380.48	117.03
380.68	35.11
380.87	79.58
381.07	112.35
381.26	88.94
381.46	56.17
381.65	126.39
381.85	77.24
382.04	102.98
382.24	88.94
382.43	84.26
382.63	147.45
382.83	56.17
383.02	79.58
383.22	107.66
383.41	98.30
383.61	126.39
383.80	105.32
384.00	121.71
384.19	149.79
384.39	145.11
384.58	51.49
384.78	114.69
384.97	147.45
385.17	119.37
385.36	67.88
385.56	98.30
385.75	72.56
385.95	70.22
386.14	124.05
386.34	98.30
386.53	16.38
386.72	88.94
386.92	119.37
387.11	74.90
387.31	63.19
387.50	39.79
387.70	86.60
387.89	91.28
388.09	88.94
388.28	142.77
388.48	16.38
388.67	86.60
388.86	100.64
389.06	124.05
389.25	93.62
389.45	65.54
389.64	30.43
389.84	135.75
390.03	84.26
390.22	56.17
390.42	93.62
390.61	46.81
390.81	98.30
391.00	67.88
391.19	173.20
391.39	102.98
391.58	126.39
391.78	124.05
391.97	98.30
392.16	77.24
392.36	133.41
392.55	63.19
392.75	39.79
392.94	86.60
393.13	88.94
393.33	9.36
393.52	53.83
393.71	177.88
393.91	107.66
394.10	56.17
394.29	138.09
394.49	133.41
394.68	170.86
394.88	124.05
395.07	187.24
395.26	168.52
395.46	131.07
395.65	166.18
395.84	152.13
396.04	166.18
396.23	107.66
396.42	84.26
396.62	67.88
396.81	163.84
397.00	98.30
397.19	58.51
397.39	128.73
397.58	95.96
397.77	11.70
397.97	182.56
398.16	72.56
398.35	114.69
398.55	79.58
398.74	100.64
398.93	145.11
399.12	44.47
399.32	72.56
399.51	110.01
399.70	189.58
399.90	107.66
400.09	63.19
400.28	105.32
400.47	121.71
400.67	142.77
400.86	205.97
401.05	133.41
401.24	98.30
401.44	142.77
401.63	37.45
401.82	117.03
402.01	74.90
402.21	98.30
402.40	135.75
402.59	98.30
402.78	86.60
402.97	119.37
403.17	98.30
403.36	60.85
403.55	70.22
403.74	72.56
403.93	100.64
404.13	166.18
404.32	147.45
404.51	114.69
404.70	154.48
404.89	102.98
405.09	154.48
405.28	147.45
405.47	86.60
405.66	149.79
405.85	74.90
406.05	88.94
406.24	60.85
406.43	133.41
406.62	65.54
406.81	98.30
407.00	124.05
407.20	98.30
407.39	110.01
407.58	91.28
407.77	121.71
407.96	156.82
408.15	77.24
408.34	140.43
408.54	67.88
408.73	154.48
408.92	112.35
409.11	222.35
409.30	177.88
409.49	63.19
409.68	147.45
409.87	81.92
410.07	93.62
410.26	170.86
410.45	180.22
410.64	79.58
410.83	117.03
411.02	126.39
411.21	135.75
411.40	49.15
411.59	107.66
411.78	91.28
411.98	196.60
412.17	102.98
412.36	32.77
412.55	95.96
412.74	79.58
412.93	149.79
413.12	74.90
413.31	177.88
413.50	135.75
413.69	86.60
413.88	133.41
414.07	135.75
414.26	84.26
414.45	138.09
414.64	152.13
414.83	135.75
415.02	100.64
415.22	215.33
415.41	117.03
415.60	95.96
415.79	159.16
415.98	166.18
416.17	121.71
416.36	102.98
416.55	107.66
416.74	102.98
416.93	154.48
417.12	72.56
417.31	124.05
417.50	81.92
417.69	194.26
417.88	187.24
418.07	117.03
418.26	74.90
418.45	128.73
418.64	227.03
418.83	255.12
419.02	173.20
419.21	93.62
419.39	161.50
419.58	180.22
419.77	182.56
419.96	182.56
420.15	131.07
420.34	114.69
420.53	93.62
420.72	170.86
420.91	152.13
421.10	77.24
421.29	170.86
421.48	114.69
421.67	152.13
421.86	133.41
422.05	149.79
422.24	140.43
422.43	119.37
422.61	72.56
422.80	142.77
422.99	126.39
423.18	121.71
423.37	154.48
423.56	131.07
423.75	79.58
423.94	124.05
424.13	56.17
424.32	67.88
424.50	110.01
424.69	112.35
424.88	170.86
425.07	107.66
425.26	227.03
425.45	313.63
425.64	276.18
425.83	220.01
426.01	175.54
426.20	175.54
426.39	156.82
426.58	105.32
426.77	93.62
426.96	196.60
427.15	79.58
427.33	154.48
427.52	126.39
427.71	117.03
427.90	84.26
428.09	70.22
428.28	86.60
428.46	135.75
428.65	156.82
428.84	128.73
429.03	128.73
429.22	72.56
429.40	121.71
429.59	145.11
429.78	138.09
429.97	159.16
430.16	112.35
430.34	140.43
430.53	95.96
430.72	114.69
430.91	140.43
431.10	112.35
431.28	65.54
431.47	175.54
431.66	196.60
431.85	112.35
432.03	133.41
432.22	154.48
432.41	131.07
432.60	177.88
432.79	100.64
432.97	311.29
433.16	248.10
433.35	252.78
433.54	145.11
433.72	227.03
433.91	201.29
434.10	161.50
434.28	231.71
434.47	175.54
434.66	114.69
434.85	154.48
435.03	142.77
435.22	168.52
435.41	145.11
435.59	149.79
435.78	138.09
435.97	177.88
436.16	119.37
436.34	70.22
436.53	93.62
436.72	154.48
436.90	163.84
437.09	114.69
437.28	51.49
437.46	18.72
437.65	152.13
437.84	149.79
438.02	198.95
438.21	58.51
438.40	98.30
438.58	119.37
438.77	133.41
438.96	56.17
439.14	133.41
439.33	142.77
439.52	107.66
439.70	182.56
439.89	173.20
440.08	135.75
440.26	67.88
440.45	102.98
440.63	91.28
440.82	117.03
441.01	140.43
441.19	81.92
441.38	67.88
441.57	131.07
441.75	170.86
441.94	173.20
442.12	187.24
442.31	163.84
442.50	149.79
442.68	98.30
442.87	86.60
443.05	124.05
443.24	81.92
443.43	203.63
443.61	128.73
443.80	119.37
443.98	159.16
444.17	105.32
444.35	124.05
444.54	154.48
444.73	81.92
444.91	124.05
445.10	100.64
445.28	88.94
445.47	53.83
445.65	67.88
445.84	84.26
446.02	121.71
446.21	93.62
446.39	102.98
446.58	93.62
446.77	140.43
446.95	224.69
447.14	135.75
447.32	187.24
447.51	173.20
447.69	187.24
447.88	107.66
448.06	126.39
448.25	117.03
448.43	56.17
448.62	215.33
448.80	105.32
448.99	229.37
449.17	70.22
449.36	145.11
449.54	149.79
449.73	98.30
449.91	142.77
450.10	142.77
450.28	205.97
450.46	198.95
450.65	135.75
450.83	149.79
451.02	124.05
451.20	110.01
451.39	175.54
451.57	159.16
451.76	121.71
451.94	170.86
452.13	173.20
452.31	163.84
452.49	114.69
452.68	81.92
452.86	140.43
453.05	215.33
453.23	177.88
453.42	110.01
453.60	168.52
453.78	86.60
453.97	79.58
454.15	114.69
454.34	140.43
454.52	39.79
454.70	147.45
454.89	133.41
455.07	149.79
455.26	107.66
455.44	121.71
455.62	70.22
455.81	142.77
455.99	201.29
456.17	126.39
456.36	145.11
456.54	161.50
456.73	112.35
456.91	86.60
457.09	166.18
457.28	234.05
457.46	114.69
457.64	138.09
457.83	91.28
458.01	175.54
458.19	131.07
458.38	119.37
458.56	142.77
458.74	102.98
458.93	110.01
459.11	135.75
459.29	231.71
459.48	112.35
459.66	182.56
459.84	98.30
460.03	222.35
460.21	184.90
460.39	110.01
460.57	138.09
460.76	198.95
460.94	79.58
461.12	149.79
461.31	119.37
461.49	124.05
461.67	86.60
461.85	128.73
462.04	105.32
462.22	561.73
462.40	180.22
462.59	173.20
462.77	79.58
462.95	152.13
463.13	93.62
463.32	105.32
463.50	131.07
463.68	177.88
463.86	117.03
464.05	58.51
464.23	114.69
464.41	177.88
464.59	149.79
464.78	95.96
464.96	175.54
465.14	133.41
465.32	86.60
465.50	149.79
465.69	72.56
465.87	121.71
466.05	196.60
466.23	170.86
466.41	110.01
466.60	105.32
466.78	128.73
466.96	262.14
467.14	194.26
467.32	170.86
467.51	126.39
467.69	149.79
467.87	208.31
468.05	138.09
468.23	191.92
468.41	154.48
468.60	163.84
468.78	142.77
468.96	154.48
469.14	140.43
469.32	107.66
469.50	110.01
469.69	152.13
469.87	112.35
470.05	187.24
470.23	46.81
470.41	124.05
470.59	131.07
470.77	119.37
470.95	98.30
471.14	210.65
471.32	156.82
471.50	182.56
471.68	175.54
471.86	142.77
472.04	156.82
472.22	149.79
472.40	126.39
472.58	138.09
472.77	184.90
472.95	91.28
473.13	170.86
473.31	145.11
473.49	72.56
473.67	105.32
473.85	145.11
474.03	187.24
474.21	102.98
474.39	208.31
474.57	142.77
474.75	131.07
474.93	154.48
475.12	149.79
475.30	142.77
475.48	77.24
475.66	128.73
475.84	135.75
476.02	147.45
476.20	154.48
476.38	175.54
476.56	252.78
476.74	135.75
476.92	98.30
477.10	128.73
477.28	121.71
477.46	112.35
477.64	168.52
477.82	140.43
478.00	124.05
478.18	102.98
478.36	154.48
478.54	79.58
478.72	133.41
478.90	145.11
479.08	88.94
479.26	196.60
479.44	79.58
479.62	117.03
479.80	117.03
479.98	156.82
480.16	100.64
480.34	46.81
480.52	234.05
480.70	198.95
480.88	72.56
481.06	70.22
481.24	212.99
481.41	138.09
481.59	135.75
481.77	175.54
481.95	184.90
482.13	212.99
482.31	182.56
482.49	117.03
482.67	175.54
482.85	187.24
483.03	166.18
483.21	152.13
483.39	107.66
483.57	107.66
483.74	177.88
483.92	173.20
484.10	224.69
484.28	124.05
484.46	231.71
484.64	121.71
484.82	156.82
485.00	105.32
485.18	79.58
485.35	126.39
485.53	184.90
485.71	124.05
485.89	170.86
486.07	142.77
486.25	126.39
486.43	156.82
486.61	159.16
486.78	159.16
486.96	102.98
487.14	234.05
487.32	84.26
487.50	60.85
487.68	229.37
487.85	170.86
488.03	191.92
488.21	117.03
488.39	198.95
488.57	191.92
488.75	79.58
488.92	341.72
489.10	173.20
489.28	198.95
489.46	135.75
489.64	126.39
489.81	217.67
489.99	276.18
490.17	191.92
490.35	184.90
490.53	166.18
490.70	112.35
490.88	152.13
491.06	152.13
491.24	163.84
491.41	269.16
491.59	229.37
491.77	121.71
491.95	105.32
492.13	187.24
492.30	208.31
492.48	154.48
492.66	156.82
492.84	201.29
493.01	262.14
493.19	135.75
493.37	163.84
493.54	98.30
493.72	177.88
493.90	182.56
494.08	163.84
494.25	205.97
494.43	98.30
494.61	138.09
494.79	149.79
494.96	166.18
495.14	184.90
495.32	159.16
495.49	147.45
495.67	198.95
495.85	217.67
496.02	84.26
496.20	191.92
496.38	255.12
496.55	189.58
496.73	222.35
496.91	161.50
497.09	227.03
497.26	210.65
497.44	135.75
497.62	175.54
497.79	159.16
497.97	184.90
498.14	168.52
498.32	212.99
498.50	187.24
498.67	147.45
498.85	131.07
499.03	212.99
499.20	135.75
499.38	149.79
499.56	133.41
499.73	208.31
499.91	227.03
500.08	145.11
500.26	198.95
500.44	175.54
500.61	91.28
500.79	88.94
500.97	212.99
501.14	248.10
501.32	224.69
501.49	168.52
501.67	135.75
501.84	142.77
502.02	248.10
502.20	257.46
502.37	173.20
502.55	184.90
502.72	175.54
502.90	241.08
503.07	189.58
503.25	238.73
503.43	175.54
503.60	234.05
503.78	252.78
503.95	215.33
504.13	215.33
504.30	245.76
504.48	243.42
504.65	168.52
504.83	220.01
505.01	210.65
505.18	161.50
505.36	140.43
505.53	177.88
505.71	196.60
505.88	250.44
506.06	198.95
506.23	156.82
506.41	142.77
506.58	133.41
506.76	135.75
506.93	86.60
507.11	161.50
507.28	173.20
507.46	224.69
507.63	215.33
507.81	163.84
507.98	177.88
508.16	245.76
508.33	208.31
508.50	191.92
508.68	163.84
508.85	196.60
509.03	161.50
509.20	121.71
509.38	112.35
509.55	238.73
509.73	177.88
509.90	189.58
510.08	224.69
510.25	203.63
510.42	191.92
510.60	128.73
510.77	156.82
510.95	177.88
511.12	196.60
511.30	234.05
511.47	212.99
511.64	264.48
511.82	224.69
511.99	297.25
512.17	257.46
512.34	189.58
512.51	173.20
512.69	208.31
512.86	175.54
513.04	182.56
513.21	166.18
513.38	241.08
513.56	187.24
513.73	194.26
513.90	166.18
514.08	168.52
514.25	224.69
514.43	210.65
514.60	177.88
514.77	189.58
514.95	189.58
515.12	215.33
515.29	196.60
515.47	175.54
515.64	135.75
515.81	191.92
515.99	250.44
516.16	252.78
516.33	224.69
516.51	292.57
516.68	257.46
516.85	152.13
517.03	182.56
517.20	205.97
517.37	215.33
517.54	182.56
517.72	201.29
517.89	208.31
518.06	156.82
518.24	198.95
518.41	236.39
518.58	264.48
518.75	273.84
518.93	187.24
519.10	184.90
519.27	133.41
519.45	159.16
519.62	227.03
519.79	238.73
519.96	133.41
520.14	252.78
520.31	187.24
520.48	142.77
520.65	203.63
520.83	220.01
521.00	189.58
521.17	140.43
521.34	177.88
521.52	124.05
521.69	224.69
521.86	205.97
522.03	173.20
522.20	241.08
522.38	159.16
522.55	234.05
522.72	173.20
522.89	215.33
523.07	294.91
523.24	196.60
523.41	154.48
523.58	201.29
523.75	194.26
523.92	194.26
524.10	208.31
524.27	159.16
524.44	220.01
524.61	252.78
524.78	140.43
524.96	269.16
525.13	245.76
525.30	252.78
525.47	163.84
525.64	227.03
525.81	252.78
525.98	264.48
526.16	217.67
526.33	156.82
526.50	142.77
526.67	250.44
526.84	271.50
527.01	215.33
527.18	210.65
527.36	184.90
527.53	149.79
527.70	250.44
527.87	98.30
528.04	273.84
528.21	161.50
528.38	215.33
528.55	234.05
528.72	273.84
528.89	273.84
529.07	290.23
529.24	248.10
529.41	334.70
529.58	299.59
529.75	194.26
529.92	229.37
530.09	205.97
530.26	133.41
530.43	180.22
530.60	248.10
530.77	278.52
530.94	163.84
531.11	124.05
531.28	227.03
531.46	215.33
531.63	152.13
531.80	215.33
531.97	245.76
532.14	252.78
532.31	231.71
532.48	203.63
532.65	252.78
532.82	290.23
532.99	346.40
533.16	360.44
533.33	294.91
533.50	304.27
533.67	264.48
533.84	437.68
534.01	468.11
534.18	322.99
534.35	283.20
534.52	177.88
534.69	259.80
534.86	238.73
535.03	191.92
535.20	177.88
535.37	250.44
535.54	222.35
535.71	210.65
535.88	245.76
536.05	250.44
536.22	177.88
536.38	168.52
536.55	187.24
536.72	238.73
536.89	154.48
537.06	243.42
537.23	222.35
537.40	255.12
537.57	208.31
537.74	259.80
537.91	287.89
538.08	236.39
538.25	308.95
538.42	203.63
538.59	203.63
538.75	227.03
538.92	262.14
539.09	262.14
539.26	208.31
539.43	458.74
539.60	1252.19
539.77	1846.68
539.94	2043.29
540.11	1266.23
540.28	781.74
540.44	631.94
540.61	271.50
540.78	187.24
540.95	138.09
541.12	194.26
541.29	220.01
541.46	234.05
541.62	243.42
541.79	236.39
541.96	184.90
542.13	210.65
542.30	229.37
542.47	163.84
542.63	203.63
542.80	210.65
542.97	290.23
543.14	201.29
543.31	236.39
543.48	224.69
543.64	245.76
543.81	234.05
543.98	210.65
544.15	203.63
544.32	196.60
544.48	252.78
544.65	222.35
544.82	278.52
544.99	208.31
545.16	259.80
545.32	255.12
545.49	170.86
545.66	187.24
545.83	196.60
546.00	184.90
546.16	259.80
546.33	229.37
546.50	287.89
546.67	215.33
546.83	138.09
547.00	205.97
547.17	241.08
547.34	161.50
547.50	243.42
547.67	215.33
547.84	180.22
548.00	191.92
548.17	271.50
548.34	210.65
548.51	222.35
548.67	255.12
548.84	236.39
549.01	231.71
549.18	210.65
549.34	222.35
549.51	149.79
549.68	248.10
549.84	212.99
550.01	229.37
550.18	290.23
550.34	369.80
550.51	248.10
550.68	248.10
550.84	224.69
551.01	184.90
551.18	191.92
551.34	212.99
551.51	135.75
551.68	215.33
551.84	234.05
552.01	145.11
552.18	142.77
552.34	161.50
552.51	184.90
552.68	212.99
552.84	191.92
553.01	203.63
553.18	203.63
553.34	156.82
553.51	220.01
553.67	196.60
553.84	297.25
554.01	220.01
554.17	198.95
554.34	110.01
554.51	203.63
554.67	205.97
554.84	168.52
555.00	243.42
555.17	243.42
555.33	191.92
555.50	236.39
555.67	276.18
555.83	236.39
556.00	320.65
556.16	390.87
556.33	189.58
556.50	236.39
556.66	187.24
556.83	222.35
556.99	187.24
557.16	159.16
557.32	152.13
557.49	215.33
557.65	187.24
557.82	229.37
557.98	287.89
558.15	238.73
558.32	210.65
558.48	245.76
558.65	245.76
558.81	191.92
558.98	184.90
559.14	248.10
559.31	187.24
559.47	180.22
559.64	198.95
559.80	276.18
559.97	159.16
560.13	189.58
560.30	184.90
560.46	198.95
560.63	224.69
560.79	198.95
560.96	210.65
561.12	159.16
561.29	255.12
561.45	126.39
561.61	203.63
561.78	287.89
561.94	227.03
562.11	119.37
562.27	152.13
562.44	161.50
562.60	229.37
562.77	194.26
562.93	217.67
563.10	182.56
563.26	191.92
563.42	182.56
563.59	196.60
563.75	168.52
563.92	245.76
564.08	189.58
564.24	140.43
564.41	287.89
564.57	149.79
564.74	304.27
564.90	163.84
565.07	276.18
565.23	294.91
565.39	248.10
565.56	285.55
565.72	224.69
565.88	236.39
566.05	227.03
566.21	189.58
566.38	231.71
566.54	248.10
566.70	217.67
566.87	222.35
567.03	212.99
567.19	217.67
567.36	250.44
567.52	194.26
567.68	215.33
567.85	266.82
568.01	222.35
568.17	156.82
568.34	245.76
568.50	238.73
568.66	163.84
568.83	301.93
568.99	189.58
569.15	222.35
569.32	173.20
569.48	168.52
569.64	220.01
569.81	250.44
569.97	208.31
570.13	231.71
570.30	220.01
570.46	170.86
570.62	184.90
570.78	175.54
570.95	205.97
571.11	156.82
571.27	248.10
571.43	112.35
571.60	198.95
571.76	227.03
571.92	189.58
572.09	180.22
572.25	168.52
572.41	215.33
572.57	163.84
572.74	231.71
572.90	175.54
573.06	175.54
573.22	180.22
573.38	191.92
573.55	283.20
573.71	250.44
573.87	217.67
574.03	149.79
574.20	170.86
574.36	287.89
574.52	395.55
574.68	337.04
574.84	259.80
575.01	367.46
575.17	241.08
575.33	229.37
575.49	273.84
575.65	299.59
575.82	379.17
575.98	664.71
576.14	777.06
576.30	861.32
576.46	664.71
576.62	416.62
576.79	383.85
576.95	418.96
577.11	287.89
577.27	290.23
577.43	301.93
577.59	271.50
577.75	271.50
577.92	306.61
578.08	238.73
578.24	264.48
578.40	217.67
578.56	308.95
578.72	346.40
578.88	278.52
579.04	287.89
579.21	278.52
579.37	383.85
579.53	330.02
579.69	266.82
579.85	353.42
580.01	367.46
580.17	400.23
580.33	376.83
580.49	341.72
580.65	409.59
580.82	308.95
580.98	400.23
581.14	390.87
581.30	407.25
581.46	423.64
581.62	582.79
581.78	702.16
581.94	702.16
582.10	493.85
582.26	465.77
582.42	395.55
582.58	521.94
582.74	444.70
582.90	458.74
583.06	512.58
583.22	493.85
583.38	517.26
583.54	503.22
583.70	706.84
583.86	812.17
584.02	877.70
584.18	1104.73
584.34	1453.47
584.50	3889.97
584.66	30778.04
584.82	62953.39
584.98	65535.00
585.14	65535.00
585.30	62864.45
585.46	40023.16
585.62	24184.76
585.78	11246.27
585.94	4292.54
586.10	2092.44
586.26	1315.38
586.42	961.96
586.58	814.51
586.74	802.80
586.90	709.18
587.06	603.86
587.22	617.90
587.38	521.94
587.54	1472.20
587.70	4472.76
587.86	7702.70
588.02	8814.46
588.18	6090.07
588.34	3901.67
588.49	2415.43
588.65	1533.05
588.81	812.17
588.97	425.98
589.13	451.72
589.29	376.83
589.45	421.30
589.61	393.21
589.77	440.02
589.93	533.64
590.08	531.30
590.24	463.43
590.40	447.04
590.56	463.43
590.72	447.04
590.88	388.53
591.04	308.95
591.20	339.38
591.35	334.70
591.51	376.83
591.67	285.55
591.83	339.38
591.99	367.46
592.15	322.99
592.31	241.08
592.46	325.33
592.62	315.97
592.78	259.80
592.94	238.73
593.10	297.25
593.26	362.78
593.41	332.36
593.57	362.78
593.73	608.54
593.89	3522.51
594.05	9563.43
594.20	15239.23
594.36	14682.18
594.52	9336.40
594.68	5593.88
594.84	3803.37
594.99	2050.31
595.15	905.79
595.31	519.60
595.47	402.57
595.62	334.70
595.78	376.83
595.94	390.87
596.10	421.30
596.25	451.72
596.41	425.98
596.57	332.36
596.73	341.72
596.88	561.73
597.04	1844.34
597.20	3112.91
597.36	3630.17
597.51	2722.04
597.67	1739.02
597.83	1212.40
597.99	805.14
598.14	552.37
598.30	381.51
598.46	325.33
598.61	416.62
598.77	290.23
598.93	311.29
599.09	322.99
599.24	276.18
599.40	276.18
599.56	285.55
599.71	292.57
599.87	290.23
600.03	292.57
600.18	278.52
600.34	173.20
600.50	217.67
600.65	224.69
600.81	177.88
600.97	227.03
601.12	205.97
601.28	203.63
601.44	217.67
601.59	191.92
601.75	238.73
601.91	250.44
602.06	255.12
602.22	313.63
602.37	793.44
602.53	2186.06
602.69	3503.78
602.84	3976.57
603.00	2773.53
603.16	1825.62
603.31	1313.04
603.47	868.34
603.62	475.13
603.78	404.91
603.94	346.40
604.09	283.20
604.25	280.86
604.40	266.82
604.56	245.76
604.71	217.67
604.87	241.08
605.03	208.31
605.18	332.36
605.34	283.20
605.49	252.78
605.65	292.57
605.80	271.50
605.96	259.80
606.12	362.78
606.27	339.38
606.43	381.51
606.58	425.98
606.74	1076.65
606.89	4362.76
607.05	9427.68
607.20	12903.37
607.36	10588.58
607.51	7110.55
607.67	4458.72
607.82	2991.20
607.98	1722.63
608.13	849.61
608.29	578.11
608.44	465.77
608.60	428.32
608.75	540.66
608.91	1446.45
609.06	6864.79
609.22	15896.92
609.37	22469.14
609.53	19552.84
609.68	12821.45
609.84	8177.83
609.99	5252.16
610.15	2848.43
610.30	1224.10
610.46	741.95
610.61	503.22
610.76	425.98
610.92	390.87
611.07	360.44
611.23	322.99
611.38	376.83
611.54	313.63
611.69	339.38
611.84	306.61
