SpectraSuite Data File
++++++++++++++++++++++++++++++++++++
Date: Fri Oct 04 11:47:07 GMT-05:00 2013
User: price-jones
Dark Spectrum Present: No
Reference Spectrum Present: No
Number of Sampled Component Spectra: 1
Spectrometers: USB2+H05261
Integration Time (usec): 100000 (USB2+H05261)
Spectra Averaged: 1 (USB2+H05261)
Boxcar Smoothing: 0 (USB2+H05261)
Correct for Electrical Dark: No (USB2+H05261)
Strobe/Lamp Enabled: No (USB2+H05261)
Correct for Detector Non-linearity: No (USB2+H05261)
Correct for Stray Light: No (USB2+H05261)
Number of Pixels in Processed Spectrum: 2048
>>>>>Begin Processed Spectral Data<<<<<
365.73	0.00
365.92	0.00
366.12	0.00
366.32	0.00
366.52	0.00
366.72	0.00
366.91	0.00
367.11	0.00
367.31	0.00
367.51	0.00
367.70	0.00
367.90	0.00
368.10	0.00
368.30	28.09
368.49	0.00
368.69	0.00
368.89	0.00
369.09	0.00
369.28	0.00
369.48	0.00
369.68	0.00
369.87	0.00
370.07	0.00
370.27	39.79
370.47	32.77
370.66	0.00
370.86	35.11
371.06	98.30
371.25	46.81
371.45	0.00
371.65	124.05
371.84	56.17
372.04	0.00
372.24	117.03
372.44	63.19
372.63	126.39
372.83	67.88
373.03	110.01
373.22	95.96
373.42	37.45
373.62	51.49
373.81	65.54
374.01	70.22
374.21	119.37
374.40	35.11
374.60	91.28
374.79	105.32
374.99	37.45
375.19	126.39
375.38	107.66
375.58	79.58
375.78	170.86
375.97	39.79
376.17	145.11
376.37	88.94
376.56	77.24
376.76	86.60
376.95	16.38
377.15	77.24
377.35	156.82
377.54	81.92
377.74	126.39
377.93	98.30
378.13	117.03
378.33	70.22
378.52	65.54
378.72	126.39
378.91	126.39
379.11	107.66
379.31	149.79
379.50	18.72
379.70	163.84
379.89	128.73
380.09	110.01
380.28	102.98
380.48	119.37
380.68	119.37
380.87	88.94
381.07	77.24
381.26	152.13
381.46	112.35
381.65	58.51
381.85	133.41
382.04	49.15
382.24	100.64
382.43	35.11
382.63	65.54
382.83	81.92
383.02	135.75
383.22	119.37
383.41	93.62
383.61	149.79
383.80	63.19
384.00	72.56
384.19	74.90
384.39	110.01
384.58	191.92
384.78	121.71
384.97	95.96
385.17	86.60
385.36	100.64
385.56	145.11
385.75	56.17
385.95	63.19
386.14	133.41
386.34	105.32
386.53	142.77
386.72	112.35
386.92	107.66
387.11	110.01
387.31	140.43
387.50	100.64
387.70	63.19
387.89	72.56
388.09	70.22
388.28	60.85
388.48	28.09
388.67	140.43
388.86	93.62
389.06	35.11
389.25	53.83
389.45	107.66
389.64	88.94
389.84	60.85
390.03	98.30
390.22	28.09
390.42	133.41
390.61	135.75
390.81	88.94
391.00	124.05
391.19	117.03
391.39	86.60
391.58	105.32
391.78	79.58
391.97	128.73
392.16	74.90
392.36	95.96
392.55	107.66
392.75	67.88
392.94	18.72
393.13	39.79
393.33	0.00
393.52	145.11
393.71	100.64
393.91	124.05
394.10	72.56
394.29	145.11
394.49	168.52
394.68	170.86
394.88	128.73
395.07	114.69
395.26	74.90
395.46	112.35
395.65	70.22
395.84	102.98
396.04	154.48
396.23	114.69
396.42	70.22
396.62	105.32
396.81	161.50
397.00	128.73
397.19	37.45
397.39	142.77
397.58	105.32
397.77	39.79
397.97	107.66
398.16	124.05
398.35	86.60
398.55	128.73
398.74	0.00
398.93	114.69
399.12	128.73
399.32	21.06
399.51	56.17
399.70	138.09
399.90	37.45
400.09	81.92
400.28	140.43
400.47	128.73
400.67	95.96
400.86	91.28
401.05	102.98
401.24	140.43
401.44	95.96
401.63	168.52
401.82	110.01
402.01	98.30
402.21	159.16
402.40	159.16
402.59	86.60
402.78	72.56
402.97	124.05
403.17	98.30
403.36	131.07
403.55	152.13
403.74	88.94
403.93	182.56
404.13	189.58
404.32	140.43
404.51	145.11
404.70	81.92
404.89	72.56
405.09	210.65
405.28	100.64
405.47	46.81
405.66	110.01
405.85	175.54
406.05	74.90
406.24	119.37
406.43	138.09
406.62	128.73
406.81	121.71
407.00	156.82
407.20	180.22
407.39	107.66
407.58	128.73
407.77	128.73
407.96	191.92
408.15	79.58
408.34	72.56
408.54	175.54
408.73	95.96
408.92	119.37
409.11	175.54
409.30	98.30
409.49	112.35
409.68	124.05
409.87	124.05
410.07	39.79
410.26	0.00
410.45	110.01
410.64	98.30
410.83	110.01
411.02	112.35
411.21	149.79
411.40	44.47
411.59	149.79
411.78	74.90
411.98	105.32
412.17	81.92
412.36	65.54
412.55	154.48
412.74	98.30
412.93	175.54
413.12	51.49
413.31	105.32
413.50	170.86
413.69	124.05
413.88	234.05
414.07	184.90
414.26	77.24
414.45	112.35
414.64	135.75
414.83	117.03
415.02	102.98
415.22	166.18
415.41	154.48
415.60	154.48
415.79	159.16
415.98	205.97
416.17	65.54
416.36	124.05
416.55	67.88
416.74	149.79
416.93	63.19
417.12	35.11
417.31	124.05
417.50	35.11
417.69	210.65
417.88	131.07
418.07	147.45
418.26	119.37
418.45	81.92
418.64	278.52
418.83	224.69
419.02	238.73
419.21	173.20
419.39	107.66
419.58	147.45
419.77	128.73
419.96	163.84
420.15	177.88
420.34	21.06
420.53	100.64
420.72	145.11
420.91	133.41
421.10	189.58
421.29	163.84
421.48	93.62
421.67	154.48
421.86	112.35
422.05	102.98
422.24	117.03
422.43	159.16
422.61	166.18
422.80	65.54
422.99	98.30
423.18	81.92
423.37	67.88
423.56	107.66
423.75	184.90
423.94	84.26
424.13	145.11
424.32	177.88
424.50	145.11
424.69	149.79
424.88	133.41
425.07	35.11
425.26	154.48
425.45	241.08
425.64	227.03
425.83	159.16
426.01	212.99
426.20	110.01
426.39	184.90
426.58	187.24
426.77	107.66
426.96	184.90
427.15	201.29
427.33	105.32
427.52	60.85
427.71	98.30
427.90	112.35
428.09	63.19
428.28	98.30
428.46	91.28
428.65	154.48
428.84	135.75
429.03	194.26
429.22	124.05
429.40	107.66
429.59	79.58
429.78	128.73
429.97	189.58
430.16	124.05
430.34	81.92
430.53	168.52
430.72	60.85
430.91	72.56
431.10	58.51
431.28	46.81
431.47	234.05
431.66	86.60
431.85	173.20
432.03	124.05
432.22	180.22
432.41	126.39
432.60	182.56
432.79	236.39
432.97	280.86
433.16	365.12
433.35	250.44
433.54	257.46
433.72	163.84
433.91	149.79
434.10	163.84
434.28	229.37
434.47	175.54
434.66	191.92
434.85	166.18
435.03	145.11
435.22	147.45
435.41	126.39
435.59	224.69
435.78	135.75
435.97	119.37
436.16	170.86
436.34	215.33
436.53	135.75
436.72	154.48
436.90	72.56
437.09	175.54
437.28	145.11
437.46	152.13
437.65	135.75
437.84	110.01
438.02	88.94
438.21	95.96
438.40	110.01
438.58	128.73
438.77	79.58
438.96	205.97
439.14	77.24
439.33	74.90
439.52	102.98
439.70	140.43
439.89	161.50
440.08	173.20
440.26	121.71
440.45	196.60
440.63	203.63
440.82	187.24
441.01	173.20
441.19	168.52
441.38	126.39
441.57	145.11
441.75	238.73
441.94	187.24
442.12	175.54
442.31	133.41
442.50	86.60
442.68	168.52
442.87	131.07
443.05	88.94
443.24	156.82
443.43	147.45
443.61	72.56
443.80	147.45
443.98	131.07
444.17	58.51
444.35	168.52
444.54	168.52
444.73	86.60
444.91	140.43
445.10	67.88
445.28	95.96
445.47	124.05
445.65	126.39
445.84	161.50
446.02	117.03
446.21	119.37
446.39	145.11
446.58	177.88
446.77	124.05
446.95	93.62
447.14	170.86
447.32	102.98
447.51	152.13
447.69	161.50
447.88	173.20
448.06	205.97
448.25	119.37
448.43	65.54
448.62	63.19
448.80	210.65
448.99	93.62
449.17	88.94
449.36	128.73
449.54	114.69
449.73	91.28
449.91	168.52
450.10	119.37
450.28	201.29
450.46	168.52
450.65	175.54
450.83	168.52
451.02	112.35
451.20	182.56
451.39	117.03
451.57	194.26
451.76	84.26
451.94	114.69
452.13	196.60
452.31	119.37
452.49	112.35
452.68	107.66
452.86	114.69
453.05	142.77
453.23	189.58
453.42	161.50
453.60	184.90
453.78	135.75
453.97	117.03
454.15	65.54
454.34	102.98
454.52	201.29
454.70	138.09
454.89	173.20
455.07	184.90
455.26	117.03
455.44	131.07
455.62	147.45
455.81	133.41
455.99	102.98
456.17	163.84
456.36	168.52
456.54	149.79
456.73	156.82
456.91	156.82
457.09	142.77
457.28	91.28
457.46	154.48
457.64	126.39
457.83	140.43
458.01	88.94
458.19	145.11
458.38	220.01
458.56	220.01
458.74	72.56
458.93	128.73
459.11	168.52
459.29	110.01
459.48	95.96
459.66	140.43
459.84	107.66
460.03	170.86
460.21	161.50
460.39	107.66
460.57	135.75
460.76	110.01
460.94	126.39
461.12	196.60
461.31	170.86
461.49	140.43
461.67	154.48
461.85	149.79
462.04	147.45
462.22	606.20
462.40	180.22
462.59	196.60
462.77	149.79
462.95	86.60
463.13	152.13
463.32	100.64
463.50	187.24
463.68	180.22
463.86	138.09
464.05	98.30
464.23	128.73
464.41	147.45
464.59	95.96
464.78	58.51
464.96	51.49
465.14	182.56
465.32	49.15
465.50	131.07
465.69	131.07
465.87	117.03
466.05	142.77
466.23	177.88
466.41	131.07
466.60	166.18
466.78	93.62
466.96	140.43
467.14	114.69
467.32	175.54
467.51	140.43
467.69	205.97
467.87	140.43
468.05	119.37
468.23	161.50
468.41	194.26
468.60	145.11
468.78	142.77
468.96	168.52
469.14	182.56
469.32	156.82
469.50	224.69
469.69	173.20
469.87	191.92
470.05	131.07
470.23	95.96
470.41	196.60
470.59	149.79
470.77	168.52
470.95	121.71
471.14	163.84
471.32	159.16
471.50	173.20
471.68	114.69
471.86	175.54
472.04	110.01
472.22	161.50
472.40	121.71
472.58	126.39
472.77	49.15
472.95	154.48
473.13	229.37
473.31	224.69
473.49	138.09
473.67	170.86
473.85	175.54
474.03	187.24
474.21	102.98
474.39	222.35
474.57	215.33
474.75	112.35
474.93	121.71
475.12	154.48
475.30	72.56
475.48	145.11
475.66	124.05
475.84	102.98
476.02	201.29
476.20	124.05
476.38	128.73
476.56	182.56
476.74	177.88
476.92	196.60
477.10	102.98
477.28	194.26
477.46	149.79
477.64	196.60
477.82	86.60
478.00	72.56
478.18	95.96
478.36	152.13
478.54	133.41
478.72	154.48
478.90	154.48
479.08	194.26
479.26	198.95
479.44	128.73
479.62	135.75
479.80	98.30
479.98	177.88
480.16	133.41
480.34	154.48
480.52	145.11
480.70	163.84
480.88	107.66
481.06	140.43
481.24	203.63
481.41	222.35
481.59	131.07
481.77	154.48
481.95	166.18
482.13	203.63
482.31	170.86
482.49	173.20
482.67	112.35
482.85	234.05
483.03	126.39
483.21	203.63
483.39	110.01
483.57	191.92
483.74	175.54
483.92	163.84
484.10	128.73
484.28	175.54
484.46	255.12
484.64	131.07
484.82	105.32
485.00	149.79
485.18	95.96
485.35	152.13
485.53	140.43
485.71	217.67
485.89	170.86
486.07	187.24
486.25	180.22
486.43	124.05
486.61	142.77
486.78	191.92
486.96	198.95
487.14	105.32
487.32	182.56
487.50	98.30
487.68	198.95
487.85	56.17
488.03	131.07
488.21	243.42
488.39	175.54
488.57	205.97
488.75	182.56
488.92	416.62
489.10	114.69
489.28	95.96
489.46	131.07
489.64	156.82
489.81	180.22
489.99	180.22
490.17	152.13
490.35	177.88
490.53	173.20
490.70	131.07
490.88	182.56
491.06	145.11
491.24	222.35
491.41	133.41
491.59	152.13
491.77	102.98
491.95	168.52
492.13	227.03
492.30	149.79
492.48	182.56
492.66	126.39
492.84	114.69
493.01	149.79
493.19	140.43
493.37	257.46
493.54	161.50
493.72	138.09
493.90	191.92
494.08	201.29
494.25	170.86
494.43	198.95
494.61	191.92
494.79	177.88
494.96	173.20
495.14	124.05
495.32	170.86
495.49	262.14
495.67	128.73
495.85	152.13
496.02	194.26
496.20	227.03
496.38	227.03
496.55	201.29
496.73	170.86
496.91	212.99
497.09	245.76
497.26	210.65
497.44	182.56
497.62	161.50
497.79	156.82
497.97	154.48
498.14	220.01
498.32	175.54
498.50	175.54
498.67	208.31
498.85	208.31
499.03	147.45
499.20	220.01
499.38	257.46
499.56	175.54
499.73	194.26
499.91	177.88
500.08	234.05
500.26	205.97
500.44	175.54
500.61	210.65
500.79	119.37
500.97	173.20
501.14	198.95
501.32	241.08
501.49	215.33
501.67	135.75
501.84	152.13
502.02	112.35
502.20	264.48
502.37	224.69
502.55	98.30
502.72	142.77
502.90	170.86
503.07	208.31
503.25	177.88
503.43	215.33
503.60	278.52
503.78	217.67
503.95	234.05
504.13	142.77
504.30	182.56
504.48	203.63
504.65	234.05
504.83	243.42
505.01	166.18
505.18	163.84
505.36	152.13
505.53	236.39
505.71	133.41
505.88	166.18
506.06	173.20
506.23	180.22
506.41	234.05
506.58	133.41
506.76	152.13
506.93	175.54
507.11	187.24
507.28	236.39
507.46	142.77
507.63	189.58
507.81	252.78
507.98	182.56
508.16	189.58
508.33	182.56
508.50	215.33
508.68	212.99
508.85	234.05
509.03	259.80
509.20	175.54
509.38	182.56
509.55	194.26
509.73	257.46
509.90	248.10
510.08	191.92
510.25	311.29
510.42	255.12
510.60	259.80
510.77	208.31
510.95	210.65
511.12	217.67
511.30	241.08
511.47	362.78
511.64	269.16
511.82	180.22
511.99	194.26
512.17	224.69
512.34	234.05
512.51	177.88
512.69	210.65
512.86	177.88
513.04	124.05
513.21	198.95
513.38	133.41
513.56	161.50
513.73	203.63
513.90	243.42
514.08	248.10
514.25	231.71
514.43	252.78
514.60	191.92
514.77	210.65
514.95	203.63
515.12	220.01
515.29	168.52
515.47	278.52
515.64	201.29
515.81	159.16
515.99	248.10
516.16	156.82
516.33	189.58
516.51	105.32
516.68	224.69
516.85	133.41
517.03	149.79
517.20	175.54
517.37	196.60
517.54	231.71
517.72	159.16
517.89	191.92
518.06	133.41
518.24	322.99
518.41	313.63
518.58	191.92
518.75	238.73
518.93	184.90
519.10	227.03
519.27	196.60
519.45	222.35
519.62	166.18
519.79	201.29
519.96	175.54
520.14	231.71
520.31	191.92
520.48	241.08
520.65	259.80
520.83	222.35
521.00	170.86
521.17	203.63
521.34	180.22
521.52	220.01
521.69	262.14
521.86	255.12
522.03	313.63
522.20	285.55
522.38	121.71
522.55	161.50
522.72	138.09
522.89	278.52
523.07	208.31
523.24	283.20
523.41	196.60
523.58	163.84
523.75	210.65
523.92	133.41
524.10	142.77
524.27	205.97
524.44	173.20
524.61	212.99
524.78	173.20
524.96	227.03
525.13	196.60
525.30	236.39
525.47	191.92
525.64	238.73
525.81	234.05
525.98	203.63
526.16	227.03
526.33	184.90
526.50	173.20
526.67	220.01
526.84	166.18
527.01	212.99
527.18	220.01
527.36	252.78
527.53	156.82
527.70	215.33
527.87	163.84
528.04	271.50
528.21	184.90
528.38	280.86
528.55	276.18
528.72	208.31
528.89	166.18
529.07	217.67
529.24	227.03
529.41	276.18
529.58	194.26
529.75	198.95
529.92	236.39
530.09	229.37
530.26	210.65
530.43	248.10
530.60	187.24
530.77	220.01
530.94	215.33
531.11	173.20
531.28	180.22
531.46	238.73
531.63	292.57
531.80	220.01
531.97	194.26
532.14	135.75
532.31	241.08
532.48	322.99
532.65	397.89
532.82	440.02
532.99	416.62
533.16	308.95
533.33	290.23
533.50	264.48
533.67	313.63
533.84	498.53
534.01	524.28
534.18	435.34
534.35	320.65
534.52	255.12
534.69	255.12
534.86	241.08
535.03	229.37
535.20	196.60
535.37	236.39
535.54	243.42
535.71	283.20
535.88	292.57
536.05	173.20
536.22	220.01
536.38	184.90
536.55	187.24
536.72	191.92
536.89	191.92
537.06	187.24
537.23	238.73
537.40	184.90
537.57	180.22
537.74	177.88
537.91	138.09
538.08	198.95
538.25	250.44
538.42	222.35
538.59	203.63
538.75	273.84
538.92	222.35
539.09	278.52
539.26	252.78
539.43	589.82
539.60	1500.28
539.77	2356.92
539.94	2565.23
540.11	1563.48
540.28	990.05
540.44	662.37
540.61	287.89
540.78	245.76
540.95	224.69
541.12	217.67
541.29	180.22
541.46	231.71
541.62	248.10
541.79	224.69
541.96	191.92
542.13	217.67
542.30	184.90
542.47	236.39
542.63	217.67
542.80	180.22
542.97	273.84
543.14	177.88
543.31	271.50
543.48	154.48
543.64	208.31
543.81	238.73
543.98	201.29
544.15	210.65
544.32	191.92
544.48	236.39
544.65	215.33
544.82	170.86
544.99	215.33
545.16	292.57
545.32	273.84
545.49	243.42
545.66	177.88
545.83	222.35
546.00	198.95
546.16	224.69
546.33	166.18
546.50	205.97
546.67	238.73
546.83	241.08
547.00	245.76
547.17	201.29
547.34	138.09
547.50	217.67
547.67	191.92
547.84	154.48
548.00	217.67
548.17	163.84
548.34	187.24
548.51	250.44
548.67	201.29
548.84	212.99
549.01	203.63
549.18	215.33
549.34	285.55
549.51	201.29
549.68	184.90
549.84	184.90
550.01	222.35
550.18	311.29
550.34	315.97
550.51	205.97
550.68	194.26
550.84	227.03
551.01	196.60
551.18	222.35
551.34	210.65
551.51	182.56
551.68	194.26
551.84	222.35
552.01	81.92
552.18	184.90
552.34	245.76
552.51	294.91
552.68	163.84
552.84	205.97
553.01	194.26
553.18	210.65
553.34	208.31
553.51	241.08
553.67	250.44
553.84	255.12
554.01	180.22
554.17	236.39
554.34	241.08
554.51	241.08
554.67	250.44
554.84	201.29
555.00	283.20
555.17	191.92
555.33	257.46
555.50	196.60
555.67	215.33
555.83	215.33
556.00	168.52
556.16	418.96
556.33	290.23
556.50	203.63
556.66	191.92
556.83	234.05
556.99	222.35
557.16	159.16
557.32	191.92
557.49	187.24
557.65	238.73
557.82	177.88
557.98	208.31
558.15	231.71
558.32	196.60
558.48	236.39
558.65	175.54
558.81	189.58
558.98	220.01
559.14	191.92
559.31	177.88
559.47	308.95
559.64	196.60
559.80	217.67
559.97	170.86
560.13	205.97
560.30	163.84
560.46	191.92
560.63	290.23
560.79	231.71
560.96	145.11
561.12	154.48
561.29	168.52
561.45	177.88
561.61	227.03
561.78	318.31
561.94	168.52
562.11	191.92
562.27	238.73
562.44	187.24
562.60	227.03
562.77	154.48
562.93	217.67
563.10	222.35
563.26	196.60
563.42	182.56
563.59	257.46
563.75	252.78
563.92	212.99
564.08	128.73
564.24	152.13
564.41	250.44
564.57	215.33
564.74	102.98
564.90	180.22
565.07	205.97
565.23	306.61
565.39	304.27
565.56	327.68
565.72	210.65
565.88	248.10
566.05	177.88
566.21	290.23
566.38	224.69
566.54	215.33
566.70	210.65
566.87	142.77
567.03	128.73
567.19	231.71
567.36	229.37
567.52	227.03
567.68	212.99
567.85	229.37
568.01	243.42
568.17	170.86
568.34	271.50
568.50	259.80
568.66	205.97
568.83	393.21
568.99	245.76
569.15	304.27
569.32	184.90
569.48	180.22
569.64	163.84
569.81	208.31
569.97	262.14
570.13	215.33
570.30	198.95
570.46	205.97
570.62	255.12
570.78	194.26
570.95	177.88
571.11	173.20
571.27	262.14
571.43	177.88
571.60	156.82
571.76	227.03
571.92	189.58
572.09	301.93
572.25	212.99
572.41	187.24
572.57	191.92
572.74	264.48
572.90	220.01
573.06	227.03
573.22	231.71
573.38	170.86
573.55	283.20
573.71	238.73
573.87	203.63
574.03	229.37
574.20	194.26
574.36	367.46
574.52	379.17
574.68	409.59
574.84	334.70
575.01	238.73
575.17	294.91
575.33	278.52
575.49	241.08
575.65	360.44
575.82	383.85
575.98	753.65
576.14	1020.47
576.30	1039.20
576.46	760.67
576.62	463.43
576.79	437.68
576.95	318.31
577.11	322.99
577.27	262.14
577.43	292.57
577.59	234.05
577.75	299.59
577.92	311.29
578.08	250.44
578.24	217.67
578.40	346.40
578.56	301.93
578.72	334.70
578.88	276.18
579.04	348.74
579.21	227.03
579.37	262.14
579.53	304.27
579.69	318.31
579.85	269.16
580.01	411.93
580.17	416.62
580.33	461.09
580.49	451.72
580.65	355.76
580.82	433.00
580.98	362.78
581.14	287.89
581.30	442.36
581.46	528.96
581.62	819.19
581.78	828.55
581.94	919.83
582.10	657.69
582.26	594.50
582.42	519.60
582.58	535.98
582.74	507.90
582.90	545.34
583.06	526.62
583.22	554.71
583.38	631.94
583.54	557.05
583.70	837.91
583.86	891.74
584.02	1144.52
584.18	1369.21
584.34	1902.86
584.50	4898.74
584.66	38101.58
584.82	65535.00
584.98	65535.00
585.14	65535.00
585.30	65535.00
585.46	53457.84
585.62	32840.06
585.78	14799.21
585.94	5678.14
586.10	2555.86
586.26	1659.44
586.42	1308.36
586.58	1020.47
586.74	821.53
586.90	851.96
587.06	798.12
587.22	720.88
587.38	737.27
587.54	1720.29
587.70	5488.56
587.86	10106.43
588.02	11555.22
588.18	7751.85
588.34	4919.81
588.49	3117.59
588.65	1996.48
588.81	922.17
588.97	510.24
589.13	428.32
589.29	404.91
589.45	416.62
589.61	433.00
589.77	493.85
589.93	535.98
590.08	683.44
590.24	606.20
590.40	655.35
590.56	573.43
590.72	477.47
590.88	442.36
591.04	486.83
591.20	365.12
591.35	414.27
591.51	327.68
591.67	388.53
591.83	376.83
591.99	313.63
592.15	369.80
592.31	341.72
592.46	334.70
592.62	313.63
592.78	294.91
592.94	341.72
593.10	409.59
593.26	346.40
593.41	414.27
593.57	500.87
593.73	779.40
593.89	4386.16
594.05	12549.95
594.20	19634.75
594.36	19028.56
594.52	12191.85
594.68	7595.04
594.84	4746.61
594.99	2434.16
595.15	1125.80
595.31	552.37
595.47	538.32
595.62	449.38
595.78	294.91
595.94	358.10
596.10	409.59
596.25	409.59
596.41	463.43
596.57	250.44
596.73	337.04
596.88	741.95
597.04	2214.15
597.20	3885.29
597.36	4608.51
597.51	3414.84
597.67	2314.79
597.83	1540.07
597.99	964.30
598.14	547.69
598.30	465.77
598.46	526.62
598.61	437.68
598.77	458.74
598.93	320.65
599.09	278.52
599.24	383.85
599.40	304.27
599.56	212.99
599.71	266.82
599.87	250.44
600.03	313.63
600.18	318.31
600.34	257.46
600.50	170.86
600.65	126.39
600.81	161.50
600.97	222.35
601.12	231.71
601.28	220.01
601.44	248.10
601.59	245.76
601.75	346.40
601.91	196.60
602.06	283.20
602.22	367.46
602.37	882.38
602.53	2747.79
602.69	4594.47
602.84	4737.24
603.00	3611.45
603.16	2312.45
603.31	1650.08
603.47	917.49
603.62	489.17
603.78	346.40
603.94	386.19
604.09	273.84
604.25	301.93
604.40	320.65
604.56	210.65
604.71	236.39
604.87	262.14
605.03	231.71
605.18	292.57
605.34	297.25
605.49	278.52
605.65	234.05
605.80	320.65
605.96	348.74
606.12	341.72
606.27	386.19
606.43	423.64
606.58	440.02
606.74	1219.42
606.89	5465.15
607.05	11852.47
607.20	16793.34
607.36	13774.05
607.51	9329.38
607.67	5907.51
607.82	3808.05
607.98	2108.82
608.13	990.05
608.29	657.69
608.44	554.71
608.60	561.73
608.75	643.65
608.91	1673.48
609.06	8585.08
609.22	21128.02
609.37	29291.80
609.53	25806.75
609.68	16547.59
609.84	10647.10
609.99	7122.25
610.15	3733.15
610.30	1612.63
610.46	835.57
610.61	489.17
610.76	505.56
610.92	411.93
611.07	416.62
611.23	449.38
611.38	400.23
611.54	346.40
