SpectraSuite Data File
++++++++++++++++++++++++++++++++++++
Date: Fri Oct 04 11:47:11 GMT-05:00 2013
User: price-jones
Dark Spectrum Present: No
Reference Spectrum Present: No
Number of Sampled Component Spectra: 1
Spectrometers: USB2+H05261
Integration Time (usec): 100000 (USB2+H05261)
Spectra Averaged: 1 (USB2+H05261)
Boxcar Smoothing: 0 (USB2+H05261)
Correct for Electrical Dark: No (USB2+H05261)
Strobe/Lamp Enabled: No (USB2+H05261)
Correct for Detector Non-linearity: No (USB2+H05261)
Correct for Stray Light: No (USB2+H05261)
Number of Pixels in Processed Spectrum: 2048
>>>>>Begin Processed Spectral Data<<<<<
365.73	46.81
365.92	46.81
366.12	46.81
366.32	0.00
366.52	0.00
366.72	0.00
366.91	0.00
367.11	0.00
367.31	0.00
367.51	0.00
367.70	0.00
367.90	0.00
368.10	0.00
368.30	0.00
368.49	0.00
368.69	0.00
368.89	0.00
369.09	0.00
369.28	0.00
369.48	0.00
369.68	0.00
369.87	0.00
370.07	0.00
370.27	28.09
370.47	23.41
370.66	42.13
370.86	28.09
371.06	95.96
371.25	107.66
371.45	28.09
371.65	105.32
371.84	95.96
372.04	98.30
372.24	25.75
372.44	84.26
372.63	117.03
372.83	168.52
373.03	65.54
373.22	58.51
373.42	119.37
373.62	105.32
373.81	65.54
374.01	49.15
374.21	203.63
374.40	112.35
374.60	126.39
374.79	67.88
374.99	7.02
375.19	58.51
375.38	112.35
375.58	117.03
375.78	145.11
375.97	145.11
376.17	107.66
376.37	63.19
376.56	119.37
376.76	112.35
376.95	124.05
377.15	100.64
377.35	72.56
377.54	177.88
377.74	86.60
377.93	42.13
378.13	72.56
378.33	105.32
378.52	107.66
378.72	105.32
378.91	117.03
379.11	84.26
379.31	72.56
379.50	98.30
379.70	81.92
379.89	86.60
380.09	88.94
380.28	49.15
380.48	81.92
380.68	117.03
380.87	128.73
381.07	93.62
381.26	110.01
381.46	124.05
381.65	63.19
381.85	184.90
382.04	86.60
382.24	44.47
382.43	0.00
382.63	60.85
382.83	145.11
383.02	74.90
383.22	140.43
383.41	44.47
383.61	98.30
383.80	58.51
384.00	93.62
384.19	86.60
384.39	63.19
384.58	98.30
384.78	124.05
384.97	74.90
385.17	131.07
385.36	63.19
385.56	100.64
385.75	60.85
385.95	79.58
386.14	91.28
386.34	98.30
386.53	77.24
386.72	65.54
386.92	77.24
387.11	114.69
387.31	102.98
387.50	72.56
387.70	0.00
387.89	65.54
388.09	58.51
388.28	110.01
388.48	70.22
388.67	98.30
388.86	142.77
389.06	81.92
389.25	119.37
389.45	70.22
389.64	67.88
389.84	170.86
390.03	112.35
390.22	28.09
390.42	105.32
390.61	114.69
390.81	121.71
391.00	98.30
391.19	100.64
391.39	88.94
391.58	135.75
391.78	93.62
391.97	128.73
392.16	128.73
392.36	112.35
392.55	124.05
392.75	142.77
392.94	2.34
393.13	182.56
393.33	159.16
393.52	81.92
393.71	119.37
393.91	135.75
394.10	42.13
394.29	145.11
394.49	168.52
394.68	98.30
394.88	163.84
395.07	119.37
395.26	145.11
395.46	84.26
395.65	133.41
395.84	35.11
396.04	124.05
396.23	121.71
396.42	184.90
396.62	105.32
396.81	180.22
397.00	86.60
397.19	105.32
397.39	67.88
397.58	126.39
397.77	65.54
397.97	152.13
398.16	126.39
398.35	152.13
398.55	11.70
398.74	25.75
398.93	149.79
399.12	177.88
399.32	117.03
399.51	126.39
399.70	91.28
399.90	138.09
400.09	114.69
400.28	91.28
400.47	58.51
400.67	175.54
400.86	128.73
401.05	110.01
401.24	56.17
401.44	107.66
401.63	149.79
401.82	124.05
402.01	74.90
402.21	91.28
402.40	184.90
402.59	95.96
402.78	88.94
402.97	79.58
403.17	84.26
403.36	28.09
403.55	107.66
403.74	138.09
403.93	159.16
404.13	168.52
404.32	110.01
404.51	121.71
404.70	135.75
404.89	81.92
405.09	152.13
405.28	152.13
405.47	86.60
405.66	131.07
405.85	154.48
406.05	88.94
406.24	126.39
406.43	51.49
406.62	140.43
406.81	121.71
407.00	147.45
407.20	142.77
407.39	112.35
407.58	128.73
407.77	126.39
407.96	110.01
408.15	79.58
408.34	191.92
408.54	131.07
408.73	79.58
408.92	84.26
409.11	95.96
409.30	126.39
409.49	0.00
409.68	42.13
409.87	77.24
410.07	0.00
410.26	102.98
410.45	114.69
410.64	63.19
410.83	49.15
411.02	114.69
411.21	102.98
411.40	79.58
411.59	124.05
411.78	102.98
411.98	35.11
412.17	70.22
412.36	110.01
412.55	65.54
412.74	91.28
412.93	168.52
413.12	140.43
413.31	161.50
413.50	88.94
413.69	105.32
413.88	112.35
414.07	9.36
414.26	88.94
414.45	100.64
414.64	93.62
414.83	100.64
415.02	107.66
415.22	138.09
415.41	180.22
415.60	119.37
415.79	72.56
415.98	117.03
416.17	98.30
416.36	86.60
416.55	166.18
416.74	117.03
416.93	126.39
417.12	100.64
417.31	135.75
417.50	42.13
417.69	231.71
417.88	170.86
418.07	126.39
418.26	152.13
418.45	189.58
418.64	159.16
418.83	173.20
419.02	149.79
419.21	177.88
419.39	182.56
419.58	147.45
419.77	227.03
419.96	112.35
420.15	182.56
420.34	140.43
420.53	152.13
420.72	170.86
420.91	124.05
421.10	175.54
421.29	102.98
421.48	229.37
421.67	156.82
421.86	133.41
422.05	145.11
422.24	51.49
422.43	56.17
422.61	124.05
422.80	128.73
422.99	102.98
423.18	72.56
423.37	166.18
423.56	163.84
423.75	135.75
423.94	42.13
424.13	91.28
424.32	147.45
424.50	163.84
424.69	133.41
424.88	166.18
425.07	81.92
425.26	133.41
425.45	196.60
425.64	168.52
425.83	147.45
426.01	168.52
426.20	93.62
426.39	74.90
426.58	100.64
426.77	147.45
426.96	117.03
427.15	152.13
427.33	107.66
427.52	149.79
427.71	114.69
427.90	114.69
428.09	126.39
428.28	170.86
428.46	140.43
428.65	149.79
428.84	110.01
429.03	138.09
429.22	135.75
429.40	110.01
429.59	88.94
429.78	102.98
429.97	126.39
430.16	60.85
430.34	77.24
430.53	105.32
430.72	112.35
430.91	53.83
431.10	42.13
431.28	131.07
431.47	156.82
431.66	93.62
431.85	77.24
432.03	63.19
432.22	135.75
432.41	124.05
432.60	161.50
432.79	222.35
432.97	215.33
433.16	224.69
433.35	187.24
433.54	156.82
433.72	81.92
433.91	107.66
434.10	135.75
434.28	180.22
434.47	166.18
434.66	163.84
434.85	74.90
435.03	86.60
435.22	152.13
435.41	128.73
435.59	102.98
435.78	105.32
435.97	119.37
436.16	173.20
436.34	124.05
436.53	198.95
436.72	159.16
436.90	196.60
437.09	182.56
437.28	93.62
437.46	198.95
437.65	56.17
437.84	88.94
438.02	124.05
438.21	112.35
438.40	135.75
438.58	28.09
438.77	56.17
438.96	102.98
439.14	93.62
439.33	74.90
439.52	131.07
439.70	126.39
439.89	126.39
440.08	145.11
440.26	156.82
440.45	142.77
440.63	198.95
440.82	147.45
441.01	79.58
441.19	105.32
441.38	138.09
441.57	175.54
441.75	203.63
441.94	126.39
442.12	149.79
442.31	117.03
442.50	145.11
442.68	102.98
442.87	86.60
443.05	147.45
443.24	220.01
443.43	135.75
443.61	114.69
443.80	161.50
443.98	131.07
444.17	88.94
444.35	147.45
444.54	131.07
444.73	145.11
444.91	159.16
445.10	126.39
445.28	126.39
445.47	126.39
445.65	161.50
445.84	173.20
446.02	156.82
446.21	119.37
446.39	128.73
446.58	168.52
446.77	168.52
446.95	91.28
447.14	187.24
447.32	248.10
447.51	98.30
447.69	154.48
447.88	145.11
448.06	170.86
448.25	173.20
448.43	187.24
448.62	173.20
448.80	154.48
448.99	156.82
449.17	9.36
449.36	138.09
449.54	119.37
449.73	112.35
449.91	138.09
450.10	112.35
450.28	154.48
450.46	180.22
450.65	194.26
450.83	175.54
451.02	95.96
451.20	152.13
451.39	147.45
451.57	107.66
451.76	88.94
451.94	163.84
452.13	126.39
452.31	170.86
452.49	152.13
452.68	91.28
452.86	187.24
453.05	156.82
453.23	175.54
453.42	161.50
453.60	140.43
453.78	170.86
453.97	147.45
454.15	102.98
454.34	173.20
454.52	72.56
454.70	152.13
454.89	173.20
455.07	63.19
455.26	194.26
455.44	128.73
455.62	79.58
455.81	140.43
455.99	110.01
456.17	133.41
456.36	161.50
456.54	93.62
456.73	126.39
456.91	107.66
457.09	135.75
457.28	114.69
457.46	114.69
457.64	177.88
457.83	177.88
458.01	117.03
458.19	88.94
458.38	98.30
458.56	173.20
458.74	222.35
458.93	166.18
459.11	147.45
459.29	88.94
459.48	147.45
459.66	138.09
459.84	133.41
460.03	175.54
460.21	140.43
460.39	91.28
460.57	100.64
460.76	173.20
460.94	119.37
461.12	154.48
461.31	177.88
461.49	152.13
461.67	86.60
461.85	133.41
462.04	7.02
462.22	643.65
462.40	175.54
462.59	184.90
462.77	140.43
462.95	135.75
463.13	58.51
463.32	166.18
463.50	145.11
463.68	124.05
463.86	142.77
464.05	93.62
464.23	166.18
464.41	133.41
464.59	126.39
464.78	175.54
464.96	95.96
465.14	105.32
465.32	187.24
465.50	229.37
465.69	163.84
465.87	138.09
466.05	67.88
466.23	58.51
466.41	124.05
466.60	84.26
466.78	93.62
466.96	112.35
467.14	234.05
467.32	187.24
467.51	210.65
467.69	142.77
467.87	107.66
468.05	161.50
468.23	161.50
468.41	208.31
468.60	88.94
468.78	166.18
468.96	121.71
469.14	189.58
469.32	156.82
469.50	93.62
469.69	138.09
469.87	119.37
470.05	152.13
470.23	166.18
470.41	128.73
470.59	154.48
470.77	140.43
470.95	72.56
471.14	238.73
471.32	191.92
471.50	163.84
471.68	159.16
471.86	201.29
472.04	152.13
472.22	161.50
472.40	189.58
472.58	102.98
472.77	126.39
472.95	105.32
473.13	259.80
473.31	133.41
473.49	91.28
473.67	67.88
473.85	154.48
474.03	114.69
474.21	170.86
474.39	175.54
474.57	138.09
474.75	107.66
474.93	154.48
475.12	168.52
475.30	238.73
475.48	149.79
475.66	119.37
475.84	117.03
476.02	154.48
476.20	135.75
476.38	117.03
476.56	163.84
476.74	154.48
476.92	124.05
477.10	126.39
477.28	245.76
477.46	142.77
477.64	149.79
477.82	147.45
478.00	142.77
478.18	177.88
478.36	182.56
478.54	149.79
478.72	224.69
478.90	149.79
479.08	126.39
479.26	198.95
479.44	74.90
479.62	142.77
479.80	220.01
479.98	60.85
480.16	93.62
480.34	93.62
480.52	121.71
480.70	140.43
480.88	93.62
481.06	110.01
481.24	140.43
481.41	128.73
481.59	177.88
481.77	107.66
481.95	161.50
482.13	182.56
482.31	168.52
482.49	131.07
482.67	173.20
482.85	173.20
483.03	173.20
483.21	161.50
483.39	126.39
483.57	168.52
483.74	138.09
483.92	105.32
484.10	107.66
484.28	182.56
484.46	334.70
484.64	159.16
484.82	100.64
485.00	110.01
485.18	170.86
485.35	131.07
485.53	117.03
485.71	70.22
485.89	128.73
486.07	152.13
486.25	252.78
486.43	161.50
486.61	119.37
486.78	177.88
486.96	203.63
487.14	166.18
487.32	166.18
487.50	175.54
487.68	131.07
487.85	110.01
488.03	201.29
488.21	191.92
488.39	222.35
488.57	231.71
488.75	124.05
488.92	390.87
489.10	168.52
489.28	154.48
489.46	154.48
489.64	135.75
489.81	140.43
489.99	131.07
490.17	227.03
490.35	278.52
490.53	184.90
490.70	152.13
490.88	170.86
491.06	208.31
491.24	210.65
491.41	145.11
491.59	266.82
491.77	102.98
491.95	128.73
492.13	198.95
492.30	147.45
492.48	170.86
492.66	161.50
492.84	145.11
493.01	182.56
493.19	173.20
493.37	257.46
493.54	189.58
493.72	163.84
493.90	170.86
494.08	227.03
494.25	191.92
494.43	222.35
494.61	276.18
494.79	231.71
494.96	201.29
495.14	184.90
495.32	180.22
495.49	271.50
495.67	177.88
495.85	131.07
496.02	187.24
496.20	138.09
496.38	217.67
496.55	191.92
496.73	98.30
496.91	252.78
497.09	203.63
497.26	198.95
497.44	187.24
497.62	177.88
497.79	149.79
497.97	220.01
498.14	173.20
498.32	119.37
498.50	159.16
498.67	229.37
498.85	201.29
499.03	217.67
499.20	180.22
499.38	177.88
499.56	170.86
499.73	222.35
499.91	196.60
500.08	187.24
500.26	177.88
500.44	135.75
500.61	170.86
500.79	203.63
500.97	220.01
501.14	182.56
501.32	191.92
501.49	156.82
501.67	180.22
501.84	231.71
502.02	187.24
502.20	227.03
502.37	205.97
502.55	135.75
502.72	264.48
502.90	191.92
503.07	173.20
503.25	189.58
503.43	203.63
503.60	210.65
503.78	194.26
503.95	159.16
504.13	173.20
504.30	180.22
504.48	236.39
504.65	194.26
504.83	189.58
505.01	168.52
505.18	175.54
505.36	138.09
505.53	180.22
505.71	184.90
505.88	208.31
506.06	203.63
506.23	166.18
506.41	203.63
506.58	257.46
506.76	205.97
506.93	147.45
507.11	248.10
507.28	177.88
507.46	203.63
507.63	224.69
507.81	161.50
507.98	231.71
508.16	205.97
508.33	210.65
508.50	140.43
508.68	203.63
508.85	168.52
509.03	105.32
509.20	121.71
509.38	173.20
509.55	194.26
509.73	161.50
509.90	203.63
510.08	126.39
510.25	187.24
510.42	287.89
510.60	194.26
510.77	194.26
510.95	332.36
511.12	201.29
511.30	212.99
511.47	210.65
511.64	332.36
511.82	154.48
511.99	205.97
512.17	250.44
512.34	177.88
512.51	191.92
512.69	234.05
512.86	131.07
513.04	173.20
513.21	147.45
513.38	201.29
513.56	133.41
513.73	159.16
513.90	201.29
514.08	201.29
514.25	177.88
514.43	262.14
514.60	138.09
514.77	156.82
514.95	248.10
515.12	191.92
515.29	273.84
515.47	229.37
515.64	234.05
515.81	210.65
515.99	208.31
516.16	187.24
516.33	177.88
516.51	177.88
516.68	149.79
516.85	133.41
517.03	210.65
517.20	180.22
517.37	259.80
517.54	205.97
517.72	173.20
517.89	156.82
518.06	163.84
518.24	210.65
518.41	170.86
518.58	184.90
518.75	135.75
518.93	234.05
519.10	220.01
519.27	182.56
519.45	280.86
519.62	222.35
519.79	215.33
519.96	196.60
520.14	222.35
520.31	208.31
520.48	245.76
520.65	236.39
520.83	159.16
521.00	149.79
521.17	212.99
521.34	229.37
521.52	224.69
521.69	196.60
521.86	168.52
522.03	234.05
522.20	278.52
522.38	224.69
522.55	189.58
522.72	222.35
522.89	229.37
523.07	102.98
523.24	234.05
523.41	152.13
523.58	187.24
523.75	175.54
523.92	234.05
524.10	161.50
524.27	145.11
524.44	177.88
524.61	142.77
524.78	170.86
524.96	245.76
525.13	212.99
525.30	243.42
525.47	210.65
525.64	203.63
525.81	182.56
525.98	198.95
526.16	191.92
526.33	140.43
526.50	107.66
526.67	107.66
526.84	147.45
527.01	175.54
527.18	131.07
527.36	236.39
527.53	196.60
527.70	196.60
527.87	220.01
528.04	224.69
528.21	243.42
528.38	224.69
528.55	234.05
528.72	159.16
528.89	280.86
529.07	149.79
529.24	322.99
529.41	245.76
529.58	238.73
529.75	135.75
529.92	248.10
530.09	128.73
530.26	196.60
530.43	208.31
530.60	203.63
530.77	217.67
530.94	152.13
531.11	245.76
531.28	217.67
531.46	259.80
531.63	231.71
531.80	201.29
531.97	334.70
532.14	135.75
532.31	177.88
532.48	217.67
532.65	315.97
532.82	264.48
532.99	325.33
533.16	250.44
533.33	217.67
533.50	287.89
533.67	215.33
533.84	318.31
534.01	395.55
534.18	332.36
534.35	322.99
534.52	271.50
534.69	374.49
534.86	262.14
535.03	170.86
535.20	210.65
535.37	238.73
535.54	187.24
535.71	203.63
535.88	243.42
536.05	177.88
536.22	138.09
536.38	224.69
536.55	220.01
536.72	276.18
536.89	163.84
537.06	215.33
537.23	194.26
537.40	154.48
537.57	126.39
537.74	245.76
537.91	161.50
538.08	250.44
538.25	210.65
538.42	166.18
538.59	236.39
538.75	264.48
538.92	266.82
539.09	210.65
539.26	191.92
539.43	447.04
539.60	968.98
539.77	1451.13
539.94	1636.03
540.11	1055.58
540.28	622.58
540.44	449.38
540.61	362.78
540.78	196.60
540.95	166.18
541.12	156.82
541.29	229.37
541.46	215.33
541.62	227.03
541.79	215.33
541.96	184.90
542.13	245.76
542.30	180.22
542.47	210.65
542.63	175.54
542.80	205.97
542.97	180.22
543.14	205.97
543.31	210.65
543.48	187.24
543.64	222.35
543.81	255.12
543.98	198.95
544.15	138.09
544.32	243.42
544.48	252.78
544.65	306.61
544.82	163.84
544.99	147.45
545.16	212.99
545.32	154.48
545.49	210.65
545.66	231.71
545.83	224.69
546.00	259.80
546.16	208.31
546.33	182.56
546.50	234.05
546.67	243.42
546.83	234.05
547.00	255.12
547.17	182.56
547.34	252.78
547.50	191.92
547.67	212.99
547.84	266.82
548.00	196.60
548.17	222.35
548.34	105.32
548.51	243.42
548.67	208.31
548.84	222.35
549.01	138.09
549.18	201.29
549.34	196.60
549.51	234.05
549.68	227.03
549.84	208.31
550.01	208.31
550.18	266.82
550.34	217.67
550.51	283.20
550.68	278.52
550.84	217.67
551.01	212.99
551.18	224.69
551.34	231.71
551.51	208.31
551.68	255.12
551.84	184.90
552.01	203.63
552.18	238.73
552.34	159.16
552.51	187.24
552.68	191.92
552.84	283.20
553.01	210.65
553.18	236.39
553.34	184.90
553.51	180.22
553.67	175.54
553.84	290.23
554.01	152.13
554.17	229.37
554.34	173.20
554.51	187.24
554.67	198.95
554.84	278.52
555.00	184.90
555.17	152.13
555.33	264.48
555.50	271.50
555.67	210.65
555.83	220.01
556.00	297.25
556.16	404.91
556.33	269.16
556.50	304.27
556.66	236.39
556.83	156.82
556.99	159.16
557.16	234.05
557.32	177.88
557.49	222.35
557.65	177.88
557.82	191.92
557.98	252.78
558.15	114.69
558.32	196.60
558.48	189.58
558.65	245.76
558.81	215.33
558.98	166.18
559.14	147.45
559.31	142.77
559.47	194.26
559.64	149.79
559.80	224.69
559.97	126.39
560.13	191.92
560.30	245.76
560.46	154.48
560.63	168.52
560.79	266.82
560.96	229.37
561.12	173.20
561.29	273.84
561.45	194.26
561.61	187.24
561.78	311.29
561.94	205.97
562.11	149.79
562.27	189.58
562.44	63.19
562.60	212.99
562.77	189.58
562.93	285.55
563.10	184.90
563.26	259.80
563.42	203.63
563.59	138.09
563.75	198.95
563.92	241.08
564.08	180.22
564.24	255.12
564.41	201.29
564.57	227.03
564.74	222.35
564.90	184.90
565.07	248.10
565.23	297.25
565.39	252.78
565.56	294.91
565.72	182.56
565.88	229.37
566.05	257.46
566.21	201.29
566.38	234.05
566.54	248.10
566.70	182.56
566.87	248.10
567.03	175.54
567.19	224.69
567.36	194.26
567.52	166.18
567.68	175.54
567.85	201.29
568.01	215.33
568.17	250.44
568.34	194.26
568.50	255.12
568.66	198.95
568.83	264.48
568.99	259.80
569.15	229.37
569.32	257.46
569.48	201.29
569.64	248.10
569.81	201.29
569.97	187.24
570.13	229.37
570.30	133.41
570.46	210.65
570.62	173.20
570.78	205.97
570.95	166.18
571.11	266.82
571.27	245.76
571.43	147.45
571.60	147.45
571.76	159.16
571.92	245.76
572.09	208.31
572.25	259.80
572.41	154.48
572.57	180.22
572.74	264.48
572.90	287.89
573.06	255.12
573.22	212.99
573.38	222.35
573.55	163.84
573.71	212.99
573.87	217.67
574.03	231.71
574.20	152.13
574.36	238.73
574.52	234.05
574.68	271.50
574.84	318.31
575.01	320.65
575.17	252.78
575.33	266.82
575.49	156.82
575.65	287.89
575.82	337.04
575.98	554.71
576.14	615.56
576.30	727.91
576.46	535.98
576.62	456.40
576.79	334.70
576.95	262.14
577.11	257.46
577.27	229.37
577.43	245.76
577.59	266.82
577.75	234.05
577.92	315.97
578.08	243.42
578.24	227.03
578.40	294.91
578.56	259.80
578.72	224.69
578.88	362.78
579.04	259.80
579.21	283.20
579.37	236.39
579.53	163.84
579.69	278.52
579.85	222.35
580.01	276.18
580.17	386.19
580.33	337.04
580.49	320.65
580.65	311.29
580.82	322.99
580.98	294.91
581.14	280.86
581.30	315.97
581.46	393.21
581.62	503.22
581.78	645.99
581.94	526.62
582.10	409.59
582.26	407.25
582.42	477.47
582.58	521.94
582.74	388.53
582.90	374.49
583.06	418.96
583.22	498.53
583.38	463.43
583.54	547.69
583.70	643.65
583.86	554.71
584.02	688.12
584.18	856.64
584.34	1048.56
584.50	3115.25
584.66	21881.67
584.82	54850.45
584.98	65535.00
585.14	64472.40
585.30	50714.73
585.46	30408.24
585.62	18611.94
585.78	8608.49
585.94	3344.63
586.10	1654.76
586.26	1032.18
586.42	741.95
586.58	669.39
586.74	540.66
586.90	627.26
587.06	559.39
587.22	440.02
587.38	496.19
587.54	1008.77
587.70	3398.46
587.86	5790.49
588.02	6773.51
588.18	4641.28
588.34	2787.58
588.49	1884.13
588.65	1142.18
588.81	664.71
588.97	470.45
589.13	304.27
589.29	304.27
589.45	299.59
589.61	334.70
589.77	383.85
589.93	430.66
590.08	454.06
590.24	505.56
590.40	440.02
590.56	397.89
590.72	337.04
590.88	322.99
591.04	334.70
591.20	252.78
591.35	325.33
591.51	330.02
591.67	299.59
591.83	283.20
591.99	301.93
592.15	278.52
592.31	315.97
592.46	182.56
592.62	318.31
592.78	217.67
592.94	269.16
593.10	273.84
593.26	306.61
593.41	269.16
593.57	358.10
593.73	482.15
593.89	2534.80
594.05	7000.54
594.20	11323.51
594.36	11169.04
594.52	7288.43
594.68	4346.37
594.84	2935.03
594.99	1619.65
595.15	774.72
595.31	421.30
595.47	341.72
595.62	201.29
595.78	278.52
595.94	322.99
596.10	330.02
596.25	353.42
596.41	313.63
596.57	243.42
596.73	222.35
596.88	510.24
597.04	1284.95
597.20	2267.98
597.36	2946.73
597.51	2160.31
597.67	1406.66
597.83	964.30
597.99	704.50
598.14	482.15
598.30	215.33
598.46	304.27
598.61	301.93
598.77	315.97
598.93	327.68
599.09	276.18
599.24	271.50
599.40	210.65
599.56	287.89
599.71	278.52
599.87	250.44
600.03	271.50
600.18	210.65
600.34	283.20
600.50	236.39
600.65	184.90
600.81	330.02
600.97	152.13
601.12	191.92
601.28	283.20
601.44	229.37
601.59	208.31
601.75	271.50
601.91	229.37
602.06	243.42
602.22	348.74
602.37	725.57
602.53	1575.18
602.69	2710.34
602.84	2949.08
603.00	2129.89
603.16	1462.83
603.31	1062.60
603.47	683.44
603.62	365.12
603.78	330.02
603.94	182.56
604.09	241.08
604.25	222.35
604.40	205.97
604.56	208.31
604.71	241.08
604.87	238.73
605.03	212.99
605.18	257.46
605.34	280.86
605.49	259.80
605.65	191.92
605.80	262.14
605.96	266.82
606.12	264.48
606.27	334.70
606.43	245.76
606.58	379.17
606.74	770.04
606.89	3300.16
607.05	7124.59
607.20	9797.48
607.36	8212.94
607.51	5418.34
607.67	3335.26
607.82	2340.54
607.98	1327.08
608.13	674.07
608.29	475.13
608.44	451.72
608.60	379.17
608.75	451.72
608.91	1114.10
609.06	5135.14
609.22	11733.11
609.37	16879.94
609.53	15133.90
609.68	9720.24
609.84	6204.76
609.99	4133.39
610.15	2115.84
610.30	1048.56
610.46	557.05
610.61	425.98
610.76	311.29
610.92	386.19
611.07	301.93
611.23	362.78
611.38	217.67
611.54	287.89
611.69	273.84
611.84	276.18
