SpectraSuite Data File
++++++++++++++++++++++++++++++++++++
Date: Fri Oct 04 11:47:24 GMT-05:00 2013
User: price-jones
Dark Spectrum Present: No
Reference Spectrum Present: No
Number of Sampled Component Spectra: 1
Spectrometers: USB2+H05261
Integration Time (usec): 100000 (USB2+H05261)
Spectra Averaged: 1 (USB2+H05261)
Boxcar Smoothing: 0 (USB2+H05261)
Correct for Electrical Dark: No (USB2+H05261)
Strobe/Lamp Enabled: No (USB2+H05261)
Correct for Detector Non-linearity: No (USB2+H05261)
Correct for Stray Light: No (USB2+H05261)
Number of Pixels in Processed Spectrum: 2048
>>>>>Begin Processed Spectral Data<<<<<
365.73	18.72
365.92	18.72
366.12	18.72
366.32	0.00
366.52	0.00
366.72	0.00
366.91	0.00
367.11	0.00
367.31	0.00
367.51	0.00
367.70	0.00
367.90	0.00
368.10	0.00
368.30	0.00
368.49	0.00
368.69	0.00
368.89	0.00
369.09	0.00
369.28	0.00
369.48	0.00
369.68	0.00
369.87	0.00
370.07	0.00
370.27	0.00
370.47	44.47
370.66	7.02
370.86	28.09
371.06	67.88
371.25	72.56
371.45	23.41
371.65	100.64
371.84	102.98
372.04	95.96
372.24	70.22
372.44	58.51
372.63	110.01
372.83	67.88
373.03	100.64
373.22	67.88
373.42	84.26
373.62	84.26
373.81	119.37
374.01	110.01
374.21	98.30
374.40	98.30
374.60	93.62
374.79	44.47
374.99	102.98
375.19	145.11
375.38	133.41
375.58	133.41
375.78	117.03
375.97	102.98
376.17	154.48
376.37	124.05
376.56	88.94
376.76	126.39
376.95	81.92
377.15	95.96
377.35	145.11
377.54	63.19
377.74	84.26
377.93	25.75
378.13	180.22
378.33	184.90
378.52	142.77
378.72	79.58
378.91	105.32
379.11	140.43
379.31	128.73
379.50	56.17
379.70	147.45
379.89	161.50
380.09	100.64
380.28	63.19
380.48	102.98
380.68	42.13
380.87	60.85
381.07	133.41
381.26	133.41
381.46	53.83
381.65	173.20
381.85	70.22
382.04	117.03
382.24	86.60
382.43	53.83
382.63	88.94
382.83	102.98
383.02	119.37
383.22	131.07
383.41	86.60
383.61	42.13
383.80	117.03
384.00	91.28
384.19	131.07
384.39	142.77
384.58	44.47
384.78	81.92
384.97	51.49
385.17	77.24
385.36	107.66
385.56	117.03
385.75	84.26
385.95	110.01
386.14	177.88
386.34	117.03
386.53	72.56
386.72	53.83
386.92	86.60
387.11	98.30
387.31	70.22
387.50	114.69
387.70	102.98
387.89	44.47
388.09	93.62
388.28	110.01
388.48	107.66
388.67	81.92
388.86	74.90
389.06	65.54
389.25	131.07
389.45	53.83
389.64	112.35
389.84	67.88
390.03	86.60
390.22	138.09
390.42	98.30
390.61	88.94
390.81	91.28
391.00	166.18
391.19	58.51
391.39	140.43
391.58	138.09
391.78	128.73
391.97	79.58
392.16	88.94
392.36	149.79
392.55	131.07
392.75	102.98
392.94	39.79
393.13	147.45
393.33	70.22
393.52	112.35
393.71	67.88
393.91	105.32
394.10	131.07
394.29	65.54
394.49	60.85
394.68	39.79
394.88	184.90
395.07	173.20
395.26	37.45
395.46	161.50
395.65	81.92
395.84	46.81
396.04	189.58
396.23	110.01
396.42	30.43
396.62	140.43
396.81	142.77
397.00	161.50
397.19	100.64
397.39	135.75
397.58	117.03
397.77	98.30
397.97	131.07
398.16	124.05
398.35	138.09
398.55	168.52
398.74	105.32
398.93	149.79
399.12	88.94
399.32	98.30
399.51	110.01
399.70	121.71
399.90	86.60
400.09	114.69
400.28	124.05
400.47	117.03
400.67	149.79
400.86	138.09
401.05	110.01
401.24	67.88
401.44	140.43
401.63	173.20
401.82	140.43
402.01	117.03
402.21	135.75
402.40	121.71
402.59	135.75
402.78	117.03
402.97	142.77
403.17	100.64
403.36	182.56
403.55	107.66
403.74	145.11
403.93	93.62
404.13	175.54
404.32	156.82
404.51	175.54
404.70	215.33
404.89	119.37
405.09	177.88
405.28	161.50
405.47	138.09
405.66	107.66
405.85	128.73
406.05	189.58
406.24	74.90
406.43	145.11
406.62	124.05
406.81	163.84
407.00	182.56
407.20	166.18
407.39	149.79
407.58	102.98
407.77	121.71
407.96	156.82
408.15	138.09
408.34	65.54
408.54	95.96
408.73	212.99
408.92	156.82
409.11	135.75
409.30	138.09
409.49	131.07
409.68	102.98
409.87	168.52
410.07	135.75
410.26	112.35
410.45	142.77
410.64	163.84
410.83	210.65
411.02	159.16
411.21	58.51
411.40	138.09
411.59	227.03
411.78	173.20
411.98	159.16
412.17	170.86
412.36	102.98
412.55	142.77
412.74	138.09
412.93	187.24
413.12	161.50
413.31	112.35
413.50	152.13
413.69	184.90
413.88	189.58
414.07	135.75
414.26	121.71
414.45	177.88
414.64	191.92
414.83	180.22
415.02	128.73
415.22	191.92
415.41	220.01
415.60	168.52
415.79	234.05
415.98	208.31
416.17	191.92
416.36	105.32
416.55	128.73
416.74	128.73
416.93	198.95
417.12	117.03
417.31	180.22
417.50	126.39
417.69	208.31
417.88	191.92
418.07	105.32
418.26	88.94
418.45	245.76
418.64	194.26
418.83	201.29
419.02	88.94
419.21	212.99
419.39	145.11
419.58	156.82
419.77	102.98
419.96	210.65
420.15	224.69
420.34	163.84
420.53	128.73
420.72	205.97
420.91	145.11
421.10	173.20
421.29	156.82
421.48	156.82
421.67	110.01
421.86	107.66
422.05	166.18
422.24	177.88
422.43	133.41
422.61	182.56
422.80	133.41
422.99	142.77
423.18	138.09
423.37	245.76
423.56	133.41
423.75	257.46
423.94	231.71
424.13	135.75
424.32	168.52
424.50	166.18
424.69	194.26
424.88	156.82
425.07	168.52
425.26	175.54
425.45	166.18
425.64	180.22
425.83	149.79
426.01	142.77
426.20	241.08
426.39	138.09
426.58	145.11
426.77	128.73
426.96	138.09
427.15	138.09
427.33	152.13
427.52	159.16
427.71	147.45
427.90	156.82
428.09	180.22
428.28	187.24
428.46	133.41
428.65	117.03
428.84	196.60
429.03	259.80
429.22	168.52
429.40	161.50
429.59	177.88
429.78	119.37
429.97	110.01
430.16	91.28
430.34	156.82
430.53	107.66
430.72	74.90
430.91	100.64
431.10	74.90
431.28	159.16
431.47	175.54
431.66	152.13
431.85	194.26
432.03	170.86
432.22	271.50
432.41	217.67
432.60	161.50
432.79	138.09
432.97	177.88
433.16	86.60
433.35	163.84
433.54	177.88
433.72	205.97
433.91	196.60
434.10	194.26
434.28	110.01
434.47	133.41
434.66	135.75
434.85	131.07
435.03	175.54
435.22	222.35
435.41	152.13
435.59	236.39
435.78	271.50
435.97	142.77
436.16	222.35
436.34	273.84
436.53	142.77
436.72	234.05
436.90	194.26
437.09	124.05
437.28	159.16
437.46	142.77
437.65	208.31
437.84	100.64
438.02	114.69
438.21	166.18
438.40	208.31
438.58	198.95
438.77	238.73
438.96	147.45
439.14	203.63
439.33	264.48
439.52	177.88
439.70	142.77
439.89	194.26
440.08	173.20
440.26	149.79
440.45	229.37
440.63	173.20
440.82	112.35
441.01	168.52
441.19	184.90
441.38	180.22
441.57	187.24
441.75	196.60
441.94	236.39
442.12	152.13
442.31	131.07
442.50	135.75
442.68	135.75
442.87	196.60
443.05	201.29
443.24	145.11
443.43	264.48
443.61	217.67
443.80	229.37
443.98	168.52
444.17	117.03
444.35	215.33
444.54	198.95
444.73	236.39
444.91	220.01
445.10	114.69
445.28	205.97
445.47	203.63
445.65	191.92
445.84	208.31
446.02	217.67
446.21	152.13
446.39	266.82
446.58	215.33
446.77	133.41
446.95	198.95
447.14	175.54
447.32	301.93
447.51	156.82
447.69	241.08
447.88	191.92
448.06	177.88
448.25	229.37
448.43	194.26
448.62	166.18
448.80	217.67
448.99	196.60
449.17	168.52
449.36	177.88
449.54	173.20
449.73	182.56
449.91	175.54
450.10	203.63
450.28	224.69
450.46	297.25
450.65	231.71
450.83	252.78
451.02	140.43
451.20	269.16
451.39	198.95
451.57	231.71
451.76	229.37
451.94	203.63
452.13	189.58
452.31	255.12
452.49	255.12
452.68	191.92
452.86	187.24
453.05	229.37
453.23	180.22
453.42	159.16
453.60	161.50
453.78	252.78
453.97	187.24
454.15	196.60
454.34	236.39
454.52	203.63
454.70	187.24
454.89	208.31
455.07	245.76
455.26	205.97
455.44	290.23
455.62	152.13
455.81	229.37
455.99	220.01
456.17	147.45
456.36	182.56
456.54	191.92
456.73	203.63
456.91	234.05
457.09	173.20
457.28	168.52
457.46	203.63
457.64	140.43
457.83	203.63
458.01	238.73
458.19	262.14
458.38	98.30
458.56	121.71
458.74	182.56
458.93	210.65
459.11	145.11
459.29	191.92
459.48	227.03
459.66	229.37
459.84	222.35
460.03	292.57
460.21	140.43
460.39	220.01
460.57	180.22
460.76	243.42
460.94	241.08
461.12	168.52
461.31	301.93
461.49	152.13
461.67	245.76
461.85	173.20
462.04	210.65
462.22	699.82
462.40	257.46
462.59	173.20
462.77	208.31
462.95	175.54
463.13	177.88
463.32	220.01
463.50	180.22
463.68	229.37
463.86	180.22
464.05	220.01
464.23	255.12
464.41	224.69
464.59	196.60
464.78	203.63
464.96	210.65
465.14	159.16
465.32	154.48
465.50	177.88
465.69	278.52
465.87	271.50
466.05	191.92
466.23	128.73
466.41	173.20
466.60	215.33
466.78	227.03
466.96	191.92
467.14	184.90
467.32	271.50
467.51	205.97
467.69	189.58
467.87	180.22
468.05	184.90
468.23	262.14
468.41	287.89
468.60	161.50
468.78	180.22
468.96	264.48
469.14	159.16
469.32	163.84
469.50	166.18
469.69	177.88
469.87	243.42
470.05	243.42
470.23	110.01
470.41	217.67
470.59	217.67
470.77	243.42
470.95	203.63
471.14	236.39
471.32	231.71
471.50	266.82
471.68	217.67
471.86	201.29
472.04	182.56
472.22	245.76
472.40	131.07
472.58	196.60
472.77	266.82
472.95	191.92
473.13	327.68
473.31	236.39
473.49	210.65
473.67	208.31
473.85	285.55
474.03	224.69
474.21	278.52
474.39	264.48
474.57	337.04
474.75	292.57
474.93	262.14
475.12	198.95
475.30	203.63
475.48	210.65
475.66	224.69
475.84	215.33
476.02	201.29
476.20	276.18
476.38	250.44
476.56	320.65
476.74	224.69
476.92	243.42
477.10	285.55
477.28	273.84
477.46	175.54
477.64	259.80
477.82	229.37
478.00	294.91
478.18	252.78
478.36	220.01
478.54	203.63
478.72	196.60
478.90	224.69
479.08	243.42
479.26	301.93
479.44	252.78
479.62	259.80
479.80	266.82
479.98	299.59
480.16	358.10
480.34	220.01
480.52	241.08
480.70	273.84
480.88	231.71
481.06	201.29
481.24	220.01
481.41	212.99
481.59	294.91
481.77	210.65
481.95	259.80
482.13	360.44
482.31	280.86
482.49	222.35
482.67	287.89
482.85	306.61
483.03	271.50
483.21	248.10
483.39	322.99
483.57	255.12
483.74	322.99
483.92	280.86
484.10	259.80
484.28	304.27
484.46	278.52
484.64	205.97
484.82	259.80
485.00	205.97
485.18	187.24
485.35	264.48
485.53	278.52
485.71	353.42
485.89	248.10
486.07	287.89
486.25	224.69
486.43	269.16
486.61	280.86
486.78	224.69
486.96	259.80
487.14	248.10
487.32	290.23
487.50	203.63
487.68	241.08
487.85	271.50
488.03	320.65
488.21	308.95
488.39	304.27
488.57	318.31
488.75	234.05
488.92	552.37
489.10	313.63
489.28	325.33
489.46	269.16
489.64	304.27
489.81	294.91
489.99	369.80
490.17	266.82
490.35	337.04
490.53	325.33
490.70	266.82
490.88	353.42
491.06	313.63
491.24	337.04
491.41	358.10
491.59	301.93
491.77	280.86
491.95	234.05
492.13	292.57
492.30	287.89
492.48	292.57
492.66	271.50
492.84	252.78
493.01	283.20
493.19	290.23
493.37	402.57
493.54	367.46
493.72	376.83
493.90	224.69
494.08	353.42
494.25	334.70
494.43	339.38
494.61	355.76
494.79	388.53
494.96	259.80
495.14	322.99
495.32	327.68
495.49	276.18
495.67	313.63
495.85	287.89
496.02	330.02
496.20	388.53
496.38	339.38
496.55	301.93
496.73	397.89
496.91	362.78
497.09	311.29
497.26	351.08
497.44	358.10
497.62	341.72
497.79	355.76
497.97	276.18
498.14	285.55
498.32	278.52
498.50	322.99
498.67	292.57
498.85	348.74
499.03	402.57
499.20	348.74
499.38	376.83
499.56	407.25
499.73	418.96
499.91	372.15
500.08	374.49
500.26	348.74
500.44	381.51
500.61	344.06
500.79	379.17
500.97	283.20
501.14	318.31
501.32	257.46
501.49	353.42
501.67	353.42
501.84	332.36
502.02	271.50
502.20	348.74
502.37	348.74
502.55	379.17
502.72	252.78
502.90	407.25
503.07	337.04
503.25	346.40
503.43	353.42
503.60	325.33
503.78	299.59
503.95	334.70
504.13	320.65
504.30	346.40
504.48	330.02
504.65	318.31
504.83	362.78
505.01	348.74
505.18	461.09
505.36	433.00
505.53	400.23
505.71	355.76
505.88	383.85
506.06	318.31
506.23	358.10
506.41	395.55
506.58	383.85
506.76	428.32
506.93	330.02
507.11	283.20
507.28	351.08
507.46	379.17
507.63	353.42
507.81	330.02
507.98	365.12
508.16	348.74
508.33	362.78
508.50	360.44
508.68	351.08
508.85	428.32
509.03	358.10
509.20	442.36
509.38	358.10
509.55	383.85
509.73	313.63
509.90	355.76
510.08	425.98
510.25	376.83
510.42	411.93
510.60	348.74
510.77	397.89
510.95	358.10
511.12	409.59
511.30	421.30
511.47	367.46
511.64	407.25
511.82	388.53
511.99	365.12
512.17	390.87
512.34	346.40
512.51	358.10
512.69	348.74
512.86	428.32
513.04	376.83
513.21	423.64
513.38	365.12
513.56	339.38
513.73	374.49
513.90	332.36
514.08	339.38
514.25	374.49
514.43	365.12
514.60	325.33
514.77	386.19
514.95	353.42
515.12	390.87
515.29	372.15
515.47	477.47
515.64	334.70
515.81	348.74
515.99	416.62
516.16	374.49
516.33	283.20
516.51	308.95
516.68	262.14
516.85	299.59
517.03	351.08
517.20	428.32
517.37	463.43
517.54	273.84
517.72	353.42
517.89	353.42
518.06	374.49
518.24	428.32
518.41	365.12
518.58	381.51
518.75	330.02
518.93	353.42
519.10	271.50
519.27	372.15
519.45	379.17
519.62	407.25
519.79	451.72
519.96	411.93
520.14	325.33
520.31	346.40
520.48	332.36
520.65	376.83
520.83	470.45
521.00	425.98
521.17	362.78
521.34	397.89
521.52	451.72
521.69	365.12
521.86	362.78
522.03	423.64
522.20	386.19
522.38	360.44
522.55	367.46
522.72	325.33
522.89	411.93
523.07	447.04
523.24	414.27
523.41	407.25
523.58	428.32
523.75	383.85
523.92	325.33
524.10	498.53
524.27	395.55
524.44	440.02
524.61	421.30
524.78	404.91
524.96	414.27
525.13	353.42
525.30	393.21
525.47	449.38
525.64	369.80
525.81	369.80
525.98	381.51
526.16	379.17
526.33	344.06
526.50	341.72
526.67	311.29
526.84	454.06
527.01	358.10
527.18	381.51
527.36	404.91
527.53	346.40
527.70	369.80
527.87	433.00
528.04	444.70
528.21	416.62
528.38	458.74
528.55	458.74
528.72	465.77
528.89	414.27
529.07	500.87
529.24	386.19
529.41	437.68
529.58	388.53
529.75	423.64
529.92	386.19
530.09	409.59
530.26	498.53
530.43	491.51
530.60	362.78
530.77	421.30
530.94	421.30
531.11	479.81
531.28	489.17
531.46	388.53
531.63	411.93
531.80	472.79
531.97	362.78
532.14	418.96
532.31	402.57
532.48	395.55
532.65	376.83
532.82	407.25
532.99	430.66
533.16	416.62
533.33	416.62
533.50	304.27
533.67	365.12
533.84	381.51
534.01	395.55
534.18	327.68
534.35	386.19
534.52	330.02
534.69	486.83
534.86	463.43
535.03	362.78
535.20	402.57
535.37	437.68
535.54	425.98
535.71	486.83
535.88	484.49
536.05	355.76
536.22	418.96
536.38	428.32
536.55	358.10
536.72	397.89
536.89	311.29
537.06	468.11
537.23	468.11
537.40	414.27
537.57	416.62
537.74	386.19
537.91	447.04
538.08	428.32
538.25	444.70
538.42	437.68
538.59	390.87
538.75	360.44
538.92	341.72
539.09	470.45
539.26	411.93
539.43	425.98
539.60	390.87
539.77	402.57
539.94	393.21
540.11	428.32
540.28	341.72
540.44	400.23
540.61	418.96
540.78	400.23
540.95	365.12
541.12	440.02
541.29	372.15
541.46	416.62
541.62	475.13
541.79	414.27
541.96	381.51
542.13	306.61
542.30	318.31
542.47	423.64
542.63	400.23
542.80	367.46
542.97	383.85
543.14	367.46
543.31	416.62
543.48	400.23
543.64	440.02
543.81	407.25
543.98	409.59
544.15	425.98
544.32	421.30
544.48	358.10
544.65	425.98
544.82	355.76
544.99	344.06
545.16	414.27
545.32	395.55
545.49	444.70
545.66	444.70
545.83	397.89
546.00	407.25
546.16	444.70
546.33	341.72
546.50	390.87
546.67	409.59
546.83	379.17
547.00	358.10
547.17	362.78
547.34	348.74
547.50	411.93
547.67	381.51
547.84	376.83
548.00	430.66
548.17	367.46
548.34	442.36
548.51	468.11
548.67	400.23
548.84	376.83
549.01	435.34
549.18	390.87
549.34	390.87
549.51	440.02
549.68	418.96
549.84	428.32
550.01	418.96
550.18	533.64
550.34	444.70
550.51	308.95
550.68	468.11
550.84	482.15
551.01	318.31
551.18	479.81
551.34	376.83
551.51	400.23
551.68	386.19
551.84	449.38
552.01	414.27
552.18	421.30
552.34	428.32
552.51	330.02
552.68	433.00
552.84	283.20
553.01	402.57
553.18	388.53
553.34	339.38
553.51	365.12
553.67	404.91
553.84	465.77
554.01	397.89
554.17	435.34
554.34	372.15
554.51	386.19
554.67	341.72
554.84	369.80
555.00	442.36
555.17	395.55
555.33	500.87
555.50	479.81
555.67	411.93
555.83	353.42
556.00	339.38
556.16	528.96
556.33	454.06
556.50	407.25
556.66	369.80
556.83	428.32
556.99	372.15
557.16	313.63
557.32	397.89
557.49	393.21
557.65	330.02
557.82	372.15
557.98	348.74
558.15	351.08
558.32	341.72
558.48	346.40
558.65	402.57
558.81	367.46
558.98	372.15
559.14	334.70
559.31	348.74
559.47	365.12
559.64	428.32
559.80	369.80
559.97	390.87
560.13	372.15
560.30	465.77
560.46	458.74
560.63	285.55
560.79	461.09
560.96	351.08
561.12	390.87
561.29	362.78
561.45	327.68
561.61	297.25
561.78	472.79
561.94	285.55
562.11	292.57
562.27	285.55
562.44	442.36
562.60	327.68
562.77	379.17
562.93	421.30
563.10	388.53
563.26	409.59
563.42	379.17
563.59	386.19
563.75	294.91
563.92	397.89
564.08	341.72
564.24	390.87
564.41	477.47
564.57	287.89
564.74	383.85
564.90	374.49
565.07	454.06
565.23	337.04
565.39	313.63
565.56	372.15
565.72	393.21
565.88	402.57
566.05	369.80
566.21	430.66
566.38	365.12
566.54	355.76
566.70	306.61
566.87	374.49
567.03	407.25
567.19	388.53
567.36	386.19
567.52	355.76
567.68	433.00
567.85	325.33
568.01	351.08
568.17	341.72
568.34	294.91
568.50	367.46
568.66	367.46
568.83	351.08
568.99	346.40
569.15	358.10
569.32	313.63
569.48	292.57
569.64	367.46
569.81	334.70
569.97	437.68
570.13	414.27
570.30	390.87
570.46	372.15
570.62	372.15
570.78	393.21
570.95	332.36
571.11	421.30
571.27	409.59
571.43	369.80
571.60	339.38
571.76	306.61
571.92	409.59
572.09	304.27
572.25	367.46
572.41	334.70
572.57	395.55
572.74	320.65
572.90	437.68
573.06	430.66
573.22	367.46
573.38	367.46
573.55	381.51
573.71	428.32
573.87	308.95
574.03	337.04
574.20	322.99
574.36	430.66
574.52	273.84
574.68	308.95
574.84	334.70
575.01	416.62
575.17	362.78
575.33	374.49
575.49	414.27
575.65	346.40
575.82	365.12
575.98	475.13
576.14	308.95
576.30	358.10
576.46	365.12
576.62	355.76
576.79	285.55
576.95	369.80
577.11	255.12
577.27	353.42
577.43	325.33
577.59	386.19
577.75	381.51
577.92	337.04
578.08	404.91
578.24	332.36
578.40	353.42
578.56	390.87
578.72	339.38
578.88	425.98
579.04	388.53
579.21	409.59
579.37	372.15
579.53	351.08
579.69	337.04
579.85	407.25
580.01	386.19
580.17	414.27
580.33	297.25
580.49	351.08
580.65	318.31
580.82	351.08
580.98	278.52
581.14	379.17
581.30	402.57
581.46	388.53
581.62	423.64
581.78	297.25
581.94	395.55
582.10	397.89
582.26	383.85
582.42	351.08
582.58	362.78
582.74	355.76
582.90	397.89
583.06	337.04
583.22	299.59
583.38	397.89
583.54	407.25
583.70	351.08
583.86	397.89
584.02	355.76
584.18	367.46
584.34	325.33
584.50	428.32
584.66	418.96
584.82	311.29
584.98	360.44
585.14	337.04
585.30	365.12
585.46	372.15
585.62	330.02
585.78	397.89
585.94	332.36
586.10	404.91
586.26	292.57
586.42	360.44
586.58	313.63
586.74	379.17
586.90	397.89
587.06	355.76
587.22	416.62
587.38	283.20
587.54	306.61
587.70	374.49
587.86	383.85
588.02	332.36
588.18	327.68
588.34	327.68
588.49	276.18
588.65	271.50
588.81	327.68
588.97	168.52
589.13	245.76
589.29	234.05
589.45	330.02
589.61	283.20
589.77	358.10
589.93	301.93
590.08	313.63
590.24	334.70
590.40	341.72
590.56	306.61
590.72	278.52
590.88	318.31
591.04	339.38
591.20	367.46
591.35	390.87
591.51	325.33
591.67	245.76
591.83	236.39
591.99	383.85
592.15	315.97
592.31	355.76
592.46	255.12
592.62	351.08
592.78	290.23
592.94	348.74
593.10	285.55
593.26	376.83
593.41	425.98
593.57	292.57
593.73	301.93
593.89	273.84
594.05	320.65
594.20	332.36
594.36	262.14
594.52	208.31
594.68	355.76
594.84	330.02
594.99	330.02
595.15	327.68
595.31	372.15
595.47	374.49
595.62	301.93
595.78	318.31
595.94	297.25
596.10	301.93
596.25	278.52
596.41	346.40
596.57	306.61
596.73	283.20
596.88	252.78
597.04	297.25
597.20	327.68
597.36	276.18
597.51	299.59
597.67	252.78
597.83	280.86
597.99	330.02
598.14	372.15
598.30	346.40
598.46	407.25
598.61	322.99
598.77	367.46
598.93	351.08
599.09	327.68
599.24	407.25
599.40	308.95
599.56	315.97
599.71	334.70
599.87	344.06
600.03	360.44
600.18	290.23
600.34	365.12
600.50	379.17
600.65	285.55
600.81	287.89
600.97	252.78
601.12	320.65
601.28	379.17
601.44	278.52
601.59	341.72
601.75	290.23
601.91	339.38
602.06	362.78
602.22	348.74
602.37	341.72
602.53	231.71
602.69	327.68
602.84	320.65
603.00	409.59
603.16	327.68
603.31	360.44
603.47	330.02
603.62	362.78
603.78	334.70
603.94	365.12
604.09	353.42
604.25	372.15
604.40	327.68
604.56	318.31
604.71	294.91
604.87	311.29
605.03	332.36
605.18	322.99
605.34	390.87
605.49	355.76
605.65	318.31
605.80	313.63
605.96	276.18
606.12	325.33
606.27	376.83
606.43	318.31
606.58	379.17
606.74	390.87
606.89	299.59
607.05	379.17
607.20	299.59
607.36	353.42
607.51	283.20
607.67	355.76
607.82	437.68
607.98	355.76
608.13	273.84
608.29	362.78
608.44	367.46
608.60	351.08
608.75	330.02
608.91	341.72
609.06	337.04
609.22	278.52
609.37	348.74
609.53	306.61
609.68	311.29
609.84	287.89
609.99	337.04
610.15	299.59
610.30	339.38
610.46	416.62
610.61	287.89
610.76	264.48
610.92	402.57
611.07	360.44
611.23	402.57
611.38	386.19
611.54	327.68
