SpectraSuite Data File
++++++++++++++++++++++++++++++++++++
Date: Fri Oct 04 11:47:04 GMT-05:00 2013
User: price-jones
Dark Spectrum Present: No
Reference Spectrum Present: No
Number of Sampled Component Spectra: 1
Spectrometers: USB2+H05261
Integration Time (usec): 100000 (USB2+H05261)
Spectra Averaged: 1 (USB2+H05261)
Boxcar Smoothing: 0 (USB2+H05261)
Correct for Electrical Dark: No (USB2+H05261)
Strobe/Lamp Enabled: No (USB2+H05261)
Correct for Detector Non-linearity: No (USB2+H05261)
Correct for Stray Light: No (USB2+H05261)
Number of Pixels in Processed Spectrum: 2048
>>>>>Begin Processed Spectral Data<<<<<
365.73	7.02
365.92	7.02
366.12	7.02
366.32	0.00
366.52	0.00
366.72	0.00
366.91	0.00
367.11	0.00
367.31	0.00
367.51	0.00
367.70	0.00
367.90	0.00
368.10	0.00
368.30	0.00
368.49	0.00
368.69	0.00
368.89	0.00
369.09	0.00
369.28	0.00
369.48	0.00
369.68	0.00
369.87	2.34
370.07	0.00
370.27	18.72
370.47	14.04
370.66	37.45
370.86	16.38
371.06	63.19
371.25	51.49
371.45	25.75
371.65	0.00
371.84	65.54
372.04	107.66
372.24	49.15
372.44	63.19
372.63	25.75
372.83	163.84
373.03	51.49
373.22	56.17
373.42	14.04
373.62	95.96
373.81	86.60
374.01	114.69
374.21	145.11
374.40	100.64
374.60	128.73
374.79	135.75
374.99	135.75
375.19	79.58
375.38	91.28
375.58	133.41
375.78	145.11
375.97	119.37
376.17	133.41
376.37	81.92
376.56	131.07
376.76	70.22
376.95	138.09
377.15	77.24
377.35	133.41
377.54	112.35
377.74	77.24
377.93	98.30
378.13	114.69
378.33	77.24
378.52	112.35
378.72	105.32
378.91	84.26
379.11	63.19
379.31	39.79
379.50	88.94
379.70	105.32
379.89	124.05
380.09	53.83
380.28	44.47
380.48	119.37
380.68	53.83
380.87	112.35
381.07	79.58
381.26	126.39
381.46	79.58
381.65	91.28
381.85	86.60
382.04	0.00
382.24	93.62
382.43	60.85
382.63	131.07
382.83	0.00
383.02	140.43
383.22	53.83
383.41	63.19
383.61	175.54
383.80	56.17
384.00	91.28
384.19	16.38
384.39	72.56
384.58	112.35
384.78	39.79
384.97	131.07
385.17	114.69
385.36	142.77
385.56	86.60
385.75	86.60
385.95	128.73
386.14	161.50
386.34	112.35
386.53	135.75
386.72	131.07
386.92	93.62
387.11	154.48
387.31	110.01
387.50	51.49
387.70	37.45
387.89	72.56
388.09	147.45
388.28	63.19
388.48	88.94
388.67	110.01
388.86	77.24
389.06	98.30
389.25	37.45
389.45	65.54
389.64	77.24
389.84	86.60
390.03	121.71
390.22	81.92
390.42	100.64
390.61	91.28
390.81	30.43
391.00	117.03
391.19	42.13
391.39	74.90
391.58	91.28
391.78	142.77
391.97	49.15
392.16	107.66
392.36	102.98
392.55	161.50
392.75	128.73
392.94	100.64
393.13	110.01
393.33	42.13
393.52	77.24
393.71	131.07
393.91	124.05
394.10	112.35
394.29	46.81
394.49	119.37
394.68	112.35
394.88	100.64
395.07	119.37
395.26	110.01
395.46	60.85
395.65	187.24
395.84	105.32
396.04	149.79
396.23	110.01
396.42	128.73
396.62	147.45
396.81	95.96
397.00	95.96
397.19	114.69
397.39	88.94
397.58	98.30
397.77	58.51
397.97	77.24
398.16	107.66
398.35	114.69
398.55	156.82
398.74	121.71
398.93	84.26
399.12	208.31
399.32	107.66
399.51	79.58
399.70	86.60
399.90	140.43
400.09	124.05
400.28	105.32
400.47	86.60
400.67	140.43
400.86	51.49
401.05	152.13
401.24	114.69
401.44	156.82
401.63	149.79
401.82	154.48
402.01	63.19
402.21	98.30
402.40	44.47
402.59	138.09
402.78	98.30
402.97	81.92
403.17	154.48
403.36	88.94
403.55	49.15
403.74	72.56
403.93	128.73
404.13	133.41
404.32	119.37
404.51	84.26
404.70	7.02
404.89	86.60
405.09	119.37
405.28	142.77
405.47	105.32
405.66	145.11
405.85	91.28
406.05	102.98
406.24	86.60
406.43	135.75
406.62	110.01
406.81	117.03
407.00	110.01
407.20	147.45
407.39	112.35
407.58	107.66
407.77	72.56
407.96	74.90
408.15	135.75
408.34	63.19
408.54	131.07
408.73	100.64
408.92	121.71
409.11	182.56
409.30	154.48
409.49	25.75
409.68	72.56
409.87	133.41
410.07	67.88
410.26	86.60
410.45	166.18
410.64	93.62
410.83	131.07
411.02	126.39
411.21	72.56
411.40	30.43
411.59	133.41
411.78	100.64
411.98	121.71
412.17	77.24
412.36	110.01
412.55	145.11
412.74	124.05
412.93	72.56
413.12	16.38
413.31	166.18
413.50	121.71
413.69	112.35
413.88	124.05
414.07	133.41
414.26	100.64
414.45	46.81
414.64	79.58
414.83	79.58
415.02	81.92
415.22	107.66
415.41	166.18
415.60	110.01
415.79	133.41
415.98	163.84
416.17	88.94
416.36	88.94
416.55	84.26
416.74	79.58
416.93	110.01
417.12	107.66
417.31	86.60
417.50	112.35
417.69	149.79
417.88	154.48
418.07	72.56
418.26	102.98
418.45	166.18
418.64	168.52
418.83	215.33
419.02	114.69
419.21	81.92
419.39	105.32
419.58	100.64
419.77	177.88
419.96	184.90
420.15	117.03
420.34	159.16
420.53	112.35
420.72	142.77
420.91	18.72
421.10	114.69
421.29	145.11
421.48	86.60
421.67	98.30
421.86	107.66
422.05	98.30
422.24	133.41
422.43	210.65
422.61	65.54
422.80	117.03
422.99	140.43
423.18	126.39
423.37	173.20
423.56	107.66
423.75	114.69
423.94	112.35
424.13	170.86
424.32	91.28
424.50	117.03
424.69	163.84
424.88	159.16
425.07	126.39
425.26	161.50
425.45	156.82
425.64	142.77
425.83	154.48
426.01	175.54
426.20	110.01
426.39	100.64
426.58	135.75
426.77	79.58
426.96	156.82
427.15	88.94
427.33	74.90
427.52	107.66
427.71	114.69
427.90	152.13
428.09	124.05
428.28	23.41
428.46	60.85
428.65	72.56
428.84	119.37
429.03	110.01
429.22	135.75
429.40	107.66
429.59	72.56
429.78	135.75
429.97	72.56
430.16	182.56
430.34	72.56
430.53	126.39
430.72	110.01
430.91	105.32
431.10	77.24
431.28	119.37
431.47	95.96
431.66	128.73
431.85	42.13
432.03	117.03
432.22	147.45
432.41	65.54
432.60	217.67
432.79	138.09
432.97	147.45
433.16	79.58
433.35	194.26
433.54	119.37
433.72	117.03
433.91	159.16
434.10	86.60
434.28	156.82
434.47	93.62
434.66	133.41
434.85	93.62
435.03	74.90
435.22	187.24
435.41	173.20
435.59	79.58
435.78	189.58
435.97	119.37
436.16	114.69
436.34	180.22
436.53	173.20
436.72	100.64
436.90	149.79
437.09	70.22
437.28	16.38
437.46	93.62
437.65	131.07
437.84	187.24
438.02	154.48
438.21	65.54
438.40	131.07
438.58	88.94
438.77	88.94
438.96	163.84
439.14	100.64
439.33	168.52
439.52	37.45
439.70	102.98
439.89	159.16
440.08	140.43
440.26	100.64
440.45	124.05
440.63	117.03
440.82	145.11
441.01	166.18
441.19	102.98
441.38	88.94
441.57	112.35
441.75	128.73
441.94	128.73
442.12	140.43
442.31	135.75
442.50	140.43
442.68	98.30
442.87	107.66
443.05	102.98
443.24	126.39
443.43	187.24
443.61	182.56
443.80	102.98
443.98	60.85
444.17	140.43
444.35	128.73
444.54	121.71
444.73	159.16
444.91	149.79
445.10	112.35
445.28	93.62
445.47	170.86
445.65	121.71
445.84	121.71
446.02	170.86
446.21	180.22
446.39	173.20
446.58	60.85
446.77	135.75
446.95	100.64
447.14	177.88
447.32	196.60
447.51	166.18
447.69	135.75
447.88	84.26
448.06	140.43
448.25	135.75
448.43	74.90
448.62	107.66
448.80	124.05
448.99	145.11
449.17	46.81
449.36	124.05
449.54	168.52
449.73	159.16
449.91	220.01
450.10	63.19
450.28	198.95
450.46	177.88
450.65	156.82
450.83	161.50
451.02	124.05
451.20	215.33
451.39	147.45
451.57	117.03
451.76	147.45
451.94	180.22
452.13	198.95
452.31	140.43
452.49	138.09
452.68	152.13
452.86	126.39
453.05	210.65
453.23	154.48
453.42	117.03
453.60	161.50
453.78	105.32
453.97	147.45
454.15	170.86
454.34	88.94
454.52	86.60
454.70	147.45
454.89	138.09
455.07	138.09
455.26	198.95
455.44	100.64
455.62	180.22
455.81	152.13
455.99	227.03
456.17	140.43
456.36	189.58
456.54	182.56
456.73	161.50
456.91	147.45
457.09	107.66
457.28	149.79
457.46	184.90
457.64	187.24
457.83	135.75
458.01	138.09
458.19	121.71
458.38	145.11
458.56	168.52
458.74	145.11
458.93	124.05
459.11	145.11
459.29	114.69
459.48	105.32
459.66	191.92
459.84	119.37
460.03	138.09
460.21	93.62
460.39	72.56
460.57	114.69
460.76	147.45
460.94	128.73
461.12	227.03
461.31	166.18
461.49	138.09
461.67	145.11
461.85	98.30
462.04	114.69
462.22	589.82
462.40	163.84
462.59	147.45
462.77	60.85
462.95	107.66
463.13	102.98
463.32	105.32
463.50	154.48
463.68	95.96
463.86	182.56
464.05	161.50
464.23	163.84
464.41	262.14
464.59	145.11
464.78	133.41
464.96	175.54
465.14	140.43
465.32	81.92
465.50	149.79
465.69	79.58
465.87	84.26
466.05	177.88
466.23	128.73
466.41	88.94
466.60	81.92
466.78	93.62
466.96	98.30
467.14	156.82
467.32	114.69
467.51	236.39
467.69	168.52
467.87	133.41
468.05	112.35
468.23	194.26
468.41	121.71
468.60	208.31
468.78	58.51
468.96	145.11
469.14	166.18
469.32	117.03
469.50	119.37
469.69	110.01
469.87	70.22
470.05	117.03
470.23	147.45
470.41	142.77
470.59	133.41
470.77	149.79
470.95	135.75
471.14	212.99
471.32	126.39
471.50	163.84
471.68	177.88
471.86	177.88
472.04	133.41
472.22	102.98
472.40	133.41
472.58	180.22
472.77	126.39
472.95	220.01
473.13	191.92
473.31	215.33
473.49	114.69
473.67	154.48
473.85	196.60
474.03	152.13
474.21	182.56
474.39	166.18
474.57	163.84
474.75	159.16
474.93	159.16
475.12	105.32
475.30	79.58
475.48	140.43
475.66	95.96
475.84	114.69
476.02	147.45
476.20	145.11
476.38	217.67
476.56	208.31
476.74	196.60
476.92	93.62
477.10	180.22
477.28	241.08
477.46	184.90
477.64	56.17
477.82	149.79
478.00	163.84
478.18	159.16
478.36	121.71
478.54	138.09
478.72	88.94
478.90	142.77
479.08	161.50
479.26	166.18
479.44	152.13
479.62	145.11
479.80	110.01
479.98	156.82
480.16	152.13
480.34	177.88
480.52	126.39
480.70	212.99
480.88	152.13
481.06	168.52
481.24	133.41
481.41	124.05
481.59	149.79
481.77	133.41
481.95	184.90
482.13	191.92
482.31	126.39
482.49	191.92
482.67	182.56
482.85	168.52
483.03	170.86
483.21	86.60
483.39	65.54
483.57	140.43
483.74	215.33
483.92	191.92
484.10	58.51
484.28	238.73
484.46	182.56
484.64	170.86
484.82	119.37
485.00	131.07
485.18	182.56
485.35	128.73
485.53	112.35
485.71	107.66
485.89	56.17
486.07	159.16
486.25	187.24
486.43	198.95
486.61	201.29
486.78	203.63
486.96	159.16
487.14	105.32
487.32	175.54
487.50	91.28
487.68	166.18
487.85	124.05
488.03	91.28
488.21	238.73
488.39	180.22
488.57	203.63
488.75	110.01
488.92	435.34
489.10	241.08
489.28	133.41
489.46	189.58
489.64	131.07
489.81	252.78
489.99	217.67
490.17	222.35
490.35	203.63
490.53	215.33
490.70	194.26
490.88	255.12
491.06	138.09
491.24	175.54
491.41	180.22
491.59	147.45
491.77	250.44
491.95	142.77
492.13	152.13
492.30	198.95
492.48	175.54
492.66	205.97
492.84	161.50
493.01	168.52
493.19	121.71
493.37	159.16
493.54	184.90
493.72	234.05
493.90	198.95
494.08	149.79
494.25	166.18
494.43	203.63
494.61	152.13
494.79	135.75
494.96	161.50
495.14	215.33
495.32	163.84
495.49	180.22
495.67	229.37
495.85	140.43
496.02	191.92
496.20	196.60
496.38	194.26
496.55	196.60
496.73	194.26
496.91	222.35
497.09	187.24
497.26	236.39
497.44	182.56
497.62	196.60
497.79	117.03
497.97	191.92
498.14	110.01
498.32	163.84
498.50	88.94
498.67	208.31
498.85	110.01
499.03	180.22
499.20	201.29
499.38	124.05
499.56	142.77
499.73	215.33
499.91	215.33
500.08	194.26
500.26	191.92
500.44	180.22
500.61	191.92
500.79	227.03
500.97	250.44
501.14	189.58
501.32	280.86
501.49	182.56
501.67	163.84
501.84	215.33
502.02	135.75
502.20	180.22
502.37	201.29
502.55	168.52
502.72	215.33
502.90	250.44
503.07	201.29
503.25	198.95
503.43	210.65
503.60	257.46
503.78	212.99
503.95	189.58
504.13	156.82
504.30	196.60
504.48	131.07
504.65	238.73
504.83	224.69
505.01	245.76
505.18	105.32
505.36	163.84
505.53	215.33
505.71	147.45
505.88	196.60
506.06	110.01
506.23	208.31
506.41	166.18
506.58	177.88
506.76	252.78
506.93	205.97
507.11	212.99
507.28	191.92
507.46	208.31
507.63	159.16
507.81	210.65
507.98	161.50
508.16	248.10
508.33	208.31
508.50	201.29
508.68	142.77
508.85	70.22
509.03	196.60
509.20	163.84
509.38	159.16
509.55	177.88
509.73	187.24
509.90	248.10
510.08	208.31
510.25	189.58
510.42	131.07
510.60	159.16
510.77	196.60
510.95	248.10
511.12	231.71
511.30	248.10
511.47	229.37
511.64	227.03
511.82	152.13
511.99	238.73
512.17	163.84
512.34	177.88
512.51	182.56
512.69	224.69
512.86	156.82
513.04	189.58
513.21	142.77
513.38	180.22
513.56	180.22
513.73	163.84
513.90	203.63
514.08	112.35
514.25	194.26
514.43	119.37
514.60	210.65
514.77	154.48
514.95	229.37
515.12	149.79
515.29	152.13
515.47	220.01
515.64	210.65
515.81	196.60
515.99	276.18
516.16	215.33
516.33	243.42
516.51	95.96
516.68	283.20
516.85	187.24
517.03	131.07
517.20	210.65
517.37	222.35
517.54	156.82
517.72	152.13
517.89	196.60
518.06	156.82
518.24	205.97
518.41	217.67
518.58	163.84
518.75	205.97
518.93	248.10
519.10	170.86
519.27	131.07
519.45	234.05
519.62	191.92
519.79	180.22
519.96	191.92
520.14	201.29
520.31	224.69
520.48	224.69
520.65	154.48
520.83	250.44
521.00	133.41
521.17	198.95
521.34	194.26
521.52	194.26
521.69	203.63
521.86	149.79
522.03	250.44
522.20	205.97
522.38	182.56
522.55	102.98
522.72	175.54
522.89	299.59
523.07	252.78
523.24	205.97
523.41	175.54
523.58	212.99
523.75	227.03
523.92	208.31
524.10	229.37
524.27	168.52
524.44	241.08
524.61	241.08
524.78	198.95
524.96	182.56
525.13	276.18
525.30	198.95
525.47	231.71
525.64	217.67
525.81	224.69
525.98	238.73
526.16	203.63
526.33	198.95
526.50	264.48
526.67	100.64
526.84	173.20
527.01	131.07
527.18	243.42
527.36	271.50
527.53	126.39
527.70	177.88
527.87	121.71
528.04	301.93
528.21	250.44
528.38	210.65
528.55	215.33
528.72	241.08
528.89	205.97
529.07	229.37
529.24	276.18
529.41	243.42
529.58	224.69
529.75	236.39
529.92	182.56
530.09	198.95
530.26	264.48
530.43	222.35
530.60	313.63
530.77	259.80
530.94	238.73
531.11	168.52
531.28	177.88
531.46	224.69
531.63	234.05
531.80	266.82
531.97	222.35
532.14	208.31
532.31	175.54
532.48	238.73
532.65	308.95
532.82	308.95
532.99	252.78
533.16	299.59
533.33	234.05
533.50	203.63
533.67	224.69
533.84	259.80
534.01	369.80
534.18	210.65
534.35	236.39
534.52	236.39
534.69	334.70
534.86	241.08
535.03	208.31
535.20	184.90
535.37	170.86
535.54	203.63
535.71	215.33
535.88	276.18
536.05	154.48
536.22	212.99
536.38	220.01
536.55	224.69
536.72	290.23
536.89	194.26
537.06	187.24
537.23	201.29
537.40	180.22
537.57	210.65
537.74	236.39
537.91	208.31
538.08	241.08
538.25	266.82
538.42	229.37
538.59	248.10
538.75	231.71
538.92	283.20
539.09	124.05
539.26	201.29
539.43	400.23
539.60	594.50
539.77	1071.97
539.94	966.64
540.11	660.03
540.28	489.17
540.44	330.02
540.61	269.16
540.78	194.26
540.95	159.16
541.12	208.31
541.29	170.86
541.46	290.23
541.62	142.77
541.79	191.92
541.96	159.16
542.13	227.03
542.30	205.97
542.47	231.71
542.63	117.03
542.80	205.97
542.97	187.24
543.14	133.41
543.31	292.57
543.48	196.60
543.64	154.48
543.81	180.22
543.98	180.22
544.15	145.11
544.32	161.50
544.48	203.63
544.65	217.67
544.82	208.31
544.99	191.92
545.16	215.33
545.32	212.99
545.49	168.52
545.66	241.08
545.83	201.29
546.00	135.75
546.16	238.73
546.33	208.31
546.50	208.31
546.67	205.97
546.83	215.33
547.00	217.67
547.17	222.35
547.34	180.22
547.50	280.86
547.67	124.05
547.84	252.78
548.00	243.42
548.17	208.31
548.34	166.18
548.51	243.42
548.67	191.92
548.84	220.01
549.01	215.33
549.18	126.39
549.34	257.46
549.51	175.54
549.68	257.46
549.84	184.90
550.01	107.66
550.18	292.57
550.34	290.23
550.51	156.82
550.68	236.39
550.84	191.92
551.01	149.79
551.18	180.22
551.34	196.60
551.51	203.63
551.68	187.24
551.84	189.58
552.01	201.29
552.18	215.33
552.34	196.60
552.51	215.33
552.68	184.90
552.84	191.92
553.01	238.73
553.18	212.99
553.34	166.18
553.51	140.43
553.67	217.67
553.84	283.20
554.01	187.24
554.17	98.30
554.34	205.97
554.51	173.20
554.67	248.10
554.84	245.76
555.00	152.13
555.17	187.24
555.33	196.60
555.50	252.78
555.67	201.29
555.83	224.69
556.00	196.60
556.16	332.36
556.33	264.48
556.50	231.71
556.66	189.58
556.83	145.11
556.99	147.45
557.16	168.52
557.32	205.97
557.49	102.98
557.65	138.09
557.82	168.52
557.98	205.97
558.15	196.60
558.32	250.44
558.48	159.16
558.65	205.97
558.81	217.67
558.98	161.50
559.14	201.29
559.31	196.60
559.47	135.75
559.64	208.31
559.80	187.24
559.97	159.16
560.13	222.35
560.30	166.18
560.46	154.48
560.63	266.82
560.79	231.71
560.96	138.09
561.12	182.56
561.29	203.63
561.45	152.13
561.61	227.03
561.78	358.10
561.94	79.58
562.11	154.48
562.27	170.86
562.44	248.10
562.60	220.01
562.77	241.08
562.93	283.20
563.10	168.52
563.26	227.03
563.42	259.80
563.59	236.39
563.75	248.10
563.92	198.95
564.08	222.35
564.24	187.24
564.41	196.60
564.57	166.18
564.74	138.09
564.90	257.46
565.07	224.69
565.23	266.82
565.39	212.99
565.56	257.46
565.72	191.92
565.88	217.67
566.05	175.54
566.21	271.50
566.38	236.39
566.54	227.03
566.70	236.39
566.87	248.10
567.03	175.54
567.19	222.35
567.36	191.92
567.52	177.88
567.68	229.37
567.85	203.63
568.01	241.08
568.17	205.97
568.34	117.03
568.50	266.82
568.66	126.39
568.83	327.68
568.99	180.22
569.15	196.60
569.32	194.26
569.48	245.76
569.64	147.45
569.81	198.95
569.97	238.73
570.13	220.01
570.30	149.79
570.46	177.88
570.62	177.88
570.78	234.05
570.95	187.24
571.11	182.56
571.27	264.48
571.43	257.46
571.60	217.67
571.76	187.24
571.92	187.24
572.09	131.07
572.25	299.59
572.41	201.29
572.57	147.45
572.74	184.90
572.90	173.20
573.06	201.29
573.22	166.18
573.38	264.48
573.55	205.97
573.71	177.88
573.87	222.35
574.03	182.56
574.20	177.88
574.36	220.01
574.52	287.89
574.68	266.82
574.84	259.80
575.01	175.54
575.17	194.26
575.33	177.88
575.49	234.05
575.65	273.84
575.82	304.27
575.98	470.45
576.14	519.60
576.30	496.19
576.46	344.06
576.62	266.82
576.79	248.10
576.95	224.69
577.11	180.22
577.27	224.69
577.43	168.52
577.59	280.86
577.75	205.97
577.92	173.20
578.08	191.92
578.24	175.54
578.40	229.37
578.56	299.59
578.72	222.35
578.88	227.03
579.04	224.69
579.21	159.16
579.37	236.39
579.53	294.91
579.69	229.37
579.85	163.84
580.01	311.29
580.17	339.38
580.33	290.23
580.49	306.61
580.65	294.91
580.82	273.84
580.98	245.76
581.14	234.05
581.30	308.95
581.46	304.27
581.62	428.32
581.78	433.00
581.94	404.91
582.10	308.95
582.26	278.52
582.42	287.89
582.58	346.40
582.74	341.72
582.90	346.40
583.06	395.55
583.22	304.27
583.38	351.08
583.54	341.72
583.70	437.68
583.86	514.92
584.02	505.56
584.18	622.58
584.34	847.27
584.50	2143.93
584.66	17015.69
584.82	40247.85
584.98	51470.72
585.14	45759.81
585.30	28147.28
585.46	17298.90
585.62	10614.33
585.78	5055.56
585.94	2008.18
586.10	1006.43
586.26	671.73
586.42	580.45
586.58	489.17
586.74	381.51
586.90	407.25
587.06	449.38
587.22	393.21
587.38	447.04
587.54	791.10
587.70	2342.88
587.86	3693.37
588.02	3749.54
588.18	2670.55
588.34	1842.00
588.49	1149.20
588.65	709.18
588.81	507.90
588.97	234.05
589.13	257.46
589.29	271.50
589.45	283.20
589.61	255.12
589.77	285.55
589.93	285.55
590.08	320.65
590.24	334.70
590.40	332.36
590.56	337.04
590.72	245.76
590.88	215.33
591.04	276.18
591.20	269.16
591.35	241.08
591.51	217.67
591.67	243.42
591.83	212.99
591.99	250.44
592.15	222.35
592.31	234.05
592.46	177.88
592.62	187.24
592.78	238.73
592.94	238.73
593.10	241.08
593.26	168.52
593.41	229.37
593.57	234.05
593.73	409.59
593.89	2005.84
594.05	4812.14
594.20	6527.75
594.36	6085.39
594.52	4079.55
594.68	2677.57
594.84	1769.44
594.99	964.30
595.15	571.09
595.31	276.18
595.47	320.65
595.62	224.69
595.78	248.10
595.94	273.84
596.10	262.14
596.25	280.86
596.41	278.52
596.57	224.69
596.73	182.56
596.88	411.93
597.04	952.60
597.20	1535.39
597.36	1715.61
597.51	1306.02
597.67	875.36
597.83	589.82
597.99	514.92
598.14	346.40
598.30	280.86
598.46	259.80
598.61	236.39
598.77	175.54
598.93	210.65
599.09	234.05
599.24	264.48
599.40	201.29
599.56	175.54
599.71	234.05
599.87	220.01
600.03	194.26
600.18	175.54
600.34	196.60
600.50	173.20
600.65	231.71
600.81	198.95
600.97	180.22
601.12	180.22
601.28	156.82
601.44	187.24
601.59	194.26
601.75	273.84
601.91	257.46
602.06	194.26
602.22	327.68
602.37	575.77
602.53	1174.95
602.69	1621.99
602.84	1694.55
603.00	1240.48
603.16	905.79
603.31	711.52
603.47	458.74
603.62	341.72
603.78	280.86
603.94	285.55
604.09	217.67
604.25	243.42
604.40	212.99
604.56	227.03
604.71	198.95
604.87	184.90
605.03	243.42
605.18	149.79
605.34	264.48
605.49	255.12
605.65	234.05
605.80	273.84
605.96	210.65
606.12	283.20
606.27	278.52
606.43	250.44
606.58	294.91
606.74	660.03
606.89	2497.35
607.05	4545.32
607.20	5617.29
607.36	4554.68
607.51	3110.57
607.67	2071.37
607.82	1504.96
607.98	842.59
608.13	451.72
608.29	383.85
608.44	337.04
608.60	325.33
608.75	404.91
608.91	887.06
609.06	3829.12
609.22	7370.35
609.37	9516.62
609.53	8037.40
609.68	5518.98
609.84	3536.55
609.99	2305.43
610.15	1291.98
610.30	617.90
610.46	386.19
610.61	322.99
610.76	250.44
610.92	255.12
611.07	250.44
611.23	327.68
611.38	255.12
611.54	196.60
611.69	271.50
611.84	182.56
612.00	203.63
612.15	243.42
