SpectraSuite Data File
++++++++++++++++++++++++++++++++++++
Date: Fri Oct 04 11:47:24 GMT-05:00 2013
User: price-jones
Dark Spectrum Present: No
Reference Spectrum Present: No
Number of Sampled Component Spectra: 1
Spectrometers: USB2+H05261
Integration Time (usec): 100000 (USB2+H05261)
Spectra Averaged: 1 (USB2+H05261)
Boxcar Smoothing: 0 (USB2+H05261)
Correct for Electrical Dark: No (USB2+H05261)
Strobe/Lamp Enabled: No (USB2+H05261)
Correct for Detector Non-linearity: No (USB2+H05261)
Correct for Stray Light: No (USB2+H05261)
Number of Pixels in Processed Spectrum: 2048
>>>>>Begin Processed Spectral Data<<<<<
365.73	23.41
365.92	23.41
366.12	23.41
366.32	0.00
366.52	0.00
366.72	0.00
366.91	0.00
367.11	0.00
367.31	0.00
367.51	0.00
367.70	0.00
367.90	0.00
368.10	0.00
368.30	0.00
368.49	0.00
368.69	0.00
368.89	0.00
369.09	0.00
369.28	0.00
369.48	0.00
369.68	0.00
369.87	0.00
370.07	0.00
370.27	0.00
370.47	0.00
370.66	11.70
370.86	35.11
371.06	81.92
371.25	114.69
371.45	28.09
371.65	117.03
371.84	35.11
372.04	18.72
372.24	30.43
372.44	37.45
372.63	65.54
372.83	77.24
373.03	91.28
373.22	114.69
373.42	60.85
373.62	93.62
373.81	100.64
374.01	117.03
374.21	133.41
374.40	72.56
374.60	170.86
374.79	154.48
374.99	51.49
375.19	93.62
375.38	133.41
375.58	70.22
375.78	98.30
375.97	135.75
376.17	112.35
376.37	100.64
376.56	168.52
376.76	58.51
376.95	0.00
377.15	56.17
377.35	112.35
377.54	126.39
377.74	67.88
377.93	140.43
378.13	114.69
378.33	124.05
378.52	74.90
378.72	126.39
378.91	86.60
379.11	74.90
379.31	117.03
379.50	58.51
379.70	72.56
379.89	91.28
380.09	74.90
380.28	112.35
380.48	145.11
380.68	72.56
380.87	105.32
381.07	124.05
381.26	131.07
381.46	121.71
381.65	152.13
381.85	98.30
382.04	117.03
382.24	114.69
382.43	81.92
382.63	0.00
382.83	72.56
383.02	84.26
383.22	184.90
383.41	166.18
383.61	168.52
383.80	77.24
384.00	95.96
384.19	135.75
384.39	102.98
384.58	128.73
384.78	119.37
384.97	124.05
385.17	100.64
385.36	112.35
385.56	70.22
385.75	60.85
385.95	72.56
386.14	117.03
386.34	114.69
386.53	81.92
386.72	56.17
386.92	124.05
387.11	133.41
387.31	145.11
387.50	25.75
387.70	44.47
387.89	95.96
388.09	84.26
388.28	74.90
388.48	112.35
388.67	119.37
388.86	79.58
389.06	77.24
389.25	53.83
389.45	84.26
389.64	131.07
389.84	124.05
390.03	131.07
390.22	154.48
390.42	142.77
390.61	121.71
390.81	110.01
391.00	30.43
391.19	105.32
391.39	100.64
391.58	79.58
391.78	100.64
391.97	72.56
392.16	93.62
392.36	58.51
392.55	154.48
392.75	166.18
392.94	77.24
393.13	72.56
393.33	46.81
393.52	84.26
393.71	152.13
393.91	72.56
394.10	138.09
394.29	44.47
394.49	65.54
394.68	49.15
394.88	168.52
395.07	168.52
395.26	173.20
395.46	124.05
395.65	98.30
395.84	131.07
396.04	222.35
396.23	149.79
396.42	79.58
396.62	105.32
396.81	121.71
397.00	67.88
397.19	91.28
397.39	105.32
397.58	93.62
397.77	100.64
397.97	110.01
398.16	128.73
398.35	124.05
398.55	88.94
398.74	98.30
398.93	222.35
399.12	128.73
399.32	138.09
399.51	173.20
399.70	161.50
399.90	152.13
400.09	205.97
400.28	74.90
400.47	70.22
400.67	147.45
400.86	145.11
401.05	145.11
401.24	231.71
401.44	105.32
401.63	126.39
401.82	257.46
402.01	93.62
402.21	187.24
402.40	88.94
402.59	117.03
402.78	145.11
402.97	163.84
403.17	177.88
403.36	142.77
403.55	154.48
403.74	112.35
403.93	70.22
404.13	198.95
404.32	128.73
404.51	140.43
404.70	142.77
404.89	56.17
405.09	145.11
405.28	140.43
405.47	126.39
405.66	140.43
405.85	201.29
406.05	93.62
406.24	161.50
406.43	135.75
406.62	79.58
406.81	124.05
407.00	145.11
407.20	131.07
407.39	166.18
407.58	102.98
407.77	168.52
407.96	224.69
408.15	161.50
408.34	177.88
408.54	196.60
408.73	105.32
408.92	149.79
409.11	161.50
409.30	133.41
409.49	65.54
409.68	112.35
409.87	175.54
410.07	128.73
410.26	112.35
410.45	147.45
410.64	114.69
410.83	126.39
411.02	175.54
411.21	93.62
411.40	191.92
411.59	163.84
411.78	159.16
411.98	187.24
412.17	140.43
412.36	170.86
412.55	149.79
412.74	194.26
412.93	229.37
413.12	149.79
413.31	140.43
413.50	175.54
413.69	159.16
413.88	168.52
414.07	220.01
414.26	131.07
414.45	124.05
414.64	177.88
414.83	227.03
415.02	173.20
415.22	102.98
415.41	163.84
415.60	149.79
415.79	133.41
415.98	224.69
416.17	177.88
416.36	170.86
416.55	91.28
416.74	161.50
416.93	107.66
417.12	30.43
417.31	117.03
417.50	194.26
417.69	142.77
417.88	170.86
418.07	107.66
418.26	231.71
418.45	217.67
418.64	187.24
418.83	166.18
419.02	117.03
419.21	145.11
419.39	177.88
419.58	156.82
419.77	170.86
419.96	182.56
420.15	184.90
420.34	112.35
420.53	191.92
420.72	224.69
420.91	149.79
421.10	161.50
421.29	184.90
421.48	189.58
421.67	170.86
421.86	102.98
422.05	168.52
422.24	126.39
422.43	166.18
422.61	163.84
422.80	175.54
422.99	168.52
423.18	105.32
423.37	198.95
423.56	161.50
423.75	203.63
423.94	180.22
424.13	201.29
424.32	95.96
424.50	117.03
424.69	147.45
424.88	205.97
425.07	198.95
425.26	147.45
425.45	187.24
425.64	119.37
425.83	84.26
426.01	149.79
426.20	159.16
426.39	145.11
426.58	152.13
426.77	175.54
426.96	152.13
427.15	180.22
427.33	117.03
427.52	152.13
427.71	198.95
427.90	102.98
428.09	154.48
428.28	182.56
428.46	128.73
428.65	145.11
428.84	177.88
429.03	201.29
429.22	140.43
429.40	133.41
429.59	77.24
429.78	184.90
429.97	152.13
430.16	114.69
430.34	124.05
430.53	121.71
430.72	138.09
430.91	124.05
431.10	149.79
431.28	168.52
431.47	224.69
431.66	124.05
431.85	93.62
432.03	170.86
432.22	224.69
432.41	227.03
432.60	184.90
432.79	212.99
432.97	93.62
433.16	133.41
433.35	145.11
433.54	147.45
433.72	135.75
433.91	105.32
434.10	154.48
434.28	149.79
434.47	128.73
434.66	145.11
434.85	142.77
435.03	126.39
435.22	196.60
435.41	166.18
435.59	126.39
435.78	131.07
435.97	180.22
436.16	245.76
436.34	238.73
436.53	203.63
436.72	222.35
436.90	264.48
437.09	229.37
437.28	135.75
437.46	175.54
437.65	203.63
437.84	149.79
438.02	194.26
438.21	147.45
438.40	212.99
438.58	114.69
438.77	152.13
438.96	194.26
439.14	187.24
439.33	189.58
439.52	227.03
439.70	133.41
439.89	145.11
440.08	238.73
440.26	149.79
440.45	208.31
440.63	217.67
440.82	259.80
441.01	189.58
441.19	161.50
441.38	161.50
441.57	238.73
441.75	224.69
441.94	224.69
442.12	224.69
442.31	168.52
442.50	236.39
442.68	182.56
442.87	215.33
443.05	163.84
443.24	177.88
443.43	173.20
443.61	201.29
443.80	245.76
443.98	126.39
444.17	159.16
444.35	210.65
444.54	163.84
444.73	203.63
444.91	205.97
445.10	147.45
445.28	147.45
445.47	138.09
445.65	110.01
445.84	145.11
446.02	191.92
446.21	168.52
446.39	205.97
446.58	198.95
446.77	238.73
446.95	173.20
447.14	152.13
447.32	278.52
447.51	95.96
447.69	142.77
447.88	210.65
448.06	201.29
448.25	152.13
448.43	198.95
448.62	227.03
448.80	210.65
448.99	156.82
449.17	208.31
449.36	189.58
449.54	269.16
449.73	173.20
449.91	222.35
450.10	229.37
450.28	297.25
450.46	231.71
450.65	189.58
450.83	180.22
451.02	194.26
451.20	86.60
451.39	266.82
451.57	184.90
451.76	238.73
451.94	194.26
452.13	170.86
452.31	238.73
452.49	222.35
452.68	224.69
452.86	168.52
453.05	210.65
453.23	170.86
453.42	210.65
453.60	196.60
453.78	238.73
453.97	163.84
454.15	212.99
454.34	198.95
454.52	175.54
454.70	170.86
454.89	210.65
455.07	198.95
455.26	205.97
455.44	241.08
455.62	166.18
455.81	173.20
455.99	229.37
456.17	177.88
456.36	215.33
456.54	187.24
456.73	149.79
456.91	212.99
457.09	217.67
457.28	229.37
457.46	201.29
457.64	292.57
457.83	220.01
458.01	198.95
458.19	187.24
458.38	257.46
458.56	205.97
458.74	159.16
458.93	224.69
459.11	177.88
459.29	276.18
459.48	210.65
459.66	248.10
459.84	248.10
460.03	238.73
460.21	255.12
460.39	166.18
460.57	250.44
460.76	149.79
460.94	203.63
461.12	250.44
461.31	248.10
461.49	189.58
461.67	229.37
461.85	191.92
462.04	196.60
462.22	748.97
462.40	287.89
462.59	243.42
462.77	135.75
462.95	217.67
463.13	156.82
463.32	271.50
463.50	205.97
463.68	194.26
463.86	273.84
464.05	177.88
464.23	149.79
464.41	311.29
464.59	189.58
464.78	205.97
464.96	222.35
465.14	257.46
465.32	264.48
465.50	198.95
465.69	222.35
465.87	220.01
466.05	198.95
466.23	234.05
466.41	180.22
466.60	124.05
466.78	191.92
466.96	224.69
467.14	168.52
467.32	180.22
467.51	210.65
467.69	198.95
467.87	196.60
468.05	220.01
468.23	217.67
468.41	245.76
468.60	201.29
468.78	189.58
468.96	175.54
469.14	184.90
469.32	177.88
469.50	191.92
469.69	198.95
469.87	184.90
470.05	285.55
470.23	191.92
470.41	110.01
470.59	236.39
470.77	236.39
470.95	210.65
471.14	224.69
471.32	212.99
471.50	283.20
471.68	208.31
471.86	365.12
472.04	222.35
472.22	140.43
472.40	161.50
472.58	250.44
472.77	203.63
472.95	180.22
473.13	308.95
473.31	304.27
473.49	149.79
473.67	245.76
473.85	248.10
474.03	210.65
474.21	220.01
474.39	224.69
474.57	234.05
474.75	238.73
474.93	201.29
475.12	215.33
475.30	215.33
475.48	231.71
475.66	224.69
475.84	229.37
476.02	266.82
476.20	238.73
476.38	273.84
476.56	280.86
476.74	163.84
476.92	238.73
477.10	224.69
477.28	299.59
477.46	257.46
477.64	297.25
477.82	308.95
478.00	241.08
478.18	243.42
478.36	215.33
478.54	212.99
478.72	231.71
478.90	318.31
479.08	271.50
479.26	236.39
479.44	220.01
479.62	273.84
479.80	222.35
479.98	212.99
480.16	313.63
480.34	290.23
480.52	311.29
480.70	250.44
480.88	255.12
481.06	212.99
481.24	292.57
481.41	231.71
481.59	287.89
481.77	217.67
481.95	248.10
482.13	301.93
482.31	238.73
482.49	287.89
482.67	208.31
482.85	299.59
483.03	243.42
483.21	229.37
483.39	320.65
483.57	292.57
483.74	259.80
483.92	264.48
484.10	257.46
484.28	257.46
484.46	304.27
484.64	201.29
484.82	355.76
485.00	238.73
485.18	250.44
485.35	231.71
485.53	238.73
485.71	297.25
485.89	208.31
486.07	189.58
486.25	278.52
486.43	325.33
486.61	280.86
486.78	236.39
486.96	304.27
487.14	322.99
487.32	257.46
487.50	217.67
487.68	332.36
487.85	269.16
488.03	262.14
488.21	325.33
488.39	255.12
488.57	283.20
488.75	201.29
488.92	543.00
489.10	236.39
489.28	351.08
489.46	262.14
489.64	231.71
489.81	301.93
489.99	285.55
490.17	297.25
490.35	409.59
490.53	248.10
490.70	262.14
490.88	290.23
491.06	325.33
491.24	390.87
491.41	348.74
491.59	308.95
491.77	250.44
491.95	283.20
492.13	327.68
492.30	339.38
492.48	252.78
492.66	334.70
492.84	360.44
493.01	358.10
493.19	353.42
493.37	351.08
493.54	346.40
493.72	318.31
493.90	297.25
494.08	283.20
494.25	355.76
494.43	341.72
494.61	278.52
494.79	360.44
494.96	264.48
495.14	337.04
495.32	283.20
495.49	287.89
495.67	308.95
495.85	318.31
496.02	271.50
496.20	334.70
496.38	227.03
496.55	353.42
496.73	397.89
496.91	327.68
497.09	393.21
497.26	346.40
497.44	308.95
497.62	330.02
497.79	334.70
497.97	372.15
498.14	379.17
498.32	273.84
498.50	308.95
498.67	257.46
498.85	376.83
499.03	322.99
499.20	369.80
499.38	325.33
499.56	299.59
499.73	390.87
499.91	383.85
500.08	322.99
500.26	297.25
500.44	332.36
500.61	287.89
500.79	297.25
500.97	280.86
501.14	280.86
501.32	308.95
501.49	332.36
501.67	334.70
501.84	348.74
502.02	337.04
502.20	414.27
502.37	355.76
502.55	369.80
502.72	388.53
502.90	433.00
503.07	355.76
503.25	381.51
503.43	334.70
503.60	294.91
503.78	325.33
503.95	339.38
504.13	400.23
504.30	376.83
504.48	358.10
504.65	379.17
504.83	402.57
505.01	308.95
505.18	292.57
505.36	365.12
505.53	330.02
505.71	468.11
505.88	402.57
506.06	327.68
506.23	360.44
506.41	386.19
506.58	322.99
506.76	411.93
506.93	407.25
507.11	318.31
507.28	292.57
507.46	262.14
507.63	334.70
507.81	360.44
507.98	423.64
508.16	383.85
508.33	327.68
508.50	330.02
508.68	402.57
508.85	351.08
509.03	383.85
509.20	346.40
509.38	346.40
509.55	273.84
509.73	423.64
509.90	407.25
510.08	330.02
510.25	315.97
510.42	365.12
510.60	337.04
510.77	402.57
510.95	365.12
511.12	397.89
511.30	365.12
511.47	388.53
511.64	402.57
511.82	325.33
511.99	365.12
512.17	304.27
512.34	351.08
512.51	369.80
512.69	461.09
512.86	440.02
513.04	390.87
513.21	355.76
513.38	269.16
513.56	341.72
513.73	341.72
513.90	339.38
514.08	376.83
514.25	332.36
514.43	330.02
514.60	330.02
514.77	402.57
514.95	358.10
515.12	327.68
515.29	402.57
515.47	355.76
515.64	447.04
515.81	411.93
515.99	428.32
516.16	430.66
516.33	334.70
516.51	367.46
516.68	409.59
516.85	252.78
517.03	407.25
517.20	318.31
517.37	353.42
517.54	449.38
517.72	379.17
517.89	351.08
518.06	360.44
518.24	341.72
518.41	440.02
518.58	411.93
518.75	367.46
518.93	383.85
519.10	337.04
519.27	425.98
519.45	447.04
519.62	400.23
519.79	393.21
519.96	346.40
520.14	365.12
520.31	435.34
520.48	332.36
520.65	339.38
520.83	407.25
521.00	397.89
521.17	358.10
521.34	411.93
521.52	395.55
521.69	390.87
521.86	341.72
522.03	381.51
522.20	353.42
522.38	280.86
522.55	341.72
522.72	416.62
522.89	374.49
523.07	397.89
523.24	390.87
523.41	393.21
523.58	379.17
523.75	390.87
523.92	332.36
524.10	395.55
524.27	334.70
524.44	351.08
524.61	362.78
524.78	360.44
524.96	337.04
525.13	304.27
525.30	421.30
525.47	500.87
525.64	416.62
525.81	369.80
525.98	454.06
526.16	411.93
526.33	259.80
526.50	353.42
526.67	402.57
526.84	369.80
527.01	379.17
527.18	395.55
527.36	339.38
527.53	369.80
527.70	442.36
527.87	360.44
528.04	454.06
528.21	430.66
528.38	444.70
528.55	360.44
528.72	442.36
528.89	475.13
529.07	484.49
529.24	421.30
529.41	456.40
529.58	454.06
529.75	374.49
529.92	383.85
530.09	468.11
530.26	472.79
530.43	341.72
530.60	346.40
530.77	468.11
530.94	407.25
531.11	423.64
531.28	383.85
531.46	477.47
531.63	465.77
531.80	500.87
531.97	428.32
532.14	381.51
532.31	414.27
532.48	351.08
532.65	433.00
532.82	372.15
532.99	308.95
533.16	318.31
533.33	400.23
533.50	386.19
533.67	334.70
533.84	463.43
534.01	418.96
534.18	411.93
534.35	461.09
534.52	489.17
534.69	461.09
534.86	393.21
535.03	409.59
535.20	353.42
535.37	433.00
535.54	435.34
535.71	341.72
535.88	458.74
536.05	444.70
536.22	402.57
536.38	358.10
536.55	388.53
536.72	449.38
536.89	433.00
537.06	381.51
537.23	409.59
537.40	322.99
537.57	353.42
537.74	444.70
537.91	404.91
538.08	421.30
538.25	411.93
538.42	454.06
538.59	411.93
538.75	442.36
538.92	461.09
539.09	362.78
539.26	416.62
539.43	388.53
539.60	341.72
539.77	383.85
539.94	339.38
540.11	402.57
540.28	423.64
540.44	400.23
540.61	395.55
540.78	376.83
540.95	383.85
541.12	397.89
541.29	397.89
541.46	472.79
541.62	409.59
541.79	332.36
541.96	400.23
542.13	486.83
542.30	386.19
542.47	341.72
542.63	365.12
542.80	353.42
542.97	423.64
543.14	360.44
543.31	337.04
543.48	367.46
543.64	332.36
543.81	393.21
543.98	416.62
544.15	304.27
544.32	409.59
544.48	411.93
544.65	418.96
544.82	418.96
544.99	388.53
545.16	437.68
545.32	421.30
545.49	360.44
545.66	393.21
545.83	428.32
546.00	367.46
546.16	346.40
546.33	437.68
546.50	379.17
546.67	423.64
546.83	407.25
547.00	402.57
547.17	386.19
547.34	402.57
547.50	440.02
547.67	292.57
547.84	379.17
548.00	327.68
548.17	449.38
548.34	428.32
548.51	372.15
548.67	428.32
548.84	341.72
549.01	447.04
549.18	454.06
549.34	358.10
549.51	440.02
549.68	489.17
549.84	433.00
550.01	407.25
550.18	472.79
550.34	456.40
550.51	355.76
550.68	496.19
550.84	358.10
551.01	376.83
551.18	365.12
551.34	322.99
551.51	423.64
551.68	367.46
551.84	358.10
552.01	407.25
552.18	311.29
552.34	348.74
552.51	390.87
552.68	346.40
552.84	353.42
553.01	395.55
553.18	402.57
553.34	348.74
553.51	351.08
553.67	376.83
553.84	400.23
554.01	379.17
554.17	428.32
554.34	348.74
554.51	425.98
554.67	449.38
554.84	381.51
555.00	421.30
555.17	425.98
555.33	388.53
555.50	400.23
555.67	339.38
555.83	337.04
556.00	339.38
556.16	463.43
556.33	484.49
556.50	409.59
556.66	451.72
556.83	344.06
556.99	360.44
557.16	379.17
557.32	402.57
557.49	365.12
557.65	348.74
557.82	379.17
557.98	463.43
558.15	374.49
558.32	407.25
558.48	365.12
558.65	390.87
558.81	376.83
558.98	395.55
559.14	390.87
559.31	355.76
559.47	393.21
559.64	404.91
559.80	400.23
559.97	388.53
560.13	341.72
560.30	306.61
560.46	376.83
560.63	308.95
560.79	397.89
560.96	362.78
561.12	367.46
561.29	330.02
561.45	379.17
561.61	395.55
561.78	503.22
561.94	372.15
562.11	386.19
562.27	451.72
562.44	365.12
562.60	330.02
562.77	351.08
562.93	479.81
563.10	414.27
563.26	386.19
563.42	393.21
563.59	400.23
563.75	379.17
563.92	376.83
564.08	365.12
564.24	367.46
564.41	404.91
564.57	330.02
564.74	372.15
564.90	311.29
565.07	355.76
565.23	365.12
565.39	355.76
565.56	285.55
565.72	325.33
565.88	320.65
566.05	369.80
566.21	395.55
566.38	341.72
566.54	409.59
566.70	332.36
566.87	348.74
567.03	358.10
567.19	344.06
567.36	341.72
567.52	390.87
567.68	339.38
567.85	362.78
568.01	393.21
568.17	353.42
568.34	376.83
568.50	428.32
568.66	451.72
568.83	322.99
568.99	358.10
569.15	449.38
569.32	315.97
569.48	397.89
569.64	344.06
569.81	379.17
569.97	318.31
570.13	308.95
570.30	423.64
570.46	327.68
570.62	344.06
570.78	353.42
570.95	330.02
571.11	351.08
571.27	411.93
571.43	318.31
571.60	365.12
571.76	271.50
571.92	337.04
572.09	297.25
572.25	313.63
572.41	390.87
572.57	390.87
572.74	437.68
572.90	407.25
573.06	388.53
573.22	393.21
573.38	372.15
573.55	290.23
573.71	341.72
573.87	374.49
574.03	287.89
574.20	372.15
574.36	365.12
574.52	346.40
574.68	367.46
574.84	341.72
575.01	411.93
575.17	365.12
575.33	379.17
575.49	404.91
575.65	330.02
575.82	327.68
575.98	491.51
576.14	292.57
576.30	327.68
576.46	379.17
576.62	381.51
576.79	411.93
576.95	411.93
577.11	245.76
577.27	393.21
577.43	416.62
577.59	383.85
577.75	334.70
577.92	355.76
578.08	348.74
578.24	315.97
578.40	393.21
578.56	407.25
578.72	304.27
578.88	327.68
579.04	257.46
579.21	278.52
579.37	369.80
579.53	344.06
579.69	388.53
579.85	262.14
580.01	390.87
580.17	315.97
580.33	372.15
580.49	304.27
580.65	390.87
580.82	299.59
580.98	330.02
581.14	461.09
581.30	404.91
581.46	318.31
581.62	372.15
581.78	334.70
581.94	325.33
582.10	421.30
582.26	423.64
582.42	404.91
582.58	435.34
582.74	348.74
582.90	341.72
583.06	409.59
583.22	341.72
583.38	395.55
583.54	407.25
583.70	421.30
583.86	421.30
584.02	320.65
584.18	346.40
584.34	365.12
584.50	332.36
584.66	404.91
584.82	327.68
584.98	362.78
585.14	322.99
585.30	348.74
585.46	379.17
585.62	285.55
585.78	322.99
585.94	332.36
586.10	287.89
586.26	433.00
586.42	435.34
586.58	369.80
586.74	393.21
586.90	332.36
587.06	306.61
587.22	425.98
587.38	414.27
587.54	360.44
587.70	339.38
587.86	318.31
588.02	252.78
588.18	297.25
588.34	327.68
588.49	311.29
588.65	337.04
588.81	313.63
588.97	187.24
589.13	313.63
589.29	290.23
589.45	334.70
589.61	292.57
589.77	332.36
589.93	257.46
590.08	320.65
590.24	212.99
590.40	346.40
590.56	285.55
590.72	257.46
590.88	306.61
591.04	353.42
591.20	227.03
591.35	379.17
591.51	346.40
591.67	304.27
591.83	330.02
591.99	332.36
592.15	332.36
592.31	339.38
592.46	255.12
592.62	334.70
592.78	320.65
592.94	318.31
593.10	243.42
593.26	262.14
593.41	372.15
593.57	351.08
593.73	339.38
593.89	341.72
594.05	292.57
594.20	285.55
594.36	304.27
594.52	255.12
594.68	234.05
594.84	409.59
594.99	348.74
595.15	320.65
595.31	294.91
595.47	285.55
595.62	271.50
595.78	360.44
595.94	301.93
596.10	311.29
596.25	227.03
596.41	339.38
596.57	255.12
596.73	297.25
596.88	355.76
597.04	313.63
597.20	372.15
597.36	344.06
597.51	259.80
597.67	320.65
597.83	362.78
597.99	308.95
598.14	388.53
598.30	348.74
598.46	297.25
598.61	337.04
598.77	287.89
598.93	301.93
599.09	306.61
599.24	360.44
599.40	337.04
599.56	360.44
599.71	381.51
599.87	287.89
600.03	353.42
600.18	315.97
600.34	362.78
600.50	285.55
600.65	212.99
600.81	280.86
600.97	369.80
601.12	320.65
601.28	355.76
601.44	273.84
601.59	266.82
601.75	365.12
601.91	332.36
602.06	315.97
602.22	386.19
602.37	320.65
602.53	327.68
602.69	337.04
602.84	351.08
603.00	346.40
603.16	416.62
603.31	348.74
603.47	327.68
603.62	278.52
603.78	327.68
603.94	344.06
604.09	386.19
604.25	386.19
604.40	390.87
604.56	379.17
604.71	334.70
604.87	257.46
605.03	297.25
605.18	325.33
605.34	388.53
605.49	330.02
605.65	294.91
605.80	290.23
605.96	341.72
606.12	355.76
606.27	278.52
606.43	332.36
606.58	355.76
606.74	280.86
606.89	252.78
607.05	346.40
607.20	348.74
607.36	365.12
607.51	374.49
607.67	374.49
607.82	243.42
607.98	341.72
608.13	297.25
608.29	294.91
608.44	318.31
608.60	327.68
608.75	351.08
608.91	330.02
609.06	320.65
609.22	348.74
609.37	315.97
609.53	276.18
609.68	264.48
609.84	276.18
609.99	381.51
610.15	386.19
610.30	278.52
610.46	304.27
610.61	325.33
610.76	311.29
610.92	341.72
611.07	360.44
611.23	440.02
611.38	306.61
611.54	276.18
611.69	332.36
