SpectraSuite Data File
++++++++++++++++++++++++++++++++++++
Date: Fri Oct 04 11:47:00 GMT-05:00 2013
User: price-jones
Dark Spectrum Present: No
Reference Spectrum Present: No
Number of Sampled Component Spectra: 1
Spectrometers: USB2+H05261
Integration Time (usec): 100000 (USB2+H05261)
Spectra Averaged: 1 (USB2+H05261)
Boxcar Smoothing: 0 (USB2+H05261)
Correct for Electrical Dark: No (USB2+H05261)
Strobe/Lamp Enabled: No (USB2+H05261)
Correct for Detector Non-linearity: No (USB2+H05261)
Correct for Stray Light: No (USB2+H05261)
Number of Pixels in Processed Spectrum: 2048
>>>>>Begin Processed Spectral Data<<<<<
365.73	0.00
365.92	0.00
366.12	0.00
366.32	0.00
366.52	0.00
366.72	9.36
366.91	0.00
367.11	0.00
367.31	0.00
367.51	0.00
367.70	0.00
367.90	0.00
368.10	0.00
368.30	0.00
368.49	0.00
368.69	0.00
368.89	0.00
369.09	0.00
369.28	0.00
369.48	0.00
369.68	0.00
369.87	0.00
370.07	0.00
370.27	58.51
370.47	0.00
370.66	0.00
370.86	14.04
371.06	100.64
371.25	154.48
371.45	0.00
371.65	58.51
371.84	0.00
372.04	63.19
372.24	23.41
372.44	93.62
372.63	98.30
372.83	154.48
373.03	79.58
373.22	88.94
373.42	105.32
373.62	91.28
373.81	91.28
374.01	110.01
374.21	56.17
374.40	131.07
374.60	88.94
374.79	166.18
374.99	84.26
375.19	131.07
375.38	91.28
375.58	163.84
375.78	142.77
375.97	161.50
376.17	142.77
376.37	84.26
376.56	152.13
376.76	152.13
376.95	51.49
377.15	58.51
377.35	81.92
377.54	117.03
377.74	42.13
377.93	110.01
378.13	114.69
378.33	74.90
378.52	91.28
378.72	107.66
378.91	135.75
379.11	126.39
379.31	105.32
379.50	44.47
379.70	124.05
379.89	105.32
380.09	84.26
380.28	88.94
380.48	117.03
380.68	65.54
380.87	42.13
381.07	65.54
381.26	152.13
381.46	32.77
381.65	77.24
381.85	135.75
382.04	100.64
382.24	159.16
382.43	46.81
382.63	30.43
382.83	91.28
383.02	81.92
383.22	210.65
383.41	81.92
383.61	32.77
383.80	112.35
384.00	16.38
384.19	63.19
384.39	60.85
384.58	79.58
384.78	42.13
384.97	14.04
385.17	147.45
385.36	74.90
385.56	138.09
385.75	0.00
385.95	128.73
386.14	53.83
386.34	9.36
386.53	51.49
386.72	114.69
386.92	133.41
387.11	147.45
387.31	81.92
387.50	0.00
387.70	124.05
387.89	74.90
388.09	70.22
388.28	91.28
388.48	86.60
388.67	131.07
388.86	44.47
389.06	53.83
389.25	133.41
389.45	105.32
389.64	138.09
389.84	100.64
390.03	105.32
390.22	119.37
390.42	98.30
390.61	93.62
390.81	100.64
391.00	110.01
391.19	91.28
391.39	72.56
391.58	128.73
391.78	98.30
391.97	88.94
392.16	65.54
392.36	135.75
392.55	30.43
392.75	112.35
392.94	117.03
393.13	70.22
393.33	102.98
393.52	56.17
393.71	133.41
393.91	156.82
394.10	110.01
394.29	128.73
394.49	93.62
394.68	133.41
394.88	222.35
395.07	168.52
395.26	37.45
395.46	100.64
395.65	79.58
395.84	84.26
396.04	98.30
396.23	175.54
396.42	110.01
396.62	60.85
396.81	131.07
397.00	98.30
397.19	152.13
397.39	60.85
397.58	152.13
397.77	70.22
397.97	72.56
398.16	74.90
398.35	145.11
398.55	107.66
398.74	126.39
398.93	133.41
399.12	72.56
399.32	112.35
399.51	114.69
399.70	110.01
399.90	70.22
400.09	93.62
400.28	154.48
400.47	133.41
400.67	138.09
400.86	72.56
401.05	39.79
401.24	138.09
401.44	70.22
401.63	98.30
401.82	93.62
402.01	110.01
402.21	112.35
402.40	177.88
402.59	114.69
402.78	112.35
402.97	91.28
403.17	65.54
403.36	88.94
403.55	70.22
403.74	63.19
403.93	105.32
404.13	236.39
404.32	159.16
404.51	152.13
404.70	168.52
404.89	86.60
405.09	58.51
405.28	135.75
405.47	93.62
405.66	44.47
405.85	88.94
406.05	100.64
406.24	145.11
406.43	114.69
406.62	72.56
406.81	229.37
407.00	81.92
407.20	135.75
407.39	114.69
407.58	37.45
407.77	149.79
407.96	147.45
408.15	184.90
408.34	86.60
408.54	81.92
408.73	79.58
408.92	121.71
409.11	112.35
409.30	95.96
409.49	138.09
409.68	102.98
409.87	95.96
410.07	105.32
410.26	147.45
410.45	131.07
410.64	84.26
410.83	72.56
411.02	105.32
411.21	21.06
411.40	156.82
411.59	93.62
411.78	60.85
411.98	84.26
412.17	58.51
412.36	126.39
412.55	86.60
412.74	88.94
412.93	95.96
413.12	93.62
413.31	93.62
413.50	133.41
413.69	112.35
413.88	112.35
414.07	145.11
414.26	86.60
414.45	119.37
414.64	105.32
414.83	119.37
415.02	107.66
415.22	201.29
415.41	152.13
415.60	154.48
415.79	72.56
415.98	135.75
416.17	117.03
416.36	133.41
416.55	117.03
416.74	163.84
416.93	100.64
417.12	156.82
417.31	170.86
417.50	117.03
417.69	208.31
417.88	194.26
418.07	147.45
418.26	126.39
418.45	145.11
418.64	294.91
418.83	241.08
419.02	187.24
419.21	168.52
419.39	156.82
419.58	114.69
419.77	140.43
419.96	210.65
420.15	142.77
420.34	138.09
420.53	217.67
420.72	138.09
420.91	133.41
421.10	105.32
421.29	210.65
421.48	105.32
421.67	131.07
421.86	147.45
422.05	119.37
422.24	145.11
422.43	114.69
422.61	147.45
422.80	126.39
422.99	105.32
423.18	93.62
423.37	138.09
423.56	110.01
423.75	133.41
423.94	86.60
424.13	145.11
424.32	124.05
424.50	142.77
424.69	140.43
424.88	128.73
425.07	126.39
425.26	128.73
425.45	217.67
425.64	229.37
425.83	252.78
426.01	175.54
426.20	142.77
426.39	140.43
426.58	114.69
426.77	128.73
426.96	124.05
427.15	128.73
427.33	56.17
427.52	60.85
427.71	56.17
427.90	91.28
428.09	133.41
428.28	149.79
428.46	100.64
428.65	119.37
428.84	102.98
429.03	98.30
429.22	119.37
429.40	124.05
429.59	135.75
429.78	210.65
429.97	91.28
430.16	126.39
430.34	124.05
430.53	163.84
430.72	145.11
430.91	114.69
431.10	95.96
431.28	140.43
431.47	145.11
431.66	140.43
431.85	138.09
432.03	100.64
432.22	168.52
432.41	56.17
432.60	173.20
432.79	170.86
432.97	259.80
433.16	304.27
433.35	248.10
433.54	201.29
433.72	86.60
433.91	126.39
434.10	191.92
434.28	271.50
434.47	194.26
434.66	173.20
434.85	133.41
435.03	133.41
435.22	110.01
435.41	180.22
435.59	28.09
435.78	142.77
435.97	163.84
436.16	138.09
436.34	191.92
436.53	140.43
436.72	245.76
436.90	147.45
437.09	227.03
437.28	147.45
437.46	65.54
437.65	147.45
437.84	124.05
438.02	110.01
438.21	91.28
438.40	133.41
438.58	119.37
438.77	63.19
438.96	98.30
439.14	46.81
439.33	138.09
439.52	175.54
439.70	110.01
439.89	95.96
440.08	91.28
440.26	208.31
440.45	156.82
440.63	196.60
440.82	128.73
441.01	152.13
441.19	184.90
441.38	217.67
441.57	131.07
441.75	208.31
441.94	191.92
442.12	159.16
442.31	86.60
442.50	121.71
442.68	173.20
442.87	119.37
443.05	88.94
443.24	93.62
443.43	196.60
443.61	168.52
443.80	81.92
443.98	105.32
444.17	95.96
444.35	119.37
444.54	175.54
444.73	102.98
444.91	121.71
445.10	131.07
445.28	140.43
445.47	135.75
445.65	112.35
445.84	105.32
446.02	135.75
446.21	177.88
446.39	152.13
446.58	114.69
446.77	95.96
446.95	79.58
447.14	147.45
447.32	187.24
447.51	170.86
447.69	175.54
447.88	46.81
448.06	105.32
448.25	126.39
448.43	159.16
448.62	145.11
448.80	173.20
448.99	168.52
449.17	145.11
449.36	107.66
449.54	138.09
449.73	95.96
449.91	149.79
450.10	70.22
450.28	241.08
450.46	147.45
450.65	201.29
450.83	166.18
451.02	154.48
451.20	140.43
451.39	93.62
451.57	121.71
451.76	163.84
451.94	117.03
452.13	159.16
452.31	147.45
452.49	119.37
452.68	102.98
452.86	159.16
453.05	156.82
453.23	119.37
453.42	65.54
453.60	135.75
453.78	100.64
453.97	163.84
454.15	135.75
454.34	128.73
454.52	166.18
454.70	112.35
454.89	191.92
455.07	117.03
455.26	102.98
455.44	201.29
455.62	163.84
455.81	128.73
455.99	198.95
456.17	220.01
456.36	131.07
456.54	168.52
456.73	145.11
456.91	95.96
457.09	177.88
457.28	210.65
457.46	154.48
457.64	140.43
457.83	152.13
458.01	184.90
458.19	173.20
458.38	173.20
458.56	175.54
458.74	163.84
458.93	182.56
459.11	117.03
459.29	124.05
459.48	229.37
459.66	220.01
459.84	222.35
460.03	245.76
460.21	205.97
460.39	194.26
460.57	182.56
460.76	100.64
460.94	175.54
461.12	119.37
461.31	102.98
461.49	100.64
461.67	126.39
461.85	229.37
462.04	147.45
462.22	603.86
462.40	175.54
462.59	177.88
462.77	117.03
462.95	39.79
463.13	124.05
463.32	145.11
463.50	231.71
463.68	152.13
463.86	187.24
464.05	173.20
464.23	149.79
464.41	110.01
464.59	133.41
464.78	147.45
464.96	135.75
465.14	250.44
465.32	121.71
465.50	159.16
465.69	142.77
465.87	154.48
466.05	175.54
466.23	98.30
466.41	72.56
466.60	124.05
466.78	124.05
466.96	208.31
467.14	248.10
467.32	184.90
467.51	159.16
467.69	177.88
467.87	231.71
468.05	126.39
468.23	166.18
468.41	159.16
468.60	102.98
468.78	159.16
468.96	163.84
469.14	159.16
469.32	133.41
469.50	72.56
469.69	119.37
469.87	121.71
470.05	222.35
470.23	124.05
470.41	175.54
470.59	170.86
470.77	168.52
470.95	175.54
471.14	227.03
471.32	149.79
471.50	135.75
471.68	67.88
471.86	168.52
472.04	138.09
472.22	110.01
472.40	152.13
472.58	93.62
472.77	187.24
472.95	184.90
473.13	156.82
473.31	184.90
473.49	133.41
473.67	117.03
473.85	124.05
474.03	184.90
474.21	163.84
474.39	210.65
474.57	110.01
474.75	138.09
474.93	107.66
475.12	177.88
475.30	170.86
475.48	140.43
475.66	152.13
475.84	210.65
476.02	105.32
476.20	138.09
476.38	128.73
476.56	290.23
476.74	205.97
476.92	142.77
477.10	110.01
477.28	159.16
477.46	140.43
477.64	98.30
477.82	156.82
478.00	105.32
478.18	126.39
478.36	152.13
478.54	102.98
478.72	107.66
478.90	135.75
479.08	177.88
479.26	117.03
479.44	114.69
479.62	119.37
479.80	161.50
479.98	166.18
480.16	154.48
480.34	140.43
480.52	124.05
480.70	156.82
480.88	107.66
481.06	105.32
481.24	156.82
481.41	168.52
481.59	210.65
481.77	184.90
481.95	128.73
482.13	152.13
482.31	194.26
482.49	187.24
482.67	112.35
482.85	229.37
483.03	112.35
483.21	91.28
483.39	79.58
483.57	100.64
483.74	229.37
483.92	161.50
484.10	201.29
484.28	177.88
484.46	191.92
484.64	142.77
484.82	142.77
485.00	142.77
485.18	159.16
485.35	124.05
485.53	114.69
485.71	135.75
485.89	180.22
486.07	149.79
486.25	215.33
486.43	187.24
486.61	280.86
486.78	224.69
486.96	133.41
487.14	112.35
487.32	140.43
487.50	145.11
487.68	198.95
487.85	236.39
488.03	154.48
488.21	196.60
488.39	173.20
488.57	205.97
488.75	203.63
488.92	440.02
489.10	187.24
489.28	184.90
489.46	156.82
489.64	161.50
489.81	149.79
489.99	198.95
490.17	102.98
490.35	154.48
490.53	198.95
490.70	112.35
490.88	154.48
491.06	175.54
491.24	189.58
491.41	212.99
491.59	215.33
491.77	156.82
491.95	212.99
492.13	196.60
492.30	154.48
492.48	152.13
492.66	175.54
492.84	51.49
493.01	194.26
493.19	182.56
493.37	224.69
493.54	227.03
493.72	182.56
493.90	152.13
494.08	166.18
494.25	142.77
494.43	184.90
494.61	107.66
494.79	154.48
494.96	95.96
495.14	238.73
495.32	135.75
495.49	170.86
495.67	217.67
495.85	173.20
496.02	102.98
496.20	189.58
496.38	166.18
496.55	241.08
496.73	201.29
496.91	170.86
497.09	184.90
497.26	166.18
497.44	140.43
497.62	140.43
497.79	142.77
497.97	222.35
498.14	210.65
498.32	203.63
498.50	236.39
498.67	229.37
498.85	187.24
499.03	168.52
499.20	245.76
499.38	191.92
499.56	196.60
499.73	259.80
499.91	182.56
500.08	163.84
500.26	262.14
500.44	180.22
500.61	152.13
500.79	184.90
500.97	203.63
501.14	159.16
501.32	222.35
501.49	217.67
501.67	203.63
501.84	222.35
502.02	220.01
502.20	194.26
502.37	201.29
502.55	180.22
502.72	196.60
502.90	266.82
503.07	276.18
503.25	191.92
503.43	257.46
503.60	271.50
503.78	243.42
503.95	177.88
504.13	191.92
504.30	266.82
504.48	175.54
504.65	187.24
504.83	154.48
505.01	198.95
505.18	196.60
505.36	175.54
505.53	168.52
505.71	182.56
505.88	187.24
506.06	163.84
506.23	198.95
506.41	175.54
506.58	220.01
506.76	217.67
506.93	234.05
507.11	215.33
507.28	212.99
507.46	173.20
507.63	266.82
507.81	198.95
507.98	149.79
508.16	227.03
508.33	117.03
508.50	203.63
508.68	180.22
508.85	203.63
509.03	156.82
509.20	159.16
509.38	241.08
509.55	234.05
509.73	163.84
509.90	243.42
510.08	149.79
510.25	220.01
510.42	252.78
510.60	259.80
510.77	187.24
510.95	285.55
511.12	74.90
511.30	222.35
511.47	304.27
511.64	313.63
511.82	210.65
511.99	196.60
512.17	166.18
512.34	189.58
512.51	189.58
512.69	81.92
512.86	241.08
513.04	184.90
513.21	229.37
513.38	217.67
513.56	194.26
513.73	205.97
513.90	145.11
514.08	198.95
514.25	184.90
514.43	196.60
514.60	205.97
514.77	259.80
514.95	205.97
515.12	269.16
515.29	191.92
515.47	194.26
515.64	133.41
515.81	231.71
515.99	278.52
516.16	191.92
516.33	222.35
516.51	126.39
516.68	131.07
516.85	168.52
517.03	156.82
517.20	180.22
517.37	194.26
517.54	222.35
517.72	234.05
517.89	163.84
518.06	138.09
518.24	208.31
518.41	248.10
518.58	180.22
518.75	191.92
518.93	231.71
519.10	217.67
519.27	241.08
519.45	175.54
519.62	271.50
519.79	259.80
519.96	191.92
520.14	154.48
520.31	203.63
520.48	168.52
520.65	248.10
520.83	191.92
521.00	184.90
521.17	201.29
521.34	297.25
521.52	159.16
521.69	248.10
521.86	276.18
522.03	255.12
522.20	215.33
522.38	100.64
522.55	117.03
522.72	149.79
522.89	131.07
523.07	184.90
523.24	222.35
523.41	168.52
523.58	234.05
523.75	189.58
523.92	154.48
524.10	227.03
524.27	208.31
524.44	280.86
524.61	227.03
524.78	257.46
524.96	266.82
525.13	205.97
525.30	187.24
525.47	205.97
525.64	231.71
525.81	241.08
525.98	201.29
526.16	210.65
526.33	201.29
526.50	229.37
526.67	208.31
526.84	168.52
527.01	222.35
527.18	198.95
527.36	203.63
527.53	217.67
527.70	156.82
527.87	222.35
528.04	217.67
528.21	245.76
528.38	222.35
528.55	229.37
528.72	182.56
528.89	168.52
529.07	173.20
529.24	212.99
529.41	259.80
529.58	215.33
529.75	156.82
529.92	217.67
530.09	234.05
530.26	163.84
530.43	236.39
530.60	234.05
530.77	184.90
530.94	194.26
531.11	222.35
531.28	229.37
531.46	241.08
531.63	159.16
531.80	257.46
531.97	257.46
532.14	205.97
532.31	243.42
532.48	294.91
532.65	351.08
532.82	341.72
532.99	390.87
533.16	273.84
533.33	269.16
533.50	245.76
533.67	327.68
533.84	449.38
534.01	376.83
534.18	416.62
534.35	360.44
534.52	212.99
534.69	276.18
534.86	196.60
535.03	229.37
535.20	177.88
535.37	262.14
535.54	227.03
535.71	154.48
535.88	135.75
536.05	217.67
536.22	184.90
536.38	222.35
536.55	177.88
536.72	196.60
536.89	138.09
537.06	224.69
537.23	191.92
537.40	187.24
537.57	198.95
537.74	189.58
537.91	224.69
538.08	175.54
538.25	215.33
538.42	156.82
538.59	161.50
538.75	187.24
538.92	191.92
539.09	255.12
539.26	124.05
539.43	493.85
539.60	1247.51
539.77	1940.30
539.94	1973.07
540.11	1228.78
540.28	788.76
540.44	514.92
540.61	322.99
540.78	215.33
540.95	234.05
541.12	243.42
541.29	121.71
541.46	290.23
541.62	194.26
541.79	236.39
541.96	278.52
542.13	227.03
542.30	217.67
542.47	262.14
542.63	159.16
542.80	266.82
542.97	220.01
543.14	205.97
543.31	234.05
543.48	259.80
543.64	220.01
543.81	252.78
543.98	234.05
544.15	198.95
544.32	238.73
544.48	163.84
544.65	135.75
544.82	243.42
544.99	236.39
545.16	187.24
545.32	184.90
545.49	236.39
545.66	243.42
545.83	198.95
546.00	166.18
546.16	182.56
546.33	152.13
546.50	266.82
546.67	262.14
546.83	177.88
547.00	262.14
547.17	196.60
547.34	187.24
547.50	243.42
547.67	278.52
547.84	201.29
548.00	187.24
548.17	215.33
548.34	208.31
548.51	238.73
548.67	194.26
548.84	191.92
549.01	210.65
549.18	231.71
549.34	234.05
549.51	220.01
549.68	220.01
549.84	212.99
550.01	187.24
550.18	271.50
550.34	238.73
550.51	161.50
550.68	294.91
550.84	212.99
551.01	231.71
551.18	273.84
551.34	177.88
551.51	138.09
551.68	210.65
551.84	184.90
552.01	168.52
552.18	147.45
552.34	154.48
552.51	189.58
552.68	194.26
552.84	191.92
553.01	180.22
553.18	257.46
553.34	175.54
553.51	166.18
553.67	196.60
553.84	292.57
554.01	290.23
554.17	231.71
554.34	208.31
554.51	205.97
554.67	222.35
554.84	245.76
555.00	236.39
555.17	184.90
555.33	236.39
555.50	241.08
555.67	297.25
555.83	241.08
556.00	259.80
556.16	416.62
556.33	290.23
556.50	215.33
556.66	241.08
556.83	173.20
556.99	180.22
557.16	184.90
557.32	201.29
557.49	180.22
557.65	220.01
557.82	198.95
557.98	255.12
558.15	159.16
558.32	147.45
558.48	210.65
558.65	212.99
558.81	189.58
558.98	88.94
559.14	229.37
559.31	227.03
559.47	220.01
559.64	283.20
559.80	252.78
559.97	180.22
560.13	168.52
560.30	180.22
560.46	250.44
560.63	187.24
560.79	194.26
560.96	220.01
561.12	208.31
561.29	175.54
561.45	271.50
561.61	154.48
561.78	259.80
561.94	201.29
562.11	166.18
562.27	262.14
562.44	210.65
562.60	259.80
562.77	222.35
562.93	313.63
563.10	255.12
563.26	175.54
563.42	245.76
563.59	252.78
563.75	259.80
563.92	191.92
564.08	210.65
564.24	175.54
564.41	327.68
564.57	208.31
564.74	175.54
564.90	229.37
565.07	229.37
565.23	243.42
565.39	306.61
565.56	245.76
565.72	201.29
565.88	241.08
566.05	241.08
566.21	227.03
566.38	255.12
566.54	217.67
566.70	217.67
566.87	191.92
567.03	198.95
567.19	259.80
567.36	259.80
567.52	212.99
567.68	187.24
567.85	243.42
568.01	224.69
568.17	180.22
568.34	100.64
568.50	252.78
568.66	257.46
568.83	332.36
568.99	187.24
569.15	262.14
569.32	210.65
569.48	217.67
569.64	191.92
569.81	227.03
569.97	205.97
570.13	114.69
570.30	189.58
570.46	159.16
570.62	203.63
570.78	182.56
570.95	110.01
571.11	220.01
571.27	271.50
571.43	236.39
571.60	189.58
571.76	191.92
571.92	252.78
572.09	166.18
572.25	212.99
572.41	203.63
572.57	220.01
572.74	177.88
572.90	224.69
573.06	231.71
573.22	257.46
573.38	255.12
573.55	220.01
573.71	227.03
573.87	243.42
574.03	294.91
574.20	229.37
574.36	358.10
574.52	299.59
574.68	423.64
574.84	290.23
575.01	259.80
575.17	191.92
575.33	227.03
575.49	301.93
575.65	234.05
575.82	425.98
575.98	741.95
576.14	807.48
576.30	915.15
576.46	634.29
576.62	503.22
576.79	283.20
576.95	353.42
577.11	243.42
577.27	278.52
577.43	304.27
577.59	294.91
577.75	208.31
577.92	339.38
578.08	241.08
578.24	287.89
578.40	299.59
578.56	271.50
578.72	222.35
578.88	290.23
579.04	252.78
579.21	278.52
579.37	222.35
579.53	269.16
579.69	243.42
579.85	311.29
580.01	341.72
580.17	430.66
580.33	374.49
580.49	365.12
580.65	313.63
580.82	374.49
580.98	311.29
581.14	348.74
581.30	372.15
581.46	533.64
581.62	528.96
581.78	713.86
581.94	603.86
582.10	540.66
582.26	442.36
582.42	538.32
582.58	486.83
582.74	526.62
582.90	475.13
583.06	428.32
583.22	547.69
583.38	521.94
583.54	620.24
583.70	613.22
583.86	805.14
584.02	915.15
584.18	1203.04
584.34	1535.39
584.50	3950.82
584.66	30155.46
584.82	62815.30
584.98	65535.00
585.14	65535.00
585.30	62419.75
585.46	39398.24
585.62	24264.33
585.78	10993.50
585.94	4257.43
586.10	1980.09
586.26	1341.13
586.42	1032.18
586.58	816.85
586.74	725.57
586.90	753.65
587.06	660.03
587.22	585.13
587.38	653.01
587.54	1420.71
587.70	4400.21
587.86	7494.40
588.02	8774.67
588.18	6022.20
588.34	3815.07
588.49	2495.01
588.65	1516.67
588.81	751.31
588.97	535.98
589.13	395.55
589.29	390.87
589.45	374.49
589.61	344.06
589.77	379.17
589.93	454.06
590.08	545.34
590.24	489.17
590.40	486.83
590.56	505.56
590.72	346.40
590.88	358.10
591.04	360.44
591.20	400.23
591.35	407.25
591.51	348.74
591.67	294.91
591.83	278.52
591.99	339.38
592.15	325.33
592.31	301.93
592.46	315.97
592.62	313.63
592.78	294.91
592.94	271.50
593.10	234.05
593.26	339.38
593.41	252.78
593.57	351.08
593.73	678.76
593.89	3440.59
594.05	9357.46
594.20	14567.49
594.36	14033.85
594.52	9284.91
594.68	5645.37
594.84	3620.81
594.99	1933.28
595.15	915.15
595.31	491.51
595.47	362.78
595.62	325.33
595.78	290.23
595.94	315.97
596.10	388.53
596.25	442.36
596.41	388.53
596.57	332.36
596.73	334.70
596.88	585.13
597.04	1708.59
597.20	2871.84
597.36	3599.74
597.51	2733.75
597.67	1633.69
597.83	1165.59
597.99	891.74
598.14	535.98
598.30	379.17
598.46	390.87
598.61	327.68
598.77	395.55
598.93	304.27
599.09	238.73
599.24	330.02
599.40	271.50
599.56	180.22
599.71	236.39
599.87	273.84
600.03	255.12
600.18	180.22
600.34	224.69
600.50	189.58
600.65	238.73
600.81	257.46
600.97	229.37
601.12	191.92
601.28	220.01
601.44	257.46
601.59	234.05
601.75	243.42
601.91	245.76
602.06	264.48
602.22	407.25
602.37	889.40
602.53	2232.87
602.69	3482.72
602.84	3768.26
603.00	2715.02
603.16	1914.56
603.31	1242.82
603.47	849.61
603.62	472.79
603.78	346.40
603.94	297.25
604.09	325.33
604.25	234.05
604.40	315.97
604.56	252.78
604.71	248.10
604.87	222.35
605.03	273.84
605.18	283.20
605.34	388.53
605.49	241.08
605.65	283.20
605.80	264.48
605.96	320.65
606.12	330.02
606.27	330.02
606.43	393.21
606.58	463.43
606.74	954.94
606.89	4348.72
607.05	9057.87
607.20	12437.61
607.36	10303.04
607.51	7056.72
607.67	4444.68
607.82	2956.10
607.98	1558.80
608.13	833.23
608.29	498.53
608.44	458.74
608.60	451.72
608.75	477.47
608.91	1359.85
609.06	6626.06
609.22	15948.41
609.37	22354.46
609.53	19309.42
609.68	12545.27
609.84	7981.23
609.99	5160.88
610.15	2726.72
610.30	1217.08
610.46	592.16
610.61	507.90
610.76	447.04
610.92	376.83
611.07	379.17
611.23	444.70
611.38	397.89
611.54	248.10
611.69	353.42
