SpectraSuite Data File
++++++++++++++++++++++++++++++++++++
Date: Fri Oct 04 11:47:18 GMT-05:00 2013
User: price-jones
Dark Spectrum Present: No
Reference Spectrum Present: No
Number of Sampled Component Spectra: 1
Spectrometers: USB2+H05261
Integration Time (usec): 100000 (USB2+H05261)
Spectra Averaged: 1 (USB2+H05261)
Boxcar Smoothing: 0 (USB2+H05261)
Correct for Electrical Dark: No (USB2+H05261)
Strobe/Lamp Enabled: No (USB2+H05261)
Correct for Detector Non-linearity: No (USB2+H05261)
Correct for Stray Light: No (USB2+H05261)
Number of Pixels in Processed Spectrum: 2048
>>>>>Begin Processed Spectral Data<<<<<
365.73	63.19
365.92	63.19
366.12	63.19
366.32	0.00
366.52	0.00
366.72	0.00
366.91	0.00
367.11	0.00
367.31	0.00
367.51	0.00
367.70	0.00
367.90	0.00
368.10	0.00
368.30	0.00
368.49	0.00
368.69	0.00
368.89	0.00
369.09	0.00
369.28	23.41
369.48	0.00
369.68	0.00
369.87	4.68
370.07	0.00
370.27	0.00
370.47	18.72
370.66	18.72
370.86	21.06
371.06	100.64
371.25	51.49
371.45	79.58
371.65	30.43
371.84	53.83
372.04	84.26
372.24	110.01
372.44	28.09
372.63	105.32
372.83	175.54
373.03	156.82
373.22	121.71
373.42	74.90
373.62	107.66
373.81	135.75
374.01	131.07
374.21	163.84
374.40	56.17
374.60	60.85
374.79	98.30
374.99	154.48
375.19	88.94
375.38	128.73
375.58	177.88
375.78	70.22
375.97	126.39
376.17	161.50
376.37	91.28
376.56	88.94
376.76	86.60
376.95	72.56
377.15	74.90
377.35	145.11
377.54	124.05
377.74	117.03
377.93	84.26
378.13	121.71
378.33	110.01
378.52	112.35
378.72	149.79
378.91	102.98
379.11	67.88
379.31	28.09
379.50	65.54
379.70	119.37
379.89	77.24
380.09	84.26
380.28	37.45
380.48	60.85
380.68	91.28
380.87	79.58
381.07	72.56
381.26	35.11
381.46	98.30
381.65	74.90
381.85	107.66
382.04	63.19
382.24	44.47
382.43	42.13
382.63	28.09
382.83	35.11
383.02	110.01
383.22	84.26
383.41	35.11
383.61	67.88
383.80	180.22
384.00	145.11
384.19	74.90
384.39	44.47
384.58	126.39
384.78	100.64
384.97	145.11
385.17	86.60
385.36	51.49
385.56	161.50
385.75	65.54
385.95	88.94
386.14	84.26
386.34	86.60
386.53	149.79
386.72	86.60
386.92	84.26
387.11	88.94
387.31	166.18
387.50	65.54
387.70	98.30
387.89	114.69
388.09	67.88
388.28	28.09
388.48	28.09
388.67	51.49
388.86	63.19
389.06	173.20
389.25	70.22
389.45	86.60
389.64	0.00
389.84	46.81
390.03	149.79
390.22	142.77
390.42	131.07
390.61	77.24
390.81	42.13
391.00	138.09
391.19	140.43
391.39	131.07
391.58	100.64
391.78	77.24
391.97	77.24
392.16	91.28
392.36	102.98
392.55	152.13
392.75	91.28
392.94	117.03
393.13	53.83
393.33	102.98
393.52	81.92
393.71	180.22
393.91	110.01
394.10	117.03
394.29	102.98
394.49	140.43
394.68	119.37
394.88	121.71
395.07	105.32
395.26	60.85
395.46	53.83
395.65	191.92
395.84	114.69
396.04	119.37
396.23	44.47
396.42	86.60
396.62	124.05
396.81	91.28
397.00	58.51
397.19	184.90
397.39	107.66
397.58	154.48
397.77	133.41
397.97	81.92
398.16	58.51
398.35	79.58
398.55	88.94
398.74	110.01
398.93	93.62
399.12	105.32
399.32	93.62
399.51	93.62
399.70	138.09
399.90	149.79
400.09	163.84
400.28	117.03
400.47	65.54
400.67	131.07
400.86	124.05
401.05	114.69
401.24	189.58
401.44	93.62
401.63	98.30
401.82	133.41
402.01	145.11
402.21	184.90
402.40	119.37
402.59	56.17
402.78	49.15
402.97	74.90
403.17	93.62
403.36	114.69
403.55	110.01
403.74	56.17
403.93	95.96
404.13	163.84
404.32	114.69
404.51	105.32
404.70	98.30
404.89	102.98
405.09	110.01
405.28	74.90
405.47	105.32
405.66	77.24
405.85	65.54
406.05	117.03
406.24	161.50
406.43	58.51
406.62	56.17
406.81	163.84
407.00	152.13
407.20	49.15
407.39	58.51
407.58	117.03
407.77	145.11
407.96	145.11
408.15	74.90
408.34	198.95
408.54	159.16
408.73	142.77
408.92	131.07
409.11	138.09
409.30	88.94
409.49	74.90
409.68	93.62
409.87	131.07
410.07	74.90
410.26	100.64
410.45	184.90
410.64	65.54
410.83	86.60
411.02	168.52
411.21	145.11
411.40	114.69
411.59	112.35
411.78	131.07
411.98	72.56
412.17	93.62
412.36	81.92
412.55	42.13
412.74	100.64
412.93	161.50
413.12	114.69
413.31	117.03
413.50	88.94
413.69	60.85
413.88	149.79
414.07	98.30
414.26	121.71
414.45	124.05
414.64	117.03
414.83	156.82
415.02	124.05
415.22	93.62
415.41	110.01
415.60	145.11
415.79	117.03
415.98	180.22
416.17	156.82
416.36	93.62
416.55	126.39
416.74	117.03
416.93	131.07
417.12	159.16
417.31	210.65
417.50	152.13
417.69	133.41
417.88	170.86
418.07	140.43
418.26	170.86
418.45	105.32
418.64	205.97
418.83	184.90
419.02	149.79
419.21	154.48
419.39	119.37
419.58	121.71
419.77	51.49
419.96	161.50
420.15	100.64
420.34	95.96
420.53	105.32
420.72	117.03
420.91	201.29
421.10	100.64
421.29	159.16
421.48	149.79
421.67	93.62
421.86	147.45
422.05	67.88
422.24	140.43
422.43	91.28
422.61	93.62
422.80	88.94
422.99	182.56
423.18	231.71
423.37	154.48
423.56	145.11
423.75	117.03
423.94	93.62
424.13	114.69
424.32	156.82
424.50	187.24
424.69	84.26
424.88	112.35
425.07	135.75
425.26	126.39
425.45	173.20
425.64	95.96
425.83	168.52
426.01	138.09
426.20	156.82
426.39	140.43
426.58	121.71
426.77	93.62
426.96	163.84
427.15	107.66
427.33	138.09
427.52	91.28
427.71	91.28
427.90	46.81
428.09	119.37
428.28	121.71
428.46	98.30
428.65	93.62
428.84	124.05
429.03	128.73
429.22	88.94
429.40	88.94
429.59	119.37
429.78	131.07
429.97	110.01
430.16	56.17
430.34	117.03
430.53	114.69
430.72	93.62
430.91	194.26
431.10	126.39
431.28	121.71
431.47	112.35
431.66	21.06
431.85	84.26
432.03	67.88
432.22	114.69
432.41	77.24
432.60	147.45
432.79	138.09
432.97	182.56
433.16	166.18
433.35	194.26
433.54	175.54
433.72	145.11
433.91	95.96
434.10	198.95
434.28	194.26
434.47	56.17
434.66	51.49
434.85	128.73
435.03	138.09
435.22	81.92
435.41	142.77
435.59	154.48
435.78	110.01
435.97	128.73
436.16	163.84
436.34	100.64
436.53	98.30
436.72	100.64
436.90	149.79
437.09	208.31
437.28	154.48
437.46	107.66
437.65	154.48
437.84	100.64
438.02	170.86
438.21	105.32
438.40	154.48
438.58	98.30
438.77	227.03
438.96	175.54
439.14	0.00
439.33	138.09
439.52	58.51
439.70	133.41
439.89	161.50
440.08	112.35
440.26	91.28
440.45	177.88
440.63	133.41
440.82	142.77
441.01	100.64
441.19	135.75
441.38	142.77
441.57	156.82
441.75	140.43
441.94	238.73
442.12	163.84
442.31	131.07
442.50	154.48
442.68	100.64
442.87	140.43
443.05	147.45
443.24	168.52
443.43	175.54
443.61	198.95
443.80	121.71
443.98	128.73
444.17	156.82
444.35	182.56
444.54	163.84
444.73	138.09
444.91	198.95
445.10	154.48
445.28	88.94
445.47	88.94
445.65	128.73
445.84	102.98
446.02	114.69
446.21	124.05
446.39	84.26
446.58	95.96
446.77	131.07
446.95	138.09
447.14	93.62
447.32	168.52
447.51	126.39
447.69	100.64
447.88	107.66
448.06	170.86
448.25	44.47
448.43	77.24
448.62	166.18
448.80	117.03
448.99	88.94
449.17	159.16
449.36	124.05
449.54	98.30
449.73	133.41
449.91	161.50
450.10	119.37
450.28	276.18
450.46	175.54
450.65	142.77
450.83	117.03
451.02	74.90
451.20	51.49
451.39	119.37
451.57	86.60
451.76	98.30
451.94	117.03
452.13	142.77
452.31	114.69
452.49	124.05
452.68	128.73
452.86	220.01
453.05	215.33
453.23	147.45
453.42	98.30
453.60	84.26
453.78	112.35
453.97	46.81
454.15	138.09
454.34	142.77
454.52	140.43
454.70	119.37
454.89	142.77
455.07	110.01
455.26	175.54
455.44	110.01
455.62	154.48
455.81	140.43
455.99	102.98
456.17	98.30
456.36	173.20
456.54	152.13
456.73	119.37
456.91	84.26
457.09	98.30
457.28	166.18
457.46	173.20
457.64	196.60
457.83	124.05
458.01	154.48
458.19	175.54
458.38	152.13
458.56	145.11
458.74	114.69
458.93	159.16
459.11	149.79
459.29	168.52
459.48	142.77
459.66	142.77
459.84	138.09
460.03	168.52
460.21	140.43
460.39	152.13
460.57	152.13
460.76	149.79
460.94	212.99
461.12	102.98
461.31	170.86
461.49	93.62
461.67	154.48
461.85	163.84
462.04	126.39
462.22	638.97
462.40	138.09
462.59	215.33
462.77	105.32
462.95	114.69
463.13	72.56
463.32	196.60
463.50	159.16
463.68	191.92
463.86	63.19
464.05	88.94
464.23	205.97
464.41	135.75
464.59	79.58
464.78	124.05
464.96	93.62
465.14	110.01
465.32	131.07
465.50	142.77
465.69	177.88
465.87	110.01
466.05	32.77
466.23	114.69
466.41	154.48
466.60	95.96
466.78	117.03
466.96	177.88
467.14	133.41
467.32	173.20
467.51	175.54
467.69	79.58
467.87	152.13
468.05	184.90
468.23	168.52
468.41	163.84
468.60	170.86
468.78	117.03
468.96	145.11
469.14	140.43
469.32	131.07
469.50	131.07
469.69	119.37
469.87	159.16
470.05	133.41
470.23	177.88
470.41	114.69
470.59	79.58
470.77	159.16
470.95	72.56
471.14	163.84
471.32	205.97
471.50	135.75
471.68	161.50
471.86	208.31
472.04	173.20
472.22	138.09
472.40	182.56
472.58	161.50
472.77	107.66
472.95	114.69
473.13	175.54
473.31	201.29
473.49	60.85
473.67	168.52
473.85	191.92
474.03	147.45
474.21	124.05
474.39	194.26
474.57	117.03
474.75	110.01
474.93	159.16
475.12	100.64
475.30	166.18
475.48	145.11
475.66	121.71
475.84	159.16
476.02	191.92
476.20	154.48
476.38	194.26
476.56	126.39
476.74	117.03
476.92	131.07
477.10	180.22
477.28	93.62
477.46	138.09
477.64	138.09
477.82	117.03
478.00	126.39
478.18	184.90
478.36	100.64
478.54	126.39
478.72	133.41
478.90	135.75
479.08	79.58
479.26	222.35
479.44	166.18
479.62	140.43
479.80	140.43
479.98	138.09
480.16	93.62
480.34	105.32
480.52	72.56
480.70	145.11
480.88	191.92
481.06	140.43
481.24	77.24
481.41	131.07
481.59	147.45
481.77	126.39
481.95	131.07
482.13	203.63
482.31	196.60
482.49	147.45
482.67	166.18
482.85	173.20
483.03	135.75
483.21	119.37
483.39	159.16
483.57	140.43
483.74	215.33
483.92	198.95
484.10	126.39
484.28	140.43
484.46	177.88
484.64	180.22
484.82	194.26
485.00	194.26
485.18	133.41
485.35	112.35
485.53	194.26
485.71	168.52
485.89	149.79
486.07	201.29
486.25	161.50
486.43	95.96
486.61	175.54
486.78	191.92
486.96	154.48
487.14	205.97
487.32	138.09
487.50	173.20
487.68	142.77
487.85	117.03
488.03	117.03
488.21	231.71
488.39	205.97
488.57	140.43
488.75	231.71
488.92	449.38
489.10	217.67
489.28	198.95
489.46	175.54
489.64	133.41
489.81	175.54
489.99	152.13
490.17	142.77
490.35	212.99
490.53	229.37
490.70	194.26
490.88	215.33
491.06	161.50
491.24	149.79
491.41	196.60
491.59	201.29
491.77	156.82
491.95	128.73
492.13	166.18
492.30	173.20
492.48	177.88
492.66	95.96
492.84	212.99
493.01	168.52
493.19	198.95
493.37	201.29
493.54	142.77
493.72	175.54
493.90	163.84
494.08	154.48
494.25	266.82
494.43	212.99
494.61	191.92
494.79	163.84
494.96	149.79
495.14	210.65
495.32	117.03
495.49	166.18
495.67	140.43
495.85	194.26
496.02	196.60
496.20	173.20
496.38	259.80
496.55	215.33
496.73	250.44
496.91	159.16
497.09	145.11
497.26	105.32
497.44	154.48
497.62	142.77
497.79	156.82
497.97	161.50
498.14	217.67
498.32	117.03
498.50	168.52
498.67	234.05
498.85	100.64
499.03	149.79
499.20	135.75
499.38	177.88
499.56	173.20
499.73	227.03
499.91	229.37
500.08	182.56
500.26	196.60
500.44	177.88
500.61	231.71
500.79	212.99
500.97	241.08
501.14	234.05
501.32	173.20
501.49	229.37
501.67	163.84
501.84	147.45
502.02	152.13
502.20	210.65
502.37	201.29
502.55	243.42
502.72	180.22
502.90	294.91
503.07	250.44
503.25	250.44
503.43	163.84
503.60	173.20
503.78	182.56
503.95	194.26
504.13	145.11
504.30	196.60
504.48	208.31
504.65	292.57
504.83	257.46
505.01	187.24
505.18	177.88
505.36	194.26
505.53	248.10
505.71	168.52
505.88	191.92
506.06	194.26
506.23	138.09
506.41	227.03
506.58	184.90
506.76	215.33
506.93	180.22
507.11	236.39
507.28	168.52
507.46	198.95
507.63	196.60
507.81	70.22
507.98	252.78
508.16	264.48
508.33	189.58
508.50	224.69
508.68	245.76
508.85	283.20
509.03	163.84
509.20	189.58
509.38	180.22
509.55	227.03
509.73	276.18
509.90	187.24
510.08	154.48
510.25	266.82
510.42	182.56
510.60	145.11
510.77	166.18
510.95	250.44
511.12	166.18
511.30	161.50
511.47	259.80
511.64	243.42
511.82	187.24
511.99	177.88
512.17	224.69
512.34	182.56
512.51	184.90
512.69	224.69
512.86	156.82
513.04	168.52
513.21	168.52
513.38	231.71
513.56	124.05
513.73	107.66
513.90	119.37
514.08	205.97
514.25	152.13
514.43	252.78
514.60	191.92
514.77	196.60
514.95	280.86
515.12	189.58
515.29	189.58
515.47	285.55
515.64	189.58
515.81	198.95
515.99	180.22
516.16	180.22
516.33	278.52
516.51	191.92
516.68	241.08
516.85	112.35
517.03	163.84
517.20	266.82
517.37	145.11
517.54	250.44
517.72	170.86
517.89	180.22
518.06	159.16
518.24	229.37
518.41	154.48
518.58	189.58
518.75	236.39
518.93	222.35
519.10	201.29
519.27	196.60
519.45	248.10
519.62	173.20
519.79	145.11
519.96	182.56
520.14	205.97
520.31	177.88
520.48	241.08
520.65	208.31
520.83	126.39
521.00	201.29
521.17	198.95
521.34	184.90
521.52	159.16
521.69	227.03
521.86	184.90
522.03	201.29
522.20	212.99
522.38	243.42
522.55	173.20
522.72	238.73
522.89	234.05
523.07	241.08
523.24	135.75
523.41	175.54
523.58	170.86
523.75	81.92
523.92	201.29
524.10	189.58
524.27	217.67
524.44	224.69
524.61	205.97
524.78	182.56
524.96	163.84
525.13	163.84
525.30	191.92
525.47	210.65
525.64	205.97
525.81	152.13
525.98	168.52
526.16	180.22
526.33	180.22
526.50	128.73
526.67	175.54
526.84	166.18
527.01	198.95
527.18	259.80
527.36	208.31
527.53	234.05
527.70	236.39
527.87	257.46
528.04	259.80
528.21	208.31
528.38	290.23
528.55	222.35
528.72	215.33
528.89	245.76
529.07	135.75
529.24	138.09
529.41	184.90
529.58	236.39
529.75	177.88
529.92	194.26
530.09	227.03
530.26	250.44
530.43	245.76
530.60	243.42
530.77	208.31
530.94	196.60
531.11	201.29
531.28	208.31
531.46	147.45
531.63	248.10
531.80	245.76
531.97	227.03
532.14	163.84
532.31	100.64
532.48	126.39
532.65	229.37
532.82	266.82
532.99	238.73
533.16	224.69
533.33	201.29
533.50	205.97
533.67	283.20
533.84	318.31
534.01	278.52
534.18	266.82
534.35	184.90
534.52	205.97
534.69	290.23
534.86	159.16
535.03	238.73
535.20	229.37
535.37	259.80
535.54	236.39
535.71	175.54
535.88	266.82
536.05	276.18
536.22	205.97
536.38	250.44
536.55	203.63
536.72	135.75
536.89	212.99
537.06	208.31
537.23	170.86
537.40	177.88
537.57	201.29
537.74	159.16
537.91	236.39
538.08	259.80
538.25	196.60
538.42	182.56
538.59	255.12
538.75	215.33
538.92	227.03
539.09	315.97
539.26	189.58
539.43	320.65
539.60	547.69
539.77	868.34
539.94	786.42
540.11	552.37
540.28	381.51
540.44	285.55
540.61	229.37
540.78	152.13
540.95	191.92
541.12	325.33
541.29	203.63
541.46	241.08
541.62	234.05
541.79	170.86
541.96	212.99
542.13	234.05
542.30	198.95
542.47	203.63
542.63	187.24
542.80	236.39
542.97	220.01
543.14	215.33
543.31	262.14
543.48	152.13
543.64	203.63
543.81	128.73
543.98	191.92
544.15	175.54
544.32	175.54
544.48	135.75
544.65	259.80
544.82	170.86
544.99	159.16
545.16	212.99
545.32	180.22
545.49	250.44
545.66	166.18
545.83	121.71
546.00	133.41
546.16	243.42
546.33	189.58
546.50	107.66
546.67	191.92
546.83	278.52
547.00	189.58
547.17	170.86
547.34	131.07
547.50	196.60
547.67	180.22
547.84	255.12
548.00	266.82
548.17	191.92
548.34	170.86
548.51	259.80
548.67	269.16
548.84	180.22
549.01	205.97
549.18	248.10
549.34	248.10
549.51	203.63
549.68	152.13
549.84	182.56
550.01	173.20
550.18	269.16
550.34	315.97
550.51	224.69
550.68	271.50
550.84	196.60
551.01	163.84
551.18	191.92
551.34	212.99
551.51	182.56
551.68	217.67
551.84	222.35
552.01	156.82
552.18	187.24
552.34	124.05
552.51	168.52
552.68	220.01
552.84	229.37
553.01	255.12
553.18	210.65
553.34	217.67
553.51	159.16
553.67	161.50
553.84	262.14
554.01	332.36
554.17	191.92
554.34	217.67
554.51	205.97
554.67	182.56
554.84	212.99
555.00	173.20
555.17	147.45
555.33	147.45
555.50	182.56
555.67	241.08
555.83	147.45
556.00	224.69
556.16	320.65
556.33	238.73
556.50	245.76
556.66	201.29
556.83	255.12
556.99	215.33
557.16	243.42
557.32	184.90
557.49	152.13
557.65	222.35
557.82	175.54
557.98	205.97
558.15	198.95
558.32	180.22
558.48	203.63
558.65	196.60
558.81	210.65
558.98	184.90
559.14	278.52
559.31	163.84
559.47	152.13
559.64	175.54
559.80	236.39
559.97	161.50
560.13	248.10
560.30	194.26
560.46	131.07
560.63	196.60
560.79	227.03
560.96	273.84
561.12	187.24
561.29	229.37
561.45	140.43
561.61	189.58
561.78	257.46
561.94	201.29
562.11	196.60
562.27	220.01
562.44	236.39
562.60	245.76
562.77	224.69
562.93	215.33
563.10	201.29
563.26	215.33
563.42	194.26
563.59	152.13
563.75	187.24
563.92	248.10
564.08	257.46
564.24	203.63
564.41	259.80
564.57	168.52
564.74	222.35
564.90	198.95
565.07	205.97
565.23	266.82
565.39	271.50
565.56	259.80
565.72	168.52
565.88	187.24
566.05	198.95
566.21	224.69
566.38	201.29
566.54	182.56
566.70	236.39
566.87	234.05
567.03	198.95
567.19	142.77
567.36	318.31
567.52	187.24
567.68	187.24
567.85	205.97
568.01	154.48
568.17	170.86
568.34	154.48
568.50	255.12
568.66	212.99
568.83	248.10
568.99	205.97
569.15	276.18
569.32	215.33
569.48	234.05
569.64	177.88
569.81	180.22
569.97	140.43
570.13	149.79
570.30	166.18
570.46	175.54
570.62	245.76
570.78	91.28
570.95	138.09
571.11	196.60
571.27	203.63
571.43	114.69
571.60	220.01
571.76	217.67
571.92	173.20
572.09	210.65
572.25	191.92
572.41	166.18
572.57	248.10
572.74	229.37
572.90	255.12
573.06	278.52
573.22	182.56
573.38	152.13
573.55	138.09
573.71	224.69
573.87	203.63
574.03	187.24
574.20	215.33
574.36	210.65
574.52	250.44
574.68	234.05
574.84	280.86
575.01	297.25
575.17	203.63
575.33	245.76
575.49	212.99
575.65	257.46
575.82	318.31
575.98	390.87
576.14	437.68
576.30	454.06
576.46	372.15
576.62	229.37
576.79	320.65
576.95	250.44
577.11	224.69
577.27	156.82
577.43	227.03
577.59	276.18
577.75	264.48
577.92	142.77
578.08	220.01
578.24	170.86
578.40	278.52
578.56	236.39
578.72	266.82
578.88	196.60
579.04	159.16
579.21	182.56
579.37	194.26
579.53	194.26
579.69	271.50
579.85	269.16
580.01	299.59
580.17	241.08
580.33	205.97
580.49	170.86
580.65	290.23
580.82	245.76
580.98	217.67
581.14	297.25
581.30	365.12
581.46	269.16
581.62	447.04
581.78	381.51
581.94	358.10
582.10	346.40
582.26	325.33
582.42	308.95
582.58	243.42
582.74	285.55
582.90	379.17
583.06	325.33
583.22	308.95
583.38	388.53
583.54	341.72
583.70	447.04
583.86	433.00
584.02	414.27
584.18	514.92
584.34	660.03
584.50	1788.17
584.66	12875.29
584.82	34218.63
584.98	46239.62
585.14	40425.73
585.30	25156.08
585.46	14970.07
585.62	9486.19
585.78	4461.06
585.94	1844.34
586.10	908.13
586.26	643.65
586.42	585.13
586.58	425.98
586.74	351.08
586.90	411.93
587.06	362.78
587.22	252.78
587.38	311.29
587.54	653.01
587.70	2029.24
587.86	3143.34
588.02	3258.03
588.18	2459.90
588.34	1600.93
588.49	1001.75
588.65	697.48
588.81	348.74
588.97	271.50
589.13	238.73
589.29	332.36
589.45	241.08
589.61	229.37
589.77	353.42
589.93	306.61
590.08	241.08
590.24	358.10
590.40	294.91
590.56	283.20
590.72	259.80
590.88	220.01
591.04	231.71
591.20	161.50
591.35	287.89
591.51	205.97
591.67	175.54
591.83	196.60
591.99	236.39
592.15	224.69
592.31	264.48
592.46	236.39
592.62	201.29
592.78	180.22
592.94	229.37
593.10	234.05
593.26	266.82
593.41	238.73
593.57	201.29
593.73	414.27
593.89	1720.29
594.05	4093.60
594.20	5975.39
594.36	5509.62
594.52	3630.17
594.68	2209.47
594.84	1547.09
594.99	828.55
595.15	561.73
595.31	294.91
595.47	301.93
595.62	301.93
595.78	231.71
595.94	238.73
596.10	280.86
596.25	215.33
596.41	299.59
596.57	227.03
596.73	248.10
596.88	358.10
597.04	816.85
597.20	1266.23
597.36	1514.33
597.51	1158.57
597.67	734.93
597.83	564.07
597.99	484.49
598.14	287.89
598.30	217.67
598.46	198.95
598.61	264.48
598.77	290.23
598.93	184.90
599.09	231.71
599.24	238.73
599.40	238.73
599.56	257.46
599.71	203.63
599.87	163.84
600.03	222.35
600.18	159.16
600.34	180.22
600.50	231.71
600.65	159.16
600.81	294.91
600.97	262.14
601.12	257.46
601.28	210.65
601.44	198.95
601.59	194.26
601.75	191.92
601.91	203.63
602.06	285.55
602.22	280.86
602.37	526.62
602.53	1004.09
602.69	1528.37
602.84	1549.43
603.00	1135.16
603.16	866.00
603.31	580.45
603.47	351.08
603.62	276.18
603.78	276.18
603.94	212.99
604.09	140.43
604.25	208.31
604.40	210.65
604.56	189.58
604.71	208.31
604.87	264.48
605.03	255.12
605.18	252.78
605.34	292.57
605.49	248.10
605.65	285.55
605.80	283.20
605.96	266.82
606.12	285.55
606.27	276.18
606.43	238.73
606.58	287.89
606.74	479.81
606.89	1898.17
607.05	3768.26
607.20	4917.47
607.36	3974.23
607.51	2745.45
607.67	1785.83
607.82	1167.93
607.98	674.07
608.13	440.02
608.29	311.29
608.44	330.02
608.60	332.36
608.75	301.93
608.91	713.86
609.06	3026.31
609.22	6366.26
609.37	8184.85
609.53	7054.37
609.68	4812.14
609.84	3218.24
609.99	2195.42
610.15	1200.69
610.30	657.69
610.46	411.93
610.61	318.31
610.76	266.82
610.92	198.95
611.07	245.76
611.23	313.63
611.38	224.69
611.54	201.29
611.69	243.42
611.84	212.99
612.00	259.80
612.15	243.42
