SpectraSuite Data File
++++++++++++++++++++++++++++++++++++
Date: Fri Oct 04 11:47:16 GMT-05:00 2013
User: price-jones
Dark Spectrum Present: No
Reference Spectrum Present: No
Number of Sampled Component Spectra: 1
Spectrometers: USB2+H05261
Integration Time (usec): 100000 (USB2+H05261)
Spectra Averaged: 1 (USB2+H05261)
Boxcar Smoothing: 0 (USB2+H05261)
Correct for Electrical Dark: No (USB2+H05261)
Strobe/Lamp Enabled: No (USB2+H05261)
Correct for Detector Non-linearity: No (USB2+H05261)
Correct for Stray Light: No (USB2+H05261)
Number of Pixels in Processed Spectrum: 2048
>>>>>Begin Processed Spectral Data<<<<<
365.73	11.70
365.92	11.70
366.12	11.70
366.32	0.00
366.52	0.00
366.72	0.00
366.91	0.00
367.11	0.00
367.31	0.00
367.51	0.00
367.70	0.00
367.90	0.00
368.10	0.00
368.30	0.00
368.49	0.00
368.69	0.00
368.89	0.00
369.09	0.00
369.28	0.00
369.48	0.00
369.68	0.00
369.87	0.00
370.07	0.00
370.27	79.58
370.47	32.77
370.66	0.00
370.86	7.02
371.06	105.32
371.25	126.39
371.45	95.96
371.65	18.72
371.84	39.79
372.04	102.98
372.24	128.73
372.44	51.49
372.63	91.28
372.83	133.41
373.03	77.24
373.22	16.38
373.42	121.71
373.62	32.77
373.81	173.20
374.01	53.83
374.21	117.03
374.40	107.66
374.60	156.82
374.79	81.92
374.99	124.05
375.19	67.88
375.38	117.03
375.58	63.19
375.78	112.35
375.97	161.50
376.17	168.52
376.37	107.66
376.56	46.81
376.76	138.09
376.95	135.75
377.15	138.09
377.35	74.90
377.54	180.22
377.74	42.13
377.93	39.79
378.13	79.58
378.33	189.58
378.52	147.45
378.72	93.62
378.91	21.06
379.11	77.24
379.31	72.56
379.50	60.85
379.70	177.88
379.89	107.66
380.09	77.24
380.28	161.50
380.48	128.73
380.68	72.56
380.87	100.64
381.07	91.28
381.26	173.20
381.46	135.75
381.65	117.03
381.85	51.49
382.04	142.77
382.24	49.15
382.43	88.94
382.63	25.75
382.83	100.64
383.02	25.75
383.22	121.71
383.41	93.62
383.61	79.58
383.80	121.71
384.00	93.62
384.19	91.28
384.39	79.58
384.58	84.26
384.78	105.32
384.97	56.17
385.17	112.35
385.36	67.88
385.56	70.22
385.75	86.60
385.95	35.11
386.14	84.26
386.34	63.19
386.53	86.60
386.72	53.83
386.92	60.85
387.11	124.05
387.31	56.17
387.50	44.47
387.70	67.88
387.89	91.28
388.09	60.85
388.28	79.58
388.48	32.77
388.67	28.09
388.86	93.62
389.06	67.88
389.25	187.24
389.45	131.07
389.64	74.90
389.84	138.09
390.03	53.83
390.22	98.30
390.42	88.94
390.61	53.83
390.81	117.03
391.00	100.64
391.19	119.37
391.39	140.43
391.58	114.69
391.78	79.58
391.97	56.17
392.16	81.92
392.36	110.01
392.55	133.41
392.75	117.03
392.94	124.05
393.13	142.77
393.33	28.09
393.52	121.71
393.71	81.92
393.91	63.19
394.10	32.77
394.29	86.60
394.49	147.45
394.68	124.05
394.88	145.11
395.07	133.41
395.26	93.62
395.46	126.39
395.65	72.56
395.84	163.84
396.04	102.98
396.23	100.64
396.42	154.48
396.62	53.83
396.81	156.82
397.00	74.90
397.19	63.19
397.39	84.26
397.58	95.96
397.77	93.62
397.97	70.22
398.16	81.92
398.35	70.22
398.55	49.15
398.74	95.96
398.93	63.19
399.12	65.54
399.32	37.45
399.51	37.45
399.70	149.79
399.90	100.64
400.09	107.66
400.28	117.03
400.47	98.30
400.67	154.48
400.86	128.73
401.05	88.94
401.24	163.84
401.44	79.58
401.63	112.35
401.82	145.11
402.01	107.66
402.21	60.85
402.40	107.66
402.59	117.03
402.78	70.22
402.97	95.96
403.17	51.49
403.36	53.83
403.55	86.60
403.74	86.60
403.93	126.39
404.13	133.41
404.32	86.60
404.51	46.81
404.70	124.05
404.89	88.94
405.09	161.50
405.28	56.17
405.47	67.88
405.66	149.79
405.85	114.69
406.05	166.18
406.24	121.71
406.43	121.71
406.62	98.30
406.81	205.97
407.00	140.43
407.20	149.79
407.39	105.32
407.58	63.19
407.77	102.98
407.96	152.13
408.15	112.35
408.34	37.45
408.54	91.28
408.73	95.96
408.92	173.20
409.11	215.33
409.30	138.09
409.49	117.03
409.68	88.94
409.87	95.96
410.07	177.88
410.26	126.39
410.45	95.96
410.64	51.49
410.83	177.88
411.02	138.09
411.21	189.58
411.40	91.28
411.59	161.50
411.78	77.24
411.98	107.66
412.17	100.64
412.36	114.69
412.55	147.45
412.74	105.32
412.93	135.75
413.12	67.88
413.31	114.69
413.50	105.32
413.69	56.17
413.88	126.39
414.07	133.41
414.26	105.32
414.45	70.22
414.64	112.35
414.83	154.48
415.02	154.48
415.22	135.75
415.41	189.58
415.60	98.30
415.79	180.22
415.98	145.11
416.17	107.66
416.36	142.77
416.55	37.45
416.74	133.41
416.93	159.16
417.12	63.19
417.31	72.56
417.50	145.11
417.69	166.18
417.88	194.26
418.07	88.94
418.26	112.35
418.45	170.86
418.64	201.29
418.83	212.99
419.02	203.63
419.21	133.41
419.39	163.84
419.58	156.82
419.77	128.73
419.96	180.22
420.15	135.75
420.34	145.11
420.53	105.32
420.72	184.90
420.91	65.54
421.10	147.45
421.29	168.52
421.48	142.77
421.67	189.58
421.86	107.66
422.05	126.39
422.24	102.98
422.43	170.86
422.61	152.13
422.80	117.03
422.99	133.41
423.18	79.58
423.37	117.03
423.56	9.36
423.75	142.77
423.94	163.84
424.13	126.39
424.32	161.50
424.50	44.47
424.69	110.01
424.88	210.65
425.07	191.92
425.26	189.58
425.45	201.29
425.64	220.01
425.83	198.95
426.01	142.77
426.20	135.75
426.39	119.37
426.58	140.43
426.77	100.64
426.96	117.03
427.15	128.73
427.33	95.96
427.52	105.32
427.71	126.39
427.90	70.22
428.09	128.73
428.28	145.11
428.46	124.05
428.65	147.45
428.84	147.45
429.03	154.48
429.22	140.43
429.40	93.62
429.59	98.30
429.78	212.99
429.97	196.60
430.16	84.26
430.34	142.77
430.53	107.66
430.72	124.05
430.91	149.79
431.10	65.54
431.28	117.03
431.47	156.82
431.66	112.35
431.85	100.64
432.03	147.45
432.22	212.99
432.41	88.94
432.60	149.79
432.79	175.54
432.97	227.03
433.16	255.12
433.35	301.93
433.54	175.54
433.72	105.32
433.91	117.03
434.10	210.65
434.28	252.78
434.47	74.90
434.66	88.94
434.85	166.18
435.03	81.92
435.22	196.60
435.41	63.19
435.59	149.79
435.78	93.62
435.97	119.37
436.16	105.32
436.34	124.05
436.53	131.07
436.72	100.64
436.90	140.43
437.09	100.64
437.28	154.48
437.46	168.52
437.65	95.96
437.84	205.97
438.02	138.09
438.21	140.43
438.40	126.39
438.58	112.35
438.77	119.37
438.96	175.54
439.14	135.75
439.33	84.26
439.52	63.19
439.70	107.66
439.89	100.64
440.08	79.58
440.26	84.26
440.45	154.48
440.63	100.64
440.82	88.94
441.01	63.19
441.19	138.09
441.38	147.45
441.57	142.77
441.75	147.45
441.94	191.92
442.12	77.24
442.31	133.41
442.50	74.90
442.68	107.66
442.87	91.28
443.05	194.26
443.24	74.90
443.43	170.86
443.61	161.50
443.80	166.18
443.98	126.39
444.17	128.73
444.35	126.39
444.54	44.47
444.73	191.92
444.91	241.08
445.10	105.32
445.28	77.24
445.47	131.07
445.65	117.03
445.84	112.35
446.02	74.90
446.21	159.16
446.39	84.26
446.58	173.20
446.77	91.28
446.95	138.09
447.14	110.01
447.32	166.18
447.51	100.64
447.69	180.22
447.88	156.82
448.06	212.99
448.25	145.11
448.43	180.22
448.62	117.03
448.80	112.35
448.99	100.64
449.17	107.66
449.36	142.77
449.54	135.75
449.73	154.48
449.91	95.96
450.10	124.05
450.28	194.26
450.46	215.33
450.65	145.11
450.83	161.50
451.02	133.41
451.20	147.45
451.39	198.95
451.57	124.05
451.76	84.26
451.94	154.48
452.13	184.90
452.31	196.60
452.49	145.11
452.68	88.94
452.86	95.96
453.05	156.82
453.23	107.66
453.42	98.30
453.60	84.26
453.78	131.07
453.97	138.09
454.15	119.37
454.34	117.03
454.52	81.92
454.70	152.13
454.89	93.62
455.07	53.83
455.26	170.86
455.44	156.82
455.62	124.05
455.81	114.69
455.99	149.79
456.17	135.75
456.36	79.58
456.54	110.01
456.73	74.90
456.91	142.77
457.09	201.29
457.28	163.84
457.46	140.43
457.64	208.31
457.83	121.71
458.01	133.41
458.19	163.84
458.38	42.13
458.56	117.03
458.74	105.32
458.93	177.88
459.11	210.65
459.29	212.99
459.48	191.92
459.66	154.48
459.84	182.56
460.03	173.20
460.21	142.77
460.39	182.56
460.57	173.20
460.76	205.97
460.94	168.52
461.12	138.09
461.31	117.03
461.49	161.50
461.67	135.75
461.85	163.84
462.04	152.13
462.22	653.01
462.40	154.48
462.59	147.45
462.77	117.03
462.95	86.60
463.13	138.09
463.32	135.75
463.50	184.90
463.68	175.54
463.86	124.05
464.05	124.05
464.23	161.50
464.41	133.41
464.59	161.50
464.78	229.37
464.96	91.28
465.14	112.35
465.32	154.48
465.50	203.63
465.69	147.45
465.87	88.94
466.05	133.41
466.23	67.88
466.41	65.54
466.60	112.35
466.78	124.05
466.96	159.16
467.14	131.07
467.32	173.20
467.51	133.41
467.69	166.18
467.87	154.48
468.05	117.03
468.23	135.75
468.41	112.35
468.60	128.73
468.78	201.29
468.96	161.50
469.14	152.13
469.32	140.43
469.50	110.01
469.69	114.69
469.87	133.41
470.05	182.56
470.23	114.69
470.41	145.11
470.59	170.86
470.77	187.24
470.95	184.90
471.14	227.03
471.32	121.71
471.50	175.54
471.68	152.13
471.86	166.18
472.04	163.84
472.22	161.50
472.40	145.11
472.58	124.05
472.77	107.66
472.95	173.20
473.13	184.90
473.31	175.54
473.49	112.35
473.67	79.58
473.85	119.37
474.03	149.79
474.21	184.90
474.39	128.73
474.57	149.79
474.75	124.05
474.93	208.31
475.12	114.69
475.30	142.77
475.48	154.48
475.66	170.86
475.84	119.37
476.02	145.11
476.20	201.29
476.38	100.64
476.56	173.20
476.74	147.45
476.92	194.26
477.10	95.96
477.28	177.88
477.46	182.56
477.64	105.32
477.82	203.63
478.00	173.20
478.18	168.52
478.36	95.96
478.54	98.30
478.72	112.35
478.90	131.07
479.08	156.82
479.26	135.75
479.44	182.56
479.62	168.52
479.80	170.86
479.98	114.69
480.16	154.48
480.34	250.44
480.52	147.45
480.70	180.22
480.88	184.90
481.06	154.48
481.24	140.43
481.41	159.16
481.59	187.24
481.77	156.82
481.95	95.96
482.13	133.41
482.31	93.62
482.49	212.99
482.67	170.86
482.85	154.48
483.03	121.71
483.21	262.14
483.39	156.82
483.57	208.31
483.74	163.84
483.92	166.18
484.10	84.26
484.28	152.13
484.46	217.67
484.64	110.01
484.82	147.45
485.00	100.64
485.18	189.58
485.35	194.26
485.53	119.37
485.71	168.52
485.89	81.92
486.07	88.94
486.25	238.73
486.43	222.35
486.61	245.76
486.78	138.09
486.96	184.90
487.14	175.54
487.32	145.11
487.50	208.31
487.68	170.86
487.85	208.31
488.03	177.88
488.21	170.86
488.39	107.66
488.57	187.24
488.75	147.45
488.92	395.55
489.10	138.09
489.28	238.73
489.46	161.50
489.64	140.43
489.81	184.90
489.99	234.05
490.17	215.33
490.35	166.18
490.53	138.09
490.70	152.13
490.88	196.60
491.06	126.39
491.24	168.52
491.41	142.77
491.59	126.39
491.77	121.71
491.95	128.73
492.13	117.03
492.30	161.50
492.48	184.90
492.66	128.73
492.84	180.22
493.01	121.71
493.19	133.41
493.37	236.39
493.54	180.22
493.72	156.82
493.90	138.09
494.08	105.32
494.25	201.29
494.43	173.20
494.61	140.43
494.79	173.20
494.96	145.11
495.14	180.22
495.32	152.13
495.49	280.86
495.67	243.42
495.85	205.97
496.02	100.64
496.20	227.03
496.38	227.03
496.55	189.58
496.73	210.65
496.91	154.48
497.09	220.01
497.26	170.86
497.44	163.84
497.62	173.20
497.79	149.79
497.97	229.37
498.14	208.31
498.32	201.29
498.50	203.63
498.67	189.58
498.85	140.43
499.03	184.90
499.20	154.48
499.38	112.35
499.56	245.76
499.73	182.56
499.91	229.37
500.08	212.99
500.26	163.84
500.44	131.07
500.61	133.41
500.79	152.13
500.97	245.76
501.14	196.60
501.32	227.03
501.49	236.39
501.67	149.79
501.84	250.44
502.02	147.45
502.20	217.67
502.37	196.60
502.55	147.45
502.72	180.22
502.90	215.33
503.07	234.05
503.25	184.90
503.43	243.42
503.60	140.43
503.78	166.18
503.95	182.56
504.13	112.35
504.30	215.33
504.48	112.35
504.65	198.95
504.83	217.67
505.01	229.37
505.18	198.95
505.36	234.05
505.53	154.48
505.71	126.39
505.88	175.54
506.06	135.75
506.23	196.60
506.41	126.39
506.58	243.42
506.76	276.18
506.93	182.56
507.11	224.69
507.28	184.90
507.46	248.10
507.63	182.56
507.81	126.39
507.98	241.08
508.16	205.97
508.33	184.90
508.50	107.66
508.68	135.75
508.85	205.97
509.03	229.37
509.20	88.94
509.38	212.99
509.55	163.84
509.73	177.88
509.90	212.99
510.08	201.29
510.25	243.42
510.42	201.29
510.60	180.22
510.77	131.07
510.95	266.82
511.12	184.90
511.30	248.10
511.47	248.10
511.64	236.39
511.82	266.82
511.99	196.60
512.17	112.35
512.34	100.64
512.51	168.52
512.69	208.31
512.86	227.03
513.04	166.18
513.21	191.92
513.38	168.52
513.56	175.54
513.73	161.50
513.90	198.95
514.08	175.54
514.25	187.24
514.43	224.69
514.60	163.84
514.77	224.69
514.95	208.31
515.12	152.13
515.29	234.05
515.47	194.26
515.64	126.39
515.81	210.65
515.99	243.42
516.16	222.35
516.33	210.65
516.51	131.07
516.68	166.18
516.85	184.90
517.03	147.45
517.20	208.31
517.37	203.63
517.54	222.35
517.72	135.75
517.89	231.71
518.06	215.33
518.24	229.37
518.41	224.69
518.58	222.35
518.75	173.20
518.93	203.63
519.10	222.35
519.27	203.63
519.45	187.24
519.62	224.69
519.79	196.60
519.96	241.08
520.14	229.37
520.31	248.10
520.48	175.54
520.65	175.54
520.83	159.16
521.00	175.54
521.17	236.39
521.34	313.63
521.52	301.93
521.69	196.60
521.86	159.16
522.03	182.56
522.20	205.97
522.38	231.71
522.55	217.67
522.72	170.86
522.89	229.37
523.07	236.39
523.24	210.65
523.41	212.99
523.58	248.10
523.75	285.55
523.92	184.90
524.10	203.63
524.27	205.97
524.44	245.76
524.61	135.75
524.78	220.01
524.96	196.60
525.13	215.33
525.30	208.31
525.47	257.46
525.64	231.71
525.81	196.60
525.98	243.42
526.16	142.77
526.33	175.54
526.50	189.58
526.67	163.84
526.84	177.88
527.01	142.77
527.18	241.08
527.36	222.35
527.53	173.20
527.70	184.90
527.87	220.01
528.04	224.69
528.21	149.79
528.38	229.37
528.55	264.48
528.72	173.20
528.89	217.67
529.07	180.22
529.24	212.99
529.41	250.44
529.58	191.92
529.75	194.26
529.92	205.97
530.09	184.90
530.26	175.54
530.43	238.73
530.60	278.52
530.77	208.31
530.94	229.37
531.11	241.08
531.28	135.75
531.46	229.37
531.63	189.58
531.80	217.67
531.97	292.57
532.14	257.46
532.31	177.88
532.48	234.05
532.65	304.27
532.82	348.74
532.99	313.63
533.16	287.89
533.33	266.82
533.50	215.33
533.67	294.91
533.84	369.80
534.01	383.85
534.18	341.72
534.35	259.80
534.52	196.60
534.69	294.91
534.86	175.54
535.03	187.24
535.20	149.79
535.37	177.88
535.54	231.71
535.71	264.48
535.88	269.16
536.05	187.24
536.22	180.22
536.38	215.33
536.55	215.33
536.72	222.35
536.89	187.24
537.06	180.22
537.23	203.63
537.40	187.24
537.57	196.60
537.74	229.37
537.91	234.05
538.08	276.18
538.25	337.04
538.42	294.91
538.59	189.58
538.75	234.05
538.92	212.99
539.09	248.10
539.26	222.35
539.43	437.68
539.60	1027.50
539.77	1685.19
539.94	1600.93
540.11	1107.07
540.28	631.94
540.44	482.15
540.61	276.18
540.78	236.39
540.95	234.05
541.12	255.12
541.29	205.97
541.46	236.39
541.62	215.33
541.79	210.65
541.96	135.75
542.13	252.78
542.30	191.92
542.47	227.03
542.63	140.43
542.80	173.20
542.97	177.88
543.14	264.48
543.31	222.35
543.48	203.63
543.64	248.10
543.81	257.46
543.98	234.05
544.15	168.52
544.32	166.18
544.48	156.82
544.65	229.37
544.82	168.52
544.99	238.73
545.16	259.80
545.32	168.52
545.49	180.22
545.66	138.09
545.83	215.33
546.00	149.79
546.16	229.37
546.33	180.22
546.50	224.69
546.67	182.56
546.83	341.72
547.00	210.65
547.17	149.79
547.34	135.75
547.50	205.97
547.67	191.92
547.84	175.54
548.00	210.65
548.17	184.90
548.34	135.75
548.51	287.89
548.67	212.99
548.84	191.92
549.01	203.63
549.18	257.46
549.34	313.63
549.51	252.78
549.68	140.43
549.84	170.86
550.01	222.35
550.18	311.29
550.34	325.33
550.51	112.35
550.68	205.97
550.84	142.77
551.01	205.97
551.18	217.67
551.34	189.58
551.51	182.56
551.68	224.69
551.84	217.67
552.01	107.66
552.18	236.39
552.34	163.84
552.51	173.20
552.68	245.76
552.84	201.29
553.01	105.32
553.18	266.82
553.34	205.97
553.51	252.78
553.67	203.63
553.84	252.78
554.01	196.60
554.17	231.71
554.34	203.63
554.51	236.39
554.67	191.92
554.84	198.95
555.00	236.39
555.17	208.31
555.33	201.29
555.50	227.03
555.67	243.42
555.83	215.33
556.00	238.73
556.16	407.25
556.33	222.35
556.50	215.33
556.66	208.31
556.83	210.65
556.99	248.10
557.16	212.99
557.32	177.88
557.49	147.45
557.65	140.43
557.82	201.29
557.98	210.65
558.15	189.58
558.32	198.95
558.48	177.88
558.65	156.82
558.81	255.12
558.98	189.58
559.14	217.67
559.31	203.63
559.47	250.44
559.64	222.35
559.80	238.73
559.97	196.60
560.13	205.97
560.30	159.16
560.46	220.01
560.63	250.44
560.79	236.39
560.96	222.35
561.12	212.99
561.29	217.67
561.45	170.86
561.61	182.56
561.78	224.69
561.94	168.52
562.11	236.39
562.27	215.33
562.44	152.13
562.60	259.80
562.77	205.97
562.93	241.08
563.10	133.41
563.26	259.80
563.42	205.97
563.59	210.65
563.75	119.37
563.92	208.31
564.08	175.54
564.24	205.97
564.41	238.73
564.57	224.69
564.74	212.99
564.90	229.37
565.07	290.23
565.23	255.12
565.39	205.97
565.56	280.86
565.72	271.50
565.88	222.35
566.05	131.07
566.21	163.84
566.38	210.65
566.54	234.05
566.70	154.48
566.87	140.43
567.03	152.13
567.19	222.35
567.36	152.13
567.52	208.31
567.68	191.92
567.85	243.42
568.01	217.67
568.17	173.20
568.34	98.30
568.50	166.18
568.66	285.55
568.83	276.18
568.99	205.97
569.15	191.92
569.32	175.54
569.48	231.71
569.64	201.29
569.81	229.37
569.97	255.12
570.13	215.33
570.30	163.84
570.46	196.60
570.62	177.88
570.78	133.41
570.95	93.62
571.11	264.48
571.27	220.01
571.43	205.97
571.60	222.35
571.76	245.76
571.92	182.56
572.09	238.73
572.25	194.26
572.41	177.88
572.57	126.39
572.74	168.52
572.90	128.73
573.06	166.18
573.22	210.65
573.38	203.63
573.55	236.39
573.71	234.05
573.87	196.60
574.03	196.60
574.20	238.73
574.36	287.89
574.52	351.08
574.68	306.61
574.84	234.05
575.01	173.20
575.17	273.84
575.33	191.92
575.49	273.84
575.65	227.03
575.82	322.99
575.98	545.34
576.14	751.31
576.30	671.73
576.46	674.07
576.62	482.15
576.79	395.55
576.95	334.70
577.11	266.82
577.27	220.01
577.43	236.39
577.59	322.99
577.75	241.08
577.92	173.20
578.08	266.82
578.24	264.48
578.40	318.31
578.56	241.08
578.72	348.74
578.88	194.26
579.04	257.46
579.21	299.59
579.37	273.84
579.53	222.35
579.69	353.42
579.85	250.44
580.01	423.64
580.17	365.12
580.33	304.27
580.49	320.65
580.65	271.50
580.82	308.95
580.98	262.14
581.14	276.18
581.30	318.31
581.46	397.89
581.62	519.60
581.78	695.14
581.94	580.45
582.10	477.47
582.26	468.11
582.42	411.93
582.58	463.43
582.74	423.64
582.90	386.19
583.06	470.45
583.22	409.59
583.38	421.30
583.54	489.17
583.70	500.87
583.86	716.20
584.02	784.08
584.18	966.64
584.34	1254.53
584.50	3232.28
584.66	24704.35
584.82	58267.64
584.98	65535.00
585.14	65535.00
585.30	54719.38
585.46	33488.38
585.62	20556.93
585.78	9294.27
585.94	3641.87
586.10	1636.03
586.26	1008.77
586.42	959.62
586.58	695.14
586.74	613.22
586.90	674.07
587.06	634.29
587.22	587.47
587.38	533.64
587.54	1174.95
587.70	3705.07
587.86	6494.99
588.02	7487.37
588.18	5203.01
588.34	3246.32
588.49	2080.74
588.65	1275.59
588.81	685.78
588.97	388.53
589.13	245.76
589.29	294.91
589.45	379.17
589.61	248.10
589.77	437.68
589.93	507.90
590.08	430.66
590.24	514.92
590.40	470.45
590.56	395.55
590.72	421.30
590.88	262.14
591.04	278.52
591.20	283.20
591.35	418.96
591.51	311.29
591.67	262.14
591.83	292.57
591.99	292.57
592.15	285.55
592.31	220.01
592.46	250.44
592.62	334.70
592.78	294.91
592.94	283.20
593.10	266.82
593.26	273.84
593.41	320.65
593.57	346.40
593.73	573.43
593.89	2986.52
594.05	7927.39
594.20	12748.90
594.36	12271.43
594.52	7880.58
594.68	4933.85
594.84	3246.32
594.99	1757.74
595.15	809.83
595.31	463.43
595.47	369.80
595.62	315.97
595.78	290.23
595.94	318.31
596.10	299.59
596.25	269.16
596.41	358.10
596.57	330.02
596.73	311.29
596.88	582.79
597.04	1455.81
597.20	2572.25
597.36	3173.77
597.51	2286.70
597.67	1652.42
597.83	1043.88
597.99	774.72
598.14	360.44
598.30	327.68
598.46	306.61
598.61	271.50
598.77	337.04
598.93	257.46
599.09	248.10
599.24	266.82
599.40	196.60
599.56	215.33
599.71	212.99
599.87	180.22
600.03	217.67
600.18	196.60
600.34	255.12
600.50	243.42
600.65	173.20
600.81	250.44
600.97	191.92
601.12	245.76
601.28	222.35
601.44	269.16
601.59	198.95
601.75	227.03
601.91	273.84
602.06	212.99
602.22	376.83
602.37	741.95
602.53	1755.40
602.69	3005.25
602.84	3318.88
603.00	2410.75
603.16	1570.50
603.31	1114.10
603.47	709.18
603.62	458.74
603.78	369.80
603.94	250.44
604.09	257.46
604.25	276.18
604.40	238.73
604.56	220.01
604.71	234.05
604.87	250.44
605.03	234.05
605.18	259.80
605.34	198.95
605.49	217.67
605.65	208.31
605.80	259.80
605.96	212.99
606.12	290.23
606.27	351.08
606.43	353.42
606.58	355.76
606.74	858.98
606.89	3555.27
607.05	7599.72
607.20	10616.67
607.36	9092.98
607.51	5989.43
607.67	3744.86
607.82	2513.74
607.98	1362.19
608.13	690.46
608.29	550.03
608.44	425.98
608.60	484.49
608.75	493.85
608.91	1179.63
609.06	5643.03
609.22	12973.59
609.37	18501.93
609.53	16666.95
609.68	10829.66
609.84	6806.28
609.99	4484.47
610.15	2441.18
610.30	1057.92
610.46	641.31
610.61	388.53
610.76	306.61
610.92	287.89
611.07	292.57
611.23	337.04
611.38	407.25
611.54	278.52
611.69	327.68
611.84	273.84
