SpectraSuite Data File
++++++++++++++++++++++++++++++++++++
Date: Fri Oct 04 11:46:59 GMT-05:00 2013
User: price-jones
Dark Spectrum Present: No
Reference Spectrum Present: No
Number of Sampled Component Spectra: 1
Spectrometers: USB2+H05261
Integration Time (usec): 100000 (USB2+H05261)
Spectra Averaged: 1 (USB2+H05261)
Boxcar Smoothing: 0 (USB2+H05261)
Correct for Electrical Dark: No (USB2+H05261)
Strobe/Lamp Enabled: No (USB2+H05261)
Correct for Detector Non-linearity: No (USB2+H05261)
Correct for Stray Light: No (USB2+H05261)
Number of Pixels in Processed Spectrum: 2048
>>>>>Begin Processed Spectral Data<<<<<
365.73	98.30
365.92	98.30
366.12	98.30
366.32	0.00
366.52	0.00
366.72	0.00
366.91	0.00
367.11	0.00
367.31	0.00
367.51	0.00
367.70	0.00
367.90	0.00
368.10	0.00
368.30	0.00
368.49	0.00
368.69	0.00
368.89	0.00
369.09	0.00
369.28	9.36
369.48	0.00
369.68	0.00
369.87	0.00
370.07	0.00
370.27	32.77
370.47	46.81
370.66	30.43
370.86	51.49
371.06	32.77
371.25	67.88
371.45	9.36
371.65	49.15
371.84	39.79
372.04	67.88
372.24	65.54
372.44	159.16
372.63	49.15
372.83	135.75
373.03	30.43
373.22	72.56
373.42	79.58
373.62	58.51
373.81	142.77
374.01	110.01
374.21	105.32
374.40	46.81
374.60	49.15
374.79	32.77
374.99	100.64
375.19	84.26
375.38	110.01
375.58	117.03
375.78	117.03
375.97	126.39
376.17	215.33
376.37	121.71
376.56	72.56
376.76	65.54
376.95	145.11
377.15	159.16
377.35	102.98
377.54	98.30
377.74	95.96
377.93	56.17
378.13	98.30
378.33	100.64
378.52	117.03
378.72	112.35
378.91	177.88
379.11	77.24
379.31	112.35
379.50	28.09
379.70	67.88
379.89	126.39
380.09	147.45
380.28	110.01
380.48	93.62
380.68	37.45
380.87	53.83
381.07	107.66
381.26	114.69
381.46	177.88
381.65	107.66
381.85	56.17
382.04	65.54
382.24	81.92
382.43	124.05
382.63	18.72
382.83	86.60
383.02	126.39
383.22	46.81
383.41	23.41
383.61	84.26
383.80	98.30
384.00	86.60
384.19	91.28
384.39	84.26
384.58	112.35
384.78	140.43
384.97	124.05
385.17	102.98
385.36	110.01
385.56	110.01
385.75	37.45
385.95	110.01
386.14	110.01
386.34	46.81
386.53	124.05
386.72	102.98
386.92	112.35
387.11	112.35
387.31	84.26
387.50	70.22
387.70	93.62
387.89	98.30
388.09	145.11
388.28	88.94
388.48	107.66
388.67	100.64
388.86	133.41
389.06	51.49
389.25	67.88
389.45	152.13
389.64	98.30
389.84	163.84
390.03	81.92
390.22	152.13
390.42	72.56
390.61	65.54
390.81	30.43
391.00	105.32
391.19	28.09
391.39	147.45
391.58	105.32
391.78	117.03
391.97	159.16
392.16	63.19
392.36	65.54
392.55	77.24
392.75	147.45
392.94	100.64
393.13	39.79
393.33	70.22
393.52	100.64
393.71	124.05
393.91	166.18
394.10	81.92
394.29	135.75
394.49	114.69
394.68	159.16
394.88	156.82
395.07	124.05
395.26	67.88
395.46	107.66
395.65	100.64
395.84	79.58
396.04	156.82
396.23	65.54
396.42	65.54
396.62	58.51
396.81	156.82
397.00	77.24
397.19	152.13
397.39	51.49
397.58	114.69
397.77	121.71
397.97	86.60
398.16	107.66
398.35	163.84
398.55	58.51
398.74	98.30
398.93	187.24
399.12	145.11
399.32	72.56
399.51	67.88
399.70	102.98
399.90	84.26
400.09	110.01
400.28	51.49
400.47	133.41
400.67	156.82
400.86	124.05
401.05	100.64
401.24	140.43
401.44	86.60
401.63	105.32
401.82	79.58
402.01	117.03
402.21	65.54
402.40	84.26
402.59	110.01
402.78	110.01
402.97	107.66
403.17	166.18
403.36	119.37
403.55	79.58
403.74	51.49
403.93	126.39
404.13	292.57
404.32	138.09
404.51	135.75
404.70	131.07
404.89	126.39
405.09	182.56
405.28	81.92
405.47	131.07
405.66	0.00
405.85	124.05
406.05	91.28
406.24	86.60
406.43	67.88
406.62	126.39
406.81	126.39
407.00	117.03
407.20	124.05
407.39	117.03
407.58	126.39
407.77	88.94
407.96	126.39
408.15	105.32
408.34	67.88
408.54	112.35
408.73	53.83
408.92	105.32
409.11	81.92
409.30	105.32
409.49	42.13
409.68	79.58
409.87	91.28
410.07	98.30
410.26	91.28
410.45	98.30
410.64	110.01
410.83	107.66
411.02	39.79
411.21	86.60
411.40	0.00
411.59	72.56
411.78	95.96
411.98	63.19
412.17	110.01
412.36	114.69
412.55	65.54
412.74	77.24
412.93	215.33
413.12	65.54
413.31	102.98
413.50	95.96
413.69	180.22
413.88	110.01
414.07	49.15
414.26	112.35
414.45	173.20
414.64	126.39
414.83	126.39
415.02	98.30
415.22	131.07
415.41	154.48
415.60	152.13
415.79	112.35
415.98	128.73
416.17	142.77
416.36	156.82
416.55	58.51
416.74	105.32
416.93	159.16
417.12	159.16
417.31	182.56
417.50	210.65
417.69	217.67
417.88	210.65
418.07	163.84
418.26	142.77
418.45	147.45
418.64	194.26
418.83	250.44
419.02	198.95
419.21	231.71
419.39	161.50
419.58	203.63
419.77	194.26
419.96	217.67
420.15	117.03
420.34	72.56
420.53	110.01
420.72	154.48
420.91	117.03
421.10	156.82
421.29	121.71
421.48	72.56
421.67	98.30
421.86	135.75
422.05	72.56
422.24	86.60
422.43	58.51
422.61	91.28
422.80	147.45
422.99	140.43
423.18	166.18
423.37	100.64
423.56	126.39
423.75	149.79
423.94	124.05
424.13	46.81
424.32	133.41
424.50	133.41
424.69	117.03
424.88	163.84
425.07	51.49
425.26	175.54
425.45	259.80
425.64	205.97
425.83	301.93
426.01	203.63
426.20	105.32
426.39	91.28
426.58	161.50
426.77	110.01
426.96	145.11
427.15	163.84
427.33	119.37
427.52	131.07
427.71	196.60
427.90	156.82
428.09	142.77
428.28	88.94
428.46	117.03
428.65	124.05
428.84	142.77
429.03	117.03
429.22	100.64
429.40	95.96
429.59	51.49
429.78	145.11
429.97	182.56
430.16	56.17
430.34	142.77
430.53	88.94
430.72	79.58
430.91	187.24
431.10	110.01
431.28	107.66
431.47	60.85
431.66	149.79
431.85	175.54
432.03	86.60
432.22	77.24
432.41	112.35
432.60	191.92
432.79	182.56
432.97	301.93
433.16	348.74
433.35	243.42
433.54	156.82
433.72	135.75
433.91	81.92
434.10	175.54
434.28	187.24
434.47	177.88
434.66	142.77
434.85	182.56
435.03	152.13
435.22	168.52
435.41	124.05
435.59	35.11
435.78	77.24
435.97	121.71
436.16	81.92
436.34	117.03
436.53	135.75
436.72	131.07
436.90	49.15
437.09	145.11
437.28	49.15
437.46	142.77
437.65	138.09
437.84	138.09
438.02	119.37
438.21	152.13
438.40	131.07
438.58	121.71
438.77	180.22
438.96	77.24
439.14	25.75
439.33	128.73
439.52	154.48
439.70	81.92
439.89	229.37
440.08	138.09
440.26	117.03
440.45	152.13
440.63	112.35
440.82	180.22
441.01	168.52
441.19	133.41
441.38	112.35
441.57	145.11
441.75	124.05
441.94	74.90
442.12	135.75
442.31	161.50
442.50	72.56
442.68	156.82
442.87	117.03
443.05	98.30
443.24	72.56
443.43	208.31
443.61	166.18
443.80	222.35
443.98	166.18
444.17	145.11
444.35	135.75
444.54	142.77
444.73	145.11
444.91	135.75
445.10	131.07
445.28	100.64
445.47	138.09
445.65	180.22
445.84	117.03
446.02	114.69
446.21	100.64
446.39	49.15
446.58	124.05
446.77	114.69
446.95	63.19
447.14	180.22
447.32	152.13
447.51	70.22
447.69	67.88
447.88	184.90
448.06	187.24
448.25	128.73
448.43	37.45
448.62	156.82
448.80	163.84
448.99	124.05
449.17	98.30
449.36	138.09
449.54	91.28
449.73	112.35
449.91	152.13
450.10	198.95
450.28	205.97
450.46	180.22
450.65	189.58
450.83	198.95
451.02	105.32
451.20	121.71
451.39	93.62
451.57	93.62
451.76	121.71
451.94	105.32
452.13	112.35
452.31	135.75
452.49	107.66
452.68	112.35
452.86	170.86
453.05	175.54
453.23	152.13
453.42	93.62
453.60	121.71
453.78	156.82
453.97	152.13
454.15	142.77
454.34	177.88
454.52	107.66
454.70	175.54
454.89	121.71
455.07	203.63
455.26	119.37
455.44	107.66
455.62	135.75
455.81	131.07
455.99	156.82
456.17	231.71
456.36	112.35
456.54	149.79
456.73	161.50
456.91	189.58
457.09	152.13
457.28	107.66
457.46	184.90
457.64	44.47
457.83	114.69
458.01	156.82
458.19	147.45
458.38	159.16
458.56	102.98
458.74	93.62
458.93	147.45
459.11	70.22
459.29	133.41
459.48	138.09
459.66	166.18
459.84	67.88
460.03	187.24
460.21	107.66
460.39	142.77
460.57	177.88
460.76	119.37
460.94	145.11
461.12	180.22
461.31	243.42
461.49	173.20
461.67	175.54
461.85	140.43
462.04	117.03
462.22	629.60
462.40	112.35
462.59	163.84
462.77	238.73
462.95	131.07
463.13	145.11
463.32	152.13
463.50	168.52
463.68	215.33
463.86	105.32
464.05	86.60
464.23	156.82
464.41	177.88
464.59	117.03
464.78	170.86
464.96	105.32
465.14	170.86
465.32	84.26
465.50	149.79
465.69	100.64
465.87	154.48
466.05	212.99
466.23	133.41
466.41	107.66
466.60	184.90
466.78	142.77
466.96	173.20
467.14	255.12
467.32	198.95
467.51	210.65
467.69	138.09
467.87	140.43
468.05	168.52
468.23	187.24
468.41	133.41
468.60	149.79
468.78	166.18
468.96	198.95
469.14	114.69
469.32	131.07
469.50	140.43
469.69	142.77
469.87	149.79
470.05	163.84
470.23	133.41
470.41	152.13
470.59	236.39
470.77	131.07
470.95	196.60
471.14	194.26
471.32	156.82
471.50	189.58
471.68	168.52
471.86	152.13
472.04	145.11
472.22	210.65
472.40	63.19
472.58	105.32
472.77	170.86
472.95	135.75
473.13	159.16
473.31	168.52
473.49	65.54
473.67	170.86
473.85	142.77
474.03	93.62
474.21	138.09
474.39	159.16
474.57	201.29
474.75	187.24
474.93	147.45
475.12	107.66
475.30	100.64
475.48	105.32
475.66	117.03
475.84	102.98
476.02	135.75
476.20	156.82
476.38	154.48
476.56	259.80
476.74	131.07
476.92	182.56
477.10	131.07
477.28	189.58
477.46	126.39
477.64	217.67
477.82	117.03
478.00	140.43
478.18	72.56
478.36	156.82
478.54	189.58
478.72	119.37
478.90	135.75
479.08	182.56
479.26	81.92
479.44	152.13
479.62	180.22
479.80	114.69
479.98	133.41
480.16	145.11
480.34	135.75
480.52	105.32
480.70	145.11
480.88	145.11
481.06	152.13
481.24	95.96
481.41	152.13
481.59	177.88
481.77	217.67
481.95	126.39
482.13	189.58
482.31	166.18
482.49	98.30
482.67	147.45
482.85	156.82
483.03	173.20
483.21	77.24
483.39	135.75
483.57	173.20
483.74	163.84
483.92	161.50
484.10	175.54
484.28	184.90
484.46	205.97
484.64	117.03
484.82	163.84
485.00	175.54
485.18	161.50
485.35	124.05
485.53	138.09
485.71	131.07
485.89	133.41
486.07	203.63
486.25	215.33
486.43	198.95
486.61	177.88
486.78	114.69
486.96	205.97
487.14	142.77
487.32	152.13
487.50	107.66
487.68	220.01
487.85	135.75
488.03	140.43
488.21	154.48
488.39	128.73
488.57	220.01
488.75	135.75
488.92	414.27
489.10	147.45
489.28	222.35
489.46	159.16
489.64	135.75
489.81	177.88
489.99	201.29
490.17	119.37
490.35	203.63
490.53	91.28
490.70	159.16
490.88	198.95
491.06	147.45
491.24	159.16
491.41	128.73
491.59	196.60
491.77	145.11
491.95	156.82
492.13	135.75
492.30	236.39
492.48	138.09
492.66	168.52
492.84	184.90
493.01	234.05
493.19	187.24
493.37	241.08
493.54	191.92
493.72	208.31
493.90	189.58
494.08	133.41
494.25	126.39
494.43	138.09
494.61	208.31
494.79	177.88
494.96	159.16
495.14	222.35
495.32	145.11
495.49	184.90
495.67	241.08
495.85	152.13
496.02	205.97
496.20	196.60
496.38	208.31
496.55	117.03
496.73	180.22
496.91	161.50
497.09	187.24
497.26	168.52
497.44	184.90
497.62	142.77
497.79	212.99
497.97	182.56
498.14	234.05
498.32	166.18
498.50	196.60
498.67	180.22
498.85	156.82
499.03	212.99
499.20	184.90
499.38	189.58
499.56	205.97
499.73	271.50
499.91	187.24
500.08	149.79
500.26	208.31
500.44	128.73
500.61	161.50
500.79	201.29
500.97	189.58
501.14	180.22
501.32	208.31
501.49	205.97
501.67	210.65
501.84	191.92
502.02	149.79
502.20	154.48
502.37	173.20
502.55	241.08
502.72	194.26
502.90	222.35
503.07	220.01
503.25	234.05
503.43	208.31
503.60	191.92
503.78	142.77
503.95	264.48
504.13	187.24
504.30	252.78
504.48	231.71
504.65	257.46
504.83	114.69
505.01	154.48
505.18	257.46
505.36	175.54
505.53	142.77
505.71	191.92
505.88	264.48
506.06	182.56
506.23	212.99
506.41	187.24
506.58	121.71
506.76	156.82
506.93	110.01
507.11	231.71
507.28	128.73
507.46	168.52
507.63	212.99
507.81	161.50
507.98	170.86
508.16	245.76
508.33	147.45
508.50	220.01
508.68	138.09
508.85	220.01
509.03	236.39
509.20	217.67
509.38	273.84
509.55	255.12
509.73	248.10
509.90	292.57
510.08	243.42
510.25	234.05
510.42	161.50
510.60	187.24
510.77	248.10
510.95	241.08
511.12	220.01
511.30	273.84
511.47	322.99
511.64	257.46
511.82	278.52
511.99	238.73
512.17	215.33
512.34	177.88
512.51	147.45
512.69	177.88
512.86	224.69
513.04	191.92
513.21	222.35
513.38	166.18
513.56	273.84
513.73	166.18
513.90	147.45
514.08	184.90
514.25	224.69
514.43	241.08
514.60	212.99
514.77	222.35
514.95	194.26
515.12	224.69
515.29	283.20
515.47	198.95
515.64	215.33
515.81	191.92
515.99	105.32
516.16	222.35
516.33	229.37
516.51	255.12
516.68	140.43
516.85	149.79
517.03	215.33
517.20	147.45
517.37	163.84
517.54	208.31
517.72	194.26
517.89	154.48
518.06	145.11
518.24	245.76
518.41	238.73
518.58	259.80
518.75	215.33
518.93	191.92
519.10	224.69
519.27	257.46
519.45	175.54
519.62	215.33
519.79	147.45
519.96	210.65
520.14	161.50
520.31	259.80
520.48	236.39
520.65	238.73
520.83	189.58
521.00	217.67
521.17	248.10
521.34	259.80
521.52	182.56
521.69	220.01
521.86	166.18
522.03	215.33
522.20	229.37
522.38	201.29
522.55	166.18
522.72	121.71
522.89	245.76
523.07	276.18
523.24	212.99
523.41	175.54
523.58	210.65
523.75	241.08
523.92	142.77
524.10	229.37
524.27	203.63
524.44	159.16
524.61	238.73
524.78	210.65
524.96	177.88
525.13	215.33
525.30	266.82
525.47	203.63
525.64	203.63
525.81	198.95
525.98	175.54
526.16	166.18
526.33	215.33
526.50	231.71
526.67	138.09
526.84	187.24
527.01	189.58
527.18	229.37
527.36	149.79
527.53	142.77
527.70	229.37
527.87	224.69
528.04	227.03
528.21	184.90
528.38	224.69
528.55	297.25
528.72	269.16
528.89	262.14
529.07	248.10
529.24	234.05
529.41	236.39
529.58	168.52
529.75	191.92
529.92	203.63
530.09	252.78
530.26	159.16
530.43	159.16
530.60	114.69
530.77	234.05
530.94	187.24
531.11	205.97
531.28	227.03
531.46	229.37
531.63	191.92
531.80	180.22
531.97	250.44
532.14	236.39
532.31	236.39
532.48	264.48
532.65	367.46
532.82	423.64
532.99	383.85
533.16	407.25
533.33	348.74
533.50	238.73
533.67	332.36
533.84	470.45
534.01	535.98
534.18	416.62
534.35	386.19
534.52	318.31
534.69	285.55
534.86	255.12
535.03	161.50
535.20	170.86
535.37	234.05
535.54	217.67
535.71	168.52
535.88	205.97
536.05	229.37
536.22	278.52
536.38	210.65
536.55	194.26
536.72	290.23
536.89	203.63
537.06	210.65
537.23	212.99
537.40	220.01
537.57	170.86
537.74	273.84
537.91	229.37
538.08	212.99
538.25	215.33
538.42	227.03
538.59	98.30
538.75	266.82
538.92	292.57
539.09	297.25
539.26	276.18
539.43	575.77
539.60	1327.08
539.77	2167.34
539.94	2090.10
540.11	1345.81
540.28	823.87
540.44	561.73
540.61	297.25
540.78	210.65
540.95	203.63
541.12	187.24
541.29	175.54
541.46	205.97
541.62	259.80
541.79	194.26
541.96	234.05
542.13	201.29
542.30	196.60
542.47	271.50
542.63	210.65
542.80	227.03
542.97	252.78
543.14	208.31
543.31	196.60
543.48	252.78
543.64	290.23
543.81	177.88
543.98	243.42
544.15	215.33
544.32	238.73
544.48	231.71
544.65	191.92
544.82	217.67
544.99	210.65
545.16	255.12
545.32	208.31
545.49	198.95
545.66	262.14
545.83	191.92
546.00	194.26
546.16	208.31
546.33	187.24
546.50	208.31
546.67	243.42
546.83	266.82
547.00	212.99
547.17	210.65
547.34	205.97
547.50	194.26
547.67	220.01
547.84	191.92
548.00	231.71
548.17	205.97
548.34	180.22
548.51	177.88
548.67	142.77
548.84	250.44
549.01	259.80
549.18	224.69
549.34	250.44
549.51	255.12
549.68	196.60
549.84	184.90
550.01	245.76
550.18	308.95
550.34	278.52
550.51	194.26
550.68	248.10
550.84	252.78
551.01	252.78
551.18	217.67
551.34	278.52
551.51	217.67
551.68	180.22
551.84	243.42
552.01	191.92
552.18	142.77
552.34	212.99
552.51	201.29
552.68	152.13
552.84	229.37
553.01	142.77
553.18	227.03
553.34	201.29
553.51	180.22
553.67	227.03
553.84	236.39
554.01	266.82
554.17	182.56
554.34	198.95
554.51	210.65
554.67	238.73
554.84	217.67
555.00	224.69
555.17	182.56
555.33	280.86
555.50	264.48
555.67	243.42
555.83	212.99
556.00	252.78
556.16	416.62
556.33	269.16
556.50	138.09
556.66	280.86
556.83	79.58
556.99	152.13
557.16	215.33
557.32	234.05
557.49	212.99
557.65	304.27
557.82	196.60
557.98	220.01
558.15	208.31
558.32	212.99
558.48	149.79
558.65	175.54
558.81	229.37
558.98	170.86
559.14	252.78
559.31	245.76
559.47	170.86
559.64	194.26
559.80	201.29
559.97	210.65
560.13	205.97
560.30	220.01
560.46	133.41
560.63	257.46
560.79	180.22
560.96	238.73
561.12	217.67
561.29	198.95
561.45	301.93
561.61	128.73
561.78	259.80
561.94	215.33
562.11	166.18
562.27	184.90
562.44	119.37
562.60	234.05
562.77	236.39
562.93	334.70
563.10	201.29
563.26	212.99
563.42	210.65
563.59	222.35
563.75	161.50
563.92	227.03
564.08	201.29
564.24	201.29
564.41	161.50
564.57	215.33
564.74	231.71
564.90	229.37
565.07	203.63
565.23	327.68
565.39	304.27
565.56	285.55
565.72	182.56
565.88	224.69
566.05	297.25
566.21	191.92
566.38	252.78
566.54	234.05
566.70	273.84
566.87	189.58
567.03	177.88
567.19	231.71
567.36	290.23
567.52	222.35
567.68	191.92
567.85	135.75
568.01	191.92
568.17	147.45
568.34	229.37
568.50	283.20
568.66	198.95
568.83	318.31
568.99	215.33
569.15	198.95
569.32	196.60
569.48	191.92
569.64	205.97
569.81	306.61
569.97	173.20
570.13	124.05
570.30	224.69
570.46	187.24
570.62	215.33
570.78	168.52
570.95	210.65
571.11	231.71
571.27	304.27
571.43	306.61
571.60	198.95
571.76	191.92
571.92	175.54
572.09	236.39
572.25	102.98
572.41	173.20
572.57	198.95
572.74	236.39
572.90	170.86
573.06	201.29
573.22	217.67
573.38	227.03
573.55	262.14
573.71	210.65
573.87	245.76
574.03	184.90
574.20	264.48
574.36	245.76
574.52	304.27
574.68	409.59
574.84	264.48
575.01	252.78
575.17	269.16
575.33	187.24
575.49	325.33
575.65	229.37
575.82	374.49
575.98	678.76
576.14	868.34
576.30	999.41
576.46	662.37
576.62	540.66
576.79	386.19
576.95	393.21
577.11	315.97
577.27	217.67
577.43	332.36
577.59	252.78
577.75	294.91
577.92	269.16
578.08	255.12
578.24	252.78
578.40	227.03
578.56	257.46
578.72	304.27
578.88	294.91
579.04	348.74
579.21	322.99
579.37	287.89
579.53	379.17
579.69	353.42
579.85	341.72
580.01	397.89
580.17	498.53
580.33	468.11
580.49	402.57
580.65	308.95
580.82	404.91
580.98	416.62
581.14	315.97
581.30	430.66
581.46	547.69
581.62	638.97
581.78	746.63
581.94	727.91
582.10	528.96
582.26	594.50
582.42	524.28
582.58	486.83
582.74	479.81
582.90	463.43
583.06	512.58
583.22	491.51
583.38	491.51
583.54	603.86
583.70	737.27
583.86	819.19
584.02	1004.09
584.18	1198.35
584.34	1547.09
584.50	4503.19
584.66	34965.26
584.82	65535.00
584.98	65535.00
585.14	65535.00
585.30	65127.75
585.46	44793.17
585.62	27314.05
585.78	12510.16
585.94	4793.42
586.10	2251.60
586.26	1432.41
586.42	1130.48
586.58	940.90
586.74	847.27
586.90	734.93
587.06	697.48
587.22	657.69
587.38	641.31
587.54	1645.40
587.70	5123.43
587.86	8791.05
588.02	9701.52
588.18	6949.05
588.34	4407.23
588.49	2731.41
588.65	1610.29
588.81	851.96
588.97	496.19
589.13	454.06
589.29	327.68
589.45	365.12
589.61	271.50
589.77	461.09
589.93	554.71
590.08	596.84
590.24	442.36
590.40	540.66
590.56	472.79
590.72	423.64
590.88	290.23
591.04	355.76
591.20	383.85
591.35	430.66
591.51	344.06
591.67	304.27
591.83	341.72
591.99	280.86
592.15	360.44
592.31	273.84
592.46	248.10
592.62	367.46
592.78	283.20
592.94	259.80
593.10	376.83
593.26	318.31
593.41	470.45
593.57	451.72
593.73	638.97
593.89	4002.32
594.05	11042.65
594.20	16552.27
594.36	16140.33
594.52	10375.59
594.68	6487.96
594.84	4248.07
594.99	2303.09
595.15	1074.31
595.31	589.82
595.47	470.45
595.62	360.44
595.78	255.12
595.94	306.61
596.10	418.96
596.25	318.31
596.41	411.93
596.57	313.63
596.73	353.42
596.88	664.71
597.04	1902.86
597.20	3300.16
597.36	3953.16
597.51	3059.08
597.67	2094.78
597.83	1357.51
597.99	866.00
598.14	533.64
598.30	458.74
598.46	358.10
598.61	383.85
598.77	290.23
598.93	290.23
599.09	294.91
599.24	325.33
599.40	262.14
599.56	330.02
599.71	236.39
599.87	245.76
600.03	241.08
600.18	227.03
600.34	283.20
600.50	250.44
600.65	234.05
600.81	271.50
600.97	224.69
601.12	259.80
601.28	212.99
601.44	269.16
601.59	234.05
601.75	220.01
601.91	262.14
602.06	315.97
602.22	365.12
602.37	973.66
602.53	2394.37
602.69	4058.49
602.84	4334.67
603.00	3110.57
603.16	2024.56
603.31	1343.47
603.47	950.26
603.62	620.24
603.78	322.99
603.94	334.70
604.09	355.76
604.25	318.31
604.40	315.97
604.56	294.91
604.71	229.37
604.87	266.82
605.03	215.33
605.18	327.68
605.34	287.89
605.49	297.25
605.65	271.50
605.80	259.80
605.96	315.97
606.12	297.25
606.27	418.96
606.43	397.89
606.58	414.27
606.74	1064.94
606.89	4985.34
607.05	10651.78
607.20	14785.16
607.36	11782.26
607.51	7679.30
607.67	4854.27
607.82	3300.16
607.98	1853.70
608.13	884.72
608.29	470.45
608.44	533.64
608.60	512.58
608.75	641.31
608.91	1612.63
609.06	8025.70
609.22	18108.72
609.37	25195.87
609.53	21689.74
609.68	14228.12
609.84	9011.06
609.99	5930.92
610.15	3131.64
610.30	1465.18
610.46	751.31
610.61	585.13
610.76	407.25
610.92	416.62
611.07	383.85
611.23	430.66
611.38	367.46
611.54	428.32
