SpectraSuite Data File
++++++++++++++++++++++++++++++++++++
Date: Fri Oct 04 11:47:24 GMT-05:00 2013
User: price-jones
Dark Spectrum Present: No
Reference Spectrum Present: No
Number of Sampled Component Spectra: 1
Spectrometers: USB2+H05261
Integration Time (usec): 100000 (USB2+H05261)
Spectra Averaged: 1 (USB2+H05261)
Boxcar Smoothing: 0 (USB2+H05261)
Correct for Electrical Dark: No (USB2+H05261)
Strobe/Lamp Enabled: No (USB2+H05261)
Correct for Detector Non-linearity: No (USB2+H05261)
Correct for Stray Light: No (USB2+H05261)
Number of Pixels in Processed Spectrum: 2048
>>>>>Begin Processed Spectral Data<<<<<
365.73	0.00
365.92	0.00
366.12	0.00
366.32	0.00
366.52	0.00
366.72	0.00
366.91	16.38
367.11	0.00
367.31	0.00
367.51	0.00
367.70	0.00
367.90	0.00
368.10	0.00
368.30	0.00
368.49	0.00
368.69	0.00
368.89	0.00
369.09	0.00
369.28	0.00
369.48	0.00
369.68	18.72
369.87	0.00
370.07	11.70
370.27	35.11
370.47	16.38
370.66	0.00
370.86	30.43
371.06	56.17
371.25	128.73
371.45	30.43
371.65	95.96
371.84	49.15
372.04	0.00
372.24	145.11
372.44	156.82
372.63	138.09
372.83	124.05
373.03	117.03
373.22	28.09
373.42	65.54
373.62	100.64
373.81	100.64
374.01	147.45
374.21	166.18
374.40	102.98
374.60	110.01
374.79	91.28
374.99	107.66
375.19	112.35
375.38	138.09
375.58	166.18
375.78	154.48
375.97	145.11
376.17	161.50
376.37	105.32
376.56	161.50
376.76	95.96
376.95	67.88
377.15	58.51
377.35	98.30
377.54	154.48
377.74	119.37
377.93	112.35
378.13	81.92
378.33	175.54
378.52	149.79
378.72	128.73
378.91	135.75
379.11	58.51
379.31	51.49
379.50	67.88
379.70	124.05
379.89	102.98
380.09	11.70
380.28	98.30
380.48	126.39
380.68	121.71
380.87	65.54
381.07	154.48
381.26	145.11
381.46	138.09
381.65	121.71
381.85	119.37
382.04	110.01
382.24	138.09
382.43	173.20
382.63	65.54
382.83	65.54
383.02	98.30
383.22	14.04
383.41	58.51
383.61	147.45
383.80	149.79
384.00	70.22
384.19	102.98
384.39	107.66
384.58	70.22
384.78	72.56
384.97	93.62
385.17	159.16
385.36	56.17
385.56	121.71
385.75	100.64
385.95	72.56
386.14	175.54
386.34	79.58
386.53	100.64
386.72	142.77
386.92	70.22
387.11	81.92
387.31	88.94
387.50	42.13
387.70	79.58
387.89	180.22
388.09	98.30
388.28	60.85
388.48	77.24
388.67	126.39
388.86	133.41
389.06	88.94
389.25	142.77
389.45	110.01
389.64	117.03
389.84	154.48
390.03	191.92
390.22	131.07
390.42	117.03
390.61	98.30
390.81	67.88
391.00	60.85
391.19	110.01
391.39	128.73
391.58	126.39
391.78	145.11
391.97	117.03
392.16	168.52
392.36	119.37
392.55	79.58
392.75	81.92
392.94	70.22
393.13	107.66
393.33	126.39
393.52	121.71
393.71	166.18
393.91	166.18
394.10	145.11
394.29	124.05
394.49	7.02
394.68	124.05
394.88	175.54
395.07	149.79
395.26	107.66
395.46	138.09
395.65	114.69
395.84	81.92
396.04	142.77
396.23	84.26
396.42	105.32
396.62	114.69
396.81	102.98
397.00	79.58
397.19	126.39
397.39	95.96
397.58	170.86
397.77	91.28
397.97	95.96
398.16	105.32
398.35	215.33
398.55	175.54
398.74	131.07
398.93	210.65
399.12	79.58
399.32	173.20
399.51	79.58
399.70	128.73
399.90	168.52
400.09	168.52
400.28	161.50
400.47	93.62
400.67	74.90
400.86	110.01
401.05	159.16
401.24	149.79
401.44	149.79
401.63	159.16
401.82	182.56
402.01	154.48
402.21	131.07
402.40	154.48
402.59	145.11
402.78	170.86
402.97	189.58
403.17	102.98
403.36	173.20
403.55	147.45
403.74	46.81
403.93	114.69
404.13	117.03
404.32	67.88
404.51	217.67
404.70	149.79
404.89	156.82
405.09	212.99
405.28	147.45
405.47	93.62
405.66	177.88
405.85	173.20
406.05	138.09
406.24	102.98
406.43	170.86
406.62	163.84
406.81	182.56
407.00	241.08
407.20	74.90
407.39	133.41
407.58	124.05
407.77	184.90
407.96	60.85
408.15	173.20
408.34	110.01
408.54	149.79
408.73	201.29
408.92	177.88
409.11	161.50
409.30	189.58
409.49	194.26
409.68	152.13
409.87	93.62
410.07	238.73
410.26	79.58
410.45	114.69
410.64	88.94
410.83	124.05
411.02	135.75
411.21	187.24
411.40	215.33
411.59	142.77
411.78	124.05
411.98	159.16
412.17	138.09
412.36	128.73
412.55	175.54
412.74	229.37
412.93	208.31
413.12	95.96
413.31	215.33
413.50	170.86
413.69	224.69
413.88	191.92
414.07	124.05
414.26	117.03
414.45	168.52
414.64	154.48
414.83	163.84
415.02	117.03
415.22	154.48
415.41	208.31
415.60	182.56
415.79	124.05
415.98	156.82
416.17	196.60
416.36	163.84
416.55	110.01
416.74	182.56
416.93	212.99
417.12	175.54
417.31	124.05
417.50	156.82
417.69	194.26
417.88	212.99
418.07	159.16
418.26	105.32
418.45	107.66
418.64	161.50
418.83	128.73
419.02	177.88
419.21	168.52
419.39	112.35
419.58	135.75
419.77	138.09
419.96	184.90
420.15	273.84
420.34	152.13
420.53	147.45
420.72	201.29
420.91	140.43
421.10	231.71
421.29	128.73
421.48	273.84
421.67	159.16
421.86	184.90
422.05	170.86
422.24	70.22
422.43	177.88
422.61	229.37
422.80	173.20
422.99	119.37
423.18	201.29
423.37	170.86
423.56	248.10
423.75	210.65
423.94	180.22
424.13	135.75
424.32	159.16
424.50	159.16
424.69	124.05
424.88	203.63
425.07	126.39
425.26	180.22
425.45	168.52
425.64	182.56
425.83	180.22
426.01	248.10
426.20	215.33
426.39	154.48
426.58	187.24
426.77	215.33
426.96	168.52
427.15	194.26
427.33	168.52
427.52	177.88
427.71	91.28
427.90	163.84
428.09	205.97
428.28	91.28
428.46	198.95
428.65	198.95
428.84	154.48
429.03	224.69
429.22	224.69
429.40	161.50
429.59	126.39
429.78	110.01
429.97	114.69
430.16	147.45
430.34	91.28
430.53	140.43
430.72	145.11
430.91	250.44
431.10	196.60
431.28	227.03
431.47	224.69
431.66	196.60
431.85	252.78
432.03	84.26
432.22	198.95
432.41	152.13
432.60	238.73
432.79	145.11
432.97	166.18
433.16	203.63
433.35	107.66
433.54	102.98
433.72	138.09
433.91	156.82
434.10	243.42
434.28	187.24
434.47	194.26
434.66	184.90
434.85	212.99
435.03	168.52
435.22	229.37
435.41	330.02
435.59	198.95
435.78	191.92
435.97	121.71
436.16	173.20
436.34	238.73
436.53	121.71
436.72	271.50
436.90	236.39
437.09	208.31
437.28	121.71
437.46	208.31
437.65	215.33
437.84	184.90
438.02	114.69
438.21	224.69
438.40	191.92
438.58	196.60
438.77	149.79
438.96	227.03
439.14	161.50
439.33	210.65
439.52	163.84
439.70	259.80
439.89	224.69
440.08	217.67
440.26	187.24
440.45	241.08
440.63	184.90
440.82	149.79
441.01	227.03
441.19	220.01
441.38	257.46
441.57	187.24
441.75	259.80
441.94	299.59
442.12	234.05
442.31	203.63
442.50	145.11
442.68	194.26
442.87	259.80
443.05	208.31
443.24	201.29
443.43	252.78
443.61	212.99
443.80	145.11
443.98	210.65
444.17	231.71
444.35	208.31
444.54	105.32
444.73	184.90
444.91	224.69
445.10	222.35
445.28	196.60
445.47	203.63
445.65	212.99
445.84	156.82
446.02	147.45
446.21	187.24
446.39	220.01
446.58	203.63
446.77	187.24
446.95	243.42
447.14	184.90
447.32	259.80
447.51	163.84
447.69	131.07
447.88	203.63
448.06	215.33
448.25	210.65
448.43	187.24
448.62	138.09
448.80	215.33
448.99	173.20
449.17	236.39
449.36	182.56
449.54	280.86
449.73	252.78
449.91	234.05
450.10	243.42
450.28	287.89
450.46	241.08
450.65	292.57
450.83	203.63
451.02	224.69
451.20	241.08
451.39	238.73
451.57	124.05
451.76	175.54
451.94	227.03
452.13	224.69
452.31	159.16
452.49	248.10
452.68	170.86
452.86	231.71
453.05	203.63
453.23	262.14
453.42	152.13
453.60	241.08
453.78	224.69
453.97	227.03
454.15	189.58
454.34	196.60
454.52	252.78
454.70	273.84
454.89	278.52
455.07	140.43
455.26	243.42
455.44	187.24
455.62	205.97
455.81	227.03
455.99	182.56
456.17	224.69
456.36	196.60
456.54	248.10
456.73	250.44
456.91	222.35
457.09	180.22
457.28	245.76
457.46	187.24
457.64	264.48
457.83	212.99
458.01	220.01
458.19	229.37
458.38	212.99
458.56	229.37
458.74	191.92
458.93	285.55
459.11	245.76
459.29	227.03
459.48	306.61
459.66	259.80
459.84	255.12
460.03	327.68
460.21	238.73
460.39	210.65
460.57	234.05
460.76	245.76
460.94	208.31
461.12	311.29
461.31	372.15
461.49	217.67
461.67	203.63
461.85	138.09
462.04	187.24
462.22	669.39
462.40	262.14
462.59	175.54
462.77	182.56
462.95	222.35
463.13	234.05
463.32	255.12
463.50	311.29
463.68	220.01
463.86	308.95
464.05	238.73
464.23	250.44
464.41	250.44
464.59	168.52
464.78	194.26
464.96	224.69
465.14	292.57
465.32	245.76
465.50	191.92
465.69	278.52
465.87	198.95
466.05	262.14
466.23	236.39
466.41	198.95
466.60	220.01
466.78	145.11
466.96	250.44
467.14	283.20
467.32	203.63
467.51	227.03
467.69	168.52
467.87	241.08
468.05	215.33
468.23	290.23
468.41	229.37
468.60	252.78
468.78	170.86
468.96	194.26
469.14	278.52
469.32	182.56
469.50	177.88
469.69	114.69
469.87	110.01
470.05	259.80
470.23	280.86
470.41	173.20
470.59	194.26
470.77	156.82
470.95	262.14
471.14	358.10
471.32	231.71
471.50	313.63
471.68	135.75
471.86	220.01
472.04	245.76
472.22	236.39
472.40	180.22
472.58	98.30
472.77	142.77
472.95	220.01
473.13	299.59
473.31	231.71
473.49	224.69
473.67	227.03
473.85	236.39
474.03	248.10
474.21	250.44
474.39	315.97
474.57	245.76
474.75	227.03
474.93	217.67
475.12	262.14
475.30	255.12
475.48	271.50
475.66	170.86
475.84	241.08
476.02	170.86
476.20	229.37
476.38	208.31
476.56	292.57
476.74	252.78
476.92	234.05
477.10	175.54
477.28	224.69
477.46	255.12
477.64	243.42
477.82	217.67
478.00	229.37
478.18	276.18
478.36	205.97
478.54	215.33
478.72	217.67
478.90	227.03
479.08	180.22
479.26	231.71
479.44	271.50
479.62	238.73
479.80	212.99
479.98	241.08
480.16	210.65
480.34	262.14
480.52	313.63
480.70	299.59
480.88	278.52
481.06	224.69
481.24	177.88
481.41	248.10
481.59	330.02
481.77	299.59
481.95	287.89
482.13	248.10
482.31	290.23
482.49	243.42
482.67	276.18
482.85	330.02
483.03	334.70
483.21	196.60
483.39	241.08
483.57	257.46
483.74	299.59
483.92	252.78
484.10	304.27
484.28	327.68
484.46	395.55
484.64	257.46
484.82	318.31
485.00	297.25
485.18	264.48
485.35	269.16
485.53	245.76
485.71	320.65
485.89	217.67
486.07	273.84
486.25	374.49
486.43	301.93
486.61	292.57
486.78	208.31
486.96	187.24
487.14	318.31
487.32	297.25
487.50	163.84
487.68	318.31
487.85	299.59
488.03	217.67
488.21	325.33
488.39	315.97
488.57	287.89
488.75	269.16
488.92	596.84
489.10	285.55
489.28	372.15
489.46	269.16
489.64	334.70
489.81	351.08
489.99	325.33
490.17	306.61
490.35	416.62
490.53	220.01
490.70	301.93
490.88	355.76
491.06	308.95
491.24	318.31
491.41	388.53
491.59	348.74
491.77	269.16
491.95	339.38
492.13	276.18
492.30	273.84
492.48	358.10
492.66	332.36
492.84	318.31
493.01	292.57
493.19	315.97
493.37	381.51
493.54	313.63
493.72	320.65
493.90	315.97
494.08	341.72
494.25	411.93
494.43	369.80
494.61	301.93
494.79	360.44
494.96	351.08
495.14	372.15
495.32	320.65
495.49	341.72
495.67	299.59
495.85	390.87
496.02	320.65
496.20	355.76
496.38	318.31
496.55	341.72
496.73	411.93
496.91	339.38
497.09	315.97
497.26	355.76
497.44	428.32
497.62	299.59
497.79	372.15
497.97	341.72
498.14	299.59
498.32	358.10
498.50	322.99
498.67	269.16
498.85	355.76
499.03	287.89
499.20	306.61
499.38	304.27
499.56	390.87
499.73	365.12
499.91	358.10
500.08	311.29
500.26	351.08
500.44	297.25
500.61	306.61
500.79	341.72
500.97	388.53
501.14	393.21
501.32	383.85
501.49	451.72
501.67	306.61
501.84	393.21
502.02	353.42
502.20	383.85
502.37	390.87
502.55	304.27
502.72	372.15
502.90	365.12
503.07	358.10
503.25	379.17
503.43	369.80
503.60	337.04
503.78	287.89
503.95	266.82
504.13	374.49
504.30	409.59
504.48	346.40
504.65	360.44
504.83	325.33
505.01	421.30
505.18	369.80
505.36	355.76
505.53	362.78
505.71	374.49
505.88	416.62
506.06	416.62
506.23	433.00
506.41	330.02
506.58	381.51
506.76	334.70
506.93	313.63
507.11	362.78
507.28	360.44
507.46	402.57
507.63	360.44
507.81	308.95
507.98	381.51
508.16	285.55
508.33	402.57
508.50	386.19
508.68	344.06
508.85	388.53
509.03	339.38
509.20	367.46
509.38	444.70
509.55	388.53
509.73	358.10
509.90	376.83
510.08	388.53
510.25	341.72
510.42	376.83
510.60	407.25
510.77	381.51
510.95	411.93
511.12	428.32
511.30	411.93
511.47	479.81
511.64	505.56
511.82	360.44
511.99	430.66
512.17	425.98
512.34	355.76
512.51	400.23
512.69	390.87
512.86	435.34
513.04	402.57
513.21	461.09
513.38	311.29
513.56	365.12
513.73	383.85
513.90	299.59
514.08	353.42
514.25	325.33
514.43	362.78
514.60	393.21
514.77	449.38
514.95	355.76
515.12	383.85
515.29	423.64
515.47	400.23
515.64	390.87
515.81	381.51
515.99	463.43
516.16	461.09
516.33	383.85
516.51	360.44
516.68	358.10
516.85	339.38
517.03	250.44
517.20	353.42
517.37	402.57
517.54	372.15
517.72	454.06
517.89	346.40
518.06	341.72
518.24	428.32
518.41	425.98
518.58	430.66
518.75	372.15
518.93	461.09
519.10	376.83
519.27	454.06
519.45	390.87
519.62	449.38
519.79	425.98
519.96	407.25
520.14	339.38
520.31	411.93
520.48	379.17
520.65	358.10
520.83	414.27
521.00	437.68
521.17	379.17
521.34	393.21
521.52	423.64
521.69	411.93
521.86	444.70
522.03	444.70
522.20	322.99
522.38	374.49
522.55	461.09
522.72	379.17
522.89	397.89
523.07	496.19
523.24	409.59
523.41	447.04
523.58	507.90
523.75	444.70
523.92	477.47
524.10	372.15
524.27	428.32
524.44	365.12
524.61	454.06
524.78	416.62
524.96	407.25
525.13	418.96
525.30	390.87
525.47	421.30
525.64	454.06
525.81	442.36
525.98	423.64
526.16	315.97
526.33	292.57
526.50	348.74
526.67	409.59
526.84	351.08
527.01	397.89
527.18	355.76
527.36	409.59
527.53	404.91
527.70	463.43
527.87	475.13
528.04	475.13
528.21	395.55
528.38	461.09
528.55	458.74
528.72	437.68
528.89	381.51
529.07	395.55
529.24	482.15
529.41	484.49
529.58	360.44
529.75	376.83
529.92	421.30
530.09	454.06
530.26	423.64
530.43	456.40
530.60	425.98
530.77	376.83
530.94	517.26
531.11	465.77
531.28	465.77
531.46	418.96
531.63	454.06
531.80	472.79
531.97	376.83
532.14	470.45
532.31	428.32
532.48	414.27
532.65	425.98
532.82	444.70
532.99	430.66
533.16	437.68
533.33	409.59
533.50	472.79
533.67	388.53
533.84	402.57
534.01	437.68
534.18	376.83
534.35	393.21
534.52	418.96
534.69	430.66
534.86	386.19
535.03	479.81
535.20	402.57
535.37	430.66
535.54	463.43
535.71	416.62
535.88	519.60
536.05	346.40
536.22	416.62
536.38	388.53
536.55	425.98
536.72	411.93
536.89	369.80
537.06	519.60
537.23	430.66
537.40	409.59
537.57	407.25
537.74	423.64
537.91	437.68
538.08	461.09
538.25	409.59
538.42	491.51
538.59	372.15
538.75	416.62
538.92	404.91
539.09	414.27
539.26	500.87
539.43	397.89
539.60	390.87
539.77	390.87
539.94	435.34
540.11	433.00
540.28	400.23
540.44	411.93
540.61	414.27
540.78	374.49
540.95	341.72
541.12	418.96
541.29	414.27
541.46	440.02
541.62	411.93
541.79	447.04
541.96	383.85
542.13	386.19
542.30	433.00
542.47	430.66
542.63	414.27
542.80	348.74
542.97	496.19
543.14	365.12
543.31	440.02
543.48	327.68
543.64	376.83
543.81	409.59
543.98	411.93
544.15	379.17
544.32	447.04
544.48	348.74
544.65	369.80
544.82	411.93
544.99	430.66
545.16	360.44
545.32	379.17
545.49	423.64
545.66	421.30
545.83	379.17
546.00	421.30
546.16	416.62
546.33	498.53
546.50	425.98
546.67	468.11
546.83	383.85
547.00	379.17
547.17	362.78
547.34	449.38
547.50	367.46
547.67	484.49
547.84	397.89
548.00	444.70
548.17	416.62
548.34	449.38
548.51	421.30
548.67	447.04
548.84	435.34
549.01	421.30
549.18	425.98
549.34	435.34
549.51	444.70
549.68	423.64
549.84	341.72
550.01	437.68
550.18	519.60
550.34	500.87
550.51	360.44
550.68	470.45
550.84	461.09
551.01	416.62
551.18	433.00
551.34	402.57
551.51	404.91
551.68	451.72
551.84	433.00
552.01	330.02
552.18	379.17
552.34	451.72
552.51	313.63
552.68	414.27
552.84	411.93
553.01	440.02
553.18	393.21
553.34	360.44
553.51	393.21
553.67	440.02
553.84	465.77
554.01	482.15
554.17	400.23
554.34	437.68
554.51	482.15
554.67	447.04
554.84	517.26
555.00	461.09
555.17	351.08
555.33	472.79
555.50	430.66
555.67	402.57
555.83	346.40
556.00	425.98
556.16	662.37
556.33	433.00
556.50	334.70
556.66	416.62
556.83	362.78
556.99	468.11
557.16	369.80
557.32	376.83
557.49	388.53
557.65	475.13
557.82	383.85
557.98	449.38
558.15	397.89
558.32	440.02
558.48	372.15
558.65	416.62
558.81	381.51
558.98	339.38
559.14	372.15
559.31	409.59
559.47	407.25
559.64	388.53
559.80	372.15
559.97	369.80
560.13	320.65
560.30	409.59
560.46	376.83
560.63	447.04
560.79	304.27
560.96	404.91
561.12	435.34
561.29	414.27
561.45	369.80
561.61	409.59
561.78	535.98
561.94	390.87
562.11	311.29
562.27	379.17
562.44	440.02
562.60	393.21
562.77	470.45
562.93	482.15
563.10	418.96
563.26	456.40
563.42	369.80
563.59	313.63
563.75	400.23
563.92	423.64
564.08	437.68
564.24	461.09
564.41	463.43
564.57	388.53
564.74	358.10
564.90	393.21
565.07	299.59
565.23	372.15
565.39	304.27
565.56	311.29
565.72	301.93
565.88	290.23
566.05	360.44
566.21	400.23
566.38	337.04
566.54	395.55
566.70	369.80
566.87	362.78
567.03	322.99
567.19	376.83
567.36	454.06
567.52	388.53
567.68	390.87
567.85	327.68
568.01	388.53
568.17	271.50
568.34	365.12
568.50	372.15
568.66	348.74
568.83	447.04
568.99	362.78
569.15	351.08
569.32	393.21
569.48	351.08
569.64	301.93
569.81	330.02
569.97	339.38
570.13	346.40
570.30	395.55
570.46	308.95
570.62	479.81
570.78	325.33
570.95	374.49
571.11	404.91
571.27	444.70
571.43	390.87
571.60	416.62
571.76	365.12
571.92	351.08
572.09	388.53
572.25	411.93
572.41	358.10
572.57	358.10
572.74	388.53
572.90	388.53
573.06	390.87
573.22	344.06
573.38	486.83
573.55	369.80
573.71	400.23
573.87	388.53
574.03	390.87
574.20	390.87
574.36	489.17
574.52	369.80
574.68	414.27
574.84	428.32
575.01	353.42
575.17	362.78
575.33	304.27
575.49	416.62
575.65	416.62
575.82	313.63
575.98	355.76
576.14	407.25
576.30	339.38
576.46	351.08
576.62	395.55
576.79	372.15
576.95	369.80
577.11	327.68
577.27	339.38
577.43	437.68
577.59	407.25
577.75	379.17
577.92	365.12
578.08	348.74
578.24	334.70
578.40	409.59
578.56	400.23
578.72	348.74
578.88	383.85
579.04	374.49
579.21	358.10
579.37	449.38
579.53	404.91
579.69	447.04
579.85	374.49
580.01	348.74
580.17	379.17
580.33	395.55
580.49	334.70
580.65	339.38
580.82	372.15
580.98	344.06
581.14	388.53
581.30	461.09
581.46	351.08
581.62	440.02
581.78	369.80
581.94	435.34
582.10	351.08
582.26	383.85
582.42	287.89
582.58	428.32
582.74	386.19
582.90	477.47
583.06	362.78
583.22	374.49
583.38	301.93
583.54	306.61
583.70	437.68
583.86	376.83
584.02	454.06
584.18	344.06
584.34	365.12
584.50	444.70
584.66	386.19
584.82	304.27
584.98	339.38
585.14	369.80
585.30	376.83
585.46	358.10
585.62	313.63
585.78	278.52
585.94	433.00
586.10	374.49
586.26	393.21
586.42	418.96
586.58	395.55
586.74	318.31
586.90	383.85
587.06	365.12
587.22	388.53
587.38	367.46
587.54	330.02
587.70	325.33
587.86	353.42
588.02	306.61
588.18	320.65
588.34	248.10
588.49	283.20
588.65	266.82
588.81	337.04
588.97	318.31
589.13	315.97
589.29	306.61
589.45	313.63
589.61	285.55
589.77	346.40
589.93	346.40
590.08	344.06
590.24	315.97
590.40	327.68
590.56	308.95
590.72	351.08
590.88	334.70
591.04	341.72
591.20	311.29
591.35	372.15
591.51	327.68
591.67	245.76
591.83	327.68
591.99	421.30
592.15	285.55
592.31	346.40
592.46	252.78
592.62	369.80
592.78	264.48
592.94	304.27
593.10	360.44
593.26	395.55
593.41	315.97
593.57	395.55
593.73	348.74
593.89	304.27
594.05	322.99
594.20	294.91
594.36	355.76
594.52	294.91
594.68	236.39
594.84	264.48
594.99	330.02
595.15	348.74
595.31	306.61
595.47	327.68
595.62	325.33
595.78	376.83
595.94	318.31
596.10	369.80
596.25	402.57
596.41	344.06
596.57	322.99
596.73	313.63
596.88	245.76
597.04	367.46
597.20	372.15
597.36	348.74
597.51	355.76
597.67	215.33
597.83	287.89
597.99	351.08
598.14	252.78
598.30	322.99
598.46	313.63
598.61	266.82
598.77	390.87
598.93	351.08
599.09	355.76
599.24	355.76
599.40	374.49
599.56	372.15
599.71	330.02
599.87	273.84
600.03	400.23
600.18	341.72
600.34	332.36
600.50	297.25
600.65	320.65
600.81	379.17
600.97	318.31
601.12	348.74
601.28	351.08
601.44	367.46
601.59	376.83
601.75	383.85
601.91	304.27
602.06	362.78
602.22	388.53
602.37	358.10
602.53	369.80
602.69	386.19
602.84	212.99
603.00	318.31
603.16	358.10
603.31	346.40
603.47	278.52
603.62	285.55
603.78	330.02
603.94	374.49
604.09	348.74
604.25	334.70
604.40	332.36
604.56	367.46
604.71	306.61
604.87	358.10
605.03	315.97
605.18	355.76
605.34	397.89
605.49	379.17
605.65	301.93
605.80	383.85
605.96	433.00
606.12	397.89
606.27	257.46
606.43	334.70
606.58	353.42
606.74	250.44
606.89	355.76
607.05	386.19
607.20	322.99
607.36	334.70
607.51	367.46
607.67	369.80
607.82	252.78
607.98	346.40
608.13	308.95
608.29	355.76
608.44	259.80
608.60	337.04
608.75	376.83
608.91	360.44
609.06	351.08
609.22	322.99
609.37	290.23
609.53	330.02
609.68	341.72
609.84	297.25
609.99	339.38
610.15	339.38
610.30	414.27
610.46	411.93
610.61	383.85
610.76	236.39
610.92	297.25
611.07	346.40
611.23	381.51
611.38	400.23
611.54	297.25
