SpectraSuite Data File
++++++++++++++++++++++++++++++++++++
Date: Fri Oct 04 11:46:58 GMT-05:00 2013
User: price-jones
Dark Spectrum Present: No
Reference Spectrum Present: No
Number of Sampled Component Spectra: 1
Spectrometers: USB2+H05261
Integration Time (usec): 100000 (USB2+H05261)
Spectra Averaged: 1 (USB2+H05261)
Boxcar Smoothing: 0 (USB2+H05261)
Correct for Electrical Dark: No (USB2+H05261)
Strobe/Lamp Enabled: No (USB2+H05261)
Correct for Detector Non-linearity: No (USB2+H05261)
Correct for Stray Light: No (USB2+H05261)
Number of Pixels in Processed Spectrum: 2048
>>>>>Begin Processed Spectral Data<<<<<
365.73	0.00
365.92	0.00
366.12	0.00
366.32	0.00
366.52	0.00
366.72	0.00
366.91	0.00
367.11	0.00
367.31	0.00
367.51	0.00
367.70	0.00
367.90	0.00
368.10	0.00
368.30	0.00
368.49	0.00
368.69	0.00
368.89	0.00
369.09	0.00
369.28	0.00
369.48	0.00
369.68	0.00
369.87	0.00
370.07	0.00
370.27	0.00
370.47	0.00
370.66	0.00
370.86	0.00
371.06	44.47
371.25	60.85
371.45	37.45
371.65	51.49
371.84	53.83
372.04	60.85
372.24	88.94
372.44	105.32
372.63	138.09
372.83	93.62
373.03	70.22
373.22	140.43
373.42	53.83
373.62	124.05
373.81	37.45
374.01	177.88
374.21	81.92
374.40	86.60
374.60	180.22
374.79	81.92
374.99	117.03
375.19	70.22
375.38	100.64
375.58	168.52
375.78	128.73
375.97	159.16
376.17	128.73
376.37	81.92
376.56	100.64
376.76	86.60
376.95	91.28
377.15	39.79
377.35	91.28
377.54	81.92
377.74	95.96
377.93	131.07
378.13	107.66
378.33	128.73
378.52	105.32
378.72	86.60
378.91	119.37
379.11	93.62
379.31	110.01
379.50	60.85
379.70	88.94
379.89	56.17
380.09	91.28
380.28	93.62
380.48	81.92
380.68	67.88
380.87	46.81
381.07	46.81
381.26	138.09
381.46	88.94
381.65	53.83
381.85	84.26
382.04	112.35
382.24	23.41
382.43	100.64
382.63	58.51
382.83	32.77
383.02	77.24
383.22	95.96
383.41	121.71
383.61	84.26
383.80	112.35
384.00	21.06
384.19	107.66
384.39	77.24
384.58	46.81
384.78	154.48
384.97	95.96
385.17	112.35
385.36	77.24
385.56	77.24
385.75	114.69
385.95	42.13
386.14	95.96
386.34	67.88
386.53	46.81
386.72	138.09
386.92	74.90
387.11	112.35
387.31	95.96
387.50	102.98
387.70	100.64
387.89	138.09
388.09	67.88
388.28	124.05
388.48	133.41
388.67	138.09
388.86	95.96
389.06	131.07
389.25	67.88
389.45	133.41
389.64	88.94
389.84	28.09
390.03	81.92
390.22	9.36
390.42	154.48
390.61	39.79
390.81	84.26
391.00	65.54
391.19	72.56
391.39	93.62
391.58	105.32
391.78	58.51
391.97	98.30
392.16	23.41
392.36	135.75
392.55	72.56
392.75	119.37
392.94	128.73
393.13	51.49
393.33	128.73
393.52	110.01
393.71	140.43
393.91	72.56
394.10	35.11
394.29	147.45
394.49	88.94
394.68	170.86
394.88	175.54
395.07	140.43
395.26	81.92
395.46	114.69
395.65	131.07
395.84	63.19
396.04	149.79
396.23	142.77
396.42	149.79
396.62	93.62
396.81	133.41
397.00	95.96
397.19	126.39
397.39	163.84
397.58	112.35
397.77	95.96
397.97	142.77
398.16	0.00
398.35	159.16
398.55	126.39
398.74	147.45
398.93	84.26
399.12	58.51
399.32	110.01
399.51	149.79
399.70	121.71
399.90	77.24
400.09	105.32
400.28	110.01
400.47	44.47
400.67	124.05
400.86	110.01
401.05	81.92
401.24	105.32
401.44	107.66
401.63	67.88
401.82	114.69
402.01	81.92
402.21	110.01
402.40	133.41
402.59	107.66
402.78	86.60
402.97	210.65
403.17	114.69
403.36	81.92
403.55	58.51
403.74	135.75
403.93	114.69
404.13	215.33
404.32	145.11
404.51	163.84
404.70	117.03
404.89	117.03
405.09	245.76
405.28	112.35
405.47	86.60
405.66	105.32
405.85	142.77
406.05	131.07
406.24	51.49
406.43	163.84
406.62	117.03
406.81	173.20
407.00	105.32
407.20	131.07
407.39	79.58
407.58	77.24
407.77	128.73
407.96	107.66
408.15	110.01
408.34	28.09
408.54	142.77
408.73	140.43
408.92	105.32
409.11	51.49
409.30	4.68
409.49	37.45
409.68	60.85
409.87	56.17
410.07	138.09
410.26	124.05
410.45	81.92
410.64	124.05
410.83	149.79
411.02	107.66
411.21	135.75
411.40	128.73
411.59	72.56
411.78	60.85
411.98	63.19
412.17	105.32
412.36	149.79
412.55	147.45
412.74	147.45
412.93	161.50
413.12	56.17
413.31	37.45
413.50	196.60
413.69	124.05
413.88	72.56
414.07	79.58
414.26	86.60
414.45	133.41
414.64	149.79
414.83	124.05
415.02	201.29
415.22	159.16
415.41	180.22
415.60	177.88
415.79	65.54
415.98	131.07
416.17	81.92
416.36	138.09
416.55	81.92
416.74	124.05
416.93	114.69
417.12	121.71
417.31	117.03
417.50	166.18
417.69	126.39
417.88	177.88
418.07	229.37
418.26	194.26
418.45	112.35
418.64	135.75
418.83	212.99
419.02	156.82
419.21	100.64
419.39	156.82
419.58	173.20
419.77	126.39
419.96	222.35
420.15	191.92
420.34	60.85
420.53	145.11
420.72	191.92
420.91	79.58
421.10	46.81
421.29	131.07
421.48	135.75
421.67	133.41
421.86	184.90
422.05	110.01
422.24	95.96
422.43	140.43
422.61	46.81
422.80	100.64
422.99	180.22
423.18	142.77
423.37	163.84
423.56	126.39
423.75	166.18
423.94	81.92
424.13	121.71
424.32	126.39
424.50	126.39
424.69	212.99
424.88	177.88
425.07	42.13
425.26	180.22
425.45	117.03
425.64	166.18
425.83	217.67
426.01	147.45
426.20	163.84
426.39	58.51
426.58	128.73
426.77	126.39
426.96	224.69
427.15	187.24
427.33	84.26
427.52	107.66
427.71	112.35
427.90	145.11
428.09	112.35
428.28	117.03
428.46	128.73
428.65	100.64
428.84	140.43
429.03	159.16
429.22	114.69
429.40	105.32
429.59	110.01
429.78	177.88
429.97	126.39
430.16	65.54
430.34	135.75
430.53	128.73
430.72	100.64
430.91	163.84
431.10	124.05
431.28	112.35
431.47	107.66
431.66	142.77
431.85	112.35
432.03	145.11
432.22	234.05
432.41	117.03
432.60	140.43
432.79	156.82
432.97	227.03
433.16	243.42
433.35	262.14
433.54	191.92
433.72	149.79
433.91	215.33
434.10	154.48
434.28	248.10
434.47	191.92
434.66	124.05
434.85	126.39
435.03	182.56
435.22	88.94
435.41	138.09
435.59	131.07
435.78	184.90
435.97	145.11
436.16	154.48
436.34	110.01
436.53	149.79
436.72	110.01
436.90	152.13
437.09	88.94
437.28	170.86
437.46	56.17
437.65	161.50
437.84	110.01
438.02	126.39
438.21	187.24
438.40	154.48
438.58	107.66
438.77	222.35
438.96	105.32
439.14	95.96
439.33	149.79
439.52	126.39
439.70	91.28
439.89	124.05
440.08	140.43
440.26	173.20
440.45	156.82
440.63	142.77
440.82	154.48
441.01	133.41
441.19	135.75
441.38	133.41
441.57	161.50
441.75	74.90
441.94	191.92
442.12	79.58
442.31	161.50
442.50	86.60
442.68	114.69
442.87	168.52
443.05	39.79
443.24	142.77
443.43	156.82
443.61	229.37
443.80	159.16
443.98	102.98
444.17	182.56
444.35	175.54
444.54	128.73
444.73	145.11
444.91	152.13
445.10	138.09
445.28	131.07
445.47	119.37
445.65	133.41
445.84	23.41
446.02	95.96
446.21	161.50
446.39	105.32
446.58	81.92
446.77	121.71
446.95	180.22
447.14	175.54
447.32	140.43
447.51	131.07
447.69	145.11
447.88	191.92
448.06	208.31
448.25	121.71
448.43	147.45
448.62	140.43
448.80	114.69
448.99	86.60
449.17	100.64
449.36	112.35
449.54	124.05
449.73	84.26
449.91	166.18
450.10	60.85
450.28	170.86
450.46	182.56
450.65	175.54
450.83	154.48
451.02	191.92
451.20	131.07
451.39	168.52
451.57	152.13
451.76	177.88
451.94	70.22
452.13	152.13
452.31	175.54
452.49	100.64
452.68	145.11
452.86	147.45
453.05	135.75
453.23	154.48
453.42	86.60
453.60	131.07
453.78	184.90
453.97	163.84
454.15	107.66
454.34	102.98
454.52	163.84
454.70	107.66
454.89	170.86
455.07	140.43
455.26	182.56
455.44	262.14
455.62	126.39
455.81	152.13
455.99	187.24
456.17	98.30
456.36	105.32
456.54	86.60
456.73	84.26
456.91	121.71
457.09	145.11
457.28	114.69
457.46	44.47
457.64	119.37
457.83	133.41
458.01	93.62
458.19	100.64
458.38	149.79
458.56	135.75
458.74	156.82
458.93	140.43
459.11	182.56
459.29	163.84
459.48	156.82
459.66	191.92
459.84	145.11
460.03	210.65
460.21	212.99
460.39	138.09
460.57	147.45
460.76	117.03
460.94	110.01
461.12	173.20
461.31	72.56
461.49	121.71
461.67	110.01
461.85	98.30
462.04	145.11
462.22	667.05
462.40	149.79
462.59	201.29
462.77	133.41
462.95	128.73
463.13	133.41
463.32	140.43
463.50	184.90
463.68	72.56
463.86	81.92
464.05	128.73
464.23	175.54
464.41	145.11
464.59	135.75
464.78	154.48
464.96	112.35
465.14	128.73
465.32	140.43
465.50	105.32
465.69	159.16
465.87	58.51
466.05	149.79
466.23	170.86
466.41	128.73
466.60	184.90
466.78	117.03
466.96	163.84
467.14	119.37
467.32	210.65
467.51	166.18
467.69	222.35
467.87	177.88
468.05	93.62
468.23	147.45
468.41	208.31
468.60	91.28
468.78	170.86
468.96	170.86
469.14	191.92
469.32	133.41
469.50	140.43
469.69	166.18
469.87	105.32
470.05	152.13
470.23	126.39
470.41	152.13
470.59	135.75
470.77	110.01
470.95	135.75
471.14	184.90
471.32	138.09
471.50	170.86
471.68	168.52
471.86	121.71
472.04	166.18
472.22	234.05
472.40	102.98
472.58	121.71
472.77	60.85
472.95	142.77
473.13	131.07
473.31	166.18
473.49	107.66
473.67	110.01
473.85	154.48
474.03	170.86
474.21	147.45
474.39	177.88
474.57	147.45
474.75	107.66
474.93	128.73
475.12	159.16
475.30	70.22
475.48	154.48
475.66	149.79
475.84	91.28
476.02	95.96
476.20	170.86
476.38	170.86
476.56	205.97
476.74	77.24
476.92	133.41
477.10	156.82
477.28	154.48
477.46	133.41
477.64	152.13
477.82	65.54
478.00	119.37
478.18	161.50
478.36	138.09
478.54	81.92
478.72	166.18
478.90	163.84
479.08	91.28
479.26	220.01
479.44	166.18
479.62	124.05
479.80	145.11
479.98	203.63
480.16	175.54
480.34	91.28
480.52	212.99
480.70	168.52
480.88	100.64
481.06	135.75
481.24	145.11
481.41	114.69
481.59	166.18
481.77	128.73
481.95	119.37
482.13	259.80
482.31	131.07
482.49	194.26
482.67	184.90
482.85	170.86
483.03	201.29
483.21	205.97
483.39	173.20
483.57	212.99
483.74	194.26
483.92	142.77
484.10	140.43
484.28	212.99
484.46	138.09
484.64	124.05
484.82	156.82
485.00	173.20
485.18	114.69
485.35	154.48
485.53	159.16
485.71	168.52
485.89	156.82
486.07	163.84
486.25	215.33
486.43	187.24
486.61	187.24
486.78	180.22
486.96	86.60
487.14	152.13
487.32	119.37
487.50	215.33
487.68	117.03
487.85	117.03
488.03	243.42
488.21	201.29
488.39	182.56
488.57	215.33
488.75	166.18
488.92	278.52
489.10	126.39
489.28	191.92
489.46	135.75
489.64	191.92
489.81	234.05
489.99	229.37
490.17	201.29
490.35	191.92
490.53	102.98
490.70	187.24
490.88	121.71
491.06	138.09
491.24	259.80
491.41	161.50
491.59	208.31
491.77	81.92
491.95	140.43
492.13	149.79
492.30	124.05
492.48	191.92
492.66	131.07
492.84	156.82
493.01	140.43
493.19	154.48
493.37	177.88
493.54	163.84
493.72	229.37
493.90	145.11
494.08	114.69
494.25	117.03
494.43	173.20
494.61	117.03
494.79	152.13
494.96	173.20
495.14	266.82
495.32	161.50
495.49	276.18
495.67	203.63
495.85	173.20
496.02	205.97
496.20	194.26
496.38	128.73
496.55	243.42
496.73	203.63
496.91	121.71
497.09	203.63
497.26	58.51
497.44	152.13
497.62	128.73
497.79	170.86
497.97	224.69
498.14	173.20
498.32	189.58
498.50	140.43
498.67	175.54
498.85	184.90
499.03	236.39
499.20	196.60
499.38	184.90
499.56	222.35
499.73	208.31
499.91	131.07
500.08	287.89
500.26	241.08
500.44	147.45
500.61	217.67
500.79	152.13
500.97	215.33
501.14	266.82
501.32	163.84
501.49	191.92
501.67	180.22
501.84	222.35
502.02	168.52
502.20	248.10
502.37	175.54
502.55	187.24
502.72	194.26
502.90	187.24
503.07	173.20
503.25	189.58
503.43	180.22
503.60	154.48
503.78	236.39
503.95	222.35
504.13	163.84
504.30	194.26
504.48	229.37
504.65	243.42
504.83	241.08
505.01	210.65
505.18	175.54
505.36	163.84
505.53	173.20
505.71	224.69
505.88	252.78
506.06	238.73
506.23	91.28
506.41	140.43
506.58	156.82
506.76	250.44
506.93	266.82
507.11	187.24
507.28	217.67
507.46	203.63
507.63	220.01
507.81	229.37
507.98	194.26
508.16	187.24
508.33	175.54
508.50	203.63
508.68	201.29
508.85	184.90
509.03	128.73
509.20	182.56
509.38	152.13
509.55	266.82
509.73	170.86
509.90	182.56
510.08	234.05
510.25	245.76
510.42	163.84
510.60	210.65
510.77	241.08
510.95	245.76
511.12	252.78
511.30	320.65
511.47	318.31
511.64	208.31
511.82	93.62
511.99	170.86
512.17	152.13
512.34	187.24
512.51	95.96
512.69	126.39
512.86	180.22
513.04	156.82
513.21	182.56
513.38	180.22
513.56	210.65
513.73	159.16
513.90	212.99
514.08	138.09
514.25	224.69
514.43	236.39
514.60	187.24
514.77	205.97
514.95	212.99
515.12	220.01
515.29	170.86
515.47	170.86
515.64	224.69
515.81	159.16
515.99	156.82
516.16	243.42
516.33	212.99
516.51	257.46
516.68	201.29
516.85	182.56
517.03	173.20
517.20	264.48
517.37	189.58
517.54	168.52
517.72	215.33
517.89	149.79
518.06	142.77
518.24	220.01
518.41	236.39
518.58	205.97
518.75	175.54
518.93	215.33
519.10	259.80
519.27	187.24
519.45	217.67
519.62	212.99
519.79	182.56
519.96	201.29
520.14	201.29
520.31	238.73
520.48	147.45
520.65	231.71
520.83	215.33
521.00	208.31
521.17	201.29
521.34	142.77
521.52	184.90
521.69	212.99
521.86	250.44
522.03	269.16
522.20	287.89
522.38	224.69
522.55	287.89
522.72	212.99
522.89	227.03
523.07	285.55
523.24	182.56
523.41	234.05
523.58	252.78
523.75	142.77
523.92	105.32
524.10	224.69
524.27	112.35
524.44	180.22
524.61	238.73
524.78	238.73
524.96	231.71
525.13	203.63
525.30	234.05
525.47	236.39
525.64	201.29
525.81	203.63
525.98	259.80
526.16	180.22
526.33	203.63
526.50	208.31
526.67	152.13
526.84	140.43
527.01	154.48
527.18	175.54
527.36	224.69
527.53	243.42
527.70	255.12
527.87	124.05
528.04	170.86
528.21	159.16
528.38	203.63
528.55	241.08
528.72	299.59
528.89	215.33
529.07	241.08
529.24	224.69
529.41	227.03
529.58	196.60
529.75	149.79
529.92	198.95
530.09	238.73
530.26	266.82
530.43	166.18
530.60	222.35
530.77	229.37
530.94	212.99
531.11	236.39
531.28	201.29
531.46	194.26
531.63	325.33
531.80	187.24
531.97	210.65
532.14	217.67
532.31	229.37
532.48	201.29
532.65	278.52
532.82	327.68
532.99	374.49
533.16	276.18
533.33	301.93
533.50	280.86
533.67	351.08
533.84	369.80
534.01	344.06
534.18	330.02
534.35	227.03
534.52	191.92
534.69	257.46
534.86	234.05
535.03	203.63
535.20	262.14
535.37	198.95
535.54	222.35
535.71	217.67
535.88	271.50
536.05	133.41
536.22	301.93
536.38	149.79
536.55	229.37
536.72	177.88
536.89	184.90
537.06	250.44
537.23	266.82
537.40	243.42
537.57	220.01
537.74	212.99
537.91	212.99
538.08	264.48
538.25	250.44
538.42	250.44
538.59	271.50
538.75	182.56
538.92	278.52
539.09	278.52
539.26	278.52
539.43	404.91
539.60	1039.20
539.77	1540.07
539.94	1556.46
540.11	1001.75
540.28	671.73
540.44	454.06
540.61	320.65
540.78	236.39
540.95	238.73
541.12	175.54
541.29	154.48
541.46	238.73
541.62	189.58
541.79	224.69
541.96	168.52
542.13	194.26
542.30	177.88
542.47	187.24
542.63	250.44
542.80	241.08
542.97	187.24
543.14	243.42
543.31	198.95
543.48	168.52
543.64	215.33
543.81	257.46
543.98	184.90
544.15	166.18
544.32	208.31
544.48	234.05
544.65	250.44
544.82	168.52
544.99	220.01
545.16	224.69
545.32	250.44
545.49	201.29
545.66	236.39
545.83	231.71
546.00	152.13
546.16	203.63
546.33	227.03
546.50	187.24
546.67	152.13
546.83	215.33
547.00	126.39
547.17	145.11
547.34	138.09
547.50	189.58
547.67	180.22
547.84	250.44
548.00	234.05
548.17	227.03
548.34	203.63
548.51	220.01
548.67	231.71
548.84	163.84
549.01	210.65
549.18	147.45
549.34	173.20
549.51	255.12
549.68	168.52
549.84	184.90
550.01	229.37
550.18	341.72
550.34	264.48
550.51	205.97
550.68	168.52
550.84	294.91
551.01	173.20
551.18	278.52
551.34	194.26
551.51	205.97
551.68	210.65
551.84	201.29
552.01	224.69
552.18	299.59
552.34	266.82
552.51	184.90
552.68	229.37
552.84	168.52
553.01	266.82
553.18	149.79
553.34	170.86
553.51	184.90
553.67	198.95
553.84	287.89
554.01	194.26
554.17	173.20
554.34	245.76
554.51	119.37
554.67	208.31
554.84	175.54
555.00	224.69
555.17	217.67
555.33	229.37
555.50	203.63
555.67	292.57
555.83	220.01
556.00	243.42
556.16	381.51
556.33	255.12
556.50	234.05
556.66	224.69
556.83	248.10
556.99	222.35
557.16	222.35
557.32	177.88
557.49	215.33
557.65	255.12
557.82	177.88
557.98	121.71
558.15	159.16
558.32	227.03
558.48	163.84
558.65	177.88
558.81	184.90
558.98	215.33
559.14	189.58
559.31	243.42
559.47	205.97
559.64	163.84
559.80	205.97
559.97	175.54
560.13	198.95
560.30	184.90
560.46	196.60
560.63	222.35
560.79	135.75
560.96	201.29
561.12	203.63
561.29	161.50
561.45	198.95
561.61	294.91
561.78	280.86
561.94	135.75
562.11	196.60
562.27	215.33
562.44	231.71
562.60	252.78
562.77	114.69
562.93	266.82
563.10	257.46
563.26	138.09
563.42	166.18
563.59	177.88
563.75	210.65
563.92	229.37
564.08	234.05
564.24	280.86
564.41	264.48
564.57	180.22
564.74	177.88
564.90	313.63
565.07	297.25
565.23	234.05
565.39	269.16
565.56	262.14
565.72	175.54
565.88	205.97
566.05	182.56
566.21	161.50
566.38	269.16
566.54	220.01
566.70	252.78
566.87	203.63
567.03	243.42
567.19	156.82
567.36	222.35
567.52	259.80
567.68	236.39
567.85	187.24
568.01	266.82
568.17	156.82
568.34	255.12
568.50	245.76
568.66	231.71
568.83	308.95
568.99	201.29
569.15	276.18
569.32	208.31
569.48	262.14
569.64	187.24
569.81	238.73
569.97	187.24
570.13	311.29
570.30	147.45
570.46	112.35
570.62	140.43
570.78	220.01
570.95	142.77
571.11	236.39
571.27	266.82
571.43	222.35
571.60	212.99
571.76	227.03
571.92	252.78
572.09	147.45
572.25	220.01
572.41	243.42
572.57	210.65
572.74	236.39
572.90	229.37
573.06	252.78
573.22	299.59
573.38	205.97
573.55	189.58
573.71	194.26
573.87	234.05
574.03	159.16
574.20	271.50
574.36	259.80
574.52	351.08
574.68	227.03
574.84	264.48
575.01	173.20
575.17	208.31
575.33	201.29
575.49	276.18
575.65	285.55
575.82	280.86
575.98	521.94
576.14	692.80
576.30	713.86
576.46	554.71
576.62	369.80
576.79	372.15
576.95	365.12
577.11	231.71
577.27	315.97
577.43	208.31
577.59	241.08
577.75	215.33
577.92	177.88
578.08	212.99
578.24	217.67
578.40	278.52
578.56	229.37
578.72	278.52
578.88	250.44
579.04	241.08
579.21	287.89
579.37	224.69
579.53	182.56
579.69	294.91
579.85	259.80
580.01	294.91
580.17	395.55
580.33	409.59
580.49	311.29
580.65	395.55
580.82	301.93
580.98	276.18
581.14	308.95
581.30	348.74
581.46	395.55
581.62	531.30
581.78	615.56
581.94	564.07
582.10	461.09
582.26	404.91
582.42	395.55
582.58	411.93
582.74	315.97
582.90	341.72
583.06	397.89
583.22	425.98
583.38	369.80
583.54	489.17
583.70	622.58
583.86	688.12
584.02	704.50
584.18	994.73
584.34	1299.00
584.50	3211.22
584.66	24161.35
584.82	56554.36
584.98	65535.00
585.14	63185.10
585.30	49179.34
585.46	29975.24
585.62	18448.10
585.78	8505.51
585.94	3384.41
586.10	1535.39
586.26	1001.75
586.42	821.53
586.58	718.54
586.74	645.99
586.90	531.30
587.06	610.88
587.22	458.74
587.38	461.09
587.54	1090.69
587.70	3403.14
587.86	5738.99
588.02	6366.26
588.18	4784.06
588.34	2902.26
588.49	1891.15
588.65	1210.06
588.81	587.47
588.97	397.89
589.13	325.33
589.29	269.16
589.45	255.12
589.61	325.33
589.77	402.57
589.93	313.63
590.08	402.57
590.24	360.44
590.40	449.38
590.56	397.89
590.72	311.29
590.88	353.42
591.04	330.02
591.20	304.27
591.35	346.40
591.51	322.99
591.67	264.48
591.83	259.80
591.99	278.52
592.15	297.25
592.31	269.16
592.46	304.27
592.62	292.57
592.78	243.42
592.94	269.16
593.10	339.38
593.26	238.73
593.41	297.25
593.57	374.49
593.73	622.58
593.89	2916.31
594.05	7543.55
594.20	11396.07
594.36	10860.09
594.52	6956.07
594.68	4447.02
594.84	2932.69
594.99	1633.69
595.15	671.73
595.31	507.90
595.47	383.85
595.62	248.10
595.78	222.35
595.94	264.48
596.10	407.25
596.25	252.78
596.41	315.97
596.57	243.42
596.73	308.95
596.88	559.39
597.04	1277.93
597.20	2237.55
597.36	2738.43
597.51	2062.01
597.67	1345.81
597.83	1011.11
597.99	688.12
598.14	428.32
598.30	313.63
598.46	330.02
598.61	306.61
598.77	327.68
598.93	222.35
599.09	313.63
599.24	262.14
599.40	283.20
599.56	283.20
599.71	231.71
599.87	205.97
600.03	227.03
600.18	252.78
600.34	208.31
600.50	238.73
600.65	168.52
600.81	248.10
600.97	264.48
601.12	238.73
601.28	241.08
601.44	173.20
601.59	203.63
601.75	245.76
601.91	191.92
602.06	238.73
602.22	311.29
602.37	702.16
602.53	1694.55
602.69	2829.71
602.84	3014.61
603.00	2148.61
603.16	1394.96
603.31	1100.05
603.47	638.97
603.62	386.19
603.78	266.82
603.94	259.80
604.09	243.42
604.25	236.39
604.40	255.12
604.56	217.67
604.71	304.27
604.87	285.55
605.03	217.67
605.18	163.84
605.34	262.14
605.49	180.22
605.65	194.26
605.80	271.50
605.96	285.55
606.12	393.21
606.27	390.87
606.43	337.04
606.58	313.63
606.74	835.57
606.89	3492.08
607.05	7283.75
607.20	9369.16
607.36	7983.57
607.51	5387.91
607.67	3375.05
607.82	2272.66
607.98	1299.00
608.13	643.65
608.29	416.62
608.44	381.51
608.60	463.43
608.75	512.58
608.91	1144.52
609.06	5526.00
609.22	12311.22
609.37	16744.19
609.53	14562.81
609.68	9652.37
609.84	6134.54
609.99	4007.00
610.15	2188.40
610.30	1022.81
610.46	664.71
610.61	468.11
610.76	358.10
610.92	292.57
611.07	262.14
611.23	334.70
611.38	276.18
611.54	269.16
611.69	299.59
