SpectraSuite Data File
++++++++++++++++++++++++++++++++++++
Date: Fri Oct 04 11:47:19 GMT-05:00 2013
User: price-jones
Dark Spectrum Present: No
Reference Spectrum Present: No
Number of Sampled Component Spectra: 1
Spectrometers: USB2+H05261
Integration Time (usec): 100000 (USB2+H05261)
Spectra Averaged: 1 (USB2+H05261)
Boxcar Smoothing: 0 (USB2+H05261)
Correct for Electrical Dark: No (USB2+H05261)
Strobe/Lamp Enabled: No (USB2+H05261)
Correct for Detector Non-linearity: No (USB2+H05261)
Correct for Stray Light: No (USB2+H05261)
Number of Pixels in Processed Spectrum: 2048
>>>>>Begin Processed Spectral Data<<<<<
365.73	0.00
365.92	0.00
366.12	0.00
366.32	0.00
366.52	0.00
366.72	0.00
366.91	0.00
367.11	0.00
367.31	0.00
367.51	0.00
367.70	0.00
367.90	0.00
368.10	0.00
368.30	0.00
368.49	0.00
368.69	18.72
368.89	0.00
369.09	2.34
369.28	0.00
369.48	0.00
369.68	0.00
369.87	39.79
370.07	0.00
370.27	51.49
370.47	25.75
370.66	0.00
370.86	2.34
371.06	58.51
371.25	84.26
371.45	32.77
371.65	93.62
371.84	28.09
372.04	49.15
372.24	58.51
372.44	86.60
372.63	135.75
372.83	131.07
373.03	30.43
373.22	88.94
373.42	46.81
373.62	86.60
373.81	105.32
374.01	88.94
374.21	91.28
374.40	72.56
374.60	91.28
374.79	126.39
374.99	154.48
375.19	173.20
375.38	67.88
375.58	65.54
375.78	149.79
375.97	74.90
376.17	145.11
376.37	74.90
376.56	93.62
376.76	114.69
376.95	18.72
377.15	110.01
377.35	114.69
377.54	156.82
377.74	100.64
377.93	114.69
378.13	81.92
378.33	39.79
378.52	67.88
378.72	170.86
378.91	102.98
379.11	88.94
379.31	140.43
379.50	2.34
379.70	86.60
379.89	133.41
380.09	79.58
380.28	124.05
380.48	81.92
380.68	65.54
380.87	100.64
381.07	112.35
381.26	88.94
381.46	86.60
381.65	110.01
381.85	56.17
382.04	70.22
382.24	187.24
382.43	126.39
382.63	39.79
382.83	95.96
383.02	25.75
383.22	110.01
383.41	0.00
383.61	65.54
383.80	0.00
384.00	95.96
384.19	79.58
384.39	86.60
384.58	23.41
384.78	173.20
384.97	140.43
385.17	105.32
385.36	149.79
385.56	159.16
385.75	58.51
385.95	112.35
386.14	95.96
386.34	102.98
386.53	119.37
386.72	67.88
386.92	112.35
387.11	93.62
387.31	107.66
387.50	35.11
387.70	128.73
387.89	4.68
388.09	4.68
388.28	60.85
388.48	39.79
388.67	77.24
388.86	102.98
389.06	110.01
389.25	98.30
389.45	63.19
389.64	58.51
389.84	114.69
390.03	67.88
390.22	70.22
390.42	128.73
390.61	93.62
390.81	102.98
391.00	18.72
391.19	65.54
391.39	105.32
391.58	107.66
391.78	88.94
391.97	84.26
392.16	58.51
392.36	166.18
392.55	156.82
392.75	119.37
392.94	131.07
393.13	56.17
393.33	79.58
393.52	91.28
393.71	124.05
393.91	173.20
394.10	107.66
394.29	107.66
394.49	131.07
394.68	135.75
394.88	110.01
395.07	95.96
395.26	124.05
395.46	63.19
395.65	131.07
395.84	88.94
396.04	154.48
396.23	138.09
396.42	79.58
396.62	198.95
396.81	117.03
397.00	168.52
397.19	135.75
397.39	58.51
397.58	131.07
397.77	81.92
397.97	110.01
398.16	133.41
398.35	72.56
398.55	72.56
398.74	145.11
398.93	128.73
399.12	60.85
399.32	28.09
399.51	93.62
399.70	95.96
399.90	138.09
400.09	124.05
400.28	135.75
400.47	53.83
400.67	166.18
400.86	124.05
401.05	147.45
401.24	128.73
401.44	112.35
401.63	67.88
401.82	128.73
402.01	88.94
402.21	37.45
402.40	105.32
402.59	72.56
402.78	100.64
402.97	88.94
403.17	100.64
403.36	110.01
403.55	177.88
403.74	105.32
403.93	110.01
404.13	182.56
404.32	100.64
404.51	88.94
404.70	23.41
404.89	84.26
405.09	154.48
405.28	142.77
405.47	67.88
405.66	124.05
405.85	119.37
406.05	84.26
406.24	98.30
406.43	98.30
406.62	131.07
406.81	156.82
407.00	140.43
407.20	88.94
407.39	105.32
407.58	102.98
407.77	93.62
407.96	95.96
408.15	156.82
408.34	117.03
408.54	124.05
408.73	105.32
408.92	154.48
409.11	124.05
409.30	93.62
409.49	77.24
409.68	121.71
409.87	67.88
410.07	154.48
410.26	60.85
410.45	60.85
410.64	102.98
410.83	140.43
411.02	128.73
411.21	93.62
411.40	168.52
411.59	91.28
411.78	98.30
411.98	58.51
412.17	91.28
412.36	100.64
412.55	84.26
412.74	175.54
412.93	154.48
413.12	110.01
413.31	196.60
413.50	77.24
413.69	124.05
413.88	117.03
414.07	112.35
414.26	100.64
414.45	149.79
414.64	147.45
414.83	67.88
415.02	152.13
415.22	107.66
415.41	145.11
415.60	149.79
415.79	124.05
415.98	161.50
416.17	159.16
416.36	163.84
416.55	65.54
416.74	117.03
416.93	117.03
417.12	133.41
417.31	84.26
417.50	126.39
417.69	133.41
417.88	117.03
418.07	119.37
418.26	163.84
418.45	168.52
418.64	187.24
418.83	168.52
419.02	184.90
419.21	74.90
419.39	128.73
419.58	156.82
419.77	135.75
419.96	217.67
420.15	177.88
420.34	156.82
420.53	189.58
420.72	142.77
420.91	124.05
421.10	102.98
421.29	110.01
421.48	147.45
421.67	140.43
421.86	112.35
422.05	170.86
422.24	74.90
422.43	133.41
422.61	95.96
422.80	142.77
422.99	142.77
423.18	140.43
423.37	208.31
423.56	215.33
423.75	201.29
423.94	95.96
424.13	135.75
424.32	128.73
424.50	112.35
424.69	152.13
424.88	194.26
425.07	131.07
425.26	133.41
425.45	180.22
425.64	145.11
425.83	145.11
426.01	152.13
426.20	58.51
426.39	79.58
426.58	114.69
426.77	154.48
426.96	156.82
427.15	198.95
427.33	121.71
427.52	124.05
427.71	140.43
427.90	77.24
428.09	140.43
428.28	145.11
428.46	100.64
428.65	145.11
428.84	70.22
429.03	135.75
429.22	121.71
429.40	79.58
429.59	100.64
429.78	112.35
429.97	37.45
430.16	133.41
430.34	168.52
430.53	145.11
430.72	102.98
430.91	93.62
431.10	121.71
431.28	159.16
431.47	205.97
431.66	131.07
431.85	131.07
432.03	35.11
432.22	201.29
432.41	74.90
432.60	133.41
432.79	182.56
432.97	236.39
433.16	294.91
433.35	241.08
433.54	203.63
433.72	166.18
433.91	135.75
434.10	77.24
434.28	152.13
434.47	163.84
434.66	184.90
434.85	91.28
435.03	168.52
435.22	156.82
435.41	161.50
435.59	138.09
435.78	67.88
435.97	74.90
436.16	114.69
436.34	88.94
436.53	184.90
436.72	205.97
436.90	133.41
437.09	84.26
437.28	70.22
437.46	119.37
437.65	119.37
437.84	81.92
438.02	72.56
438.21	156.82
438.40	114.69
438.58	88.94
438.77	145.11
438.96	100.64
439.14	105.32
439.33	131.07
439.52	95.96
439.70	107.66
439.89	168.52
440.08	126.39
440.26	105.32
440.45	175.54
440.63	105.32
440.82	203.63
441.01	84.26
441.19	173.20
441.38	140.43
441.57	166.18
441.75	140.43
441.94	152.13
442.12	121.71
442.31	42.13
442.50	131.07
442.68	72.56
442.87	86.60
443.05	159.16
443.24	93.62
443.43	117.03
443.61	149.79
443.80	138.09
443.98	131.07
444.17	117.03
444.35	145.11
444.54	154.48
444.73	196.60
444.91	180.22
445.10	159.16
445.28	16.38
445.47	91.28
445.65	79.58
445.84	152.13
446.02	189.58
446.21	93.62
446.39	102.98
446.58	93.62
446.77	131.07
446.95	126.39
447.14	175.54
447.32	72.56
447.51	184.90
447.69	91.28
447.88	105.32
448.06	184.90
448.25	105.32
448.43	159.16
448.62	177.88
448.80	142.77
448.99	119.37
449.17	147.45
449.36	175.54
449.54	163.84
449.73	117.03
449.91	93.62
450.10	100.64
450.28	166.18
450.46	203.63
450.65	222.35
450.83	159.16
451.02	112.35
451.20	98.30
451.39	124.05
451.57	135.75
451.76	135.75
451.94	84.26
452.13	182.56
452.31	124.05
452.49	154.48
452.68	107.66
452.86	124.05
453.05	145.11
453.23	98.30
453.42	135.75
453.60	152.13
453.78	173.20
453.97	124.05
454.15	60.85
454.34	142.77
454.52	119.37
454.70	187.24
454.89	110.01
455.07	102.98
455.26	170.86
455.44	128.73
455.62	149.79
455.81	124.05
455.99	156.82
456.17	126.39
456.36	102.98
456.54	182.56
456.73	74.90
456.91	44.47
457.09	117.03
457.28	180.22
457.46	65.54
457.64	100.64
457.83	154.48
458.01	121.71
458.19	114.69
458.38	126.39
458.56	114.69
458.74	119.37
458.93	145.11
459.11	133.41
459.29	177.88
459.48	138.09
459.66	196.60
459.84	107.66
460.03	252.78
460.21	161.50
460.39	88.94
460.57	189.58
460.76	191.92
460.94	95.96
461.12	182.56
461.31	180.22
461.49	149.79
461.67	156.82
461.85	142.77
462.04	124.05
462.22	472.79
462.40	189.58
462.59	154.48
462.77	58.51
462.95	159.16
463.13	161.50
463.32	117.03
463.50	133.41
463.68	152.13
463.86	189.58
464.05	100.64
464.23	194.26
464.41	135.75
464.59	163.84
464.78	102.98
464.96	65.54
465.14	140.43
465.32	110.01
465.50	138.09
465.69	184.90
465.87	138.09
466.05	110.01
466.23	100.64
466.41	110.01
466.60	159.16
466.78	180.22
466.96	145.11
467.14	140.43
467.32	166.18
467.51	161.50
467.69	119.37
467.87	166.18
468.05	147.45
468.23	191.92
468.41	114.69
468.60	154.48
468.78	147.45
468.96	149.79
469.14	147.45
469.32	205.97
469.50	142.77
469.69	215.33
469.87	182.56
470.05	234.05
470.23	149.79
470.41	112.35
470.59	152.13
470.77	173.20
470.95	91.28
471.14	196.60
471.32	114.69
471.50	224.69
471.68	159.16
471.86	102.98
472.04	145.11
472.22	117.03
472.40	154.48
472.58	117.03
472.77	154.48
472.95	161.50
473.13	154.48
473.31	161.50
473.49	84.26
473.67	58.51
473.85	114.69
474.03	266.82
474.21	149.79
474.39	180.22
474.57	154.48
474.75	135.75
474.93	180.22
475.12	152.13
475.30	102.98
475.48	117.03
475.66	128.73
475.84	142.77
476.02	177.88
476.20	252.78
476.38	114.69
476.56	215.33
476.74	173.20
476.92	156.82
477.10	121.71
477.28	156.82
477.46	135.75
477.64	93.62
477.82	187.24
478.00	166.18
478.18	107.66
478.36	156.82
478.54	105.32
478.72	163.84
478.90	128.73
479.08	205.97
479.26	220.01
479.44	102.98
479.62	145.11
479.80	259.80
479.98	98.30
480.16	121.71
480.34	117.03
480.52	133.41
480.70	203.63
480.88	119.37
481.06	161.50
481.24	102.98
481.41	133.41
481.59	145.11
481.77	205.97
481.95	149.79
482.13	149.79
482.31	180.22
482.49	161.50
482.67	212.99
482.85	189.58
483.03	177.88
483.21	140.43
483.39	180.22
483.57	166.18
483.74	210.65
483.92	138.09
484.10	205.97
484.28	198.95
484.46	257.46
484.64	91.28
484.82	156.82
485.00	166.18
485.18	194.26
485.35	159.16
485.53	166.18
485.71	196.60
485.89	152.13
486.07	152.13
486.25	191.92
486.43	163.84
486.61	135.75
486.78	166.18
486.96	124.05
487.14	112.35
487.32	180.22
487.50	159.16
487.68	119.37
487.85	161.50
488.03	173.20
488.21	210.65
488.39	145.11
488.57	201.29
488.75	166.18
488.92	433.00
489.10	222.35
489.28	163.84
489.46	131.07
489.64	234.05
489.81	187.24
489.99	196.60
490.17	161.50
490.35	220.01
490.53	170.86
490.70	166.18
490.88	212.99
491.06	126.39
491.24	184.90
491.41	168.52
491.59	135.75
491.77	149.79
491.95	154.48
492.13	201.29
492.30	180.22
492.48	182.56
492.66	180.22
492.84	191.92
493.01	250.44
493.19	138.09
493.37	184.90
493.54	168.52
493.72	161.50
493.90	198.95
494.08	112.35
494.25	152.13
494.43	208.31
494.61	189.58
494.79	170.86
494.96	166.18
495.14	145.11
495.32	168.52
495.49	133.41
495.67	86.60
495.85	119.37
496.02	128.73
496.20	166.18
496.38	208.31
496.55	149.79
496.73	173.20
496.91	180.22
497.09	212.99
497.26	173.20
497.44	161.50
497.62	133.41
497.79	156.82
497.97	224.69
498.14	208.31
498.32	273.84
498.50	198.95
498.67	163.84
498.85	173.20
499.03	140.43
499.20	273.84
499.38	159.16
499.56	205.97
499.73	191.92
499.91	163.84
500.08	212.99
500.26	138.09
500.44	154.48
500.61	229.37
500.79	187.24
500.97	180.22
501.14	264.48
501.32	93.62
501.49	91.28
501.67	163.84
501.84	273.84
502.02	208.31
502.20	294.91
502.37	173.20
502.55	147.45
502.72	175.54
502.90	208.31
503.07	159.16
503.25	161.50
503.43	255.12
503.60	210.65
503.78	208.31
503.95	243.42
504.13	194.26
504.30	154.48
504.48	252.78
504.65	168.52
504.83	252.78
505.01	189.58
505.18	159.16
505.36	201.29
505.53	212.99
505.71	201.29
505.88	236.39
506.06	170.86
506.23	149.79
506.41	189.58
506.58	180.22
506.76	121.71
506.93	182.56
507.11	156.82
507.28	217.67
507.46	173.20
507.63	276.18
507.81	133.41
507.98	220.01
508.16	198.95
508.33	194.26
508.50	241.08
508.68	222.35
508.85	166.18
509.03	224.69
509.20	112.35
509.38	224.69
509.55	255.12
509.73	217.67
509.90	191.92
510.08	201.29
510.25	147.45
510.42	217.67
510.60	191.92
510.77	210.65
510.95	227.03
511.12	180.22
511.30	222.35
511.47	245.76
511.64	313.63
511.82	166.18
511.99	191.92
512.17	145.11
512.34	72.56
512.51	107.66
512.69	196.60
512.86	264.48
513.04	187.24
513.21	203.63
513.38	182.56
513.56	222.35
513.73	124.05
513.90	184.90
514.08	196.60
514.25	205.97
514.43	154.48
514.60	191.92
514.77	131.07
514.95	191.92
515.12	147.45
515.29	205.97
515.47	203.63
515.64	196.60
515.81	180.22
515.99	191.92
516.16	191.92
516.33	280.86
516.51	149.79
516.68	142.77
516.85	189.58
517.03	215.33
517.20	252.78
517.37	201.29
517.54	227.03
517.72	222.35
517.89	110.01
518.06	102.98
518.24	273.84
518.41	280.86
518.58	234.05
518.75	227.03
518.93	276.18
519.10	236.39
519.27	236.39
519.45	168.52
519.62	212.99
519.79	210.65
519.96	203.63
520.14	194.26
520.31	250.44
520.48	212.99
520.65	248.10
520.83	245.76
521.00	173.20
521.17	238.73
521.34	187.24
521.52	245.76
521.69	220.01
521.86	210.65
522.03	173.20
522.20	259.80
522.38	234.05
522.55	215.33
522.72	290.23
522.89	243.42
523.07	278.52
523.24	229.37
523.41	175.54
523.58	224.69
523.75	210.65
523.92	250.44
524.10	220.01
524.27	163.84
524.44	208.31
524.61	236.39
524.78	203.63
524.96	238.73
525.13	194.26
525.30	227.03
525.47	159.16
525.64	215.33
525.81	184.90
525.98	217.67
526.16	81.92
526.33	149.79
526.50	203.63
526.67	210.65
526.84	194.26
527.01	257.46
527.18	222.35
527.36	259.80
527.53	201.29
527.70	222.35
527.87	180.22
528.04	220.01
528.21	189.58
528.38	269.16
528.55	189.58
528.72	257.46
528.89	194.26
529.07	175.54
529.24	243.42
529.41	257.46
529.58	212.99
529.75	201.29
529.92	198.95
530.09	168.52
530.26	170.86
530.43	187.24
530.60	180.22
530.77	191.92
530.94	231.71
531.11	191.92
531.28	245.76
531.46	215.33
531.63	280.86
531.80	187.24
531.97	161.50
532.14	196.60
532.31	220.01
532.48	217.67
532.65	217.67
532.82	383.85
532.99	306.61
533.16	308.95
533.33	224.69
533.50	201.29
533.67	313.63
533.84	395.55
534.01	407.25
534.18	348.74
534.35	290.23
534.52	215.33
534.69	322.99
534.86	210.65
535.03	187.24
535.20	222.35
535.37	191.92
535.54	126.39
535.71	227.03
535.88	269.16
536.05	210.65
536.22	208.31
536.38	198.95
536.55	175.54
536.72	198.95
536.89	227.03
537.06	252.78
537.23	198.95
537.40	236.39
537.57	184.90
537.74	257.46
537.91	187.24
538.08	217.67
538.25	156.82
538.42	175.54
538.59	271.50
538.75	191.92
538.92	147.45
539.09	208.31
539.26	222.35
539.43	390.87
539.60	809.83
539.77	1451.13
539.94	1565.82
540.11	1071.97
540.28	655.35
540.44	365.12
540.61	311.29
540.78	278.52
540.95	119.37
541.12	177.88
541.29	145.11
541.46	227.03
541.62	224.69
541.79	220.01
541.96	187.24
542.13	201.29
542.30	156.82
542.47	236.39
542.63	262.14
542.80	217.67
542.97	252.78
543.14	177.88
543.31	220.01
543.48	187.24
543.64	173.20
543.81	259.80
543.98	147.45
544.15	203.63
544.32	152.13
544.48	210.65
544.65	245.76
544.82	145.11
544.99	222.35
545.16	189.58
545.32	205.97
545.49	175.54
545.66	98.30
545.83	241.08
546.00	231.71
546.16	257.46
546.33	187.24
546.50	255.12
546.67	245.76
546.83	208.31
547.00	245.76
547.17	156.82
547.34	215.33
547.50	173.20
547.67	245.76
547.84	208.31
548.00	184.90
548.17	222.35
548.34	215.33
548.51	285.55
548.67	175.54
548.84	285.55
549.01	241.08
549.18	222.35
549.34	196.60
549.51	285.55
549.68	154.48
549.84	161.50
550.01	220.01
550.18	292.57
550.34	175.54
550.51	189.58
550.68	224.69
550.84	210.65
551.01	210.65
551.18	161.50
551.34	180.22
551.51	194.26
551.68	224.69
551.84	217.67
552.01	227.03
552.18	245.76
552.34	187.24
552.51	238.73
552.68	201.29
552.84	168.52
553.01	210.65
553.18	231.71
553.34	229.37
553.51	203.63
553.67	187.24
553.84	194.26
554.01	187.24
554.17	266.82
554.34	245.76
554.51	154.48
554.67	220.01
554.84	145.11
555.00	231.71
555.17	227.03
555.33	182.56
555.50	259.80
555.67	224.69
555.83	138.09
556.00	170.86
556.16	458.74
556.33	189.58
556.50	266.82
556.66	248.10
556.83	194.26
556.99	241.08
557.16	238.73
557.32	163.84
557.49	243.42
557.65	205.97
557.82	208.31
557.98	84.26
558.15	238.73
558.32	152.13
558.48	205.97
558.65	159.16
558.81	276.18
558.98	220.01
559.14	287.89
559.31	210.65
559.47	234.05
559.64	110.01
559.80	212.99
559.97	161.50
560.13	170.86
560.30	191.92
560.46	159.16
560.63	212.99
560.79	266.82
560.96	229.37
561.12	217.67
561.29	241.08
561.45	224.69
561.61	255.12
561.78	287.89
561.94	173.20
562.11	238.73
562.27	117.03
562.44	191.92
562.60	184.90
562.77	163.84
562.93	287.89
563.10	231.71
563.26	248.10
563.42	182.56
563.59	156.82
563.75	208.31
563.92	283.20
564.08	210.65
564.24	166.18
564.41	208.31
564.57	100.64
564.74	175.54
564.90	287.89
565.07	304.27
565.23	287.89
565.39	229.37
565.56	278.52
565.72	250.44
565.88	210.65
566.05	245.76
566.21	217.67
566.38	198.95
566.54	276.18
566.70	114.69
566.87	210.65
567.03	220.01
567.19	180.22
567.36	191.92
567.52	250.44
567.68	201.29
567.85	182.56
568.01	245.76
568.17	159.16
568.34	208.31
568.50	187.24
568.66	163.84
568.83	330.02
568.99	161.50
569.15	273.84
569.32	250.44
569.48	107.66
569.64	182.56
569.81	194.26
569.97	187.24
570.13	248.10
570.30	212.99
570.46	301.93
570.62	163.84
570.78	201.29
570.95	149.79
571.11	243.42
571.27	215.33
571.43	227.03
571.60	259.80
571.76	220.01
571.92	227.03
572.09	269.16
572.25	271.50
572.41	210.65
572.57	187.24
572.74	241.08
572.90	182.56
573.06	297.25
573.22	180.22
573.38	203.63
573.55	212.99
573.71	231.71
573.87	229.37
574.03	210.65
574.20	175.54
574.36	278.52
574.52	243.42
574.68	220.01
574.84	243.42
575.01	217.67
575.17	224.69
575.33	180.22
575.49	236.39
575.65	212.99
575.82	297.25
575.98	440.02
576.14	622.58
576.30	650.67
576.46	484.49
576.62	397.89
576.79	337.04
576.95	283.20
577.11	245.76
577.27	301.93
577.43	262.14
577.59	191.92
577.75	220.01
577.92	262.14
578.08	224.69
578.24	243.42
578.40	245.76
578.56	205.97
578.72	238.73
578.88	184.90
579.04	229.37
579.21	215.33
579.37	276.18
579.53	243.42
579.69	227.03
579.85	252.78
580.01	318.31
580.17	355.76
580.33	334.70
580.49	290.23
580.65	311.29
580.82	301.93
580.98	308.95
581.14	313.63
581.30	353.42
581.46	360.44
581.62	559.39
581.78	564.07
581.94	655.35
582.10	475.13
582.26	386.19
582.42	322.99
582.58	313.63
582.74	372.15
582.90	393.21
583.06	442.36
583.22	404.91
583.38	409.59
583.54	430.66
583.70	557.05
583.86	636.63
584.02	765.36
584.18	833.23
584.34	1130.48
584.50	2785.24
584.66	21263.77
584.82	53923.60
584.98	64811.77
585.14	62506.35
585.30	48151.84
585.46	28896.25
585.62	17661.68
585.78	8138.04
585.94	3131.64
586.10	1514.33
586.26	976.00
586.42	835.57
586.58	594.50
586.74	606.20
586.90	596.84
587.06	531.30
587.22	514.92
587.38	498.53
587.54	1128.14
587.70	3192.49
587.86	5614.95
588.02	6366.26
588.18	4435.32
588.34	2829.71
588.49	1799.87
588.65	1111.75
588.81	550.03
588.97	402.57
589.13	327.68
589.29	243.42
589.45	297.25
589.61	315.97
589.77	276.18
589.93	369.80
590.08	428.32
590.24	358.10
590.40	376.83
590.56	327.68
590.72	339.38
590.88	224.69
591.04	334.70
591.20	327.68
591.35	325.33
591.51	285.55
591.67	262.14
591.83	285.55
591.99	231.71
592.15	318.31
592.31	285.55
592.46	257.46
592.62	294.91
592.78	259.80
592.94	287.89
593.10	280.86
593.26	294.91
593.41	327.68
593.57	285.55
593.73	493.85
593.89	2633.10
594.05	6911.60
594.20	11171.38
594.36	10518.37
594.52	6834.36
594.68	4051.47
594.84	2780.56
594.99	1537.73
595.15	763.01
595.31	482.15
595.47	337.04
595.62	337.04
595.78	217.67
595.94	327.68
596.10	351.08
596.25	278.52
596.41	294.91
596.57	294.91
596.73	194.26
596.88	484.49
597.04	1252.19
597.20	2221.17
597.36	2682.25
597.51	2033.93
597.67	1315.38
597.83	833.23
597.99	702.16
598.14	348.74
598.30	322.99
598.46	301.93
598.61	238.73
598.77	322.99
598.93	257.46
599.09	257.46
599.24	184.90
599.40	318.31
599.56	264.48
599.71	208.31
599.87	175.54
600.03	215.33
600.18	208.31
600.34	304.27
600.50	229.37
600.65	152.13
600.81	217.67
600.97	161.50
601.12	262.14
601.28	259.80
601.44	224.69
601.59	220.01
601.75	191.92
601.91	280.86
602.06	280.86
602.22	318.31
602.37	603.86
602.53	1509.65
602.69	2509.05
602.84	2846.09
603.00	2090.10
603.16	1432.41
603.31	1013.45
603.47	690.46
603.62	374.49
603.78	318.31
603.94	264.48
604.09	304.27
604.25	322.99
604.40	280.86
604.56	280.86
604.71	220.01
604.87	238.73
605.03	194.26
605.18	208.31
605.34	308.95
605.49	208.31
605.65	166.18
605.80	278.52
605.96	259.80
606.12	234.05
606.27	315.97
606.43	304.27
606.58	294.91
606.74	866.00
606.89	3059.08
607.05	6586.27
607.20	9018.08
607.36	7691.00
607.51	5193.65
607.67	3321.22
607.82	2202.44
607.98	1163.25
608.13	695.14
608.29	374.49
608.44	383.85
608.60	346.40
608.75	472.79
608.91	1107.07
609.06	4730.22
609.22	11372.66
609.37	16004.58
609.53	14001.08
609.68	9188.94
609.84	5895.81
609.99	3904.01
610.15	2012.86
610.30	971.32
610.46	568.75
610.61	414.27
610.76	337.04
610.92	318.31
611.07	346.40
611.23	294.91
611.38	358.10
611.54	220.01
611.69	220.01
611.84	290.23
