SpectraSuite Data File
++++++++++++++++++++++++++++++++++++
Date: Fri Oct 04 11:47:03 GMT-05:00 2013
User: price-jones
Dark Spectrum Present: No
Reference Spectrum Present: No
Number of Sampled Component Spectra: 1
Spectrometers: USB2+H05261
Integration Time (usec): 100000 (USB2+H05261)
Spectra Averaged: 1 (USB2+H05261)
Boxcar Smoothing: 0 (USB2+H05261)
Correct for Electrical Dark: No (USB2+H05261)
Strobe/Lamp Enabled: No (USB2+H05261)
Correct for Detector Non-linearity: No (USB2+H05261)
Correct for Stray Light: No (USB2+H05261)
Number of Pixels in Processed Spectrum: 2048
>>>>>Begin Processed Spectral Data<<<<<
365.73	4.68
365.92	4.68
366.12	4.68
366.32	0.00
366.52	0.00
366.72	0.00
366.91	0.00
367.11	0.00
367.31	0.00
367.51	0.00
367.70	0.00
367.90	0.00
368.10	0.00
368.30	0.00
368.49	0.00
368.69	0.00
368.89	0.00
369.09	0.00
369.28	0.00
369.48	0.00
369.68	0.00
369.87	0.00
370.07	0.00
370.27	0.00
370.47	0.00
370.66	16.38
370.86	60.85
371.06	25.75
371.25	37.45
371.45	42.13
371.65	93.62
371.84	56.17
372.04	72.56
372.24	102.98
372.44	63.19
372.63	79.58
372.83	117.03
373.03	63.19
373.22	44.47
373.42	131.07
373.62	84.26
373.81	72.56
374.01	166.18
374.21	138.09
374.40	100.64
374.60	149.79
374.79	93.62
374.99	105.32
375.19	114.69
375.38	98.30
375.58	166.18
375.78	117.03
375.97	124.05
376.17	98.30
376.37	98.30
376.56	135.75
376.76	30.43
376.95	11.70
377.15	140.43
377.35	39.79
377.54	84.26
377.74	91.28
377.93	79.58
378.13	84.26
378.33	49.15
378.52	140.43
378.72	133.41
378.91	128.73
379.11	53.83
379.31	79.58
379.50	53.83
379.70	140.43
379.89	131.07
380.09	16.38
380.28	81.92
380.48	35.11
380.68	79.58
380.87	44.47
381.07	121.71
381.26	138.09
381.46	102.98
381.65	140.43
381.85	112.35
382.04	72.56
382.24	49.15
382.43	93.62
382.63	102.98
382.83	58.51
383.02	138.09
383.22	140.43
383.41	105.32
383.61	51.49
383.80	56.17
384.00	79.58
384.19	95.96
384.39	107.66
384.58	84.26
384.78	117.03
384.97	88.94
385.17	72.56
385.36	121.71
385.56	152.13
385.75	56.17
385.95	138.09
386.14	126.39
386.34	53.83
386.53	121.71
386.72	77.24
386.92	124.05
387.11	58.51
387.31	49.15
387.50	102.98
387.70	91.28
387.89	152.13
388.09	72.56
388.28	88.94
388.48	93.62
388.67	51.49
388.86	72.56
389.06	79.58
389.25	110.01
389.45	39.79
389.64	166.18
389.84	140.43
390.03	121.71
390.22	77.24
390.42	18.72
390.61	74.90
390.81	79.58
391.00	117.03
391.19	112.35
391.39	119.37
391.58	131.07
391.78	110.01
391.97	112.35
392.16	56.17
392.36	194.26
392.55	102.98
392.75	119.37
392.94	152.13
393.13	91.28
393.33	84.26
393.52	74.90
393.71	133.41
393.91	107.66
394.10	159.16
394.29	117.03
394.49	102.98
394.68	135.75
394.88	119.37
395.07	79.58
395.26	142.77
395.46	114.69
395.65	84.26
395.84	133.41
396.04	135.75
396.23	86.60
396.42	88.94
396.62	140.43
396.81	84.26
397.00	114.69
397.19	93.62
397.39	86.60
397.58	98.30
397.77	93.62
397.97	81.92
398.16	65.54
398.35	84.26
398.55	135.75
398.74	147.45
398.93	112.35
399.12	79.58
399.32	131.07
399.51	138.09
399.70	91.28
399.90	110.01
400.09	168.52
400.28	119.37
400.47	114.69
400.67	72.56
400.86	105.32
401.05	187.24
401.24	126.39
401.44	79.58
401.63	105.32
401.82	170.86
402.01	49.15
402.21	46.81
402.40	126.39
402.59	23.41
402.78	77.24
402.97	74.90
403.17	32.77
403.36	56.17
403.55	159.16
403.74	159.16
403.93	107.66
404.13	175.54
404.32	142.77
404.51	105.32
404.70	58.51
404.89	138.09
405.09	147.45
405.28	133.41
405.47	67.88
405.66	107.66
405.85	138.09
406.05	114.69
406.24	131.07
406.43	81.92
406.62	88.94
406.81	98.30
407.00	105.32
407.20	56.17
407.39	79.58
407.58	46.81
407.77	56.17
407.96	142.77
408.15	107.66
408.34	107.66
408.54	110.01
408.73	135.75
408.92	149.79
409.11	67.88
409.30	114.69
409.49	102.98
409.68	77.24
409.87	98.30
410.07	44.47
410.26	95.96
410.45	91.28
410.64	110.01
410.83	159.16
411.02	119.37
411.21	28.09
411.40	81.92
411.59	88.94
411.78	39.79
411.98	133.41
412.17	95.96
412.36	142.77
412.55	88.94
412.74	142.77
412.93	98.30
413.12	37.45
413.31	126.39
413.50	72.56
413.69	145.11
413.88	189.58
414.07	175.54
414.26	95.96
414.45	124.05
414.64	147.45
414.83	86.60
415.02	88.94
415.22	177.88
415.41	135.75
415.60	154.48
415.79	140.43
415.98	60.85
416.17	65.54
416.36	79.58
416.55	51.49
416.74	131.07
416.93	175.54
417.12	126.39
417.31	145.11
417.50	114.69
417.69	201.29
417.88	205.97
418.07	173.20
418.26	105.32
418.45	88.94
418.64	220.01
418.83	170.86
419.02	227.03
419.21	180.22
419.39	93.62
419.58	133.41
419.77	145.11
419.96	131.07
420.15	107.66
420.34	65.54
420.53	91.28
420.72	170.86
420.91	102.98
421.10	117.03
421.29	65.54
421.48	124.05
421.67	145.11
421.86	131.07
422.05	126.39
422.24	131.07
422.43	102.98
422.61	117.03
422.80	147.45
422.99	112.35
423.18	110.01
423.37	138.09
423.56	91.28
423.75	112.35
423.94	128.73
424.13	74.90
424.32	133.41
424.50	149.79
424.69	166.18
424.88	156.82
425.07	170.86
425.26	203.63
425.45	222.35
425.64	222.35
425.83	184.90
426.01	201.29
426.20	184.90
426.39	72.56
426.58	194.26
426.77	156.82
426.96	128.73
427.15	100.64
427.33	114.69
427.52	145.11
427.71	98.30
427.90	203.63
428.09	88.94
428.28	135.75
428.46	81.92
428.65	102.98
428.84	74.90
429.03	138.09
429.22	81.92
429.40	95.96
429.59	119.37
429.78	229.37
429.97	51.49
430.16	112.35
430.34	168.52
430.53	114.69
430.72	102.98
430.91	187.24
431.10	95.96
431.28	98.30
431.47	168.52
431.66	140.43
431.85	88.94
432.03	93.62
432.22	156.82
432.41	133.41
432.60	203.63
432.79	208.31
432.97	259.80
433.16	264.48
433.35	182.56
433.54	140.43
433.72	107.66
433.91	182.56
434.10	168.52
434.28	234.05
434.47	131.07
434.66	203.63
434.85	191.92
435.03	86.60
435.22	170.86
435.41	196.60
435.59	220.01
435.78	194.26
435.97	147.45
436.16	166.18
436.34	65.54
436.53	110.01
436.72	135.75
436.90	70.22
437.09	170.86
437.28	65.54
437.46	86.60
437.65	180.22
437.84	145.11
438.02	152.13
438.21	208.31
438.40	161.50
438.58	128.73
438.77	131.07
438.96	126.39
439.14	93.62
439.33	126.39
439.52	105.32
439.70	135.75
439.89	145.11
440.08	100.64
440.26	88.94
440.45	220.01
440.63	102.98
440.82	189.58
441.01	91.28
441.19	126.39
441.38	95.96
441.57	156.82
441.75	140.43
441.94	128.73
442.12	138.09
442.31	117.03
442.50	147.45
442.68	135.75
442.87	119.37
443.05	131.07
443.24	175.54
443.43	205.97
443.61	166.18
443.80	140.43
443.98	168.52
444.17	79.58
444.35	124.05
444.54	121.71
444.73	79.58
444.91	163.84
445.10	124.05
445.28	154.48
445.47	117.03
445.65	149.79
445.84	131.07
446.02	175.54
446.21	156.82
446.39	107.66
446.58	117.03
446.77	28.09
446.95	107.66
447.14	131.07
447.32	236.39
447.51	166.18
447.69	145.11
447.88	131.07
448.06	166.18
448.25	194.26
448.43	110.01
448.62	142.77
448.80	166.18
448.99	142.77
449.17	212.99
449.36	159.16
449.54	149.79
449.73	107.66
449.91	184.90
450.10	149.79
450.28	175.54
450.46	194.26
450.65	133.41
450.83	138.09
451.02	128.73
451.20	107.66
451.39	58.51
451.57	145.11
451.76	117.03
451.94	124.05
452.13	156.82
452.31	187.24
452.49	152.13
452.68	44.47
452.86	114.69
453.05	231.71
453.23	154.48
453.42	142.77
453.60	110.01
453.78	133.41
453.97	161.50
454.15	180.22
454.34	81.92
454.52	98.30
454.70	217.67
454.89	154.48
455.07	135.75
455.26	159.16
455.44	191.92
455.62	114.69
455.81	140.43
455.99	140.43
456.17	201.29
456.36	128.73
456.54	102.98
456.73	124.05
456.91	105.32
457.09	114.69
457.28	142.77
457.46	140.43
457.64	163.84
457.83	84.26
458.01	138.09
458.19	145.11
458.38	147.45
458.56	159.16
458.74	46.81
458.93	126.39
459.11	159.16
459.29	112.35
459.48	166.18
459.66	107.66
459.84	166.18
460.03	327.68
460.21	147.45
460.39	98.30
460.57	196.60
460.76	119.37
460.94	163.84
461.12	187.24
461.31	180.22
461.49	124.05
461.67	105.32
461.85	217.67
462.04	212.99
462.22	594.50
462.40	124.05
462.59	142.77
462.77	131.07
462.95	149.79
463.13	63.19
463.32	208.31
463.50	163.84
463.68	138.09
463.86	145.11
464.05	142.77
464.23	170.86
464.41	159.16
464.59	177.88
464.78	86.60
464.96	102.98
465.14	126.39
465.32	107.66
465.50	110.01
465.69	236.39
465.87	114.69
466.05	163.84
466.23	2.34
466.41	79.58
466.60	182.56
466.78	84.26
466.96	117.03
467.14	184.90
467.32	119.37
467.51	217.67
467.69	135.75
467.87	217.67
468.05	102.98
468.23	196.60
468.41	117.03
468.60	124.05
468.78	81.92
468.96	217.67
469.14	184.90
469.32	110.01
469.50	110.01
469.69	222.35
469.87	117.03
470.05	152.13
470.23	117.03
470.41	128.73
470.59	184.90
470.77	173.20
470.95	212.99
471.14	175.54
471.32	119.37
471.50	161.50
471.68	110.01
471.86	177.88
472.04	110.01
472.22	121.71
472.40	112.35
472.58	159.16
472.77	138.09
472.95	154.48
473.13	198.95
473.31	170.86
473.49	142.77
473.67	119.37
473.85	147.45
474.03	145.11
474.21	119.37
474.39	231.71
474.57	194.26
474.75	159.16
474.93	154.48
475.12	86.60
475.30	117.03
475.48	95.96
475.66	182.56
475.84	154.48
476.02	37.45
476.20	124.05
476.38	138.09
476.56	203.63
476.74	170.86
476.92	161.50
477.10	168.52
477.28	117.03
477.46	189.58
477.64	105.32
477.82	107.66
478.00	170.86
478.18	189.58
478.36	107.66
478.54	138.09
478.72	72.56
478.90	149.79
479.08	154.48
479.26	63.19
479.44	121.71
479.62	91.28
479.80	152.13
479.98	114.69
480.16	58.51
480.34	147.45
480.52	203.63
480.70	191.92
480.88	142.77
481.06	147.45
481.24	112.35
481.41	119.37
481.59	180.22
481.77	112.35
481.95	124.05
482.13	266.82
482.31	248.10
482.49	133.41
482.67	159.16
482.85	173.20
483.03	252.78
483.21	126.39
483.39	203.63
483.57	135.75
483.74	191.92
483.92	140.43
484.10	159.16
484.28	205.97
484.46	222.35
484.64	84.26
484.82	191.92
485.00	147.45
485.18	133.41
485.35	102.98
485.53	128.73
485.71	152.13
485.89	149.79
486.07	196.60
486.25	203.63
486.43	208.31
486.61	145.11
486.78	163.84
486.96	114.69
487.14	245.76
487.32	210.65
487.50	107.66
487.68	238.73
487.85	159.16
488.03	135.75
488.21	131.07
488.39	187.24
488.57	217.67
488.75	152.13
488.92	414.27
489.10	201.29
489.28	201.29
489.46	114.69
489.64	149.79
489.81	140.43
489.99	149.79
490.17	161.50
490.35	210.65
490.53	196.60
490.70	142.77
490.88	175.54
491.06	173.20
491.24	142.77
491.41	210.65
491.59	182.56
491.77	135.75
491.95	203.63
492.13	145.11
492.30	161.50
492.48	142.77
492.66	180.22
492.84	105.32
493.01	187.24
493.19	145.11
493.37	262.14
493.54	234.05
493.72	163.84
493.90	145.11
494.08	173.20
494.25	203.63
494.43	168.52
494.61	98.30
494.79	163.84
494.96	119.37
495.14	156.82
495.32	163.84
495.49	191.92
495.67	187.24
495.85	98.30
496.02	133.41
496.20	215.33
496.38	203.63
496.55	196.60
496.73	255.12
496.91	161.50
497.09	191.92
497.26	100.64
497.44	201.29
497.62	212.99
497.79	131.07
497.97	187.24
498.14	222.35
498.32	191.92
498.50	236.39
498.67	124.05
498.85	234.05
499.03	177.88
499.20	224.69
499.38	180.22
499.56	154.48
499.73	259.80
499.91	98.30
500.08	105.32
500.26	184.90
500.44	231.71
500.61	201.29
500.79	147.45
500.97	217.67
501.14	201.29
501.32	175.54
501.49	224.69
501.67	117.03
501.84	168.52
502.02	138.09
502.20	262.14
502.37	163.84
502.55	163.84
502.72	180.22
502.90	234.05
503.07	227.03
503.25	184.90
503.43	224.69
503.60	161.50
503.78	147.45
503.95	156.82
504.13	156.82
504.30	194.26
504.48	224.69
504.65	191.92
504.83	215.33
505.01	182.56
505.18	138.09
505.36	191.92
505.53	257.46
505.71	229.37
505.88	175.54
506.06	131.07
506.23	175.54
506.41	163.84
506.58	173.20
506.76	194.26
506.93	184.90
507.11	184.90
507.28	231.71
507.46	170.86
507.63	191.92
507.81	177.88
507.98	215.33
508.16	217.67
508.33	276.18
508.50	189.58
508.68	191.92
508.85	133.41
509.03	196.60
509.20	196.60
509.38	220.01
509.55	252.78
509.73	318.31
509.90	208.31
510.08	147.45
510.25	135.75
510.42	208.31
510.60	198.95
510.77	264.48
510.95	236.39
511.12	184.90
511.30	259.80
511.47	264.48
511.64	236.39
511.82	175.54
511.99	194.26
512.17	201.29
512.34	166.18
512.51	222.35
512.69	147.45
512.86	187.24
513.04	203.63
513.21	227.03
513.38	224.69
513.56	177.88
513.73	124.05
513.90	210.65
514.08	224.69
514.25	222.35
514.43	257.46
514.60	194.26
514.77	128.73
514.95	231.71
515.12	229.37
515.29	273.84
515.47	131.07
515.64	170.86
515.81	126.39
515.99	131.07
516.16	220.01
516.33	224.69
516.51	156.82
516.68	117.03
516.85	149.79
517.03	145.11
517.20	234.05
517.37	175.54
517.54	191.92
517.72	107.66
517.89	145.11
518.06	121.71
518.24	236.39
518.41	166.18
518.58	196.60
518.75	102.98
518.93	271.50
519.10	198.95
519.27	210.65
519.45	241.08
519.62	191.92
519.79	231.71
519.96	222.35
520.14	205.97
520.31	245.76
520.48	231.71
520.65	255.12
520.83	299.59
521.00	222.35
521.17	238.73
521.34	152.13
521.52	189.58
521.69	290.23
521.86	231.71
522.03	271.50
522.20	196.60
522.38	182.56
522.55	231.71
522.72	273.84
522.89	133.41
523.07	248.10
523.24	201.29
523.41	222.35
523.58	189.58
523.75	173.20
523.92	138.09
524.10	229.37
524.27	231.71
524.44	194.26
524.61	287.89
524.78	220.01
524.96	231.71
525.13	205.97
525.30	262.14
525.47	266.82
525.64	259.80
525.81	311.29
525.98	212.99
526.16	191.92
526.33	147.45
526.50	180.22
526.67	133.41
526.84	156.82
527.01	234.05
527.18	154.48
527.36	184.90
527.53	138.09
527.70	262.14
527.87	227.03
528.04	245.76
528.21	205.97
528.38	236.39
528.55	147.45
528.72	170.86
528.89	229.37
529.07	229.37
529.24	201.29
529.41	255.12
529.58	234.05
529.75	159.16
529.92	177.88
530.09	259.80
530.26	231.71
530.43	198.95
530.60	205.97
530.77	264.48
530.94	201.29
531.11	201.29
531.28	175.54
531.46	117.03
531.63	222.35
531.80	224.69
531.97	154.48
532.14	154.48
532.31	117.03
532.48	252.78
532.65	301.93
532.82	400.23
532.99	442.36
533.16	344.06
533.33	299.59
533.50	227.03
533.67	318.31
533.84	444.70
534.01	517.26
534.18	402.57
534.35	351.08
534.52	252.78
534.69	280.86
534.86	292.57
535.03	156.82
535.20	194.26
535.37	245.76
535.54	217.67
535.71	245.76
535.88	231.71
536.05	241.08
536.22	229.37
536.38	248.10
536.55	248.10
536.72	245.76
536.89	187.24
537.06	217.67
537.23	271.50
537.40	196.60
537.57	271.50
537.74	173.20
537.91	208.31
538.08	163.84
538.25	166.18
538.42	238.73
538.59	212.99
538.75	196.60
538.92	210.65
539.09	231.71
539.26	208.31
539.43	564.07
539.60	1406.66
539.77	2092.44
539.94	2012.86
540.11	1221.76
540.28	805.14
540.44	512.58
540.61	332.36
540.78	245.76
540.95	147.45
541.12	365.12
541.29	203.63
541.46	264.48
541.62	259.80
541.79	177.88
541.96	191.92
542.13	234.05
542.30	203.63
542.47	229.37
542.63	212.99
542.80	266.82
542.97	269.16
543.14	245.76
543.31	224.69
543.48	166.18
543.64	175.54
543.81	248.10
543.98	184.90
544.15	131.07
544.32	126.39
544.48	184.90
544.65	229.37
544.82	259.80
544.99	248.10
545.16	175.54
545.32	180.22
545.49	189.58
545.66	156.82
545.83	201.29
546.00	201.29
546.16	184.90
546.33	166.18
546.50	166.18
546.67	203.63
546.83	170.86
547.00	156.82
547.17	201.29
547.34	161.50
547.50	194.26
547.67	191.92
547.84	166.18
548.00	231.71
548.17	257.46
548.34	180.22
548.51	236.39
548.67	276.18
548.84	187.24
549.01	187.24
549.18	271.50
549.34	241.08
549.51	198.95
549.68	311.29
549.84	173.20
550.01	220.01
550.18	315.97
550.34	231.71
550.51	196.60
550.68	283.20
550.84	140.43
551.01	180.22
551.18	220.01
551.34	177.88
551.51	217.67
551.68	173.20
551.84	189.58
552.01	173.20
552.18	245.76
552.34	156.82
552.51	126.39
552.68	215.33
552.84	234.05
553.01	210.65
553.18	180.22
553.34	252.78
553.51	224.69
553.67	182.56
553.84	280.86
554.01	203.63
554.17	175.54
554.34	229.37
554.51	173.20
554.67	215.33
554.84	299.59
555.00	238.73
555.17	215.33
555.33	266.82
555.50	250.44
555.67	269.16
555.83	229.37
556.00	231.71
556.16	458.74
556.33	222.35
556.50	227.03
556.66	257.46
556.83	276.18
556.99	201.29
557.16	269.16
557.32	161.50
557.49	170.86
557.65	292.57
557.82	138.09
557.98	229.37
558.15	248.10
558.32	184.90
558.48	210.65
558.65	196.60
558.81	257.46
558.98	117.03
559.14	170.86
559.31	173.20
559.47	259.80
559.64	198.95
559.80	210.65
559.97	217.67
560.13	257.46
560.30	135.75
560.46	198.95
560.63	231.71
560.79	212.99
560.96	173.20
561.12	189.58
561.29	250.44
561.45	156.82
561.61	189.58
561.78	234.05
561.94	210.65
562.11	238.73
562.27	88.94
562.44	170.86
562.60	262.14
562.77	184.90
562.93	276.18
563.10	224.69
563.26	175.54
563.42	217.67
563.59	201.29
563.75	152.13
563.92	210.65
564.08	184.90
564.24	241.08
564.41	227.03
564.57	128.73
564.74	248.10
564.90	299.59
565.07	191.92
565.23	315.97
565.39	304.27
565.56	262.14
565.72	245.76
565.88	194.26
566.05	128.73
566.21	142.77
566.38	173.20
566.54	156.82
566.70	205.97
566.87	264.48
567.03	201.29
567.19	245.76
567.36	306.61
567.52	170.86
567.68	248.10
567.85	297.25
568.01	217.67
568.17	173.20
568.34	212.99
568.50	222.35
568.66	259.80
568.83	234.05
568.99	191.92
569.15	187.24
569.32	156.82
569.48	184.90
569.64	175.54
569.81	126.39
569.97	161.50
570.13	227.03
570.30	203.63
570.46	166.18
570.62	177.88
570.78	194.26
570.95	175.54
571.11	269.16
571.27	269.16
571.43	210.65
571.60	243.42
571.76	257.46
571.92	227.03
572.09	250.44
572.25	276.18
572.41	234.05
572.57	173.20
572.74	194.26
572.90	145.11
573.06	227.03
573.22	212.99
573.38	191.92
573.55	161.50
573.71	238.73
573.87	224.69
574.03	173.20
574.20	255.12
574.36	308.95
574.52	348.74
574.68	442.36
574.84	280.86
575.01	332.36
575.17	257.46
575.33	273.84
575.49	266.82
575.65	264.48
575.82	393.21
575.98	716.20
576.14	938.55
576.30	861.32
576.46	671.73
576.62	507.90
576.79	430.66
576.95	355.76
577.11	234.05
577.27	231.71
577.43	299.59
577.59	327.68
577.75	241.08
577.92	222.35
578.08	250.44
578.24	245.76
578.40	318.31
578.56	348.74
578.72	337.04
578.88	287.89
579.04	292.57
579.21	269.16
579.37	299.59
579.53	278.52
579.69	311.29
579.85	334.70
580.01	365.12
580.17	451.72
580.33	428.32
580.49	440.02
580.65	435.34
580.82	297.25
580.98	318.31
581.14	278.52
581.30	404.91
581.46	456.40
581.62	723.23
581.78	800.46
581.94	725.57
582.10	631.94
582.26	559.39
582.42	437.68
582.58	372.15
582.74	470.45
582.90	510.24
583.06	543.00
583.22	507.90
583.38	578.11
583.54	521.94
583.70	830.89
583.86	858.98
584.02	964.30
584.18	1277.93
584.34	1565.82
584.50	4606.17
584.66	37820.72
584.82	65535.00
584.98	65535.00
585.14	65535.00
585.30	64320.26
585.46	43852.28
585.62	26342.73
585.78	12009.29
585.94	4772.35
586.10	2097.12
586.26	1448.79
586.42	1053.24
586.58	833.23
586.74	826.21
586.90	800.46
587.06	727.91
587.22	629.60
587.38	638.97
587.54	1610.29
587.70	5336.42
587.86	8549.98
588.02	9289.59
588.18	6443.49
588.34	4056.15
588.49	2733.75
588.65	1631.35
588.81	812.17
588.97	447.04
589.13	365.12
589.29	346.40
589.45	365.12
589.61	374.49
589.77	489.17
589.93	484.49
590.08	606.20
590.24	535.98
590.40	510.24
590.56	454.06
590.72	458.74
590.88	372.15
591.04	330.02
591.20	374.49
591.35	334.70
591.51	346.40
591.67	304.27
591.83	353.42
591.99	346.40
592.15	287.89
592.31	358.10
592.46	238.73
592.62	388.53
592.78	322.99
592.94	201.29
593.10	278.52
593.26	313.63
593.41	325.33
593.57	428.32
593.73	674.07
593.89	4241.05
594.05	11105.84
594.20	16208.21
594.36	14998.15
594.52	9713.22
594.68	6043.26
594.84	3992.95
594.99	2139.25
595.15	898.77
595.31	592.16
595.47	425.98
595.62	334.70
595.78	320.65
595.94	341.72
596.10	402.57
596.25	365.12
596.41	411.93
596.57	390.87
596.73	304.27
596.88	674.07
597.04	1877.11
597.20	3328.24
597.36	3915.72
597.51	2850.77
597.67	1937.96
597.83	1301.34
597.99	842.59
598.14	540.66
598.30	411.93
598.46	304.27
598.61	411.93
598.77	337.04
598.93	294.91
599.09	299.59
599.24	255.12
599.40	278.52
599.56	290.23
599.71	294.91
599.87	266.82
600.03	271.50
600.18	290.23
600.34	222.35
600.50	273.84
600.65	180.22
600.81	194.26
600.97	238.73
601.12	224.69
601.28	285.55
601.44	252.78
601.59	191.92
601.75	287.89
601.91	224.69
602.06	299.59
602.22	358.10
602.37	978.34
602.53	2532.46
602.69	3929.76
602.84	3932.10
603.00	2951.42
603.16	1879.45
603.31	1364.53
603.47	889.40
603.62	491.51
603.78	271.50
603.94	334.70
604.09	255.12
604.25	318.31
604.40	320.65
604.56	252.78
604.71	264.48
604.87	271.50
605.03	259.80
605.18	306.61
605.34	283.20
605.49	278.52
605.65	264.48
605.80	248.10
605.96	299.59
606.12	304.27
606.27	348.74
606.43	388.53
606.58	475.13
606.74	1055.58
606.89	5193.65
607.05	10562.84
607.20	13715.54
607.36	11073.07
607.51	7417.16
607.67	4676.39
607.82	3190.15
607.98	1640.72
608.13	866.00
608.29	503.22
608.44	503.22
608.60	514.92
608.75	653.01
608.91	1621.99
609.06	8187.19
609.22	18207.03
609.37	24364.98
609.53	20643.52
609.68	13408.93
609.84	8540.61
609.99	5696.86
610.15	2998.23
610.30	1331.76
610.46	781.74
610.61	540.66
610.76	489.17
610.92	374.49
611.07	372.15
611.23	463.43
611.38	411.93
611.54	315.97
611.69	313.63
