SpectraSuite Data File
++++++++++++++++++++++++++++++++++++
Date: Fri Oct 04 11:47:23 GMT-05:00 2013
User: price-jones
Dark Spectrum Present: No
Reference Spectrum Present: No
Number of Sampled Component Spectra: 1
Spectrometers: USB2+H05261
Integration Time (usec): 100000 (USB2+H05261)
Spectra Averaged: 1 (USB2+H05261)
Boxcar Smoothing: 0 (USB2+H05261)
Correct for Electrical Dark: No (USB2+H05261)
Strobe/Lamp Enabled: No (USB2+H05261)
Correct for Detector Non-linearity: No (USB2+H05261)
Correct for Stray Light: No (USB2+H05261)
Number of Pixels in Processed Spectrum: 2048
>>>>>Begin Processed Spectral Data<<<<<
365.73	42.13
365.92	42.13
366.12	42.13
366.32	0.00
366.52	0.00
366.72	0.00
366.91	0.00
367.11	0.00
367.31	0.00
367.51	0.00
367.70	0.00
367.90	0.00
368.10	0.00
368.30	0.00
368.49	2.34
368.69	0.00
368.89	0.00
369.09	0.00
369.28	0.00
369.48	0.00
369.68	32.77
369.87	11.70
370.07	0.00
370.27	0.00
370.47	49.15
370.66	72.56
370.86	32.77
371.06	60.85
371.25	119.37
371.45	81.92
371.65	140.43
371.84	70.22
372.04	63.19
372.24	105.32
372.44	88.94
372.63	117.03
372.83	121.71
373.03	170.86
373.22	86.60
373.42	140.43
373.62	72.56
373.81	107.66
374.01	121.71
374.21	142.77
374.40	39.79
374.60	126.39
374.79	100.64
374.99	105.32
375.19	114.69
375.38	46.81
375.58	117.03
375.78	67.88
375.97	131.07
376.17	182.56
376.37	131.07
376.56	95.96
376.76	51.49
376.95	154.48
377.15	100.64
377.35	88.94
377.54	60.85
377.74	93.62
377.93	91.28
378.13	110.01
378.33	124.05
378.52	128.73
378.72	140.43
378.91	163.84
379.11	72.56
379.31	95.96
379.50	72.56
379.70	95.96
379.89	112.35
380.09	91.28
380.28	126.39
380.48	81.92
380.68	105.32
380.87	145.11
381.07	105.32
381.26	149.79
381.46	147.45
381.65	60.85
381.85	74.90
382.04	49.15
382.24	105.32
382.43	100.64
382.63	74.90
382.83	133.41
383.02	133.41
383.22	93.62
383.41	81.92
383.61	56.17
383.80	9.36
384.00	65.54
384.19	18.72
384.39	91.28
384.58	74.90
384.78	147.45
384.97	133.41
385.17	95.96
385.36	95.96
385.56	65.54
385.75	49.15
385.95	166.18
386.14	86.60
386.34	72.56
386.53	74.90
386.72	74.90
386.92	93.62
387.11	105.32
387.31	105.32
387.50	37.45
387.70	102.98
387.89	95.96
388.09	42.13
388.28	124.05
388.48	72.56
388.67	117.03
388.86	156.82
389.06	86.60
389.25	112.35
389.45	168.52
389.64	110.01
389.84	180.22
390.03	128.73
390.22	79.58
390.42	77.24
390.61	110.01
390.81	93.62
391.00	84.26
391.19	84.26
391.39	51.49
391.58	121.71
391.78	35.11
391.97	124.05
392.16	58.51
392.36	110.01
392.55	84.26
392.75	53.83
392.94	49.15
393.13	117.03
393.33	65.54
393.52	131.07
393.71	180.22
393.91	124.05
394.10	74.90
394.29	133.41
394.49	119.37
394.68	177.88
394.88	133.41
395.07	100.64
395.26	58.51
395.46	203.63
395.65	224.69
395.84	159.16
396.04	161.50
396.23	95.96
396.42	140.43
396.62	98.30
396.81	128.73
397.00	102.98
397.19	142.77
397.39	124.05
397.58	147.45
397.77	166.18
397.97	91.28
398.16	133.41
398.35	128.73
398.55	93.62
398.74	128.73
398.93	124.05
399.12	100.64
399.32	156.82
399.51	95.96
399.70	152.13
399.90	133.41
400.09	161.50
400.28	84.26
400.47	121.71
400.67	154.48
400.86	95.96
401.05	112.35
401.24	105.32
401.44	215.33
401.63	117.03
401.82	110.01
402.01	105.32
402.21	60.85
402.40	126.39
402.59	182.56
402.78	100.64
402.97	107.66
403.17	98.30
403.36	128.73
403.55	114.69
403.74	177.88
403.93	170.86
404.13	201.29
404.32	117.03
404.51	156.82
404.70	135.75
404.89	114.69
405.09	133.41
405.28	140.43
405.47	81.92
405.66	161.50
405.85	203.63
406.05	102.98
406.24	168.52
406.43	142.77
406.62	138.09
406.81	166.18
407.00	196.60
407.20	117.03
407.39	168.52
407.58	161.50
407.77	124.05
407.96	173.20
408.15	170.86
408.34	119.37
408.54	119.37
408.73	166.18
408.92	159.16
409.11	161.50
409.30	81.92
409.49	95.96
409.68	147.45
409.87	77.24
410.07	147.45
410.26	152.13
410.45	117.03
410.64	121.71
410.83	131.07
411.02	145.11
411.21	208.31
411.40	184.90
411.59	208.31
411.78	161.50
411.98	133.41
412.17	166.18
412.36	166.18
412.55	93.62
412.74	168.52
412.93	156.82
413.12	161.50
413.31	210.65
413.50	142.77
413.69	196.60
413.88	152.13
414.07	149.79
414.26	159.16
414.45	152.13
414.64	163.84
414.83	166.18
415.02	222.35
415.22	201.29
415.41	203.63
415.60	81.92
415.79	201.29
415.98	121.71
416.17	93.62
416.36	140.43
416.55	154.48
416.74	224.69
416.93	191.92
417.12	159.16
417.31	177.88
417.50	126.39
417.69	229.37
417.88	131.07
418.07	234.05
418.26	198.95
418.45	173.20
418.64	215.33
418.83	180.22
419.02	208.31
419.21	189.58
419.39	238.73
419.58	95.96
419.77	140.43
419.96	161.50
420.15	140.43
420.34	196.60
420.53	177.88
420.72	177.88
420.91	201.29
421.10	175.54
421.29	203.63
421.48	147.45
421.67	126.39
421.86	250.44
422.05	114.69
422.24	114.69
422.43	187.24
422.61	147.45
422.80	191.92
422.99	182.56
423.18	184.90
423.37	182.56
423.56	198.95
423.75	196.60
423.94	149.79
424.13	112.35
424.32	173.20
424.50	102.98
424.69	81.92
424.88	203.63
425.07	117.03
425.26	135.75
425.45	133.41
425.64	163.84
425.83	177.88
426.01	278.52
426.20	229.37
426.39	168.52
426.58	194.26
426.77	173.20
426.96	229.37
427.15	189.58
427.33	126.39
427.52	173.20
427.71	159.16
427.90	173.20
428.09	201.29
428.28	128.73
428.46	152.13
428.65	196.60
428.84	110.01
429.03	187.24
429.22	208.31
429.40	114.69
429.59	124.05
429.78	95.96
429.97	88.94
430.16	93.62
430.34	163.84
430.53	79.58
430.72	21.06
430.91	187.24
431.10	114.69
431.28	170.86
431.47	271.50
431.66	102.98
431.85	152.13
432.03	184.90
432.22	220.01
432.41	138.09
432.60	208.31
432.79	105.32
432.97	236.39
433.16	180.22
433.35	163.84
433.54	224.69
433.72	241.08
433.91	170.86
434.10	201.29
434.28	177.88
434.47	220.01
434.66	170.86
434.85	142.77
435.03	182.56
435.22	241.08
435.41	224.69
435.59	170.86
435.78	238.73
435.97	166.18
436.16	166.18
436.34	140.43
436.53	196.60
436.72	175.54
436.90	313.63
437.09	224.69
437.28	180.22
437.46	173.20
437.65	180.22
437.84	135.75
438.02	161.50
438.21	173.20
438.40	154.48
438.58	102.98
438.77	114.69
438.96	145.11
439.14	243.42
439.33	191.92
439.52	131.07
439.70	201.29
439.89	173.20
440.08	166.18
440.26	198.95
440.45	269.16
440.63	224.69
440.82	156.82
441.01	210.65
441.19	140.43
441.38	231.71
441.57	255.12
441.75	180.22
441.94	252.78
442.12	168.52
442.31	175.54
442.50	140.43
442.68	210.65
442.87	217.67
443.05	217.67
443.24	215.33
443.43	262.14
443.61	168.52
443.80	215.33
443.98	124.05
444.17	201.29
444.35	229.37
444.54	210.65
444.73	236.39
444.91	227.03
445.10	210.65
445.28	140.43
445.47	126.39
445.65	149.79
445.84	131.07
446.02	245.76
446.21	224.69
446.39	229.37
446.58	266.82
446.77	203.63
446.95	138.09
447.14	198.95
447.32	217.67
447.51	191.92
447.69	198.95
447.88	161.50
448.06	208.31
448.25	205.97
448.43	203.63
448.62	145.11
448.80	217.67
448.99	220.01
449.17	140.43
449.36	203.63
449.54	161.50
449.73	191.92
449.91	210.65
450.10	170.86
450.28	227.03
450.46	210.65
450.65	257.46
450.83	273.84
451.02	114.69
451.20	243.42
451.39	241.08
451.57	231.71
451.76	184.90
451.94	215.33
452.13	280.86
452.31	245.76
452.49	210.65
452.68	95.96
452.86	194.26
453.05	194.26
453.23	110.01
453.42	234.05
453.60	212.99
453.78	276.18
453.97	173.20
454.15	266.82
454.34	180.22
454.52	243.42
454.70	194.26
454.89	168.52
455.07	208.31
455.26	243.42
455.44	227.03
455.62	273.84
455.81	187.24
455.99	243.42
456.17	236.39
456.36	215.33
456.54	198.95
456.73	140.43
456.91	191.92
457.09	234.05
457.28	205.97
457.46	255.12
457.64	259.80
457.83	182.56
458.01	201.29
458.19	224.69
458.38	133.41
458.56	224.69
458.74	208.31
458.93	262.14
459.11	215.33
459.29	234.05
459.48	189.58
459.66	266.82
459.84	308.95
460.03	290.23
460.21	245.76
460.39	163.84
460.57	180.22
460.76	252.78
460.94	236.39
461.12	257.46
461.31	245.76
461.49	262.14
461.67	163.84
461.85	215.33
462.04	201.29
462.22	725.57
462.40	234.05
462.59	234.05
462.77	175.54
462.95	248.10
463.13	212.99
463.32	236.39
463.50	117.03
463.68	156.82
463.86	194.26
464.05	229.37
464.23	269.16
464.41	276.18
464.59	168.52
464.78	191.92
464.96	126.39
465.14	196.60
465.32	238.73
465.50	161.50
465.69	203.63
465.87	187.24
466.05	248.10
466.23	220.01
466.41	217.67
466.60	201.29
466.78	126.39
466.96	215.33
467.14	236.39
467.32	215.33
467.51	189.58
467.69	231.71
467.87	339.38
468.05	220.01
468.23	276.18
468.41	294.91
468.60	201.29
468.78	184.90
468.96	264.48
469.14	208.31
469.32	271.50
469.50	257.46
469.69	166.18
469.87	194.26
470.05	173.20
470.23	147.45
470.41	212.99
470.59	135.75
470.77	212.99
470.95	212.99
471.14	248.10
471.32	290.23
471.50	248.10
471.68	201.29
471.86	229.37
472.04	203.63
472.22	280.86
472.40	224.69
472.58	229.37
472.77	161.50
472.95	203.63
473.13	271.50
473.31	227.03
473.49	196.60
473.67	269.16
473.85	215.33
474.03	262.14
474.21	231.71
474.39	222.35
474.57	266.82
474.75	269.16
474.93	205.97
475.12	149.79
475.30	212.99
475.48	196.60
475.66	156.82
475.84	133.41
476.02	220.01
476.20	259.80
476.38	161.50
476.56	269.16
476.74	255.12
476.92	234.05
477.10	224.69
477.28	271.50
477.46	271.50
477.64	227.03
477.82	248.10
478.00	241.08
478.18	241.08
478.36	180.22
478.54	189.58
478.72	259.80
478.90	234.05
479.08	224.69
479.26	222.35
479.44	217.67
479.62	168.52
479.80	208.31
479.98	168.52
480.16	290.23
480.34	280.86
480.52	201.29
480.70	224.69
480.88	269.16
481.06	187.24
481.24	189.58
481.41	262.14
481.59	320.65
481.77	238.73
481.95	271.50
482.13	290.23
482.31	231.71
482.49	292.57
482.67	315.97
482.85	238.73
483.03	222.35
483.21	304.27
483.39	306.61
483.57	301.93
483.74	315.97
483.92	264.48
484.10	227.03
484.28	215.33
484.46	358.10
484.64	318.31
484.82	250.44
485.00	222.35
485.18	252.78
485.35	184.90
485.53	234.05
485.71	259.80
485.89	231.71
486.07	243.42
486.25	238.73
486.43	234.05
486.61	313.63
486.78	292.57
486.96	269.16
487.14	217.67
487.32	224.69
487.50	280.86
487.68	264.48
487.85	262.14
488.03	229.37
488.21	400.23
488.39	285.55
488.57	351.08
488.75	271.50
488.92	568.75
489.10	334.70
489.28	400.23
489.46	297.25
489.64	346.40
489.81	330.02
489.99	360.44
490.17	287.89
490.35	339.38
490.53	318.31
490.70	299.59
490.88	351.08
491.06	278.52
491.24	346.40
491.41	301.93
491.59	278.52
491.77	210.65
491.95	212.99
492.13	220.01
492.30	315.97
492.48	358.10
492.66	287.89
492.84	290.23
493.01	320.65
493.19	283.20
493.37	346.40
493.54	301.93
493.72	339.38
493.90	290.23
494.08	243.42
494.25	332.36
494.43	360.44
494.61	379.17
494.79	341.72
494.96	269.16
495.14	313.63
495.32	248.10
495.49	367.46
495.67	299.59
495.85	290.23
496.02	344.06
496.20	304.27
496.38	311.29
496.55	325.33
496.73	327.68
496.91	348.74
497.09	301.93
497.26	332.36
497.44	362.78
497.62	259.80
497.79	252.78
497.97	269.16
498.14	259.80
498.32	402.57
498.50	325.33
498.67	367.46
498.85	327.68
499.03	322.99
499.20	334.70
499.38	311.29
499.56	245.76
499.73	315.97
499.91	372.15
500.08	330.02
500.26	301.93
500.44	252.78
500.61	367.46
500.79	320.65
500.97	294.91
501.14	313.63
501.32	280.86
501.49	337.04
501.67	351.08
501.84	318.31
502.02	308.95
502.20	414.27
502.37	320.65
502.55	369.80
502.72	339.38
502.90	337.04
503.07	393.21
503.25	407.25
503.43	318.31
503.60	348.74
503.78	308.95
503.95	374.49
504.13	372.15
504.30	381.51
504.48	334.70
504.65	402.57
504.83	404.91
505.01	341.72
505.18	360.44
505.36	416.62
505.53	283.20
505.71	372.15
505.88	358.10
506.06	294.91
506.23	271.50
506.41	325.33
506.58	332.36
506.76	294.91
506.93	325.33
507.11	372.15
507.28	365.12
507.46	313.63
507.63	414.27
507.81	346.40
507.98	348.74
508.16	320.65
508.33	416.62
508.50	425.98
508.68	301.93
508.85	386.19
509.03	365.12
509.20	414.27
509.38	318.31
509.55	386.19
509.73	388.53
509.90	402.57
510.08	386.19
510.25	313.63
510.42	337.04
510.60	463.43
510.77	353.42
510.95	409.59
511.12	355.76
511.30	416.62
511.47	393.21
511.64	418.96
511.82	341.72
511.99	416.62
512.17	322.99
512.34	383.85
512.51	351.08
512.69	383.85
512.86	477.47
513.04	372.15
513.21	327.68
513.38	337.04
513.56	358.10
513.73	332.36
513.90	353.42
514.08	334.70
514.25	425.98
514.43	341.72
514.60	379.17
514.77	346.40
514.95	376.83
515.12	435.34
515.29	334.70
515.47	355.76
515.64	325.33
515.81	297.25
515.99	421.30
516.16	250.44
516.33	320.65
516.51	358.10
516.68	297.25
516.85	334.70
517.03	313.63
517.20	320.65
517.37	341.72
517.54	393.21
517.72	372.15
517.89	257.46
518.06	306.61
518.24	402.57
518.41	381.51
518.58	411.93
518.75	367.46
518.93	344.06
519.10	428.32
519.27	397.89
519.45	337.04
519.62	362.78
519.79	376.83
519.96	416.62
520.14	337.04
520.31	423.64
520.48	430.66
520.65	395.55
520.83	381.51
521.00	318.31
521.17	411.93
521.34	390.87
521.52	416.62
521.69	430.66
521.86	376.83
522.03	404.91
522.20	435.34
522.38	376.83
522.55	421.30
522.72	390.87
522.89	372.15
523.07	477.47
523.24	374.49
523.41	262.14
523.58	397.89
523.75	381.51
523.92	369.80
524.10	369.80
524.27	418.96
524.44	428.32
524.61	475.13
524.78	435.34
524.96	423.64
525.13	369.80
525.30	358.10
525.47	456.40
525.64	383.85
525.81	461.09
525.98	397.89
526.16	322.99
526.33	360.44
526.50	425.98
526.67	388.53
526.84	318.31
527.01	346.40
527.18	400.23
527.36	390.87
527.53	390.87
527.70	362.78
527.87	414.27
528.04	414.27
528.21	315.97
528.38	393.21
528.55	362.78
528.72	418.96
528.89	444.70
529.07	374.49
529.24	449.38
529.41	435.34
529.58	369.80
529.75	341.72
529.92	365.12
530.09	433.00
530.26	390.87
530.43	430.66
530.60	435.34
530.77	440.02
530.94	428.32
531.11	468.11
531.28	353.42
531.46	388.53
531.63	374.49
531.80	397.89
531.97	496.19
532.14	409.59
532.31	414.27
532.48	379.17
532.65	388.53
532.82	365.12
532.99	379.17
533.16	433.00
533.33	388.53
533.50	463.43
533.67	374.49
533.84	442.36
534.01	386.19
534.18	383.85
534.35	376.83
534.52	346.40
534.69	449.38
534.86	397.89
535.03	355.76
535.20	388.53
535.37	475.13
535.54	479.81
535.71	440.02
535.88	411.93
536.05	400.23
536.22	390.87
536.38	381.51
536.55	468.11
536.72	334.70
536.89	393.21
537.06	322.99
537.23	397.89
537.40	351.08
537.57	388.53
537.74	449.38
537.91	444.70
538.08	404.91
538.25	456.40
538.42	388.53
538.59	454.06
538.75	381.51
538.92	379.17
539.09	425.98
539.26	367.46
539.43	360.44
539.60	407.25
539.77	409.59
539.94	353.42
540.11	337.04
540.28	360.44
540.44	353.42
540.61	425.98
540.78	444.70
540.95	383.85
541.12	381.51
541.29	252.78
541.46	395.55
541.62	362.78
541.79	341.72
541.96	362.78
542.13	416.62
542.30	297.25
542.47	362.78
542.63	395.55
542.80	418.96
542.97	449.38
543.14	348.74
543.31	411.93
543.48	440.02
543.64	451.72
543.81	407.25
543.98	400.23
544.15	402.57
544.32	386.19
544.48	355.76
544.65	346.40
544.82	433.00
544.99	334.70
545.16	461.09
545.32	468.11
545.49	505.56
545.66	402.57
545.83	400.23
546.00	379.17
546.16	409.59
546.33	423.64
546.50	421.30
546.67	404.91
546.83	444.70
547.00	428.32
547.17	372.15
547.34	433.00
547.50	358.10
547.67	315.97
547.84	351.08
548.00	374.49
548.17	442.36
548.34	400.23
548.51	421.30
548.67	428.32
548.84	386.19
549.01	407.25
549.18	369.80
549.34	407.25
549.51	461.09
549.68	402.57
549.84	430.66
550.01	402.57
550.18	505.56
550.34	521.94
550.51	390.87
550.68	409.59
550.84	376.83
551.01	362.78
551.18	411.93
551.34	404.91
551.51	344.06
551.68	383.85
551.84	416.62
552.01	411.93
552.18	409.59
552.34	395.55
552.51	428.32
552.68	404.91
552.84	341.72
553.01	463.43
553.18	369.80
553.34	339.38
553.51	418.96
553.67	351.08
553.84	482.15
554.01	430.66
554.17	421.30
554.34	404.91
554.51	440.02
554.67	526.62
554.84	430.66
555.00	395.55
555.17	442.36
555.33	393.21
555.50	404.91
555.67	402.57
555.83	486.83
556.00	400.23
556.16	587.47
556.33	367.46
556.50	348.74
556.66	374.49
556.83	325.33
556.99	414.27
557.16	383.85
557.32	334.70
557.49	484.49
557.65	294.91
557.82	461.09
557.98	440.02
558.15	374.49
558.32	409.59
558.48	351.08
558.65	339.38
558.81	358.10
558.98	358.10
559.14	409.59
559.31	367.46
559.47	409.59
559.64	437.68
559.80	325.33
559.97	355.76
560.13	400.23
560.30	320.65
560.46	372.15
560.63	372.15
560.79	416.62
560.96	428.32
561.12	344.06
561.29	360.44
561.45	325.33
561.61	341.72
561.78	435.34
561.94	367.46
562.11	327.68
562.27	365.12
562.44	287.89
562.60	332.36
562.77	395.55
562.93	468.11
563.10	318.31
563.26	358.10
563.42	421.30
563.59	346.40
563.75	402.57
563.92	369.80
564.08	348.74
564.24	397.89
564.41	395.55
564.57	430.66
564.74	372.15
564.90	451.72
565.07	369.80
565.23	463.43
565.39	430.66
565.56	400.23
565.72	367.46
565.88	341.72
566.05	337.04
566.21	301.93
566.38	383.85
566.54	341.72
566.70	320.65
566.87	388.53
567.03	421.30
567.19	311.29
567.36	407.25
567.52	367.46
567.68	402.57
567.85	402.57
568.01	447.04
568.17	341.72
568.34	367.46
568.50	388.53
568.66	379.17
568.83	369.80
568.99	402.57
569.15	332.36
569.32	311.29
569.48	306.61
569.64	341.72
569.81	388.53
569.97	325.33
570.13	421.30
570.30	353.42
570.46	390.87
570.62	386.19
570.78	423.64
570.95	299.59
571.11	365.12
571.27	428.32
571.43	395.55
571.60	365.12
571.76	458.74
571.92	402.57
572.09	409.59
572.25	376.83
572.41	318.31
572.57	320.65
572.74	376.83
572.90	388.53
573.06	390.87
573.22	402.57
573.38	411.93
573.55	318.31
573.71	351.08
573.87	402.57
574.03	313.63
574.20	322.99
574.36	402.57
574.52	379.17
574.68	409.59
574.84	351.08
575.01	376.83
575.17	341.72
575.33	264.48
575.49	332.36
575.65	388.53
575.82	353.42
575.98	402.57
576.14	407.25
576.30	294.91
576.46	322.99
576.62	318.31
576.79	367.46
576.95	390.87
577.11	337.04
577.27	313.63
577.43	351.08
577.59	358.10
577.75	330.02
577.92	346.40
578.08	315.97
578.24	269.16
578.40	435.34
578.56	320.65
578.72	311.29
578.88	297.25
579.04	362.78
579.21	334.70
579.37	423.64
579.53	421.30
579.69	388.53
579.85	433.00
580.01	337.04
580.17	332.36
580.33	351.08
580.49	390.87
580.65	355.76
580.82	318.31
580.98	374.49
581.14	447.04
581.30	395.55
581.46	409.59
581.62	514.92
581.78	304.27
581.94	341.72
582.10	304.27
582.26	397.89
582.42	337.04
582.58	325.33
582.74	362.78
582.90	407.25
583.06	393.21
583.22	372.15
583.38	430.66
583.54	358.10
583.70	315.97
583.86	273.84
584.02	386.19
584.18	402.57
584.34	358.10
584.50	320.65
584.66	376.83
584.82	315.97
584.98	327.68
585.14	353.42
585.30	318.31
585.46	344.06
585.62	322.99
585.78	381.51
585.94	418.96
586.10	346.40
586.26	360.44
586.42	456.40
586.58	311.29
586.74	442.36
586.90	376.83
587.06	257.46
587.22	273.84
587.38	358.10
587.54	383.85
587.70	395.55
587.86	341.72
588.02	287.89
588.18	337.04
588.34	311.29
588.49	241.08
588.65	315.97
588.81	292.57
588.97	269.16
589.13	259.80
589.29	290.23
589.45	304.27
589.61	292.57
589.77	393.21
589.93	304.27
590.08	273.84
590.24	353.42
590.40	322.99
590.56	367.46
590.72	334.70
590.88	285.55
591.04	362.78
591.20	313.63
591.35	369.80
591.51	337.04
591.67	255.12
591.83	236.39
591.99	283.20
592.15	283.20
592.31	292.57
592.46	306.61
592.62	351.08
592.78	339.38
592.94	365.12
593.10	327.68
593.26	313.63
593.41	327.68
593.57	334.70
593.73	285.55
593.89	320.65
594.05	372.15
594.20	308.95
594.36	353.42
594.52	351.08
594.68	313.63
594.84	234.05
594.99	353.42
595.15	273.84
595.31	308.95
595.47	379.17
595.62	374.49
595.78	271.50
595.94	271.50
596.10	346.40
596.25	297.25
596.41	332.36
596.57	304.27
596.73	271.50
596.88	278.52
597.04	318.31
597.20	273.84
597.36	292.57
597.51	325.33
597.67	276.18
597.83	276.18
597.99	273.84
598.14	330.02
598.30	280.86
598.46	313.63
598.61	234.05
598.77	285.55
598.93	381.51
599.09	301.93
599.24	390.87
599.40	304.27
599.56	313.63
599.71	292.57
599.87	337.04
600.03	276.18
600.18	337.04
600.34	306.61
600.50	243.42
600.65	369.80
600.81	379.17
600.97	292.57
601.12	238.73
601.28	348.74
601.44	334.70
601.59	304.27
601.75	334.70
601.91	374.49
602.06	365.12
602.22	386.19
602.37	402.57
602.53	292.57
602.69	334.70
602.84	285.55
603.00	276.18
603.16	341.72
603.31	301.93
603.47	374.49
603.62	243.42
603.78	287.89
603.94	308.95
604.09	311.29
604.25	353.42
604.40	294.91
604.56	332.36
604.71	404.91
604.87	355.76
605.03	334.70
605.18	322.99
605.34	433.00
605.49	330.02
605.65	301.93
605.80	243.42
605.96	322.99
606.12	465.77
606.27	255.12
606.43	376.83
606.58	400.23
606.74	351.08
606.89	327.68
607.05	372.15
607.20	299.59
607.36	283.20
607.51	379.17
607.67	339.38
607.82	322.99
607.98	327.68
608.13	379.17
608.29	283.20
608.44	332.36
608.60	301.93
608.75	386.19
608.91	322.99
609.06	367.46
609.22	257.46
609.37	379.17
609.53	367.46
609.68	337.04
609.84	287.89
609.99	318.31
610.15	308.95
610.30	301.93
610.46	365.12
610.61	339.38
610.76	231.71
610.92	348.74
611.07	269.16
611.23	404.91
611.38	341.72
611.54	245.76
