SpectraSuite Data File
++++++++++++++++++++++++++++++++++++
Date: Fri Oct 04 11:46:57 GMT-05:00 2013
User: price-jones
Dark Spectrum Present: No
Reference Spectrum Present: No
Number of Sampled Component Spectra: 1
Spectrometers: USB2+H05261
Integration Time (usec): 100000 (USB2+H05261)
Spectra Averaged: 1 (USB2+H05261)
Boxcar Smoothing: 0 (USB2+H05261)
Correct for Electrical Dark: No (USB2+H05261)
Strobe/Lamp Enabled: No (USB2+H05261)
Correct for Detector Non-linearity: No (USB2+H05261)
Correct for Stray Light: No (USB2+H05261)
Number of Pixels in Processed Spectrum: 2048
>>>>>Begin Processed Spectral Data<<<<<
365.73	39.79
365.92	39.79
366.12	39.79
366.32	0.00
366.52	0.00
366.72	0.00
366.91	0.00
367.11	0.00
367.31	0.00
367.51	0.00
367.70	0.00
367.90	0.00
368.10	0.00
368.30	0.00
368.49	0.00
368.69	9.36
368.89	0.00
369.09	0.00
369.28	0.00
369.48	0.00
369.68	0.00
369.87	0.00
370.07	0.00
370.27	18.72
370.47	0.00
370.66	4.68
370.86	4.68
371.06	88.94
371.25	131.07
371.45	56.17
371.65	37.45
371.84	28.09
372.04	32.77
372.24	102.98
372.44	135.75
372.63	35.11
372.83	140.43
373.03	46.81
373.22	105.32
373.42	51.49
373.62	79.58
373.81	142.77
374.01	135.75
374.21	168.52
374.40	84.26
374.60	140.43
374.79	91.28
374.99	112.35
375.19	84.26
375.38	77.24
375.58	65.54
375.78	81.92
375.97	114.69
376.17	131.07
376.37	170.86
376.56	147.45
376.76	102.98
376.95	119.37
377.15	124.05
377.35	95.96
377.54	149.79
377.74	102.98
377.93	112.35
378.13	84.26
378.33	128.73
378.52	102.98
378.72	77.24
378.91	243.42
379.11	58.51
379.31	63.19
379.50	58.51
379.70	126.39
379.89	81.92
380.09	98.30
380.28	126.39
380.48	105.32
380.68	91.28
380.87	110.01
381.07	138.09
381.26	77.24
381.46	145.11
381.65	138.09
381.85	107.66
382.04	173.20
382.24	102.98
382.43	119.37
382.63	84.26
382.83	98.30
383.02	93.62
383.22	238.73
383.41	81.92
383.61	44.47
383.80	72.56
384.00	51.49
384.19	70.22
384.39	49.15
384.58	81.92
384.78	105.32
384.97	93.62
385.17	60.85
385.36	79.58
385.56	102.98
385.75	138.09
385.95	58.51
386.14	135.75
386.34	112.35
386.53	135.75
386.72	147.45
386.92	163.84
387.11	142.77
387.31	79.58
387.50	105.32
387.70	102.98
387.89	70.22
388.09	51.49
388.28	161.50
388.48	79.58
388.67	128.73
388.86	21.06
389.06	98.30
389.25	93.62
389.45	81.92
389.64	93.62
389.84	72.56
390.03	23.41
390.22	133.41
390.42	93.62
390.61	56.17
390.81	102.98
391.00	110.01
391.19	154.48
391.39	81.92
391.58	100.64
391.78	84.26
391.97	60.85
392.16	77.24
392.36	149.79
392.55	147.45
392.75	112.35
392.94	156.82
393.13	124.05
393.33	191.92
393.52	65.54
393.71	67.88
393.91	142.77
394.10	93.62
394.29	117.03
394.49	135.75
394.68	105.32
394.88	191.92
395.07	189.58
395.26	154.48
395.46	91.28
395.65	191.92
395.84	173.20
396.04	184.90
396.23	110.01
396.42	81.92
396.62	117.03
396.81	105.32
397.00	124.05
397.19	81.92
397.39	128.73
397.58	105.32
397.77	0.00
397.97	72.56
398.16	70.22
398.35	210.65
398.55	98.30
398.74	79.58
398.93	102.98
399.12	58.51
399.32	114.69
399.51	117.03
399.70	163.84
399.90	23.41
400.09	98.30
400.28	121.71
400.47	65.54
400.67	79.58
400.86	91.28
401.05	79.58
401.24	196.60
401.44	175.54
401.63	65.54
401.82	112.35
402.01	0.00
402.21	74.90
402.40	119.37
402.59	124.05
402.78	124.05
402.97	163.84
403.17	149.79
403.36	133.41
403.55	168.52
403.74	128.73
403.93	121.71
404.13	159.16
404.32	173.20
404.51	93.62
404.70	142.77
404.89	105.32
405.09	126.39
405.28	77.24
405.47	58.51
405.66	142.77
405.85	88.94
406.05	133.41
406.24	147.45
406.43	67.88
406.62	114.69
406.81	138.09
407.00	173.20
407.20	53.83
407.39	49.15
407.58	74.90
407.77	140.43
407.96	147.45
408.15	133.41
408.34	110.01
408.54	77.24
408.73	79.58
408.92	166.18
409.11	117.03
409.30	58.51
409.49	161.50
409.68	140.43
409.87	182.56
410.07	102.98
410.26	133.41
410.45	117.03
410.64	56.17
410.83	91.28
411.02	149.79
411.21	168.52
411.40	44.47
411.59	51.49
411.78	79.58
411.98	102.98
412.17	91.28
412.36	35.11
412.55	117.03
412.74	159.16
412.93	126.39
413.12	44.47
413.31	91.28
413.50	72.56
413.69	93.62
413.88	222.35
414.07	128.73
414.26	114.69
414.45	56.17
414.64	98.30
414.83	140.43
415.02	145.11
415.22	175.54
415.41	147.45
415.60	138.09
415.79	102.98
415.98	194.26
416.17	124.05
416.36	138.09
416.55	91.28
416.74	114.69
416.93	128.73
417.12	112.35
417.31	100.64
417.50	173.20
417.69	159.16
417.88	170.86
418.07	152.13
418.26	142.77
418.45	88.94
418.64	170.86
418.83	170.86
419.02	229.37
419.21	227.03
419.39	138.09
419.58	126.39
419.77	166.18
419.96	91.28
420.15	170.86
420.34	156.82
420.53	79.58
420.72	154.48
420.91	154.48
421.10	128.73
421.29	65.54
421.48	93.62
421.67	114.69
421.86	124.05
422.05	102.98
422.24	128.73
422.43	91.28
422.61	102.98
422.80	131.07
422.99	119.37
423.18	145.11
423.37	138.09
423.56	74.90
423.75	121.71
423.94	56.17
424.13	147.45
424.32	77.24
424.50	86.60
424.69	58.51
424.88	114.69
425.07	98.30
425.26	222.35
425.45	182.56
425.64	201.29
425.83	217.67
426.01	168.52
426.20	149.79
426.39	140.43
426.58	133.41
426.77	117.03
426.96	126.39
427.15	131.07
427.33	74.90
427.52	140.43
427.71	98.30
427.90	114.69
428.09	135.75
428.28	79.58
428.46	70.22
428.65	131.07
428.84	168.52
429.03	173.20
429.22	91.28
429.40	98.30
429.59	107.66
429.78	159.16
429.97	156.82
430.16	128.73
430.34	67.88
430.53	133.41
430.72	168.52
430.91	121.71
431.10	100.64
431.28	163.84
431.47	156.82
431.66	184.90
431.85	84.26
432.03	112.35
432.22	196.60
432.41	110.01
432.60	166.18
432.79	147.45
432.97	266.82
433.16	269.16
433.35	191.92
433.54	177.88
433.72	149.79
433.91	212.99
434.10	198.95
434.28	156.82
434.47	170.86
434.66	124.05
434.85	147.45
435.03	84.26
435.22	142.77
435.41	187.24
435.59	105.32
435.78	124.05
435.97	154.48
436.16	121.71
436.34	98.30
436.53	126.39
436.72	117.03
436.90	121.71
437.09	154.48
437.28	35.11
437.46	95.96
437.65	196.60
437.84	88.94
438.02	180.22
438.21	149.79
438.40	51.49
438.58	180.22
438.77	100.64
438.96	88.94
439.14	110.01
439.33	126.39
439.52	91.28
439.70	119.37
439.89	117.03
440.08	44.47
440.26	93.62
440.45	187.24
440.63	102.98
440.82	100.64
441.01	107.66
441.19	145.11
441.38	147.45
441.57	133.41
441.75	95.96
441.94	93.62
442.12	128.73
442.31	154.48
442.50	140.43
442.68	121.71
442.87	65.54
443.05	131.07
443.24	184.90
443.43	217.67
443.61	140.43
443.80	201.29
443.98	102.98
444.17	135.75
444.35	154.48
444.54	173.20
444.73	65.54
444.91	173.20
445.10	67.88
445.28	126.39
445.47	152.13
445.65	194.26
445.84	105.32
446.02	135.75
446.21	145.11
446.39	142.77
446.58	117.03
446.77	102.98
446.95	49.15
447.14	182.56
447.32	161.50
447.51	210.65
447.69	142.77
447.88	243.42
448.06	264.48
448.25	142.77
448.43	159.16
448.62	124.05
448.80	119.37
448.99	81.92
449.17	147.45
449.36	145.11
449.54	145.11
449.73	65.54
449.91	163.84
450.10	156.82
450.28	177.88
450.46	112.35
450.65	128.73
450.83	138.09
451.02	112.35
451.20	128.73
451.39	107.66
451.57	145.11
451.76	154.48
451.94	152.13
452.13	138.09
452.31	149.79
452.49	133.41
452.68	70.22
452.86	95.96
453.05	182.56
453.23	184.90
453.42	128.73
453.60	149.79
453.78	102.98
453.97	189.58
454.15	95.96
454.34	105.32
454.52	37.45
454.70	124.05
454.89	149.79
455.07	110.01
455.26	133.41
455.44	138.09
455.62	110.01
455.81	98.30
455.99	170.86
456.17	140.43
456.36	166.18
456.54	105.32
456.73	105.32
456.91	119.37
457.09	98.30
457.28	145.11
457.46	63.19
457.64	138.09
457.83	102.98
458.01	77.24
458.19	88.94
458.38	117.03
458.56	131.07
458.74	95.96
458.93	163.84
459.11	138.09
459.29	23.41
459.48	114.69
459.66	131.07
459.84	117.03
460.03	227.03
460.21	238.73
460.39	112.35
460.57	168.52
460.76	140.43
460.94	154.48
461.12	224.69
461.31	224.69
461.49	156.82
461.67	58.51
461.85	154.48
462.04	105.32
462.22	601.52
462.40	133.41
462.59	184.90
462.77	95.96
462.95	128.73
463.13	93.62
463.32	147.45
463.50	175.54
463.68	147.45
463.86	149.79
464.05	187.24
464.23	180.22
464.41	168.52
464.59	159.16
464.78	142.77
464.96	74.90
465.14	117.03
465.32	121.71
465.50	152.13
465.69	180.22
465.87	121.71
466.05	88.94
466.23	170.86
466.41	121.71
466.60	142.77
466.78	212.99
466.96	205.97
467.14	208.31
467.32	142.77
467.51	142.77
467.69	187.24
467.87	170.86
468.05	203.63
468.23	156.82
468.41	135.75
468.60	100.64
468.78	131.07
468.96	205.97
469.14	152.13
469.32	133.41
469.50	91.28
469.69	112.35
469.87	163.84
470.05	170.86
470.23	201.29
470.41	147.45
470.59	161.50
470.77	161.50
470.95	168.52
471.14	177.88
471.32	117.03
471.50	154.48
471.68	145.11
471.86	81.92
472.04	212.99
472.22	166.18
472.40	98.30
472.58	114.69
472.77	168.52
472.95	60.85
473.13	170.86
473.31	215.33
473.49	173.20
473.67	170.86
473.85	119.37
474.03	156.82
474.21	58.51
474.39	229.37
474.57	194.26
474.75	140.43
474.93	74.90
475.12	119.37
475.30	100.64
475.48	191.92
475.66	152.13
475.84	149.79
476.02	95.96
476.20	163.84
476.38	166.18
476.56	201.29
476.74	177.88
476.92	177.88
477.10	142.77
477.28	142.77
477.46	114.69
477.64	147.45
477.82	177.88
478.00	154.48
478.18	152.13
478.36	149.79
478.54	77.24
478.72	149.79
478.90	154.48
479.08	234.05
479.26	138.09
479.44	114.69
479.62	175.54
479.80	93.62
479.98	159.16
480.16	163.84
480.34	93.62
480.52	117.03
480.70	147.45
480.88	149.79
481.06	126.39
481.24	135.75
481.41	152.13
481.59	198.95
481.77	142.77
481.95	191.92
482.13	131.07
482.31	112.35
482.49	133.41
482.67	147.45
482.85	220.01
483.03	140.43
483.21	124.05
483.39	121.71
483.57	102.98
483.74	224.69
483.92	173.20
484.10	147.45
484.28	135.75
484.46	210.65
484.64	168.52
484.82	173.20
485.00	210.65
485.18	142.77
485.35	222.35
485.53	154.48
485.71	196.60
485.89	135.75
486.07	121.71
486.25	168.52
486.43	175.54
486.61	212.99
486.78	180.22
486.96	180.22
487.14	95.96
487.32	194.26
487.50	98.30
487.68	220.01
487.85	133.41
488.03	142.77
488.21	203.63
488.39	191.92
488.57	220.01
488.75	140.43
488.92	482.15
489.10	175.54
489.28	257.46
489.46	98.30
489.64	161.50
489.81	149.79
489.99	180.22
490.17	53.83
490.35	220.01
490.53	184.90
490.70	168.52
490.88	135.75
491.06	161.50
491.24	198.95
491.41	215.33
491.59	142.77
491.77	156.82
491.95	35.11
492.13	126.39
492.30	159.16
492.48	168.52
492.66	163.84
492.84	154.48
493.01	138.09
493.19	234.05
493.37	231.71
493.54	124.05
493.72	110.01
493.90	149.79
494.08	168.52
494.25	177.88
494.43	110.01
494.61	168.52
494.79	110.01
494.96	184.90
495.14	182.56
495.32	156.82
495.49	159.16
495.67	191.92
495.85	210.65
496.02	175.54
496.20	245.76
496.38	229.37
496.55	184.90
496.73	236.39
496.91	184.90
497.09	159.16
497.26	177.88
497.44	182.56
497.62	173.20
497.79	220.01
497.97	210.65
498.14	152.13
498.32	177.88
498.50	236.39
498.67	133.41
498.85	175.54
499.03	161.50
499.20	227.03
499.38	107.66
499.56	142.77
499.73	250.44
499.91	135.75
500.08	149.79
500.26	205.97
500.44	107.66
500.61	259.80
500.79	191.92
500.97	180.22
501.14	236.39
501.32	177.88
501.49	189.58
501.67	229.37
501.84	152.13
502.02	156.82
502.20	203.63
502.37	198.95
502.55	198.95
502.72	189.58
502.90	259.80
503.07	145.11
503.25	191.92
503.43	196.60
503.60	201.29
503.78	208.31
503.95	138.09
504.13	154.48
504.30	135.75
504.48	229.37
504.65	224.69
504.83	205.97
505.01	187.24
505.18	184.90
505.36	180.22
505.53	161.50
505.71	161.50
505.88	278.52
506.06	184.90
506.23	119.37
506.41	166.18
506.58	147.45
506.76	168.52
506.93	152.13
507.11	168.52
507.28	191.92
507.46	212.99
507.63	215.33
507.81	203.63
507.98	215.33
508.16	182.56
508.33	241.08
508.50	203.63
508.68	241.08
508.85	182.56
509.03	124.05
509.20	98.30
509.38	187.24
509.55	145.11
509.73	252.78
509.90	292.57
510.08	131.07
510.25	203.63
510.42	220.01
510.60	215.33
510.77	175.54
510.95	227.03
511.12	205.97
511.30	212.99
511.47	208.31
511.64	313.63
511.82	161.50
511.99	175.54
512.17	170.86
512.34	184.90
512.51	283.20
512.69	147.45
512.86	227.03
513.04	163.84
513.21	255.12
513.38	173.20
513.56	154.48
513.73	138.09
513.90	191.92
514.08	210.65
514.25	224.69
514.43	252.78
514.60	215.33
514.77	159.16
514.95	210.65
515.12	191.92
515.29	198.95
515.47	241.08
515.64	203.63
515.81	224.69
515.99	264.48
516.16	177.88
516.33	250.44
516.51	168.52
516.68	191.92
516.85	220.01
517.03	110.01
517.20	161.50
517.37	145.11
517.54	117.03
517.72	182.56
517.89	182.56
518.06	182.56
518.24	262.14
518.41	243.42
518.58	166.18
518.75	152.13
518.93	177.88
519.10	149.79
519.27	191.92
519.45	191.92
519.62	180.22
519.79	170.86
519.96	163.84
520.14	163.84
520.31	248.10
520.48	208.31
520.65	241.08
520.83	252.78
521.00	184.90
521.17	156.82
521.34	229.37
521.52	238.73
521.69	138.09
521.86	229.37
522.03	264.48
522.20	180.22
522.38	283.20
522.55	210.65
522.72	252.78
522.89	205.97
523.07	210.65
523.24	227.03
523.41	156.82
523.58	152.13
523.75	189.58
523.92	220.01
524.10	245.76
524.27	182.56
524.44	205.97
524.61	278.52
524.78	163.84
524.96	252.78
525.13	236.39
525.30	255.12
525.47	248.10
525.64	234.05
525.81	203.63
525.98	184.90
526.16	93.62
526.33	182.56
526.50	175.54
526.67	177.88
526.84	124.05
527.01	135.75
527.18	222.35
527.36	264.48
527.53	140.43
527.70	285.55
527.87	217.67
528.04	259.80
528.21	191.92
528.38	203.63
528.55	203.63
528.72	245.76
528.89	276.18
529.07	210.65
529.24	224.69
529.41	234.05
529.58	241.08
529.75	147.45
529.92	315.97
530.09	205.97
530.26	257.46
530.43	294.91
530.60	205.97
530.77	170.86
530.94	175.54
531.11	203.63
531.28	177.88
531.46	173.20
531.63	278.52
531.80	184.90
531.97	187.24
532.14	285.55
532.31	220.01
532.48	212.99
532.65	245.76
532.82	322.99
532.99	306.61
533.16	299.59
533.33	194.26
533.50	210.65
533.67	236.39
533.84	320.65
534.01	379.17
534.18	322.99
534.35	311.29
534.52	280.86
534.69	266.82
534.86	250.44
535.03	166.18
535.20	259.80
535.37	271.50
535.54	245.76
535.71	196.60
535.88	196.60
536.05	180.22
536.22	255.12
536.38	152.13
536.55	241.08
536.72	180.22
536.89	175.54
537.06	191.92
537.23	259.80
537.40	180.22
537.57	222.35
537.74	227.03
537.91	180.22
538.08	234.05
538.25	182.56
538.42	168.52
538.59	215.33
538.75	301.93
538.92	250.44
539.09	241.08
539.26	170.86
539.43	362.78
539.60	901.11
539.77	1514.33
539.94	1418.36
540.11	924.51
540.28	631.94
540.44	489.17
540.61	271.50
540.78	245.76
540.95	224.69
541.12	269.16
541.29	203.63
541.46	187.24
541.62	147.45
541.79	198.95
541.96	163.84
542.13	212.99
542.30	161.50
542.47	231.71
542.63	271.50
542.80	231.71
542.97	229.37
543.14	154.48
543.31	166.18
543.48	156.82
543.64	217.67
543.81	191.92
543.98	203.63
544.15	248.10
544.32	187.24
544.48	250.44
544.65	140.43
544.82	220.01
544.99	241.08
545.16	285.55
545.32	191.92
545.49	234.05
545.66	152.13
545.83	51.49
546.00	217.67
546.16	166.18
546.33	212.99
546.50	208.31
546.67	194.26
546.83	250.44
547.00	215.33
547.17	140.43
547.34	238.73
547.50	196.60
547.67	217.67
547.84	212.99
548.00	236.39
548.17	187.24
548.34	161.50
548.51	222.35
548.67	292.57
548.84	138.09
549.01	227.03
549.18	196.60
549.34	170.86
549.51	224.69
549.68	236.39
549.84	234.05
550.01	184.90
550.18	330.02
550.34	215.33
550.51	198.95
550.68	250.44
550.84	119.37
551.01	252.78
551.18	110.01
551.34	191.92
551.51	170.86
551.68	238.73
551.84	294.91
552.01	248.10
552.18	210.65
552.34	154.48
552.51	208.31
552.68	152.13
552.84	93.62
553.01	203.63
553.18	255.12
553.34	152.13
553.51	194.26
553.67	184.90
553.84	243.42
554.01	220.01
554.17	196.60
554.34	105.32
554.51	208.31
554.67	177.88
554.84	194.26
555.00	264.48
555.17	290.23
555.33	280.86
555.50	210.65
555.67	266.82
555.83	194.26
556.00	264.48
556.16	322.99
556.33	297.25
556.50	248.10
556.66	227.03
556.83	182.56
556.99	229.37
557.16	224.69
557.32	131.07
557.49	145.11
557.65	145.11
557.82	170.86
557.98	184.90
558.15	177.88
558.32	227.03
558.48	177.88
558.65	168.52
558.81	191.92
558.98	229.37
559.14	203.63
559.31	184.90
559.47	166.18
559.64	170.86
559.80	229.37
559.97	149.79
560.13	215.33
560.30	161.50
560.46	154.48
560.63	224.69
560.79	166.18
560.96	203.63
561.12	175.54
561.29	264.48
561.45	212.99
561.61	175.54
561.78	294.91
561.94	220.01
562.11	175.54
562.27	203.63
562.44	280.86
562.60	266.82
562.77	236.39
562.93	245.76
563.10	201.29
563.26	217.67
563.42	210.65
563.59	241.08
563.75	154.48
563.92	250.44
564.08	227.03
564.24	140.43
564.41	252.78
564.57	159.16
564.74	149.79
564.90	194.26
565.07	245.76
565.23	262.14
565.39	236.39
565.56	241.08
565.72	173.20
565.88	201.29
566.05	269.16
566.21	187.24
566.38	133.41
566.54	257.46
566.70	210.65
566.87	135.75
567.03	201.29
567.19	184.90
567.36	257.46
567.52	161.50
567.68	208.31
567.85	283.20
568.01	241.08
568.17	201.29
568.34	201.29
568.50	271.50
568.66	170.86
568.83	283.20
568.99	212.99
569.15	203.63
569.32	191.92
569.48	201.29
569.64	177.88
569.81	166.18
569.97	161.50
570.13	184.90
570.30	147.45
570.46	175.54
570.62	175.54
570.78	128.73
570.95	208.31
571.11	201.29
571.27	259.80
571.43	220.01
571.60	276.18
571.76	217.67
571.92	243.42
572.09	231.71
572.25	280.86
572.41	168.52
572.57	210.65
572.74	250.44
572.90	229.37
573.06	194.26
573.22	217.67
573.38	180.22
573.55	248.10
573.71	255.12
573.87	173.20
574.03	220.01
574.20	276.18
574.36	315.97
574.52	290.23
574.68	269.16
574.84	330.02
575.01	294.91
575.17	217.67
575.33	222.35
575.49	180.22
575.65	271.50
575.82	348.74
575.98	479.81
576.14	589.82
576.30	662.37
576.46	517.26
576.62	407.25
576.79	383.85
576.95	292.57
577.11	243.42
577.27	287.89
577.43	264.48
577.59	257.46
577.75	269.16
577.92	257.46
578.08	220.01
578.24	224.69
578.40	313.63
578.56	334.70
578.72	271.50
578.88	255.12
579.04	208.31
579.21	259.80
579.37	262.14
579.53	234.05
579.69	346.40
579.85	269.16
580.01	271.50
580.17	325.33
580.33	353.42
580.49	369.80
580.65	346.40
580.82	262.14
580.98	297.25
581.14	337.04
581.30	395.55
581.46	383.85
581.62	589.82
581.78	521.94
581.94	496.19
582.10	425.98
582.26	334.70
582.42	404.91
582.58	367.46
582.74	325.33
582.90	435.34
583.06	365.12
583.22	381.51
583.38	416.62
583.54	461.09
583.70	627.26
583.86	613.22
584.02	664.71
584.18	821.53
584.34	1123.46
584.50	3009.93
584.66	22712.56
584.82	54272.34
584.98	64329.62
585.14	61387.57
585.30	46195.15
585.46	28151.96
585.62	17216.98
585.78	7894.63
585.94	3112.91
586.10	1502.62
586.26	891.74
586.42	805.14
586.58	617.90
586.74	575.77
586.90	624.92
587.06	566.41
587.22	400.23
587.38	458.74
587.54	1004.09
587.70	3215.90
587.86	5504.94
588.02	6300.72
588.18	4334.67
588.34	2782.90
588.49	1881.79
588.65	1104.73
588.81	629.60
588.97	339.38
589.13	311.29
589.29	236.39
589.45	311.29
589.61	292.57
589.77	393.21
589.93	397.89
590.08	320.65
590.24	442.36
590.40	372.15
590.56	442.36
590.72	280.86
590.88	231.71
591.04	273.84
591.20	287.89
591.35	257.46
591.51	269.16
591.67	297.25
591.83	276.18
591.99	250.44
592.15	198.95
592.31	304.27
592.46	205.97
592.62	248.10
592.78	250.44
592.94	259.80
593.10	257.46
593.26	348.74
593.41	369.80
593.57	276.18
593.73	475.13
593.89	2771.19
594.05	7021.61
594.20	10565.18
594.36	10068.98
594.52	6574.56
594.68	4021.04
594.84	2726.72
594.99	1507.30
595.15	718.54
595.31	386.19
595.47	397.89
595.62	383.85
595.78	245.76
595.94	271.50
596.10	198.95
596.25	411.93
596.41	369.80
596.57	318.31
596.73	243.42
596.88	470.45
597.04	1331.76
597.20	2127.55
597.36	2572.25
597.51	2017.54
597.67	1299.00
597.83	898.77
597.99	669.39
598.14	393.21
598.30	271.50
598.46	304.27
598.61	411.93
598.77	280.86
598.93	280.86
599.09	220.01
599.24	217.67
599.40	285.55
599.56	201.29
599.71	294.91
599.87	182.56
600.03	248.10
600.18	243.42
600.34	224.69
600.50	187.24
600.65	208.31
600.81	191.92
600.97	264.48
601.12	210.65
601.28	229.37
601.44	250.44
601.59	210.65
601.75	215.33
601.91	142.77
602.06	201.29
602.22	332.36
602.37	662.37
602.53	1694.55
602.69	2609.70
602.84	2750.13
603.00	2015.20
603.16	1327.08
603.31	1004.09
603.47	669.39
603.62	379.17
603.78	255.12
603.94	351.08
604.09	196.60
604.25	292.57
604.40	250.44
604.56	248.10
604.71	325.33
604.87	210.65
605.03	241.08
605.18	278.52
605.34	241.08
605.49	229.37
605.65	245.76
605.80	262.14
605.96	198.95
606.12	292.57
606.27	241.08
606.43	330.02
606.58	346.40
606.74	784.08
606.89	3393.78
607.05	6792.23
607.20	8720.84
607.36	7349.28
607.51	4931.51
607.67	3272.07
607.82	2148.61
607.98	1198.35
608.13	655.35
608.29	362.78
608.44	379.17
608.60	402.57
608.75	505.56
608.91	1076.65
609.06	5158.54
609.22	11412.45
609.37	15616.05
609.53	13486.17
609.68	9071.92
609.84	5741.33
609.99	3868.91
610.15	1973.07
610.30	959.62
610.46	514.92
610.61	430.66
610.76	409.59
610.92	280.86
611.07	297.25
611.23	358.10
611.38	322.99
611.54	325.33
611.69	196.60
611.84	236.39
