SpectraSuite Data File
++++++++++++++++++++++++++++++++++++
Date: Fri Oct 04 11:47:13 GMT-05:00 2013
User: price-jones
Dark Spectrum Present: No
Reference Spectrum Present: No
Number of Sampled Component Spectra: 1
Spectrometers: USB2+H05261
Integration Time (usec): 100000 (USB2+H05261)
Spectra Averaged: 1 (USB2+H05261)
Boxcar Smoothing: 0 (USB2+H05261)
Correct for Electrical Dark: No (USB2+H05261)
Strobe/Lamp Enabled: No (USB2+H05261)
Correct for Detector Non-linearity: No (USB2+H05261)
Correct for Stray Light: No (USB2+H05261)
Number of Pixels in Processed Spectrum: 2048
>>>>>Begin Processed Spectral Data<<<<<
365.73	0.00
365.92	0.00
366.12	0.00
366.32	0.00
366.52	9.36
366.72	0.00
366.91	0.00
367.11	2.34
367.31	0.00
367.51	0.00
367.70	0.00
367.90	0.00
368.10	0.00
368.30	0.00
368.49	0.00
368.69	0.00
368.89	0.00
369.09	0.00
369.28	0.00
369.48	0.00
369.68	0.00
369.87	0.00
370.07	0.00
370.27	44.47
370.47	0.00
370.66	16.38
370.86	14.04
371.06	49.15
371.25	110.01
371.45	65.54
371.65	133.41
371.84	44.47
372.04	28.09
372.24	93.62
372.44	100.64
372.63	98.30
372.83	84.26
373.03	114.69
373.22	51.49
373.42	91.28
373.62	72.56
373.81	98.30
374.01	105.32
374.21	175.54
374.40	117.03
374.60	196.60
374.79	140.43
374.99	126.39
375.19	88.94
375.38	140.43
375.58	32.77
375.78	93.62
375.97	95.96
376.17	173.20
376.37	88.94
376.56	147.45
376.76	100.64
376.95	72.56
377.15	105.32
377.35	93.62
377.54	112.35
377.74	2.34
377.93	114.69
378.13	107.66
378.33	126.39
378.52	77.24
378.72	128.73
378.91	112.35
379.11	105.32
379.31	93.62
379.50	128.73
379.70	126.39
379.89	60.85
380.09	30.43
380.28	21.06
380.48	56.17
380.68	110.01
380.87	16.38
381.07	107.66
381.26	161.50
381.46	170.86
381.65	142.77
381.85	70.22
382.04	93.62
382.24	25.75
382.43	32.77
382.63	95.96
382.83	105.32
383.02	53.83
383.22	135.75
383.41	114.69
383.61	124.05
383.80	18.72
384.00	81.92
384.19	53.83
384.39	84.26
384.58	107.66
384.78	77.24
384.97	23.41
385.17	142.77
385.36	133.41
385.56	39.79
385.75	88.94
385.95	117.03
386.14	65.54
386.34	86.60
386.53	32.77
386.72	42.13
386.92	21.06
387.11	93.62
387.31	93.62
387.50	124.05
387.70	77.24
387.89	86.60
388.09	14.04
388.28	81.92
388.48	35.11
388.67	70.22
388.86	39.79
389.06	102.98
389.25	88.94
389.45	107.66
389.64	86.60
389.84	60.85
390.03	88.94
390.22	79.58
390.42	37.45
390.61	84.26
390.81	67.88
391.00	81.92
391.19	58.51
391.39	51.49
391.58	25.75
391.78	88.94
391.97	42.13
392.16	105.32
392.36	58.51
392.55	49.15
392.75	133.41
392.94	46.81
393.13	110.01
393.33	37.45
393.52	72.56
393.71	201.29
393.91	128.73
394.10	74.90
394.29	49.15
394.49	84.26
394.68	105.32
394.88	173.20
395.07	88.94
395.26	32.77
395.46	95.96
395.65	145.11
395.84	133.41
396.04	67.88
396.23	112.35
396.42	77.24
396.62	98.30
396.81	93.62
397.00	212.99
397.19	86.60
397.39	70.22
397.58	194.26
397.77	56.17
397.97	110.01
398.16	37.45
398.35	135.75
398.55	30.43
398.74	138.09
398.93	168.52
399.12	133.41
399.32	84.26
399.51	124.05
399.70	147.45
399.90	74.90
400.09	79.58
400.28	187.24
400.47	119.37
400.67	173.20
400.86	72.56
401.05	135.75
401.24	84.26
401.44	91.28
401.63	133.41
401.82	119.37
402.01	81.92
402.21	112.35
402.40	88.94
402.59	105.32
402.78	70.22
402.97	102.98
403.17	170.86
403.36	152.13
403.55	140.43
403.74	72.56
403.93	95.96
404.13	184.90
404.32	65.54
404.51	100.64
404.70	102.98
404.89	88.94
405.09	107.66
405.28	107.66
405.47	74.90
405.66	14.04
405.85	152.13
406.05	79.58
406.24	135.75
406.43	107.66
406.62	112.35
406.81	170.86
407.00	135.75
407.20	159.16
407.39	166.18
407.58	98.30
407.77	60.85
407.96	128.73
408.15	95.96
408.34	126.39
408.54	93.62
408.73	128.73
408.92	105.32
409.11	81.92
409.30	135.75
409.49	98.30
409.68	81.92
409.87	88.94
410.07	95.96
410.26	72.56
410.45	191.92
410.64	65.54
410.83	119.37
411.02	56.17
411.21	112.35
411.40	166.18
411.59	98.30
411.78	65.54
411.98	93.62
412.17	70.22
412.36	25.75
412.55	126.39
412.74	65.54
412.93	184.90
413.12	77.24
413.31	152.13
413.50	149.79
413.69	42.13
413.88	102.98
414.07	124.05
414.26	135.75
414.45	79.58
414.64	46.81
414.83	110.01
415.02	126.39
415.22	149.79
415.41	152.13
415.60	81.92
415.79	119.37
415.98	70.22
416.17	102.98
416.36	138.09
416.55	93.62
416.74	81.92
416.93	154.48
417.12	142.77
417.31	112.35
417.50	114.69
417.69	166.18
417.88	119.37
418.07	154.48
418.26	110.01
418.45	84.26
418.64	182.56
418.83	112.35
419.02	131.07
419.21	135.75
419.39	74.90
419.58	154.48
419.77	156.82
419.96	210.65
420.15	163.84
420.34	25.75
420.53	154.48
420.72	138.09
420.91	86.60
421.10	131.07
421.29	166.18
421.48	119.37
421.67	187.24
421.86	119.37
422.05	88.94
422.24	114.69
422.43	67.88
422.61	117.03
422.80	112.35
422.99	107.66
423.18	121.71
423.37	187.24
423.56	170.86
423.75	42.13
423.94	65.54
424.13	81.92
424.32	70.22
424.50	86.60
424.69	107.66
424.88	105.32
425.07	88.94
425.26	163.84
425.45	133.41
425.64	154.48
425.83	163.84
426.01	163.84
426.20	175.54
426.39	79.58
426.58	124.05
426.77	145.11
426.96	128.73
427.15	131.07
427.33	138.09
427.52	114.69
427.71	124.05
427.90	86.60
428.09	114.69
428.28	149.79
428.46	23.41
428.65	84.26
428.84	100.64
429.03	208.31
429.22	107.66
429.40	42.13
429.59	77.24
429.78	156.82
429.97	138.09
430.16	168.52
430.34	121.71
430.53	100.64
430.72	98.30
430.91	126.39
431.10	145.11
431.28	145.11
431.47	98.30
431.66	147.45
431.85	117.03
432.03	128.73
432.22	149.79
432.41	147.45
432.60	166.18
432.79	142.77
432.97	145.11
433.16	198.95
433.35	117.03
433.54	138.09
433.72	166.18
433.91	154.48
434.10	110.01
434.28	135.75
434.47	105.32
434.66	161.50
434.85	135.75
435.03	114.69
435.22	149.79
435.41	135.75
435.59	84.26
435.78	128.73
435.97	126.39
436.16	121.71
436.34	175.54
436.53	156.82
436.72	212.99
436.90	163.84
437.09	126.39
437.28	58.51
437.46	149.79
437.65	124.05
437.84	126.39
438.02	138.09
438.21	170.86
438.40	93.62
438.58	166.18
438.77	177.88
438.96	156.82
439.14	95.96
439.33	86.60
439.52	110.01
439.70	149.79
439.89	187.24
440.08	140.43
440.26	46.81
440.45	102.98
440.63	117.03
440.82	140.43
441.01	189.58
441.19	142.77
441.38	95.96
441.57	119.37
441.75	142.77
441.94	133.41
442.12	77.24
442.31	67.88
442.50	142.77
442.68	170.86
442.87	175.54
443.05	100.64
443.24	170.86
443.43	180.22
443.61	102.98
443.80	189.58
443.98	147.45
444.17	74.90
444.35	156.82
444.54	152.13
444.73	105.32
444.91	154.48
445.10	84.26
445.28	133.41
445.47	168.52
445.65	163.84
445.84	77.24
446.02	86.60
446.21	126.39
446.39	112.35
446.58	63.19
446.77	81.92
446.95	107.66
447.14	110.01
447.32	133.41
447.51	107.66
447.69	147.45
447.88	131.07
448.06	180.22
448.25	100.64
448.43	140.43
448.62	131.07
448.80	198.95
448.99	212.99
449.17	128.73
449.36	74.90
449.54	117.03
449.73	154.48
449.91	220.01
450.10	182.56
450.28	248.10
450.46	210.65
450.65	161.50
450.83	117.03
451.02	145.11
451.20	180.22
451.39	124.05
451.57	140.43
451.76	79.58
451.94	145.11
452.13	208.31
452.31	142.77
452.49	147.45
452.68	168.52
452.86	217.67
453.05	102.98
453.23	168.52
453.42	74.90
453.60	121.71
453.78	67.88
453.97	49.15
454.15	102.98
454.34	102.98
454.52	91.28
454.70	149.79
454.89	182.56
455.07	154.48
455.26	149.79
455.44	100.64
455.62	84.26
455.81	81.92
455.99	95.96
456.17	198.95
456.36	117.03
456.54	74.90
456.73	112.35
456.91	124.05
457.09	126.39
457.28	187.24
457.46	72.56
457.64	156.82
457.83	98.30
458.01	184.90
458.19	131.07
458.38	100.64
458.56	168.52
458.74	145.11
458.93	110.01
459.11	187.24
459.29	147.45
459.48	93.62
459.66	259.80
459.84	131.07
460.03	212.99
460.21	173.20
460.39	140.43
460.57	110.01
460.76	117.03
460.94	105.32
461.12	189.58
461.31	182.56
461.49	149.79
461.67	168.52
461.85	175.54
462.04	138.09
462.22	610.88
462.40	138.09
462.59	227.03
462.77	100.64
462.95	112.35
463.13	117.03
463.32	168.52
463.50	145.11
463.68	231.71
463.86	98.30
464.05	159.16
464.23	212.99
464.41	98.30
464.59	142.77
464.78	107.66
464.96	121.71
465.14	112.35
465.32	131.07
465.50	156.82
465.69	168.52
465.87	154.48
466.05	133.41
466.23	145.11
466.41	182.56
466.60	131.07
466.78	201.29
466.96	163.84
467.14	107.66
467.32	138.09
467.51	131.07
467.69	159.16
467.87	154.48
468.05	173.20
468.23	175.54
468.41	194.26
468.60	124.05
468.78	98.30
468.96	173.20
469.14	133.41
469.32	95.96
469.50	53.83
469.69	152.13
469.87	112.35
470.05	189.58
470.23	131.07
470.41	138.09
470.59	170.86
470.77	191.92
470.95	149.79
471.14	119.37
471.32	95.96
471.50	149.79
471.68	100.64
471.86	222.35
472.04	110.01
472.22	182.56
472.40	175.54
472.58	140.43
472.77	135.75
472.95	198.95
473.13	205.97
473.31	126.39
473.49	168.52
473.67	175.54
473.85	187.24
474.03	177.88
474.21	93.62
474.39	177.88
474.57	140.43
474.75	180.22
474.93	102.98
475.12	184.90
475.30	175.54
475.48	147.45
475.66	166.18
475.84	98.30
476.02	161.50
476.20	124.05
476.38	91.28
476.56	269.16
476.74	163.84
476.92	187.24
477.10	196.60
477.28	135.75
477.46	201.29
477.64	166.18
477.82	117.03
478.00	135.75
478.18	217.67
478.36	102.98
478.54	102.98
478.72	70.22
478.90	177.88
479.08	142.77
479.26	135.75
479.44	147.45
479.62	187.24
479.80	138.09
479.98	114.69
480.16	138.09
480.34	175.54
480.52	126.39
480.70	203.63
480.88	28.09
481.06	140.43
481.24	88.94
481.41	124.05
481.59	117.03
481.77	180.22
481.95	152.13
482.13	142.77
482.31	182.56
482.49	133.41
482.67	173.20
482.85	124.05
483.03	133.41
483.21	112.35
483.39	133.41
483.57	191.92
483.74	191.92
483.92	166.18
484.10	135.75
484.28	196.60
484.46	252.78
484.64	191.92
484.82	128.73
485.00	93.62
485.18	196.60
485.35	166.18
485.53	112.35
485.71	222.35
485.89	114.69
486.07	170.86
486.25	203.63
486.43	170.86
486.61	222.35
486.78	191.92
486.96	51.49
487.14	126.39
487.32	133.41
487.50	189.58
487.68	276.18
487.85	142.77
488.03	173.20
488.21	145.11
488.39	147.45
488.57	124.05
488.75	128.73
488.92	393.21
489.10	138.09
489.28	205.97
489.46	168.52
489.64	147.45
489.81	93.62
489.99	147.45
490.17	168.52
490.35	222.35
490.53	154.48
490.70	126.39
490.88	149.79
491.06	145.11
491.24	147.45
491.41	126.39
491.59	217.67
491.77	210.65
491.95	124.05
492.13	175.54
492.30	208.31
492.48	133.41
492.66	168.52
492.84	227.03
493.01	229.37
493.19	184.90
493.37	205.97
493.54	177.88
493.72	198.95
493.90	131.07
494.08	170.86
494.25	236.39
494.43	201.29
494.61	117.03
494.79	175.54
494.96	163.84
495.14	245.76
495.32	98.30
495.49	112.35
495.67	124.05
495.85	236.39
496.02	131.07
496.20	229.37
496.38	191.92
496.55	182.56
496.73	184.90
496.91	196.60
497.09	166.18
497.26	154.48
497.44	173.20
497.62	128.73
497.79	161.50
497.97	198.95
498.14	243.42
498.32	187.24
498.50	168.52
498.67	187.24
498.85	217.67
499.03	154.48
499.20	222.35
499.38	138.09
499.56	196.60
499.73	238.73
499.91	166.18
500.08	215.33
500.26	187.24
500.44	119.37
500.61	117.03
500.79	135.75
500.97	187.24
501.14	231.71
501.32	215.33
501.49	238.73
501.67	187.24
501.84	224.69
502.02	203.63
502.20	222.35
502.37	248.10
502.55	215.33
502.72	217.67
502.90	177.88
503.07	234.05
503.25	119.37
503.43	140.43
503.60	152.13
503.78	201.29
503.95	159.16
504.13	236.39
504.30	133.41
504.48	269.16
504.65	168.52
504.83	264.48
505.01	191.92
505.18	215.33
505.36	149.79
505.53	210.65
505.71	170.86
505.88	215.33
506.06	205.97
506.23	124.05
506.41	145.11
506.58	196.60
506.76	196.60
506.93	170.86
507.11	184.90
507.28	224.69
507.46	149.79
507.63	182.56
507.81	210.65
507.98	201.29
508.16	245.76
508.33	184.90
508.50	208.31
508.68	187.24
508.85	215.33
509.03	194.26
509.20	79.58
509.38	231.71
509.55	248.10
509.73	173.20
509.90	208.31
510.08	184.90
510.25	182.56
510.42	173.20
510.60	210.65
510.77	175.54
510.95	220.01
511.12	215.33
511.30	245.76
511.47	191.92
511.64	229.37
511.82	220.01
511.99	201.29
512.17	201.29
512.34	152.13
512.51	180.22
512.69	234.05
512.86	257.46
513.04	217.67
513.21	175.54
513.38	168.52
513.56	262.14
513.73	196.60
513.90	201.29
514.08	196.60
514.25	189.58
514.43	152.13
514.60	154.48
514.77	191.92
514.95	187.24
515.12	173.20
515.29	184.90
515.47	269.16
515.64	170.86
515.81	229.37
515.99	210.65
516.16	212.99
516.33	252.78
516.51	133.41
516.68	147.45
516.85	168.52
517.03	191.92
517.20	180.22
517.37	182.56
517.54	152.13
517.72	166.18
517.89	159.16
518.06	194.26
518.24	201.29
518.41	205.97
518.58	212.99
518.75	236.39
518.93	229.37
519.10	283.20
519.27	180.22
519.45	234.05
519.62	140.43
519.79	149.79
519.96	126.39
520.14	163.84
520.31	198.95
520.48	128.73
520.65	210.65
520.83	266.82
521.00	220.01
521.17	187.24
521.34	252.78
521.52	217.67
521.69	271.50
521.86	201.29
522.03	264.48
522.20	252.78
522.38	152.13
522.55	220.01
522.72	145.11
522.89	224.69
523.07	173.20
523.24	133.41
523.41	105.32
523.58	147.45
523.75	142.77
523.92	205.97
524.10	241.08
524.27	205.97
524.44	236.39
524.61	236.39
524.78	224.69
524.96	180.22
525.13	154.48
525.30	161.50
525.47	168.52
525.64	210.65
525.81	196.60
525.98	212.99
526.16	189.58
526.33	220.01
526.50	184.90
526.67	220.01
526.84	156.82
527.01	191.92
527.18	241.08
527.36	220.01
527.53	217.67
527.70	280.86
527.87	231.71
528.04	238.73
528.21	189.58
528.38	227.03
528.55	271.50
528.72	231.71
528.89	231.71
529.07	196.60
529.24	175.54
529.41	262.14
529.58	220.01
529.75	133.41
529.92	220.01
530.09	180.22
530.26	201.29
530.43	227.03
530.60	187.24
530.77	205.97
530.94	262.14
531.11	210.65
531.28	194.26
531.46	222.35
531.63	191.92
531.80	198.95
531.97	187.24
532.14	177.88
532.31	191.92
532.48	215.33
532.65	212.99
532.82	175.54
532.99	119.37
533.16	234.05
533.33	180.22
533.50	217.67
533.67	234.05
533.84	170.86
534.01	294.91
534.18	217.67
534.35	229.37
534.52	245.76
534.69	273.84
534.86	215.33
535.03	184.90
535.20	182.56
535.37	194.26
535.54	191.92
535.71	243.42
535.88	163.84
536.05	224.69
536.22	227.03
536.38	184.90
536.55	170.86
536.72	227.03
536.89	273.84
537.06	152.13
537.23	117.03
537.40	133.41
537.57	196.60
537.74	205.97
537.91	149.79
538.08	201.29
538.25	287.89
538.42	210.65
538.59	250.44
538.75	161.50
538.92	229.37
539.09	210.65
539.26	280.86
539.43	318.31
539.60	547.69
539.77	697.48
539.94	798.12
540.11	594.50
540.28	397.89
540.44	353.42
540.61	236.39
540.78	227.03
540.95	142.77
541.12	278.52
541.29	163.84
541.46	264.48
541.62	180.22
541.79	168.52
541.96	187.24
542.13	198.95
542.30	180.22
542.47	276.18
542.63	187.24
542.80	241.08
542.97	234.05
543.14	215.33
543.31	231.71
543.48	236.39
543.64	187.24
543.81	205.97
543.98	131.07
544.15	201.29
544.32	147.45
544.48	114.69
544.65	149.79
544.82	224.69
544.99	191.92
545.16	229.37
545.32	159.16
545.49	234.05
545.66	154.48
545.83	212.99
546.00	245.76
546.16	264.48
546.33	173.20
546.50	119.37
546.67	191.92
546.83	201.29
547.00	231.71
547.17	152.13
547.34	168.52
547.50	196.60
547.67	234.05
547.84	173.20
548.00	217.67
548.17	201.29
548.34	208.31
548.51	168.52
548.67	198.95
548.84	131.07
549.01	184.90
549.18	168.52
549.34	205.97
549.51	222.35
549.68	170.86
549.84	245.76
550.01	203.63
550.18	311.29
550.34	217.67
550.51	205.97
550.68	250.44
550.84	173.20
551.01	205.97
551.18	198.95
551.34	208.31
551.51	177.88
551.68	191.92
551.84	168.52
552.01	196.60
552.18	231.71
552.34	149.79
552.51	245.76
552.68	196.60
552.84	166.18
553.01	227.03
553.18	133.41
553.34	229.37
553.51	187.24
553.67	210.65
553.84	238.73
554.01	283.20
554.17	217.67
554.34	231.71
554.51	194.26
554.67	238.73
554.84	250.44
555.00	222.35
555.17	208.31
555.33	285.55
555.50	217.67
555.67	180.22
555.83	147.45
556.00	224.69
556.16	362.78
556.33	184.90
556.50	217.67
556.66	191.92
556.83	170.86
556.99	262.14
557.16	257.46
557.32	184.90
557.49	135.75
557.65	215.33
557.82	208.31
557.98	147.45
558.15	201.29
558.32	198.95
558.48	217.67
558.65	189.58
558.81	271.50
558.98	163.84
559.14	191.92
559.31	168.52
559.47	241.08
559.64	208.31
559.80	203.63
559.97	105.32
560.13	210.65
560.30	191.92
560.46	135.75
560.63	238.73
560.79	154.48
560.96	222.35
561.12	231.71
561.29	201.29
561.45	236.39
561.61	170.86
561.78	266.82
561.94	220.01
562.11	170.86
562.27	236.39
562.44	182.56
562.60	243.42
562.77	241.08
562.93	257.46
563.10	198.95
563.26	198.95
563.42	245.76
563.59	278.52
563.75	140.43
563.92	212.99
564.08	142.77
564.24	220.01
564.41	238.73
564.57	117.03
564.74	198.95
564.90	184.90
565.07	245.76
565.23	184.90
565.39	205.97
565.56	248.10
565.72	180.22
565.88	145.11
566.05	210.65
566.21	205.97
566.38	255.12
566.54	194.26
566.70	194.26
566.87	187.24
567.03	110.01
567.19	203.63
567.36	198.95
567.52	292.57
567.68	210.65
567.85	227.03
568.01	234.05
568.17	201.29
568.34	187.24
568.50	154.48
568.66	187.24
568.83	191.92
568.99	194.26
569.15	210.65
569.32	201.29
569.48	145.11
569.64	311.29
569.81	227.03
569.97	245.76
570.13	212.99
570.30	135.75
570.46	140.43
570.62	220.01
570.78	180.22
570.95	203.63
571.11	250.44
571.27	262.14
571.43	198.95
571.60	170.86
571.76	138.09
571.92	166.18
572.09	203.63
572.25	224.69
572.41	243.42
572.57	105.32
572.74	259.80
572.90	234.05
573.06	147.45
573.22	208.31
573.38	215.33
573.55	205.97
573.71	255.12
573.87	215.33
574.03	259.80
574.20	138.09
574.36	327.68
574.52	135.75
574.68	238.73
574.84	231.71
575.01	229.37
575.17	170.86
575.33	220.01
575.49	198.95
575.65	220.01
575.82	308.95
575.98	414.27
576.14	433.00
576.30	437.68
576.46	297.25
576.62	299.59
576.79	273.84
576.95	241.08
577.11	224.69
577.27	187.24
577.43	236.39
577.59	212.99
577.75	215.33
577.92	170.86
578.08	163.84
578.24	257.46
578.40	194.26
578.56	180.22
578.72	255.12
578.88	182.56
579.04	180.22
579.21	224.69
579.37	259.80
579.53	184.90
579.69	266.82
579.85	194.26
580.01	250.44
580.17	205.97
580.33	243.42
580.49	173.20
580.65	248.10
580.82	252.78
580.98	290.23
581.14	301.93
581.30	287.89
581.46	278.52
581.62	404.91
581.78	407.25
581.94	264.48
582.10	348.74
582.26	271.50
582.42	280.86
582.58	339.38
582.74	266.82
582.90	276.18
583.06	259.80
583.22	271.50
583.38	285.55
583.54	376.83
583.70	404.91
583.86	433.00
584.02	381.51
584.18	512.58
584.34	585.13
584.50	1556.46
584.66	11236.91
584.82	29172.44
584.98	41715.37
585.14	36907.91
585.30	22387.22
585.46	13343.39
585.62	8421.25
585.78	3810.39
585.94	1624.33
586.10	873.02
586.26	547.69
586.42	458.74
586.58	369.80
586.74	400.23
586.90	346.40
587.06	442.36
587.22	318.31
587.38	311.29
587.54	613.22
587.70	1778.81
587.86	2818.00
588.02	3063.76
588.18	2340.54
588.34	1416.02
588.49	889.40
588.65	629.60
588.81	318.31
588.97	252.78
589.13	227.03
589.29	238.73
589.45	259.80
589.61	252.78
589.77	304.27
589.93	315.97
590.08	315.97
590.24	215.33
590.40	280.86
590.56	234.05
590.72	227.03
590.88	262.14
591.04	257.46
591.20	229.37
591.35	250.44
591.51	245.76
591.67	187.24
591.83	273.84
591.99	175.54
592.15	236.39
592.31	203.63
592.46	191.92
592.62	205.97
592.78	259.80
592.94	152.13
593.10	255.12
593.26	140.43
593.41	231.71
593.57	243.42
593.73	308.95
593.89	1497.94
594.05	3534.21
594.20	5186.63
594.36	4966.62
594.52	3276.75
594.68	2005.84
594.84	1439.43
594.99	851.96
595.15	479.81
595.31	299.59
595.47	259.80
595.62	205.97
595.78	196.60
595.94	201.29
596.10	243.42
596.25	187.24
596.41	227.03
596.57	170.86
596.73	259.80
596.88	360.44
597.04	805.14
597.20	1205.38
597.36	1303.68
597.51	1022.81
597.67	676.41
597.83	578.11
597.99	369.80
598.14	245.76
598.30	234.05
598.46	205.97
598.61	234.05
598.77	208.31
598.93	201.29
599.09	208.31
599.24	196.60
599.40	273.84
599.56	210.65
599.71	220.01
599.87	212.99
600.03	252.78
600.18	177.88
600.34	194.26
600.50	205.97
600.65	184.90
600.81	285.55
600.97	163.84
601.12	182.56
601.28	140.43
601.44	154.48
601.59	131.07
601.75	184.90
601.91	140.43
602.06	229.37
602.22	271.50
602.37	482.15
602.53	877.70
602.69	1327.08
602.84	1280.27
603.00	1029.84
603.16	760.67
603.31	526.62
603.47	507.90
603.62	273.84
603.78	229.37
603.94	227.03
604.09	212.99
604.25	304.27
604.40	227.03
604.56	194.26
604.71	196.60
604.87	163.84
605.03	210.65
605.18	173.20
605.34	191.92
605.49	229.37
605.65	194.26
605.80	170.86
605.96	201.29
606.12	201.29
606.27	280.86
606.43	278.52
606.58	320.65
606.74	444.70
606.89	1629.01
607.05	3365.69
607.20	4325.31
607.36	3669.96
607.51	2506.71
607.67	1636.03
607.82	1203.04
607.98	723.23
608.13	304.27
608.29	283.20
608.44	337.04
608.60	238.73
608.75	344.06
608.91	699.82
609.06	2626.08
609.22	5762.40
609.37	7494.40
609.53	6649.46
609.68	4416.59
609.84	2932.69
609.99	1994.14
610.15	1100.05
610.30	601.52
610.46	425.98
610.61	339.38
610.76	294.91
610.92	220.01
611.07	201.29
611.23	320.65
611.38	252.78
611.54	191.92
611.69	191.92
611.84	238.73
612.00	201.29
612.15	269.16
612.31	320.65
