SpectraSuite Data File
++++++++++++++++++++++++++++++++++++
Date: Fri Oct 04 11:47:01 GMT-05:00 2013
User: price-jones
Dark Spectrum Present: No
Reference Spectrum Present: No
Number of Sampled Component Spectra: 1
Spectrometers: USB2+H05261
Integration Time (usec): 100000 (USB2+H05261)
Spectra Averaged: 1 (USB2+H05261)
Boxcar Smoothing: 0 (USB2+H05261)
Correct for Electrical Dark: No (USB2+H05261)
Strobe/Lamp Enabled: No (USB2+H05261)
Correct for Detector Non-linearity: No (USB2+H05261)
Correct for Stray Light: No (USB2+H05261)
Number of Pixels in Processed Spectrum: 2048
>>>>>Begin Processed Spectral Data<<<<<
365.73	56.17
365.92	56.17
366.12	56.17
366.32	2.34
366.52	0.00
366.72	0.00
366.91	0.00
367.11	0.00
367.31	0.00
367.51	0.00
367.70	0.00
367.90	0.00
368.10	0.00
368.30	0.00
368.49	0.00
368.69	0.00
368.89	0.00
369.09	0.00
369.28	0.00
369.48	0.00
369.68	0.00
369.87	0.00
370.07	0.00
370.27	21.06
370.47	0.00
370.66	0.00
370.86	81.92
371.06	37.45
371.25	131.07
371.45	58.51
371.65	79.58
371.84	63.19
372.04	44.47
372.24	37.45
372.44	60.85
372.63	114.69
372.83	124.05
373.03	124.05
373.22	42.13
373.42	77.24
373.62	117.03
373.81	102.98
374.01	67.88
374.21	46.81
374.40	119.37
374.60	135.75
374.79	135.75
374.99	124.05
375.19	142.77
375.38	102.98
375.58	84.26
375.78	168.52
375.97	72.56
376.17	149.79
376.37	67.88
376.56	140.43
376.76	117.03
376.95	110.01
377.15	196.60
377.35	105.32
377.54	88.94
377.74	44.47
377.93	124.05
378.13	91.28
378.33	107.66
378.52	117.03
378.72	67.88
378.91	112.35
379.11	58.51
379.31	93.62
379.50	93.62
379.70	72.56
379.89	112.35
380.09	98.30
380.28	86.60
380.48	88.94
380.68	124.05
380.87	86.60
381.07	58.51
381.26	102.98
381.46	117.03
381.65	131.07
381.85	58.51
382.04	65.54
382.24	79.58
382.43	77.24
382.63	100.64
382.83	121.71
383.02	126.39
383.22	140.43
383.41	105.32
383.61	72.56
383.80	149.79
384.00	131.07
384.19	65.54
384.39	65.54
384.58	91.28
384.78	72.56
384.97	121.71
385.17	95.96
385.36	95.96
385.56	140.43
385.75	42.13
385.95	124.05
386.14	140.43
386.34	28.09
386.53	91.28
386.72	93.62
386.92	124.05
387.11	112.35
387.31	102.98
387.50	79.58
387.70	102.98
387.89	63.19
388.09	112.35
388.28	110.01
388.48	25.75
388.67	163.84
388.86	95.96
389.06	135.75
389.25	32.77
389.45	77.24
389.64	114.69
389.84	121.71
390.03	138.09
390.22	58.51
390.42	191.92
390.61	44.47
390.81	124.05
391.00	95.96
391.19	63.19
391.39	131.07
391.58	119.37
391.78	131.07
391.97	131.07
392.16	46.81
392.36	138.09
392.55	105.32
392.75	182.56
392.94	154.48
393.13	149.79
393.33	135.75
393.52	84.26
393.71	74.90
393.91	135.75
394.10	49.15
394.29	191.92
394.49	182.56
394.68	170.86
394.88	154.48
395.07	110.01
395.26	133.41
395.46	100.64
395.65	98.30
395.84	98.30
396.04	180.22
396.23	182.56
396.42	65.54
396.62	138.09
396.81	32.77
397.00	126.39
397.19	121.71
397.39	42.13
397.58	154.48
397.77	161.50
397.97	133.41
398.16	88.94
398.35	65.54
398.55	65.54
398.74	84.26
398.93	100.64
399.12	25.75
399.32	95.96
399.51	49.15
399.70	156.82
399.90	161.50
400.09	140.43
400.28	72.56
400.47	91.28
400.67	70.22
400.86	74.90
401.05	112.35
401.24	128.73
401.44	145.11
401.63	149.79
401.82	166.18
402.01	163.84
402.21	166.18
402.40	79.58
402.59	95.96
402.78	145.11
402.97	79.58
403.17	84.26
403.36	100.64
403.55	102.98
403.74	152.13
403.93	147.45
404.13	229.37
404.32	145.11
404.51	201.29
404.70	98.30
404.89	84.26
405.09	121.71
405.28	91.28
405.47	93.62
405.66	60.85
405.85	117.03
406.05	95.96
406.24	124.05
406.43	105.32
406.62	145.11
406.81	138.09
407.00	177.88
407.20	102.98
407.39	124.05
407.58	77.24
407.77	110.01
407.96	98.30
408.15	133.41
408.34	152.13
408.54	152.13
408.73	79.58
408.92	177.88
409.11	133.41
409.30	163.84
409.49	156.82
409.68	63.19
409.87	126.39
410.07	102.98
410.26	145.11
410.45	140.43
410.64	95.96
410.83	100.64
411.02	60.85
411.21	91.28
411.40	121.71
411.59	180.22
411.78	187.24
411.98	147.45
412.17	93.62
412.36	98.30
412.55	126.39
412.74	53.83
412.93	138.09
413.12	102.98
413.31	135.75
413.50	0.00
413.69	72.56
413.88	119.37
414.07	105.32
414.26	152.13
414.45	86.60
414.64	117.03
414.83	81.92
415.02	135.75
415.22	135.75
415.41	205.97
415.60	175.54
415.79	161.50
415.98	163.84
416.17	126.39
416.36	84.26
416.55	67.88
416.74	74.90
416.93	133.41
417.12	91.28
417.31	166.18
417.50	159.16
417.69	215.33
417.88	227.03
418.07	182.56
418.26	98.30
418.45	168.52
418.64	191.92
418.83	222.35
419.02	250.44
419.21	276.18
419.39	259.80
419.58	182.56
419.77	175.54
419.96	212.99
420.15	201.29
420.34	175.54
420.53	142.77
420.72	110.01
420.91	81.92
421.10	140.43
421.29	49.15
421.48	142.77
421.67	119.37
421.86	79.58
422.05	58.51
422.24	170.86
422.43	121.71
422.61	67.88
422.80	105.32
422.99	177.88
423.18	114.69
423.37	128.73
423.56	102.98
423.75	35.11
423.94	18.72
424.13	154.48
424.32	147.45
424.50	131.07
424.69	117.03
424.88	175.54
425.07	58.51
425.26	152.13
425.45	234.05
425.64	290.23
425.83	168.52
426.01	224.69
426.20	112.35
426.39	145.11
426.58	98.30
426.77	98.30
426.96	133.41
427.15	191.92
427.33	70.22
427.52	121.71
427.71	53.83
427.90	133.41
428.09	184.90
428.28	84.26
428.46	170.86
428.65	98.30
428.84	138.09
429.03	234.05
429.22	107.66
429.40	79.58
429.59	159.16
429.78	212.99
429.97	70.22
430.16	163.84
430.34	114.69
430.53	180.22
430.72	135.75
430.91	51.49
431.10	196.60
431.28	102.98
431.47	145.11
431.66	133.41
431.85	114.69
432.03	119.37
432.22	126.39
432.41	100.64
432.60	81.92
432.79	257.46
432.97	299.59
433.16	294.91
433.35	285.55
433.54	189.58
433.72	117.03
433.91	142.77
434.10	191.92
434.28	156.82
434.47	159.16
434.66	145.11
434.85	119.37
435.03	149.79
435.22	184.90
435.41	189.58
435.59	168.52
435.78	119.37
435.97	91.28
436.16	124.05
436.34	145.11
436.53	124.05
436.72	110.01
436.90	121.71
437.09	107.66
437.28	147.45
437.46	107.66
437.65	159.16
437.84	189.58
438.02	107.66
438.21	166.18
438.40	72.56
438.58	95.96
438.77	72.56
438.96	84.26
439.14	91.28
439.33	142.77
439.52	177.88
439.70	147.45
439.89	205.97
440.08	65.54
440.26	119.37
440.45	177.88
440.63	133.41
440.82	142.77
441.01	131.07
441.19	147.45
441.38	140.43
441.57	135.75
441.75	100.64
441.94	126.39
442.12	163.84
442.31	79.58
442.50	182.56
442.68	117.03
442.87	149.79
443.05	56.17
443.24	142.77
443.43	124.05
443.61	205.97
443.80	112.35
443.98	131.07
444.17	180.22
444.35	107.66
444.54	152.13
444.73	126.39
444.91	142.77
445.10	65.54
445.28	114.69
445.47	152.13
445.65	175.54
445.84	98.30
446.02	112.35
446.21	149.79
446.39	110.01
446.58	128.73
446.77	163.84
446.95	170.86
447.14	112.35
447.32	264.48
447.51	88.94
447.69	147.45
447.88	84.26
448.06	182.56
448.25	163.84
448.43	100.64
448.62	152.13
448.80	126.39
448.99	149.79
449.17	110.01
449.36	140.43
449.54	124.05
449.73	114.69
449.91	212.99
450.10	49.15
450.28	238.73
450.46	203.63
450.65	203.63
450.83	191.92
451.02	180.22
451.20	138.09
451.39	140.43
451.57	149.79
451.76	159.16
451.94	170.86
452.13	119.37
452.31	145.11
452.49	182.56
452.68	86.60
452.86	135.75
453.05	107.66
453.23	142.77
453.42	163.84
453.60	166.18
453.78	140.43
453.97	173.20
454.15	102.98
454.34	107.66
454.52	102.98
454.70	156.82
454.89	100.64
455.07	154.48
455.26	88.94
455.44	201.29
455.62	102.98
455.81	88.94
455.99	67.88
456.17	138.09
456.36	159.16
456.54	145.11
456.73	131.07
456.91	182.56
457.09	177.88
457.28	210.65
457.46	156.82
457.64	163.84
457.83	124.05
458.01	140.43
458.19	107.66
458.38	124.05
458.56	161.50
458.74	133.41
458.93	154.48
459.11	175.54
459.29	170.86
459.48	124.05
459.66	252.78
459.84	128.73
460.03	175.54
460.21	166.18
460.39	60.85
460.57	140.43
460.76	114.69
460.94	156.82
461.12	210.65
461.31	175.54
461.49	189.58
461.67	131.07
461.85	182.56
462.04	166.18
462.22	533.64
462.40	182.56
462.59	147.45
462.77	121.71
462.95	102.98
463.13	180.22
463.32	173.20
463.50	105.32
463.68	187.24
463.86	170.86
464.05	124.05
464.23	154.48
464.41	159.16
464.59	79.58
464.78	93.62
464.96	121.71
465.14	100.64
465.32	168.52
465.50	138.09
465.69	145.11
465.87	98.30
466.05	173.20
466.23	147.45
466.41	152.13
466.60	166.18
466.78	159.16
466.96	119.37
467.14	168.52
467.32	194.26
467.51	138.09
467.69	53.83
467.87	166.18
468.05	147.45
468.23	175.54
468.41	110.01
468.60	170.86
468.78	152.13
468.96	173.20
469.14	147.45
469.32	81.92
469.50	220.01
469.69	173.20
469.87	126.39
470.05	112.35
470.23	163.84
470.41	142.77
470.59	138.09
470.77	189.58
470.95	135.75
471.14	198.95
471.32	88.94
471.50	163.84
471.68	102.98
471.86	126.39
472.04	170.86
472.22	128.73
472.40	126.39
472.58	145.11
472.77	86.60
472.95	161.50
473.13	187.24
473.31	170.86
473.49	95.96
473.67	135.75
473.85	128.73
474.03	140.43
474.21	138.09
474.39	154.48
474.57	175.54
474.75	140.43
474.93	121.71
475.12	114.69
475.30	168.52
475.48	201.29
475.66	166.18
475.84	138.09
476.02	180.22
476.20	145.11
476.38	142.77
476.56	241.08
476.74	175.54
476.92	110.01
477.10	217.67
477.28	147.45
477.46	114.69
477.64	224.69
477.82	110.01
478.00	114.69
478.18	203.63
478.36	159.16
478.54	217.67
478.72	112.35
478.90	191.92
479.08	180.22
479.26	180.22
479.44	72.56
479.62	205.97
479.80	128.73
479.98	133.41
480.16	154.48
480.34	301.93
480.52	163.84
480.70	93.62
480.88	161.50
481.06	173.20
481.24	182.56
481.41	173.20
481.59	187.24
481.77	114.69
481.95	131.07
482.13	168.52
482.31	173.20
482.49	198.95
482.67	173.20
482.85	156.82
483.03	140.43
483.21	163.84
483.39	198.95
483.57	140.43
483.74	220.01
483.92	182.56
484.10	205.97
484.28	149.79
484.46	194.26
484.64	187.24
484.82	149.79
485.00	250.44
485.18	149.79
485.35	161.50
485.53	191.92
485.71	191.92
485.89	138.09
486.07	133.41
486.25	194.26
486.43	224.69
486.61	217.67
486.78	133.41
486.96	114.69
487.14	65.54
487.32	135.75
487.50	149.79
487.68	135.75
487.85	149.79
488.03	114.69
488.21	184.90
488.39	241.08
488.57	135.75
488.75	140.43
488.92	348.74
489.10	149.79
489.28	189.58
489.46	196.60
489.64	154.48
489.81	194.26
489.99	222.35
490.17	210.65
490.35	210.65
490.53	217.67
490.70	110.01
490.88	112.35
491.06	140.43
491.24	236.39
491.41	191.92
491.59	147.45
491.77	201.29
491.95	201.29
492.13	98.30
492.30	135.75
492.48	203.63
492.66	107.66
492.84	259.80
493.01	60.85
493.19	166.18
493.37	208.31
493.54	110.01
493.72	126.39
493.90	210.65
494.08	203.63
494.25	175.54
494.43	217.67
494.61	222.35
494.79	184.90
494.96	250.44
495.14	250.44
495.32	224.69
495.49	236.39
495.67	182.56
495.85	198.95
496.02	220.01
496.20	194.26
496.38	168.52
496.55	224.69
496.73	175.54
496.91	194.26
497.09	152.13
497.26	198.95
497.44	217.67
497.62	198.95
497.79	128.73
497.97	117.03
498.14	175.54
498.32	182.56
498.50	170.86
498.67	191.92
498.85	149.79
499.03	98.30
499.20	227.03
499.38	91.28
499.56	147.45
499.73	257.46
499.91	187.24
500.08	173.20
500.26	224.69
500.44	175.54
500.61	173.20
500.79	149.79
500.97	210.65
501.14	236.39
501.32	196.60
501.49	205.97
501.67	210.65
501.84	156.82
502.02	145.11
502.20	163.84
502.37	177.88
502.55	128.73
502.72	147.45
502.90	161.50
503.07	182.56
503.25	262.14
503.43	222.35
503.60	259.80
503.78	234.05
503.95	205.97
504.13	245.76
504.30	196.60
504.48	133.41
504.65	187.24
504.83	166.18
505.01	140.43
505.18	210.65
505.36	182.56
505.53	210.65
505.71	159.16
505.88	210.65
506.06	184.90
506.23	243.42
506.41	187.24
506.58	243.42
506.76	159.16
506.93	145.11
507.11	201.29
507.28	177.88
507.46	196.60
507.63	201.29
507.81	259.80
507.98	241.08
508.16	194.26
508.33	236.39
508.50	220.01
508.68	154.48
508.85	138.09
509.03	159.16
509.20	210.65
509.38	250.44
509.55	180.22
509.73	203.63
509.90	269.16
510.08	166.18
510.25	224.69
510.42	208.31
510.60	210.65
510.77	243.42
510.95	198.95
511.12	238.73
511.30	325.33
511.47	238.73
511.64	234.05
511.82	210.65
511.99	290.23
512.17	262.14
512.34	187.24
512.51	212.99
512.69	140.43
512.86	257.46
513.04	194.26
513.21	170.86
513.38	220.01
513.56	135.75
513.73	189.58
513.90	140.43
514.08	255.12
514.25	297.25
514.43	187.24
514.60	145.11
514.77	189.58
514.95	238.73
515.12	203.63
515.29	208.31
515.47	159.16
515.64	234.05
515.81	187.24
515.99	147.45
516.16	168.52
516.33	191.92
516.51	182.56
516.68	126.39
516.85	93.62
517.03	191.92
517.20	229.37
517.37	243.42
517.54	236.39
517.72	173.20
517.89	220.01
518.06	147.45
518.24	269.16
518.41	255.12
518.58	259.80
518.75	198.95
518.93	205.97
519.10	208.31
519.27	159.16
519.45	203.63
519.62	191.92
519.79	231.71
519.96	182.56
520.14	241.08
520.31	273.84
520.48	203.63
520.65	208.31
520.83	255.12
521.00	212.99
521.17	245.76
521.34	196.60
521.52	180.22
521.69	173.20
521.86	227.03
522.03	264.48
522.20	168.52
522.38	212.99
522.55	205.97
522.72	182.56
522.89	217.67
523.07	234.05
523.24	191.92
523.41	187.24
523.58	180.22
523.75	203.63
523.92	159.16
524.10	166.18
524.27	180.22
524.44	198.95
524.61	250.44
524.78	135.75
524.96	215.33
525.13	217.67
525.30	187.24
525.47	196.60
525.64	203.63
525.81	173.20
525.98	243.42
526.16	159.16
526.33	170.86
526.50	161.50
526.67	189.58
526.84	163.84
527.01	110.01
527.18	194.26
527.36	205.97
527.53	173.20
527.70	252.78
527.87	266.82
528.04	180.22
528.21	266.82
528.38	212.99
528.55	269.16
528.72	208.31
528.89	208.31
529.07	215.33
529.24	194.26
529.41	311.29
529.58	245.76
529.75	212.99
529.92	241.08
530.09	280.86
530.26	159.16
530.43	170.86
530.60	205.97
530.77	248.10
530.94	262.14
531.11	248.10
531.28	220.01
531.46	257.46
531.63	215.33
531.80	245.76
531.97	203.63
532.14	180.22
532.31	210.65
532.48	283.20
532.65	337.04
532.82	454.06
532.99	430.66
533.16	341.72
533.33	327.68
533.50	257.46
533.67	334.70
533.84	437.68
534.01	493.85
534.18	334.70
534.35	315.97
534.52	294.91
534.69	285.55
534.86	201.29
535.03	227.03
535.20	198.95
535.37	311.29
535.54	243.42
535.71	201.29
535.88	208.31
536.05	255.12
536.22	273.84
536.38	159.16
536.55	175.54
536.72	236.39
536.89	163.84
537.06	156.82
537.23	208.31
537.40	147.45
537.57	166.18
537.74	273.84
537.91	220.01
538.08	128.73
538.25	255.12
538.42	215.33
538.59	245.76
538.75	180.22
538.92	231.71
539.09	245.76
539.26	229.37
539.43	575.77
539.60	1430.07
539.77	2253.94
539.94	2183.72
540.11	1439.43
540.28	854.30
540.44	575.77
540.61	334.70
540.78	287.89
540.95	276.18
541.12	301.93
541.29	203.63
541.46	271.50
541.62	234.05
541.79	194.26
541.96	198.95
542.13	224.69
542.30	203.63
542.47	248.10
542.63	220.01
542.80	229.37
542.97	243.42
543.14	182.56
543.31	227.03
543.48	236.39
543.64	236.39
543.81	177.88
543.98	227.03
544.15	100.64
544.32	234.05
544.48	248.10
544.65	255.12
544.82	173.20
544.99	217.67
545.16	201.29
545.32	163.84
545.49	182.56
545.66	191.92
545.83	119.37
546.00	222.35
546.16	147.45
546.33	196.60
546.50	198.95
546.67	227.03
546.83	217.67
547.00	203.63
547.17	135.75
547.34	227.03
547.50	212.99
547.67	215.33
547.84	147.45
548.00	236.39
548.17	276.18
548.34	180.22
548.51	243.42
548.67	220.01
548.84	236.39
549.01	266.82
549.18	156.82
549.34	248.10
549.51	215.33
549.68	177.88
549.84	140.43
550.01	203.63
550.18	306.61
550.34	248.10
550.51	271.50
550.68	215.33
550.84	203.63
551.01	170.86
551.18	191.92
551.34	245.76
551.51	238.73
551.68	198.95
551.84	191.92
552.01	208.31
552.18	248.10
552.34	238.73
552.51	212.99
552.68	273.84
552.84	234.05
553.01	203.63
553.18	245.76
553.34	210.65
553.51	184.90
553.67	271.50
553.84	269.16
554.01	205.97
554.17	248.10
554.34	208.31
554.51	250.44
554.67	250.44
554.84	191.92
555.00	255.12
555.17	159.16
555.33	187.24
555.50	227.03
555.67	205.97
555.83	238.73
556.00	187.24
556.16	404.91
556.33	262.14
556.50	262.14
556.66	238.73
556.83	152.13
556.99	227.03
557.16	215.33
557.32	187.24
557.49	175.54
557.65	241.08
557.82	105.32
557.98	156.82
558.15	297.25
558.32	215.33
558.48	217.67
558.65	189.58
558.81	168.52
558.98	201.29
559.14	212.99
559.31	196.60
559.47	205.97
559.64	189.58
559.80	227.03
559.97	191.92
560.13	271.50
560.30	224.69
560.46	259.80
560.63	168.52
560.79	224.69
560.96	215.33
561.12	229.37
561.29	208.31
561.45	215.33
561.61	266.82
561.78	234.05
561.94	248.10
562.11	182.56
562.27	255.12
562.44	152.13
562.60	154.48
562.77	191.92
562.93	262.14
563.10	138.09
563.26	194.26
563.42	227.03
563.59	245.76
563.75	227.03
563.92	320.65
564.08	163.84
564.24	161.50
564.41	227.03
564.57	231.71
564.74	180.22
564.90	250.44
565.07	271.50
565.23	273.84
565.39	301.93
565.56	292.57
565.72	245.76
565.88	283.20
566.05	250.44
566.21	217.67
566.38	264.48
566.54	196.60
566.70	224.69
566.87	250.44
567.03	224.69
567.19	234.05
567.36	205.97
567.52	208.31
567.68	229.37
567.85	208.31
568.01	161.50
568.17	173.20
568.34	166.18
568.50	252.78
568.66	231.71
568.83	325.33
568.99	227.03
569.15	191.92
569.32	177.88
569.48	140.43
569.64	133.41
569.81	187.24
569.97	156.82
570.13	271.50
570.30	250.44
570.46	170.86
570.62	245.76
570.78	203.63
570.95	74.90
571.11	259.80
571.27	271.50
571.43	208.31
571.60	264.48
571.76	292.57
571.92	217.67
572.09	198.95
572.25	224.69
572.41	161.50
572.57	205.97
572.74	245.76
572.90	250.44
573.06	273.84
573.22	203.63
573.38	241.08
573.55	229.37
573.71	283.20
573.87	187.24
574.03	220.01
574.20	175.54
574.36	346.40
574.52	365.12
574.68	360.44
574.84	355.76
575.01	259.80
575.17	259.80
575.33	243.42
575.49	231.71
575.65	299.59
575.82	351.08
575.98	772.38
576.14	858.98
576.30	973.66
576.46	716.20
576.62	491.51
576.79	411.93
576.95	311.29
577.11	255.12
577.27	222.35
577.43	280.86
577.59	285.55
577.75	283.20
577.92	184.90
578.08	201.29
578.24	285.55
578.40	287.89
578.56	360.44
578.72	339.38
578.88	241.08
579.04	217.67
579.21	241.08
579.37	294.91
579.53	308.95
579.69	379.17
579.85	365.12
580.01	390.87
580.17	379.17
580.33	421.30
580.49	416.62
580.65	409.59
580.82	379.17
580.98	348.74
581.14	383.85
581.30	433.00
581.46	592.16
581.62	681.10
581.78	851.96
581.94	770.04
582.10	582.79
582.26	608.54
582.42	566.41
582.58	573.43
582.74	500.87
582.90	491.51
583.06	505.56
583.22	573.43
583.38	564.07
583.54	540.66
583.70	840.25
583.86	891.74
584.02	1039.20
584.18	1313.04
584.34	1762.42
584.50	4994.70
584.66	37982.21
584.82	65535.00
584.98	65535.00
585.14	65535.00
585.30	65535.00
585.46	48144.82
585.62	29673.31
585.78	13446.38
585.94	5111.73
586.10	2368.62
586.26	1490.92
586.42	1228.78
586.58	976.00
586.74	858.98
586.90	849.61
587.06	767.70
587.22	622.58
587.38	638.97
587.54	1746.04
587.70	5383.23
587.86	9263.84
588.02	10815.62
588.18	7344.60
588.34	4519.57
588.49	3063.76
588.65	1717.95
588.81	1025.15
588.97	552.37
589.13	463.43
589.29	318.31
589.45	400.23
589.61	369.80
589.77	479.81
589.93	550.03
590.08	601.52
590.24	580.45
590.40	503.22
590.56	552.37
590.72	468.11
590.88	383.85
591.04	358.10
591.20	318.31
591.35	468.11
591.51	301.93
591.67	334.70
591.83	283.20
591.99	292.57
592.15	287.89
592.31	348.74
592.46	283.20
592.62	248.10
592.78	210.65
592.94	330.02
593.10	360.44
593.26	318.31
593.41	325.33
593.57	379.17
593.73	793.44
593.89	4409.57
594.05	11782.26
594.20	18216.39
594.36	17631.26
594.52	11108.18
594.68	6724.36
594.84	4421.27
594.99	2403.73
595.15	1118.78
595.31	676.41
595.47	444.70
595.62	397.89
595.78	346.40
595.94	362.78
596.10	400.23
596.25	351.08
596.41	362.78
596.57	346.40
596.73	337.04
596.88	730.25
597.04	2188.40
597.20	3719.11
597.36	4540.64
597.51	3396.12
597.67	2150.95
597.83	1334.11
597.99	985.37
598.14	582.79
598.30	442.36
598.46	379.17
598.61	400.23
598.77	404.91
598.93	400.23
599.09	327.68
599.24	339.38
599.40	304.27
599.56	255.12
599.71	337.04
599.87	238.73
600.03	248.10
600.18	215.33
600.34	238.73
600.50	210.65
600.65	234.05
600.81	290.23
600.97	196.60
601.12	231.71
601.28	205.97
601.44	266.82
601.59	259.80
601.75	304.27
601.91	201.29
602.06	266.82
602.22	442.36
602.37	976.00
602.53	2703.32
602.69	4451.70
602.84	4695.11
603.00	3302.50
603.16	2183.72
603.31	1638.38
603.47	875.36
603.62	477.47
603.78	353.42
603.94	353.42
604.09	348.74
604.25	362.78
604.40	322.99
604.56	264.48
604.71	222.35
604.87	234.05
605.03	234.05
605.18	250.44
605.34	299.59
605.49	212.99
605.65	325.33
605.80	311.29
605.96	372.15
606.12	362.78
606.27	449.38
606.43	353.42
606.58	425.98
606.74	1203.04
606.89	5640.69
607.05	11463.94
607.20	15887.56
607.36	12734.85
607.51	8421.25
607.67	5446.43
607.82	3552.93
607.98	1877.11
608.13	954.94
608.29	578.11
608.44	503.22
608.60	521.94
608.75	664.71
608.91	1675.82
609.06	8580.40
609.22	19763.48
609.37	27608.96
609.53	23997.51
609.68	15339.87
609.84	9841.95
609.99	6473.92
610.15	3421.86
610.30	1568.16
610.46	835.57
610.61	606.20
610.76	411.93
610.92	456.40
611.07	341.72
611.23	414.27
611.38	393.21
