SpectraSuite Data File
++++++++++++++++++++++++++++++++++++
Date: Fri Oct 04 11:46:57 GMT-05:00 2013
User: price-jones
Dark Spectrum Present: No
Reference Spectrum Present: No
Number of Sampled Component Spectra: 1
Spectrometers: USB2+H05261
Integration Time (usec): 100000 (USB2+H05261)
Spectra Averaged: 1 (USB2+H05261)
Boxcar Smoothing: 0 (USB2+H05261)
Correct for Electrical Dark: No (USB2+H05261)
Strobe/Lamp Enabled: No (USB2+H05261)
Correct for Detector Non-linearity: No (USB2+H05261)
Correct for Stray Light: No (USB2+H05261)
Number of Pixels in Processed Spectrum: 2048
>>>>>Begin Processed Spectral Data<<<<<
365.73	16.38
365.92	16.38
366.12	16.38
366.32	0.00
366.52	0.00
366.72	49.15
366.91	0.00
367.11	0.00
367.31	0.00
367.51	0.00
367.70	0.00
367.90	0.00
368.10	0.00
368.30	0.00
368.49	0.00
368.69	0.00
368.89	0.00
369.09	0.00
369.28	0.00
369.48	0.00
369.68	0.00
369.87	0.00
370.07	0.00
370.27	58.51
370.47	0.00
370.66	0.00
370.86	0.00
371.06	79.58
371.25	58.51
371.45	18.72
371.65	74.90
371.84	56.17
372.04	42.13
372.24	44.47
372.44	60.85
372.63	70.22
372.83	149.79
373.03	42.13
373.22	49.15
373.42	65.54
373.62	32.77
373.81	81.92
374.01	180.22
374.21	147.45
374.40	35.11
374.60	121.71
374.79	138.09
374.99	105.32
375.19	142.77
375.38	133.41
375.58	67.88
375.78	184.90
375.97	149.79
376.17	117.03
376.37	23.41
376.56	154.48
376.76	135.75
376.95	126.39
377.15	60.85
377.35	70.22
377.54	84.26
377.74	72.56
377.93	91.28
378.13	51.49
378.33	74.90
378.52	147.45
378.72	152.13
378.91	81.92
379.11	124.05
379.31	117.03
379.50	30.43
379.70	95.96
379.89	60.85
380.09	138.09
380.28	93.62
380.48	112.35
380.68	77.24
380.87	161.50
381.07	53.83
381.26	114.69
381.46	74.90
381.65	107.66
381.85	46.81
382.04	86.60
382.24	112.35
382.43	11.70
382.63	37.45
382.83	152.13
383.02	114.69
383.22	119.37
383.41	56.17
383.61	121.71
383.80	114.69
384.00	128.73
384.19	46.81
384.39	133.41
384.58	91.28
384.78	37.45
384.97	93.62
385.17	102.98
385.36	121.71
385.56	140.43
385.75	149.79
385.95	133.41
386.14	142.77
386.34	86.60
386.53	79.58
386.72	63.19
386.92	159.16
387.11	128.73
387.31	161.50
387.50	84.26
387.70	18.72
387.89	84.26
388.09	161.50
388.28	49.15
388.48	67.88
388.67	95.96
388.86	44.47
389.06	110.01
389.25	74.90
389.45	117.03
389.64	39.79
389.84	65.54
390.03	128.73
390.22	138.09
390.42	86.60
390.61	100.64
390.81	95.96
391.00	102.98
391.19	56.17
391.39	74.90
391.58	86.60
391.78	107.66
391.97	138.09
392.16	105.32
392.36	152.13
392.55	28.09
392.75	133.41
392.94	63.19
393.13	88.94
393.33	91.28
393.52	81.92
393.71	93.62
393.91	98.30
394.10	56.17
394.29	110.01
394.49	128.73
394.68	39.79
394.88	126.39
395.07	114.69
395.26	114.69
395.46	42.13
395.65	182.56
395.84	86.60
396.04	128.73
396.23	16.38
396.42	121.71
396.62	191.92
396.81	117.03
397.00	119.37
397.19	86.60
397.39	44.47
397.58	110.01
397.77	32.77
397.97	56.17
398.16	56.17
398.35	81.92
398.55	2.34
398.74	32.77
398.93	98.30
399.12	70.22
399.32	121.71
399.51	7.02
399.70	154.48
399.90	154.48
400.09	112.35
400.28	147.45
400.47	63.19
400.67	201.29
400.86	131.07
401.05	154.48
401.24	170.86
401.44	77.24
401.63	180.22
401.82	131.07
402.01	32.77
402.21	128.73
402.40	112.35
402.59	117.03
402.78	91.28
402.97	91.28
403.17	159.16
403.36	124.05
403.55	95.96
403.74	135.75
403.93	63.19
404.13	166.18
404.32	191.92
404.51	133.41
404.70	156.82
404.89	81.92
405.09	145.11
405.28	84.26
405.47	119.37
405.66	161.50
405.85	91.28
406.05	124.05
406.24	163.84
406.43	107.66
406.62	95.96
406.81	149.79
407.00	119.37
407.20	110.01
407.39	88.94
407.58	56.17
407.77	53.83
407.96	95.96
408.15	126.39
408.34	70.22
408.54	128.73
408.73	142.77
408.92	140.43
409.11	121.71
409.30	91.28
409.49	81.92
409.68	117.03
409.87	102.98
410.07	117.03
410.26	126.39
410.45	84.26
410.64	131.07
410.83	105.32
411.02	67.88
411.21	98.30
411.40	147.45
411.59	70.22
411.78	145.11
411.98	110.01
412.17	110.01
412.36	91.28
412.55	112.35
412.74	166.18
412.93	131.07
413.12	84.26
413.31	138.09
413.50	107.66
413.69	49.15
413.88	201.29
414.07	51.49
414.26	126.39
414.45	131.07
414.64	198.95
414.83	88.94
415.02	79.58
415.22	93.62
415.41	177.88
415.60	131.07
415.79	140.43
415.98	102.98
416.17	194.26
416.36	135.75
416.55	126.39
416.74	140.43
416.93	133.41
417.12	112.35
417.31	93.62
417.50	98.30
417.69	198.95
417.88	222.35
418.07	175.54
418.26	119.37
418.45	147.45
418.64	166.18
418.83	241.08
419.02	252.78
419.21	182.56
419.39	138.09
419.58	168.52
419.77	133.41
419.96	133.41
420.15	168.52
420.34	100.64
420.53	95.96
420.72	98.30
420.91	110.01
421.10	163.84
421.29	72.56
421.48	145.11
421.67	152.13
421.86	105.32
422.05	119.37
422.24	91.28
422.43	170.86
422.61	124.05
422.80	107.66
422.99	145.11
423.18	121.71
423.37	243.42
423.56	95.96
423.75	98.30
423.94	124.05
424.13	140.43
424.32	145.11
424.50	124.05
424.69	133.41
424.88	184.90
425.07	252.78
425.26	126.39
425.45	257.46
425.64	182.56
425.83	159.16
426.01	208.31
426.20	154.48
426.39	180.22
426.58	133.41
426.77	72.56
426.96	135.75
427.15	131.07
427.33	60.85
427.52	133.41
427.71	142.77
427.90	133.41
428.09	163.84
428.28	168.52
428.46	180.22
428.65	121.71
428.84	119.37
429.03	163.84
429.22	98.30
429.40	39.79
429.59	117.03
429.78	238.73
429.97	81.92
430.16	98.30
430.34	161.50
430.53	135.75
430.72	147.45
430.91	180.22
431.10	79.58
431.28	161.50
431.47	142.77
431.66	95.96
431.85	84.26
432.03	105.32
432.22	149.79
432.41	135.75
432.60	229.37
432.79	189.58
432.97	203.63
433.16	248.10
433.35	215.33
433.54	198.95
433.72	156.82
433.91	173.20
434.10	140.43
434.28	79.58
434.47	149.79
434.66	173.20
434.85	166.18
435.03	88.94
435.22	131.07
435.41	149.79
435.59	77.24
435.78	145.11
435.97	131.07
436.16	170.86
436.34	114.69
436.53	74.90
436.72	110.01
436.90	191.92
437.09	163.84
437.28	177.88
437.46	114.69
437.65	161.50
437.84	72.56
438.02	133.41
438.21	149.79
438.40	98.30
438.58	74.90
438.77	77.24
438.96	159.16
439.14	163.84
439.33	194.26
439.52	203.63
439.70	91.28
439.89	154.48
440.08	67.88
440.26	133.41
440.45	124.05
440.63	138.09
440.82	114.69
441.01	140.43
441.19	63.19
441.38	91.28
441.57	147.45
441.75	135.75
441.94	173.20
442.12	131.07
442.31	63.19
442.50	135.75
442.68	102.98
442.87	124.05
443.05	119.37
443.24	145.11
443.43	156.82
443.61	100.64
443.80	128.73
443.98	91.28
444.17	105.32
444.35	142.77
444.54	65.54
444.73	194.26
444.91	121.71
445.10	159.16
445.28	140.43
445.47	105.32
445.65	140.43
445.84	131.07
446.02	67.88
446.21	81.92
446.39	100.64
446.58	107.66
446.77	107.66
446.95	74.90
447.14	107.66
447.32	149.79
447.51	194.26
447.69	112.35
447.88	102.98
448.06	138.09
448.25	102.98
448.43	100.64
448.62	119.37
448.80	163.84
448.99	156.82
449.17	126.39
449.36	161.50
449.54	128.73
449.73	102.98
449.91	154.48
450.10	128.73
450.28	173.20
450.46	156.82
450.65	189.58
450.83	42.13
451.02	180.22
451.20	140.43
451.39	210.65
451.57	112.35
451.76	177.88
451.94	156.82
452.13	147.45
452.31	152.13
452.49	156.82
452.68	119.37
452.86	210.65
453.05	177.88
453.23	140.43
453.42	77.24
453.60	161.50
453.78	189.58
453.97	86.60
454.15	154.48
454.34	102.98
454.52	182.56
454.70	135.75
454.89	184.90
455.07	65.54
455.26	147.45
455.44	128.73
455.62	142.77
455.81	105.32
455.99	145.11
456.17	147.45
456.36	100.64
456.54	88.94
456.73	86.60
456.91	112.35
457.09	163.84
457.28	173.20
457.46	105.32
457.64	196.60
457.83	147.45
458.01	124.05
458.19	119.37
458.38	114.69
458.56	51.49
458.74	67.88
458.93	131.07
459.11	126.39
459.29	93.62
459.48	173.20
459.66	175.54
459.84	138.09
460.03	215.33
460.21	163.84
460.39	182.56
460.57	145.11
460.76	201.29
460.94	147.45
461.12	191.92
461.31	159.16
461.49	194.26
461.67	81.92
461.85	84.26
462.04	114.69
462.22	538.32
462.40	208.31
462.59	187.24
462.77	105.32
462.95	187.24
463.13	119.37
463.32	107.66
463.50	95.96
463.68	142.77
463.86	126.39
464.05	140.43
464.23	121.71
464.41	126.39
464.59	147.45
464.78	145.11
464.96	67.88
465.14	128.73
465.32	46.81
465.50	205.97
465.69	187.24
465.87	105.32
466.05	142.77
466.23	72.56
466.41	133.41
466.60	142.77
466.78	70.22
466.96	168.52
467.14	159.16
467.32	126.39
467.51	114.69
467.69	166.18
467.87	189.58
468.05	72.56
468.23	166.18
468.41	182.56
468.60	168.52
468.78	184.90
468.96	170.86
469.14	140.43
469.32	79.58
469.50	88.94
469.69	180.22
469.87	215.33
470.05	142.77
470.23	114.69
470.41	91.28
470.59	133.41
470.77	98.30
470.95	110.01
471.14	161.50
471.32	126.39
471.50	117.03
471.68	189.58
471.86	56.17
472.04	149.79
472.22	147.45
472.40	105.32
472.58	56.17
472.77	217.67
472.95	187.24
473.13	217.67
473.31	138.09
473.49	156.82
473.67	177.88
473.85	259.80
474.03	203.63
474.21	138.09
474.39	217.67
474.57	189.58
474.75	189.58
474.93	154.48
475.12	145.11
475.30	119.37
475.48	159.16
475.66	152.13
475.84	121.71
476.02	154.48
476.20	128.73
476.38	119.37
476.56	177.88
476.74	138.09
476.92	142.77
477.10	119.37
477.28	107.66
477.46	117.03
477.64	198.95
477.82	166.18
478.00	128.73
478.18	140.43
478.36	91.28
478.54	152.13
478.72	117.03
478.90	182.56
479.08	184.90
479.26	191.92
479.44	168.52
479.62	128.73
479.80	159.16
479.98	159.16
480.16	135.75
480.34	189.58
480.52	124.05
480.70	168.52
480.88	198.95
481.06	88.94
481.24	95.96
481.41	135.75
481.59	191.92
481.77	140.43
481.95	135.75
482.13	180.22
482.31	140.43
482.49	114.69
482.67	173.20
482.85	140.43
483.03	203.63
483.21	93.62
483.39	201.29
483.57	140.43
483.74	159.16
483.92	133.41
484.10	107.66
484.28	170.86
484.46	217.67
484.64	147.45
484.82	117.03
485.00	177.88
485.18	205.97
485.35	187.24
485.53	156.82
485.71	159.16
485.89	114.69
486.07	198.95
486.25	234.05
486.43	163.84
486.61	145.11
486.78	189.58
486.96	128.73
487.14	145.11
487.32	140.43
487.50	173.20
487.68	152.13
487.85	133.41
488.03	161.50
488.21	173.20
488.39	208.31
488.57	215.33
488.75	156.82
488.92	465.77
489.10	224.69
489.28	147.45
489.46	170.86
489.64	196.60
489.81	180.22
489.99	161.50
490.17	198.95
490.35	257.46
490.53	187.24
490.70	145.11
490.88	278.52
491.06	201.29
491.24	189.58
491.41	196.60
491.59	149.79
491.77	114.69
491.95	131.07
492.13	147.45
492.30	159.16
492.48	145.11
492.66	138.09
492.84	81.92
493.01	147.45
493.19	163.84
493.37	203.63
493.54	163.84
493.72	170.86
493.90	187.24
494.08	166.18
494.25	217.67
494.43	236.39
494.61	243.42
494.79	238.73
494.96	175.54
495.14	224.69
495.32	170.86
495.49	269.16
495.67	81.92
495.85	224.69
496.02	168.52
496.20	245.76
496.38	252.78
496.55	191.92
496.73	198.95
496.91	198.95
497.09	182.56
497.26	238.73
497.44	180.22
497.62	184.90
497.79	194.26
497.97	189.58
498.14	222.35
498.32	163.84
498.50	273.84
498.67	184.90
498.85	156.82
499.03	124.05
499.20	166.18
499.38	241.08
499.56	187.24
499.73	231.71
499.91	191.92
500.08	187.24
500.26	154.48
500.44	159.16
500.61	191.92
500.79	187.24
500.97	147.45
501.14	194.26
501.32	203.63
501.49	201.29
501.67	166.18
501.84	168.52
502.02	227.03
502.20	168.52
502.37	257.46
502.55	180.22
502.72	159.16
502.90	191.92
503.07	126.39
503.25	196.60
503.43	163.84
503.60	259.80
503.78	238.73
503.95	194.26
504.13	152.13
504.30	201.29
504.48	86.60
504.65	212.99
504.83	173.20
505.01	271.50
505.18	133.41
505.36	112.35
505.53	236.39
505.71	191.92
505.88	175.54
506.06	138.09
506.23	147.45
506.41	147.45
506.58	166.18
506.76	194.26
506.93	227.03
507.11	245.76
507.28	217.67
507.46	259.80
507.63	250.44
507.81	187.24
507.98	154.48
508.16	245.76
508.33	205.97
508.50	227.03
508.68	229.37
508.85	271.50
509.03	217.67
509.20	224.69
509.38	187.24
509.55	234.05
509.73	131.07
509.90	201.29
510.08	140.43
510.25	222.35
510.42	166.18
510.60	194.26
510.77	208.31
510.95	182.56
511.12	191.92
511.30	163.84
511.47	210.65
511.64	208.31
511.82	196.60
511.99	196.60
512.17	189.58
512.34	173.20
512.51	184.90
512.69	140.43
512.86	212.99
513.04	175.54
513.21	210.65
513.38	166.18
513.56	224.69
513.73	180.22
513.90	189.58
514.08	212.99
514.25	168.52
514.43	201.29
514.60	173.20
514.77	241.08
514.95	203.63
515.12	152.13
515.29	245.76
515.47	231.71
515.64	135.75
515.81	215.33
515.99	203.63
516.16	189.58
516.33	234.05
516.51	205.97
516.68	173.20
516.85	159.16
517.03	147.45
517.20	245.76
517.37	194.26
517.54	257.46
517.72	107.66
517.89	215.33
518.06	168.52
518.24	264.48
518.41	231.71
518.58	236.39
518.75	222.35
518.93	304.27
519.10	238.73
519.27	196.60
519.45	238.73
519.62	170.86
519.79	135.75
519.96	212.99
520.14	173.20
520.31	245.76
520.48	220.01
520.65	187.24
520.83	177.88
521.00	236.39
521.17	304.27
521.34	142.77
521.52	212.99
521.69	187.24
521.86	208.31
522.03	163.84
522.20	278.52
522.38	252.78
522.55	201.29
522.72	210.65
522.89	222.35
523.07	304.27
523.24	159.16
523.41	215.33
523.58	227.03
523.75	210.65
523.92	245.76
524.10	198.95
524.27	236.39
524.44	203.63
524.61	238.73
524.78	241.08
524.96	194.26
525.13	168.52
525.30	346.40
525.47	271.50
525.64	180.22
525.81	217.67
525.98	259.80
526.16	227.03
526.33	161.50
526.50	163.84
526.67	212.99
526.84	212.99
527.01	170.86
527.18	140.43
527.36	220.01
527.53	161.50
527.70	297.25
527.87	189.58
528.04	217.67
528.21	198.95
528.38	175.54
528.55	301.93
528.72	234.05
528.89	229.37
529.07	180.22
529.24	208.31
529.41	217.67
529.58	257.46
529.75	215.33
529.92	163.84
530.09	124.05
530.26	177.88
530.43	252.78
530.60	266.82
530.77	224.69
530.94	241.08
531.11	304.27
531.28	273.84
531.46	156.82
531.63	220.01
531.80	215.33
531.97	250.44
532.14	198.95
532.31	220.01
532.48	257.46
532.65	315.97
532.82	395.55
532.99	337.04
533.16	327.68
533.33	248.10
533.50	234.05
533.67	248.10
533.84	374.49
534.01	351.08
534.18	308.95
534.35	322.99
534.52	393.21
534.69	299.59
534.86	224.69
535.03	180.22
535.20	198.95
535.37	283.20
535.54	154.48
535.71	208.31
535.88	177.88
536.05	180.22
536.22	210.65
536.38	276.18
536.55	194.26
536.72	191.92
536.89	168.52
537.06	224.69
537.23	273.84
537.40	191.92
537.57	205.97
537.74	250.44
537.91	243.42
538.08	241.08
538.25	257.46
538.42	173.20
538.59	311.29
538.75	198.95
538.92	276.18
539.09	224.69
539.26	273.84
539.43	468.11
539.60	940.90
539.77	1547.09
539.94	1500.28
540.11	966.64
540.28	580.45
540.44	411.93
540.61	252.78
540.78	220.01
540.95	159.16
541.12	248.10
541.29	191.92
541.46	133.41
541.62	189.58
541.79	159.16
541.96	191.92
542.13	184.90
542.30	208.31
542.47	208.31
542.63	177.88
542.80	259.80
542.97	259.80
543.14	215.33
543.31	248.10
543.48	156.82
543.64	231.71
543.81	278.52
543.98	241.08
544.15	191.92
544.32	114.69
544.48	203.63
544.65	212.99
544.82	191.92
544.99	152.13
545.16	212.99
545.32	119.37
545.49	198.95
545.66	198.95
545.83	205.97
546.00	245.76
546.16	182.56
546.33	180.22
546.50	212.99
546.67	252.78
546.83	163.84
547.00	245.76
547.17	159.16
547.34	177.88
547.50	234.05
547.67	201.29
547.84	220.01
548.00	220.01
548.17	201.29
548.34	156.82
548.51	203.63
548.67	184.90
548.84	198.95
549.01	208.31
549.18	175.54
549.34	222.35
549.51	257.46
549.68	177.88
549.84	215.33
550.01	184.90
550.18	315.97
550.34	301.93
550.51	276.18
550.68	205.97
550.84	184.90
551.01	224.69
551.18	203.63
551.34	222.35
551.51	269.16
551.68	194.26
551.84	222.35
552.01	168.52
552.18	220.01
552.34	189.58
552.51	252.78
552.68	201.29
552.84	156.82
553.01	189.58
553.18	215.33
553.34	187.24
553.51	245.76
553.67	339.38
553.84	264.48
554.01	273.84
554.17	203.63
554.34	163.84
554.51	140.43
554.67	224.69
554.84	187.24
555.00	203.63
555.17	234.05
555.33	187.24
555.50	159.16
555.67	250.44
555.83	189.58
556.00	248.10
556.16	400.23
556.33	297.25
556.50	220.01
556.66	243.42
556.83	161.50
556.99	117.03
557.16	229.37
557.32	93.62
557.49	161.50
557.65	175.54
557.82	168.52
557.98	201.29
558.15	170.86
558.32	161.50
558.48	149.79
558.65	198.95
558.81	184.90
558.98	154.48
559.14	215.33
559.31	229.37
559.47	203.63
559.64	201.29
559.80	163.84
559.97	215.33
560.13	238.73
560.30	203.63
560.46	227.03
560.63	208.31
560.79	255.12
560.96	236.39
561.12	159.16
561.29	173.20
561.45	152.13
561.61	257.46
561.78	283.20
561.94	154.48
562.11	194.26
562.27	189.58
562.44	175.54
562.60	252.78
562.77	180.22
562.93	191.92
563.10	220.01
563.26	168.52
563.42	152.13
563.59	191.92
563.75	203.63
563.92	227.03
564.08	191.92
564.24	238.73
564.41	198.95
564.57	224.69
564.74	182.56
564.90	220.01
565.07	348.74
565.23	304.27
565.39	257.46
565.56	196.60
565.72	217.67
565.88	271.50
566.05	238.73
566.21	187.24
566.38	229.37
566.54	262.14
566.70	182.56
566.87	217.67
567.03	201.29
567.19	238.73
567.36	194.26
567.52	227.03
567.68	241.08
567.85	161.50
568.01	238.73
568.17	163.84
568.34	229.37
568.50	210.65
568.66	177.88
568.83	290.23
568.99	292.57
569.15	203.63
569.32	236.39
569.48	166.18
569.64	220.01
569.81	124.05
569.97	128.73
570.13	126.39
570.30	156.82
570.46	210.65
570.62	210.65
570.78	217.67
570.95	180.22
571.11	212.99
571.27	149.79
571.43	117.03
571.60	196.60
571.76	210.65
571.92	212.99
572.09	170.86
572.25	198.95
572.41	152.13
572.57	257.46
572.74	224.69
572.90	173.20
573.06	243.42
573.22	154.48
573.38	175.54
573.55	205.97
573.71	217.67
573.87	234.05
574.03	224.69
574.20	201.29
574.36	264.48
574.52	365.12
574.68	259.80
574.84	285.55
575.01	245.76
575.17	278.52
575.33	255.12
575.49	252.78
575.65	238.73
575.82	285.55
575.98	484.49
576.14	627.26
576.30	629.60
576.46	526.62
576.62	435.34
576.79	358.10
576.95	315.97
577.11	212.99
577.27	154.48
577.43	255.12
577.59	259.80
577.75	196.60
577.92	250.44
578.08	208.31
578.24	236.39
578.40	315.97
578.56	283.20
578.72	250.44
578.88	276.18
579.04	262.14
579.21	320.65
579.37	241.08
579.53	236.39
579.69	227.03
579.85	290.23
580.01	285.55
580.17	409.59
580.33	416.62
580.49	334.70
580.65	287.89
580.82	304.27
580.98	332.36
581.14	285.55
581.30	292.57
581.46	376.83
581.62	514.92
581.78	561.73
581.94	533.64
582.10	444.70
582.26	379.17
582.42	430.66
582.58	276.18
582.74	442.36
582.90	365.12
583.06	367.46
583.22	433.00
583.38	395.55
583.54	479.81
583.70	601.52
583.86	622.58
584.02	690.46
584.18	887.06
584.34	1151.54
584.50	3162.06
584.66	23637.07
584.82	55414.52
584.98	65148.81
585.14	62241.87
585.30	47414.57
585.46	28898.59
585.62	17949.57
585.78	8081.87
585.94	3206.53
586.10	1598.59
586.26	966.64
586.42	915.15
586.58	627.26
586.74	603.86
586.90	603.86
587.06	578.11
587.22	482.15
587.38	484.49
587.54	1177.29
587.70	3346.97
587.86	5692.18
588.02	6209.44
588.18	4554.68
588.34	2792.26
588.49	1790.51
588.65	1217.08
588.81	613.22
588.97	330.02
589.13	334.70
589.29	276.18
589.45	283.20
589.61	276.18
589.77	409.59
589.93	393.21
590.08	468.11
590.24	442.36
590.40	322.99
590.56	400.23
590.72	276.18
590.88	346.40
591.04	276.18
591.20	278.52
591.35	374.49
591.51	245.76
591.67	294.91
591.83	280.86
591.99	229.37
592.15	252.78
592.31	208.31
592.46	294.91
592.62	210.65
592.78	259.80
592.94	236.39
593.10	299.59
593.26	292.57
593.41	290.23
593.57	313.63
593.73	517.26
593.89	2775.88
594.05	7339.92
594.20	10724.33
594.36	10223.46
594.52	6715.00
594.68	4304.25
594.84	2782.90
594.99	1617.31
595.15	732.59
595.31	451.72
595.47	358.10
595.62	301.93
595.78	320.65
595.94	266.82
596.10	348.74
596.25	299.59
596.41	266.82
596.57	273.84
596.73	311.29
596.88	512.58
597.04	1310.70
597.20	2319.47
597.36	2558.21
597.51	2043.29
597.67	1376.24
597.83	997.07
597.99	638.97
598.14	383.85
598.30	388.53
598.46	367.46
598.61	311.29
598.77	229.37
598.93	255.12
599.09	304.27
599.24	231.71
599.40	257.46
599.56	301.93
599.71	210.65
599.87	198.95
600.03	245.76
600.18	189.58
600.34	166.18
600.50	168.52
600.65	217.67
600.81	241.08
600.97	187.24
601.12	229.37
601.28	208.31
601.44	159.16
601.59	227.03
601.75	217.67
601.91	238.73
602.06	264.48
602.22	297.25
602.37	746.63
602.53	1785.83
602.69	2679.91
602.84	2778.22
603.00	1980.09
603.16	1453.47
603.31	959.62
603.47	624.92
603.62	447.04
603.78	198.95
603.94	250.44
604.09	262.14
604.25	278.52
604.40	283.20
604.56	269.16
604.71	264.48
604.87	182.56
605.03	283.20
605.18	210.65
605.34	313.63
605.49	294.91
605.65	252.78
605.80	227.03
605.96	287.89
606.12	243.42
606.27	259.80
606.43	362.78
606.58	367.46
606.74	814.51
606.89	3433.57
607.05	6733.72
607.20	9118.73
607.36	7623.12
607.51	5027.47
607.67	3201.85
607.82	2218.83
607.98	1289.64
608.13	676.41
608.29	489.17
608.44	334.70
608.60	369.80
608.75	458.74
608.91	1025.15
609.06	5439.40
609.22	11662.89
609.37	16285.45
609.53	13970.66
609.68	9284.91
609.84	5980.07
609.99	3990.61
610.15	2136.91
610.30	938.55
610.46	578.11
610.61	400.23
610.76	362.78
610.92	297.25
611.07	320.65
611.23	313.63
611.38	290.23
611.54	269.16
611.69	248.10
611.84	322.99
