SpectraSuite Data File
++++++++++++++++++++++++++++++++++++
Date: Fri Oct 04 11:47:05 GMT-05:00 2013
User: price-jones
Dark Spectrum Present: No
Reference Spectrum Present: No
Number of Sampled Component Spectra: 1
Spectrometers: USB2+H05261
Integration Time (usec): 100000 (USB2+H05261)
Spectra Averaged: 1 (USB2+H05261)
Boxcar Smoothing: 0 (USB2+H05261)
Correct for Electrical Dark: No (USB2+H05261)
Strobe/Lamp Enabled: No (USB2+H05261)
Correct for Detector Non-linearity: No (USB2+H05261)
Correct for Stray Light: No (USB2+H05261)
Number of Pixels in Processed Spectrum: 2048
>>>>>Begin Processed Spectral Data<<<<<
365.73	56.17
365.92	56.17
366.12	56.17
366.32	0.00
366.52	0.00
366.72	14.04
366.91	0.00
367.11	0.00
367.31	0.00
367.51	0.00
367.70	0.00
367.90	0.00
368.10	0.00
368.30	0.00
368.49	0.00
368.69	0.00
368.89	0.00
369.09	0.00
369.28	0.00
369.48	0.00
369.68	0.00
369.87	0.00
370.07	0.00
370.27	35.11
370.47	28.09
370.66	0.00
370.86	11.70
371.06	100.64
371.25	131.07
371.45	2.34
371.65	46.81
371.84	14.04
372.04	135.75
372.24	21.06
372.44	74.90
372.63	79.58
372.83	142.77
373.03	63.19
373.22	14.04
373.42	135.75
373.62	46.81
373.81	128.73
374.01	93.62
374.21	145.11
374.40	72.56
374.60	140.43
374.79	98.30
374.99	56.17
375.19	128.73
375.38	63.19
375.58	159.16
375.78	91.28
375.97	93.62
376.17	205.97
376.37	95.96
376.56	58.51
376.76	35.11
376.95	86.60
377.15	135.75
377.35	100.64
377.54	56.17
377.74	91.28
377.93	117.03
378.13	161.50
378.33	147.45
378.52	65.54
378.72	133.41
378.91	79.58
379.11	21.06
379.31	60.85
379.50	79.58
379.70	88.94
379.89	117.03
380.09	72.56
380.28	93.62
380.48	156.82
380.68	30.43
380.87	119.37
381.07	58.51
381.26	86.60
381.46	65.54
381.65	173.20
381.85	63.19
382.04	56.17
382.24	114.69
382.43	32.77
382.63	88.94
382.83	100.64
383.02	67.88
383.22	107.66
383.41	86.60
383.61	100.64
383.80	145.11
384.00	112.35
384.19	42.13
384.39	93.62
384.58	114.69
384.78	112.35
384.97	95.96
385.17	182.56
385.36	138.09
385.56	60.85
385.75	159.16
385.95	95.96
386.14	126.39
386.34	133.41
386.53	56.17
386.72	105.32
386.92	128.73
387.11	112.35
387.31	126.39
387.50	119.37
387.70	28.09
387.89	81.92
388.09	72.56
388.28	30.43
388.48	145.11
388.67	74.90
388.86	49.15
389.06	107.66
389.25	107.66
389.45	74.90
389.64	79.58
389.84	126.39
390.03	95.96
390.22	170.86
390.42	91.28
390.61	74.90
390.81	105.32
391.00	114.69
391.19	131.07
391.39	74.90
391.58	77.24
391.78	88.94
391.97	126.39
392.16	98.30
392.36	100.64
392.55	124.05
392.75	93.62
392.94	98.30
393.13	95.96
393.33	91.28
393.52	100.64
393.71	67.88
393.91	72.56
394.10	93.62
394.29	140.43
394.49	98.30
394.68	156.82
394.88	184.90
395.07	112.35
395.26	95.96
395.46	147.45
395.65	152.13
395.84	117.03
396.04	168.52
396.23	163.84
396.42	58.51
396.62	39.79
396.81	81.92
397.00	91.28
397.19	112.35
397.39	81.92
397.58	124.05
397.77	79.58
397.97	79.58
398.16	100.64
398.35	107.66
398.55	145.11
398.74	98.30
398.93	84.26
399.12	84.26
399.32	107.66
399.51	107.66
399.70	107.66
399.90	133.41
400.09	88.94
400.28	140.43
400.47	135.75
400.67	140.43
400.86	121.71
401.05	145.11
401.24	117.03
401.44	149.79
401.63	102.98
401.82	152.13
402.01	135.75
402.21	114.69
402.40	112.35
402.59	44.47
402.78	81.92
402.97	63.19
403.17	126.39
403.36	140.43
403.55	74.90
403.74	110.01
403.93	126.39
404.13	133.41
404.32	51.49
404.51	128.73
404.70	175.54
404.89	16.38
405.09	154.48
405.28	70.22
405.47	191.92
405.66	121.71
405.85	112.35
406.05	133.41
406.24	58.51
406.43	110.01
406.62	131.07
406.81	131.07
407.00	110.01
407.20	93.62
407.39	149.79
407.58	53.83
407.77	65.54
407.96	210.65
408.15	77.24
408.34	79.58
408.54	105.32
408.73	131.07
408.92	84.26
409.11	114.69
409.30	107.66
409.49	100.64
409.68	79.58
409.87	135.75
410.07	65.54
410.26	147.45
410.45	128.73
410.64	88.94
410.83	81.92
411.02	88.94
411.21	128.73
411.40	74.90
411.59	72.56
411.78	124.05
411.98	117.03
412.17	79.58
412.36	102.98
412.55	128.73
412.74	159.16
412.93	182.56
413.12	107.66
413.31	121.71
413.50	128.73
413.69	145.11
413.88	163.84
414.07	156.82
414.26	126.39
414.45	72.56
414.64	117.03
414.83	149.79
415.02	72.56
415.22	154.48
415.41	196.60
415.60	114.69
415.79	163.84
415.98	152.13
416.17	110.01
416.36	102.98
416.55	114.69
416.74	180.22
416.93	189.58
417.12	107.66
417.31	163.84
417.50	154.48
417.69	205.97
417.88	163.84
418.07	135.75
418.26	112.35
418.45	91.28
418.64	203.63
418.83	170.86
419.02	238.73
419.21	159.16
419.39	135.75
419.58	77.24
419.77	128.73
419.96	175.54
420.15	28.09
420.34	191.92
420.53	72.56
420.72	168.52
420.91	88.94
421.10	133.41
421.29	128.73
421.48	201.29
421.67	98.30
421.86	56.17
422.05	163.84
422.24	81.92
422.43	215.33
422.61	91.28
422.80	93.62
422.99	163.84
423.18	119.37
423.37	147.45
423.56	105.32
423.75	72.56
423.94	56.17
424.13	53.83
424.32	135.75
424.50	65.54
424.69	102.98
424.88	187.24
425.07	124.05
425.26	102.98
425.45	140.43
425.64	205.97
425.83	201.29
426.01	175.54
426.20	112.35
426.39	110.01
426.58	110.01
426.77	105.32
426.96	114.69
427.15	58.51
427.33	128.73
427.52	95.96
427.71	173.20
427.90	149.79
428.09	166.18
428.28	77.24
428.46	135.75
428.65	112.35
428.84	117.03
429.03	133.41
429.22	84.26
429.40	102.98
429.59	93.62
429.78	194.26
429.97	159.16
430.16	58.51
430.34	131.07
430.53	100.64
430.72	187.24
430.91	168.52
431.10	84.26
431.28	124.05
431.47	105.32
431.66	138.09
431.85	95.96
432.03	102.98
432.22	156.82
432.41	65.54
432.60	156.82
432.79	124.05
432.97	241.08
433.16	175.54
433.35	156.82
433.54	149.79
433.72	147.45
433.91	168.52
434.10	121.71
434.28	147.45
434.47	145.11
434.66	147.45
434.85	133.41
435.03	102.98
435.22	147.45
435.41	161.50
435.59	135.75
435.78	124.05
435.97	124.05
436.16	154.48
436.34	156.82
436.53	133.41
436.72	102.98
436.90	147.45
437.09	140.43
437.28	98.30
437.46	114.69
437.65	234.05
437.84	65.54
438.02	102.98
438.21	110.01
438.40	175.54
438.58	95.96
438.77	191.92
438.96	88.94
439.14	119.37
439.33	131.07
439.52	166.18
439.70	107.66
439.89	81.92
440.08	124.05
440.26	126.39
440.45	117.03
440.63	182.56
440.82	81.92
441.01	149.79
441.19	201.29
441.38	177.88
441.57	77.24
441.75	72.56
441.94	163.84
442.12	110.01
442.31	121.71
442.50	126.39
442.68	88.94
442.87	168.52
443.05	166.18
443.24	142.77
443.43	102.98
443.61	168.52
443.80	56.17
443.98	37.45
444.17	79.58
444.35	131.07
444.54	100.64
444.73	133.41
444.91	140.43
445.10	161.50
445.28	163.84
445.47	30.43
445.65	72.56
445.84	102.98
446.02	112.35
446.21	93.62
446.39	95.96
446.58	217.67
446.77	124.05
446.95	138.09
447.14	173.20
447.32	93.62
447.51	131.07
447.69	161.50
447.88	133.41
448.06	182.56
448.25	112.35
448.43	88.94
448.62	84.26
448.80	72.56
448.99	98.30
449.17	126.39
449.36	95.96
449.54	121.71
449.73	88.94
449.91	145.11
450.10	119.37
450.28	189.58
450.46	194.26
450.65	112.35
450.83	102.98
451.02	198.95
451.20	124.05
451.39	84.26
451.57	210.65
451.76	105.32
451.94	114.69
452.13	184.90
452.31	81.92
452.49	138.09
452.68	163.84
452.86	131.07
453.05	210.65
453.23	84.26
453.42	149.79
453.60	105.32
453.78	170.86
453.97	149.79
454.15	72.56
454.34	161.50
454.52	147.45
454.70	154.48
454.89	35.11
455.07	112.35
455.26	117.03
455.44	142.77
455.62	140.43
455.81	163.84
455.99	198.95
456.17	229.37
456.36	154.48
456.54	149.79
456.73	117.03
456.91	133.41
457.09	198.95
457.28	159.16
457.46	102.98
457.64	177.88
457.83	182.56
458.01	201.29
458.19	124.05
458.38	198.95
458.56	81.92
458.74	149.79
458.93	177.88
459.11	170.86
459.29	117.03
459.48	117.03
459.66	177.88
459.84	95.96
460.03	234.05
460.21	102.98
460.39	128.73
460.57	149.79
460.76	140.43
460.94	145.11
461.12	217.67
461.31	163.84
461.49	142.77
461.67	166.18
461.85	142.77
462.04	107.66
462.22	596.84
462.40	133.41
462.59	133.41
462.77	194.26
462.95	163.84
463.13	182.56
463.32	149.79
463.50	152.13
463.68	196.60
463.86	170.86
464.05	203.63
464.23	107.66
464.41	170.86
464.59	145.11
464.78	112.35
464.96	128.73
465.14	147.45
465.32	154.48
465.50	138.09
465.69	126.39
465.87	140.43
466.05	63.19
466.23	70.22
466.41	189.58
466.60	154.48
466.78	145.11
466.96	159.16
467.14	124.05
467.32	194.26
467.51	156.82
467.69	112.35
467.87	112.35
468.05	133.41
468.23	159.16
468.41	184.90
468.60	140.43
468.78	168.52
468.96	81.92
469.14	187.24
469.32	117.03
469.50	121.71
469.69	112.35
469.87	194.26
470.05	161.50
470.23	194.26
470.41	124.05
470.59	149.79
470.77	208.31
470.95	140.43
471.14	205.97
471.32	102.98
471.50	229.37
471.68	198.95
471.86	117.03
472.04	142.77
472.22	191.92
472.40	77.24
472.58	149.79
472.77	154.48
472.95	163.84
473.13	203.63
473.31	201.29
473.49	145.11
473.67	91.28
473.85	140.43
474.03	161.50
474.21	161.50
474.39	201.29
474.57	210.65
474.75	135.75
474.93	128.73
475.12	105.32
475.30	117.03
475.48	205.97
475.66	210.65
475.84	114.69
476.02	126.39
476.20	121.71
476.38	140.43
476.56	177.88
476.74	140.43
476.92	105.32
477.10	194.26
477.28	135.75
477.46	126.39
477.64	142.77
477.82	168.52
478.00	187.24
478.18	156.82
478.36	154.48
478.54	156.82
478.72	163.84
478.90	140.43
479.08	194.26
479.26	156.82
479.44	182.56
479.62	100.64
479.80	152.13
479.98	140.43
480.16	196.60
480.34	117.03
480.52	102.98
480.70	138.09
480.88	51.49
481.06	140.43
481.24	142.77
481.41	110.01
481.59	161.50
481.77	187.24
481.95	133.41
482.13	269.16
482.31	117.03
482.49	128.73
482.67	177.88
482.85	128.73
483.03	180.22
483.21	105.32
483.39	173.20
483.57	182.56
483.74	205.97
483.92	184.90
484.10	154.48
484.28	180.22
484.46	161.50
484.64	105.32
484.82	93.62
485.00	140.43
485.18	145.11
485.35	180.22
485.53	107.66
485.71	159.16
485.89	156.82
486.07	187.24
486.25	212.99
486.43	121.71
486.61	166.18
486.78	182.56
486.96	159.16
487.14	154.48
487.32	147.45
487.50	135.75
487.68	138.09
487.85	161.50
488.03	147.45
488.21	140.43
488.39	208.31
488.57	220.01
488.75	142.77
488.92	500.87
489.10	201.29
489.28	212.99
489.46	161.50
489.64	175.54
489.81	170.86
489.99	189.58
490.17	161.50
490.35	259.80
490.53	201.29
490.70	112.35
490.88	189.58
491.06	175.54
491.24	205.97
491.41	152.13
491.59	145.11
491.77	133.41
491.95	201.29
492.13	121.71
492.30	147.45
492.48	184.90
492.66	187.24
492.84	124.05
493.01	156.82
493.19	215.33
493.37	224.69
493.54	142.77
493.72	191.92
493.90	177.88
494.08	196.60
494.25	163.84
494.43	154.48
494.61	154.48
494.79	224.69
494.96	168.52
495.14	222.35
495.32	133.41
495.49	208.31
495.67	147.45
495.85	210.65
496.02	152.13
496.20	191.92
496.38	250.44
496.55	175.54
496.73	182.56
496.91	198.95
497.09	250.44
497.26	147.45
497.44	201.29
497.62	149.79
497.79	112.35
497.97	208.31
498.14	187.24
498.32	212.99
498.50	208.31
498.67	198.95
498.85	234.05
499.03	124.05
499.20	149.79
499.38	166.18
499.56	187.24
499.73	177.88
499.91	166.18
500.08	292.57
500.26	217.67
500.44	229.37
500.61	215.33
500.79	196.60
500.97	145.11
501.14	224.69
501.32	205.97
501.49	170.86
501.67	227.03
501.84	208.31
502.02	131.07
502.20	173.20
502.37	182.56
502.55	187.24
502.72	266.82
502.90	273.84
503.07	201.29
503.25	220.01
503.43	147.45
503.60	292.57
503.78	212.99
503.95	191.92
504.13	152.13
504.30	196.60
504.48	177.88
504.65	215.33
504.83	163.84
505.01	215.33
505.18	187.24
505.36	182.56
505.53	177.88
505.71	189.58
505.88	117.03
506.06	217.67
506.23	133.41
506.41	112.35
506.58	173.20
506.76	205.97
506.93	227.03
507.11	243.42
507.28	175.54
507.46	142.77
507.63	201.29
507.81	248.10
507.98	257.46
508.16	175.54
508.33	276.18
508.50	189.58
508.68	152.13
508.85	189.58
509.03	145.11
509.20	147.45
509.38	198.95
509.55	238.73
509.73	266.82
509.90	161.50
510.08	222.35
510.25	229.37
510.42	208.31
510.60	142.77
510.77	196.60
510.95	194.26
511.12	194.26
511.30	311.29
511.47	283.20
511.64	266.82
511.82	182.56
511.99	154.48
512.17	189.58
512.34	154.48
512.51	189.58
512.69	168.52
512.86	259.80
513.04	133.41
513.21	194.26
513.38	177.88
513.56	168.52
513.73	149.79
513.90	220.01
514.08	173.20
514.25	269.16
514.43	187.24
514.60	224.69
514.77	187.24
514.95	290.23
515.12	220.01
515.29	147.45
515.47	201.29
515.64	257.46
515.81	217.67
515.99	210.65
516.16	142.77
516.33	252.78
516.51	142.77
516.68	161.50
516.85	166.18
517.03	128.73
517.20	215.33
517.37	117.03
517.54	222.35
517.72	152.13
517.89	175.54
518.06	259.80
518.24	215.33
518.41	285.55
518.58	238.73
518.75	194.26
518.93	217.67
519.10	241.08
519.27	100.64
519.45	201.29
519.62	173.20
519.79	189.58
519.96	184.90
520.14	255.12
520.31	243.42
520.48	168.52
520.65	159.16
520.83	191.92
521.00	259.80
521.17	187.24
521.34	138.09
521.52	248.10
521.69	189.58
521.86	170.86
522.03	191.92
522.20	299.59
522.38	278.52
522.55	210.65
522.72	161.50
522.89	222.35
523.07	334.70
523.24	198.95
523.41	198.95
523.58	170.86
523.75	224.69
523.92	194.26
524.10	154.48
524.27	208.31
524.44	156.82
524.61	243.42
524.78	159.16
524.96	234.05
525.13	208.31
525.30	234.05
525.47	191.92
525.64	227.03
525.81	203.63
525.98	210.65
526.16	285.55
526.33	292.57
526.50	243.42
526.67	238.73
526.84	196.60
527.01	175.54
527.18	173.20
527.36	149.79
527.53	184.90
527.70	285.55
527.87	299.59
528.04	259.80
528.21	220.01
528.38	210.65
528.55	255.12
528.72	227.03
528.89	168.52
529.07	210.65
529.24	203.63
529.41	243.42
529.58	187.24
529.75	177.88
529.92	243.42
530.09	159.16
530.26	217.67
530.43	187.24
530.60	203.63
530.77	159.16
530.94	222.35
531.11	194.26
531.28	184.90
531.46	135.75
531.63	203.63
531.80	154.48
531.97	222.35
532.14	229.37
532.31	224.69
532.48	229.37
532.65	348.74
532.82	299.59
532.99	280.86
533.16	245.76
533.33	301.93
533.50	297.25
533.67	273.84
533.84	395.55
534.01	334.70
534.18	255.12
534.35	238.73
534.52	205.97
534.69	175.54
534.86	266.82
535.03	245.76
535.20	187.24
535.37	196.60
535.54	231.71
535.71	245.76
535.88	187.24
536.05	210.65
536.22	131.07
536.38	175.54
536.55	191.92
536.72	210.65
536.89	182.56
537.06	241.08
537.23	243.42
537.40	173.20
537.57	304.27
537.74	278.52
537.91	173.20
538.08	241.08
538.25	212.99
538.42	269.16
538.59	191.92
538.75	196.60
538.92	212.99
539.09	283.20
539.26	236.39
539.43	477.47
539.60	1022.81
539.77	1577.52
539.94	1390.28
540.11	968.98
540.28	648.33
540.44	397.89
540.61	297.25
540.78	234.05
540.95	280.86
541.12	250.44
541.29	208.31
541.46	273.84
541.62	227.03
541.79	241.08
541.96	248.10
542.13	161.50
542.30	252.78
542.47	147.45
542.63	217.67
542.80	189.58
542.97	205.97
543.14	238.73
543.31	271.50
543.48	149.79
543.64	234.05
543.81	217.67
543.98	175.54
544.15	187.24
544.32	196.60
544.48	212.99
544.65	220.01
544.82	217.67
544.99	250.44
545.16	161.50
545.32	224.69
545.49	161.50
545.66	175.54
545.83	177.88
546.00	121.71
546.16	217.67
546.33	215.33
546.50	149.79
546.67	241.08
546.83	217.67
547.00	245.76
547.17	208.31
547.34	184.90
547.50	163.84
547.67	203.63
547.84	133.41
548.00	248.10
548.17	170.86
548.34	175.54
548.51	271.50
548.67	210.65
548.84	201.29
549.01	234.05
549.18	198.95
549.34	208.31
549.51	238.73
549.68	203.63
549.84	234.05
550.01	168.52
550.18	344.06
550.34	313.63
550.51	222.35
550.68	255.12
550.84	196.60
551.01	173.20
551.18	184.90
551.34	138.09
551.51	290.23
551.68	210.65
551.84	187.24
552.01	196.60
552.18	215.33
552.34	191.92
552.51	198.95
552.68	208.31
552.84	217.67
553.01	217.67
553.18	203.63
553.34	198.95
553.51	245.76
553.67	224.69
553.84	227.03
554.01	271.50
554.17	210.65
554.34	170.86
554.51	241.08
554.67	266.82
554.84	220.01
555.00	238.73
555.17	170.86
555.33	271.50
555.50	238.73
555.67	250.44
555.83	248.10
556.00	271.50
556.16	330.02
556.33	231.71
556.50	280.86
556.66	229.37
556.83	217.67
556.99	168.52
557.16	229.37
557.32	142.77
557.49	203.63
557.65	224.69
557.82	280.86
557.98	222.35
558.15	245.76
558.32	257.46
558.48	196.60
558.65	152.13
558.81	161.50
558.98	220.01
559.14	182.56
559.31	255.12
559.47	229.37
559.64	252.78
559.80	212.99
559.97	196.60
560.13	180.22
560.30	194.26
560.46	142.77
560.63	220.01
560.79	318.31
560.96	220.01
561.12	271.50
561.29	180.22
561.45	184.90
561.61	198.95
561.78	241.08
561.94	198.95
562.11	227.03
562.27	149.79
562.44	222.35
562.60	252.78
562.77	203.63
562.93	287.89
563.10	245.76
563.26	248.10
563.42	203.63
563.59	245.76
563.75	259.80
563.92	231.71
564.08	205.97
564.24	210.65
564.41	184.90
564.57	152.13
564.74	217.67
564.90	182.56
565.07	238.73
565.23	224.69
565.39	220.01
565.56	294.91
565.72	170.86
565.88	161.50
566.05	198.95
566.21	182.56
566.38	222.35
566.54	262.14
566.70	276.18
566.87	250.44
567.03	180.22
567.19	229.37
567.36	217.67
567.52	243.42
567.68	217.67
567.85	252.78
568.01	217.67
568.17	191.92
568.34	107.66
568.50	217.67
568.66	128.73
568.83	241.08
568.99	159.16
569.15	189.58
569.32	212.99
569.48	210.65
569.64	131.07
569.81	308.95
569.97	168.52
570.13	245.76
570.30	236.39
570.46	170.86
570.62	220.01
570.78	194.26
570.95	149.79
571.11	250.44
571.27	245.76
571.43	168.52
571.60	191.92
571.76	236.39
571.92	149.79
572.09	194.26
572.25	128.73
572.41	177.88
572.57	163.84
572.74	238.73
572.90	257.46
573.06	266.82
573.22	252.78
573.38	243.42
573.55	194.26
573.71	271.50
573.87	215.33
574.03	259.80
574.20	285.55
574.36	313.63
574.52	362.78
574.68	313.63
574.84	278.52
575.01	273.84
575.17	255.12
575.33	259.80
575.49	245.76
575.65	255.12
575.82	379.17
575.98	510.24
576.14	664.71
576.30	727.91
576.46	528.96
576.62	395.55
576.79	390.87
576.95	290.23
577.11	278.52
577.27	210.65
577.43	208.31
577.59	273.84
577.75	191.92
577.92	248.10
578.08	250.44
578.24	278.52
578.40	238.73
578.56	283.20
578.72	262.14
578.88	243.42
579.04	259.80
579.21	229.37
579.37	348.74
579.53	133.41
579.69	311.29
579.85	205.97
580.01	353.42
580.17	379.17
580.33	369.80
580.49	290.23
580.65	315.97
580.82	318.31
580.98	351.08
581.14	273.84
581.30	351.08
581.46	470.45
581.62	540.66
581.78	589.82
581.94	571.09
582.10	390.87
582.26	414.27
582.42	341.72
582.58	491.51
582.74	430.66
582.90	348.74
583.06	397.89
583.22	351.08
583.38	449.38
583.54	491.51
583.70	566.41
583.86	699.82
584.02	781.74
584.18	912.81
584.34	1174.95
584.50	3548.25
584.66	27262.56
584.82	58073.37
584.98	65535.00
585.14	62330.81
585.30	48095.67
585.46	29979.92
585.62	18022.12
585.78	8168.47
585.94	3215.90
586.10	1696.89
586.26	1050.90
586.42	844.93
586.58	692.80
586.74	596.84
586.90	587.47
587.06	617.90
587.22	489.17
587.38	519.60
587.54	1420.71
587.70	3845.50
587.86	5916.87
588.02	6244.55
588.18	4329.99
588.34	2960.78
588.49	1851.36
588.65	1043.88
588.81	498.53
588.97	393.21
589.13	332.36
589.29	292.57
589.45	290.23
589.61	285.55
589.77	390.87
589.93	393.21
590.08	411.93
590.24	407.25
590.40	376.83
590.56	381.51
590.72	330.02
590.88	320.65
591.04	278.52
591.20	325.33
591.35	301.93
591.51	348.74
591.67	229.37
591.83	210.65
591.99	276.18
592.15	308.95
592.31	276.18
592.46	283.20
592.62	266.82
592.78	220.01
592.94	222.35
593.10	252.78
593.26	215.33
593.41	287.89
593.57	334.70
593.73	582.79
593.89	3173.77
594.05	7908.67
594.20	11087.12
594.36	10232.82
594.52	6747.76
594.68	4297.22
594.84	2820.35
594.99	1519.01
595.15	746.63
595.31	416.62
595.47	360.44
595.62	243.42
595.78	273.84
595.94	252.78
596.10	414.27
596.25	241.08
596.41	348.74
596.57	271.50
596.73	299.59
596.88	566.41
597.04	1446.45
597.20	2385.01
597.36	2593.31
597.51	2043.29
597.67	1376.24
597.83	1001.75
597.99	732.59
598.14	379.17
598.30	330.02
598.46	262.14
598.61	367.46
598.77	308.95
598.93	227.03
599.09	271.50
599.24	241.08
599.40	269.16
599.56	208.31
599.71	205.97
599.87	215.33
600.03	161.50
600.18	217.67
600.34	248.10
600.50	201.29
600.65	177.88
600.81	262.14
600.97	203.63
601.12	215.33
601.28	252.78
601.44	215.33
601.59	208.31
601.75	236.39
601.91	147.45
602.06	285.55
602.22	355.76
602.37	763.01
602.53	1820.94
602.69	2729.06
602.84	2658.85
603.00	1959.03
603.16	1394.96
603.31	1039.20
603.47	613.22
603.62	433.00
603.78	301.93
603.94	315.97
604.09	215.33
604.25	212.99
604.40	234.05
604.56	285.55
604.71	266.82
604.87	149.79
605.03	222.35
605.18	180.22
605.34	266.82
605.49	252.78
605.65	259.80
605.80	278.52
605.96	269.16
606.12	229.37
606.27	273.84
606.43	301.93
606.58	423.64
606.74	924.51
606.89	3904.01
607.05	7428.86
607.20	9334.06
607.36	7702.70
607.51	5025.13
607.67	3183.13
607.82	2253.94
607.98	1151.54
608.13	622.58
608.29	489.17
608.44	390.87
608.60	245.76
608.75	526.62
608.91	1327.08
609.06	6160.29
609.22	12769.96
609.37	16046.71
609.53	13877.04
609.68	9100.00
609.84	5954.32
609.99	4009.34
610.15	2094.78
610.30	976.00
610.46	500.87
610.61	322.99
610.76	374.49
610.92	318.31
611.07	297.25
611.23	381.51
611.38	327.68
611.54	322.99
611.69	304.27
