SpectraSuite Data File
++++++++++++++++++++++++++++++++++++
Date: Fri Oct 04 11:47:01 GMT-05:00 2013
User: price-jones
Dark Spectrum Present: No
Reference Spectrum Present: No
Number of Sampled Component Spectra: 1
Spectrometers: USB2+H05261
Integration Time (usec): 100000 (USB2+H05261)
Spectra Averaged: 1 (USB2+H05261)
Boxcar Smoothing: 0 (USB2+H05261)
Correct for Electrical Dark: No (USB2+H05261)
Strobe/Lamp Enabled: No (USB2+H05261)
Correct for Detector Non-linearity: No (USB2+H05261)
Correct for Stray Light: No (USB2+H05261)
Number of Pixels in Processed Spectrum: 2048
>>>>>Begin Processed Spectral Data<<<<<
365.73	18.72
365.92	18.72
366.12	18.72
366.32	0.00
366.52	0.00
366.72	0.00
366.91	0.00
367.11	0.00
367.31	0.00
367.51	0.00
367.70	0.00
367.90	0.00
368.10	0.00
368.30	0.00
368.49	0.00
368.69	0.00
368.89	0.00
369.09	0.00
369.28	0.00
369.48	0.00
369.68	0.00
369.87	0.00
370.07	28.09
370.27	0.00
370.47	4.68
370.66	18.72
370.86	0.00
371.06	0.00
371.25	65.54
371.45	11.70
371.65	70.22
371.84	98.30
372.04	60.85
372.24	42.13
372.44	77.24
372.63	102.98
372.83	126.39
373.03	126.39
373.22	91.28
373.42	70.22
373.62	117.03
373.81	98.30
374.01	88.94
374.21	79.58
374.40	163.84
374.60	128.73
374.79	110.01
374.99	88.94
375.19	79.58
375.38	107.66
375.58	138.09
375.78	147.45
375.97	147.45
376.17	88.94
376.37	98.30
376.56	124.05
376.76	175.54
376.95	91.28
377.15	128.73
377.35	110.01
377.54	91.28
377.74	105.32
377.93	65.54
378.13	37.45
378.33	112.35
378.52	91.28
378.72	147.45
378.91	65.54
379.11	159.16
379.31	70.22
379.50	93.62
379.70	107.66
379.89	91.28
380.09	70.22
380.28	138.09
380.48	110.01
380.68	159.16
380.87	121.71
381.07	105.32
381.26	145.11
381.46	142.77
381.65	30.43
381.85	114.69
382.04	119.37
382.24	126.39
382.43	110.01
382.63	37.45
382.83	39.79
383.02	133.41
383.22	114.69
383.41	81.92
383.61	203.63
383.80	79.58
384.00	72.56
384.19	107.66
384.39	107.66
384.58	110.01
384.78	79.58
384.97	51.49
385.17	86.60
385.36	49.15
385.56	91.28
385.75	74.90
385.95	0.00
386.14	93.62
386.34	46.81
386.53	105.32
386.72	63.19
386.92	168.52
387.11	126.39
387.31	58.51
387.50	39.79
387.70	58.51
387.89	124.05
388.09	84.26
388.28	51.49
388.48	95.96
388.67	126.39
388.86	95.96
389.06	79.58
389.25	138.09
389.45	110.01
389.64	98.30
389.84	112.35
390.03	147.45
390.22	58.51
390.42	51.49
390.61	140.43
390.81	88.94
391.00	126.39
391.19	170.86
391.39	166.18
391.58	140.43
391.78	166.18
391.97	98.30
392.16	86.60
392.36	117.03
392.55	149.79
392.75	110.01
392.94	159.16
393.13	44.47
393.33	93.62
393.52	58.51
393.71	152.13
393.91	91.28
394.10	79.58
394.29	84.26
394.49	88.94
394.68	128.73
394.88	152.13
395.07	149.79
395.26	86.60
395.46	65.54
395.65	133.41
395.84	39.79
396.04	187.24
396.23	124.05
396.42	86.60
396.62	175.54
396.81	58.51
397.00	182.56
397.19	112.35
397.39	105.32
397.58	65.54
397.77	128.73
397.97	126.39
398.16	72.56
398.35	140.43
398.55	74.90
398.74	60.85
398.93	126.39
399.12	28.09
399.32	42.13
399.51	32.77
399.70	110.01
399.90	119.37
400.09	133.41
400.28	182.56
400.47	102.98
400.67	133.41
400.86	102.98
401.05	140.43
401.24	124.05
401.44	191.92
401.63	95.96
401.82	166.18
402.01	14.04
402.21	79.58
402.40	98.30
402.59	124.05
402.78	32.77
402.97	161.50
403.17	91.28
403.36	173.20
403.55	133.41
403.74	72.56
403.93	117.03
404.13	152.13
404.32	93.62
404.51	175.54
404.70	142.77
404.89	110.01
405.09	133.41
405.28	124.05
405.47	84.26
405.66	37.45
405.85	128.73
406.05	161.50
406.24	74.90
406.43	133.41
406.62	142.77
406.81	184.90
407.00	98.30
407.20	42.13
407.39	107.66
407.58	86.60
407.77	131.07
407.96	149.79
408.15	147.45
408.34	121.71
408.54	117.03
408.73	105.32
408.92	110.01
409.11	102.98
409.30	110.01
409.49	145.11
409.68	74.90
409.87	133.41
410.07	93.62
410.26	117.03
410.45	105.32
410.64	67.88
410.83	95.96
411.02	110.01
411.21	138.09
411.40	152.13
411.59	53.83
411.78	42.13
411.98	133.41
412.17	98.30
412.36	131.07
412.55	42.13
412.74	166.18
412.93	154.48
413.12	124.05
413.31	128.73
413.50	91.28
413.69	114.69
413.88	184.90
414.07	147.45
414.26	201.29
414.45	98.30
414.64	93.62
414.83	124.05
415.02	107.66
415.22	189.58
415.41	187.24
415.60	154.48
415.79	112.35
415.98	147.45
416.17	114.69
416.36	124.05
416.55	114.69
416.74	117.03
416.93	93.62
417.12	131.07
417.31	145.11
417.50	210.65
417.69	236.39
417.88	182.56
418.07	227.03
418.26	121.71
418.45	131.07
418.64	271.50
418.83	177.88
419.02	198.95
419.21	177.88
419.39	128.73
419.58	210.65
419.77	184.90
419.96	180.22
420.15	175.54
420.34	138.09
420.53	138.09
420.72	166.18
420.91	177.88
421.10	51.49
421.29	135.75
421.48	142.77
421.67	119.37
421.86	131.07
422.05	121.71
422.24	133.41
422.43	182.56
422.61	121.71
422.80	95.96
422.99	121.71
423.18	79.58
423.37	217.67
423.56	72.56
423.75	84.26
423.94	86.60
424.13	124.05
424.32	51.49
424.50	95.96
424.69	119.37
424.88	128.73
425.07	112.35
425.26	124.05
425.45	264.48
425.64	325.33
425.83	273.84
426.01	201.29
426.20	154.48
426.39	124.05
426.58	154.48
426.77	161.50
426.96	161.50
427.15	182.56
427.33	124.05
427.52	234.05
427.71	166.18
427.90	121.71
428.09	128.73
428.28	63.19
428.46	133.41
428.65	98.30
428.84	184.90
429.03	168.52
429.22	133.41
429.40	119.37
429.59	60.85
429.78	205.97
429.97	154.48
430.16	161.50
430.34	119.37
430.53	51.49
430.72	72.56
430.91	117.03
431.10	63.19
431.28	77.24
431.47	35.11
431.66	147.45
431.85	102.98
432.03	91.28
432.22	189.58
432.41	65.54
432.60	121.71
432.79	248.10
432.97	276.18
433.16	388.53
433.35	332.36
433.54	175.54
433.72	166.18
433.91	191.92
434.10	184.90
434.28	250.44
434.47	180.22
434.66	166.18
434.85	154.48
435.03	88.94
435.22	145.11
435.41	161.50
435.59	105.32
435.78	58.51
435.97	154.48
436.16	138.09
436.34	117.03
436.53	124.05
436.72	205.97
436.90	156.82
437.09	42.13
437.28	107.66
437.46	124.05
437.65	117.03
437.84	145.11
438.02	56.17
438.21	147.45
438.40	149.79
438.58	0.00
438.77	117.03
438.96	180.22
439.14	138.09
439.33	131.07
439.52	124.05
439.70	117.03
439.89	124.05
440.08	166.18
440.26	58.51
440.45	168.52
440.63	128.73
440.82	194.26
441.01	95.96
441.19	152.13
441.38	154.48
441.57	198.95
441.75	152.13
441.94	124.05
442.12	152.13
442.31	147.45
442.50	184.90
442.68	117.03
442.87	112.35
443.05	168.52
443.24	231.71
443.43	201.29
443.61	210.65
443.80	110.01
443.98	46.81
444.17	152.13
444.35	142.77
444.54	156.82
444.73	152.13
444.91	145.11
445.10	140.43
445.28	138.09
445.47	152.13
445.65	98.30
445.84	86.60
446.02	117.03
446.21	124.05
446.39	159.16
446.58	135.75
446.77	117.03
446.95	161.50
447.14	138.09
447.32	147.45
447.51	112.35
447.69	107.66
447.88	168.52
448.06	208.31
448.25	110.01
448.43	140.43
448.62	154.48
448.80	142.77
448.99	156.82
449.17	212.99
449.36	110.01
449.54	187.24
449.73	107.66
449.91	138.09
450.10	133.41
450.28	215.33
450.46	184.90
450.65	161.50
450.83	180.22
451.02	112.35
451.20	126.39
451.39	98.30
451.57	72.56
451.76	91.28
451.94	175.54
452.13	170.86
452.31	114.69
452.49	142.77
452.68	70.22
452.86	149.79
453.05	231.71
453.23	131.07
453.42	81.92
453.60	72.56
453.78	161.50
453.97	198.95
454.15	149.79
454.34	227.03
454.52	173.20
454.70	135.75
454.89	147.45
455.07	128.73
455.26	70.22
455.44	175.54
455.62	91.28
455.81	201.29
455.99	81.92
456.17	156.82
456.36	105.32
456.54	170.86
456.73	128.73
456.91	245.76
457.09	126.39
457.28	201.29
457.46	105.32
457.64	198.95
457.83	117.03
458.01	229.37
458.19	227.03
458.38	102.98
458.56	154.48
458.74	117.03
458.93	117.03
459.11	126.39
459.29	58.51
459.48	131.07
459.66	107.66
459.84	88.94
460.03	145.11
460.21	198.95
460.39	124.05
460.57	156.82
460.76	189.58
460.94	175.54
461.12	210.65
461.31	107.66
461.49	119.37
461.67	124.05
461.85	126.39
462.04	201.29
462.22	624.92
462.40	154.48
462.59	163.84
462.77	95.96
462.95	163.84
463.13	135.75
463.32	152.13
463.50	102.98
463.68	152.13
463.86	81.92
464.05	88.94
464.23	145.11
464.41	98.30
464.59	102.98
464.78	138.09
464.96	102.98
465.14	177.88
465.32	170.86
465.50	91.28
465.69	217.67
465.87	95.96
466.05	124.05
466.23	154.48
466.41	166.18
466.60	196.60
466.78	91.28
466.96	163.84
467.14	98.30
467.32	182.56
467.51	173.20
467.69	126.39
467.87	161.50
468.05	180.22
468.23	215.33
468.41	198.95
468.60	175.54
468.78	128.73
468.96	119.37
469.14	201.29
469.32	95.96
469.50	42.13
469.69	149.79
469.87	100.64
470.05	208.31
470.23	133.41
470.41	184.90
470.59	149.79
470.77	107.66
470.95	44.47
471.14	131.07
471.32	177.88
471.50	198.95
471.68	166.18
471.86	147.45
472.04	84.26
472.22	156.82
472.40	194.26
472.58	173.20
472.77	110.01
472.95	147.45
473.13	236.39
473.31	124.05
473.49	77.24
473.67	131.07
473.85	93.62
474.03	229.37
474.21	159.16
474.39	149.79
474.57	170.86
474.75	156.82
474.93	142.77
475.12	100.64
475.30	152.13
475.48	140.43
475.66	110.01
475.84	149.79
476.02	124.05
476.20	128.73
476.38	198.95
476.56	205.97
476.74	119.37
476.92	152.13
477.10	149.79
477.28	175.54
477.46	140.43
477.64	154.48
477.82	72.56
478.00	149.79
478.18	128.73
478.36	194.26
478.54	149.79
478.72	140.43
478.90	128.73
479.08	149.79
479.26	184.90
479.44	128.73
479.62	168.52
479.80	67.88
479.98	159.16
480.16	142.77
480.34	142.77
480.52	100.64
480.70	128.73
480.88	189.58
481.06	95.96
481.24	100.64
481.41	184.90
481.59	215.33
481.77	149.79
481.95	184.90
482.13	191.92
482.31	252.78
482.49	107.66
482.67	166.18
482.85	138.09
483.03	168.52
483.21	170.86
483.39	156.82
483.57	93.62
483.74	257.46
483.92	126.39
484.10	159.16
484.28	210.65
484.46	255.12
484.64	166.18
484.82	194.26
485.00	182.56
485.18	156.82
485.35	217.67
485.53	177.88
485.71	227.03
485.89	100.64
486.07	110.01
486.25	201.29
486.43	212.99
486.61	222.35
486.78	187.24
486.96	210.65
487.14	124.05
487.32	95.96
487.50	177.88
487.68	173.20
487.85	44.47
488.03	131.07
488.21	102.98
488.39	184.90
488.57	203.63
488.75	208.31
488.92	430.66
489.10	227.03
489.28	285.55
489.46	140.43
489.64	95.96
489.81	222.35
489.99	121.71
490.17	182.56
490.35	238.73
490.53	201.29
490.70	159.16
490.88	194.26
491.06	135.75
491.24	208.31
491.41	231.71
491.59	149.79
491.77	119.37
491.95	149.79
492.13	145.11
492.30	140.43
492.48	191.92
492.66	182.56
492.84	180.22
493.01	140.43
493.19	107.66
493.37	248.10
493.54	135.75
493.72	231.71
493.90	194.26
494.08	170.86
494.25	203.63
494.43	140.43
494.61	194.26
494.79	163.84
494.96	159.16
495.14	163.84
495.32	177.88
495.49	201.29
495.67	198.95
495.85	212.99
496.02	145.11
496.20	191.92
496.38	224.69
496.55	285.55
496.73	210.65
496.91	152.13
497.09	271.50
497.26	234.05
497.44	229.37
497.62	245.76
497.79	215.33
497.97	243.42
498.14	257.46
498.32	147.45
498.50	198.95
498.67	140.43
498.85	224.69
499.03	227.03
499.20	135.75
499.38	212.99
499.56	217.67
499.73	243.42
499.91	187.24
500.08	217.67
500.26	217.67
500.44	212.99
500.61	191.92
500.79	222.35
500.97	220.01
501.14	257.46
501.32	180.22
501.49	142.77
501.67	119.37
501.84	180.22
502.02	135.75
502.20	208.31
502.37	177.88
502.55	154.48
502.72	105.32
502.90	241.08
503.07	198.95
503.25	280.86
503.43	191.92
503.60	182.56
503.78	196.60
503.95	248.10
504.13	234.05
504.30	177.88
504.48	236.39
504.65	196.60
504.83	175.54
505.01	248.10
505.18	189.58
505.36	149.79
505.53	177.88
505.71	182.56
505.88	166.18
506.06	175.54
506.23	175.54
506.41	140.43
506.58	187.24
506.76	187.24
506.93	159.16
507.11	201.29
507.28	149.79
507.46	168.52
507.63	163.84
507.81	229.37
507.98	241.08
508.16	234.05
508.33	191.92
508.50	222.35
508.68	173.20
508.85	224.69
509.03	184.90
509.20	184.90
509.38	236.39
509.55	255.12
509.73	250.44
509.90	180.22
510.08	187.24
510.25	161.50
510.42	184.90
510.60	234.05
510.77	198.95
510.95	250.44
511.12	215.33
511.30	212.99
511.47	264.48
511.64	238.73
511.82	180.22
511.99	166.18
512.17	189.58
512.34	191.92
512.51	147.45
512.69	152.13
512.86	236.39
513.04	250.44
513.21	227.03
513.38	145.11
513.56	184.90
513.73	173.20
513.90	149.79
514.08	187.24
514.25	156.82
514.43	159.16
514.60	187.24
514.77	238.73
514.95	224.69
515.12	229.37
515.29	205.97
515.47	285.55
515.64	252.78
515.81	224.69
515.99	299.59
516.16	184.90
516.33	241.08
516.51	184.90
516.68	117.03
516.85	212.99
517.03	201.29
517.20	187.24
517.37	217.67
517.54	201.29
517.72	168.52
517.89	142.77
518.06	154.48
518.24	283.20
518.41	222.35
518.58	257.46
518.75	201.29
518.93	210.65
519.10	285.55
519.27	168.52
519.45	175.54
519.62	187.24
519.79	222.35
519.96	222.35
520.14	250.44
520.31	276.18
520.48	250.44
520.65	245.76
520.83	255.12
521.00	264.48
521.17	173.20
521.34	205.97
521.52	210.65
521.69	208.31
521.86	147.45
522.03	126.39
522.20	259.80
522.38	241.08
522.55	217.67
522.72	180.22
522.89	182.56
523.07	189.58
523.24	227.03
523.41	159.16
523.58	175.54
523.75	220.01
523.92	168.52
524.10	210.65
524.27	196.60
524.44	198.95
524.61	212.99
524.78	222.35
524.96	280.86
525.13	217.67
525.30	250.44
525.47	262.14
525.64	187.24
525.81	184.90
525.98	264.48
526.16	142.77
526.33	133.41
526.50	215.33
526.67	145.11
526.84	196.60
527.01	168.52
527.18	236.39
527.36	222.35
527.53	269.16
527.70	177.88
527.87	238.73
528.04	236.39
528.21	187.24
528.38	236.39
528.55	182.56
528.72	238.73
528.89	231.71
529.07	290.23
529.24	238.73
529.41	201.29
529.58	241.08
529.75	177.88
529.92	245.76
530.09	241.08
530.26	210.65
530.43	241.08
530.60	170.86
530.77	224.69
530.94	341.72
531.11	276.18
531.28	220.01
531.46	173.20
531.63	161.50
531.80	194.26
531.97	243.42
532.14	201.29
532.31	180.22
532.48	231.71
532.65	386.19
532.82	451.72
532.99	454.06
533.16	386.19
533.33	287.89
533.50	271.50
533.67	301.93
533.84	500.87
534.01	524.28
534.18	451.72
534.35	358.10
534.52	269.16
534.69	297.25
534.86	173.20
535.03	156.82
535.20	180.22
535.37	245.76
535.54	210.65
535.71	266.82
535.88	241.08
536.05	191.92
536.22	191.92
536.38	224.69
536.55	257.46
536.72	238.73
536.89	191.92
537.06	191.92
537.23	245.76
537.40	227.03
537.57	243.42
537.74	208.31
537.91	173.20
538.08	269.16
538.25	297.25
538.42	173.20
538.59	194.26
538.75	191.92
538.92	290.23
539.09	285.55
539.26	224.69
539.43	500.87
539.60	1383.26
539.77	2090.10
539.94	2314.79
540.11	1514.33
540.28	882.38
540.44	601.52
540.61	334.70
540.78	154.48
540.95	229.37
541.12	269.16
541.29	198.95
541.46	266.82
541.62	168.52
541.79	210.65
541.96	114.69
542.13	222.35
542.30	245.76
542.47	229.37
542.63	203.63
542.80	152.13
542.97	320.65
543.14	259.80
543.31	184.90
543.48	224.69
543.64	262.14
543.81	154.48
543.98	238.73
544.15	166.18
544.32	238.73
544.48	212.99
544.65	170.86
544.82	159.16
544.99	170.86
545.16	290.23
545.32	205.97
545.49	191.92
545.66	95.96
545.83	112.35
546.00	259.80
546.16	201.29
546.33	229.37
546.50	166.18
546.67	264.48
546.83	215.33
547.00	161.50
547.17	194.26
547.34	215.33
547.50	248.10
547.67	262.14
547.84	159.16
548.00	285.55
548.17	149.79
548.34	231.71
548.51	220.01
548.67	217.67
548.84	180.22
549.01	238.73
549.18	278.52
549.34	184.90
549.51	241.08
549.68	231.71
549.84	191.92
550.01	236.39
550.18	334.70
550.34	241.08
550.51	184.90
550.68	264.48
550.84	208.31
551.01	201.29
551.18	278.52
551.34	175.54
551.51	140.43
551.68	187.24
551.84	198.95
552.01	177.88
552.18	241.08
552.34	217.67
552.51	220.01
552.68	238.73
552.84	203.63
553.01	184.90
553.18	177.88
553.34	229.37
553.51	177.88
553.67	128.73
553.84	297.25
554.01	231.71
554.17	196.60
554.34	243.42
554.51	238.73
554.67	259.80
554.84	154.48
555.00	299.59
555.17	201.29
555.33	215.33
555.50	259.80
555.67	234.05
555.83	280.86
556.00	278.52
556.16	325.33
556.33	252.78
556.50	236.39
556.66	198.95
556.83	182.56
556.99	220.01
557.16	257.46
557.32	248.10
557.49	173.20
557.65	170.86
557.82	248.10
557.98	187.24
558.15	241.08
558.32	198.95
558.48	208.31
558.65	224.69
558.81	154.48
558.98	194.26
559.14	201.29
559.31	255.12
559.47	191.92
559.64	243.42
559.80	313.63
559.97	198.95
560.13	203.63
560.30	224.69
560.46	159.16
560.63	259.80
560.79	208.31
560.96	224.69
561.12	196.60
561.29	212.99
561.45	227.03
561.61	182.56
561.78	280.86
561.94	159.16
562.11	220.01
562.27	248.10
562.44	257.46
562.60	229.37
562.77	276.18
562.93	290.23
563.10	177.88
563.26	255.12
563.42	203.63
563.59	191.92
563.75	224.69
563.92	196.60
564.08	191.92
564.24	205.97
564.41	259.80
564.57	110.01
564.74	205.97
564.90	212.99
565.07	292.57
565.23	222.35
565.39	278.52
565.56	322.99
565.72	250.44
565.88	255.12
566.05	194.26
566.21	241.08
566.38	161.50
566.54	227.03
566.70	243.42
566.87	220.01
567.03	138.09
567.19	189.58
567.36	231.71
567.52	217.67
567.68	220.01
567.85	189.58
568.01	234.05
568.17	170.86
568.34	203.63
568.50	238.73
568.66	266.82
568.83	308.95
568.99	224.69
569.15	280.86
569.32	189.58
569.48	215.33
569.64	210.65
569.81	194.26
569.97	215.33
570.13	262.14
570.30	163.84
570.46	149.79
570.62	205.97
570.78	229.37
570.95	175.54
571.11	205.97
571.27	212.99
571.43	187.24
571.60	231.71
571.76	257.46
571.92	231.71
572.09	201.29
572.25	238.73
572.41	236.39
572.57	217.67
572.74	276.18
572.90	259.80
573.06	278.52
573.22	234.05
573.38	266.82
573.55	299.59
573.71	170.86
573.87	294.91
574.03	224.69
574.20	224.69
574.36	306.61
574.52	334.70
574.68	362.78
574.84	332.36
575.01	259.80
575.17	297.25
575.33	262.14
575.49	243.42
575.65	390.87
575.82	433.00
575.98	685.78
576.14	992.39
576.30	1001.75
576.46	737.27
576.62	510.24
576.79	498.53
576.95	367.46
577.11	325.33
577.27	271.50
577.43	220.01
577.59	304.27
577.75	346.40
577.92	332.36
578.08	262.14
578.24	273.84
578.40	325.33
578.56	271.50
578.72	290.23
578.88	334.70
579.04	266.82
579.21	315.97
579.37	271.50
579.53	292.57
579.69	360.44
579.85	264.48
580.01	386.19
580.17	425.98
580.33	472.79
580.49	402.57
580.65	409.59
580.82	423.64
580.98	454.06
581.14	397.89
581.30	430.66
581.46	568.75
581.62	704.50
581.78	805.14
581.94	751.31
582.10	653.01
582.26	622.58
582.42	554.71
582.58	484.49
582.74	477.47
582.90	475.13
583.06	566.41
583.22	514.92
583.38	613.22
583.54	610.88
583.70	772.38
583.86	894.08
584.02	1128.14
584.18	1401.98
584.34	1811.57
584.50	4849.59
584.66	37797.31
584.82	65535.00
584.98	65535.00
585.14	65535.00
585.30	65535.00
585.46	48306.32
585.62	29874.60
585.78	13153.81
585.94	5177.26
586.10	2275.00
586.26	1458.15
586.42	1207.72
586.58	840.25
586.74	901.11
586.90	763.01
587.06	809.83
587.22	624.92
587.38	655.35
587.54	1724.97
587.70	5392.59
587.86	9343.42
588.02	10607.31
588.18	7403.11
588.34	4676.39
588.49	2972.48
588.65	1743.70
588.81	821.53
588.97	465.77
589.13	318.31
589.29	423.64
589.45	376.83
589.61	400.23
589.77	454.06
589.93	582.79
590.08	634.29
590.24	535.98
590.40	512.58
590.56	547.69
590.72	409.59
590.88	423.64
591.04	365.12
591.20	367.46
591.35	430.66
591.51	353.42
591.67	287.89
591.83	395.55
591.99	322.99
592.15	353.42
592.31	330.02
592.46	292.57
592.62	337.04
592.78	308.95
592.94	351.08
593.10	269.16
593.26	297.25
593.41	367.46
593.57	423.64
593.73	819.19
593.89	4437.66
594.05	11672.25
594.20	18260.86
594.36	17287.20
594.52	11157.33
594.68	6850.75
594.84	4355.74
594.99	2399.05
595.15	1144.52
595.31	561.73
595.47	477.47
595.62	344.06
595.78	344.06
595.94	330.02
596.10	440.02
596.25	463.43
596.41	425.98
596.57	332.36
596.73	355.76
596.88	723.23
597.04	2169.68
597.20	3510.80
597.36	4318.29
597.51	3213.56
597.67	2179.04
597.83	1511.99
597.99	954.94
598.14	550.03
598.30	395.55
598.46	404.91
598.61	447.04
598.77	334.70
598.93	297.25
599.09	311.29
599.24	229.37
599.40	311.29
599.56	231.71
599.71	285.55
599.87	257.46
600.03	245.76
600.18	212.99
600.34	255.12
600.50	210.65
600.65	236.39
600.81	287.89
600.97	320.65
601.12	168.52
601.28	278.52
601.44	262.14
601.59	175.54
601.75	250.44
601.91	297.25
602.06	257.46
602.22	414.27
602.37	1039.20
602.53	2787.58
602.69	4280.84
602.84	4847.25
603.00	3297.81
603.16	2111.16
603.31	1511.99
603.47	945.58
603.62	491.51
603.78	337.04
603.94	264.48
604.09	341.72
604.25	266.82
604.40	341.72
604.56	224.69
604.71	287.89
604.87	187.24
605.03	177.88
605.18	313.63
605.34	339.38
605.49	163.84
605.65	294.91
605.80	257.46
605.96	320.65
606.12	355.76
606.27	348.74
606.43	299.59
606.58	407.25
606.74	1296.66
606.89	5453.45
607.05	11550.54
607.20	15754.15
607.36	12594.42
607.51	8374.44
607.67	5369.19
607.82	3545.91
607.98	1832.64
608.13	898.77
608.29	578.11
608.44	479.81
608.60	491.51
608.75	660.03
608.91	1652.42
609.06	8320.60
609.22	19426.45
609.37	27122.13
609.53	23878.15
609.68	15625.42
609.84	9631.30
609.99	6469.24
610.15	3330.58
610.30	1425.39
610.46	819.19
610.61	564.07
610.76	514.92
610.92	449.38
611.07	365.12
611.23	437.68
611.38	383.85
611.54	376.83
