SpectraSuite Data File
++++++++++++++++++++++++++++++++++++
Date: Fri Oct 04 11:47:24 GMT-05:00 2013
User: price-jones
Dark Spectrum Present: No
Reference Spectrum Present: No
Number of Sampled Component Spectra: 1
Spectrometers: USB2+H05261
Integration Time (usec): 100000 (USB2+H05261)
Spectra Averaged: 1 (USB2+H05261)
Boxcar Smoothing: 0 (USB2+H05261)
Correct for Electrical Dark: No (USB2+H05261)
Strobe/Lamp Enabled: No (USB2+H05261)
Correct for Detector Non-linearity: No (USB2+H05261)
Correct for Stray Light: No (USB2+H05261)
Number of Pixels in Processed Spectrum: 2048
>>>>>Begin Processed Spectral Data<<<<<
365.73	46.81
365.92	46.81
366.12	46.81
366.32	0.00
366.52	0.00
366.72	0.00
366.91	0.00
367.11	0.00
367.31	0.00
367.51	0.00
367.70	0.00
367.90	9.36
368.10	0.00
368.30	0.00
368.49	0.00
368.69	0.00
368.89	0.00
369.09	0.00
369.28	0.00
369.48	0.00
369.68	0.00
369.87	9.36
370.07	0.00
370.27	0.00
370.47	51.49
370.66	110.01
370.86	46.81
371.06	81.92
371.25	100.64
371.45	110.01
371.65	72.56
371.84	35.11
372.04	2.34
372.24	67.88
372.44	58.51
372.63	93.62
372.83	156.82
373.03	70.22
373.22	131.07
373.42	67.88
373.62	170.86
373.81	161.50
374.01	161.50
374.21	102.98
374.40	102.98
374.60	140.43
374.79	126.39
374.99	84.26
375.19	114.69
375.38	126.39
375.58	28.09
375.78	119.37
375.97	107.66
376.17	182.56
376.37	173.20
376.56	72.56
376.76	56.17
376.95	35.11
377.15	133.41
377.35	121.71
377.54	58.51
377.74	60.85
377.93	70.22
378.13	142.77
378.33	147.45
378.52	51.49
378.72	140.43
378.91	110.01
379.11	74.90
379.31	105.32
379.50	4.68
379.70	166.18
379.89	220.01
380.09	42.13
380.28	11.70
380.48	77.24
380.68	53.83
380.87	126.39
381.07	117.03
381.26	114.69
381.46	63.19
381.65	124.05
381.85	65.54
382.04	128.73
382.24	112.35
382.43	133.41
382.63	79.58
382.83	49.15
383.02	121.71
383.22	102.98
383.41	110.01
383.61	126.39
383.80	7.02
384.00	72.56
384.19	77.24
384.39	112.35
384.58	119.37
384.78	138.09
384.97	121.71
385.17	107.66
385.36	74.90
385.56	124.05
385.75	65.54
385.95	72.56
386.14	65.54
386.34	138.09
386.53	142.77
386.72	105.32
386.92	91.28
387.11	39.79
387.31	133.41
387.50	98.30
387.70	152.13
387.89	175.54
388.09	53.83
388.28	135.75
388.48	107.66
388.67	170.86
388.86	119.37
389.06	93.62
389.25	135.75
389.45	117.03
389.64	180.22
389.84	131.07
390.03	168.52
390.22	173.20
390.42	105.32
390.61	77.24
390.81	32.77
391.00	142.77
391.19	86.60
391.39	149.79
391.58	126.39
391.78	65.54
391.97	124.05
392.16	126.39
392.36	133.41
392.55	102.98
392.75	131.07
392.94	110.01
393.13	149.79
393.33	133.41
393.52	128.73
393.71	142.77
393.91	142.77
394.10	81.92
394.29	142.77
394.49	173.20
394.68	81.92
394.88	168.52
395.07	159.16
395.26	86.60
395.46	145.11
395.65	81.92
395.84	135.75
396.04	161.50
396.23	107.66
396.42	117.03
396.62	60.85
396.81	112.35
397.00	93.62
397.19	126.39
397.39	231.71
397.58	124.05
397.77	100.64
397.97	173.20
398.16	114.69
398.35	175.54
398.55	107.66
398.74	86.60
398.93	133.41
399.12	203.63
399.32	184.90
399.51	149.79
399.70	119.37
399.90	95.96
400.09	124.05
400.28	131.07
400.47	114.69
400.67	95.96
400.86	154.48
401.05	184.90
401.24	119.37
401.44	170.86
401.63	133.41
401.82	184.90
402.01	107.66
402.21	133.41
402.40	180.22
402.59	135.75
402.78	65.54
402.97	114.69
403.17	84.26
403.36	133.41
403.55	107.66
403.74	154.48
403.93	114.69
404.13	119.37
404.32	112.35
404.51	114.69
404.70	152.13
404.89	163.84
405.09	173.20
405.28	119.37
405.47	35.11
405.66	84.26
405.85	175.54
406.05	161.50
406.24	156.82
406.43	177.88
406.62	187.24
406.81	182.56
407.00	217.67
407.20	102.98
407.39	102.98
407.58	102.98
407.77	140.43
407.96	196.60
408.15	124.05
408.34	163.84
408.54	168.52
408.73	105.32
408.92	145.11
409.11	112.35
409.30	117.03
409.49	145.11
409.68	91.28
409.87	107.66
410.07	114.69
410.26	138.09
410.45	126.39
410.64	102.98
410.83	93.62
411.02	131.07
411.21	126.39
411.40	161.50
411.59	159.16
411.78	131.07
411.98	88.94
412.17	138.09
412.36	145.11
412.55	170.86
412.74	168.52
412.93	142.77
413.12	161.50
413.31	161.50
413.50	145.11
413.69	173.20
413.88	205.97
414.07	166.18
414.26	124.05
414.45	138.09
414.64	154.48
414.83	189.58
415.02	212.99
415.22	173.20
415.41	187.24
415.60	154.48
415.79	110.01
415.98	238.73
416.17	138.09
416.36	131.07
416.55	161.50
416.74	177.88
416.93	180.22
417.12	173.20
417.31	196.60
417.50	215.33
417.69	177.88
417.88	135.75
418.07	191.92
418.26	58.51
418.45	231.71
418.64	210.65
418.83	105.32
419.02	135.75
419.21	229.37
419.39	180.22
419.58	159.16
419.77	142.77
419.96	112.35
420.15	224.69
420.34	135.75
420.53	212.99
420.72	236.39
420.91	184.90
421.10	159.16
421.29	166.18
421.48	203.63
421.67	220.01
421.86	212.99
422.05	152.13
422.24	177.88
422.43	149.79
422.61	159.16
422.80	74.90
422.99	184.90
423.18	187.24
423.37	212.99
423.56	243.42
423.75	170.86
423.94	128.73
424.13	168.52
424.32	114.69
424.50	112.35
424.69	100.64
424.88	182.56
425.07	145.11
425.26	201.29
425.45	203.63
425.64	154.48
425.83	182.56
426.01	234.05
426.20	182.56
426.39	124.05
426.58	173.20
426.77	215.33
426.96	227.03
427.15	110.01
427.33	91.28
427.52	154.48
427.71	121.71
427.90	161.50
428.09	117.03
428.28	145.11
428.46	95.96
428.65	152.13
428.84	133.41
429.03	135.75
429.22	208.31
429.40	191.92
429.59	135.75
429.78	269.16
429.97	205.97
430.16	220.01
430.34	105.32
430.53	184.90
430.72	145.11
430.91	156.82
431.10	135.75
431.28	217.67
431.47	166.18
431.66	173.20
431.85	173.20
432.03	95.96
432.22	227.03
432.41	161.50
432.60	222.35
432.79	161.50
432.97	205.97
433.16	203.63
433.35	126.39
433.54	161.50
433.72	184.90
433.91	222.35
434.10	175.54
434.28	191.92
434.47	138.09
434.66	189.58
434.85	149.79
435.03	182.56
435.22	283.20
435.41	255.12
435.59	175.54
435.78	170.86
435.97	145.11
436.16	180.22
436.34	229.37
436.53	198.95
436.72	173.20
436.90	166.18
437.09	182.56
437.28	248.10
437.46	154.48
437.65	196.60
437.84	229.37
438.02	154.48
438.21	220.01
438.40	194.26
438.58	196.60
438.77	163.84
438.96	131.07
439.14	110.01
439.33	231.71
439.52	189.58
439.70	124.05
439.89	222.35
440.08	107.66
440.26	250.44
440.45	189.58
440.63	159.16
440.82	154.48
441.01	182.56
441.19	203.63
441.38	110.01
441.57	182.56
441.75	187.24
441.94	220.01
442.12	149.79
442.31	191.92
442.50	196.60
442.68	189.58
442.87	152.13
443.05	161.50
443.24	196.60
443.43	159.16
443.61	215.33
443.80	126.39
443.98	203.63
444.17	194.26
444.35	283.20
444.54	205.97
444.73	126.39
444.91	208.31
445.10	259.80
445.28	175.54
445.47	170.86
445.65	140.43
445.84	138.09
446.02	154.48
446.21	119.37
446.39	107.66
446.58	173.20
446.77	168.52
446.95	220.01
447.14	227.03
447.32	205.97
447.51	210.65
447.69	102.98
447.88	182.56
448.06	248.10
448.25	243.42
448.43	152.13
448.62	156.82
448.80	236.39
448.99	217.67
449.17	177.88
449.36	182.56
449.54	191.92
449.73	149.79
449.91	187.24
450.10	166.18
450.28	292.57
450.46	264.48
450.65	241.08
450.83	201.29
451.02	227.03
451.20	156.82
451.39	248.10
451.57	187.24
451.76	210.65
451.94	210.65
452.13	222.35
452.31	234.05
452.49	161.50
452.68	170.86
452.86	105.32
453.05	217.67
453.23	131.07
453.42	245.76
453.60	161.50
453.78	220.01
453.97	250.44
454.15	220.01
454.34	182.56
454.52	241.08
454.70	234.05
454.89	287.89
455.07	159.16
455.26	236.39
455.44	203.63
455.62	259.80
455.81	224.69
455.99	180.22
456.17	243.42
456.36	175.54
456.54	248.10
456.73	210.65
456.91	227.03
457.09	241.08
457.28	294.91
457.46	194.26
457.64	196.60
457.83	215.33
458.01	220.01
458.19	243.42
458.38	236.39
458.56	182.56
458.74	175.54
458.93	175.54
459.11	271.50
459.29	184.90
459.48	250.44
459.66	175.54
459.84	280.86
460.03	325.33
460.21	238.73
460.39	159.16
460.57	231.71
460.76	187.24
460.94	273.84
461.12	220.01
461.31	299.59
461.49	212.99
461.67	248.10
461.85	238.73
462.04	191.92
462.22	671.73
462.40	238.73
462.59	238.73
462.77	205.97
462.95	222.35
463.13	189.58
463.32	241.08
463.50	238.73
463.68	224.69
463.86	177.88
464.05	191.92
464.23	229.37
464.41	248.10
464.59	187.24
464.78	208.31
464.96	248.10
465.14	241.08
465.32	187.24
465.50	177.88
465.69	201.29
465.87	191.92
466.05	255.12
466.23	196.60
466.41	205.97
466.60	184.90
466.78	189.58
466.96	287.89
467.14	271.50
467.32	220.01
467.51	217.67
467.69	194.26
467.87	173.20
468.05	208.31
468.23	257.46
468.41	182.56
468.60	208.31
468.78	259.80
468.96	264.48
469.14	210.65
469.32	156.82
469.50	234.05
469.69	238.73
469.87	238.73
470.05	257.46
470.23	194.26
470.41	262.14
470.59	170.86
470.77	168.52
470.95	299.59
471.14	283.20
471.32	245.76
471.50	208.31
471.68	166.18
471.86	210.65
472.04	231.71
472.22	252.78
472.40	266.82
472.58	212.99
472.77	257.46
472.95	215.33
473.13	245.76
473.31	238.73
473.49	234.05
473.67	177.88
473.85	234.05
474.03	238.73
474.21	236.39
474.39	191.92
474.57	301.93
474.75	292.57
474.93	196.60
475.12	238.73
475.30	182.56
475.48	210.65
475.66	166.18
475.84	212.99
476.02	208.31
476.20	341.72
476.38	191.92
476.56	322.99
476.74	173.20
476.92	180.22
477.10	222.35
477.28	241.08
477.46	231.71
477.64	290.23
477.82	234.05
478.00	196.60
478.18	294.91
478.36	187.24
478.54	257.46
478.72	280.86
478.90	257.46
479.08	231.71
479.26	287.89
479.44	290.23
479.62	224.69
479.80	168.52
479.98	224.69
480.16	236.39
480.34	278.52
480.52	236.39
480.70	292.57
480.88	212.99
481.06	273.84
481.24	184.90
481.41	250.44
481.59	266.82
481.77	285.55
481.95	229.37
482.13	269.16
482.31	271.50
482.49	266.82
482.67	215.33
482.85	287.89
483.03	245.76
483.21	271.50
483.39	217.67
483.57	224.69
483.74	227.03
483.92	187.24
484.10	290.23
484.28	264.48
484.46	304.27
484.64	266.82
484.82	236.39
485.00	271.50
485.18	299.59
485.35	255.12
485.53	217.67
485.71	259.80
485.89	276.18
486.07	201.29
486.25	229.37
486.43	210.65
486.61	259.80
486.78	304.27
486.96	220.01
487.14	210.65
487.32	215.33
487.50	346.40
487.68	266.82
487.85	238.73
488.03	311.29
488.21	290.23
488.39	325.33
488.57	257.46
488.75	294.91
488.92	543.00
489.10	325.33
489.28	351.08
489.46	304.27
489.64	262.14
489.81	376.83
489.99	238.73
490.17	257.46
490.35	372.15
490.53	339.38
490.70	320.65
490.88	266.82
491.06	280.86
491.24	257.46
491.41	315.97
491.59	320.65
491.77	294.91
491.95	250.44
492.13	224.69
492.30	259.80
492.48	292.57
492.66	283.20
492.84	297.25
493.01	341.72
493.19	280.86
493.37	330.02
493.54	320.65
493.72	287.89
493.90	276.18
494.08	318.31
494.25	231.71
494.43	322.99
494.61	313.63
494.79	322.99
494.96	374.49
495.14	383.85
495.32	276.18
495.49	337.04
495.67	311.29
495.85	379.17
496.02	313.63
496.20	315.97
496.38	400.23
496.55	318.31
496.73	360.44
496.91	332.36
497.09	393.21
497.26	341.72
497.44	360.44
497.62	369.80
497.79	353.42
497.97	334.70
498.14	276.18
498.32	325.33
498.50	320.65
498.67	283.20
498.85	318.31
499.03	348.74
499.20	362.78
499.38	386.19
499.56	386.19
499.73	346.40
499.91	351.08
500.08	330.02
500.26	332.36
500.44	297.25
500.61	374.49
500.79	367.46
500.97	355.76
501.14	365.12
501.32	339.38
501.49	304.27
501.67	341.72
501.84	362.78
502.02	369.80
502.20	376.83
502.37	299.59
502.55	402.57
502.72	294.91
502.90	365.12
503.07	355.76
503.25	313.63
503.43	304.27
503.60	365.12
503.78	304.27
503.95	269.16
504.13	301.93
504.30	395.55
504.48	376.83
504.65	339.38
504.83	393.21
505.01	320.65
505.18	388.53
505.36	369.80
505.53	290.23
505.71	334.70
505.88	454.06
506.06	362.78
506.23	264.48
506.41	315.97
506.58	330.02
506.76	292.57
506.93	313.63
507.11	372.15
507.28	365.12
507.46	308.95
507.63	332.36
507.81	386.19
507.98	383.85
508.16	381.51
508.33	414.27
508.50	351.08
508.68	330.02
508.85	360.44
509.03	339.38
509.20	344.06
509.38	411.93
509.55	367.46
509.73	388.53
509.90	369.80
510.08	294.91
510.25	397.89
510.42	355.76
510.60	344.06
510.77	400.23
510.95	306.61
511.12	362.78
511.30	435.34
511.47	344.06
511.64	418.96
511.82	337.04
511.99	276.18
512.17	407.25
512.34	367.46
512.51	332.36
512.69	243.42
512.86	423.64
513.04	421.30
513.21	449.38
513.38	344.06
513.56	444.70
513.73	283.20
513.90	285.55
514.08	348.74
514.25	252.78
514.43	318.31
514.60	393.21
514.77	381.51
514.95	299.59
515.12	344.06
515.29	379.17
515.47	348.74
515.64	365.12
515.81	390.87
515.99	355.76
516.16	353.42
516.33	407.25
516.51	294.91
516.68	346.40
516.85	250.44
517.03	280.86
517.20	369.80
517.37	304.27
517.54	402.57
517.72	411.93
517.89	351.08
518.06	320.65
518.24	351.08
518.41	369.80
518.58	383.85
518.75	332.36
518.93	313.63
519.10	339.38
519.27	341.72
519.45	351.08
519.62	397.89
519.79	428.32
519.96	306.61
520.14	383.85
520.31	348.74
520.48	435.34
520.65	414.27
520.83	383.85
521.00	334.70
521.17	344.06
521.34	395.55
521.52	346.40
521.69	409.59
521.86	330.02
522.03	414.27
522.20	393.21
522.38	304.27
522.55	332.36
522.72	360.44
522.89	418.96
523.07	538.32
523.24	341.72
523.41	458.74
523.58	475.13
523.75	524.28
523.92	311.29
524.10	461.09
524.27	461.09
524.44	433.00
524.61	411.93
524.78	444.70
524.96	358.10
525.13	407.25
525.30	454.06
525.47	423.64
525.64	346.40
525.81	393.21
525.98	334.70
526.16	379.17
526.33	362.78
526.50	351.08
526.67	297.25
526.84	388.53
527.01	334.70
527.18	409.59
527.36	341.72
527.53	334.70
527.70	369.80
527.87	465.77
528.04	461.09
528.21	400.23
528.38	400.23
528.55	362.78
528.72	414.27
528.89	496.19
529.07	440.02
529.24	376.83
529.41	440.02
529.58	369.80
529.75	337.04
529.92	521.94
530.09	503.22
530.26	491.51
530.43	456.40
530.60	442.36
530.77	435.34
530.94	416.62
531.11	437.68
531.28	402.57
531.46	353.42
531.63	393.21
531.80	482.15
531.97	418.96
532.14	325.33
532.31	362.78
532.48	367.46
532.65	411.93
532.82	325.33
532.99	418.96
533.16	433.00
533.33	367.46
533.50	437.68
533.67	358.10
533.84	402.57
534.01	440.02
534.18	372.15
534.35	367.46
534.52	372.15
534.69	423.64
534.86	418.96
535.03	376.83
535.20	318.31
535.37	337.04
535.54	379.17
535.71	440.02
535.88	433.00
536.05	416.62
536.22	407.25
536.38	390.87
536.55	315.97
536.72	430.66
536.89	372.15
537.06	409.59
537.23	365.12
537.40	383.85
537.57	409.59
537.74	348.74
537.91	447.04
538.08	535.98
538.25	461.09
538.42	428.32
538.59	425.98
538.75	404.91
538.92	416.62
539.09	358.10
539.26	404.91
539.43	465.77
539.60	430.66
539.77	353.42
539.94	409.59
540.11	362.78
540.28	360.44
540.44	472.79
540.61	341.72
540.78	266.82
540.95	360.44
541.12	423.64
541.29	339.38
541.46	304.27
541.62	301.93
541.79	393.21
541.96	400.23
542.13	372.15
542.30	362.78
542.47	306.61
542.63	388.53
542.80	362.78
542.97	383.85
543.14	400.23
543.31	425.98
543.48	386.19
543.64	423.64
543.81	348.74
543.98	360.44
544.15	402.57
544.32	397.89
544.48	395.55
544.65	287.89
544.82	397.89
544.99	383.85
545.16	423.64
545.32	376.83
545.49	395.55
545.66	330.02
545.83	444.70
546.00	341.72
546.16	407.25
546.33	423.64
546.50	355.76
546.67	407.25
546.83	304.27
547.00	383.85
547.17	383.85
547.34	367.46
547.50	365.12
547.67	437.68
547.84	393.21
548.00	386.19
548.17	308.95
548.34	365.12
548.51	365.12
548.67	470.45
548.84	390.87
549.01	376.83
549.18	322.99
549.34	425.98
549.51	362.78
549.68	341.72
549.84	322.99
550.01	362.78
550.18	526.62
550.34	465.77
550.51	393.21
550.68	414.27
550.84	395.55
551.01	402.57
551.18	400.23
551.34	351.08
551.51	414.27
551.68	351.08
551.84	367.46
552.01	367.46
552.18	400.23
552.34	358.10
552.51	287.89
552.68	383.85
552.84	346.40
553.01	353.42
553.18	418.96
553.34	461.09
553.51	362.78
553.67	416.62
553.84	465.77
554.01	463.43
554.17	383.85
554.34	433.00
554.51	393.21
554.67	379.17
554.84	404.91
555.00	428.32
555.17	433.00
555.33	376.83
555.50	369.80
555.67	433.00
555.83	330.02
556.00	337.04
556.16	589.82
556.33	411.93
556.50	433.00
556.66	325.33
556.83	341.72
556.99	355.76
557.16	388.53
557.32	290.23
557.49	355.76
557.65	388.53
557.82	339.38
557.98	306.61
558.15	351.08
558.32	315.97
558.48	252.78
558.65	374.49
558.81	369.80
558.98	411.93
559.14	383.85
559.31	386.19
559.47	404.91
559.64	332.36
559.80	374.49
559.97	308.95
560.13	351.08
560.30	367.46
560.46	416.62
560.63	386.19
560.79	383.85
560.96	454.06
561.12	388.53
561.29	365.12
561.45	358.10
561.61	369.80
561.78	416.62
561.94	421.30
562.11	376.83
562.27	315.97
562.44	339.38
562.60	353.42
562.77	369.80
562.93	444.70
563.10	332.36
563.26	339.38
563.42	409.59
563.59	402.57
563.75	433.00
563.92	374.49
564.08	339.38
564.24	393.21
564.41	437.68
564.57	418.96
564.74	425.98
564.90	435.34
565.07	444.70
565.23	381.51
565.39	416.62
565.56	322.99
565.72	358.10
565.88	334.70
566.05	367.46
566.21	344.06
566.38	325.33
566.54	425.98
566.70	344.06
566.87	379.17
567.03	362.78
567.19	456.40
567.36	386.19
567.52	379.17
567.68	397.89
567.85	351.08
568.01	346.40
568.17	369.80
568.34	365.12
568.50	367.46
568.66	320.65
568.83	381.51
568.99	330.02
569.15	418.96
569.32	355.76
569.48	381.51
569.64	386.19
569.81	414.27
569.97	294.91
570.13	390.87
570.30	400.23
570.46	320.65
570.62	262.14
570.78	346.40
570.95	367.46
571.11	365.12
571.27	325.33
571.43	297.25
571.60	369.80
571.76	374.49
571.92	358.10
572.09	299.59
572.25	358.10
572.41	374.49
572.57	341.72
572.74	442.36
572.90	353.42
573.06	348.74
573.22	397.89
573.38	322.99
573.55	379.17
573.71	344.06
573.87	362.78
574.03	311.29
574.20	304.27
574.36	355.76
574.52	367.46
574.68	397.89
574.84	367.46
575.01	423.64
575.17	411.93
575.33	367.46
575.49	407.25
575.65	351.08
575.82	360.44
575.98	327.68
576.14	390.87
576.30	327.68
576.46	287.89
576.62	355.76
576.79	327.68
576.95	374.49
577.11	294.91
577.27	304.27
577.43	294.91
577.59	442.36
577.75	346.40
577.92	327.68
578.08	374.49
578.24	325.33
578.40	402.57
578.56	393.21
578.72	330.02
578.88	369.80
579.04	320.65
579.21	444.70
579.37	400.23
579.53	348.74
579.69	397.89
579.85	386.19
580.01	372.15
580.17	318.31
580.33	318.31
580.49	285.55
580.65	327.68
580.82	390.87
580.98	360.44
581.14	341.72
581.30	383.85
581.46	416.62
581.62	318.31
581.78	381.51
581.94	353.42
582.10	390.87
582.26	353.42
582.42	287.89
582.58	416.62
582.74	348.74
582.90	414.27
583.06	355.76
583.22	346.40
583.38	334.70
583.54	322.99
583.70	421.30
583.86	376.83
584.02	365.12
584.18	351.08
584.34	395.55
584.50	283.20
584.66	416.62
584.82	360.44
584.98	388.53
585.14	308.95
585.30	372.15
585.46	327.68
585.62	306.61
585.78	273.84
585.94	421.30
586.10	372.15
586.26	390.87
586.42	404.91
586.58	341.72
586.74	334.70
586.90	313.63
587.06	379.17
587.22	397.89
587.38	269.16
587.54	346.40
587.70	397.89
587.86	306.61
588.02	386.19
588.18	346.40
588.34	348.74
588.49	283.20
588.65	292.57
588.81	257.46
588.97	304.27
589.13	308.95
589.29	259.80
589.45	262.14
589.61	276.18
589.77	327.68
589.93	339.38
590.08	304.27
590.24	283.20
590.40	372.15
590.56	341.72
590.72	304.27
590.88	285.55
591.04	308.95
591.20	280.86
591.35	292.57
591.51	365.12
591.67	250.44
591.83	306.61
591.99	320.65
592.15	332.36
592.31	257.46
592.46	248.10
592.62	325.33
592.78	297.25
592.94	330.02
593.10	283.20
593.26	276.18
593.41	306.61
593.57	313.63
593.73	297.25
593.89	283.20
594.05	330.02
594.20	201.29
594.36	353.42
594.52	308.95
594.68	250.44
594.84	297.25
594.99	337.04
595.15	297.25
595.31	390.87
595.47	250.44
595.62	372.15
595.78	315.97
595.94	325.33
596.10	379.17
596.25	276.18
596.41	299.59
596.57	273.84
596.73	383.85
596.88	290.23
597.04	294.91
597.20	304.27
597.36	287.89
597.51	395.55
597.67	353.42
597.83	346.40
597.99	346.40
598.14	344.06
598.30	365.12
598.46	285.55
598.61	374.49
598.77	334.70
598.93	301.93
599.09	332.36
599.24	367.46
599.40	337.04
599.56	358.10
599.71	379.17
599.87	259.80
600.03	276.18
600.18	325.33
600.34	325.33
600.50	390.87
600.65	255.12
600.81	330.02
600.97	325.33
601.12	308.95
601.28	337.04
601.44	341.72
601.59	231.71
601.75	327.68
601.91	245.76
602.06	318.31
602.22	383.85
602.37	327.68
602.53	346.40
602.69	423.64
602.84	306.61
603.00	315.97
603.16	362.78
603.31	346.40
603.47	360.44
603.62	409.59
603.78	290.23
603.94	423.64
604.09	390.87
604.25	311.29
604.40	306.61
604.56	315.97
604.71	344.06
604.87	297.25
605.03	341.72
605.18	339.38
605.34	353.42
605.49	334.70
605.65	299.59
605.80	229.37
605.96	337.04
606.12	339.38
606.27	339.38
606.43	212.99
606.58	376.83
606.74	269.16
606.89	320.65
607.05	346.40
607.20	344.06
607.36	313.63
607.51	337.04
607.67	294.91
607.82	276.18
607.98	308.95
608.13	430.66
608.29	294.91
608.44	304.27
608.60	318.31
608.75	306.61
608.91	365.12
609.06	334.70
609.22	358.10
609.37	306.61
609.53	344.06
609.68	285.55
609.84	308.95
609.99	290.23
610.15	231.71
610.30	311.29
610.46	355.76
610.61	304.27
610.76	236.39
610.92	358.10
611.07	203.63
611.23	306.61
611.38	318.31
