SpectraSuite Data File
++++++++++++++++++++++++++++++++++++
Date: Fri Oct 04 11:47:05 GMT-05:00 2013
User: price-jones
Dark Spectrum Present: No
Reference Spectrum Present: No
Number of Sampled Component Spectra: 1
Spectrometers: USB2+H05261
Integration Time (usec): 100000 (USB2+H05261)
Spectra Averaged: 1 (USB2+H05261)
Boxcar Smoothing: 0 (USB2+H05261)
Correct for Electrical Dark: No (USB2+H05261)
Strobe/Lamp Enabled: No (USB2+H05261)
Correct for Detector Non-linearity: No (USB2+H05261)
Correct for Stray Light: No (USB2+H05261)
Number of Pixels in Processed Spectrum: 2048
>>>>>Begin Processed Spectral Data<<<<<
365.73	23.41
365.92	23.41
366.12	23.41
366.32	0.00
366.52	0.00
366.72	0.00
366.91	0.00
367.11	0.00
367.31	0.00
367.51	0.00
367.70	0.00
367.90	0.00
368.10	0.00
368.30	0.00
368.49	0.00
368.69	0.00
368.89	0.00
369.09	0.00
369.28	0.00
369.48	0.00
369.68	0.00
369.87	42.13
370.07	0.00
370.27	0.00
370.47	35.11
370.66	0.00
370.86	49.15
371.06	25.75
371.25	112.35
371.45	2.34
371.65	9.36
371.84	58.51
372.04	86.60
372.24	44.47
372.44	65.54
372.63	44.47
372.83	37.45
373.03	58.51
373.22	107.66
373.42	65.54
373.62	74.90
373.81	88.94
374.01	142.77
374.21	112.35
374.40	93.62
374.60	107.66
374.79	175.54
374.99	98.30
375.19	81.92
375.38	65.54
375.58	126.39
375.78	156.82
375.97	98.30
376.17	117.03
376.37	46.81
376.56	84.26
376.76	77.24
376.95	93.62
377.15	74.90
377.35	124.05
377.54	56.17
377.74	65.54
377.93	79.58
378.13	100.64
378.33	107.66
378.52	74.90
378.72	128.73
378.91	93.62
379.11	131.07
379.31	114.69
379.50	112.35
379.70	114.69
379.89	98.30
380.09	77.24
380.28	112.35
380.48	53.83
380.68	88.94
380.87	100.64
381.07	135.75
381.26	67.88
381.46	67.88
381.65	86.60
381.85	58.51
382.04	98.30
382.24	91.28
382.43	42.13
382.63	44.47
382.83	74.90
383.02	156.82
383.22	105.32
383.41	79.58
383.61	124.05
383.80	159.16
384.00	84.26
384.19	56.17
384.39	44.47
384.58	35.11
384.78	86.60
384.97	81.92
385.17	100.64
385.36	46.81
385.56	95.96
385.75	84.26
385.95	77.24
386.14	98.30
386.34	177.88
386.53	84.26
386.72	119.37
386.92	149.79
387.11	121.71
387.31	23.41
387.50	95.96
387.70	98.30
387.89	63.19
388.09	60.85
388.28	74.90
388.48	86.60
388.67	65.54
388.86	128.73
389.06	117.03
389.25	126.39
389.45	138.09
389.64	81.92
389.84	133.41
390.03	49.15
390.22	152.13
390.42	126.39
390.61	100.64
390.81	102.98
391.00	79.58
391.19	168.52
391.39	65.54
391.58	95.96
391.78	84.26
391.97	39.79
392.16	14.04
392.36	142.77
392.55	135.75
392.75	84.26
392.94	63.19
393.13	107.66
393.33	35.11
393.52	93.62
393.71	0.00
393.91	84.26
394.10	77.24
394.29	100.64
394.49	126.39
394.68	156.82
394.88	86.60
395.07	147.45
395.26	156.82
395.46	100.64
395.65	126.39
395.84	138.09
396.04	156.82
396.23	0.00
396.42	60.85
396.62	119.37
396.81	128.73
397.00	133.41
397.19	156.82
397.39	44.47
397.58	102.98
397.77	128.73
397.97	49.15
398.16	65.54
398.35	147.45
398.55	56.17
398.74	37.45
398.93	138.09
399.12	131.07
399.32	145.11
399.51	37.45
399.70	107.66
399.90	121.71
400.09	163.84
400.28	128.73
400.47	77.24
400.67	119.37
400.86	91.28
401.05	98.30
401.24	131.07
401.44	133.41
401.63	105.32
401.82	117.03
402.01	72.56
402.21	70.22
402.40	121.71
402.59	65.54
402.78	121.71
402.97	95.96
403.17	100.64
403.36	98.30
403.55	119.37
403.74	135.75
403.93	74.90
404.13	131.07
404.32	91.28
404.51	93.62
404.70	77.24
404.89	91.28
405.09	131.07
405.28	79.58
405.47	77.24
405.66	119.37
405.85	107.66
406.05	81.92
406.24	25.75
406.43	168.52
406.62	91.28
406.81	128.73
407.00	177.88
407.20	93.62
407.39	86.60
407.58	16.38
407.77	234.05
407.96	70.22
408.15	119.37
408.34	91.28
408.54	126.39
408.73	119.37
408.92	77.24
409.11	105.32
409.30	182.56
409.49	86.60
409.68	95.96
409.87	154.48
410.07	107.66
410.26	177.88
410.45	196.60
410.64	121.71
410.83	105.32
411.02	60.85
411.21	93.62
411.40	44.47
411.59	154.48
411.78	133.41
411.98	128.73
412.17	98.30
412.36	173.20
412.55	74.90
412.74	84.26
412.93	201.29
413.12	84.26
413.31	51.49
413.50	60.85
413.69	140.43
413.88	138.09
414.07	98.30
414.26	95.96
414.45	95.96
414.64	119.37
414.83	98.30
415.02	98.30
415.22	168.52
415.41	114.69
415.60	124.05
415.79	44.47
415.98	131.07
416.17	102.98
416.36	110.01
416.55	138.09
416.74	145.11
416.93	110.01
417.12	128.73
417.31	114.69
417.50	182.56
417.69	147.45
417.88	189.58
418.07	161.50
418.26	135.75
418.45	145.11
418.64	161.50
418.83	180.22
419.02	117.03
419.21	135.75
419.39	128.73
419.58	147.45
419.77	170.86
419.96	166.18
420.15	140.43
420.34	154.48
420.53	145.11
420.72	91.28
420.91	147.45
421.10	168.52
421.29	49.15
421.48	128.73
421.67	117.03
421.86	170.86
422.05	133.41
422.24	102.98
422.43	131.07
422.61	93.62
422.80	70.22
422.99	84.26
423.18	49.15
423.37	107.66
423.56	140.43
423.75	126.39
423.94	131.07
424.13	147.45
424.32	46.81
424.50	95.96
424.69	173.20
424.88	152.13
425.07	107.66
425.26	182.56
425.45	170.86
425.64	175.54
425.83	100.64
426.01	152.13
426.20	128.73
426.39	147.45
426.58	67.88
426.77	46.81
426.96	189.58
427.15	95.96
427.33	191.92
427.52	166.18
427.71	107.66
427.90	124.05
428.09	93.62
428.28	88.94
428.46	149.79
428.65	91.28
428.84	110.01
429.03	102.98
429.22	88.94
429.40	70.22
429.59	93.62
429.78	131.07
429.97	201.29
430.16	67.88
430.34	42.13
430.53	65.54
430.72	170.86
430.91	105.32
431.10	126.39
431.28	124.05
431.47	159.16
431.66	81.92
431.85	110.01
432.03	154.48
432.22	229.37
432.41	154.48
432.60	140.43
432.79	145.11
432.97	248.10
433.16	184.90
433.35	159.16
433.54	95.96
433.72	149.79
433.91	128.73
434.10	60.85
434.28	149.79
434.47	84.26
434.66	124.05
434.85	170.86
435.03	140.43
435.22	102.98
435.41	191.92
435.59	156.82
435.78	163.84
435.97	121.71
436.16	156.82
436.34	152.13
436.53	161.50
436.72	154.48
436.90	128.73
437.09	100.64
437.28	124.05
437.46	110.01
437.65	194.26
437.84	184.90
438.02	131.07
438.21	159.16
438.40	114.69
438.58	159.16
438.77	159.16
438.96	81.92
439.14	79.58
439.33	98.30
439.52	117.03
439.70	215.33
439.89	145.11
440.08	117.03
440.26	133.41
440.45	161.50
440.63	121.71
440.82	119.37
441.01	79.58
441.19	56.17
441.38	107.66
441.57	131.07
441.75	177.88
441.94	187.24
442.12	117.03
442.31	81.92
442.50	138.09
442.68	194.26
442.87	74.90
443.05	154.48
443.24	117.03
443.43	126.39
443.61	163.84
443.80	154.48
443.98	138.09
444.17	138.09
444.35	208.31
444.54	142.77
444.73	121.71
444.91	159.16
445.10	102.98
445.28	88.94
445.47	154.48
445.65	131.07
445.84	128.73
446.02	79.58
446.21	81.92
446.39	138.09
446.58	107.66
446.77	53.83
446.95	112.35
447.14	95.96
447.32	196.60
447.51	119.37
447.69	180.22
447.88	145.11
448.06	182.56
448.25	14.04
448.43	65.54
448.62	93.62
448.80	117.03
448.99	119.37
449.17	135.75
449.36	177.88
449.54	161.50
449.73	212.99
449.91	124.05
450.10	147.45
450.28	166.18
450.46	234.05
450.65	135.75
450.83	149.79
451.02	138.09
451.20	189.58
451.39	189.58
451.57	154.48
451.76	175.54
451.94	72.56
452.13	196.60
452.31	112.35
452.49	119.37
452.68	126.39
452.86	126.39
453.05	215.33
453.23	86.60
453.42	117.03
453.60	84.26
453.78	156.82
453.97	53.83
454.15	25.75
454.34	63.19
454.52	105.32
454.70	147.45
454.89	203.63
455.07	131.07
455.26	140.43
455.44	81.92
455.62	105.32
455.81	156.82
455.99	191.92
456.17	121.71
456.36	105.32
456.54	147.45
456.73	128.73
456.91	128.73
457.09	133.41
457.28	114.69
457.46	166.18
457.64	142.77
457.83	105.32
458.01	117.03
458.19	110.01
458.38	114.69
458.56	180.22
458.74	175.54
458.93	163.84
459.11	135.75
459.29	128.73
459.48	177.88
459.66	166.18
459.84	177.88
460.03	220.01
460.21	248.10
460.39	191.92
460.57	131.07
460.76	177.88
460.94	70.22
461.12	147.45
461.31	135.75
461.49	203.63
461.67	131.07
461.85	107.66
462.04	110.01
462.22	587.47
462.40	238.73
462.59	177.88
462.77	117.03
462.95	210.65
463.13	191.92
463.32	107.66
463.50	152.13
463.68	163.84
463.86	152.13
464.05	142.77
464.23	170.86
464.41	175.54
464.59	51.49
464.78	135.75
464.96	133.41
465.14	135.75
465.32	173.20
465.50	142.77
465.69	135.75
465.87	86.60
466.05	152.13
466.23	79.58
466.41	191.92
466.60	124.05
466.78	138.09
466.96	65.54
467.14	128.73
467.32	86.60
467.51	145.11
467.69	140.43
467.87	159.16
468.05	196.60
468.23	189.58
468.41	173.20
468.60	187.24
468.78	88.94
468.96	166.18
469.14	133.41
469.32	105.32
469.50	163.84
469.69	124.05
469.87	238.73
470.05	138.09
470.23	191.92
470.41	100.64
470.59	119.37
470.77	145.11
470.95	198.95
471.14	135.75
471.32	112.35
471.50	135.75
471.68	60.85
471.86	138.09
472.04	126.39
472.22	177.88
472.40	191.92
472.58	128.73
472.77	196.60
472.95	166.18
473.13	173.20
473.31	102.98
473.49	147.45
473.67	110.01
473.85	114.69
474.03	91.28
474.21	117.03
474.39	161.50
474.57	175.54
474.75	86.60
474.93	114.69
475.12	74.90
475.30	142.77
475.48	149.79
475.66	142.77
475.84	110.01
476.02	166.18
476.20	201.29
476.38	117.03
476.56	243.42
476.74	184.90
476.92	166.18
477.10	124.05
477.28	177.88
477.46	187.24
477.64	210.65
477.82	138.09
478.00	102.98
478.18	201.29
478.36	112.35
478.54	173.20
478.72	81.92
478.90	124.05
479.08	222.35
479.26	128.73
479.44	114.69
479.62	220.01
479.80	121.71
479.98	175.54
480.16	112.35
480.34	95.96
480.52	149.79
480.70	163.84
480.88	114.69
481.06	112.35
481.24	140.43
481.41	91.28
481.59	231.71
481.77	149.79
481.95	152.13
482.13	184.90
482.31	149.79
482.49	100.64
482.67	102.98
482.85	154.48
483.03	135.75
483.21	166.18
483.39	114.69
483.57	177.88
483.74	194.26
483.92	126.39
484.10	77.24
484.28	229.37
484.46	135.75
484.64	133.41
484.82	140.43
485.00	105.32
485.18	161.50
485.35	135.75
485.53	205.97
485.71	147.45
485.89	81.92
486.07	149.79
486.25	257.46
486.43	184.90
486.61	124.05
486.78	121.71
486.96	222.35
487.14	205.97
487.32	126.39
487.50	163.84
487.68	187.24
487.85	170.86
488.03	168.52
488.21	203.63
488.39	227.03
488.57	189.58
488.75	138.09
488.92	390.87
489.10	147.45
489.28	238.73
489.46	170.86
489.64	175.54
489.81	154.48
489.99	159.16
490.17	161.50
490.35	180.22
490.53	149.79
490.70	117.03
490.88	205.97
491.06	177.88
491.24	234.05
491.41	166.18
491.59	175.54
491.77	84.26
491.95	156.82
492.13	149.79
492.30	180.22
492.48	201.29
492.66	238.73
492.84	110.01
493.01	189.58
493.19	110.01
493.37	205.97
493.54	191.92
493.72	166.18
493.90	189.58
494.08	257.46
494.25	180.22
494.43	138.09
494.61	201.29
494.79	81.92
494.96	131.07
495.14	208.31
495.32	81.92
495.49	168.52
495.67	142.77
495.85	163.84
496.02	156.82
496.20	177.88
496.38	152.13
496.55	241.08
496.73	283.20
496.91	201.29
497.09	177.88
497.26	152.13
497.44	217.67
497.62	140.43
497.79	177.88
497.97	128.73
498.14	184.90
498.32	187.24
498.50	212.99
498.67	184.90
498.85	182.56
499.03	119.37
499.20	131.07
499.38	131.07
499.56	117.03
499.73	138.09
499.91	234.05
500.08	245.76
500.26	107.66
500.44	187.24
500.61	210.65
500.79	177.88
500.97	210.65
501.14	189.58
501.32	243.42
501.49	217.67
501.67	182.56
501.84	208.31
502.02	189.58
502.20	170.86
502.37	196.60
502.55	212.99
502.72	264.48
502.90	182.56
503.07	194.26
503.25	187.24
503.43	203.63
503.60	187.24
503.78	238.73
503.95	264.48
504.13	175.54
504.30	133.41
504.48	220.01
504.65	243.42
504.83	170.86
505.01	182.56
505.18	191.92
505.36	238.73
505.53	215.33
505.71	205.97
505.88	271.50
506.06	173.20
506.23	159.16
506.41	175.54
506.58	177.88
506.76	168.52
506.93	191.92
507.11	95.96
507.28	168.52
507.46	142.77
507.63	161.50
507.81	173.20
507.98	196.60
508.16	205.97
508.33	159.16
508.50	266.82
508.68	163.84
508.85	224.69
509.03	194.26
509.20	175.54
509.38	187.24
509.55	161.50
509.73	236.39
509.90	208.31
510.08	105.32
510.25	187.24
510.42	131.07
510.60	180.22
510.77	231.71
510.95	217.67
511.12	198.95
511.30	173.20
511.47	280.86
511.64	259.80
511.82	205.97
511.99	135.75
512.17	131.07
512.34	161.50
512.51	189.58
512.69	166.18
512.86	234.05
513.04	163.84
513.21	191.92
513.38	236.39
513.56	250.44
513.73	173.20
513.90	112.35
514.08	203.63
514.25	173.20
514.43	201.29
514.60	177.88
514.77	191.92
514.95	145.11
515.12	182.56
515.29	182.56
515.47	205.97
515.64	255.12
515.81	201.29
515.99	210.65
516.16	159.16
516.33	241.08
516.51	224.69
516.68	175.54
516.85	147.45
517.03	262.14
517.20	145.11
517.37	208.31
517.54	180.22
517.72	177.88
517.89	208.31
518.06	182.56
518.24	224.69
518.41	245.76
518.58	292.57
518.75	276.18
518.93	161.50
519.10	177.88
519.27	149.79
519.45	166.18
519.62	163.84
519.79	189.58
519.96	229.37
520.14	212.99
520.31	163.84
520.48	173.20
520.65	227.03
520.83	187.24
521.00	205.97
521.17	210.65
521.34	173.20
521.52	231.71
521.69	210.65
521.86	184.90
522.03	163.84
522.20	283.20
522.38	152.13
522.55	229.37
522.72	131.07
522.89	241.08
523.07	224.69
523.24	205.97
523.41	238.73
523.58	187.24
523.75	142.77
523.92	170.86
524.10	212.99
524.27	128.73
524.44	175.54
524.61	182.56
524.78	280.86
524.96	224.69
525.13	177.88
525.30	212.99
525.47	220.01
525.64	142.77
525.81	147.45
525.98	248.10
526.16	252.78
526.33	217.67
526.50	201.29
526.67	117.03
526.84	229.37
527.01	196.60
527.18	177.88
527.36	215.33
527.53	154.48
527.70	248.10
527.87	217.67
528.04	222.35
528.21	175.54
528.38	224.69
528.55	241.08
528.72	236.39
528.89	252.78
529.07	220.01
529.24	273.84
529.41	252.78
529.58	248.10
529.75	163.84
529.92	229.37
530.09	203.63
530.26	313.63
530.43	180.22
530.60	156.82
530.77	198.95
530.94	257.46
531.11	234.05
531.28	161.50
531.46	198.95
531.63	217.67
531.80	280.86
531.97	205.97
532.14	100.64
532.31	166.18
532.48	180.22
532.65	229.37
532.82	217.67
532.99	234.05
533.16	271.50
533.33	212.99
533.50	189.58
533.67	250.44
533.84	259.80
534.01	313.63
534.18	243.42
534.35	332.36
534.52	203.63
534.69	313.63
534.86	220.01
535.03	292.57
535.20	147.45
535.37	280.86
535.54	315.97
535.71	198.95
535.88	264.48
536.05	203.63
536.22	245.76
536.38	184.90
536.55	208.31
536.72	266.82
536.89	196.60
537.06	166.18
537.23	182.56
537.40	264.48
537.57	198.95
537.74	292.57
537.91	161.50
538.08	255.12
538.25	266.82
538.42	227.03
538.59	308.95
538.75	222.35
538.92	191.92
539.09	217.67
539.26	182.56
539.43	423.64
539.60	580.45
539.77	821.53
539.94	840.25
540.11	580.45
540.28	433.00
540.44	341.72
540.61	234.05
540.78	215.33
540.95	175.54
541.12	208.31
541.29	168.52
541.46	208.31
541.62	299.59
541.79	241.08
541.96	198.95
542.13	208.31
542.30	159.16
542.47	234.05
542.63	215.33
542.80	201.29
542.97	241.08
543.14	170.86
543.31	154.48
543.48	166.18
543.64	210.65
543.81	266.82
543.98	220.01
544.15	224.69
544.32	140.43
544.48	180.22
544.65	161.50
544.82	227.03
544.99	194.26
545.16	198.95
545.32	220.01
545.49	210.65
545.66	231.71
545.83	203.63
546.00	201.29
546.16	243.42
546.33	145.11
546.50	163.84
546.67	201.29
546.83	191.92
547.00	182.56
547.17	180.22
547.34	231.71
547.50	231.71
547.67	222.35
547.84	191.92
548.00	128.73
548.17	191.92
548.34	220.01
548.51	245.76
548.67	231.71
548.84	196.60
549.01	152.13
549.18	262.14
549.34	191.92
549.51	212.99
549.68	159.16
549.84	250.44
550.01	196.60
550.18	241.08
550.34	220.01
550.51	205.97
550.68	262.14
550.84	180.22
551.01	163.84
551.18	156.82
551.34	203.63
551.51	189.58
551.68	105.32
551.84	191.92
552.01	222.35
552.18	191.92
552.34	177.88
552.51	198.95
552.68	262.14
552.84	126.39
553.01	252.78
553.18	191.92
553.34	175.54
553.51	198.95
553.67	198.95
553.84	313.63
554.01	205.97
554.17	201.29
554.34	133.41
554.51	234.05
554.67	175.54
554.84	292.57
555.00	194.26
555.17	203.63
555.33	220.01
555.50	210.65
555.67	236.39
555.83	201.29
556.00	191.92
556.16	341.72
556.33	220.01
556.50	184.90
556.66	110.01
556.83	133.41
556.99	142.77
557.16	182.56
557.32	189.58
557.49	224.69
557.65	173.20
557.82	236.39
557.98	205.97
558.15	177.88
558.32	217.67
558.48	142.77
558.65	252.78
558.81	189.58
558.98	196.60
559.14	140.43
559.31	191.92
559.47	234.05
559.64	128.73
559.80	210.65
559.97	245.76
560.13	231.71
560.30	121.71
560.46	189.58
560.63	264.48
560.79	191.92
560.96	154.48
561.12	182.56
561.29	177.88
561.45	217.67
561.61	131.07
561.78	215.33
561.94	222.35
562.11	173.20
562.27	152.13
562.44	88.94
562.60	187.24
562.77	208.31
562.93	248.10
563.10	222.35
563.26	257.46
563.42	243.42
563.59	173.20
563.75	152.13
563.92	271.50
564.08	259.80
564.24	177.88
564.41	138.09
564.57	271.50
564.74	177.88
564.90	182.56
565.07	287.89
565.23	273.84
565.39	196.60
565.56	259.80
565.72	191.92
565.88	140.43
566.05	184.90
566.21	145.11
566.38	231.71
566.54	196.60
566.70	156.82
566.87	187.24
567.03	212.99
567.19	194.26
567.36	248.10
567.52	124.05
567.68	229.37
567.85	222.35
568.01	152.13
568.17	196.60
568.34	276.18
568.50	234.05
568.66	234.05
568.83	217.67
568.99	184.90
569.15	304.27
569.32	245.76
569.48	117.03
569.64	175.54
569.81	278.52
569.97	173.20
570.13	180.22
570.30	145.11
570.46	210.65
570.62	212.99
570.78	135.75
570.95	248.10
571.11	266.82
571.27	215.33
571.43	163.84
571.60	234.05
571.76	156.82
571.92	173.20
572.09	173.20
572.25	205.97
572.41	273.84
572.57	210.65
572.74	173.20
572.90	170.86
573.06	269.16
573.22	159.16
573.38	243.42
573.55	234.05
573.71	189.58
573.87	212.99
574.03	159.16
574.20	173.20
574.36	271.50
574.52	252.78
574.68	234.05
574.84	276.18
575.01	194.26
575.17	203.63
575.33	145.11
575.49	208.31
575.65	231.71
575.82	248.10
575.98	374.49
576.14	423.64
576.30	470.45
576.46	376.83
576.62	334.70
576.79	262.14
576.95	245.76
577.11	212.99
577.27	163.84
577.43	269.16
577.59	269.16
577.75	173.20
577.92	241.08
578.08	212.99
578.24	177.88
578.40	297.25
578.56	252.78
578.72	201.29
578.88	241.08
579.04	271.50
579.21	191.92
579.37	311.29
579.53	105.32
579.69	245.76
579.85	196.60
580.01	257.46
580.17	297.25
580.33	301.93
580.49	238.73
580.65	262.14
580.82	217.67
580.98	299.59
581.14	227.03
581.30	294.91
581.46	341.72
581.62	285.55
581.78	404.91
581.94	400.23
582.10	379.17
582.26	245.76
582.42	205.97
582.58	306.61
582.74	269.16
582.90	346.40
583.06	311.29
583.22	229.37
583.38	308.95
583.54	297.25
583.70	428.32
583.86	411.93
584.02	440.02
584.18	568.75
584.34	704.50
584.50	1795.19
584.66	13350.42
584.82	33146.67
584.98	44229.10
585.14	38763.95
585.30	24060.71
585.46	14356.85
585.62	8791.05
585.78	4236.37
585.94	1682.85
586.10	809.83
586.26	594.50
586.42	521.94
586.58	486.83
586.74	386.19
586.90	428.32
587.06	407.25
587.22	374.49
587.38	332.36
587.54	737.27
587.70	1963.71
587.86	3110.57
588.02	3190.15
588.18	2284.36
588.34	1507.30
588.49	938.55
588.65	578.11
588.81	418.96
588.97	182.56
589.13	161.50
589.29	236.39
589.45	236.39
589.61	222.35
589.77	269.16
589.93	276.18
590.08	229.37
590.24	287.89
590.40	334.70
590.56	189.58
590.72	283.20
590.88	205.97
591.04	212.99
591.20	222.35
591.35	266.82
591.51	173.20
591.67	156.82
591.83	280.86
591.99	262.14
592.15	180.22
592.31	234.05
592.46	229.37
592.62	245.76
592.78	262.14
592.94	205.97
593.10	231.71
593.26	238.73
593.41	262.14
593.57	285.55
593.73	404.91
593.89	1675.82
594.05	4114.66
594.20	5493.24
594.36	5214.71
594.52	3421.86
594.68	2113.50
594.84	1446.45
594.99	812.17
595.15	416.62
595.31	301.93
595.47	386.19
595.62	278.52
595.78	241.08
595.94	222.35
596.10	212.99
596.25	208.31
596.41	229.37
596.57	273.84
596.73	269.16
596.88	425.98
597.04	793.44
597.20	1217.08
597.36	1444.11
597.51	1027.50
597.67	732.59
597.83	589.82
597.99	493.85
598.14	292.57
598.30	280.86
598.46	210.65
598.61	245.76
598.77	231.71
598.93	156.82
599.09	205.97
599.24	189.58
599.40	243.42
599.56	252.78
599.71	252.78
599.87	205.97
600.03	154.48
600.18	264.48
600.34	182.56
600.50	191.92
600.65	142.77
600.81	212.99
600.97	182.56
601.12	243.42
601.28	238.73
601.44	138.09
601.59	107.66
601.75	124.05
601.91	205.97
602.06	262.14
602.22	315.97
602.37	489.17
602.53	1018.13
602.69	1521.35
602.84	1394.96
603.00	1053.24
603.16	730.25
603.31	559.39
603.47	447.04
603.62	166.18
603.78	332.36
603.94	299.59
604.09	201.29
604.25	215.33
604.40	229.37
604.56	203.63
604.71	243.42
604.87	243.42
605.03	241.08
605.18	236.39
605.34	266.82
605.49	224.69
605.65	182.56
605.80	205.97
605.96	257.46
606.12	210.65
606.27	205.97
606.43	252.78
606.58	259.80
606.74	561.73
606.89	2076.06
607.05	3665.28
607.20	4566.39
607.36	3770.60
607.51	2623.74
607.67	1776.47
607.82	1205.38
607.98	732.59
608.13	379.17
608.29	311.29
608.44	285.55
608.60	299.59
608.75	308.95
608.91	732.59
609.06	3129.30
609.22	6106.46
609.37	7988.25
609.53	6862.45
609.68	4500.85
609.84	3063.76
609.99	2092.44
610.15	1102.39
610.30	610.88
610.46	379.17
610.61	283.20
610.76	299.59
610.92	231.71
611.07	238.73
611.23	294.91
611.38	259.80
611.54	238.73
611.69	184.90
611.84	264.48
612.00	234.05
612.15	276.18
612.31	325.33
