SpectraSuite Data File
++++++++++++++++++++++++++++++++++++
Date: Fri Oct 04 11:46:58 GMT-05:00 2013
User: price-jones
Dark Spectrum Present: No
Reference Spectrum Present: No
Number of Sampled Component Spectra: 1
Spectrometers: USB2+H05261
Integration Time (usec): 100000 (USB2+H05261)
Spectra Averaged: 1 (USB2+H05261)
Boxcar Smoothing: 0 (USB2+H05261)
Correct for Electrical Dark: No (USB2+H05261)
Strobe/Lamp Enabled: No (USB2+H05261)
Correct for Detector Non-linearity: No (USB2+H05261)
Correct for Stray Light: No (USB2+H05261)
Number of Pixels in Processed Spectrum: 2048
>>>>>Begin Processed Spectral Data<<<<<
365.73	65.54
365.92	65.54
366.12	65.54
366.32	0.00
366.52	0.00
366.72	0.00
366.91	0.00
367.11	0.00
367.31	0.00
367.51	0.00
367.70	4.68
367.90	0.00
368.10	0.00
368.30	0.00
368.49	0.00
368.69	0.00
368.89	0.00
369.09	0.00
369.28	0.00
369.48	0.00
369.68	0.00
369.87	2.34
370.07	0.00
370.27	11.70
370.47	0.00
370.66	0.00
370.86	0.00
371.06	0.00
371.25	63.19
371.45	70.22
371.65	42.13
371.84	114.69
372.04	56.17
372.24	126.39
372.44	102.98
372.63	91.28
372.83	102.98
373.03	70.22
373.22	74.90
373.42	46.81
373.62	46.81
373.81	163.84
374.01	128.73
374.21	88.94
374.40	42.13
374.60	105.32
374.79	63.19
374.99	56.17
375.19	110.01
375.38	102.98
375.58	107.66
375.78	133.41
375.97	135.75
376.17	121.71
376.37	72.56
376.56	102.98
376.76	117.03
376.95	49.15
377.15	84.26
377.35	154.48
377.54	0.00
377.74	86.60
377.93	84.26
378.13	159.16
378.33	86.60
378.52	93.62
378.72	39.79
378.91	60.85
379.11	95.96
379.31	58.51
379.50	102.98
379.70	65.54
379.89	79.58
380.09	86.60
380.28	65.54
380.48	37.45
380.68	51.49
380.87	14.04
381.07	93.62
381.26	159.16
381.46	149.79
381.65	81.92
381.85	65.54
382.04	133.41
382.24	119.37
382.43	88.94
382.63	65.54
382.83	46.81
383.02	128.73
383.22	100.64
383.41	105.32
383.61	81.92
383.80	49.15
384.00	72.56
384.19	112.35
384.39	32.77
384.58	114.69
384.78	56.17
384.97	46.81
385.17	91.28
385.36	119.37
385.56	133.41
385.75	124.05
385.95	58.51
386.14	114.69
386.34	93.62
386.53	105.32
386.72	112.35
386.92	72.56
387.11	37.45
387.31	65.54
387.50	25.75
387.70	70.22
387.89	88.94
388.09	131.07
388.28	67.88
388.48	58.51
388.67	100.64
388.86	70.22
389.06	60.85
389.25	124.05
389.45	121.71
389.64	63.19
389.84	149.79
390.03	91.28
390.22	30.43
390.42	119.37
390.61	39.79
390.81	63.19
391.00	198.95
391.19	93.62
391.39	124.05
391.58	168.52
391.78	28.09
391.97	119.37
392.16	44.47
392.36	88.94
392.55	49.15
392.75	23.41
392.94	114.69
393.13	110.01
393.33	102.98
393.52	112.35
393.71	156.82
393.91	93.62
394.10	65.54
394.29	124.05
394.49	98.30
394.68	91.28
394.88	159.16
395.07	145.11
395.26	77.24
395.46	119.37
395.65	126.39
395.84	128.73
396.04	173.20
396.23	166.18
396.42	70.22
396.62	145.11
396.81	74.90
397.00	112.35
397.19	9.36
397.39	81.92
397.58	189.58
397.77	77.24
397.97	23.41
398.16	67.88
398.35	91.28
398.55	133.41
398.74	77.24
398.93	63.19
399.12	161.50
399.32	145.11
399.51	114.69
399.70	166.18
399.90	128.73
400.09	142.77
400.28	124.05
400.47	95.96
400.67	149.79
400.86	18.72
401.05	131.07
401.24	86.60
401.44	140.43
401.63	88.94
401.82	114.69
402.01	98.30
402.21	91.28
402.40	91.28
402.59	102.98
402.78	98.30
402.97	84.26
403.17	72.56
403.36	119.37
403.55	133.41
403.74	212.99
403.93	140.43
404.13	37.45
404.32	166.18
404.51	124.05
404.70	152.13
404.89	51.49
405.09	159.16
405.28	67.88
405.47	102.98
405.66	154.48
405.85	119.37
406.05	121.71
406.24	124.05
406.43	70.22
406.62	88.94
406.81	119.37
407.00	114.69
407.20	98.30
407.39	131.07
407.58	60.85
407.77	100.64
407.96	93.62
408.15	98.30
408.34	67.88
408.54	145.11
408.73	30.43
408.92	100.64
409.11	140.43
409.30	114.69
409.49	91.28
409.68	117.03
409.87	126.39
410.07	65.54
410.26	107.66
410.45	79.58
410.64	131.07
410.83	63.19
411.02	79.58
411.21	98.30
411.40	184.90
411.59	138.09
411.78	72.56
411.98	107.66
412.17	114.69
412.36	110.01
412.55	145.11
412.74	35.11
412.93	128.73
413.12	152.13
413.31	124.05
413.50	117.03
413.69	112.35
413.88	173.20
414.07	100.64
414.26	166.18
414.45	84.26
414.64	131.07
414.83	88.94
415.02	91.28
415.22	107.66
415.41	173.20
415.60	124.05
415.79	102.98
415.98	154.48
416.17	9.36
416.36	42.13
416.55	107.66
416.74	168.52
416.93	131.07
417.12	114.69
417.31	16.38
417.50	93.62
417.69	194.26
417.88	210.65
418.07	159.16
418.26	142.77
418.45	184.90
418.64	182.56
418.83	191.92
419.02	241.08
419.21	194.26
419.39	208.31
419.58	224.69
419.77	194.26
419.96	161.50
420.15	74.90
420.34	102.98
420.53	86.60
420.72	152.13
420.91	152.13
421.10	110.01
421.29	159.16
421.48	163.84
421.67	152.13
421.86	117.03
422.05	117.03
422.24	0.00
422.43	140.43
422.61	121.71
422.80	161.50
422.99	133.41
423.18	88.94
423.37	140.43
423.56	49.15
423.75	114.69
423.94	91.28
424.13	65.54
424.32	74.90
424.50	86.60
424.69	147.45
424.88	168.52
425.07	98.30
425.26	154.48
425.45	215.33
425.64	198.95
425.83	238.73
426.01	126.39
426.20	133.41
426.39	142.77
426.58	88.94
426.77	175.54
426.96	147.45
427.15	168.52
427.33	175.54
427.52	170.86
427.71	131.07
427.90	107.66
428.09	126.39
428.28	91.28
428.46	53.83
428.65	114.69
428.84	131.07
429.03	147.45
429.22	112.35
429.40	175.54
429.59	149.79
429.78	177.88
429.97	110.01
430.16	70.22
430.34	63.19
430.53	51.49
430.72	56.17
430.91	124.05
431.10	63.19
431.28	133.41
431.47	168.52
431.66	117.03
431.85	102.98
432.03	110.01
432.22	170.86
432.41	142.77
432.60	173.20
432.79	98.30
432.97	248.10
433.16	203.63
433.35	229.37
433.54	138.09
433.72	168.52
433.91	194.26
434.10	166.18
434.28	170.86
434.47	77.24
434.66	124.05
434.85	168.52
435.03	91.28
435.22	110.01
435.41	133.41
435.59	124.05
435.78	124.05
435.97	142.77
436.16	135.75
436.34	149.79
436.53	124.05
436.72	133.41
436.90	166.18
437.09	145.11
437.28	133.41
437.46	145.11
437.65	142.77
437.84	187.24
438.02	159.16
438.21	23.41
438.40	194.26
438.58	25.75
438.77	135.75
438.96	81.92
439.14	102.98
439.33	112.35
439.52	32.77
439.70	152.13
439.89	126.39
440.08	121.71
440.26	208.31
440.45	217.67
440.63	117.03
440.82	156.82
441.01	187.24
441.19	131.07
441.38	149.79
441.57	86.60
441.75	220.01
441.94	128.73
442.12	156.82
442.31	91.28
442.50	156.82
442.68	98.30
442.87	149.79
443.05	86.60
443.24	131.07
443.43	191.92
443.61	205.97
443.80	133.41
443.98	119.37
444.17	215.33
444.35	131.07
444.54	135.75
444.73	159.16
444.91	149.79
445.10	135.75
445.28	163.84
445.47	105.32
445.65	124.05
445.84	147.45
446.02	196.60
446.21	149.79
446.39	149.79
446.58	152.13
446.77	93.62
446.95	189.58
447.14	180.22
447.32	184.90
447.51	124.05
447.69	135.75
447.88	154.48
448.06	187.24
448.25	63.19
448.43	175.54
448.62	46.81
448.80	100.64
448.99	98.30
449.17	100.64
449.36	105.32
449.54	145.11
449.73	102.98
449.91	152.13
450.10	84.26
450.28	189.58
450.46	180.22
450.65	131.07
450.83	180.22
451.02	168.52
451.20	177.88
451.39	107.66
451.57	93.62
451.76	145.11
451.94	159.16
452.13	168.52
452.31	126.39
452.49	194.26
452.68	156.82
452.86	110.01
453.05	215.33
453.23	124.05
453.42	58.51
453.60	145.11
453.78	149.79
453.97	107.66
454.15	72.56
454.34	95.96
454.52	182.56
454.70	170.86
454.89	135.75
455.07	37.45
455.26	102.98
455.44	182.56
455.62	145.11
455.81	121.71
455.99	177.88
456.17	208.31
456.36	81.92
456.54	102.98
456.73	227.03
456.91	53.83
457.09	140.43
457.28	138.09
457.46	79.58
457.64	105.32
457.83	149.79
458.01	126.39
458.19	135.75
458.38	114.69
458.56	121.71
458.74	42.13
458.93	175.54
459.11	177.88
459.29	81.92
459.48	166.18
459.66	159.16
459.84	100.64
460.03	177.88
460.21	140.43
460.39	177.88
460.57	182.56
460.76	149.79
460.94	81.92
461.12	177.88
461.31	215.33
461.49	119.37
461.67	147.45
461.85	142.77
462.04	124.05
462.22	585.13
462.40	93.62
462.59	156.82
462.77	112.35
462.95	110.01
463.13	128.73
463.32	131.07
463.50	77.24
463.68	170.86
463.86	196.60
464.05	152.13
464.23	117.03
464.41	168.52
464.59	28.09
464.78	168.52
464.96	107.66
465.14	191.92
465.32	149.79
465.50	91.28
465.69	173.20
465.87	149.79
466.05	163.84
466.23	166.18
466.41	49.15
466.60	166.18
466.78	126.39
466.96	138.09
467.14	133.41
467.32	156.82
467.51	117.03
467.69	93.62
467.87	175.54
468.05	147.45
468.23	287.89
468.41	147.45
468.60	105.32
468.78	149.79
468.96	105.32
469.14	77.24
469.32	175.54
469.50	114.69
469.69	112.35
469.87	105.32
470.05	147.45
470.23	220.01
470.41	140.43
470.59	114.69
470.77	159.16
470.95	159.16
471.14	154.48
471.32	126.39
471.50	124.05
471.68	189.58
471.86	201.29
472.04	131.07
472.22	205.97
472.40	250.44
472.58	114.69
472.77	191.92
472.95	194.26
473.13	152.13
473.31	133.41
473.49	152.13
473.67	124.05
473.85	166.18
474.03	124.05
474.21	198.95
474.39	159.16
474.57	126.39
474.75	149.79
474.93	147.45
475.12	81.92
475.30	121.71
475.48	168.52
475.66	208.31
475.84	156.82
476.02	107.66
476.20	124.05
476.38	117.03
476.56	208.31
476.74	117.03
476.92	196.60
477.10	196.60
477.28	189.58
477.46	152.13
477.64	229.37
477.82	168.52
478.00	135.75
478.18	88.94
478.36	133.41
478.54	95.96
478.72	140.43
478.90	133.41
479.08	133.41
479.26	149.79
479.44	138.09
479.62	145.11
479.80	170.86
479.98	135.75
480.16	248.10
480.34	177.88
480.52	159.16
480.70	147.45
480.88	159.16
481.06	145.11
481.24	107.66
481.41	248.10
481.59	191.92
481.77	159.16
481.95	135.75
482.13	191.92
482.31	182.56
482.49	74.90
482.67	222.35
482.85	191.92
483.03	177.88
483.21	166.18
483.39	131.07
483.57	161.50
483.74	110.01
483.92	88.94
484.10	184.90
484.28	152.13
484.46	208.31
484.64	77.24
484.82	166.18
485.00	154.48
485.18	222.35
485.35	95.96
485.53	131.07
485.71	187.24
485.89	117.03
486.07	119.37
486.25	149.79
486.43	177.88
486.61	191.92
486.78	166.18
486.96	110.01
487.14	152.13
487.32	145.11
487.50	145.11
487.68	166.18
487.85	156.82
488.03	149.79
488.21	191.92
488.39	147.45
488.57	156.82
488.75	154.48
488.92	430.66
489.10	173.20
489.28	250.44
489.46	182.56
489.64	126.39
489.81	173.20
489.99	119.37
490.17	159.16
490.35	250.44
490.53	163.84
490.70	140.43
490.88	175.54
491.06	168.52
491.24	196.60
491.41	255.12
491.59	208.31
491.77	180.22
491.95	166.18
492.13	229.37
492.30	147.45
492.48	168.52
492.66	126.39
492.84	177.88
493.01	180.22
493.19	138.09
493.37	259.80
493.54	107.66
493.72	166.18
493.90	205.97
494.08	159.16
494.25	147.45
494.43	140.43
494.61	184.90
494.79	140.43
494.96	201.29
495.14	241.08
495.32	184.90
495.49	208.31
495.67	222.35
495.85	187.24
496.02	86.60
496.20	140.43
496.38	170.86
496.55	252.78
496.73	133.41
496.91	215.33
497.09	203.63
497.26	191.92
497.44	140.43
497.62	187.24
497.79	191.92
497.97	196.60
498.14	145.11
498.32	182.56
498.50	273.84
498.67	175.54
498.85	182.56
499.03	159.16
499.20	152.13
499.38	203.63
499.56	241.08
499.73	198.95
499.91	198.95
500.08	152.13
500.26	224.69
500.44	241.08
500.61	271.50
500.79	194.26
500.97	224.69
501.14	257.46
501.32	175.54
501.49	175.54
501.67	205.97
501.84	201.29
502.02	259.80
502.20	222.35
502.37	170.86
502.55	191.92
502.72	161.50
502.90	201.29
503.07	189.58
503.25	250.44
503.43	255.12
503.60	177.88
503.78	215.33
503.95	212.99
504.13	135.75
504.30	166.18
504.48	128.73
504.65	159.16
504.83	203.63
505.01	131.07
505.18	194.26
505.36	133.41
505.53	180.22
505.71	224.69
505.88	168.52
506.06	159.16
506.23	224.69
506.41	175.54
506.58	170.86
506.76	224.69
506.93	203.63
507.11	161.50
507.28	220.01
507.46	205.97
507.63	210.65
507.81	210.65
507.98	114.69
508.16	135.75
508.33	152.13
508.50	166.18
508.68	175.54
508.85	163.84
509.03	170.86
509.20	243.42
509.38	217.67
509.55	152.13
509.73	236.39
509.90	264.48
510.08	145.11
510.25	201.29
510.42	201.29
510.60	182.56
510.77	128.73
510.95	210.65
511.12	262.14
511.30	252.78
511.47	266.82
511.64	269.16
511.82	250.44
511.99	189.58
512.17	156.82
512.34	189.58
512.51	173.20
512.69	191.92
512.86	205.97
513.04	138.09
513.21	177.88
513.38	201.29
513.56	217.67
513.73	198.95
513.90	217.67
514.08	229.37
514.25	255.12
514.43	196.60
514.60	194.26
514.77	201.29
514.95	203.63
515.12	170.86
515.29	184.90
515.47	142.77
515.64	175.54
515.81	177.88
515.99	257.46
516.16	191.92
516.33	208.31
516.51	187.24
516.68	121.71
516.85	170.86
517.03	88.94
517.20	201.29
517.37	173.20
517.54	241.08
517.72	203.63
517.89	135.75
518.06	220.01
518.24	248.10
518.41	238.73
518.58	290.23
518.75	250.44
518.93	229.37
519.10	259.80
519.27	198.95
519.45	234.05
519.62	198.95
519.79	217.67
519.96	159.16
520.14	255.12
520.31	227.03
520.48	224.69
520.65	142.77
520.83	156.82
521.00	234.05
521.17	220.01
521.34	140.43
521.52	203.63
521.69	189.58
521.86	187.24
522.03	215.33
522.20	210.65
522.38	177.88
522.55	203.63
522.72	212.99
522.89	229.37
523.07	283.20
523.24	215.33
523.41	145.11
523.58	205.97
523.75	229.37
523.92	220.01
524.10	215.33
524.27	201.29
524.44	177.88
524.61	208.31
524.78	257.46
524.96	187.24
525.13	266.82
525.30	248.10
525.47	208.31
525.64	222.35
525.81	220.01
525.98	191.92
526.16	166.18
526.33	220.01
526.50	205.97
526.67	220.01
526.84	175.54
527.01	222.35
527.18	212.99
527.36	161.50
527.53	154.48
527.70	173.20
527.87	243.42
528.04	187.24
528.21	220.01
528.38	252.78
528.55	203.63
528.72	227.03
528.89	262.14
529.07	88.94
529.24	198.95
529.41	271.50
529.58	262.14
529.75	245.76
529.92	196.60
530.09	205.97
530.26	126.39
530.43	159.16
530.60	215.33
530.77	222.35
530.94	119.37
531.11	154.48
531.28	194.26
531.46	224.69
531.63	191.92
531.80	234.05
531.97	170.86
532.14	250.44
532.31	121.71
532.48	245.76
532.65	318.31
532.82	322.99
532.99	271.50
533.16	266.82
533.33	259.80
533.50	241.08
533.67	262.14
533.84	395.55
534.01	383.85
534.18	346.40
534.35	271.50
534.52	220.01
534.69	220.01
534.86	201.29
535.03	177.88
535.20	210.65
535.37	224.69
535.54	210.65
535.71	212.99
535.88	168.52
536.05	236.39
536.22	245.76
536.38	180.22
536.55	194.26
536.72	205.97
536.89	222.35
537.06	257.46
537.23	231.71
537.40	175.54
537.57	229.37
537.74	243.42
537.91	220.01
538.08	184.90
538.25	252.78
538.42	252.78
538.59	220.01
538.75	194.26
538.92	180.22
539.09	189.58
539.26	252.78
539.43	435.34
539.60	987.71
539.77	1448.79
539.94	1432.41
540.11	938.55
540.28	704.50
540.44	421.30
540.61	285.55
540.78	184.90
540.95	224.69
541.12	287.89
541.29	231.71
541.46	191.92
541.62	208.31
541.79	149.79
541.96	248.10
542.13	243.42
542.30	224.69
542.47	278.52
542.63	196.60
542.80	166.18
542.97	149.79
543.14	189.58
543.31	184.90
543.48	149.79
543.64	149.79
543.81	245.76
543.98	175.54
544.15	198.95
544.32	180.22
544.48	205.97
544.65	177.88
544.82	138.09
544.99	184.90
545.16	227.03
545.32	184.90
545.49	276.18
545.66	250.44
545.83	189.58
546.00	234.05
546.16	196.60
546.33	271.50
546.50	287.89
546.67	234.05
546.83	203.63
547.00	203.63
547.17	145.11
547.34	241.08
547.50	196.60
547.67	250.44
547.84	177.88
548.00	259.80
548.17	245.76
548.34	266.82
548.51	262.14
548.67	229.37
548.84	203.63
549.01	248.10
549.18	166.18
549.34	276.18
549.51	231.71
549.68	161.50
549.84	156.82
550.01	187.24
550.18	292.57
550.34	229.37
550.51	217.67
550.68	304.27
550.84	248.10
551.01	220.01
551.18	222.35
551.34	259.80
551.51	231.71
551.68	208.31
551.84	241.08
552.01	138.09
552.18	203.63
552.34	191.92
552.51	236.39
552.68	205.97
552.84	177.88
553.01	248.10
553.18	276.18
553.34	229.37
553.51	184.90
553.67	180.22
553.84	255.12
554.01	194.26
554.17	252.78
554.34	241.08
554.51	163.84
554.67	250.44
554.84	294.91
555.00	201.29
555.17	224.69
555.33	217.67
555.50	271.50
555.67	208.31
555.83	163.84
556.00	262.14
556.16	409.59
556.33	245.76
556.50	234.05
556.66	177.88
556.83	159.16
556.99	182.56
557.16	147.45
557.32	135.75
557.49	255.12
557.65	266.82
557.82	182.56
557.98	215.33
558.15	224.69
558.32	131.07
558.48	147.45
558.65	238.73
558.81	156.82
558.98	175.54
559.14	189.58
559.31	184.90
559.47	93.62
559.64	187.24
559.80	217.67
559.97	208.31
560.13	138.09
560.30	168.52
560.46	222.35
560.63	163.84
560.79	245.76
560.96	220.01
561.12	224.69
561.29	287.89
561.45	163.84
561.61	145.11
561.78	344.06
561.94	149.79
562.11	163.84
562.27	245.76
562.44	203.63
562.60	208.31
562.77	159.16
562.93	245.76
563.10	215.33
563.26	182.56
563.42	154.48
563.59	105.32
563.75	161.50
563.92	166.18
564.08	229.37
564.24	238.73
564.41	252.78
564.57	229.37
564.74	245.76
564.90	220.01
565.07	220.01
565.23	194.26
565.39	222.35
565.56	252.78
565.72	245.76
565.88	184.90
566.05	227.03
566.21	245.76
566.38	201.29
566.54	110.01
566.70	180.22
566.87	252.78
567.03	194.26
567.19	147.45
567.36	205.97
567.52	168.52
567.68	170.86
567.85	285.55
568.01	182.56
568.17	152.13
568.34	152.13
568.50	168.52
568.66	189.58
568.83	283.20
568.99	210.65
569.15	248.10
569.32	194.26
569.48	128.73
569.64	210.65
569.81	196.60
569.97	257.46
570.13	198.95
570.30	220.01
570.46	262.14
570.62	166.18
570.78	175.54
570.95	149.79
571.11	297.25
571.27	294.91
571.43	145.11
571.60	236.39
571.76	175.54
571.92	269.16
572.09	205.97
572.25	205.97
572.41	203.63
572.57	156.82
572.74	220.01
572.90	250.44
573.06	241.08
573.22	205.97
573.38	191.92
573.55	290.23
573.71	198.95
573.87	149.79
574.03	208.31
574.20	177.88
574.36	290.23
574.52	262.14
574.68	322.99
574.84	285.55
575.01	166.18
575.17	252.78
575.33	236.39
575.49	220.01
575.65	215.33
575.82	327.68
575.98	517.26
576.14	627.26
576.30	695.14
576.46	491.51
576.62	400.23
576.79	301.93
576.95	322.99
577.11	266.82
577.27	243.42
577.43	266.82
577.59	290.23
577.75	236.39
577.92	304.27
578.08	304.27
578.24	203.63
578.40	299.59
578.56	290.23
578.72	210.65
578.88	292.57
579.04	334.70
579.21	306.61
579.37	210.65
579.53	252.78
579.69	262.14
579.85	313.63
580.01	390.87
580.17	327.68
580.33	327.68
580.49	318.31
580.65	283.20
580.82	304.27
580.98	339.38
581.14	234.05
581.30	344.06
581.46	388.53
581.62	475.13
581.78	526.62
581.94	547.69
582.10	437.68
582.26	393.21
582.42	367.46
582.58	386.19
582.74	315.97
582.90	428.32
583.06	386.19
583.22	416.62
583.38	498.53
583.54	489.17
583.70	540.66
583.86	622.58
584.02	638.97
584.18	910.47
584.34	1212.40
584.50	3061.42
584.66	23314.08
584.82	55402.82
584.98	65099.66
585.14	62087.39
585.30	47578.41
585.46	28877.53
585.62	17809.14
585.78	8128.68
585.94	3129.30
586.10	1544.75
586.26	912.81
586.42	800.46
586.58	716.20
586.74	559.39
586.90	540.66
587.06	615.56
587.22	463.43
587.38	372.15
587.54	1100.05
587.70	3370.37
587.86	5713.25
588.02	6506.69
588.18	4435.32
588.34	2729.06
588.49	1748.38
588.65	1088.35
588.81	638.97
588.97	430.66
589.13	360.44
589.29	231.71
589.45	311.29
589.61	278.52
589.77	346.40
589.93	341.72
590.08	414.27
590.24	379.17
590.40	451.72
590.56	369.80
590.72	299.59
590.88	330.02
591.04	283.20
591.20	285.55
591.35	374.49
591.51	294.91
591.67	297.25
591.83	220.01
591.99	271.50
592.15	259.80
592.31	217.67
592.46	173.20
592.62	250.44
592.78	304.27
592.94	264.48
593.10	217.67
593.26	290.23
593.41	248.10
593.57	362.78
593.73	496.19
593.89	2792.26
594.05	7042.67
594.20	11016.90
594.36	10366.23
594.52	6736.06
594.68	4184.88
594.84	2696.30
594.99	1448.79
595.15	667.05
595.31	435.34
595.47	395.55
595.62	266.82
595.78	212.99
595.94	271.50
596.10	327.68
596.25	266.82
596.41	290.23
596.57	241.08
596.73	322.99
596.88	552.37
597.04	1331.76
597.20	2310.11
597.36	2693.96
597.51	2064.35
597.67	1287.29
597.83	950.26
597.99	725.57
598.14	351.08
598.30	301.93
598.46	297.25
598.61	315.97
598.77	262.14
598.93	276.18
599.09	304.27
599.24	187.24
599.40	191.92
599.56	252.78
599.71	243.42
599.87	243.42
600.03	250.44
600.18	311.29
600.34	201.29
600.50	142.77
600.65	245.76
600.81	173.20
600.97	203.63
601.12	222.35
601.28	245.76
601.44	201.29
601.59	166.18
601.75	163.84
601.91	215.33
602.06	266.82
602.22	402.57
602.37	636.63
602.53	1717.95
602.69	2569.91
602.84	2801.62
603.00	1987.11
603.16	1329.42
603.31	976.00
603.47	615.56
603.62	454.06
603.78	311.29
603.94	266.82
604.09	294.91
604.25	248.10
604.40	236.39
604.56	278.52
604.71	128.73
604.87	175.54
605.03	229.37
605.18	266.82
605.34	243.42
605.49	222.35
605.65	287.89
605.80	271.50
605.96	285.55
606.12	269.16
606.27	311.29
606.43	297.25
606.58	348.74
606.74	844.93
606.89	3318.88
607.05	7075.44
607.20	9057.87
607.36	7609.08
607.51	5167.90
607.67	3393.78
607.82	2270.32
607.98	1203.04
608.13	596.84
608.29	402.57
608.44	341.72
608.60	425.98
608.75	433.00
608.91	1116.44
609.06	5210.03
609.22	11946.09
609.37	16013.95
609.53	14054.92
609.68	9132.77
609.84	5980.07
609.99	3887.63
610.15	2022.22
610.30	971.32
610.46	575.77
610.61	381.51
610.76	311.29
610.92	287.89
611.07	339.38
611.23	330.02
611.38	283.20
611.54	217.67
611.69	304.27
611.84	241.08
612.00	255.12
