SpectraSuite Data File
++++++++++++++++++++++++++++++++++++
Date: Fri Oct 04 11:47:12 GMT-05:00 2013
User: price-jones
Dark Spectrum Present: No
Reference Spectrum Present: No
Number of Sampled Component Spectra: 1
Spectrometers: USB2+H05261
Integration Time (usec): 100000 (USB2+H05261)
Spectra Averaged: 1 (USB2+H05261)
Boxcar Smoothing: 0 (USB2+H05261)
Correct for Electrical Dark: No (USB2+H05261)
Strobe/Lamp Enabled: No (USB2+H05261)
Correct for Detector Non-linearity: No (USB2+H05261)
Correct for Stray Light: No (USB2+H05261)
Number of Pixels in Processed Spectrum: 2048
>>>>>Begin Processed Spectral Data<<<<<
365.73	51.49
365.92	51.49
366.12	51.49
366.32	0.00
366.52	0.00
366.72	0.00
366.91	0.00
367.11	0.00
367.31	0.00
367.51	0.00
367.70	0.00
367.90	0.00
368.10	0.00
368.30	0.00
368.49	0.00
368.69	0.00
368.89	0.00
369.09	0.00
369.28	0.00
369.48	0.00
369.68	0.00
369.87	0.00
370.07	9.36
370.27	32.77
370.47	0.00
370.66	0.00
370.86	53.83
371.06	93.62
371.25	58.51
371.45	28.09
371.65	81.92
371.84	51.49
372.04	39.79
372.24	67.88
372.44	119.37
372.63	128.73
372.83	124.05
373.03	147.45
373.22	58.51
373.42	95.96
373.62	49.15
373.81	58.51
374.01	166.18
374.21	117.03
374.40	35.11
374.60	182.56
374.79	140.43
374.99	133.41
375.19	166.18
375.38	110.01
375.58	107.66
375.78	100.64
375.97	70.22
376.17	182.56
376.37	124.05
376.56	49.15
376.76	67.88
376.95	79.58
377.15	159.16
377.35	124.05
377.54	119.37
377.74	49.15
377.93	98.30
378.13	81.92
378.33	138.09
378.52	107.66
378.72	166.18
378.91	105.32
379.11	88.94
379.31	44.47
379.50	0.00
379.70	112.35
379.89	152.13
380.09	70.22
380.28	77.24
380.48	79.58
380.68	107.66
380.87	81.92
381.07	112.35
381.26	203.63
381.46	121.71
381.65	58.51
381.85	74.90
382.04	95.96
382.24	79.58
382.43	112.35
382.63	81.92
382.83	84.26
383.02	72.56
383.22	177.88
383.41	77.24
383.61	56.17
383.80	21.06
384.00	112.35
384.19	91.28
384.39	159.16
384.58	135.75
384.78	110.01
384.97	105.32
385.17	70.22
385.36	88.94
385.56	84.26
385.75	23.41
385.95	70.22
386.14	102.98
386.34	91.28
386.53	98.30
386.72	126.39
386.92	166.18
387.11	98.30
387.31	39.79
387.50	95.96
387.70	49.15
387.89	88.94
388.09	28.09
388.28	53.83
388.48	142.77
388.67	170.86
388.86	117.03
389.06	44.47
389.25	117.03
389.45	93.62
389.64	44.47
389.84	107.66
390.03	84.26
390.22	0.00
390.42	84.26
390.61	86.60
390.81	81.92
391.00	222.35
391.19	77.24
391.39	93.62
391.58	100.64
391.78	49.15
391.97	107.66
392.16	105.32
392.36	175.54
392.55	98.30
392.75	145.11
392.94	51.49
393.13	105.32
393.33	0.00
393.52	95.96
393.71	135.75
393.91	187.24
394.10	88.94
394.29	152.13
394.49	119.37
394.68	79.58
394.88	117.03
395.07	128.73
395.26	110.01
395.46	70.22
395.65	131.07
395.84	152.13
396.04	163.84
396.23	88.94
396.42	32.77
396.62	117.03
396.81	156.82
397.00	74.90
397.19	32.77
397.39	63.19
397.58	266.82
397.77	72.56
397.97	98.30
398.16	152.13
398.35	126.39
398.55	44.47
398.74	138.09
398.93	110.01
399.12	23.41
399.32	145.11
399.51	42.13
399.70	126.39
399.90	74.90
400.09	86.60
400.28	145.11
400.47	140.43
400.67	63.19
400.86	72.56
401.05	117.03
401.24	189.58
401.44	133.41
401.63	86.60
401.82	121.71
402.01	28.09
402.21	159.16
402.40	25.75
402.59	72.56
402.78	95.96
402.97	126.39
403.17	98.30
403.36	119.37
403.55	65.54
403.74	117.03
403.93	215.33
404.13	168.52
404.32	93.62
404.51	107.66
404.70	91.28
404.89	72.56
405.09	145.11
405.28	67.88
405.47	72.56
405.66	138.09
405.85	107.66
406.05	39.79
406.24	84.26
406.43	86.60
406.62	84.26
406.81	84.26
407.00	117.03
407.20	84.26
407.39	124.05
407.58	46.81
407.77	117.03
407.96	105.32
408.15	86.60
408.34	79.58
408.54	81.92
408.73	133.41
408.92	77.24
409.11	102.98
409.30	161.50
409.49	147.45
409.68	79.58
409.87	44.47
410.07	142.77
410.26	154.48
410.45	84.26
410.64	67.88
410.83	100.64
411.02	77.24
411.21	112.35
411.40	133.41
411.59	114.69
411.78	180.22
411.98	93.62
412.17	93.62
412.36	128.73
412.55	166.18
412.74	114.69
412.93	210.65
413.12	105.32
413.31	177.88
413.50	138.09
413.69	194.26
413.88	126.39
414.07	180.22
414.26	149.79
414.45	142.77
414.64	88.94
414.83	88.94
415.02	140.43
415.22	107.66
415.41	135.75
415.60	205.97
415.79	159.16
415.98	182.56
416.17	124.05
416.36	126.39
416.55	138.09
416.74	142.77
416.93	147.45
417.12	131.07
417.31	88.94
417.50	203.63
417.69	156.82
417.88	170.86
418.07	156.82
418.26	198.95
418.45	44.47
418.64	177.88
418.83	182.56
419.02	182.56
419.21	210.65
419.39	152.13
419.58	177.88
419.77	147.45
419.96	112.35
420.15	112.35
420.34	149.79
420.53	63.19
420.72	88.94
420.91	95.96
421.10	170.86
421.29	152.13
421.48	88.94
421.67	107.66
421.86	93.62
422.05	117.03
422.24	152.13
422.43	145.11
422.61	70.22
422.80	124.05
422.99	126.39
423.18	126.39
423.37	135.75
423.56	95.96
423.75	145.11
423.94	51.49
424.13	147.45
424.32	124.05
424.50	53.83
424.69	119.37
424.88	114.69
425.07	133.41
425.26	205.97
425.45	112.35
425.64	105.32
425.83	248.10
426.01	124.05
426.20	37.45
426.39	128.73
426.58	196.60
426.77	131.07
426.96	203.63
427.15	210.65
427.33	74.90
427.52	93.62
427.71	65.54
427.90	135.75
428.09	184.90
428.28	39.79
428.46	88.94
428.65	119.37
428.84	119.37
429.03	67.88
429.22	91.28
429.40	168.52
429.59	102.98
429.78	147.45
429.97	23.41
430.16	86.60
430.34	124.05
430.53	135.75
430.72	121.71
430.91	159.16
431.10	81.92
431.28	142.77
431.47	88.94
431.66	189.58
431.85	58.51
432.03	95.96
432.22	135.75
432.41	91.28
432.60	173.20
432.79	168.52
432.97	184.90
433.16	208.31
433.35	112.35
433.54	114.69
433.72	140.43
433.91	198.95
434.10	102.98
434.28	168.52
434.47	110.01
434.66	224.69
434.85	93.62
435.03	124.05
435.22	140.43
435.41	175.54
435.59	114.69
435.78	105.32
435.97	110.01
436.16	110.01
436.34	135.75
436.53	119.37
436.72	88.94
436.90	140.43
437.09	149.79
437.28	163.84
437.46	21.06
437.65	100.64
437.84	81.92
438.02	135.75
438.21	121.71
438.40	88.94
438.58	67.88
438.77	147.45
438.96	56.17
439.14	98.30
439.33	156.82
439.52	117.03
439.70	124.05
439.89	191.92
440.08	133.41
440.26	88.94
440.45	117.03
440.63	56.17
440.82	156.82
441.01	72.56
441.19	131.07
441.38	149.79
441.57	107.66
441.75	187.24
441.94	210.65
442.12	126.39
442.31	91.28
442.50	100.64
442.68	133.41
442.87	189.58
443.05	138.09
443.24	154.48
443.43	93.62
443.61	142.77
443.80	98.30
443.98	128.73
444.17	49.15
444.35	124.05
444.54	102.98
444.73	112.35
444.91	168.52
445.10	74.90
445.28	86.60
445.47	77.24
445.65	191.92
445.84	58.51
446.02	189.58
446.21	149.79
446.39	107.66
446.58	194.26
446.77	145.11
446.95	51.49
447.14	114.69
447.32	177.88
447.51	112.35
447.69	152.13
447.88	98.30
448.06	166.18
448.25	177.88
448.43	86.60
448.62	126.39
448.80	140.43
448.99	180.22
449.17	161.50
449.36	100.64
449.54	107.66
449.73	119.37
449.91	114.69
450.10	117.03
450.28	191.92
450.46	119.37
450.65	159.16
450.83	112.35
451.02	100.64
451.20	121.71
451.39	86.60
451.57	133.41
451.76	152.13
451.94	166.18
452.13	203.63
452.31	217.67
452.49	98.30
452.68	81.92
452.86	65.54
453.05	121.71
453.23	18.72
453.42	77.24
453.60	135.75
453.78	152.13
453.97	133.41
454.15	86.60
454.34	81.92
454.52	72.56
454.70	220.01
454.89	173.20
455.07	84.26
455.26	138.09
455.44	182.56
455.62	166.18
455.81	198.95
455.99	163.84
456.17	154.48
456.36	184.90
456.54	147.45
456.73	95.96
456.91	177.88
457.09	128.73
457.28	88.94
457.46	154.48
457.64	121.71
457.83	126.39
458.01	175.54
458.19	140.43
458.38	191.92
458.56	152.13
458.74	156.82
458.93	95.96
459.11	95.96
459.29	142.77
459.48	166.18
459.66	126.39
459.84	128.73
460.03	224.69
460.21	159.16
460.39	100.64
460.57	102.98
460.76	175.54
460.94	159.16
461.12	217.67
461.31	201.29
461.49	147.45
461.67	58.51
461.85	138.09
462.04	105.32
462.22	550.03
462.40	112.35
462.59	114.69
462.77	161.50
462.95	114.69
463.13	100.64
463.32	65.54
463.50	114.69
463.68	140.43
463.86	145.11
464.05	161.50
464.23	156.82
464.41	180.22
464.59	138.09
464.78	140.43
464.96	166.18
465.14	145.11
465.32	105.32
465.50	154.48
465.69	42.13
465.87	102.98
466.05	140.43
466.23	163.84
466.41	98.30
466.60	112.35
466.78	138.09
466.96	187.24
467.14	124.05
467.32	166.18
467.51	180.22
467.69	152.13
467.87	163.84
468.05	145.11
468.23	222.35
468.41	182.56
468.60	184.90
468.78	152.13
468.96	79.58
469.14	154.48
469.32	163.84
469.50	114.69
469.69	117.03
469.87	138.09
470.05	173.20
470.23	159.16
470.41	159.16
470.59	126.39
470.77	131.07
470.95	124.05
471.14	117.03
471.32	128.73
471.50	117.03
471.68	173.20
471.86	102.98
472.04	180.22
472.22	142.77
472.40	203.63
472.58	133.41
472.77	147.45
472.95	93.62
473.13	170.86
473.31	184.90
473.49	81.92
473.67	81.92
473.85	187.24
474.03	58.51
474.21	102.98
474.39	154.48
474.57	234.05
474.75	95.96
474.93	142.77
475.12	79.58
475.30	168.52
475.48	86.60
475.66	77.24
475.84	149.79
476.02	166.18
476.20	203.63
476.38	203.63
476.56	231.71
476.74	208.31
476.92	112.35
477.10	112.35
477.28	166.18
477.46	119.37
477.64	205.97
477.82	212.99
478.00	119.37
478.18	229.37
478.36	173.20
478.54	194.26
478.72	163.84
478.90	156.82
479.08	154.48
479.26	168.52
479.44	126.39
479.62	224.69
479.80	166.18
479.98	147.45
480.16	117.03
480.34	166.18
480.52	133.41
480.70	175.54
480.88	175.54
481.06	95.96
481.24	114.69
481.41	196.60
481.59	131.07
481.77	149.79
481.95	149.79
482.13	105.32
482.31	114.69
482.49	46.81
482.67	131.07
482.85	93.62
483.03	138.09
483.21	140.43
483.39	140.43
483.57	135.75
483.74	205.97
483.92	81.92
484.10	140.43
484.28	152.13
484.46	170.86
484.64	140.43
484.82	210.65
485.00	149.79
485.18	135.75
485.35	180.22
485.53	79.58
485.71	140.43
485.89	35.11
486.07	44.47
486.25	215.33
486.43	243.42
486.61	159.16
486.78	187.24
486.96	79.58
487.14	126.39
487.32	163.84
487.50	147.45
487.68	208.31
487.85	159.16
488.03	138.09
488.21	250.44
488.39	163.84
488.57	161.50
488.75	135.75
488.92	393.21
489.10	182.56
489.28	187.24
489.46	145.11
489.64	203.63
489.81	173.20
489.99	180.22
490.17	180.22
490.35	280.86
490.53	198.95
490.70	126.39
490.88	180.22
491.06	135.75
491.24	112.35
491.41	196.60
491.59	154.48
491.77	105.32
491.95	138.09
492.13	100.64
492.30	161.50
492.48	175.54
492.66	187.24
492.84	119.37
493.01	152.13
493.19	105.32
493.37	245.76
493.54	189.58
493.72	184.90
493.90	112.35
494.08	194.26
494.25	217.67
494.43	138.09
494.61	138.09
494.79	231.71
494.96	163.84
495.14	117.03
495.32	203.63
495.49	149.79
495.67	177.88
495.85	159.16
496.02	131.07
496.20	152.13
496.38	177.88
496.55	161.50
496.73	194.26
496.91	212.99
497.09	252.78
497.26	91.28
497.44	173.20
497.62	210.65
497.79	133.41
497.97	198.95
498.14	184.90
498.32	149.79
498.50	210.65
498.67	168.52
498.85	168.52
499.03	184.90
499.20	292.57
499.38	163.84
499.56	168.52
499.73	220.01
499.91	215.33
500.08	245.76
500.26	156.82
500.44	212.99
500.61	124.05
500.79	114.69
500.97	93.62
501.14	205.97
501.32	252.78
501.49	243.42
501.67	196.60
501.84	163.84
502.02	166.18
502.20	301.93
502.37	194.26
502.55	135.75
502.72	182.56
502.90	161.50
503.07	173.20
503.25	236.39
503.43	168.52
503.60	173.20
503.78	234.05
503.95	102.98
504.13	187.24
504.30	205.97
504.48	140.43
504.65	264.48
504.83	201.29
505.01	191.92
505.18	147.45
505.36	177.88
505.53	168.52
505.71	93.62
505.88	203.63
506.06	182.56
506.23	159.16
506.41	203.63
506.58	217.67
506.76	191.92
506.93	159.16
507.11	205.97
507.28	187.24
507.46	222.35
507.63	201.29
507.81	201.29
507.98	236.39
508.16	177.88
508.33	250.44
508.50	250.44
508.68	208.31
508.85	205.97
509.03	222.35
509.20	154.48
509.38	147.45
509.55	238.73
509.73	262.14
509.90	234.05
510.08	194.26
510.25	262.14
510.42	252.78
510.60	212.99
510.77	238.73
510.95	250.44
511.12	252.78
511.30	170.86
511.47	271.50
511.64	266.82
511.82	210.65
511.99	156.82
512.17	257.46
512.34	119.37
512.51	159.16
512.69	138.09
512.86	194.26
513.04	184.90
513.21	287.89
513.38	124.05
513.56	217.67
513.73	102.98
513.90	208.31
514.08	248.10
514.25	220.01
514.43	252.78
514.60	215.33
514.77	175.54
514.95	194.26
515.12	126.39
515.29	156.82
515.47	220.01
515.64	201.29
515.81	208.31
515.99	231.71
516.16	194.26
516.33	189.58
516.51	138.09
516.68	131.07
516.85	201.29
517.03	175.54
517.20	91.28
517.37	173.20
517.54	257.46
517.72	173.20
517.89	201.29
518.06	182.56
518.24	231.71
518.41	236.39
518.58	266.82
518.75	184.90
518.93	196.60
519.10	166.18
519.27	161.50
519.45	236.39
519.62	156.82
519.79	161.50
519.96	149.79
520.14	175.54
520.31	243.42
520.48	142.77
520.65	255.12
520.83	163.84
521.00	159.16
521.17	208.31
521.34	149.79
521.52	177.88
521.69	205.97
521.86	203.63
522.03	210.65
522.20	184.90
522.38	201.29
522.55	220.01
522.72	145.11
522.89	205.97
523.07	243.42
523.24	224.69
523.41	236.39
523.58	241.08
523.75	161.50
523.92	201.29
524.10	203.63
524.27	170.86
524.44	217.67
524.61	168.52
524.78	145.11
524.96	107.66
525.13	241.08
525.30	252.78
525.47	215.33
525.64	257.46
525.81	241.08
525.98	215.33
526.16	161.50
526.33	194.26
526.50	191.92
526.67	170.86
526.84	194.26
527.01	234.05
527.18	187.24
527.36	187.24
527.53	220.01
527.70	248.10
527.87	180.22
528.04	196.60
528.21	210.65
528.38	280.86
528.55	229.37
528.72	243.42
528.89	210.65
529.07	135.75
529.24	210.65
529.41	177.88
529.58	243.42
529.75	154.48
529.92	196.60
530.09	217.67
530.26	264.48
530.43	184.90
530.60	145.11
530.77	203.63
530.94	243.42
531.11	250.44
531.28	269.16
531.46	191.92
531.63	208.31
531.80	194.26
531.97	234.05
532.14	187.24
532.31	161.50
532.48	238.73
532.65	259.80
532.82	255.12
532.99	297.25
533.16	306.61
533.33	248.10
533.50	224.69
533.67	290.23
533.84	318.31
534.01	397.89
534.18	358.10
534.35	236.39
534.52	215.33
534.69	229.37
534.86	269.16
535.03	194.26
535.20	220.01
535.37	252.78
535.54	238.73
535.71	175.54
535.88	273.84
536.05	205.97
536.22	203.63
536.38	189.58
536.55	191.92
536.72	159.16
536.89	212.99
537.06	208.31
537.23	198.95
537.40	208.31
537.57	177.88
537.74	266.82
537.91	259.80
538.08	187.24
538.25	205.97
538.42	255.12
538.59	234.05
538.75	201.29
538.92	194.26
539.09	166.18
539.26	163.84
539.43	407.25
539.60	851.96
539.77	1261.55
539.94	1249.85
540.11	842.59
540.28	535.98
540.44	386.19
540.61	205.97
540.78	205.97
540.95	182.56
541.12	217.67
541.29	205.97
541.46	224.69
541.62	187.24
541.79	227.03
541.96	210.65
542.13	198.95
542.30	142.77
542.47	203.63
542.63	198.95
542.80	238.73
542.97	238.73
543.14	227.03
543.31	189.58
543.48	175.54
543.64	147.45
543.81	205.97
543.98	194.26
544.15	145.11
544.32	184.90
544.48	198.95
544.65	210.65
544.82	238.73
544.99	187.24
545.16	220.01
545.32	212.99
545.49	262.14
545.66	308.95
545.83	210.65
546.00	201.29
546.16	180.22
546.33	210.65
546.50	110.01
546.67	264.48
546.83	234.05
547.00	320.65
547.17	177.88
547.34	201.29
547.50	271.50
547.67	259.80
547.84	184.90
548.00	191.92
548.17	128.73
548.34	126.39
548.51	191.92
548.67	278.52
548.84	131.07
549.01	182.56
549.18	227.03
549.34	243.42
549.51	154.48
549.68	208.31
549.84	184.90
550.01	215.33
550.18	318.31
550.34	297.25
550.51	215.33
550.68	234.05
550.84	177.88
551.01	262.14
551.18	159.16
551.34	173.20
551.51	241.08
551.68	236.39
551.84	212.99
552.01	166.18
552.18	259.80
552.34	245.76
552.51	212.99
552.68	227.03
552.84	187.24
553.01	203.63
553.18	276.18
553.34	287.89
553.51	126.39
553.67	222.35
553.84	245.76
554.01	201.29
554.17	161.50
554.34	189.58
554.51	215.33
554.67	280.86
554.84	280.86
555.00	191.92
555.17	227.03
555.33	238.73
555.50	191.92
555.67	198.95
555.83	184.90
556.00	184.90
556.16	362.78
556.33	273.84
556.50	264.48
556.66	203.63
556.83	121.71
556.99	175.54
557.16	156.82
557.32	147.45
557.49	149.79
557.65	205.97
557.82	163.84
557.98	180.22
558.15	236.39
558.32	135.75
558.48	173.20
558.65	152.13
558.81	203.63
558.98	234.05
559.14	191.92
559.31	227.03
559.47	184.90
559.64	201.29
559.80	227.03
559.97	170.86
560.13	163.84
560.30	224.69
560.46	212.99
560.63	175.54
560.79	212.99
560.96	203.63
561.12	182.56
561.29	173.20
561.45	126.39
561.61	229.37
561.78	259.80
561.94	135.75
562.11	149.79
562.27	234.05
562.44	234.05
562.60	138.09
562.77	163.84
562.93	236.39
563.10	210.65
563.26	187.24
563.42	196.60
563.59	142.77
563.75	163.84
563.92	248.10
564.08	175.54
564.24	222.35
564.41	182.56
564.57	203.63
564.74	168.52
564.90	255.12
565.07	243.42
565.23	227.03
565.39	215.33
565.56	220.01
565.72	257.46
565.88	238.73
566.05	248.10
566.21	168.52
566.38	161.50
566.54	238.73
566.70	138.09
566.87	131.07
567.03	241.08
567.19	187.24
567.36	147.45
567.52	131.07
567.68	238.73
567.85	184.90
568.01	184.90
568.17	58.51
568.34	196.60
568.50	187.24
568.66	131.07
568.83	297.25
568.99	194.26
569.15	283.20
569.32	229.37
569.48	224.69
569.64	170.86
569.81	269.16
569.97	201.29
570.13	161.50
570.30	187.24
570.46	241.08
570.62	278.52
570.78	180.22
570.95	187.24
571.11	194.26
571.27	217.67
571.43	170.86
571.60	217.67
571.76	205.97
571.92	135.75
572.09	182.56
572.25	152.13
572.41	121.71
572.57	182.56
572.74	161.50
572.90	224.69
573.06	224.69
573.22	191.92
573.38	196.60
573.55	208.31
573.71	142.77
573.87	177.88
574.03	217.67
574.20	161.50
574.36	236.39
574.52	315.97
574.68	278.52
574.84	271.50
575.01	205.97
575.17	250.44
575.33	208.31
575.49	220.01
575.65	250.44
575.82	234.05
575.98	440.02
576.14	477.47
576.30	568.75
576.46	425.98
576.62	379.17
576.79	252.78
576.95	299.59
577.11	205.97
577.27	194.26
577.43	276.18
577.59	283.20
577.75	220.01
577.92	220.01
578.08	215.33
578.24	154.48
578.40	222.35
578.56	236.39
578.72	255.12
578.88	196.60
579.04	217.67
579.21	273.84
579.37	264.48
579.53	259.80
579.69	285.55
579.85	241.08
580.01	313.63
580.17	322.99
580.33	322.99
580.49	318.31
580.65	287.89
580.82	243.42
580.98	257.46
581.14	292.57
581.30	308.95
581.46	311.29
581.62	458.74
581.78	493.85
581.94	388.53
582.10	332.36
582.26	346.40
582.42	395.55
582.58	404.91
582.74	339.38
582.90	390.87
583.06	386.19
583.22	390.87
583.38	383.85
583.54	451.72
583.70	535.98
583.86	514.92
584.02	716.20
584.18	676.41
584.34	861.32
584.50	2511.39
584.66	18214.05
584.82	47901.40
584.98	59852.18
585.14	57013.11
585.30	39541.01
585.46	23358.55
585.62	14277.27
585.78	6876.49
585.94	2670.55
586.10	1289.64
586.26	779.40
586.42	734.93
586.58	624.92
586.74	458.74
586.90	514.92
587.06	533.64
587.22	447.04
587.38	433.00
587.54	933.87
587.70	2661.19
587.86	4479.79
588.02	5163.22
588.18	3786.99
588.34	2293.72
588.49	1430.07
588.65	910.47
588.81	435.34
588.97	318.31
589.13	332.36
589.29	259.80
589.45	285.55
589.61	266.82
589.77	393.21
589.93	353.42
590.08	341.72
590.24	358.10
590.40	367.46
590.56	332.36
590.72	236.39
590.88	280.86
591.04	278.52
591.20	304.27
591.35	301.93
591.51	306.61
591.67	252.78
591.83	278.52
591.99	220.01
592.15	252.78
592.31	222.35
592.46	250.44
592.62	290.23
592.78	229.37
592.94	280.86
593.10	299.59
593.26	269.16
593.41	243.42
593.57	236.39
593.73	472.79
593.89	2258.62
594.05	5734.31
594.20	8674.03
594.36	8248.05
594.52	5680.48
594.68	3522.51
594.84	2338.20
594.99	1280.27
595.15	641.31
595.31	332.36
595.47	299.59
595.62	252.78
595.78	191.92
595.94	194.26
596.10	276.18
596.25	308.95
596.41	330.02
596.57	170.86
596.73	311.29
596.88	468.11
597.04	1111.75
597.20	1811.57
597.36	2275.00
597.51	1727.32
597.67	1067.28
597.83	805.14
597.99	568.75
598.14	315.97
598.30	264.48
598.46	231.71
598.61	248.10
598.77	294.91
598.93	306.61
599.09	238.73
599.24	301.93
599.40	236.39
599.56	191.92
599.71	194.26
599.87	245.76
600.03	229.37
600.18	210.65
600.34	259.80
600.50	231.71
600.65	170.86
600.81	250.44
600.97	117.03
601.12	156.82
601.28	161.50
601.44	269.16
601.59	191.92
601.75	264.48
601.91	205.97
602.06	177.88
602.22	330.02
602.37	610.88
602.53	1294.32
602.69	2153.29
602.84	2258.62
603.00	1668.80
603.16	1118.78
603.31	800.46
603.47	582.79
603.62	287.89
603.78	322.99
603.94	124.05
604.09	224.69
604.25	257.46
604.40	294.91
604.56	182.56
604.71	238.73
604.87	222.35
605.03	180.22
605.18	276.18
605.34	201.29
605.49	107.66
605.65	205.97
605.80	220.01
605.96	175.54
606.12	252.78
606.27	266.82
606.43	299.59
606.58	320.65
606.74	674.07
606.89	2801.62
607.05	5628.99
607.20	7552.91
607.36	6211.78
607.51	4140.41
607.67	2612.04
607.82	1813.92
607.98	999.41
608.13	519.60
608.29	325.33
608.44	308.95
608.60	344.06
608.75	400.23
608.91	887.06
609.06	4222.33
609.22	9413.63
609.37	13308.29
609.53	11185.42
609.68	7719.09
609.84	4957.25
609.99	3323.56
610.15	1729.66
610.30	795.78
610.46	526.62
610.61	365.12
610.76	276.18
610.92	341.72
611.07	236.39
611.23	269.16
611.38	224.69
611.54	273.84
611.69	191.92
611.84	255.12
612.00	175.54
612.15	264.48
612.31	339.38
