SpectraSuite Data File
++++++++++++++++++++++++++++++++++++
Date: Fri Oct 04 11:47:00 GMT-05:00 2013
User: price-jones
Dark Spectrum Present: No
Reference Spectrum Present: No
Number of Sampled Component Spectra: 1
Spectrometers: USB2+H05261
Integration Time (usec): 100000 (USB2+H05261)
Spectra Averaged: 1 (USB2+H05261)
Boxcar Smoothing: 0 (USB2+H05261)
Correct for Electrical Dark: No (USB2+H05261)
Strobe/Lamp Enabled: No (USB2+H05261)
Correct for Detector Non-linearity: No (USB2+H05261)
Correct for Stray Light: No (USB2+H05261)
Number of Pixels in Processed Spectrum: 2048
>>>>>Begin Processed Spectral Data<<<<<
365.73	25.75
365.92	25.75
366.12	25.75
366.32	0.00
366.52	0.00
366.72	0.00
366.91	0.00
367.11	0.00
367.31	0.00
367.51	0.00
367.70	0.00
367.90	0.00
368.10	0.00
368.30	0.00
368.49	0.00
368.69	0.00
368.89	0.00
369.09	0.00
369.28	0.00
369.48	0.00
369.68	0.00
369.87	0.00
370.07	0.00
370.27	37.45
370.47	2.34
370.66	0.00
370.86	0.00
371.06	135.75
371.25	98.30
371.45	86.60
371.65	79.58
371.84	88.94
372.04	11.70
372.24	100.64
372.44	18.72
372.63	70.22
372.83	110.01
373.03	70.22
373.22	107.66
373.42	77.24
373.62	154.48
373.81	102.98
374.01	147.45
374.21	124.05
374.40	79.58
374.60	156.82
374.79	126.39
374.99	107.66
375.19	18.72
375.38	163.84
375.58	184.90
375.78	138.09
375.97	56.17
376.17	112.35
376.37	114.69
376.56	51.49
376.76	110.01
376.95	86.60
377.15	126.39
377.35	56.17
377.54	159.16
377.74	112.35
377.93	79.58
378.13	117.03
378.33	177.88
378.52	56.17
378.72	93.62
378.91	156.82
379.11	86.60
379.31	58.51
379.50	70.22
379.70	100.64
379.89	140.43
380.09	124.05
380.28	72.56
380.48	32.77
380.68	131.07
380.87	98.30
381.07	121.71
381.26	138.09
381.46	60.85
381.65	28.09
381.85	37.45
382.04	135.75
382.24	98.30
382.43	53.83
382.63	58.51
382.83	63.19
383.02	187.24
383.22	93.62
383.41	70.22
383.61	88.94
383.80	117.03
384.00	121.71
384.19	133.41
384.39	88.94
384.58	107.66
384.78	58.51
384.97	119.37
385.17	42.13
385.36	114.69
385.56	112.35
385.75	72.56
385.95	44.47
386.14	93.62
386.34	53.83
386.53	156.82
386.72	159.16
386.92	102.98
387.11	163.84
387.31	156.82
387.50	21.06
387.70	60.85
387.89	100.64
388.09	102.98
388.28	51.49
388.48	102.98
388.67	119.37
388.86	117.03
389.06	149.79
389.25	140.43
389.45	98.30
389.64	95.96
389.84	88.94
390.03	182.56
390.22	175.54
390.42	65.54
390.61	138.09
390.81	147.45
391.00	119.37
391.19	44.47
391.39	128.73
391.58	117.03
391.78	95.96
391.97	44.47
392.16	105.32
392.36	140.43
392.55	79.58
392.75	140.43
392.94	138.09
393.13	77.24
393.33	63.19
393.52	77.24
393.71	77.24
393.91	110.01
394.10	72.56
394.29	133.41
394.49	42.13
394.68	91.28
394.88	145.11
395.07	184.90
395.26	163.84
395.46	170.86
395.65	98.30
395.84	170.86
396.04	208.31
396.23	117.03
396.42	126.39
396.62	138.09
396.81	81.92
397.00	117.03
397.19	77.24
397.39	4.68
397.58	102.98
397.77	105.32
397.97	105.32
398.16	49.15
398.35	72.56
398.55	100.64
398.74	74.90
398.93	93.62
399.12	11.70
399.32	74.90
399.51	74.90
399.70	35.11
399.90	131.07
400.09	91.28
400.28	205.97
400.47	60.85
400.67	124.05
400.86	161.50
401.05	74.90
401.24	107.66
401.44	138.09
401.63	112.35
401.82	98.30
402.01	105.32
402.21	88.94
402.40	110.01
402.59	126.39
402.78	86.60
402.97	102.98
403.17	65.54
403.36	119.37
403.55	107.66
403.74	187.24
403.93	138.09
404.13	191.92
404.32	147.45
404.51	81.92
404.70	23.41
404.89	133.41
405.09	147.45
405.28	114.69
405.47	149.79
405.66	95.96
405.85	156.82
406.05	98.30
406.24	88.94
406.43	77.24
406.62	124.05
406.81	112.35
407.00	168.52
407.20	72.56
407.39	84.26
407.58	74.90
407.77	110.01
407.96	161.50
408.15	138.09
408.34	114.69
408.54	102.98
408.73	110.01
408.92	140.43
409.11	140.43
409.30	110.01
409.49	107.66
409.68	81.92
409.87	98.30
410.07	84.26
410.26	112.35
410.45	84.26
410.64	100.64
410.83	98.30
411.02	77.24
411.21	65.54
411.40	187.24
411.59	119.37
411.78	74.90
411.98	138.09
412.17	110.01
412.36	72.56
412.55	140.43
412.74	124.05
412.93	131.07
413.12	184.90
413.31	102.98
413.50	110.01
413.69	93.62
413.88	140.43
414.07	107.66
414.26	93.62
414.45	182.56
414.64	142.77
414.83	121.71
415.02	138.09
415.22	166.18
415.41	100.64
415.60	102.98
415.79	140.43
415.98	196.60
416.17	124.05
416.36	133.41
416.55	23.41
416.74	128.73
416.93	32.77
417.12	88.94
417.31	154.48
417.50	159.16
417.69	187.24
417.88	215.33
418.07	131.07
418.26	95.96
418.45	191.92
418.64	245.76
418.83	252.78
419.02	203.63
419.21	189.58
419.39	205.97
419.58	121.71
419.77	163.84
419.96	210.65
420.15	152.13
420.34	119.37
420.53	159.16
420.72	140.43
420.91	152.13
421.10	149.79
421.29	159.16
421.48	117.03
421.67	117.03
421.86	121.71
422.05	126.39
422.24	72.56
422.43	131.07
422.61	65.54
422.80	84.26
422.99	77.24
423.18	147.45
423.37	177.88
423.56	91.28
423.75	184.90
423.94	133.41
424.13	67.88
424.32	159.16
424.50	154.48
424.69	70.22
424.88	131.07
425.07	98.30
425.26	187.24
425.45	234.05
425.64	236.39
425.83	215.33
426.01	198.95
426.20	191.92
426.39	138.09
426.58	98.30
426.77	121.71
426.96	102.98
427.15	119.37
427.33	93.62
427.52	135.75
427.71	124.05
427.90	222.35
428.09	100.64
428.28	95.96
428.46	88.94
428.65	88.94
428.84	154.48
429.03	126.39
429.22	93.62
429.40	46.81
429.59	11.70
429.78	154.48
429.97	98.30
430.16	159.16
430.34	21.06
430.53	93.62
430.72	49.15
430.91	184.90
431.10	91.28
431.28	72.56
431.47	128.73
431.66	145.11
431.85	102.98
432.03	166.18
432.22	203.63
432.41	98.30
432.60	184.90
432.79	168.52
432.97	292.57
433.16	327.68
433.35	194.26
433.54	198.95
433.72	182.56
433.91	65.54
434.10	100.64
434.28	133.41
434.47	93.62
434.66	131.07
434.85	98.30
435.03	114.69
435.22	142.77
435.41	128.73
435.59	88.94
435.78	35.11
435.97	126.39
436.16	145.11
436.34	84.26
436.53	156.82
436.72	98.30
436.90	161.50
437.09	102.98
437.28	100.64
437.46	177.88
437.65	166.18
437.84	212.99
438.02	156.82
438.21	142.77
438.40	110.01
438.58	163.84
438.77	170.86
438.96	161.50
439.14	177.88
439.33	166.18
439.52	119.37
439.70	140.43
439.89	159.16
440.08	93.62
440.26	156.82
440.45	201.29
440.63	166.18
440.82	135.75
441.01	105.32
441.19	187.24
441.38	152.13
441.57	182.56
441.75	156.82
441.94	182.56
442.12	135.75
442.31	168.52
442.50	114.69
442.68	177.88
442.87	88.94
443.05	161.50
443.24	187.24
443.43	121.71
443.61	194.26
443.80	114.69
443.98	159.16
444.17	184.90
444.35	131.07
444.54	140.43
444.73	142.77
444.91	205.97
445.10	110.01
445.28	114.69
445.47	168.52
445.65	154.48
445.84	166.18
446.02	86.60
446.21	217.67
446.39	182.56
446.58	191.92
446.77	107.66
446.95	128.73
447.14	149.79
447.32	135.75
447.51	49.15
447.69	173.20
447.88	163.84
448.06	98.30
448.25	154.48
448.43	126.39
448.62	70.22
448.80	114.69
448.99	138.09
449.17	124.05
449.36	126.39
449.54	156.82
449.73	126.39
449.91	140.43
450.10	156.82
450.28	191.92
450.46	210.65
450.65	131.07
450.83	196.60
451.02	93.62
451.20	126.39
451.39	126.39
451.57	147.45
451.76	154.48
451.94	117.03
452.13	163.84
452.31	198.95
452.49	131.07
452.68	112.35
452.86	131.07
453.05	177.88
453.23	168.52
453.42	67.88
453.60	95.96
453.78	205.97
453.97	42.13
454.15	119.37
454.34	159.16
454.52	107.66
454.70	159.16
454.89	154.48
455.07	98.30
455.26	175.54
455.44	124.05
455.62	84.26
455.81	95.96
455.99	121.71
456.17	114.69
456.36	100.64
456.54	168.52
456.73	100.64
456.91	74.90
457.09	170.86
457.28	126.39
457.46	30.43
457.64	187.24
457.83	102.98
458.01	117.03
458.19	121.71
458.38	154.48
458.56	149.79
458.74	154.48
458.93	124.05
459.11	168.52
459.29	124.05
459.48	203.63
459.66	175.54
459.84	154.48
460.03	215.33
460.21	145.11
460.39	156.82
460.57	163.84
460.76	184.90
460.94	159.16
461.12	152.13
461.31	168.52
461.49	182.56
461.67	191.92
461.85	231.71
462.04	110.01
462.22	615.56
462.40	128.73
462.59	217.67
462.77	133.41
462.95	102.98
463.13	128.73
463.32	198.95
463.50	117.03
463.68	168.52
463.86	189.58
464.05	196.60
464.23	121.71
464.41	95.96
464.59	117.03
464.78	163.84
464.96	131.07
465.14	149.79
465.32	105.32
465.50	107.66
465.69	208.31
465.87	140.43
466.05	189.58
466.23	138.09
466.41	63.19
466.60	58.51
466.78	121.71
466.96	177.88
467.14	121.71
467.32	175.54
467.51	140.43
467.69	110.01
467.87	163.84
468.05	180.22
468.23	131.07
468.41	95.96
468.60	170.86
468.78	168.52
468.96	163.84
469.14	84.26
469.32	212.99
469.50	161.50
469.69	140.43
469.87	138.09
470.05	133.41
470.23	124.05
470.41	154.48
470.59	177.88
470.77	124.05
470.95	161.50
471.14	67.88
471.32	156.82
471.50	215.33
471.68	196.60
471.86	145.11
472.04	147.45
472.22	170.86
472.40	44.47
472.58	128.73
472.77	173.20
472.95	107.66
473.13	161.50
473.31	177.88
473.49	152.13
473.67	74.90
473.85	159.16
474.03	154.48
474.21	81.92
474.39	168.52
474.57	180.22
474.75	166.18
474.93	255.12
475.12	112.35
475.30	163.84
475.48	166.18
475.66	114.69
475.84	156.82
476.02	210.65
476.20	117.03
476.38	128.73
476.56	224.69
476.74	102.98
476.92	156.82
477.10	205.97
477.28	194.26
477.46	128.73
477.64	100.64
477.82	67.88
478.00	114.69
478.18	131.07
478.36	163.84
478.54	121.71
478.72	138.09
478.90	210.65
479.08	128.73
479.26	67.88
479.44	210.65
479.62	203.63
479.80	100.64
479.98	154.48
480.16	149.79
480.34	135.75
480.52	168.52
480.70	159.16
480.88	117.03
481.06	180.22
481.24	107.66
481.41	128.73
481.59	203.63
481.77	173.20
481.95	147.45
482.13	180.22
482.31	177.88
482.49	166.18
482.67	121.71
482.85	166.18
483.03	175.54
483.21	187.24
483.39	173.20
483.57	145.11
483.74	152.13
483.92	210.65
484.10	184.90
484.28	187.24
484.46	252.78
484.64	124.05
484.82	166.18
485.00	152.13
485.18	198.95
485.35	182.56
485.53	205.97
485.71	168.52
485.89	245.76
486.07	102.98
486.25	182.56
486.43	177.88
486.61	161.50
486.78	198.95
486.96	81.92
487.14	117.03
487.32	170.86
487.50	208.31
487.68	187.24
487.85	187.24
488.03	142.77
488.21	161.50
488.39	77.24
488.57	142.77
488.75	86.60
488.92	421.30
489.10	201.29
489.28	203.63
489.46	88.94
489.64	161.50
489.81	205.97
489.99	159.16
490.17	133.41
490.35	201.29
490.53	198.95
490.70	138.09
490.88	166.18
491.06	154.48
491.24	107.66
491.41	208.31
491.59	224.69
491.77	173.20
491.95	154.48
492.13	161.50
492.30	170.86
492.48	170.86
492.66	79.58
492.84	161.50
493.01	175.54
493.19	184.90
493.37	255.12
493.54	210.65
493.72	191.92
493.90	117.03
494.08	163.84
494.25	149.79
494.43	212.99
494.61	189.58
494.79	159.16
494.96	163.84
495.14	198.95
495.32	156.82
495.49	198.95
495.67	212.99
495.85	140.43
496.02	217.67
496.20	184.90
496.38	283.20
496.55	128.73
496.73	128.73
496.91	222.35
497.09	229.37
497.26	124.05
497.44	170.86
497.62	203.63
497.79	236.39
497.97	255.12
498.14	191.92
498.32	203.63
498.50	126.39
498.67	229.37
498.85	222.35
499.03	177.88
499.20	170.86
499.38	191.92
499.56	196.60
499.73	262.14
499.91	201.29
500.08	271.50
500.26	180.22
500.44	156.82
500.61	182.56
500.79	145.11
500.97	220.01
501.14	196.60
501.32	159.16
501.49	196.60
501.67	224.69
501.84	110.01
502.02	191.92
502.20	212.99
502.37	196.60
502.55	189.58
502.72	194.26
502.90	236.39
503.07	184.90
503.25	189.58
503.43	222.35
503.60	243.42
503.78	208.31
503.95	159.16
504.13	203.63
504.30	212.99
504.48	269.16
504.65	138.09
504.83	187.24
505.01	224.69
505.18	222.35
505.36	175.54
505.53	217.67
505.71	170.86
505.88	243.42
506.06	175.54
506.23	203.63
506.41	152.13
506.58	196.60
506.76	187.24
506.93	163.84
507.11	198.95
507.28	117.03
507.46	182.56
507.63	180.22
507.81	166.18
507.98	201.29
508.16	163.84
508.33	131.07
508.50	313.63
508.68	241.08
508.85	203.63
509.03	201.29
509.20	159.16
509.38	280.86
509.55	187.24
509.73	156.82
509.90	341.72
510.08	184.90
510.25	182.56
510.42	154.48
510.60	222.35
510.77	262.14
510.95	252.78
511.12	276.18
511.30	170.86
511.47	259.80
511.64	311.29
511.82	229.37
511.99	175.54
512.17	330.02
512.34	243.42
512.51	166.18
512.69	159.16
512.86	255.12
513.04	187.24
513.21	210.65
513.38	203.63
513.56	105.32
513.73	210.65
513.90	175.54
514.08	198.95
514.25	224.69
514.43	217.67
514.60	154.48
514.77	208.31
514.95	194.26
515.12	205.97
515.29	231.71
515.47	205.97
515.64	187.24
515.81	271.50
515.99	229.37
516.16	191.92
516.33	231.71
516.51	170.86
516.68	168.52
516.85	107.66
517.03	98.30
517.20	210.65
517.37	250.44
517.54	210.65
517.72	166.18
517.89	236.39
518.06	138.09
518.24	259.80
518.41	259.80
518.58	257.46
518.75	220.01
518.93	154.48
519.10	210.65
519.27	224.69
519.45	215.33
519.62	182.56
519.79	222.35
519.96	227.03
520.14	154.48
520.31	297.25
520.48	215.33
520.65	236.39
520.83	248.10
521.00	245.76
521.17	255.12
521.34	245.76
521.52	180.22
521.69	126.39
521.86	205.97
522.03	266.82
522.20	311.29
522.38	173.20
522.55	222.35
522.72	191.92
522.89	241.08
523.07	189.58
523.24	205.97
523.41	152.13
523.58	184.90
523.75	196.60
523.92	248.10
524.10	198.95
524.27	227.03
524.44	189.58
524.61	208.31
524.78	159.16
524.96	234.05
525.13	238.73
525.30	222.35
525.47	229.37
525.64	208.31
525.81	222.35
525.98	119.37
526.16	255.12
526.33	168.52
526.50	182.56
526.67	152.13
526.84	184.90
527.01	173.20
527.18	205.97
527.36	187.24
527.53	177.88
527.70	215.33
527.87	262.14
528.04	337.04
528.21	154.48
528.38	229.37
528.55	217.67
528.72	283.20
528.89	304.27
529.07	266.82
529.24	231.71
529.41	227.03
529.58	241.08
529.75	163.84
529.92	264.48
530.09	191.92
530.26	264.48
530.43	238.73
530.60	227.03
530.77	299.59
530.94	203.63
531.11	189.58
531.28	220.01
531.46	217.67
531.63	180.22
531.80	231.71
531.97	194.26
532.14	170.86
532.31	269.16
532.48	257.46
532.65	308.95
532.82	311.29
532.99	341.72
533.16	301.93
533.33	320.65
533.50	257.46
533.67	313.63
533.84	379.17
534.01	440.02
534.18	320.65
534.35	339.38
534.52	322.99
534.69	315.97
534.86	168.52
535.03	196.60
535.20	229.37
535.37	245.76
535.54	294.91
535.71	292.57
535.88	224.69
536.05	182.56
536.22	180.22
536.38	191.92
536.55	208.31
536.72	168.52
536.89	177.88
537.06	217.67
537.23	201.29
537.40	191.92
537.57	191.92
537.74	159.16
537.91	215.33
538.08	170.86
538.25	212.99
538.42	322.99
538.59	241.08
538.75	187.24
538.92	166.18
539.09	252.78
539.26	210.65
539.43	482.15
539.60	1153.88
539.77	1902.86
539.94	1851.36
540.11	1219.42
540.28	816.85
540.44	557.05
540.61	222.35
540.78	292.57
540.95	252.78
541.12	257.46
541.29	222.35
541.46	229.37
541.62	215.33
541.79	217.67
541.96	140.43
542.13	196.60
542.30	154.48
542.47	187.24
542.63	217.67
542.80	205.97
542.97	255.12
543.14	189.58
543.31	212.99
543.48	205.97
543.64	203.63
543.81	259.80
543.98	250.44
544.15	135.75
544.32	145.11
544.48	248.10
544.65	156.82
544.82	252.78
544.99	271.50
545.16	205.97
545.32	170.86
545.49	205.97
545.66	140.43
545.83	124.05
546.00	79.58
546.16	135.75
546.33	229.37
546.50	182.56
546.67	327.68
546.83	222.35
547.00	210.65
547.17	203.63
547.34	194.26
547.50	107.66
547.67	271.50
547.84	149.79
548.00	311.29
548.17	154.48
548.34	184.90
548.51	243.42
548.67	248.10
548.84	243.42
549.01	208.31
549.18	250.44
549.34	259.80
549.51	227.03
549.68	189.58
549.84	163.84
550.01	138.09
550.18	327.68
550.34	271.50
550.51	215.33
550.68	266.82
550.84	222.35
551.01	182.56
551.18	217.67
551.34	262.14
551.51	163.84
551.68	177.88
551.84	215.33
552.01	166.18
552.18	205.97
552.34	231.71
552.51	156.82
552.68	177.88
552.84	173.20
553.01	248.10
553.18	215.33
553.34	196.60
553.51	161.50
553.67	215.33
553.84	205.97
554.01	222.35
554.17	217.67
554.34	231.71
554.51	208.31
554.67	301.93
554.84	208.31
555.00	238.73
555.17	220.01
555.33	241.08
555.50	236.39
555.67	210.65
555.83	177.88
556.00	259.80
556.16	435.34
556.33	257.46
556.50	269.16
556.66	184.90
556.83	304.27
556.99	177.88
557.16	220.01
557.32	191.92
557.49	182.56
557.65	194.26
557.82	159.16
557.98	189.58
558.15	175.54
558.32	224.69
558.48	238.73
558.65	269.16
558.81	180.22
558.98	168.52
559.14	128.73
559.31	224.69
559.47	276.18
559.64	170.86
559.80	152.13
559.97	131.07
560.13	170.86
560.30	138.09
560.46	205.97
560.63	243.42
560.79	220.01
560.96	180.22
561.12	210.65
561.29	191.92
561.45	194.26
561.61	196.60
561.78	271.50
561.94	166.18
562.11	159.16
562.27	112.35
562.44	187.24
562.60	175.54
562.77	203.63
562.93	285.55
563.10	124.05
563.26	182.56
563.42	266.82
563.59	147.45
563.75	182.56
563.92	175.54
564.08	205.97
564.24	278.52
564.41	234.05
564.57	212.99
564.74	255.12
564.90	203.63
565.07	259.80
565.23	266.82
565.39	220.01
565.56	245.76
565.72	203.63
565.88	276.18
566.05	222.35
566.21	205.97
566.38	189.58
566.54	241.08
566.70	238.73
566.87	227.03
567.03	128.73
567.19	234.05
567.36	201.29
567.52	210.65
567.68	184.90
567.85	220.01
568.01	182.56
568.17	161.50
568.34	170.86
568.50	212.99
568.66	308.95
568.83	306.61
568.99	133.41
569.15	210.65
569.32	203.63
569.48	140.43
569.64	119.37
569.81	250.44
569.97	175.54
570.13	243.42
570.30	196.60
570.46	196.60
570.62	255.12
570.78	210.65
570.95	131.07
571.11	234.05
571.27	264.48
571.43	93.62
571.60	236.39
571.76	269.16
571.92	259.80
572.09	257.46
572.25	245.76
572.41	222.35
572.57	170.86
572.74	271.50
572.90	203.63
573.06	212.99
573.22	220.01
573.38	215.33
573.55	222.35
573.71	252.78
573.87	224.69
574.03	229.37
574.20	161.50
574.36	301.93
574.52	222.35
574.68	318.31
574.84	262.14
575.01	280.86
575.17	306.61
575.33	161.50
575.49	227.03
575.65	238.73
575.82	437.68
575.98	561.73
576.14	720.88
576.30	837.91
576.46	571.09
576.62	465.77
576.79	367.46
576.95	330.02
577.11	294.91
577.27	252.78
577.43	280.86
577.59	280.86
577.75	234.05
577.92	266.82
578.08	280.86
578.24	241.08
578.40	257.46
578.56	283.20
578.72	337.04
578.88	271.50
579.04	266.82
579.21	229.37
579.37	308.95
579.53	280.86
579.69	292.57
579.85	304.27
580.01	297.25
580.17	351.08
580.33	402.57
580.49	425.98
580.65	344.06
580.82	351.08
580.98	313.63
581.14	304.27
581.30	360.44
581.46	383.85
581.62	622.58
581.78	767.70
581.94	741.95
582.10	587.47
582.26	545.34
582.42	543.00
582.58	528.96
582.74	444.70
582.90	428.32
583.06	454.06
583.22	477.47
583.38	512.58
583.54	533.64
583.70	676.41
583.86	765.36
584.02	898.77
584.18	1090.69
584.34	1437.09
584.50	3714.43
584.66	28226.86
584.82	61268.20
584.98	65535.00
585.14	65535.00
585.30	62031.22
585.46	37989.24
585.62	23297.69
585.78	10677.52
585.94	4042.11
586.10	1944.99
586.26	1174.95
586.42	936.21
586.58	791.10
586.74	613.22
586.90	723.23
587.06	660.03
587.22	461.09
587.38	615.56
587.54	1355.17
587.70	4154.45
587.86	7389.07
588.02	8648.28
588.18	5870.06
588.34	3613.79
588.49	2303.09
588.65	1439.43
588.81	720.88
588.97	390.87
589.13	341.72
589.29	362.78
589.45	409.59
589.61	308.95
589.77	381.51
589.93	510.24
590.08	514.92
590.24	421.30
590.40	500.87
590.56	479.81
590.72	283.20
590.88	330.02
591.04	397.89
591.20	332.36
591.35	315.97
591.51	397.89
591.67	346.40
591.83	313.63
591.99	301.93
592.15	297.25
592.31	292.57
592.46	220.01
592.62	308.95
592.78	241.08
592.94	308.95
593.10	290.23
593.26	330.02
593.41	344.06
593.57	374.49
593.73	620.24
593.89	3384.41
594.05	8777.01
594.20	14347.48
594.36	13858.31
594.52	8952.55
594.68	5556.43
594.84	3674.64
594.99	2031.58
595.15	922.17
595.31	449.38
595.47	477.47
595.62	304.27
595.78	344.06
595.94	402.57
596.10	351.08
596.25	423.64
596.41	444.70
596.57	269.16
596.73	259.80
596.88	601.52
597.04	1575.18
597.20	2757.15
597.36	3693.37
597.51	2616.72
597.67	1713.27
597.83	1139.84
597.99	798.12
598.14	456.40
598.30	362.78
598.46	327.68
598.61	393.21
598.77	318.31
598.93	236.39
599.09	217.67
599.24	215.33
599.40	203.63
599.56	234.05
599.71	264.48
599.87	156.82
600.03	229.37
600.18	236.39
600.34	241.08
600.50	203.63
600.65	161.50
600.81	264.48
600.97	175.54
601.12	198.95
601.28	210.65
601.44	238.73
601.59	175.54
601.75	241.08
601.91	271.50
602.06	257.46
602.22	351.08
602.37	833.23
602.53	2050.31
602.69	3459.31
602.84	3742.52
603.00	2635.44
603.16	1816.26
603.31	1214.74
603.47	884.72
603.62	472.79
603.78	360.44
603.94	278.52
604.09	285.55
604.25	290.23
604.40	262.14
604.56	255.12
604.71	290.23
604.87	222.35
605.03	250.44
605.18	322.99
605.34	238.73
605.49	266.82
605.65	241.08
605.80	264.48
605.96	297.25
606.12	358.10
606.27	285.55
606.43	369.80
606.58	447.04
606.74	985.37
606.89	3983.59
607.05	8826.16
607.20	12554.63
607.36	10153.24
607.51	6722.02
607.67	4301.90
607.82	2944.39
607.98	1533.05
608.13	753.65
608.29	491.51
608.44	503.22
608.60	458.74
608.75	472.79
608.91	1418.36
609.06	6349.87
609.22	15185.40
609.37	21448.67
609.53	19133.88
609.68	12311.22
609.84	7712.07
609.99	5235.78
610.15	2700.98
610.30	1245.16
610.46	692.80
610.61	465.77
610.76	449.38
610.92	397.89
611.07	318.31
611.23	383.85
611.38	381.51
611.54	353.42
611.69	259.80
