SpectraSuite Data File
++++++++++++++++++++++++++++++++++++
Date: Fri Oct 04 11:47:23 GMT-05:00 2013
User: price-jones
Dark Spectrum Present: No
Reference Spectrum Present: No
Number of Sampled Component Spectra: 1
Spectrometers: USB2+H05261
Integration Time (usec): 100000 (USB2+H05261)
Spectra Averaged: 1 (USB2+H05261)
Boxcar Smoothing: 0 (USB2+H05261)
Correct for Electrical Dark: No (USB2+H05261)
Strobe/Lamp Enabled: No (USB2+H05261)
Correct for Detector Non-linearity: No (USB2+H05261)
Correct for Stray Light: No (USB2+H05261)
Number of Pixels in Processed Spectrum: 2048
>>>>>Begin Processed Spectral Data<<<<<
365.73	42.13
365.92	42.13
366.12	42.13
366.32	0.00
366.52	0.00
366.72	0.00
366.91	0.00
367.11	0.00
367.31	0.00
367.51	0.00
367.70	0.00
367.90	0.00
368.10	0.00
368.30	0.00
368.49	0.00
368.69	0.00
368.89	0.00
369.09	0.00
369.28	0.00
369.48	0.00
369.68	0.00
369.87	0.00
370.07	0.00
370.27	0.00
370.47	0.00
370.66	42.13
370.86	67.88
371.06	67.88
371.25	51.49
371.45	79.58
371.65	44.47
371.84	18.72
372.04	44.47
372.24	79.58
372.44	93.62
372.63	126.39
372.83	60.85
373.03	102.98
373.22	95.96
373.42	60.85
373.62	16.38
373.81	142.77
374.01	140.43
374.21	81.92
374.40	86.60
374.60	60.85
374.79	156.82
374.99	154.48
375.19	91.28
375.38	117.03
375.58	107.66
375.78	81.92
375.97	163.84
376.17	163.84
376.37	138.09
376.56	152.13
376.76	53.83
376.95	77.24
377.15	114.69
377.35	98.30
377.54	145.11
377.74	196.60
377.93	84.26
378.13	63.19
378.33	88.94
378.52	67.88
378.72	114.69
378.91	163.84
379.11	117.03
379.31	42.13
379.50	30.43
379.70	88.94
379.89	154.48
380.09	56.17
380.28	79.58
380.48	102.98
380.68	140.43
380.87	159.16
381.07	121.71
381.26	72.56
381.46	126.39
381.65	107.66
381.85	161.50
382.04	142.77
382.24	112.35
382.43	67.88
382.63	79.58
382.83	72.56
383.02	86.60
383.22	107.66
383.41	161.50
383.61	147.45
383.80	121.71
384.00	67.88
384.19	79.58
384.39	58.51
384.58	30.43
384.78	124.05
384.97	121.71
385.17	37.45
385.36	86.60
385.56	184.90
385.75	105.32
385.95	156.82
386.14	114.69
386.34	100.64
386.53	149.79
386.72	84.26
386.92	159.16
387.11	74.90
387.31	154.48
387.50	70.22
387.70	121.71
387.89	102.98
388.09	107.66
388.28	46.81
388.48	21.06
388.67	117.03
388.86	88.94
389.06	86.60
389.25	128.73
389.45	84.26
389.64	67.88
389.84	77.24
390.03	156.82
390.22	140.43
390.42	88.94
390.61	110.01
390.81	42.13
391.00	112.35
391.19	135.75
391.39	140.43
391.58	77.24
391.78	168.52
391.97	100.64
392.16	128.73
392.36	194.26
392.55	154.48
392.75	152.13
392.94	163.84
393.13	145.11
393.33	117.03
393.52	70.22
393.71	84.26
393.91	166.18
394.10	88.94
394.29	88.94
394.49	126.39
394.68	152.13
394.88	156.82
395.07	81.92
395.26	91.28
395.46	187.24
395.65	86.60
395.84	114.69
396.04	152.13
396.23	114.69
396.42	117.03
396.62	133.41
396.81	98.30
397.00	84.26
397.19	128.73
397.39	72.56
397.58	217.67
397.77	159.16
397.97	63.19
398.16	102.98
398.35	166.18
398.55	112.35
398.74	98.30
398.93	79.58
399.12	121.71
399.32	152.13
399.51	149.79
399.70	84.26
399.90	205.97
400.09	175.54
400.28	163.84
400.47	81.92
400.67	133.41
400.86	135.75
401.05	131.07
401.24	191.92
401.44	147.45
401.63	112.35
401.82	170.86
402.01	131.07
402.21	168.52
402.40	180.22
402.59	70.22
402.78	138.09
402.97	149.79
403.17	98.30
403.36	163.84
403.55	105.32
403.74	147.45
403.93	102.98
404.13	208.31
404.32	79.58
404.51	142.77
404.70	182.56
404.89	156.82
405.09	161.50
405.28	138.09
405.47	100.64
405.66	112.35
405.85	154.48
406.05	163.84
406.24	110.01
406.43	166.18
406.62	182.56
406.81	119.37
407.00	124.05
407.20	81.92
407.39	142.77
407.58	117.03
407.77	147.45
407.96	170.86
408.15	133.41
408.34	147.45
408.54	173.20
408.73	161.50
408.92	159.16
409.11	166.18
409.30	126.39
409.49	159.16
409.68	147.45
409.87	112.35
410.07	100.64
410.26	100.64
410.45	107.66
410.64	205.97
410.83	149.79
411.02	184.90
411.21	124.05
411.40	159.16
411.59	156.82
411.78	128.73
411.98	114.69
412.17	44.47
412.36	105.32
412.55	154.48
412.74	131.07
412.93	177.88
413.12	98.30
413.31	198.95
413.50	205.97
413.69	189.58
413.88	147.45
414.07	163.84
414.26	173.20
414.45	138.09
414.64	117.03
414.83	222.35
415.02	189.58
415.22	135.75
415.41	203.63
415.60	156.82
415.79	133.41
415.98	180.22
416.17	205.97
416.36	180.22
416.55	95.96
416.74	119.37
416.93	222.35
417.12	196.60
417.31	95.96
417.50	159.16
417.69	154.48
417.88	194.26
418.07	135.75
418.26	220.01
418.45	177.88
418.64	88.94
418.83	156.82
419.02	215.33
419.21	196.60
419.39	131.07
419.58	140.43
419.77	201.29
419.96	210.65
420.15	203.63
420.34	184.90
420.53	210.65
420.72	140.43
420.91	215.33
421.10	152.13
421.29	252.78
421.48	119.37
421.67	210.65
421.86	124.05
422.05	110.01
422.24	138.09
422.43	203.63
422.61	177.88
422.80	140.43
422.99	133.41
423.18	220.01
423.37	159.16
423.56	196.60
423.75	128.73
423.94	95.96
424.13	124.05
424.32	163.84
424.50	135.75
424.69	163.84
424.88	222.35
425.07	100.64
425.26	166.18
425.45	170.86
425.64	107.66
425.83	189.58
426.01	159.16
426.20	170.86
426.39	124.05
426.58	241.08
426.77	131.07
426.96	163.84
427.15	203.63
427.33	203.63
427.52	210.65
427.71	131.07
427.90	201.29
428.09	163.84
428.28	84.26
428.46	187.24
428.65	166.18
428.84	133.41
429.03	205.97
429.22	145.11
429.40	112.35
429.59	91.28
429.78	170.86
429.97	138.09
430.16	168.52
430.34	194.26
430.53	72.56
430.72	180.22
430.91	156.82
431.10	124.05
431.28	229.37
431.47	182.56
431.66	163.84
431.85	187.24
432.03	149.79
432.22	194.26
432.41	121.71
432.60	191.92
432.79	138.09
432.97	187.24
433.16	215.33
433.35	231.71
433.54	117.03
433.72	220.01
433.91	166.18
434.10	124.05
434.28	196.60
434.47	205.97
434.66	210.65
434.85	224.69
435.03	196.60
435.22	135.75
435.41	215.33
435.59	217.67
435.78	227.03
435.97	210.65
436.16	184.90
436.34	175.54
436.53	217.67
436.72	208.31
436.90	215.33
437.09	154.48
437.28	168.52
437.46	166.18
437.65	182.56
437.84	128.73
438.02	156.82
438.21	177.88
438.40	187.24
438.58	93.62
438.77	257.46
438.96	182.56
439.14	182.56
439.33	168.52
439.52	180.22
439.70	203.63
439.89	145.11
440.08	203.63
440.26	248.10
440.45	173.20
440.63	163.84
440.82	182.56
441.01	222.35
441.19	173.20
441.38	212.99
441.57	215.33
441.75	238.73
441.94	229.37
442.12	177.88
442.31	180.22
442.50	128.73
442.68	252.78
442.87	236.39
443.05	212.99
443.24	250.44
443.43	238.73
443.61	163.84
443.80	170.86
443.98	189.58
444.17	149.79
444.35	187.24
444.54	159.16
444.73	152.13
444.91	163.84
445.10	177.88
445.28	194.26
445.47	224.69
445.65	203.63
445.84	217.67
446.02	147.45
446.21	149.79
446.39	227.03
446.58	245.76
446.77	147.45
446.95	170.86
447.14	189.58
447.32	184.90
447.51	163.84
447.69	147.45
447.88	215.33
448.06	245.76
448.25	205.97
448.43	166.18
448.62	175.54
448.80	189.58
448.99	163.84
449.17	159.16
449.36	161.50
449.54	210.65
449.73	145.11
449.91	222.35
450.10	215.33
450.28	290.23
450.46	208.31
450.65	168.52
450.83	124.05
451.02	145.11
451.20	227.03
451.39	210.65
451.57	138.09
451.76	220.01
451.94	220.01
452.13	217.67
452.31	222.35
452.49	245.76
452.68	145.11
452.86	187.24
453.05	236.39
453.23	217.67
453.42	170.86
453.60	224.69
453.78	170.86
453.97	322.99
454.15	208.31
454.34	163.84
454.52	187.24
454.70	241.08
454.89	208.31
455.07	159.16
455.26	142.77
455.44	231.71
455.62	154.48
455.81	243.42
455.99	222.35
456.17	259.80
456.36	208.31
456.54	271.50
456.73	133.41
456.91	236.39
457.09	175.54
457.28	273.84
457.46	220.01
457.64	168.52
457.83	147.45
458.01	198.95
458.19	241.08
458.38	170.86
458.56	212.99
458.74	222.35
458.93	184.90
459.11	189.58
459.29	227.03
459.48	182.56
459.66	318.31
459.84	180.22
460.03	264.48
460.21	217.67
460.39	224.69
460.57	337.04
460.76	234.05
460.94	201.29
461.12	264.48
461.31	248.10
461.49	100.64
461.67	187.24
461.85	189.58
462.04	191.92
462.22	638.97
462.40	285.55
462.59	304.27
462.77	203.63
462.95	198.95
463.13	135.75
463.32	266.82
463.50	208.31
463.68	262.14
463.86	210.65
464.05	168.52
464.23	201.29
464.41	266.82
464.59	203.63
464.78	149.79
464.96	220.01
465.14	212.99
465.32	196.60
465.50	175.54
465.69	266.82
465.87	222.35
466.05	215.33
466.23	215.33
466.41	205.97
466.60	220.01
466.78	180.22
466.96	271.50
467.14	215.33
467.32	234.05
467.51	236.39
467.69	252.78
467.87	243.42
468.05	222.35
468.23	222.35
468.41	212.99
468.60	152.13
468.78	280.86
468.96	224.69
469.14	187.24
469.32	238.73
469.50	227.03
469.69	205.97
469.87	234.05
470.05	163.84
470.23	182.56
470.41	194.26
470.59	229.37
470.77	205.97
470.95	257.46
471.14	266.82
471.32	255.12
471.50	311.29
471.68	191.92
471.86	220.01
472.04	212.99
472.22	152.13
472.40	182.56
472.58	262.14
472.77	220.01
472.95	208.31
473.13	215.33
473.31	306.61
473.49	182.56
473.67	220.01
473.85	227.03
474.03	248.10
474.21	245.76
474.39	271.50
474.57	245.76
474.75	220.01
474.93	234.05
475.12	163.84
475.30	287.89
475.48	227.03
475.66	259.80
475.84	269.16
476.02	117.03
476.20	241.08
476.38	255.12
476.56	283.20
476.74	227.03
476.92	222.35
477.10	189.58
477.28	229.37
477.46	259.80
477.64	341.72
477.82	238.73
478.00	306.61
478.18	217.67
478.36	201.29
478.54	243.42
478.72	322.99
478.90	297.25
479.08	238.73
479.26	299.59
479.44	231.71
479.62	229.37
479.80	142.77
479.98	231.71
480.16	287.89
480.34	294.91
480.52	187.24
480.70	280.86
480.88	243.42
481.06	285.55
481.24	227.03
481.41	273.84
481.59	217.67
481.77	238.73
481.95	294.91
482.13	234.05
482.31	241.08
482.49	201.29
482.67	280.86
482.85	257.46
483.03	285.55
483.21	264.48
483.39	264.48
483.57	224.69
483.74	266.82
483.92	191.92
484.10	259.80
484.28	196.60
484.46	278.52
484.64	250.44
484.82	250.44
485.00	358.10
485.18	269.16
485.35	278.52
485.53	248.10
485.71	248.10
485.89	191.92
486.07	264.48
486.25	374.49
486.43	306.61
486.61	210.65
486.78	301.93
486.96	285.55
487.14	222.35
487.32	231.71
487.50	252.78
487.68	358.10
487.85	252.78
488.03	304.27
488.21	327.68
488.39	304.27
488.57	367.46
488.75	322.99
488.92	606.20
489.10	278.52
489.28	276.18
489.46	379.17
489.64	236.39
489.81	259.80
489.99	297.25
490.17	367.46
490.35	339.38
490.53	248.10
490.70	304.27
490.88	337.04
491.06	351.08
491.24	390.87
491.41	348.74
491.59	264.48
491.77	283.20
491.95	224.69
492.13	266.82
492.30	287.89
492.48	257.46
492.66	306.61
492.84	266.82
493.01	285.55
493.19	330.02
493.37	376.83
493.54	341.72
493.72	283.20
493.90	238.73
494.08	388.53
494.25	271.50
494.43	313.63
494.61	334.70
494.79	318.31
494.96	344.06
495.14	304.27
495.32	327.68
495.49	294.91
495.67	308.95
495.85	414.27
496.02	203.63
496.20	383.85
496.38	353.42
496.55	262.14
496.73	341.72
496.91	376.83
497.09	332.36
497.26	332.36
497.44	290.23
497.62	304.27
497.79	318.31
497.97	397.89
498.14	306.61
498.32	379.17
498.50	348.74
498.67	353.42
498.85	365.12
499.03	390.87
499.20	294.91
499.38	315.97
499.56	360.44
499.73	383.85
499.91	337.04
500.08	311.29
500.26	327.68
500.44	341.72
500.61	301.93
500.79	271.50
500.97	339.38
501.14	397.89
501.32	388.53
501.49	341.72
501.67	332.36
501.84	381.51
502.02	297.25
502.20	440.02
502.37	315.97
502.55	322.99
502.72	334.70
502.90	273.84
503.07	362.78
503.25	395.55
503.43	287.89
503.60	278.52
503.78	222.35
503.95	362.78
504.13	318.31
504.30	341.72
504.48	386.19
504.65	346.40
504.83	325.33
505.01	332.36
505.18	337.04
505.36	292.57
505.53	262.14
505.71	374.49
505.88	367.46
506.06	315.97
506.23	341.72
506.41	379.17
506.58	395.55
506.76	285.55
506.93	374.49
507.11	379.17
507.28	297.25
507.46	325.33
507.63	341.72
507.81	311.29
507.98	266.82
508.16	315.97
508.33	344.06
508.50	383.85
508.68	393.21
508.85	332.36
509.03	325.33
509.20	334.70
509.38	351.08
509.55	374.49
509.73	332.36
509.90	365.12
510.08	339.38
510.25	421.30
510.42	334.70
510.60	372.15
510.77	402.57
510.95	379.17
511.12	379.17
511.30	437.68
511.47	360.44
511.64	447.04
511.82	341.72
511.99	311.29
512.17	311.29
512.34	313.63
512.51	318.31
512.69	325.33
512.86	421.30
513.04	325.33
513.21	358.10
513.38	290.23
513.56	390.87
513.73	294.91
513.90	315.97
514.08	351.08
514.25	369.80
514.43	414.27
514.60	339.38
514.77	402.57
514.95	409.59
515.12	334.70
515.29	318.31
515.47	348.74
515.64	327.68
515.81	369.80
515.99	390.87
516.16	386.19
516.33	400.23
516.51	308.95
516.68	313.63
516.85	353.42
517.03	360.44
517.20	344.06
517.37	337.04
517.54	318.31
517.72	355.76
517.89	390.87
518.06	339.38
518.24	353.42
518.41	376.83
518.58	430.66
518.75	337.04
518.93	428.32
519.10	320.65
519.27	330.02
519.45	308.95
519.62	418.96
519.79	369.80
519.96	372.15
520.14	362.78
520.31	421.30
520.48	348.74
520.65	409.59
520.83	428.32
521.00	428.32
521.17	353.42
521.34	341.72
521.52	320.65
521.69	322.99
521.86	369.80
522.03	458.74
522.20	470.45
522.38	311.29
522.55	444.70
522.72	395.55
522.89	376.83
523.07	463.43
523.24	416.62
523.41	381.51
523.58	430.66
523.75	358.10
523.92	395.55
524.10	339.38
524.27	407.25
524.44	369.80
524.61	367.46
524.78	388.53
524.96	393.21
525.13	388.53
525.30	430.66
525.47	442.36
525.64	423.64
525.81	362.78
525.98	252.78
526.16	315.97
526.33	330.02
526.50	278.52
526.67	327.68
526.84	271.50
527.01	332.36
527.18	365.12
527.36	395.55
527.53	379.17
527.70	367.46
527.87	351.08
528.04	430.66
528.21	379.17
528.38	414.27
528.55	465.77
528.72	381.51
528.89	458.74
529.07	447.04
529.24	395.55
529.41	372.15
529.58	435.34
529.75	362.78
529.92	400.23
530.09	407.25
530.26	407.25
530.43	390.87
530.60	428.32
530.77	482.15
530.94	477.47
531.11	395.55
531.28	472.79
531.46	409.59
531.63	367.46
531.80	418.96
531.97	484.49
532.14	465.77
532.31	407.25
532.48	407.25
532.65	386.19
532.82	348.74
532.99	393.21
533.16	353.42
533.33	330.02
533.50	388.53
533.67	435.34
533.84	449.38
534.01	435.34
534.18	465.77
534.35	409.59
534.52	381.51
534.69	418.96
534.86	421.30
535.03	397.89
535.20	360.44
535.37	491.51
535.54	447.04
535.71	477.47
535.88	507.90
536.05	381.51
536.22	411.93
536.38	397.89
536.55	458.74
536.72	425.98
536.89	379.17
537.06	339.38
537.23	386.19
537.40	425.98
537.57	449.38
537.74	461.09
537.91	423.64
538.08	461.09
538.25	409.59
538.42	379.17
538.59	353.42
538.75	330.02
538.92	416.62
539.09	440.02
539.26	381.51
539.43	470.45
539.60	416.62
539.77	428.32
539.94	475.13
540.11	376.83
540.28	404.91
540.44	388.53
540.61	365.12
540.78	362.78
540.95	383.85
541.12	381.51
541.29	442.36
541.46	465.77
541.62	437.68
541.79	374.49
541.96	271.50
542.13	348.74
542.30	372.15
542.47	538.32
542.63	428.32
542.80	353.42
542.97	461.09
543.14	404.91
543.31	379.17
543.48	355.76
543.64	386.19
543.81	346.40
543.98	365.12
544.15	341.72
544.32	461.09
544.48	397.89
544.65	390.87
544.82	379.17
544.99	444.70
545.16	402.57
545.32	344.06
545.49	365.12
545.66	430.66
545.83	365.12
546.00	383.85
546.16	442.36
546.33	404.91
546.50	400.23
546.67	435.34
546.83	479.81
547.00	425.98
547.17	423.64
547.34	386.19
547.50	500.87
547.67	404.91
547.84	304.27
548.00	423.64
548.17	388.53
548.34	372.15
548.51	423.64
548.67	423.64
548.84	388.53
549.01	407.25
549.18	330.02
549.34	416.62
549.51	325.33
549.68	458.74
549.84	379.17
550.01	386.19
550.18	521.94
550.34	517.26
550.51	407.25
550.68	442.36
550.84	367.46
551.01	351.08
551.18	386.19
551.34	442.36
551.51	416.62
551.68	365.12
551.84	458.74
552.01	369.80
552.18	402.57
552.34	318.31
552.51	411.93
552.68	447.04
552.84	320.65
553.01	304.27
553.18	320.65
553.34	414.27
553.51	360.44
553.67	379.17
553.84	411.93
554.01	388.53
554.17	362.78
554.34	388.53
554.51	376.83
554.67	397.89
554.84	393.21
555.00	330.02
555.17	348.74
555.33	374.49
555.50	414.27
555.67	402.57
555.83	397.89
556.00	411.93
556.16	533.64
556.33	433.00
556.50	376.83
556.66	425.98
556.83	393.21
556.99	346.40
557.16	440.02
557.32	407.25
557.49	372.15
557.65	404.91
557.82	379.17
557.98	369.80
558.15	369.80
558.32	374.49
558.48	318.31
558.65	397.89
558.81	421.30
558.98	393.21
559.14	433.00
559.31	341.72
559.47	369.80
559.64	297.25
559.80	358.10
559.97	325.33
560.13	400.23
560.30	421.30
560.46	400.23
560.63	386.19
560.79	400.23
560.96	367.46
561.12	428.32
561.29	402.57
561.45	346.40
561.61	390.87
561.78	496.19
561.94	397.89
562.11	344.06
562.27	388.53
562.44	301.93
562.60	360.44
562.77	348.74
562.93	475.13
563.10	498.53
563.26	376.83
563.42	430.66
563.59	409.59
563.75	341.72
563.92	425.98
564.08	400.23
564.24	358.10
564.41	404.91
564.57	322.99
564.74	337.04
564.90	318.31
565.07	386.19
565.23	428.32
565.39	330.02
565.56	407.25
565.72	372.15
565.88	409.59
566.05	278.52
566.21	334.70
566.38	397.89
566.54	374.49
566.70	348.74
566.87	400.23
567.03	330.02
567.19	332.36
567.36	381.51
567.52	388.53
567.68	395.55
567.85	358.10
568.01	369.80
568.17	327.68
568.34	372.15
568.50	435.34
568.66	339.38
568.83	404.91
568.99	332.36
569.15	365.12
569.32	332.36
569.48	301.93
569.64	325.33
569.81	351.08
569.97	421.30
570.13	402.57
570.30	311.29
570.46	301.93
570.62	320.65
570.78	327.68
570.95	346.40
571.11	390.87
571.27	381.51
571.43	346.40
571.60	407.25
571.76	320.65
571.92	353.42
572.09	402.57
572.25	355.76
572.41	278.52
572.57	248.10
572.74	325.33
572.90	374.49
573.06	444.70
573.22	257.46
573.38	407.25
573.55	348.74
573.71	322.99
573.87	400.23
574.03	266.82
574.20	248.10
574.36	358.10
574.52	367.46
574.68	388.53
574.84	337.04
575.01	362.78
575.17	308.95
575.33	449.38
575.49	411.93
575.65	367.46
575.82	355.76
575.98	388.53
576.14	299.59
576.30	341.72
576.46	344.06
576.62	344.06
576.79	416.62
576.95	388.53
577.11	388.53
577.27	386.19
577.43	365.12
577.59	376.83
577.75	339.38
577.92	421.30
578.08	332.36
578.24	330.02
578.40	400.23
578.56	411.93
578.72	334.70
578.88	365.12
579.04	257.46
579.21	306.61
579.37	315.97
579.53	444.70
579.69	367.46
579.85	339.38
580.01	360.44
580.17	341.72
580.33	346.40
580.49	353.42
580.65	341.72
580.82	358.10
580.98	346.40
581.14	276.18
581.30	374.49
581.46	360.44
581.62	372.15
581.78	322.99
581.94	332.36
582.10	313.63
582.26	318.31
582.42	355.76
582.58	395.55
582.74	332.36
582.90	362.78
583.06	395.55
583.22	337.04
583.38	318.31
583.54	301.93
583.70	421.30
583.86	322.99
584.02	374.49
584.18	339.38
584.34	320.65
584.50	322.99
584.66	346.40
584.82	395.55
584.98	404.91
585.14	428.32
585.30	308.95
585.46	351.08
585.62	330.02
585.78	325.33
585.94	341.72
586.10	348.74
586.26	341.72
586.42	449.38
586.58	367.46
586.74	325.33
586.90	334.70
587.06	388.53
587.22	379.17
587.38	313.63
587.54	257.46
587.70	407.25
587.86	346.40
588.02	376.83
588.18	320.65
588.34	334.70
588.49	257.46
588.65	243.42
588.81	339.38
588.97	287.89
589.13	269.16
589.29	269.16
589.45	379.17
589.61	287.89
589.77	245.76
589.93	330.02
590.08	271.50
590.24	241.08
590.40	297.25
590.56	299.59
590.72	348.74
590.88	353.42
591.04	355.76
591.20	264.48
591.35	325.33
591.51	262.14
591.67	313.63
591.83	320.65
591.99	271.50
592.15	327.68
592.31	294.91
592.46	292.57
592.62	388.53
592.78	404.91
592.94	315.97
593.10	325.33
593.26	306.61
593.41	362.78
593.57	273.84
593.73	320.65
593.89	325.33
594.05	313.63
594.20	236.39
594.36	320.65
594.52	234.05
594.68	250.44
594.84	315.97
594.99	337.04
595.15	362.78
595.31	395.55
595.47	395.55
595.62	276.18
595.78	337.04
595.94	283.20
596.10	353.42
596.25	381.51
596.41	325.33
596.57	332.36
596.73	341.72
596.88	383.85
597.04	383.85
597.20	374.49
597.36	318.31
597.51	259.80
597.67	334.70
597.83	290.23
597.99	358.10
598.14	241.08
598.30	276.18
598.46	278.52
598.61	318.31
598.77	365.12
598.93	313.63
599.09	266.82
599.24	306.61
599.40	416.62
599.56	294.91
599.71	358.10
599.87	353.42
600.03	353.42
600.18	311.29
600.34	264.48
600.50	334.70
600.65	318.31
600.81	360.44
600.97	344.06
601.12	393.21
601.28	348.74
601.44	287.89
601.59	271.50
601.75	313.63
601.91	304.27
602.06	341.72
602.22	360.44
602.37	348.74
602.53	341.72
602.69	304.27
602.84	294.91
603.00	421.30
603.16	348.74
603.31	454.06
603.47	278.52
603.62	299.59
603.78	418.96
603.94	348.74
604.09	351.08
604.25	397.89
604.40	337.04
604.56	397.89
604.71	299.59
604.87	250.44
605.03	259.80
605.18	294.91
605.34	358.10
605.49	346.40
605.65	278.52
605.80	322.99
605.96	320.65
606.12	386.19
606.27	355.76
606.43	344.06
606.58	369.80
606.74	280.86
606.89	322.99
607.05	360.44
607.20	369.80
607.36	297.25
607.51	337.04
607.67	402.57
607.82	348.74
607.98	407.25
608.13	327.68
608.29	285.55
608.44	433.00
608.60	341.72
608.75	395.55
608.91	269.16
609.06	313.63
609.22	271.50
609.37	351.08
609.53	287.89
609.68	292.57
609.84	337.04
609.99	297.25
610.15	351.08
610.30	325.33
610.46	306.61
610.61	367.46
610.76	313.63
610.92	283.20
611.07	229.37
611.23	411.93
611.38	252.78
611.54	404.91
