SpectraSuite Data File
++++++++++++++++++++++++++++++++++++
Date: Fri Oct 04 11:46:58 GMT-05:00 2013
User: price-jones
Dark Spectrum Present: No
Reference Spectrum Present: No
Number of Sampled Component Spectra: 1
Spectrometers: USB2+H05261
Integration Time (usec): 100000 (USB2+H05261)
Spectra Averaged: 1 (USB2+H05261)
Boxcar Smoothing: 0 (USB2+H05261)
Correct for Electrical Dark: No (USB2+H05261)
Strobe/Lamp Enabled: No (USB2+H05261)
Correct for Detector Non-linearity: No (USB2+H05261)
Correct for Stray Light: No (USB2+H05261)
Number of Pixels in Processed Spectrum: 2048
>>>>>Begin Processed Spectral Data<<<<<
365.73	74.90
365.92	74.90
366.12	74.90
366.32	0.00
366.52	0.00
366.72	0.00
366.91	0.00
367.11	0.00
367.31	0.00
367.51	0.00
367.70	0.00
367.90	0.00
368.10	0.00
368.30	0.00
368.49	0.00
368.69	0.00
368.89	0.00
369.09	0.00
369.28	0.00
369.48	0.00
369.68	0.00
369.87	39.79
370.07	0.00
370.27	51.49
370.47	0.00
370.66	49.15
370.86	4.68
371.06	23.41
371.25	56.17
371.45	16.38
371.65	105.32
371.84	56.17
372.04	49.15
372.24	49.15
372.44	56.17
372.63	49.15
372.83	102.98
373.03	81.92
373.22	107.66
373.42	84.26
373.62	161.50
373.81	81.92
374.01	105.32
374.21	100.64
374.40	133.41
374.60	187.24
374.79	140.43
374.99	121.71
375.19	117.03
375.38	95.96
375.58	93.62
375.78	114.69
375.97	105.32
376.17	145.11
376.37	126.39
376.56	77.24
376.76	110.01
376.95	110.01
377.15	117.03
377.35	44.47
377.54	49.15
377.74	128.73
377.93	110.01
378.13	201.29
378.33	138.09
378.52	0.00
378.72	156.82
378.91	49.15
379.11	105.32
379.31	9.36
379.50	91.28
379.70	152.13
379.89	98.30
380.09	117.03
380.28	161.50
380.48	86.60
380.68	49.15
380.87	4.68
381.07	126.39
381.26	114.69
381.46	86.60
381.65	124.05
381.85	91.28
382.04	81.92
382.24	105.32
382.43	79.58
382.63	51.49
382.83	126.39
383.02	102.98
383.22	100.64
383.41	126.39
383.61	79.58
383.80	117.03
384.00	65.54
384.19	60.85
384.39	86.60
384.58	74.90
384.78	100.64
384.97	138.09
385.17	70.22
385.36	4.68
385.56	67.88
385.75	51.49
385.95	98.30
386.14	98.30
386.34	95.96
386.53	72.56
386.72	119.37
386.92	84.26
387.11	107.66
387.31	58.51
387.50	51.49
387.70	7.02
387.89	72.56
388.09	67.88
388.28	11.70
388.48	138.09
388.67	161.50
388.86	51.49
389.06	95.96
389.25	2.34
389.45	86.60
389.64	88.94
389.84	126.39
390.03	65.54
390.22	126.39
390.42	147.45
390.61	100.64
390.81	63.19
391.00	74.90
391.19	149.79
391.39	107.66
391.58	163.84
391.78	112.35
391.97	81.92
392.16	58.51
392.36	161.50
392.55	156.82
392.75	56.17
392.94	102.98
393.13	100.64
393.33	93.62
393.52	152.13
393.71	142.77
393.91	126.39
394.10	177.88
394.29	93.62
394.49	133.41
394.68	154.48
394.88	135.75
395.07	182.56
395.26	79.58
395.46	79.58
395.65	119.37
395.84	110.01
396.04	154.48
396.23	72.56
396.42	100.64
396.62	112.35
396.81	121.71
397.00	98.30
397.19	77.24
397.39	46.81
397.58	79.58
397.77	81.92
397.97	126.39
398.16	95.96
398.35	105.32
398.55	149.79
398.74	159.16
398.93	161.50
399.12	124.05
399.32	102.98
399.51	81.92
399.70	107.66
399.90	131.07
400.09	56.17
400.28	117.03
400.47	67.88
400.67	110.01
400.86	60.85
401.05	53.83
401.24	81.92
401.44	102.98
401.63	91.28
401.82	208.31
402.01	77.24
402.21	72.56
402.40	81.92
402.59	84.26
402.78	138.09
402.97	128.73
403.17	105.32
403.36	65.54
403.55	86.60
403.74	138.09
403.93	187.24
404.13	250.44
404.32	107.66
404.51	149.79
404.70	117.03
404.89	42.13
405.09	107.66
405.28	84.26
405.47	121.71
405.66	140.43
405.85	95.96
406.05	133.41
406.24	112.35
406.43	88.94
406.62	102.98
406.81	173.20
407.00	133.41
407.20	65.54
407.39	93.62
407.58	95.96
407.77	124.05
407.96	110.01
408.15	147.45
408.34	77.24
408.54	86.60
408.73	149.79
408.92	56.17
409.11	128.73
409.30	117.03
409.49	81.92
409.68	93.62
409.87	105.32
410.07	105.32
410.26	60.85
410.45	37.45
410.64	53.83
410.83	93.62
411.02	126.39
411.21	201.29
411.40	72.56
411.59	100.64
411.78	147.45
411.98	35.11
412.17	187.24
412.36	124.05
412.55	84.26
412.74	128.73
412.93	168.52
413.12	138.09
413.31	175.54
413.50	102.98
413.69	110.01
413.88	156.82
414.07	114.69
414.26	140.43
414.45	70.22
414.64	58.51
414.83	121.71
415.02	135.75
415.22	173.20
415.41	114.69
415.60	114.69
415.79	220.01
415.98	147.45
416.17	124.05
416.36	147.45
416.55	124.05
416.74	135.75
416.93	81.92
417.12	74.90
417.31	100.64
417.50	173.20
417.69	182.56
417.88	149.79
418.07	117.03
418.26	227.03
418.45	191.92
418.64	220.01
418.83	220.01
419.02	189.58
419.21	145.11
419.39	135.75
419.58	131.07
419.77	208.31
419.96	156.82
420.15	196.60
420.34	93.62
420.53	105.32
420.72	124.05
420.91	119.37
421.10	126.39
421.29	149.79
421.48	91.28
421.67	170.86
421.86	44.47
422.05	175.54
422.24	53.83
422.43	100.64
422.61	98.30
422.80	112.35
422.99	112.35
423.18	152.13
423.37	86.60
423.56	135.75
423.75	138.09
423.94	110.01
424.13	112.35
424.32	156.82
424.50	114.69
424.69	72.56
424.88	154.48
425.07	60.85
425.26	102.98
425.45	236.39
425.64	177.88
425.83	212.99
426.01	208.31
426.20	145.11
426.39	131.07
426.58	189.58
426.77	107.66
426.96	88.94
427.15	161.50
427.33	147.45
427.52	72.56
427.71	142.77
427.90	149.79
428.09	91.28
428.28	159.16
428.46	168.52
428.65	105.32
428.84	107.66
429.03	107.66
429.22	126.39
429.40	65.54
429.59	70.22
429.78	110.01
429.97	126.39
430.16	133.41
430.34	84.26
430.53	210.65
430.72	145.11
430.91	112.35
431.10	44.47
431.28	84.26
431.47	205.97
431.66	145.11
431.85	126.39
432.03	159.16
432.22	231.71
432.41	161.50
432.60	126.39
432.79	142.77
432.97	269.16
433.16	311.29
433.35	212.99
433.54	180.22
433.72	245.76
433.91	149.79
434.10	95.96
434.28	168.52
434.47	161.50
434.66	163.84
434.85	98.30
435.03	77.24
435.22	107.66
435.41	201.29
435.59	177.88
435.78	170.86
435.97	105.32
436.16	217.67
436.34	100.64
436.53	100.64
436.72	126.39
436.90	163.84
437.09	159.16
437.28	187.24
437.46	46.81
437.65	93.62
437.84	74.90
438.02	154.48
438.21	208.31
438.40	154.48
438.58	65.54
438.77	79.58
438.96	60.85
439.14	65.54
439.33	175.54
439.52	147.45
439.70	135.75
439.89	63.19
440.08	102.98
440.26	98.30
440.45	121.71
440.63	105.32
440.82	156.82
441.01	88.94
441.19	156.82
441.38	107.66
441.57	107.66
441.75	168.52
441.94	149.79
442.12	149.79
442.31	138.09
442.50	184.90
442.68	156.82
442.87	175.54
443.05	168.52
443.24	119.37
443.43	86.60
443.61	194.26
443.80	107.66
443.98	133.41
444.17	131.07
444.35	194.26
444.54	105.32
444.73	191.92
444.91	170.86
445.10	119.37
445.28	100.64
445.47	114.69
445.65	163.84
445.84	138.09
446.02	168.52
446.21	86.60
446.39	77.24
446.58	119.37
446.77	74.90
446.95	121.71
447.14	114.69
447.32	124.05
447.51	133.41
447.69	138.09
447.88	182.56
448.06	163.84
448.25	138.09
448.43	112.35
448.62	124.05
448.80	112.35
448.99	196.60
449.17	93.62
449.36	98.30
449.54	112.35
449.73	98.30
449.91	177.88
450.10	98.30
450.28	156.82
450.46	147.45
450.65	128.73
450.83	177.88
451.02	110.01
451.20	145.11
451.39	128.73
451.57	170.86
451.76	149.79
451.94	107.66
452.13	215.33
452.31	182.56
452.49	156.82
452.68	117.03
452.86	154.48
453.05	161.50
453.23	210.65
453.42	170.86
453.60	205.97
453.78	177.88
453.97	131.07
454.15	72.56
454.34	168.52
454.52	131.07
454.70	173.20
454.89	156.82
455.07	147.45
455.26	126.39
455.44	135.75
455.62	86.60
455.81	173.20
455.99	112.35
456.17	229.37
456.36	124.05
456.54	142.77
456.73	184.90
456.91	168.52
457.09	110.01
457.28	166.18
457.46	140.43
457.64	180.22
457.83	182.56
458.01	159.16
458.19	112.35
458.38	131.07
458.56	138.09
458.74	173.20
458.93	142.77
459.11	220.01
459.29	84.26
459.48	170.86
459.66	152.13
459.84	145.11
460.03	236.39
460.21	154.48
460.39	135.75
460.57	201.29
460.76	140.43
460.94	166.18
461.12	147.45
461.31	191.92
461.49	84.26
461.67	77.24
461.85	170.86
462.04	173.20
462.22	615.56
462.40	149.79
462.59	196.60
462.77	161.50
462.95	114.69
463.13	95.96
463.32	161.50
463.50	102.98
463.68	175.54
463.86	84.26
464.05	100.64
464.23	131.07
464.41	161.50
464.59	93.62
464.78	63.19
464.96	140.43
465.14	100.64
465.32	149.79
465.50	159.16
465.69	191.92
465.87	173.20
466.05	159.16
466.23	159.16
466.41	138.09
466.60	145.11
466.78	138.09
466.96	177.88
467.14	175.54
467.32	194.26
467.51	166.18
467.69	81.92
467.87	177.88
468.05	184.90
468.23	189.58
468.41	168.52
468.60	95.96
468.78	133.41
468.96	133.41
469.14	126.39
469.32	107.66
469.50	126.39
469.69	117.03
469.87	81.92
470.05	156.82
470.23	166.18
470.41	135.75
470.59	156.82
470.77	203.63
470.95	93.62
471.14	210.65
471.32	131.07
471.50	154.48
471.68	112.35
471.86	166.18
472.04	133.41
472.22	117.03
472.40	119.37
472.58	133.41
472.77	163.84
472.95	159.16
473.13	138.09
473.31	166.18
473.49	140.43
473.67	131.07
473.85	110.01
474.03	114.69
474.21	145.11
474.39	234.05
474.57	128.73
474.75	201.29
474.93	147.45
475.12	95.96
475.30	100.64
475.48	70.22
475.66	114.69
475.84	147.45
476.02	159.16
476.20	191.92
476.38	142.77
476.56	208.31
476.74	180.22
476.92	173.20
477.10	285.55
477.28	154.48
477.46	189.58
477.64	112.35
477.82	112.35
478.00	81.92
478.18	107.66
478.36	208.31
478.54	91.28
478.72	140.43
478.90	102.98
479.08	168.52
479.26	191.92
479.44	114.69
479.62	114.69
479.80	107.66
479.98	88.94
480.16	156.82
480.34	189.58
480.52	128.73
480.70	131.07
480.88	168.52
481.06	121.71
481.24	131.07
481.41	184.90
481.59	168.52
481.77	147.45
481.95	131.07
482.13	184.90
482.31	173.20
482.49	215.33
482.67	74.90
482.85	182.56
483.03	114.69
483.21	124.05
483.39	117.03
483.57	201.29
483.74	269.16
483.92	154.48
484.10	189.58
484.28	138.09
484.46	86.60
484.64	128.73
484.82	128.73
485.00	187.24
485.18	91.28
485.35	147.45
485.53	168.52
485.71	182.56
485.89	166.18
486.07	194.26
486.25	145.11
486.43	135.75
486.61	110.01
486.78	189.58
486.96	145.11
487.14	154.48
487.32	198.95
487.50	147.45
487.68	175.54
487.85	145.11
488.03	189.58
488.21	224.69
488.39	102.98
488.57	163.84
488.75	114.69
488.92	430.66
489.10	147.45
489.28	189.58
489.46	205.97
489.64	126.39
489.81	187.24
489.99	194.26
490.17	222.35
490.35	259.80
490.53	149.79
490.70	201.29
490.88	191.92
491.06	161.50
491.24	191.92
491.41	217.67
491.59	203.63
491.77	159.16
491.95	145.11
492.13	161.50
492.30	114.69
492.48	135.75
492.66	189.58
492.84	152.13
493.01	184.90
493.19	205.97
493.37	264.48
493.54	250.44
493.72	259.80
493.90	180.22
494.08	128.73
494.25	177.88
494.43	177.88
494.61	182.56
494.79	196.60
494.96	112.35
495.14	180.22
495.32	201.29
495.49	149.79
495.67	110.01
495.85	168.52
496.02	175.54
496.20	222.35
496.38	191.92
496.55	168.52
496.73	210.65
496.91	170.86
497.09	170.86
497.26	168.52
497.44	161.50
497.62	131.07
497.79	269.16
497.97	191.92
498.14	212.99
498.32	215.33
498.50	205.97
498.67	198.95
498.85	224.69
499.03	203.63
499.20	238.73
499.38	189.58
499.56	196.60
499.73	224.69
499.91	149.79
500.08	299.59
500.26	220.01
500.44	149.79
500.61	149.79
500.79	215.33
500.97	196.60
501.14	245.76
501.32	191.92
501.49	198.95
501.67	194.26
501.84	154.48
502.02	201.29
502.20	257.46
502.37	217.67
502.55	168.52
502.72	175.54
502.90	138.09
503.07	121.71
503.25	245.76
503.43	170.86
503.60	210.65
503.78	173.20
503.95	266.82
504.13	184.90
504.30	290.23
504.48	229.37
504.65	255.12
504.83	189.58
505.01	159.16
505.18	184.90
505.36	210.65
505.53	142.77
505.71	124.05
505.88	243.42
506.06	161.50
506.23	154.48
506.41	133.41
506.58	163.84
506.76	257.46
506.93	133.41
507.11	334.70
507.28	161.50
507.46	205.97
507.63	238.73
507.81	166.18
507.98	184.90
508.16	234.05
508.33	215.33
508.50	220.01
508.68	234.05
508.85	229.37
509.03	168.52
509.20	224.69
509.38	217.67
509.55	161.50
509.73	177.88
509.90	220.01
510.08	170.86
510.25	222.35
510.42	210.65
510.60	210.65
510.77	191.92
510.95	154.48
511.12	220.01
511.30	266.82
511.47	255.12
511.64	266.82
511.82	201.29
511.99	236.39
512.17	191.92
512.34	124.05
512.51	131.07
512.69	131.07
512.86	304.27
513.04	152.13
513.21	212.99
513.38	180.22
513.56	149.79
513.73	184.90
513.90	205.97
514.08	198.95
514.25	212.99
514.43	168.52
514.60	203.63
514.77	222.35
514.95	266.82
515.12	203.63
515.29	187.24
515.47	175.54
515.64	257.46
515.81	177.88
515.99	145.11
516.16	231.71
516.33	191.92
516.51	182.56
516.68	117.03
516.85	175.54
517.03	203.63
517.20	159.16
517.37	189.58
517.54	229.37
517.72	203.63
517.89	187.24
518.06	189.58
518.24	278.52
518.41	285.55
518.58	208.31
518.75	180.22
518.93	222.35
519.10	161.50
519.27	264.48
519.45	231.71
519.62	201.29
519.79	210.65
519.96	170.86
520.14	198.95
520.31	201.29
520.48	119.37
520.65	142.77
520.83	187.24
521.00	166.18
521.17	201.29
521.34	131.07
521.52	229.37
521.69	156.82
521.86	191.92
522.03	217.67
522.20	201.29
522.38	152.13
522.55	201.29
522.72	173.20
522.89	222.35
523.07	250.44
523.24	220.01
523.41	222.35
523.58	177.88
523.75	161.50
523.92	182.56
524.10	205.97
524.27	180.22
524.44	110.01
524.61	196.60
524.78	184.90
524.96	266.82
525.13	215.33
525.30	222.35
525.47	224.69
525.64	250.44
525.81	154.48
525.98	189.58
526.16	205.97
526.33	241.08
526.50	173.20
526.67	220.01
526.84	208.31
527.01	191.92
527.18	248.10
527.36	245.76
527.53	215.33
527.70	180.22
527.87	255.12
528.04	252.78
528.21	252.78
528.38	236.39
528.55	215.33
528.72	187.24
528.89	231.71
529.07	217.67
529.24	245.76
529.41	259.80
529.58	170.86
529.75	201.29
529.92	175.54
530.09	217.67
530.26	227.03
530.43	229.37
530.60	217.67
530.77	100.64
530.94	198.95
531.11	264.48
531.28	187.24
531.46	215.33
531.63	205.97
531.80	220.01
531.97	168.52
532.14	229.37
532.31	222.35
532.48	238.73
532.65	287.89
532.82	311.29
532.99	280.86
533.16	236.39
533.33	257.46
533.50	297.25
533.67	304.27
533.84	379.17
534.01	421.30
534.18	374.49
534.35	245.76
534.52	245.76
534.69	259.80
534.86	198.95
535.03	224.69
535.20	161.50
535.37	280.86
535.54	177.88
535.71	215.33
535.88	255.12
536.05	170.86
536.22	241.08
536.38	170.86
536.55	220.01
536.72	257.46
536.89	224.69
537.06	189.58
537.23	173.20
537.40	227.03
537.57	147.45
537.74	243.42
537.91	234.05
538.08	194.26
538.25	215.33
538.42	166.18
538.59	175.54
538.75	212.99
538.92	262.14
539.09	220.01
539.26	236.39
539.43	425.98
539.60	1041.54
539.77	1687.53
539.94	1640.72
540.11	1137.50
540.28	683.44
540.44	547.69
540.61	332.36
540.78	252.78
540.95	205.97
541.12	269.16
541.29	191.92
541.46	212.99
541.62	241.08
541.79	177.88
541.96	222.35
542.13	194.26
542.30	227.03
542.47	243.42
542.63	175.54
542.80	156.82
542.97	227.03
543.14	159.16
543.31	222.35
543.48	255.12
543.64	170.86
543.81	210.65
543.98	259.80
544.15	241.08
544.32	170.86
544.48	182.56
544.65	215.33
544.82	215.33
544.99	248.10
545.16	273.84
545.32	131.07
545.49	161.50
545.66	161.50
545.83	114.69
546.00	138.09
546.16	224.69
546.33	212.99
546.50	266.82
546.67	292.57
546.83	217.67
547.00	196.60
547.17	194.26
547.34	133.41
547.50	107.66
547.67	248.10
547.84	147.45
548.00	175.54
548.17	259.80
548.34	159.16
548.51	280.86
548.67	271.50
548.84	149.79
549.01	245.76
549.18	236.39
549.34	294.91
549.51	224.69
549.68	241.08
549.84	217.67
550.01	173.20
550.18	220.01
550.34	362.78
550.51	264.48
550.68	222.35
550.84	245.76
551.01	238.73
551.18	163.84
551.34	168.52
551.51	152.13
551.68	255.12
551.84	147.45
552.01	236.39
552.18	217.67
552.34	170.86
552.51	205.97
552.68	210.65
552.84	201.29
553.01	245.76
553.18	198.95
553.34	229.37
553.51	180.22
553.67	154.48
553.84	231.71
554.01	166.18
554.17	154.48
554.34	159.16
554.51	224.69
554.67	182.56
554.84	262.14
555.00	299.59
555.17	252.78
555.33	217.67
555.50	201.29
555.67	248.10
555.83	191.92
556.00	217.67
556.16	313.63
556.33	210.65
556.50	170.86
556.66	196.60
556.83	138.09
556.99	166.18
557.16	173.20
557.32	175.54
557.49	154.48
557.65	201.29
557.82	138.09
557.98	227.03
558.15	145.11
558.32	215.33
558.48	210.65
558.65	142.77
558.81	264.48
558.98	147.45
559.14	187.24
559.31	210.65
559.47	231.71
559.64	156.82
559.80	241.08
559.97	135.75
560.13	184.90
560.30	215.33
560.46	217.67
560.63	191.92
560.79	203.63
560.96	212.99
561.12	142.77
561.29	145.11
561.45	205.97
561.61	187.24
561.78	327.68
561.94	229.37
562.11	191.92
562.27	187.24
562.44	255.12
562.60	231.71
562.77	220.01
562.93	196.60
563.10	222.35
563.26	147.45
563.42	208.31
563.59	248.10
563.75	163.84
563.92	262.14
564.08	184.90
564.24	208.31
564.41	234.05
564.57	198.95
564.74	259.80
564.90	229.37
565.07	196.60
565.23	259.80
565.39	248.10
565.56	290.23
565.72	241.08
565.88	203.63
566.05	210.65
566.21	245.76
566.38	224.69
566.54	208.31
566.70	184.90
566.87	264.48
567.03	117.03
567.19	273.84
567.36	243.42
567.52	182.56
567.68	212.99
567.85	184.90
568.01	149.79
568.17	191.92
568.34	170.86
568.50	280.86
568.66	198.95
568.83	238.73
568.99	215.33
569.15	217.67
569.32	173.20
569.48	154.48
569.64	117.03
569.81	276.18
569.97	175.54
570.13	222.35
570.30	170.86
570.46	191.92
570.62	156.82
570.78	154.48
570.95	170.86
571.11	208.31
571.27	187.24
571.43	166.18
571.60	264.48
571.76	241.08
571.92	241.08
572.09	173.20
572.25	248.10
572.41	250.44
572.57	217.67
572.74	156.82
572.90	227.03
573.06	191.92
573.22	210.65
573.38	222.35
573.55	205.97
573.71	252.78
573.87	294.91
574.03	273.84
574.20	203.63
574.36	278.52
574.52	339.38
574.68	351.08
574.84	322.99
575.01	308.95
575.17	325.33
575.33	133.41
575.49	271.50
575.65	215.33
575.82	248.10
575.98	594.50
576.14	645.99
576.30	704.50
576.46	510.24
576.62	395.55
576.79	414.27
576.95	337.04
577.11	297.25
577.27	255.12
577.43	222.35
577.59	227.03
577.75	210.65
577.92	280.86
578.08	262.14
578.24	287.89
578.40	210.65
578.56	278.52
578.72	306.61
578.88	241.08
579.04	280.86
579.21	273.84
579.37	257.46
579.53	224.69
579.69	299.59
579.85	269.16
580.01	327.68
580.17	285.55
580.33	402.57
580.49	407.25
580.65	358.10
580.82	299.59
580.98	308.95
581.14	339.38
581.30	341.72
581.46	425.98
581.62	489.17
581.78	622.58
581.94	617.90
582.10	526.62
582.26	535.98
582.42	449.38
582.58	449.38
582.74	379.17
582.90	489.17
583.06	418.96
583.22	411.93
583.38	484.49
583.54	454.06
583.70	643.65
583.86	744.29
584.02	816.85
584.18	1048.56
584.34	1409.00
584.50	3410.16
584.66	26712.53
584.82	59028.31
584.98	65535.00
585.14	65535.00
585.30	53499.97
585.46	33549.24
585.62	20643.52
585.78	9439.38
585.94	3775.28
586.10	1762.42
586.26	1104.73
586.42	898.77
586.58	709.18
586.74	550.03
586.90	617.90
587.06	573.43
587.22	550.03
587.38	524.28
587.54	1261.55
587.70	3826.78
587.86	6525.41
588.02	7239.28
588.18	5163.22
588.34	3295.47
588.49	2127.55
588.65	1273.25
588.81	748.97
588.97	418.96
589.13	332.36
589.29	353.42
589.45	348.74
589.61	269.16
589.77	397.89
589.93	470.45
590.08	507.90
590.24	447.04
590.40	468.11
590.56	414.27
590.72	395.55
590.88	325.33
591.04	362.78
591.20	252.78
591.35	332.36
591.51	292.57
591.67	191.92
591.83	318.31
591.99	313.63
592.15	255.12
592.31	285.55
592.46	243.42
592.62	287.89
592.78	259.80
592.94	306.61
593.10	222.35
593.26	339.38
593.41	355.76
593.57	374.49
593.73	580.45
593.89	3047.38
594.05	8180.17
594.20	12669.32
594.36	11969.50
594.52	7925.05
594.68	4718.52
594.84	3213.56
594.99	1753.06
595.15	861.32
595.31	601.52
595.47	344.06
595.62	351.08
595.78	280.86
595.94	252.78
596.10	379.17
596.25	318.31
596.41	409.59
596.57	360.44
596.73	278.52
596.88	512.58
597.04	1462.83
597.20	2579.27
597.36	3157.38
597.51	2267.98
597.67	1516.67
597.83	1064.94
597.99	713.86
598.14	486.83
598.30	369.80
598.46	369.80
598.61	390.87
598.77	238.73
598.93	264.48
599.09	229.37
599.24	278.52
599.40	287.89
599.56	198.95
599.71	203.63
599.87	119.37
600.03	278.52
600.18	196.60
600.34	215.33
600.50	250.44
600.65	238.73
600.81	210.65
600.97	196.60
601.12	259.80
601.28	220.01
601.44	170.86
601.59	191.92
601.75	269.16
601.91	243.42
602.06	250.44
602.22	397.89
602.37	692.80
602.53	1837.32
602.69	3084.83
602.84	3330.58
603.00	2483.31
603.16	1591.56
603.31	1097.71
603.47	709.18
603.62	365.12
603.78	304.27
603.94	248.10
604.09	273.84
604.25	285.55
604.40	252.78
604.56	152.13
604.71	222.35
604.87	198.95
605.03	259.80
605.18	236.39
605.34	259.80
605.49	271.50
605.65	313.63
605.80	358.10
605.96	238.73
606.12	376.83
606.27	297.25
606.43	386.19
606.58	355.76
606.74	877.70
606.89	3950.82
607.05	7946.12
607.20	10848.38
607.36	8816.80
607.51	6127.52
607.67	3871.25
607.82	2569.91
607.98	1359.85
608.13	760.67
608.29	456.40
608.44	435.34
608.60	461.09
608.75	479.81
608.91	1261.55
609.06	6143.91
609.22	13785.76
609.37	18974.72
609.53	16676.32
609.68	10789.87
609.84	6789.89
609.99	4582.77
610.15	2410.75
610.30	1081.33
610.46	580.45
610.61	465.77
610.76	330.02
610.92	386.19
611.07	283.20
611.23	334.70
611.38	264.48
611.54	320.65
611.69	278.52
