SpectraSuite Data File
++++++++++++++++++++++++++++++++++++
Date: Fri Oct 04 11:47:17 GMT-05:00 2013
User: price-jones
Dark Spectrum Present: No
Reference Spectrum Present: No
Number of Sampled Component Spectra: 1
Spectrometers: USB2+H05261
Integration Time (usec): 100000 (USB2+H05261)
Spectra Averaged: 1 (USB2+H05261)
Boxcar Smoothing: 0 (USB2+H05261)
Correct for Electrical Dark: No (USB2+H05261)
Strobe/Lamp Enabled: No (USB2+H05261)
Correct for Detector Non-linearity: No (USB2+H05261)
Correct for Stray Light: No (USB2+H05261)
Number of Pixels in Processed Spectrum: 2048
>>>>>Begin Processed Spectral Data<<<<<
365.73	105.32
365.92	105.32
366.12	105.32
366.32	0.00
366.52	0.00
366.72	0.00
366.91	0.00
367.11	0.00
367.31	0.00
367.51	0.00
367.70	4.68
367.90	0.00
368.10	0.00
368.30	0.00
368.49	0.00
368.69	0.00
368.89	0.00
369.09	0.00
369.28	0.00
369.48	0.00
369.68	0.00
369.87	0.00
370.07	0.00
370.27	0.00
370.47	0.00
370.66	0.00
370.86	7.02
371.06	7.02
371.25	98.30
371.45	60.85
371.65	67.88
371.84	51.49
372.04	28.09
372.24	86.60
372.44	117.03
372.63	156.82
372.83	126.39
373.03	28.09
373.22	65.54
373.42	135.75
373.62	126.39
373.81	74.90
374.01	187.24
374.21	131.07
374.40	70.22
374.60	189.58
374.79	124.05
374.99	124.05
375.19	166.18
375.38	119.37
375.58	74.90
375.78	166.18
375.97	58.51
376.17	86.60
376.37	93.62
376.56	140.43
376.76	67.88
376.95	0.00
377.15	110.01
377.35	46.81
377.54	88.94
377.74	79.58
377.93	81.92
378.13	39.79
378.33	67.88
378.52	102.98
378.72	138.09
378.91	145.11
379.11	126.39
379.31	77.24
379.50	107.66
379.70	149.79
379.89	121.71
380.09	86.60
380.28	84.26
380.48	81.92
380.68	23.41
380.87	98.30
381.07	102.98
381.26	72.56
381.46	81.92
381.65	79.58
381.85	44.47
382.04	110.01
382.24	72.56
382.43	107.66
382.63	14.04
382.83	95.96
383.02	194.26
383.22	98.30
383.41	79.58
383.61	46.81
383.80	72.56
384.00	138.09
384.19	58.51
384.39	42.13
384.58	124.05
384.78	149.79
384.97	79.58
385.17	51.49
385.36	95.96
385.56	198.95
385.75	86.60
385.95	88.94
386.14	121.71
386.34	11.70
386.53	77.24
386.72	56.17
386.92	72.56
387.11	98.30
387.31	145.11
387.50	65.54
387.70	49.15
387.89	95.96
388.09	128.73
388.28	135.75
388.48	72.56
388.67	161.50
388.86	93.62
389.06	133.41
389.25	166.18
389.45	91.28
389.64	65.54
389.84	95.96
390.03	84.26
390.22	105.32
390.42	114.69
390.61	93.62
390.81	25.75
391.00	86.60
391.19	140.43
391.39	173.20
391.58	107.66
391.78	67.88
391.97	46.81
392.16	72.56
392.36	152.13
392.55	126.39
392.75	131.07
392.94	100.64
393.13	98.30
393.33	100.64
393.52	133.41
393.71	147.45
393.91	88.94
394.10	107.66
394.29	187.24
394.49	126.39
394.68	152.13
394.88	119.37
395.07	131.07
395.26	86.60
395.46	102.98
395.65	74.90
395.84	107.66
396.04	79.58
396.23	114.69
396.42	25.75
396.62	86.60
396.81	180.22
397.00	72.56
397.19	93.62
397.39	163.84
397.58	95.96
397.77	126.39
397.97	35.11
398.16	117.03
398.35	147.45
398.55	46.81
398.74	105.32
398.93	102.98
399.12	42.13
399.32	110.01
399.51	138.09
399.70	170.86
399.90	93.62
400.09	196.60
400.28	112.35
400.47	131.07
400.67	154.48
400.86	135.75
401.05	58.51
401.24	114.69
401.44	166.18
401.63	154.48
401.82	74.90
402.01	86.60
402.21	112.35
402.40	72.56
402.59	74.90
402.78	35.11
402.97	100.64
403.17	91.28
403.36	133.41
403.55	117.03
403.74	79.58
403.93	112.35
404.13	149.79
404.32	95.96
404.51	63.19
404.70	56.17
404.89	51.49
405.09	110.01
405.28	117.03
405.47	107.66
405.66	119.37
405.85	126.39
406.05	86.60
406.24	112.35
406.43	159.16
406.62	154.48
406.81	100.64
407.00	86.60
407.20	39.79
407.39	117.03
407.58	166.18
407.77	154.48
407.96	105.32
408.15	81.92
408.34	119.37
408.54	79.58
408.73	112.35
408.92	56.17
409.11	119.37
409.30	142.77
409.49	23.41
409.68	105.32
409.87	133.41
410.07	107.66
410.26	91.28
410.45	95.96
410.64	95.96
410.83	112.35
411.02	145.11
411.21	128.73
411.40	117.03
411.59	131.07
411.78	53.83
411.98	60.85
412.17	63.19
412.36	88.94
412.55	67.88
412.74	145.11
412.93	88.94
413.12	102.98
413.31	121.71
413.50	119.37
413.69	138.09
413.88	159.16
414.07	126.39
414.26	30.43
414.45	117.03
414.64	149.79
414.83	110.01
415.02	100.64
415.22	112.35
415.41	168.52
415.60	180.22
415.79	142.77
415.98	140.43
416.17	128.73
416.36	60.85
416.55	79.58
416.74	180.22
416.93	138.09
417.12	51.49
417.31	191.92
417.50	119.37
417.69	201.29
417.88	180.22
418.07	124.05
418.26	93.62
418.45	135.75
418.64	187.24
418.83	196.60
419.02	128.73
419.21	131.07
419.39	161.50
419.58	224.69
419.77	138.09
419.96	145.11
420.15	147.45
420.34	149.79
420.53	107.66
420.72	189.58
420.91	124.05
421.10	147.45
421.29	154.48
421.48	65.54
421.67	131.07
421.86	95.96
422.05	95.96
422.24	81.92
422.43	77.24
422.61	131.07
422.80	74.90
422.99	145.11
423.18	100.64
423.37	149.79
423.56	114.69
423.75	79.58
423.94	91.28
424.13	168.52
424.32	121.71
424.50	145.11
424.69	86.60
424.88	163.84
425.07	112.35
425.26	191.92
425.45	159.16
425.64	163.84
425.83	215.33
426.01	189.58
426.20	184.90
426.39	128.73
426.58	53.83
426.77	95.96
426.96	88.94
427.15	95.96
427.33	86.60
427.52	112.35
427.71	112.35
427.90	166.18
428.09	126.39
428.28	147.45
428.46	58.51
428.65	58.51
428.84	91.28
429.03	187.24
429.22	105.32
429.40	39.79
429.59	212.99
429.78	173.20
429.97	44.47
430.16	93.62
430.34	133.41
430.53	93.62
430.72	49.15
430.91	161.50
431.10	60.85
431.28	77.24
431.47	189.58
431.66	154.48
431.85	126.39
432.03	107.66
432.22	196.60
432.41	194.26
432.60	154.48
432.79	177.88
432.97	189.58
433.16	241.08
433.35	255.12
433.54	152.13
433.72	128.73
433.91	98.30
434.10	173.20
434.28	264.48
434.47	142.77
434.66	166.18
434.85	131.07
435.03	11.70
435.22	173.20
435.41	133.41
435.59	81.92
435.78	121.71
435.97	77.24
436.16	210.65
436.34	117.03
436.53	161.50
436.72	194.26
436.90	182.56
437.09	107.66
437.28	126.39
437.46	182.56
437.65	107.66
437.84	166.18
438.02	110.01
438.21	67.88
438.40	133.41
438.58	126.39
438.77	149.79
438.96	135.75
439.14	145.11
439.33	187.24
439.52	117.03
439.70	95.96
439.89	177.88
440.08	44.47
440.26	112.35
440.45	46.81
440.63	117.03
440.82	154.48
441.01	187.24
441.19	86.60
441.38	159.16
441.57	81.92
441.75	163.84
441.94	187.24
442.12	121.71
442.31	168.52
442.50	124.05
442.68	126.39
442.87	128.73
443.05	133.41
443.24	135.75
443.43	86.60
443.61	187.24
443.80	58.51
443.98	112.35
444.17	128.73
444.35	159.16
444.54	67.88
444.73	79.58
444.91	140.43
445.10	93.62
445.28	112.35
445.47	159.16
445.65	121.71
445.84	140.43
446.02	173.20
446.21	138.09
446.39	166.18
446.58	166.18
446.77	149.79
446.95	163.84
447.14	135.75
447.32	163.84
447.51	161.50
447.69	88.94
447.88	93.62
448.06	173.20
448.25	131.07
448.43	168.52
448.62	173.20
448.80	142.77
448.99	138.09
449.17	93.62
449.36	152.13
449.54	168.52
449.73	142.77
449.91	170.86
450.10	133.41
450.28	184.90
450.46	196.60
450.65	208.31
450.83	170.86
451.02	128.73
451.20	107.66
451.39	159.16
451.57	119.37
451.76	65.54
451.94	175.54
452.13	168.52
452.31	173.20
452.49	163.84
452.68	147.45
452.86	102.98
453.05	149.79
453.23	133.41
453.42	152.13
453.60	46.81
453.78	170.86
453.97	14.04
454.15	177.88
454.34	128.73
454.52	100.64
454.70	114.69
454.89	196.60
455.07	126.39
455.26	91.28
455.44	107.66
455.62	100.64
455.81	149.79
455.99	105.32
456.17	175.54
456.36	135.75
456.54	117.03
456.73	126.39
456.91	145.11
457.09	161.50
457.28	152.13
457.46	142.77
457.64	177.88
457.83	100.64
458.01	131.07
458.19	170.86
458.38	142.77
458.56	145.11
458.74	147.45
458.93	182.56
459.11	142.77
459.29	159.16
459.48	156.82
459.66	98.30
459.84	107.66
460.03	250.44
460.21	208.31
460.39	105.32
460.57	159.16
460.76	88.94
460.94	84.26
461.12	175.54
461.31	180.22
461.49	168.52
461.67	119.37
461.85	107.66
462.04	133.41
462.22	613.22
462.40	100.64
462.59	180.22
462.77	105.32
462.95	81.92
463.13	79.58
463.32	194.26
463.50	81.92
463.68	210.65
463.86	102.98
464.05	133.41
464.23	100.64
464.41	147.45
464.59	51.49
464.78	184.90
464.96	128.73
465.14	72.56
465.32	194.26
465.50	114.69
465.69	170.86
465.87	84.26
466.05	112.35
466.23	145.11
466.41	140.43
466.60	222.35
466.78	163.84
466.96	170.86
467.14	156.82
467.32	173.20
467.51	152.13
467.69	217.67
467.87	184.90
468.05	72.56
468.23	180.22
468.41	175.54
468.60	105.32
468.78	210.65
468.96	112.35
469.14	159.16
469.32	145.11
469.50	142.77
469.69	163.84
469.87	105.32
470.05	161.50
470.23	105.32
470.41	145.11
470.59	121.71
470.77	77.24
470.95	117.03
471.14	112.35
471.32	203.63
471.50	142.77
471.68	133.41
471.86	140.43
472.04	65.54
472.22	135.75
472.40	91.28
472.58	98.30
472.77	163.84
472.95	184.90
473.13	161.50
473.31	128.73
473.49	159.16
473.67	147.45
473.85	135.75
474.03	128.73
474.21	159.16
474.39	212.99
474.57	175.54
474.75	189.58
474.93	262.14
475.12	149.79
475.30	95.96
475.48	189.58
475.66	175.54
475.84	180.22
476.02	53.83
476.20	189.58
476.38	102.98
476.56	208.31
476.74	124.05
476.92	215.33
477.10	133.41
477.28	191.92
477.46	93.62
477.64	149.79
477.82	187.24
478.00	142.77
478.18	124.05
478.36	189.58
478.54	138.09
478.72	147.45
478.90	110.01
479.08	124.05
479.26	119.37
479.44	110.01
479.62	166.18
479.80	93.62
479.98	191.92
480.16	189.58
480.34	166.18
480.52	159.16
480.70	182.56
480.88	154.48
481.06	180.22
481.24	191.92
481.41	161.50
481.59	135.75
481.77	147.45
481.95	138.09
482.13	210.65
482.31	117.03
482.49	86.60
482.67	119.37
482.85	102.98
483.03	138.09
483.21	121.71
483.39	180.22
483.57	184.90
483.74	252.78
483.92	138.09
484.10	110.01
484.28	166.18
484.46	173.20
484.64	147.45
484.82	117.03
485.00	114.69
485.18	124.05
485.35	177.88
485.53	124.05
485.71	205.97
485.89	124.05
486.07	140.43
486.25	301.93
486.43	194.26
486.61	210.65
486.78	149.79
486.96	154.48
487.14	189.58
487.32	187.24
487.50	128.73
487.68	142.77
487.85	177.88
488.03	168.52
488.21	154.48
488.39	117.03
488.57	212.99
488.75	212.99
488.92	465.77
489.10	175.54
489.28	201.29
489.46	131.07
489.64	210.65
489.81	140.43
489.99	173.20
490.17	180.22
490.35	234.05
490.53	117.03
490.70	198.95
490.88	175.54
491.06	170.86
491.24	182.56
491.41	170.86
491.59	161.50
491.77	224.69
491.95	107.66
492.13	135.75
492.30	173.20
492.48	182.56
492.66	161.50
492.84	159.16
493.01	210.65
493.19	229.37
493.37	184.90
493.54	259.80
493.72	117.03
493.90	234.05
494.08	142.77
494.25	241.08
494.43	166.18
494.61	159.16
494.79	245.76
494.96	184.90
495.14	236.39
495.32	88.94
495.49	227.03
495.67	194.26
495.85	161.50
496.02	128.73
496.20	182.56
496.38	212.99
496.55	170.86
496.73	163.84
496.91	156.82
497.09	215.33
497.26	189.58
497.44	175.54
497.62	236.39
497.79	152.13
497.97	201.29
498.14	175.54
498.32	175.54
498.50	194.26
498.67	175.54
498.85	161.50
499.03	222.35
499.20	81.92
499.38	159.16
499.56	189.58
499.73	196.60
499.91	170.86
500.08	173.20
500.26	201.29
500.44	163.84
500.61	238.73
500.79	210.65
500.97	222.35
501.14	198.95
501.32	159.16
501.49	273.84
501.67	184.90
501.84	184.90
502.02	191.92
502.20	180.22
502.37	163.84
502.55	166.18
502.72	152.13
502.90	220.01
503.07	191.92
503.25	194.26
503.43	201.29
503.60	215.33
503.78	224.69
503.95	210.65
504.13	168.52
504.30	266.82
504.48	184.90
504.65	173.20
504.83	149.79
505.01	243.42
505.18	236.39
505.36	227.03
505.53	229.37
505.71	149.79
505.88	203.63
506.06	191.92
506.23	201.29
506.41	189.58
506.58	198.95
506.76	278.52
506.93	173.20
507.11	229.37
507.28	177.88
507.46	187.24
507.63	231.71
507.81	220.01
507.98	170.86
508.16	210.65
508.33	257.46
508.50	184.90
508.68	170.86
508.85	255.12
509.03	156.82
509.20	131.07
509.38	210.65
509.55	210.65
509.73	180.22
509.90	194.26
510.08	126.39
510.25	222.35
510.42	173.20
510.60	184.90
510.77	131.07
510.95	283.20
511.12	184.90
511.30	231.71
511.47	294.91
511.64	259.80
511.82	222.35
511.99	180.22
512.17	140.43
512.34	163.84
512.51	243.42
512.69	243.42
512.86	259.80
513.04	191.92
513.21	245.76
513.38	210.65
513.56	224.69
513.73	217.67
513.90	175.54
514.08	184.90
514.25	196.60
514.43	241.08
514.60	191.92
514.77	191.92
514.95	252.78
515.12	140.43
515.29	257.46
515.47	140.43
515.64	241.08
515.81	224.69
515.99	243.42
516.16	203.63
516.33	294.91
516.51	180.22
516.68	215.33
516.85	140.43
517.03	215.33
517.20	189.58
517.37	154.48
517.54	173.20
517.72	224.69
517.89	166.18
518.06	189.58
518.24	180.22
518.41	290.23
518.58	196.60
518.75	175.54
518.93	210.65
519.10	194.26
519.27	210.65
519.45	198.95
519.62	217.67
519.79	252.78
519.96	210.65
520.14	227.03
520.31	184.90
520.48	180.22
520.65	278.52
520.83	191.92
521.00	236.39
521.17	133.41
521.34	220.01
521.52	201.29
521.69	131.07
521.86	154.48
522.03	236.39
522.20	177.88
522.38	241.08
522.55	182.56
522.72	220.01
522.89	217.67
523.07	220.01
523.24	194.26
523.41	224.69
523.58	238.73
523.75	250.44
523.92	297.25
524.10	191.92
524.27	231.71
524.44	273.84
524.61	248.10
524.78	159.16
524.96	182.56
525.13	156.82
525.30	191.92
525.47	182.56
525.64	304.27
525.81	187.24
525.98	248.10
526.16	180.22
526.33	107.66
526.50	210.65
526.67	154.48
526.84	156.82
527.01	220.01
527.18	222.35
527.36	248.10
527.53	152.13
527.70	205.97
527.87	241.08
528.04	292.57
528.21	236.39
528.38	210.65
528.55	135.75
528.72	311.29
528.89	222.35
529.07	198.95
529.24	262.14
529.41	264.48
529.58	266.82
529.75	217.67
529.92	159.16
530.09	250.44
530.26	203.63
530.43	159.16
530.60	170.86
530.77	212.99
530.94	245.76
531.11	220.01
531.28	250.44
531.46	168.52
531.63	177.88
531.80	257.46
531.97	224.69
532.14	217.67
532.31	220.01
532.48	283.20
532.65	308.95
532.82	311.29
532.99	294.91
533.16	264.48
533.33	271.50
533.50	241.08
533.67	304.27
533.84	301.93
534.01	402.57
534.18	290.23
534.35	252.78
534.52	266.82
534.69	271.50
534.86	220.01
535.03	152.13
535.20	170.86
535.37	252.78
535.54	241.08
535.71	243.42
535.88	234.05
536.05	238.73
536.22	280.86
536.38	205.97
536.55	278.52
536.72	170.86
536.89	184.90
537.06	217.67
537.23	194.26
537.40	177.88
537.57	259.80
537.74	217.67
537.91	255.12
538.08	203.63
538.25	252.78
538.42	217.67
538.59	196.60
538.75	205.97
538.92	236.39
539.09	252.78
539.26	222.35
539.43	423.64
539.60	936.21
539.77	1558.80
539.94	1516.67
540.11	992.39
540.28	634.29
540.44	496.19
540.61	306.61
540.78	252.78
540.95	238.73
541.12	306.61
541.29	290.23
541.46	273.84
541.62	243.42
541.79	140.43
541.96	163.84
542.13	142.77
542.30	191.92
542.47	250.44
542.63	182.56
542.80	278.52
542.97	262.14
543.14	210.65
543.31	215.33
543.48	231.71
543.64	220.01
543.81	142.77
543.98	266.82
544.15	156.82
544.32	229.37
544.48	257.46
544.65	194.26
544.82	252.78
544.99	191.92
545.16	142.77
545.32	224.69
545.49	252.78
545.66	191.92
545.83	229.37
546.00	135.75
546.16	196.60
546.33	208.31
546.50	159.16
546.67	283.20
546.83	243.42
547.00	222.35
547.17	107.66
547.34	212.99
547.50	189.58
547.67	222.35
547.84	220.01
548.00	280.86
548.17	205.97
548.34	191.92
548.51	166.18
548.67	231.71
548.84	238.73
549.01	182.56
549.18	208.31
549.34	196.60
549.51	292.57
549.68	220.01
549.84	229.37
550.01	191.92
550.18	245.76
550.34	222.35
550.51	220.01
550.68	259.80
550.84	196.60
551.01	252.78
551.18	262.14
551.34	114.69
551.51	152.13
551.68	224.69
551.84	243.42
552.01	184.90
552.18	259.80
552.34	205.97
552.51	229.37
552.68	273.84
552.84	173.20
553.01	231.71
553.18	220.01
553.34	177.88
553.51	201.29
553.67	184.90
553.84	250.44
554.01	203.63
554.17	201.29
554.34	168.52
554.51	257.46
554.67	187.24
554.84	208.31
555.00	196.60
555.17	222.35
555.33	266.82
555.50	262.14
555.67	231.71
555.83	203.63
556.00	259.80
556.16	444.70
556.33	262.14
556.50	177.88
556.66	278.52
556.83	220.01
556.99	196.60
557.16	205.97
557.32	212.99
557.49	154.48
557.65	161.50
557.82	98.30
557.98	222.35
558.15	184.90
558.32	217.67
558.48	177.88
558.65	184.90
558.81	142.77
558.98	177.88
559.14	248.10
559.31	234.05
559.47	229.37
559.64	241.08
559.80	250.44
559.97	238.73
560.13	173.20
560.30	161.50
560.46	133.41
560.63	180.22
560.79	168.52
560.96	187.24
561.12	184.90
561.29	241.08
561.45	224.69
561.61	278.52
561.78	285.55
561.94	205.97
562.11	107.66
562.27	257.46
562.44	191.92
562.60	140.43
562.77	152.13
562.93	259.80
563.10	238.73
563.26	196.60
563.42	241.08
563.59	163.84
563.75	180.22
563.92	248.10
564.08	224.69
564.24	241.08
564.41	245.76
564.57	142.77
564.74	231.71
564.90	215.33
565.07	227.03
565.23	245.76
565.39	187.24
565.56	259.80
565.72	280.86
565.88	203.63
566.05	154.48
566.21	180.22
566.38	234.05
566.54	234.05
566.70	203.63
566.87	238.73
567.03	210.65
567.19	161.50
567.36	238.73
567.52	222.35
567.68	241.08
567.85	173.20
568.01	166.18
568.17	236.39
568.34	163.84
568.50	255.12
568.66	187.24
568.83	229.37
568.99	191.92
569.15	208.31
569.32	142.77
569.48	217.67
569.64	273.84
569.81	266.82
569.97	168.52
570.13	266.82
570.30	243.42
570.46	198.95
570.62	170.86
570.78	191.92
570.95	135.75
571.11	203.63
571.27	287.89
571.43	203.63
571.60	292.57
571.76	220.01
571.92	227.03
572.09	250.44
572.25	238.73
572.41	161.50
572.57	208.31
572.74	229.37
572.90	217.67
573.06	154.48
573.22	208.31
573.38	205.97
573.55	236.39
573.71	205.97
573.87	210.65
574.03	212.99
574.20	194.26
574.36	255.12
574.52	308.95
574.68	238.73
574.84	280.86
575.01	187.24
575.17	301.93
575.33	154.48
575.49	236.39
575.65	222.35
575.82	241.08
575.98	451.72
576.14	683.44
576.30	685.78
576.46	535.98
576.62	397.89
576.79	348.74
576.95	313.63
577.11	276.18
577.27	339.38
577.43	266.82
577.59	257.46
577.75	243.42
577.92	241.08
578.08	220.01
578.24	250.44
578.40	301.93
578.56	264.48
578.72	224.69
578.88	217.67
579.04	208.31
579.21	215.33
579.37	208.31
579.53	187.24
579.69	315.97
579.85	259.80
580.01	400.23
580.17	299.59
580.33	318.31
580.49	252.78
580.65	301.93
580.82	311.29
580.98	271.50
581.14	294.91
581.30	318.31
581.46	315.97
581.62	503.22
581.78	552.37
581.94	540.66
582.10	456.40
582.26	449.38
582.42	404.91
582.58	348.74
582.74	388.53
582.90	353.42
583.06	430.66
583.22	416.62
583.38	449.38
583.54	533.64
583.70	608.54
583.86	578.11
584.02	732.59
584.18	903.45
584.34	1114.10
584.50	2869.50
584.66	21296.53
584.82	54206.81
584.98	65406.27
585.14	63316.17
585.30	48732.29
585.46	28788.59
585.62	18085.32
585.78	8159.11
585.94	3166.74
586.10	1502.62
586.26	947.92
586.42	798.12
586.58	601.52
586.74	568.75
586.90	587.47
587.06	512.58
587.22	470.45
587.38	442.36
587.54	1008.77
587.70	3194.83
587.86	5488.56
588.02	6640.10
588.18	4479.79
588.34	2874.18
588.49	1832.64
588.65	1181.97
588.81	545.34
588.97	362.78
589.13	264.48
589.29	252.78
589.45	355.76
589.61	327.68
589.77	383.85
589.93	381.51
590.08	358.10
590.24	365.12
590.40	351.08
590.56	421.30
590.72	287.89
590.88	337.04
591.04	294.91
591.20	227.03
591.35	318.31
591.51	355.76
591.67	276.18
591.83	234.05
591.99	290.23
592.15	301.93
592.31	250.44
592.46	278.52
592.62	250.44
592.78	280.86
592.94	255.12
593.10	285.55
593.26	287.89
593.41	271.50
593.57	379.17
593.73	585.13
593.89	2630.76
594.05	6892.88
594.20	10883.49
594.36	10464.54
594.52	6832.02
594.68	4383.82
594.84	2684.59
594.99	1568.16
595.15	741.95
595.31	444.70
595.47	332.36
595.62	308.95
595.78	264.48
595.94	234.05
596.10	278.52
596.25	360.44
596.41	315.97
596.57	292.57
596.73	252.78
596.88	458.74
597.04	1263.89
597.20	2169.68
597.36	2726.72
597.51	2047.97
597.67	1301.34
597.83	896.43
597.99	650.67
598.14	437.68
598.30	283.20
598.46	322.99
598.61	376.83
598.77	341.72
598.93	201.29
599.09	210.65
599.24	271.50
599.40	257.46
599.56	245.76
599.71	215.33
599.87	271.50
600.03	166.18
600.18	243.42
600.34	184.90
600.50	203.63
600.65	215.33
600.81	229.37
600.97	220.01
601.12	220.01
601.28	252.78
601.44	252.78
601.59	128.73
601.75	262.14
601.91	198.95
602.06	259.80
602.22	322.99
602.37	608.54
602.53	1556.46
602.69	2530.12
602.84	2841.41
603.00	2038.61
603.16	1413.68
603.31	945.58
603.47	671.73
603.62	444.70
603.78	315.97
603.94	276.18
604.09	283.20
604.25	205.97
604.40	278.52
604.56	278.52
604.71	173.20
604.87	196.60
605.03	229.37
605.18	224.69
605.34	217.67
605.49	229.37
605.65	224.69
605.80	198.95
605.96	304.27
606.12	341.72
606.27	341.72
606.43	311.29
606.58	332.36
606.74	779.40
606.89	3213.56
607.05	6707.98
607.20	9334.06
607.36	7775.26
607.51	5195.99
607.67	3361.01
607.82	2272.66
607.98	1240.48
608.13	606.20
608.29	404.91
608.44	425.98
608.60	325.33
608.75	561.73
608.91	1067.28
609.06	4947.89
609.22	11103.50
609.37	16212.89
609.53	14284.29
609.68	9371.50
609.84	5937.94
609.99	3866.56
610.15	2064.35
610.30	966.64
610.46	517.26
610.61	447.04
610.76	327.68
610.92	341.72
611.07	262.14
611.23	351.08
611.38	266.82
611.54	294.91
611.69	271.50
611.84	248.10
