SpectraSuite Data File
++++++++++++++++++++++++++++++++++++
Date: Fri Oct 04 11:46:56 GMT-05:00 2013
User: price-jones
Dark Spectrum Present: No
Reference Spectrum Present: No
Number of Sampled Component Spectra: 1
Spectrometers: USB2+H05261
Integration Time (usec): 100000 (USB2+H05261)
Spectra Averaged: 1 (USB2+H05261)
Boxcar Smoothing: 0 (USB2+H05261)
Correct for Electrical Dark: No (USB2+H05261)
Strobe/Lamp Enabled: No (USB2+H05261)
Correct for Detector Non-linearity: No (USB2+H05261)
Correct for Stray Light: No (USB2+H05261)
Number of Pixels in Processed Spectrum: 2048
>>>>>Begin Processed Spectral Data<<<<<
365.73	51.49
365.92	51.49
366.12	51.49
366.32	0.00
366.52	0.00
366.72	0.00
366.91	0.00
367.11	0.00
367.31	0.00
367.51	0.00
367.70	0.00
367.90	0.00
368.10	0.00
368.30	0.00
368.49	0.00
368.69	0.00
368.89	0.00
369.09	0.00
369.28	0.00
369.48	0.00
369.68	0.00
369.87	0.00
370.07	0.00
370.27	0.00
370.47	0.00
370.66	0.00
370.86	14.04
371.06	53.83
371.25	84.26
371.45	44.47
371.65	112.35
371.84	2.34
372.04	42.13
372.24	126.39
372.44	88.94
372.63	91.28
372.83	154.48
373.03	112.35
373.22	72.56
373.42	37.45
373.62	145.11
373.81	126.39
374.01	100.64
374.21	140.43
374.40	100.64
374.60	121.71
374.79	67.88
374.99	70.22
375.19	145.11
375.38	126.39
375.58	107.66
375.78	166.18
375.97	184.90
376.17	67.88
376.37	81.92
376.56	70.22
376.76	23.41
376.95	105.32
377.15	114.69
377.35	114.69
377.54	91.28
377.74	102.98
377.93	128.73
378.13	98.30
378.33	189.58
378.52	124.05
378.72	60.85
378.91	65.54
379.11	25.75
379.31	86.60
379.50	23.41
379.70	110.01
379.89	145.11
380.09	168.52
380.28	74.90
380.48	95.96
380.68	140.43
380.87	140.43
381.07	140.43
381.26	91.28
381.46	14.04
381.65	98.30
381.85	84.26
382.04	110.01
382.24	156.82
382.43	107.66
382.63	100.64
382.83	189.58
383.02	154.48
383.22	177.88
383.41	110.01
383.61	110.01
383.80	51.49
384.00	72.56
384.19	93.62
384.39	67.88
384.58	114.69
384.78	72.56
384.97	44.47
385.17	131.07
385.36	91.28
385.56	142.77
385.75	14.04
385.95	100.64
386.14	140.43
386.34	100.64
386.53	117.03
386.72	138.09
386.92	107.66
387.11	49.15
387.31	88.94
387.50	84.26
387.70	154.48
387.89	63.19
388.09	53.83
388.28	124.05
388.48	107.66
388.67	128.73
388.86	91.28
389.06	46.81
389.25	105.32
389.45	95.96
389.64	107.66
389.84	124.05
390.03	114.69
390.22	117.03
390.42	98.30
390.61	86.60
390.81	53.83
391.00	84.26
391.19	173.20
391.39	44.47
391.58	60.85
391.78	114.69
391.97	107.66
392.16	58.51
392.36	124.05
392.55	88.94
392.75	119.37
392.94	126.39
393.13	35.11
393.33	140.43
393.52	121.71
393.71	93.62
393.91	51.49
394.10	46.81
394.29	117.03
394.49	128.73
394.68	177.88
394.88	184.90
395.07	147.45
395.26	168.52
395.46	65.54
395.65	42.13
395.84	110.01
396.04	142.77
396.23	46.81
396.42	63.19
396.62	67.88
396.81	138.09
397.00	44.47
397.19	142.77
397.39	67.88
397.58	133.41
397.77	131.07
397.97	56.17
398.16	107.66
398.35	72.56
398.55	86.60
398.74	86.60
398.93	88.94
399.12	117.03
399.32	112.35
399.51	56.17
399.70	142.77
399.90	23.41
400.09	11.70
400.28	128.73
400.47	79.58
400.67	133.41
400.86	93.62
401.05	112.35
401.24	133.41
401.44	161.50
401.63	145.11
401.82	126.39
402.01	60.85
402.21	98.30
402.40	67.88
402.59	114.69
402.78	98.30
402.97	25.75
403.17	119.37
403.36	124.05
403.55	102.98
403.74	177.88
403.93	107.66
404.13	147.45
404.32	128.73
404.51	110.01
404.70	175.54
404.89	74.90
405.09	138.09
405.28	107.66
405.47	133.41
405.66	51.49
405.85	117.03
406.05	236.39
406.24	93.62
406.43	117.03
406.62	128.73
406.81	74.90
407.00	135.75
407.20	119.37
407.39	203.63
407.58	163.84
407.77	56.17
407.96	84.26
408.15	142.77
408.34	112.35
408.54	119.37
408.73	107.66
408.92	128.73
409.11	93.62
409.30	145.11
409.49	95.96
409.68	102.98
409.87	72.56
410.07	65.54
410.26	25.75
410.45	145.11
410.64	102.98
410.83	102.98
411.02	21.06
411.21	210.65
411.40	95.96
411.59	105.32
411.78	53.83
411.98	58.51
412.17	95.96
412.36	140.43
412.55	70.22
412.74	95.96
412.93	140.43
413.12	84.26
413.31	112.35
413.50	159.16
413.69	63.19
413.88	147.45
414.07	74.90
414.26	138.09
414.45	98.30
414.64	60.85
414.83	173.20
415.02	133.41
415.22	124.05
415.41	135.75
415.60	131.07
415.79	81.92
415.98	166.18
416.17	131.07
416.36	124.05
416.55	161.50
416.74	98.30
416.93	145.11
417.12	77.24
417.31	175.54
417.50	67.88
417.69	156.82
417.88	222.35
418.07	149.79
418.26	191.92
418.45	161.50
418.64	273.84
418.83	170.86
419.02	182.56
419.21	191.92
419.39	126.39
419.58	154.48
419.77	163.84
419.96	114.69
420.15	102.98
420.34	138.09
420.53	177.88
420.72	180.22
420.91	163.84
421.10	102.98
421.29	95.96
421.48	210.65
421.67	163.84
421.86	163.84
422.05	145.11
422.24	39.79
422.43	140.43
422.61	86.60
422.80	117.03
422.99	105.32
423.18	138.09
423.37	126.39
423.56	184.90
423.75	145.11
423.94	131.07
424.13	84.26
424.32	44.47
424.50	102.98
424.69	177.88
424.88	95.96
425.07	105.32
425.26	241.08
425.45	229.37
425.64	252.78
425.83	262.14
426.01	147.45
426.20	152.13
426.39	184.90
426.58	145.11
426.77	135.75
426.96	145.11
427.15	105.32
427.33	124.05
427.52	81.92
427.71	142.77
427.90	142.77
428.09	133.41
428.28	74.90
428.46	119.37
428.65	84.26
428.84	128.73
429.03	175.54
429.22	140.43
429.40	145.11
429.59	77.24
429.78	117.03
429.97	98.30
430.16	28.09
430.34	72.56
430.53	86.60
430.72	49.15
430.91	152.13
431.10	112.35
431.28	102.98
431.47	58.51
431.66	227.03
431.85	37.45
432.03	161.50
432.22	138.09
432.41	145.11
432.60	133.41
432.79	173.20
432.97	280.86
433.16	252.78
433.35	250.44
433.54	203.63
433.72	184.90
433.91	117.03
434.10	117.03
434.28	114.69
434.47	149.79
434.66	93.62
434.85	91.28
435.03	98.30
435.22	149.79
435.41	105.32
435.59	53.83
435.78	81.92
435.97	126.39
436.16	196.60
436.34	126.39
436.53	131.07
436.72	135.75
436.90	119.37
437.09	105.32
437.28	91.28
437.46	138.09
437.65	102.98
437.84	112.35
438.02	131.07
438.21	177.88
438.40	72.56
438.58	121.71
438.77	142.77
438.96	152.13
439.14	63.19
439.33	93.62
439.52	128.73
439.70	93.62
439.89	131.07
440.08	182.56
440.26	133.41
440.45	201.29
440.63	119.37
440.82	95.96
441.01	145.11
441.19	142.77
441.38	63.19
441.57	105.32
441.75	180.22
441.94	217.67
442.12	173.20
442.31	145.11
442.50	159.16
442.68	149.79
442.87	184.90
443.05	135.75
443.24	110.01
443.43	135.75
443.61	154.48
443.80	102.98
443.98	95.96
444.17	110.01
444.35	166.18
444.54	215.33
444.73	126.39
444.91	236.39
445.10	102.98
445.28	128.73
445.47	121.71
445.65	142.77
445.84	191.92
446.02	110.01
446.21	117.03
446.39	86.60
446.58	145.11
446.77	46.81
446.95	142.77
447.14	131.07
447.32	184.90
447.51	100.64
447.69	131.07
447.88	126.39
448.06	175.54
448.25	126.39
448.43	124.05
448.62	145.11
448.80	142.77
448.99	145.11
449.17	142.77
449.36	138.09
449.54	156.82
449.73	154.48
449.91	105.32
450.10	105.32
450.28	196.60
450.46	222.35
450.65	124.05
450.83	152.13
451.02	175.54
451.20	177.88
451.39	93.62
451.57	154.48
451.76	159.16
451.94	161.50
452.13	93.62
452.31	234.05
452.49	168.52
452.68	117.03
452.86	194.26
453.05	184.90
453.23	152.13
453.42	201.29
453.60	133.41
453.78	119.37
453.97	98.30
454.15	105.32
454.34	124.05
454.52	124.05
454.70	161.50
454.89	161.50
455.07	74.90
455.26	173.20
455.44	84.26
455.62	100.64
455.81	205.97
455.99	196.60
456.17	131.07
456.36	145.11
456.54	124.05
456.73	133.41
456.91	203.63
457.09	147.45
457.28	173.20
457.46	102.98
457.64	102.98
457.83	154.48
458.01	72.56
458.19	110.01
458.38	93.62
458.56	114.69
458.74	140.43
458.93	163.84
459.11	170.86
459.29	98.30
459.48	114.69
459.66	140.43
459.84	184.90
460.03	210.65
460.21	86.60
460.39	145.11
460.57	128.73
460.76	149.79
460.94	117.03
461.12	147.45
461.31	159.16
461.49	152.13
461.67	42.13
461.85	166.18
462.04	138.09
462.22	589.82
462.40	173.20
462.59	154.48
462.77	124.05
462.95	88.94
463.13	182.56
463.32	149.79
463.50	72.56
463.68	180.22
463.86	145.11
464.05	124.05
464.23	107.66
464.41	128.73
464.59	159.16
464.78	133.41
464.96	159.16
465.14	184.90
465.32	159.16
465.50	119.37
465.69	182.56
465.87	81.92
466.05	140.43
466.23	117.03
466.41	191.92
466.60	156.82
466.78	79.58
466.96	189.58
467.14	170.86
467.32	170.86
467.51	161.50
467.69	180.22
467.87	91.28
468.05	128.73
468.23	203.63
468.41	243.42
468.60	201.29
468.78	95.96
468.96	241.08
469.14	168.52
469.32	140.43
469.50	180.22
469.69	170.86
469.87	180.22
470.05	177.88
470.23	72.56
470.41	112.35
470.59	126.39
470.77	180.22
470.95	128.73
471.14	142.77
471.32	170.86
471.50	117.03
471.68	236.39
471.86	187.24
472.04	131.07
472.22	142.77
472.40	88.94
472.58	112.35
472.77	93.62
472.95	145.11
473.13	170.86
473.31	168.52
473.49	159.16
473.67	124.05
473.85	119.37
474.03	229.37
474.21	149.79
474.39	194.26
474.57	170.86
474.75	175.54
474.93	205.97
475.12	126.39
475.30	119.37
475.48	32.77
475.66	189.58
475.84	215.33
476.02	142.77
476.20	161.50
476.38	205.97
476.56	215.33
476.74	194.26
476.92	156.82
477.10	168.52
477.28	93.62
477.46	84.26
477.64	114.69
477.82	152.13
478.00	121.71
478.18	147.45
478.36	168.52
478.54	170.86
478.72	212.99
478.90	161.50
479.08	166.18
479.26	168.52
479.44	117.03
479.62	131.07
479.80	182.56
479.98	117.03
480.16	102.98
480.34	208.31
480.52	84.26
480.70	84.26
480.88	149.79
481.06	182.56
481.24	154.48
481.41	112.35
481.59	182.56
481.77	163.84
481.95	177.88
482.13	212.99
482.31	173.20
482.49	112.35
482.67	170.86
482.85	170.86
483.03	220.01
483.21	205.97
483.39	180.22
483.57	212.99
483.74	201.29
483.92	138.09
484.10	196.60
484.28	194.26
484.46	229.37
484.64	241.08
484.82	177.88
485.00	166.18
485.18	180.22
485.35	201.29
485.53	126.39
485.71	170.86
485.89	159.16
486.07	117.03
486.25	264.48
486.43	147.45
486.61	187.24
486.78	180.22
486.96	135.75
487.14	163.84
487.32	53.83
487.50	93.62
487.68	140.43
487.85	156.82
488.03	187.24
488.21	161.50
488.39	184.90
488.57	229.37
488.75	135.75
488.92	449.38
489.10	175.54
489.28	243.42
489.46	203.63
489.64	177.88
489.81	198.95
489.99	182.56
490.17	138.09
490.35	294.91
490.53	177.88
490.70	102.98
490.88	208.31
491.06	140.43
491.24	215.33
491.41	304.27
491.59	229.37
491.77	149.79
491.95	119.37
492.13	212.99
492.30	117.03
492.48	152.13
492.66	149.79
492.84	196.60
493.01	205.97
493.19	154.48
493.37	217.67
493.54	163.84
493.72	205.97
493.90	191.92
494.08	208.31
494.25	175.54
494.43	105.32
494.61	72.56
494.79	215.33
494.96	236.39
495.14	175.54
495.32	212.99
495.49	189.58
495.67	276.18
495.85	191.92
496.02	217.67
496.20	227.03
496.38	215.33
496.55	156.82
496.73	259.80
496.91	203.63
497.09	152.13
497.26	203.63
497.44	152.13
497.62	187.24
497.79	250.44
497.97	152.13
498.14	215.33
498.32	271.50
498.50	271.50
498.67	198.95
498.85	220.01
499.03	173.20
499.20	229.37
499.38	203.63
499.56	182.56
499.73	220.01
499.91	227.03
500.08	215.33
500.26	191.92
500.44	149.79
500.61	128.73
500.79	194.26
500.97	236.39
501.14	229.37
501.32	238.73
501.49	194.26
501.67	208.31
501.84	198.95
502.02	126.39
502.20	161.50
502.37	203.63
502.55	182.56
502.72	234.05
502.90	175.54
503.07	203.63
503.25	182.56
503.43	145.11
503.60	248.10
503.78	208.31
503.95	252.78
504.13	187.24
504.30	203.63
504.48	177.88
504.65	238.73
504.83	191.92
505.01	238.73
505.18	248.10
505.36	187.24
505.53	196.60
505.71	140.43
505.88	198.95
506.06	166.18
506.23	126.39
506.41	177.88
506.58	189.58
506.76	191.92
506.93	152.13
507.11	135.75
507.28	210.65
507.46	168.52
507.63	243.42
507.81	234.05
507.98	154.48
508.16	140.43
508.33	182.56
508.50	166.18
508.68	149.79
508.85	205.97
509.03	215.33
509.20	215.33
509.38	220.01
509.55	283.20
509.73	133.41
509.90	234.05
510.08	191.92
510.25	121.71
510.42	154.48
510.60	208.31
510.77	280.86
510.95	269.16
511.12	234.05
511.30	245.76
511.47	245.76
511.64	278.52
511.82	175.54
511.99	212.99
512.17	173.20
512.34	196.60
512.51	229.37
512.69	212.99
512.86	255.12
513.04	170.86
513.21	259.80
513.38	201.29
513.56	220.01
513.73	205.97
513.90	117.03
514.08	203.63
514.25	198.95
514.43	201.29
514.60	142.77
514.77	145.11
514.95	262.14
515.12	194.26
515.29	215.33
515.47	210.65
515.64	257.46
515.81	222.35
515.99	266.82
516.16	259.80
516.33	236.39
516.51	180.22
516.68	210.65
516.85	205.97
517.03	222.35
517.20	231.71
517.37	238.73
517.54	238.73
517.72	161.50
517.89	229.37
518.06	184.90
518.24	189.58
518.41	273.84
518.58	229.37
518.75	189.58
518.93	241.08
519.10	212.99
519.27	161.50
519.45	250.44
519.62	217.67
519.79	175.54
519.96	208.31
520.14	189.58
520.31	241.08
520.48	339.38
520.65	201.29
520.83	269.16
521.00	236.39
521.17	194.26
521.34	166.18
521.52	184.90
521.69	215.33
521.86	252.78
522.03	159.16
522.20	224.69
522.38	196.60
522.55	191.92
522.72	177.88
522.89	220.01
523.07	269.16
523.24	133.41
523.41	173.20
523.58	212.99
523.75	175.54
523.92	201.29
524.10	259.80
524.27	217.67
524.44	217.67
524.61	245.76
524.78	152.13
524.96	215.33
525.13	215.33
525.30	290.23
525.47	177.88
525.64	184.90
525.81	152.13
525.98	170.86
526.16	294.91
526.33	231.71
526.50	133.41
526.67	201.29
526.84	117.03
527.01	215.33
527.18	189.58
527.36	128.73
527.53	142.77
527.70	250.44
527.87	163.84
528.04	227.03
528.21	250.44
528.38	180.22
528.55	269.16
528.72	208.31
528.89	327.68
529.07	163.84
529.24	161.50
529.41	283.20
529.58	191.92
529.75	236.39
529.92	243.42
530.09	227.03
530.26	238.73
530.43	278.52
530.60	210.65
530.77	215.33
530.94	210.65
531.11	222.35
531.28	154.48
531.46	222.35
531.63	201.29
531.80	177.88
531.97	238.73
532.14	184.90
532.31	205.97
532.48	257.46
532.65	411.93
532.82	374.49
532.99	418.96
533.16	301.93
533.33	322.99
533.50	278.52
533.67	388.53
533.84	379.17
534.01	393.21
534.18	386.19
534.35	327.68
534.52	266.82
534.69	250.44
534.86	217.67
535.03	208.31
535.20	212.99
535.37	238.73
535.54	201.29
535.71	196.60
535.88	280.86
536.05	175.54
536.22	203.63
536.38	170.86
536.55	220.01
536.72	208.31
536.89	224.69
537.06	168.52
537.23	205.97
537.40	229.37
537.57	217.67
537.74	315.97
537.91	212.99
538.08	297.25
538.25	269.16
538.42	248.10
538.59	210.65
538.75	166.18
538.92	236.39
539.09	276.18
539.26	264.48
539.43	496.19
539.60	1160.91
539.77	1788.17
539.94	1839.66
540.11	1249.85
540.28	697.48
540.44	580.45
540.61	227.03
540.78	177.88
540.95	159.16
541.12	201.29
541.29	196.60
541.46	191.92
541.62	290.23
541.79	212.99
541.96	166.18
542.13	131.07
542.30	212.99
542.47	259.80
542.63	191.92
542.80	241.08
542.97	257.46
543.14	177.88
543.31	198.95
543.48	271.50
543.64	170.86
543.81	161.50
543.98	161.50
544.15	170.86
544.32	224.69
544.48	257.46
544.65	227.03
544.82	191.92
544.99	210.65
545.16	252.78
545.32	194.26
545.49	229.37
545.66	154.48
545.83	212.99
546.00	154.48
546.16	168.52
546.33	196.60
546.50	238.73
546.67	264.48
546.83	133.41
547.00	194.26
547.17	152.13
547.34	154.48
547.50	177.88
547.67	175.54
547.84	208.31
548.00	248.10
548.17	191.92
548.34	243.42
548.51	241.08
548.67	220.01
548.84	236.39
549.01	187.24
549.18	229.37
549.34	236.39
549.51	250.44
549.68	217.67
549.84	180.22
550.01	154.48
550.18	264.48
550.34	243.42
550.51	196.60
550.68	208.31
550.84	170.86
551.01	180.22
551.18	262.14
551.34	290.23
551.51	168.52
551.68	182.56
551.84	212.99
552.01	217.67
552.18	201.29
552.34	220.01
552.51	170.86
552.68	198.95
552.84	168.52
553.01	180.22
553.18	170.86
553.34	201.29
553.51	140.43
553.67	248.10
553.84	241.08
554.01	224.69
554.17	196.60
554.34	166.18
554.51	187.24
554.67	210.65
554.84	252.78
555.00	203.63
555.17	175.54
555.33	269.16
555.50	198.95
555.67	210.65
555.83	205.97
556.00	182.56
556.16	362.78
556.33	201.29
556.50	245.76
556.66	278.52
556.83	283.20
556.99	135.75
557.16	248.10
557.32	191.92
557.49	241.08
557.65	257.46
557.82	212.99
557.98	229.37
558.15	161.50
558.32	175.54
558.48	231.71
558.65	180.22
558.81	236.39
558.98	128.73
559.14	196.60
559.31	227.03
559.47	255.12
559.64	243.42
559.80	241.08
559.97	187.24
560.13	234.05
560.30	273.84
560.46	198.95
560.63	220.01
560.79	166.18
560.96	280.86
561.12	271.50
561.29	241.08
561.45	170.86
561.61	241.08
561.78	273.84
561.94	259.80
562.11	215.33
562.27	159.16
562.44	241.08
562.60	173.20
562.77	198.95
562.93	315.97
563.10	161.50
563.26	229.37
563.42	154.48
563.59	212.99
563.75	187.24
563.92	212.99
564.08	257.46
564.24	205.97
564.41	264.48
564.57	238.73
564.74	168.52
564.90	182.56
565.07	168.52
565.23	234.05
565.39	266.82
565.56	276.18
565.72	131.07
565.88	224.69
566.05	222.35
566.21	280.86
566.38	276.18
566.54	187.24
566.70	114.69
566.87	131.07
567.03	210.65
567.19	166.18
567.36	184.90
567.52	203.63
567.68	189.58
567.85	252.78
568.01	180.22
568.17	170.86
568.34	126.39
568.50	287.89
568.66	231.71
568.83	313.63
568.99	222.35
569.15	227.03
569.32	140.43
569.48	170.86
569.64	217.67
569.81	203.63
569.97	220.01
570.13	201.29
570.30	168.52
570.46	161.50
570.62	203.63
570.78	152.13
570.95	131.07
571.11	191.92
571.27	222.35
571.43	168.52
571.60	217.67
571.76	147.45
571.92	166.18
572.09	243.42
572.25	156.82
572.41	257.46
572.57	212.99
572.74	259.80
572.90	205.97
573.06	210.65
573.22	250.44
573.38	166.18
573.55	273.84
573.71	234.05
573.87	250.44
574.03	110.01
574.20	208.31
574.36	262.14
574.52	311.29
574.68	325.33
574.84	252.78
575.01	287.89
575.17	189.58
575.33	229.37
575.49	220.01
575.65	278.52
575.82	379.17
575.98	514.92
576.14	739.61
576.30	847.27
576.46	566.41
576.62	421.30
576.79	346.40
576.95	330.02
577.11	187.24
577.27	215.33
577.43	292.57
577.59	344.06
577.75	259.80
577.92	166.18
578.08	189.58
578.24	257.46
578.40	250.44
578.56	250.44
578.72	337.04
578.88	198.95
579.04	266.82
579.21	229.37
579.37	266.82
579.53	212.99
579.69	383.85
579.85	297.25
580.01	414.27
580.17	381.51
580.33	318.31
580.49	372.15
580.65	365.12
580.82	360.44
580.98	332.36
581.14	346.40
581.30	395.55
581.46	404.91
581.62	676.41
581.78	716.20
581.94	674.07
582.10	451.72
582.26	451.72
582.42	458.74
582.58	393.21
582.74	423.64
582.90	489.17
583.06	498.53
583.22	479.81
583.38	440.02
583.54	521.94
583.70	587.47
583.86	873.02
584.02	903.45
584.18	980.68
584.34	1509.65
584.50	3801.03
584.66	28503.04
584.82	61506.94
584.98	65535.00
585.14	65535.00
585.30	60823.50
585.46	37345.59
585.62	22647.02
585.78	10387.30
585.94	3978.91
586.10	1942.64
586.26	1203.04
586.42	875.36
586.58	748.97
586.74	650.67
586.90	681.10
587.06	620.24
587.22	531.30
587.38	538.32
587.54	1291.98
587.70	4196.58
587.86	7258.00
588.02	8051.44
588.18	5689.84
588.34	3557.61
588.49	2291.38
588.65	1416.02
588.81	695.14
588.97	475.13
589.13	423.64
589.29	341.72
589.45	346.40
589.61	351.08
589.77	440.02
589.93	451.72
590.08	514.92
590.24	402.57
590.40	456.40
590.56	430.66
590.72	381.51
590.88	330.02
591.04	376.83
591.20	353.42
591.35	313.63
591.51	358.10
591.67	287.89
591.83	332.36
591.99	292.57
592.15	313.63
592.31	252.78
592.46	245.76
592.62	285.55
592.78	306.61
592.94	315.97
593.10	304.27
593.26	292.57
593.41	311.29
593.57	425.98
593.73	603.86
593.89	3389.10
594.05	8877.65
594.20	13881.72
594.36	13373.82
594.52	8751.26
594.68	5366.85
594.84	3478.04
594.99	1923.92
595.15	889.40
595.31	463.43
595.47	365.12
595.62	290.23
595.78	297.25
595.94	341.72
596.10	362.78
596.25	351.08
596.41	318.31
596.57	304.27
596.73	283.20
596.88	622.58
597.04	1640.72
597.20	2775.88
597.36	3468.67
597.51	2586.29
597.67	1713.27
597.83	1146.86
597.99	837.91
598.14	486.83
598.30	325.33
598.46	299.59
598.61	322.99
598.77	308.95
598.93	292.57
599.09	306.61
599.24	287.89
599.40	238.73
599.56	271.50
599.71	161.50
599.87	297.25
600.03	243.42
600.18	252.78
600.34	266.82
600.50	231.71
600.65	212.99
600.81	266.82
600.97	245.76
601.12	201.29
601.28	325.33
601.44	215.33
601.59	255.12
601.75	299.59
601.91	301.93
602.06	285.55
602.22	381.51
602.37	758.33
602.53	1989.46
602.69	3243.98
602.84	3452.29
603.00	2672.89
603.16	1727.32
603.31	1121.12
603.47	760.67
603.62	433.00
603.78	358.10
603.94	294.91
604.09	266.82
604.25	212.99
604.40	217.67
604.56	271.50
604.71	241.08
604.87	262.14
605.03	191.92
605.18	266.82
605.34	271.50
605.49	248.10
605.65	231.71
605.80	351.08
605.96	304.27
606.12	262.14
606.27	301.93
606.43	374.49
606.58	383.85
606.74	926.85
606.89	4023.38
607.05	8762.97
607.20	11903.96
607.36	9734.29
607.51	6689.25
607.67	4170.83
607.82	2787.58
607.98	1577.52
608.13	781.74
608.29	500.87
608.44	456.40
608.60	421.30
608.75	519.60
608.91	1256.87
609.06	6394.34
609.22	14974.75
609.37	21301.22
609.53	18214.05
609.68	11866.52
609.84	7688.66
609.99	5004.07
610.15	2684.59
610.30	1172.61
610.46	683.44
610.61	557.05
610.76	353.42
610.92	376.83
611.07	285.55
611.23	360.44
611.38	337.04
611.54	332.36
611.69	301.93
