SpectraSuite Data File
++++++++++++++++++++++++++++++++++++
Date: Fri Oct 04 11:47:16 GMT-05:00 2013
User: price-jones
Dark Spectrum Present: No
Reference Spectrum Present: No
Number of Sampled Component Spectra: 1
Spectrometers: USB2+H05261
Integration Time (usec): 100000 (USB2+H05261)
Spectra Averaged: 1 (USB2+H05261)
Boxcar Smoothing: 0 (USB2+H05261)
Correct for Electrical Dark: No (USB2+H05261)
Strobe/Lamp Enabled: No (USB2+H05261)
Correct for Detector Non-linearity: No (USB2+H05261)
Correct for Stray Light: No (USB2+H05261)
Number of Pixels in Processed Spectrum: 2048
>>>>>Begin Processed Spectral Data<<<<<
365.73	32.77
365.92	32.77
366.12	32.77
366.32	0.00
366.52	0.00
366.72	18.72
366.91	0.00
367.11	0.00
367.31	0.00
367.51	0.00
367.70	0.00
367.90	0.00
368.10	0.00
368.30	0.00
368.49	0.00
368.69	0.00
368.89	0.00
369.09	0.00
369.28	0.00
369.48	0.00
369.68	7.02
369.87	0.00
370.07	0.00
370.27	23.41
370.47	0.00
370.66	2.34
370.86	72.56
371.06	37.45
371.25	44.47
371.45	9.36
371.65	74.90
371.84	51.49
372.04	39.79
372.24	105.32
372.44	110.01
372.63	35.11
372.83	170.86
373.03	154.48
373.22	2.34
373.42	156.82
373.62	100.64
373.81	138.09
374.01	124.05
374.21	161.50
374.40	70.22
374.60	114.69
374.79	110.01
374.99	110.01
375.19	128.73
375.38	81.92
375.58	93.62
375.78	93.62
375.97	112.35
376.17	198.95
376.37	79.58
376.56	112.35
376.76	72.56
376.95	138.09
377.15	114.69
377.35	42.13
377.54	170.86
377.74	88.94
377.93	114.69
378.13	152.13
378.33	140.43
378.52	119.37
378.72	173.20
378.91	107.66
379.11	93.62
379.31	74.90
379.50	21.06
379.70	208.31
379.89	91.28
380.09	65.54
380.28	44.47
380.48	142.77
380.68	58.51
380.87	37.45
381.07	119.37
381.26	56.17
381.46	88.94
381.65	138.09
381.85	65.54
382.04	56.17
382.24	67.88
382.43	86.60
382.63	119.37
382.83	180.22
383.02	149.79
383.22	149.79
383.41	53.83
383.61	81.92
383.80	63.19
384.00	128.73
384.19	91.28
384.39	86.60
384.58	42.13
384.78	86.60
384.97	112.35
385.17	51.49
385.36	102.98
385.56	79.58
385.75	67.88
385.95	119.37
386.14	121.71
386.34	88.94
386.53	84.26
386.72	81.92
386.92	140.43
387.11	126.39
387.31	131.07
387.50	112.35
387.70	32.77
387.89	95.96
388.09	42.13
388.28	65.54
388.48	35.11
388.67	135.75
388.86	79.58
389.06	56.17
389.25	114.69
389.45	142.77
389.64	119.37
389.84	93.62
390.03	98.30
390.22	121.71
390.42	70.22
390.61	77.24
390.81	117.03
391.00	133.41
391.19	135.75
391.39	79.58
391.58	51.49
391.78	119.37
391.97	70.22
392.16	72.56
392.36	84.26
392.55	119.37
392.75	133.41
392.94	42.13
393.13	98.30
393.33	18.72
393.52	168.52
393.71	70.22
393.91	79.58
394.10	93.62
394.29	72.56
394.49	154.48
394.68	142.77
394.88	102.98
395.07	175.54
395.26	95.96
395.46	81.92
395.65	110.01
395.84	145.11
396.04	205.97
396.23	93.62
396.42	140.43
396.62	91.28
396.81	65.54
397.00	112.35
397.19	126.39
397.39	74.90
397.58	161.50
397.77	95.96
397.97	117.03
398.16	105.32
398.35	177.88
398.55	35.11
398.74	77.24
398.93	88.94
399.12	131.07
399.32	126.39
399.51	105.32
399.70	128.73
399.90	126.39
400.09	63.19
400.28	152.13
400.47	126.39
400.67	70.22
400.86	70.22
401.05	156.82
401.24	93.62
401.44	173.20
401.63	112.35
401.82	135.75
402.01	0.00
402.21	124.05
402.40	81.92
402.59	95.96
402.78	53.83
402.97	131.07
403.17	79.58
403.36	110.01
403.55	77.24
403.74	58.51
403.93	149.79
404.13	168.52
404.32	131.07
404.51	177.88
404.70	241.08
404.89	79.58
405.09	117.03
405.28	124.05
405.47	133.41
405.66	217.67
405.85	117.03
406.05	112.35
406.24	159.16
406.43	30.43
406.62	170.86
406.81	145.11
407.00	88.94
407.20	140.43
407.39	72.56
407.58	133.41
407.77	126.39
407.96	152.13
408.15	126.39
408.34	98.30
408.54	0.00
408.73	81.92
408.92	100.64
409.11	42.13
409.30	175.54
409.49	42.13
409.68	63.19
409.87	79.58
410.07	79.58
410.26	121.71
410.45	0.00
410.64	88.94
410.83	86.60
411.02	98.30
411.21	154.48
411.40	133.41
411.59	46.81
411.78	51.49
411.98	145.11
412.17	149.79
412.36	98.30
412.55	21.06
412.74	74.90
412.93	182.56
413.12	121.71
413.31	53.83
413.50	98.30
413.69	44.47
413.88	77.24
414.07	175.54
414.26	182.56
414.45	95.96
414.64	145.11
414.83	187.24
415.02	110.01
415.22	156.82
415.41	126.39
415.60	159.16
415.79	58.51
415.98	121.71
416.17	65.54
416.36	102.98
416.55	84.26
416.74	154.48
416.93	147.45
417.12	133.41
417.31	163.84
417.50	145.11
417.69	292.57
417.88	173.20
418.07	156.82
418.26	156.82
418.45	112.35
418.64	243.42
418.83	117.03
419.02	191.92
419.21	177.88
419.39	121.71
419.58	152.13
419.77	154.48
419.96	182.56
420.15	131.07
420.34	110.01
420.53	100.64
420.72	119.37
420.91	133.41
421.10	163.84
421.29	128.73
421.48	161.50
421.67	49.15
421.86	124.05
422.05	145.11
422.24	95.96
422.43	100.64
422.61	117.03
422.80	133.41
422.99	60.85
423.18	95.96
423.37	166.18
423.56	145.11
423.75	170.86
423.94	135.75
424.13	95.96
424.32	131.07
424.50	46.81
424.69	102.98
424.88	105.32
425.07	138.09
425.26	168.52
425.45	241.08
425.64	194.26
425.83	173.20
426.01	238.73
426.20	184.90
426.39	81.92
426.58	124.05
426.77	180.22
426.96	147.45
427.15	93.62
427.33	126.39
427.52	91.28
427.71	28.09
427.90	142.77
428.09	138.09
428.28	124.05
428.46	140.43
428.65	161.50
428.84	79.58
429.03	86.60
429.22	124.05
429.40	98.30
429.59	149.79
429.78	170.86
429.97	67.88
430.16	65.54
430.34	84.26
430.53	93.62
430.72	74.90
430.91	187.24
431.10	138.09
431.28	135.75
431.47	142.77
431.66	159.16
431.85	175.54
432.03	77.24
432.22	110.01
432.41	168.52
432.60	135.75
432.79	145.11
432.97	255.12
433.16	229.37
433.35	201.29
433.54	161.50
433.72	220.01
433.91	177.88
434.10	180.22
434.28	184.90
434.47	175.54
434.66	138.09
434.85	208.31
435.03	145.11
435.22	93.62
435.41	112.35
435.59	98.30
435.78	145.11
435.97	100.64
436.16	107.66
436.34	152.13
436.53	102.98
436.72	168.52
436.90	110.01
437.09	189.58
437.28	154.48
437.46	100.64
437.65	95.96
437.84	180.22
438.02	159.16
438.21	187.24
438.40	142.77
438.58	175.54
438.77	168.52
438.96	95.96
439.14	173.20
439.33	220.01
439.52	88.94
439.70	117.03
439.89	154.48
440.08	161.50
440.26	121.71
440.45	161.50
440.63	65.54
440.82	138.09
441.01	149.79
441.19	131.07
441.38	117.03
441.57	152.13
441.75	220.01
441.94	203.63
442.12	86.60
442.31	227.03
442.50	107.66
442.68	112.35
442.87	147.45
443.05	112.35
443.24	102.98
443.43	95.96
443.61	154.48
443.80	102.98
443.98	128.73
444.17	100.64
444.35	131.07
444.54	128.73
444.73	81.92
444.91	154.48
445.10	126.39
445.28	30.43
445.47	126.39
445.65	145.11
445.84	114.69
446.02	93.62
446.21	212.99
446.39	147.45
446.58	156.82
446.77	117.03
446.95	147.45
447.14	79.58
447.32	159.16
447.51	135.75
447.69	201.29
447.88	81.92
448.06	133.41
448.25	112.35
448.43	138.09
448.62	84.26
448.80	126.39
448.99	126.39
449.17	131.07
449.36	135.75
449.54	175.54
449.73	114.69
449.91	168.52
450.10	105.32
450.28	161.50
450.46	117.03
450.65	177.88
450.83	198.95
451.02	65.54
451.20	166.18
451.39	114.69
451.57	142.77
451.76	100.64
451.94	84.26
452.13	168.52
452.31	100.64
452.49	124.05
452.68	95.96
452.86	112.35
453.05	248.10
453.23	102.98
453.42	95.96
453.60	177.88
453.78	147.45
453.97	79.58
454.15	135.75
454.34	215.33
454.52	98.30
454.70	184.90
454.89	114.69
455.07	98.30
455.26	177.88
455.44	135.75
455.62	142.77
455.81	112.35
455.99	166.18
456.17	177.88
456.36	149.79
456.54	102.98
456.73	170.86
456.91	131.07
457.09	184.90
457.28	203.63
457.46	67.88
457.64	149.79
457.83	147.45
458.01	187.24
458.19	81.92
458.38	88.94
458.56	91.28
458.74	189.58
458.93	91.28
459.11	107.66
459.29	135.75
459.48	128.73
459.66	196.60
459.84	163.84
460.03	231.71
460.21	177.88
460.39	173.20
460.57	196.60
460.76	182.56
460.94	194.26
461.12	159.16
461.31	168.52
461.49	203.63
461.67	128.73
461.85	163.84
462.04	220.01
462.22	550.03
462.40	220.01
462.59	252.78
462.77	145.11
462.95	189.58
463.13	126.39
463.32	161.50
463.50	168.52
463.68	163.84
463.86	79.58
464.05	74.90
464.23	168.52
464.41	173.20
464.59	156.82
464.78	102.98
464.96	86.60
465.14	154.48
465.32	166.18
465.50	126.39
465.69	107.66
465.87	100.64
466.05	145.11
466.23	124.05
466.41	128.73
466.60	173.20
466.78	114.69
466.96	138.09
467.14	198.95
467.32	154.48
467.51	107.66
467.69	152.13
467.87	194.26
468.05	131.07
468.23	84.26
468.41	140.43
468.60	133.41
468.78	189.58
468.96	168.52
469.14	159.16
469.32	203.63
469.50	91.28
469.69	166.18
469.87	161.50
470.05	191.92
470.23	117.03
470.41	117.03
470.59	126.39
470.77	248.10
470.95	105.32
471.14	168.52
471.32	126.39
471.50	212.99
471.68	189.58
471.86	217.67
472.04	107.66
472.22	145.11
472.40	84.26
472.58	180.22
472.77	140.43
472.95	154.48
473.13	241.08
473.31	131.07
473.49	145.11
473.67	159.16
473.85	110.01
474.03	168.52
474.21	119.37
474.39	187.24
474.57	166.18
474.75	201.29
474.93	149.79
475.12	126.39
475.30	177.88
475.48	105.32
475.66	147.45
475.84	180.22
476.02	166.18
476.20	135.75
476.38	138.09
476.56	196.60
476.74	121.71
476.92	56.17
477.10	117.03
477.28	210.65
477.46	119.37
477.64	224.69
477.82	212.99
478.00	135.75
478.18	102.98
478.36	152.13
478.54	168.52
478.72	138.09
478.90	166.18
479.08	154.48
479.26	86.60
479.44	145.11
479.62	191.92
479.80	201.29
479.98	133.41
480.16	166.18
480.34	236.39
480.52	168.52
480.70	168.52
480.88	63.19
481.06	147.45
481.24	154.48
481.41	128.73
481.59	140.43
481.77	93.62
481.95	135.75
482.13	102.98
482.31	173.20
482.49	121.71
482.67	227.03
482.85	145.11
483.03	163.84
483.21	180.22
483.39	138.09
483.57	173.20
483.74	138.09
483.92	117.03
484.10	138.09
484.28	259.80
484.46	241.08
484.64	119.37
484.82	208.31
485.00	131.07
485.18	161.50
485.35	142.77
485.53	121.71
485.71	149.79
485.89	119.37
486.07	138.09
486.25	250.44
486.43	173.20
486.61	135.75
486.78	177.88
486.96	145.11
487.14	128.73
487.32	161.50
487.50	98.30
487.68	210.65
487.85	163.84
488.03	128.73
488.21	138.09
488.39	177.88
488.57	234.05
488.75	114.69
488.92	416.62
489.10	187.24
489.28	241.08
489.46	147.45
489.64	177.88
489.81	182.56
489.99	191.92
490.17	191.92
490.35	250.44
490.53	196.60
490.70	224.69
490.88	161.50
491.06	205.97
491.24	166.18
491.41	266.82
491.59	215.33
491.77	208.31
491.95	168.52
492.13	156.82
492.30	154.48
492.48	163.84
492.66	177.88
492.84	110.01
493.01	205.97
493.19	145.11
493.37	210.65
493.54	182.56
493.72	220.01
493.90	191.92
494.08	248.10
494.25	177.88
494.43	166.18
494.61	147.45
494.79	245.76
494.96	163.84
495.14	170.86
495.32	180.22
495.49	255.12
495.67	196.60
495.85	180.22
496.02	196.60
496.20	196.60
496.38	163.84
496.55	102.98
496.73	196.60
496.91	203.63
497.09	142.77
497.26	159.16
497.44	180.22
497.62	203.63
497.79	182.56
497.97	154.48
498.14	255.12
498.32	100.64
498.50	191.92
498.67	184.90
498.85	175.54
499.03	135.75
499.20	177.88
499.38	201.29
499.56	177.88
499.73	149.79
499.91	215.33
500.08	301.93
500.26	212.99
500.44	163.84
500.61	166.18
500.79	133.41
500.97	245.76
501.14	229.37
501.32	191.92
501.49	149.79
501.67	231.71
501.84	173.20
502.02	175.54
502.20	224.69
502.37	149.79
502.55	163.84
502.72	126.39
502.90	187.24
503.07	224.69
503.25	257.46
503.43	182.56
503.60	241.08
503.78	227.03
503.95	208.31
504.13	210.65
504.30	243.42
504.48	224.69
504.65	241.08
504.83	212.99
505.01	168.52
505.18	182.56
505.36	241.08
505.53	161.50
505.71	170.86
505.88	198.95
506.06	210.65
506.23	182.56
506.41	133.41
506.58	241.08
506.76	227.03
506.93	250.44
507.11	220.01
507.28	227.03
507.46	135.75
507.63	191.92
507.81	182.56
507.98	245.76
508.16	187.24
508.33	234.05
508.50	184.90
508.68	140.43
508.85	210.65
509.03	147.45
509.20	170.86
509.38	208.31
509.55	177.88
509.73	252.78
509.90	259.80
510.08	194.26
510.25	292.57
510.42	163.84
510.60	163.84
510.77	182.56
510.95	222.35
511.12	220.01
511.30	187.24
511.47	271.50
511.64	222.35
511.82	149.79
511.99	231.71
512.17	189.58
512.34	234.05
512.51	173.20
512.69	163.84
512.86	166.18
513.04	210.65
513.21	173.20
513.38	154.48
513.56	189.58
513.73	138.09
513.90	234.05
514.08	161.50
514.25	280.86
514.43	236.39
514.60	229.37
514.77	166.18
514.95	234.05
515.12	210.65
515.29	170.86
515.47	250.44
515.64	177.88
515.81	175.54
515.99	266.82
516.16	276.18
516.33	290.23
516.51	152.13
516.68	161.50
516.85	231.71
517.03	189.58
517.20	105.32
517.37	156.82
517.54	222.35
517.72	133.41
517.89	140.43
518.06	149.79
518.24	266.82
518.41	177.88
518.58	271.50
518.75	231.71
518.93	180.22
519.10	308.95
519.27	212.99
519.45	250.44
519.62	292.57
519.79	227.03
519.96	243.42
520.14	189.58
520.31	266.82
520.48	159.16
520.65	245.76
520.83	245.76
521.00	208.31
521.17	215.33
521.34	189.58
521.52	175.54
521.69	168.52
521.86	147.45
522.03	196.60
522.20	231.71
522.38	159.16
522.55	95.96
522.72	187.24
522.89	227.03
523.07	304.27
523.24	189.58
523.41	243.42
523.58	166.18
523.75	187.24
523.92	264.48
524.10	273.84
524.27	215.33
524.44	210.65
524.61	280.86
524.78	189.58
524.96	241.08
525.13	250.44
525.30	212.99
525.47	175.54
525.64	149.79
525.81	168.52
525.98	222.35
526.16	191.92
526.33	100.64
526.50	145.11
526.67	159.16
526.84	159.16
527.01	154.48
527.18	205.97
527.36	175.54
527.53	166.18
527.70	180.22
527.87	257.46
528.04	257.46
528.21	234.05
528.38	224.69
528.55	236.39
528.72	255.12
528.89	224.69
529.07	138.09
529.24	238.73
529.41	217.67
529.58	217.67
529.75	212.99
529.92	241.08
530.09	227.03
530.26	182.56
530.43	189.58
530.60	196.60
530.77	259.80
530.94	250.44
531.11	217.67
531.28	212.99
531.46	205.97
531.63	191.92
531.80	177.88
531.97	234.05
532.14	220.01
532.31	170.86
532.48	292.57
532.65	287.89
532.82	348.74
532.99	447.04
533.16	353.42
533.33	257.46
533.50	236.39
533.67	327.68
533.84	355.76
534.01	435.34
534.18	299.59
534.35	318.31
534.52	236.39
534.69	297.25
534.86	234.05
535.03	248.10
535.20	182.56
535.37	271.50
535.54	231.71
535.71	222.35
535.88	299.59
536.05	170.86
536.22	217.67
536.38	189.58
536.55	184.90
536.72	217.67
536.89	149.79
537.06	168.52
537.23	212.99
537.40	198.95
537.57	161.50
537.74	243.42
537.91	210.65
538.08	212.99
538.25	250.44
538.42	173.20
538.59	182.56
538.75	194.26
538.92	248.10
539.09	250.44
539.26	264.48
539.43	491.51
539.60	1090.69
539.77	1790.51
539.94	1748.38
540.11	1104.73
540.28	805.14
540.44	482.15
540.61	299.59
540.78	198.95
540.95	166.18
541.12	241.08
541.29	212.99
541.46	217.67
541.62	205.97
541.79	177.88
541.96	217.67
542.13	184.90
542.30	203.63
542.47	280.86
542.63	180.22
542.80	205.97
542.97	203.63
543.14	234.05
543.31	255.12
543.48	220.01
543.64	248.10
543.81	196.60
543.98	198.95
544.15	191.92
544.32	208.31
544.48	198.95
544.65	166.18
544.82	212.99
544.99	297.25
545.16	250.44
545.32	194.26
545.49	234.05
545.66	252.78
545.83	159.16
546.00	229.37
546.16	220.01
546.33	156.82
546.50	182.56
546.67	255.12
546.83	166.18
547.00	145.11
547.17	189.58
547.34	231.71
547.50	210.65
547.67	189.58
547.84	266.82
548.00	152.13
548.17	163.84
548.34	184.90
548.51	184.90
548.67	234.05
548.84	175.54
549.01	234.05
549.18	280.86
549.34	294.91
549.51	227.03
549.68	252.78
549.84	175.54
550.01	168.52
550.18	351.08
550.34	215.33
550.51	264.48
550.68	173.20
550.84	138.09
551.01	224.69
551.18	182.56
551.34	208.31
551.51	149.79
551.68	220.01
551.84	229.37
552.01	294.91
552.18	224.69
552.34	224.69
552.51	243.42
552.68	248.10
552.84	201.29
553.01	215.33
553.18	283.20
553.34	114.69
553.51	220.01
553.67	220.01
553.84	285.55
554.01	189.58
554.17	140.43
554.34	217.67
554.51	262.14
554.67	238.73
554.84	238.73
555.00	278.52
555.17	177.88
555.33	205.97
555.50	220.01
555.67	205.97
555.83	229.37
556.00	266.82
556.16	449.38
556.33	196.60
556.50	161.50
556.66	161.50
556.83	297.25
556.99	222.35
557.16	173.20
557.32	170.86
557.49	156.82
557.65	154.48
557.82	191.92
557.98	224.69
558.15	227.03
558.32	189.58
558.48	224.69
558.65	224.69
558.81	205.97
558.98	236.39
559.14	175.54
559.31	191.92
559.47	117.03
559.64	142.77
559.80	205.97
559.97	220.01
560.13	238.73
560.30	222.35
560.46	184.90
560.63	198.95
560.79	236.39
560.96	182.56
561.12	222.35
561.29	161.50
561.45	182.56
561.61	152.13
561.78	287.89
561.94	156.82
562.11	212.99
562.27	194.26
562.44	224.69
562.60	170.86
562.77	187.24
562.93	217.67
563.10	217.67
563.26	224.69
563.42	215.33
563.59	271.50
563.75	189.58
563.92	198.95
564.08	269.16
564.24	241.08
564.41	208.31
564.57	196.60
564.74	196.60
564.90	220.01
565.07	241.08
565.23	227.03
565.39	243.42
565.56	224.69
565.72	201.29
565.88	255.12
566.05	196.60
566.21	126.39
566.38	189.58
566.54	203.63
566.70	241.08
566.87	110.01
567.03	147.45
567.19	198.95
567.36	175.54
567.52	170.86
567.68	215.33
567.85	278.52
568.01	170.86
568.17	135.75
568.34	245.76
568.50	187.24
568.66	212.99
568.83	266.82
568.99	173.20
569.15	264.48
569.32	259.80
569.48	177.88
569.64	231.71
569.81	182.56
569.97	198.95
570.13	205.97
570.30	133.41
570.46	196.60
570.62	224.69
570.78	201.29
570.95	203.63
571.11	184.90
571.27	210.65
571.43	163.84
571.60	196.60
571.76	215.33
571.92	278.52
572.09	187.24
572.25	227.03
572.41	212.99
572.57	276.18
572.74	262.14
572.90	187.24
573.06	205.97
573.22	257.46
573.38	332.36
573.55	252.78
573.71	217.67
573.87	189.58
574.03	250.44
574.20	147.45
574.36	257.46
574.52	304.27
574.68	447.04
574.84	341.72
575.01	231.71
575.17	257.46
575.33	229.37
575.49	222.35
575.65	280.86
575.82	369.80
575.98	535.98
576.14	758.33
576.30	856.64
576.46	585.13
576.62	461.09
576.79	472.79
576.95	280.86
577.11	217.67
577.27	220.01
577.43	262.14
577.59	294.91
577.75	248.10
577.92	255.12
578.08	205.97
578.24	208.31
578.40	231.71
578.56	290.23
578.72	308.95
578.88	262.14
579.04	294.91
579.21	301.93
579.37	191.92
579.53	252.78
579.69	292.57
579.85	283.20
580.01	395.55
580.17	353.42
580.33	299.59
580.49	341.72
580.65	339.38
580.82	334.70
580.98	369.80
581.14	372.15
581.30	465.77
581.46	322.99
581.62	498.53
581.78	741.95
581.94	690.46
582.10	533.64
582.26	510.24
582.42	404.91
582.58	461.09
582.74	360.44
582.90	463.43
583.06	454.06
583.22	470.45
583.38	472.79
583.54	521.94
583.70	617.90
583.86	699.82
584.02	737.27
584.18	1013.45
584.34	1249.85
584.50	3328.24
584.66	25455.67
584.82	58677.23
584.98	65535.00
585.14	65535.00
585.30	57373.55
585.46	34387.15
585.62	21085.89
585.78	9589.17
585.94	3667.62
586.10	1851.36
586.26	1095.37
586.42	866.00
586.58	685.78
586.74	601.52
586.90	657.69
587.06	596.84
587.22	498.53
587.38	503.22
587.54	1207.72
587.70	3779.97
587.86	6401.37
588.02	7634.83
588.18	5460.47
588.34	3447.61
588.49	2207.13
588.65	1277.93
588.81	702.16
588.97	365.12
589.13	395.55
589.29	313.63
589.45	259.80
589.61	269.16
589.77	409.59
589.93	418.96
590.08	447.04
590.24	423.64
590.40	498.53
590.56	458.74
590.72	369.80
590.88	308.95
591.04	325.33
591.20	283.20
591.35	339.38
591.51	320.65
591.67	311.29
591.83	241.08
591.99	285.55
592.15	325.33
592.31	306.61
592.46	339.38
592.62	278.52
592.78	262.14
592.94	259.80
593.10	355.76
593.26	334.70
593.41	301.93
593.57	313.63
593.73	568.75
593.89	3082.49
594.05	8159.11
594.20	12959.55
594.36	12676.34
594.52	8128.68
594.68	4947.89
594.84	3157.38
594.99	1713.27
595.15	744.29
595.31	514.92
595.47	374.49
595.62	287.89
595.78	304.27
595.94	365.12
596.10	290.23
596.25	266.82
596.41	301.93
596.57	308.95
596.73	271.50
596.88	552.37
597.04	1626.67
597.20	2546.50
597.36	3346.97
597.51	2363.94
597.67	1495.60
597.83	968.98
597.99	781.74
598.14	475.13
598.30	334.70
598.46	325.33
598.61	376.83
598.77	320.65
598.93	301.93
599.09	212.99
599.24	339.38
599.40	234.05
599.56	212.99
599.71	259.80
599.87	222.35
600.03	243.42
600.18	217.67
600.34	297.25
600.50	234.05
600.65	229.37
600.81	215.33
600.97	290.23
601.12	217.67
601.28	266.82
601.44	255.12
601.59	168.52
601.75	273.84
601.91	208.31
602.06	320.65
602.22	308.95
602.37	800.46
602.53	1811.57
602.69	3026.31
602.84	3403.14
603.00	2441.18
603.16	1575.18
603.31	1270.91
603.47	718.54
603.62	425.98
603.78	266.82
603.94	285.55
604.09	276.18
604.25	294.91
604.40	280.86
604.56	227.03
604.71	248.10
604.87	236.39
605.03	276.18
605.18	271.50
605.34	252.78
605.49	215.33
605.65	264.48
605.80	194.26
605.96	243.42
606.12	306.61
606.27	327.68
606.43	292.57
606.58	383.85
606.74	915.15
606.89	3695.71
607.05	7836.11
607.20	11178.40
607.36	9310.65
607.51	6125.18
607.67	4058.49
607.82	2619.06
607.98	1345.81
608.13	786.42
608.29	496.19
608.44	503.22
608.60	423.64
608.75	489.17
608.91	1254.53
609.06	5788.14
609.22	13488.51
609.37	19288.35
609.53	17039.10
609.68	11173.72
609.84	6974.80
609.99	4535.96
610.15	2511.39
610.30	1153.88
610.46	594.50
610.61	477.47
610.76	383.85
610.92	332.36
611.07	276.18
611.23	411.93
611.38	273.84
611.54	271.50
611.69	210.65
