SpectraSuite Data File
++++++++++++++++++++++++++++++++++++
Date: Fri Oct 04 11:47:17 GMT-05:00 2013
User: price-jones
Dark Spectrum Present: No
Reference Spectrum Present: No
Number of Sampled Component Spectra: 1
Spectrometers: USB2+H05261
Integration Time (usec): 100000 (USB2+H05261)
Spectra Averaged: 1 (USB2+H05261)
Boxcar Smoothing: 0 (USB2+H05261)
Correct for Electrical Dark: No (USB2+H05261)
Strobe/Lamp Enabled: No (USB2+H05261)
Correct for Detector Non-linearity: No (USB2+H05261)
Correct for Stray Light: No (USB2+H05261)
Number of Pixels in Processed Spectrum: 2048
>>>>>Begin Processed Spectral Data<<<<<
365.73	49.15
365.92	49.15
366.12	49.15
366.32	14.04
366.52	0.00
366.72	0.00
366.91	0.00
367.11	0.00
367.31	0.00
367.51	0.00
367.70	0.00
367.90	0.00
368.10	0.00
368.30	0.00
368.49	0.00
368.69	0.00
368.89	0.00
369.09	0.00
369.28	2.34
369.48	9.36
369.68	0.00
369.87	0.00
370.07	0.00
370.27	0.00
370.47	0.00
370.66	0.00
370.86	51.49
371.06	39.79
371.25	128.73
371.45	23.41
371.65	42.13
371.84	25.75
372.04	70.22
372.24	79.58
372.44	0.00
372.63	0.00
372.83	119.37
373.03	28.09
373.22	35.11
373.42	84.26
373.62	53.83
373.81	84.26
374.01	114.69
374.21	142.77
374.40	49.15
374.60	107.66
374.79	93.62
374.99	72.56
375.19	98.30
375.38	128.73
375.58	91.28
375.78	42.13
375.97	131.07
376.17	142.77
376.37	25.75
376.56	138.09
376.76	126.39
376.95	11.70
377.15	91.28
377.35	135.75
377.54	105.32
377.74	11.70
377.93	65.54
378.13	170.86
378.33	98.30
378.52	60.85
378.72	112.35
378.91	159.16
379.11	53.83
379.31	145.11
379.50	88.94
379.70	72.56
379.89	100.64
380.09	77.24
380.28	51.49
380.48	149.79
380.68	91.28
380.87	77.24
381.07	56.17
381.26	107.66
381.46	93.62
381.65	145.11
381.85	49.15
382.04	121.71
382.24	77.24
382.43	84.26
382.63	28.09
382.83	100.64
383.02	49.15
383.22	152.13
383.41	60.85
383.61	98.30
383.80	112.35
384.00	124.05
384.19	60.85
384.39	107.66
384.58	86.60
384.78	135.75
384.97	63.19
385.17	173.20
385.36	35.11
385.56	184.90
385.75	159.16
385.95	135.75
386.14	128.73
386.34	117.03
386.53	46.81
386.72	91.28
386.92	142.77
387.11	79.58
387.31	91.28
387.50	37.45
387.70	81.92
387.89	79.58
388.09	51.49
388.28	72.56
388.48	11.70
388.67	53.83
388.86	39.79
389.06	128.73
389.25	124.05
389.45	77.24
389.64	154.48
389.84	133.41
390.03	79.58
390.22	105.32
390.42	91.28
390.61	16.38
390.81	114.69
391.00	107.66
391.19	177.88
391.39	112.35
391.58	91.28
391.78	112.35
391.97	117.03
392.16	49.15
392.36	208.31
392.55	95.96
392.75	107.66
392.94	79.58
393.13	67.88
393.33	86.60
393.52	79.58
393.71	133.41
393.91	149.79
394.10	175.54
394.29	84.26
394.49	46.81
394.68	170.86
394.88	161.50
395.07	133.41
395.26	154.48
395.46	154.48
395.65	79.58
395.84	152.13
396.04	198.95
396.23	102.98
396.42	77.24
396.62	67.88
396.81	70.22
397.00	138.09
397.19	201.29
397.39	105.32
397.58	110.01
397.77	138.09
397.97	56.17
398.16	100.64
398.35	119.37
398.55	149.79
398.74	93.62
398.93	152.13
399.12	51.49
399.32	191.92
399.51	91.28
399.70	91.28
399.90	105.32
400.09	114.69
400.28	138.09
400.47	100.64
400.67	100.64
400.86	95.96
401.05	154.48
401.24	102.98
401.44	46.81
401.63	67.88
401.82	196.60
402.01	128.73
402.21	84.26
402.40	117.03
402.59	84.26
402.78	156.82
402.97	152.13
403.17	117.03
403.36	84.26
403.55	98.30
403.74	138.09
403.93	117.03
404.13	126.39
404.32	138.09
404.51	166.18
404.70	107.66
404.89	107.66
405.09	131.07
405.28	152.13
405.47	166.18
405.66	100.64
405.85	175.54
406.05	145.11
406.24	126.39
406.43	107.66
406.62	93.62
406.81	147.45
407.00	142.77
407.20	100.64
407.39	65.54
407.58	53.83
407.77	107.66
407.96	175.54
408.15	44.47
408.34	105.32
408.54	91.28
408.73	81.92
408.92	49.15
409.11	131.07
409.30	95.96
409.49	81.92
409.68	161.50
409.87	117.03
410.07	138.09
410.26	154.48
410.45	105.32
410.64	105.32
410.83	117.03
411.02	114.69
411.21	145.11
411.40	124.05
411.59	117.03
411.78	126.39
411.98	154.48
412.17	86.60
412.36	77.24
412.55	100.64
412.74	131.07
412.93	159.16
413.12	67.88
413.31	133.41
413.50	70.22
413.69	161.50
413.88	145.11
414.07	51.49
414.26	77.24
414.45	72.56
414.64	149.79
414.83	168.52
415.02	126.39
415.22	145.11
415.41	182.56
415.60	119.37
415.79	182.56
415.98	170.86
416.17	138.09
416.36	49.15
416.55	121.71
416.74	117.03
416.93	161.50
417.12	110.01
417.31	152.13
417.50	189.58
417.69	142.77
417.88	154.48
418.07	187.24
418.26	154.48
418.45	117.03
418.64	264.48
418.83	220.01
419.02	138.09
419.21	135.75
419.39	198.95
419.58	154.48
419.77	170.86
419.96	149.79
420.15	138.09
420.34	124.05
420.53	126.39
420.72	112.35
420.91	91.28
421.10	72.56
421.29	98.30
421.48	163.84
421.67	147.45
421.86	81.92
422.05	170.86
422.24	91.28
422.43	128.73
422.61	102.98
422.80	166.18
422.99	128.73
423.18	79.58
423.37	95.96
423.56	102.98
423.75	112.35
423.94	67.88
424.13	220.01
424.32	126.39
424.50	60.85
424.69	128.73
424.88	42.13
425.07	133.41
425.26	205.97
425.45	133.41
425.64	203.63
425.83	102.98
426.01	194.26
426.20	114.69
426.39	170.86
426.58	93.62
426.77	140.43
426.96	177.88
427.15	117.03
427.33	121.71
427.52	145.11
427.71	147.45
427.90	152.13
428.09	184.90
428.28	91.28
428.46	79.58
428.65	168.52
428.84	77.24
429.03	173.20
429.22	37.45
429.40	84.26
429.59	58.51
429.78	124.05
429.97	91.28
430.16	180.22
430.34	140.43
430.53	119.37
430.72	124.05
430.91	147.45
431.10	72.56
431.28	126.39
431.47	49.15
431.66	128.73
431.85	77.24
432.03	161.50
432.22	201.29
432.41	105.32
432.60	215.33
432.79	168.52
432.97	135.75
433.16	205.97
433.35	182.56
433.54	135.75
433.72	112.35
433.91	222.35
434.10	142.77
434.28	154.48
434.47	112.35
434.66	149.79
434.85	72.56
435.03	126.39
435.22	177.88
435.41	161.50
435.59	142.77
435.78	163.84
435.97	121.71
436.16	70.22
436.34	88.94
436.53	119.37
436.72	100.64
436.90	110.01
437.09	140.43
437.28	194.26
437.46	72.56
437.65	65.54
437.84	166.18
438.02	117.03
438.21	93.62
438.40	81.92
438.58	135.75
438.77	152.13
438.96	140.43
439.14	138.09
439.33	152.13
439.52	93.62
439.70	149.79
439.89	159.16
440.08	105.32
440.26	133.41
440.45	51.49
440.63	149.79
440.82	117.03
441.01	126.39
441.19	114.69
441.38	145.11
441.57	121.71
441.75	194.26
441.94	212.99
442.12	166.18
442.31	128.73
442.50	161.50
442.68	114.69
442.87	128.73
443.05	182.56
443.24	124.05
443.43	187.24
443.61	147.45
443.80	110.01
443.98	100.64
444.17	156.82
444.35	152.13
444.54	168.52
444.73	205.97
444.91	191.92
445.10	163.84
445.28	102.98
445.47	91.28
445.65	105.32
445.84	60.85
446.02	217.67
446.21	142.77
446.39	81.92
446.58	182.56
446.77	119.37
446.95	93.62
447.14	128.73
447.32	110.01
447.51	149.79
447.69	95.96
447.88	79.58
448.06	184.90
448.25	84.26
448.43	100.64
448.62	124.05
448.80	173.20
448.99	102.98
449.17	95.96
449.36	100.64
449.54	168.52
449.73	93.62
449.91	198.95
450.10	121.71
450.28	180.22
450.46	168.52
450.65	121.71
450.83	180.22
451.02	131.07
451.20	175.54
451.39	117.03
451.57	184.90
451.76	93.62
451.94	107.66
452.13	138.09
452.31	142.77
452.49	119.37
452.68	154.48
452.86	110.01
453.05	159.16
453.23	166.18
453.42	149.79
453.60	140.43
453.78	88.94
453.97	79.58
454.15	119.37
454.34	133.41
454.52	140.43
454.70	257.46
454.89	156.82
455.07	112.35
455.26	131.07
455.44	184.90
455.62	173.20
455.81	142.77
455.99	133.41
456.17	180.22
456.36	102.98
456.54	142.77
456.73	138.09
456.91	145.11
457.09	107.66
457.28	145.11
457.46	117.03
457.64	147.45
457.83	74.90
458.01	163.84
458.19	102.98
458.38	124.05
458.56	194.26
458.74	46.81
458.93	166.18
459.11	131.07
459.29	105.32
459.48	170.86
459.66	168.52
459.84	189.58
460.03	145.11
460.21	152.13
460.39	170.86
460.57	215.33
460.76	217.67
460.94	156.82
461.12	163.84
461.31	135.75
461.49	84.26
461.67	121.71
461.85	159.16
462.04	138.09
462.22	660.03
462.40	142.77
462.59	145.11
462.77	72.56
462.95	46.81
463.13	135.75
463.32	98.30
463.50	220.01
463.68	93.62
463.86	161.50
464.05	182.56
464.23	154.48
464.41	121.71
464.59	63.19
464.78	161.50
464.96	149.79
465.14	81.92
465.32	67.88
465.50	205.97
465.69	166.18
465.87	140.43
466.05	152.13
466.23	110.01
466.41	133.41
466.60	131.07
466.78	145.11
466.96	119.37
467.14	154.48
467.32	175.54
467.51	161.50
467.69	142.77
467.87	184.90
468.05	117.03
468.23	170.86
468.41	145.11
468.60	163.84
468.78	163.84
468.96	112.35
469.14	91.28
469.32	88.94
469.50	154.48
469.69	105.32
469.87	166.18
470.05	182.56
470.23	177.88
470.41	79.58
470.59	121.71
470.77	191.92
470.95	168.52
471.14	168.52
471.32	117.03
471.50	121.71
471.68	110.01
471.86	110.01
472.04	133.41
472.22	175.54
472.40	95.96
472.58	138.09
472.77	56.17
472.95	128.73
473.13	220.01
473.31	191.92
473.49	131.07
473.67	107.66
473.85	149.79
474.03	177.88
474.21	138.09
474.39	245.76
474.57	191.92
474.75	105.32
474.93	168.52
475.12	191.92
475.30	124.05
475.48	147.45
475.66	124.05
475.84	187.24
476.02	84.26
476.20	163.84
476.38	112.35
476.56	189.58
476.74	119.37
476.92	156.82
477.10	210.65
477.28	131.07
477.46	161.50
477.64	154.48
477.82	138.09
478.00	189.58
478.18	163.84
478.36	154.48
478.54	173.20
478.72	102.98
478.90	152.13
479.08	110.01
479.26	74.90
479.44	138.09
479.62	182.56
479.80	145.11
479.98	152.13
480.16	126.39
480.34	210.65
480.52	149.79
480.70	182.56
480.88	161.50
481.06	161.50
481.24	142.77
481.41	95.96
481.59	110.01
481.77	95.96
481.95	102.98
482.13	175.54
482.31	198.95
482.49	154.48
482.67	121.71
482.85	114.69
483.03	149.79
483.21	187.24
483.39	205.97
483.57	117.03
483.74	175.54
483.92	138.09
484.10	170.86
484.28	149.79
484.46	227.03
484.64	191.92
484.82	142.77
485.00	138.09
485.18	117.03
485.35	161.50
485.53	196.60
485.71	142.77
485.89	102.98
486.07	154.48
486.25	220.01
486.43	145.11
486.61	154.48
486.78	177.88
486.96	102.98
487.14	110.01
487.32	166.18
487.50	173.20
487.68	191.92
487.85	126.39
488.03	241.08
488.21	175.54
488.39	86.60
488.57	126.39
488.75	161.50
488.92	365.12
489.10	107.66
489.28	180.22
489.46	126.39
489.64	194.26
489.81	154.48
489.99	208.31
490.17	222.35
490.35	196.60
490.53	114.69
490.70	131.07
490.88	231.71
491.06	175.54
491.24	163.84
491.41	234.05
491.59	142.77
491.77	208.31
491.95	138.09
492.13	198.95
492.30	173.20
492.48	196.60
492.66	203.63
492.84	184.90
493.01	156.82
493.19	180.22
493.37	292.57
493.54	163.84
493.72	170.86
493.90	243.42
494.08	191.92
494.25	170.86
494.43	184.90
494.61	128.73
494.79	182.56
494.96	170.86
495.14	191.92
495.32	159.16
495.49	198.95
495.67	147.45
495.85	184.90
496.02	140.43
496.20	222.35
496.38	189.58
496.55	196.60
496.73	147.45
496.91	159.16
497.09	217.67
497.26	149.79
497.44	114.69
497.62	201.29
497.79	156.82
497.97	152.13
498.14	191.92
498.32	168.52
498.50	175.54
498.67	121.71
498.85	173.20
499.03	196.60
499.20	203.63
499.38	128.73
499.56	124.05
499.73	203.63
499.91	161.50
500.08	142.77
500.26	133.41
500.44	215.33
500.61	231.71
500.79	140.43
500.97	168.52
501.14	194.26
501.32	203.63
501.49	234.05
501.67	154.48
501.84	147.45
502.02	205.97
502.20	229.37
502.37	215.33
502.55	152.13
502.72	177.88
502.90	196.60
503.07	262.14
503.25	241.08
503.43	227.03
503.60	248.10
503.78	196.60
503.95	248.10
504.13	215.33
504.30	168.52
504.48	208.31
504.65	215.33
504.83	241.08
505.01	234.05
505.18	201.29
505.36	170.86
505.53	161.50
505.71	173.20
505.88	217.67
506.06	156.82
506.23	187.24
506.41	175.54
506.58	163.84
506.76	184.90
506.93	175.54
507.11	224.69
507.28	276.18
507.46	154.48
507.63	262.14
507.81	212.99
507.98	182.56
508.16	173.20
508.33	177.88
508.50	220.01
508.68	159.16
508.85	147.45
509.03	93.62
509.20	194.26
509.38	175.54
509.55	241.08
509.73	166.18
509.90	215.33
510.08	173.20
510.25	280.86
510.42	98.30
510.60	156.82
510.77	147.45
510.95	238.73
511.12	266.82
511.30	292.57
511.47	283.20
511.64	259.80
511.82	248.10
511.99	220.01
512.17	191.92
512.34	180.22
512.51	198.95
512.69	168.52
512.86	201.29
513.04	145.11
513.21	156.82
513.38	161.50
513.56	276.18
513.73	203.63
513.90	187.24
514.08	184.90
514.25	266.82
514.43	212.99
514.60	234.05
514.77	138.09
514.95	138.09
515.12	234.05
515.29	238.73
515.47	198.95
515.64	259.80
515.81	201.29
515.99	138.09
516.16	168.52
516.33	191.92
516.51	156.82
516.68	135.75
516.85	152.13
517.03	194.26
517.20	149.79
517.37	145.11
517.54	224.69
517.72	201.29
517.89	93.62
518.06	184.90
518.24	212.99
518.41	166.18
518.58	255.12
518.75	203.63
518.93	238.73
519.10	248.10
519.27	159.16
519.45	231.71
519.62	182.56
519.79	241.08
519.96	98.30
520.14	238.73
520.31	315.97
520.48	238.73
520.65	273.84
520.83	203.63
521.00	243.42
521.17	177.88
521.34	159.16
521.52	147.45
521.69	208.31
521.86	194.26
522.03	358.10
522.20	222.35
522.38	194.26
522.55	154.48
522.72	173.20
522.89	187.24
523.07	220.01
523.24	227.03
523.41	180.22
523.58	173.20
523.75	175.54
523.92	231.71
524.10	156.82
524.27	182.56
524.44	161.50
524.61	182.56
524.78	243.42
524.96	252.78
525.13	201.29
525.30	238.73
525.47	241.08
525.64	250.44
525.81	198.95
525.98	229.37
526.16	196.60
526.33	187.24
526.50	215.33
526.67	168.52
526.84	138.09
527.01	184.90
527.18	191.92
527.36	191.92
527.53	201.29
527.70	234.05
527.87	191.92
528.04	175.54
528.21	156.82
528.38	201.29
528.55	243.42
528.72	191.92
528.89	205.97
529.07	266.82
529.24	299.59
529.41	208.31
529.58	220.01
529.75	248.10
529.92	245.76
530.09	308.95
530.26	205.97
530.43	201.29
530.60	222.35
530.77	189.58
530.94	236.39
531.11	201.29
531.28	168.52
531.46	138.09
531.63	243.42
531.80	208.31
531.97	257.46
532.14	205.97
532.31	257.46
532.48	287.89
532.65	266.82
532.82	341.72
532.99	318.31
533.16	285.55
533.33	283.20
533.50	320.65
533.67	262.14
533.84	283.20
534.01	454.06
534.18	367.46
534.35	264.48
534.52	264.48
534.69	313.63
534.86	308.95
535.03	264.48
535.20	198.95
535.37	285.55
535.54	161.50
535.71	224.69
535.88	264.48
536.05	243.42
536.22	182.56
536.38	194.26
536.55	224.69
536.72	287.89
536.89	180.22
537.06	133.41
537.23	231.71
537.40	198.95
537.57	163.84
537.74	212.99
537.91	210.65
538.08	196.60
538.25	156.82
538.42	262.14
538.59	196.60
538.75	196.60
538.92	217.67
539.09	184.90
539.26	250.44
539.43	447.04
539.60	915.15
539.77	1572.84
539.94	1528.37
540.11	1060.26
540.28	669.39
540.44	393.21
540.61	238.73
540.78	208.31
540.95	149.79
541.12	210.65
541.29	210.65
541.46	229.37
541.62	203.63
541.79	243.42
541.96	255.12
542.13	191.92
542.30	170.86
542.47	278.52
542.63	252.78
542.80	234.05
542.97	280.86
543.14	208.31
543.31	257.46
543.48	210.65
543.64	252.78
543.81	215.33
543.98	201.29
544.15	285.55
544.32	135.75
544.48	220.01
544.65	201.29
544.82	234.05
544.99	231.71
545.16	189.58
545.32	224.69
545.49	243.42
545.66	191.92
545.83	177.88
546.00	152.13
546.16	140.43
546.33	163.84
546.50	220.01
546.67	245.76
546.83	266.82
547.00	229.37
547.17	163.84
547.34	166.18
547.50	212.99
547.67	217.67
547.84	161.50
548.00	189.58
548.17	201.29
548.34	210.65
548.51	306.61
548.67	173.20
548.84	170.86
549.01	231.71
549.18	212.99
549.34	154.48
549.51	255.12
549.68	245.76
549.84	217.67
550.01	196.60
550.18	285.55
550.34	285.55
550.51	269.16
550.68	266.82
550.84	154.48
551.01	208.31
551.18	187.24
551.34	229.37
551.51	215.33
551.68	231.71
551.84	229.37
552.01	245.76
552.18	255.12
552.34	243.42
552.51	182.56
552.68	238.73
552.84	173.20
553.01	201.29
553.18	266.82
553.34	212.99
553.51	238.73
553.67	269.16
553.84	184.90
554.01	220.01
554.17	208.31
554.34	131.07
554.51	212.99
554.67	250.44
554.84	259.80
555.00	292.57
555.17	212.99
555.33	217.67
555.50	170.86
555.67	198.95
555.83	234.05
556.00	276.18
556.16	428.32
556.33	212.99
556.50	196.60
556.66	205.97
556.83	182.56
556.99	145.11
557.16	243.42
557.32	243.42
557.49	231.71
557.65	112.35
557.82	229.37
557.98	231.71
558.15	156.82
558.32	187.24
558.48	201.29
558.65	177.88
558.81	259.80
558.98	220.01
559.14	156.82
559.31	133.41
559.47	170.86
559.64	163.84
559.80	224.69
559.97	224.69
560.13	170.86
560.30	124.05
560.46	210.65
560.63	191.92
560.79	168.52
560.96	236.39
561.12	156.82
561.29	243.42
561.45	187.24
561.61	215.33
561.78	217.67
561.94	227.03
562.11	201.29
562.27	182.56
562.44	135.75
562.60	149.79
562.77	215.33
562.93	320.65
563.10	147.45
563.26	187.24
563.42	238.73
563.59	194.26
563.75	196.60
563.92	208.31
564.08	205.97
564.24	215.33
564.41	255.12
564.57	227.03
564.74	149.79
564.90	243.42
565.07	266.82
565.23	182.56
565.39	346.40
565.56	285.55
565.72	292.57
565.88	187.24
566.05	257.46
566.21	140.43
566.38	191.92
566.54	236.39
566.70	191.92
566.87	217.67
567.03	173.20
567.19	201.29
567.36	208.31
567.52	142.77
567.68	159.16
567.85	208.31
568.01	154.48
568.17	154.48
568.34	229.37
568.50	264.48
568.66	205.97
568.83	322.99
568.99	175.54
569.15	266.82
569.32	264.48
569.48	201.29
569.64	191.92
569.81	201.29
569.97	220.01
570.13	198.95
570.30	191.92
570.46	196.60
570.62	135.75
570.78	182.56
570.95	168.52
571.11	248.10
571.27	205.97
571.43	215.33
571.60	287.89
571.76	205.97
571.92	285.55
572.09	166.18
572.25	196.60
572.41	224.69
572.57	229.37
572.74	245.76
572.90	227.03
573.06	198.95
573.22	208.31
573.38	217.67
573.55	222.35
573.71	224.69
573.87	205.97
574.03	241.08
574.20	182.56
574.36	322.99
574.52	248.10
574.68	287.89
574.84	318.31
575.01	241.08
575.17	248.10
575.33	93.62
575.49	238.73
575.65	262.14
575.82	304.27
575.98	498.53
576.14	587.47
576.30	676.41
576.46	503.22
576.62	400.23
576.79	383.85
576.95	360.44
577.11	210.65
577.27	262.14
577.43	212.99
577.59	280.86
577.75	250.44
577.92	304.27
578.08	236.39
578.24	236.39
578.40	234.05
578.56	318.31
578.72	250.44
578.88	201.29
579.04	212.99
579.21	311.29
579.37	278.52
579.53	283.20
579.69	299.59
579.85	224.69
580.01	334.70
580.17	313.63
580.33	311.29
580.49	325.33
580.65	283.20
580.82	229.37
580.98	287.89
581.14	334.70
581.30	367.46
581.46	400.23
581.62	543.00
581.78	657.69
581.94	580.45
582.10	418.96
582.26	425.98
582.42	451.72
582.58	346.40
582.74	381.51
582.90	330.02
583.06	374.49
583.22	428.32
583.38	374.49
583.54	533.64
583.70	608.54
583.86	730.25
584.02	814.51
584.18	901.11
584.34	1254.53
584.50	3021.63
584.66	22207.00
584.82	55140.68
584.98	65535.00
585.14	64343.67
585.30	50653.87
585.46	30043.12
585.62	18656.41
585.78	8528.91
585.94	3421.86
586.10	1575.18
586.26	1034.52
586.42	741.95
586.58	601.52
586.74	561.73
586.90	587.47
587.06	629.60
587.22	491.51
587.38	510.24
587.54	1167.93
587.70	3309.52
587.86	5736.65
588.02	6792.23
588.18	4695.11
588.34	2979.50
588.49	2019.88
588.65	1179.63
588.81	557.05
588.97	360.44
589.13	276.18
589.29	238.73
589.45	266.82
589.61	269.16
589.77	393.21
589.93	400.23
590.08	461.09
590.24	437.68
590.40	404.91
590.56	367.46
590.72	327.68
590.88	285.55
591.04	353.42
591.20	348.74
591.35	299.59
591.51	194.26
591.67	189.58
591.83	248.10
591.99	220.01
592.15	318.31
592.31	229.37
592.46	257.46
592.62	280.86
592.78	287.89
592.94	301.93
593.10	271.50
593.26	280.86
593.41	301.93
593.57	252.78
593.73	540.66
593.89	2679.91
594.05	7321.20
594.20	11426.50
594.36	11145.63
594.52	7194.81
594.68	4447.02
594.84	2867.16
594.99	1619.65
595.15	688.12
595.31	468.11
595.47	353.42
595.62	294.91
595.78	308.95
595.94	297.25
596.10	325.33
596.25	301.93
596.41	360.44
596.57	306.61
596.73	198.95
596.88	498.53
597.04	1336.45
597.20	2253.94
597.36	2855.45
597.51	2104.14
597.67	1387.94
597.83	903.45
597.99	678.76
598.14	308.95
598.30	262.14
598.46	273.84
598.61	397.89
598.77	325.33
598.93	294.91
599.09	224.69
599.24	210.65
599.40	196.60
599.56	194.26
599.71	315.97
599.87	170.86
600.03	290.23
600.18	276.18
600.34	248.10
600.50	184.90
600.65	128.73
600.81	234.05
600.97	243.42
601.12	227.03
601.28	220.01
601.44	147.45
601.59	173.20
601.75	222.35
601.91	222.35
602.06	299.59
602.22	383.85
602.37	685.78
602.53	1680.50
602.69	2726.72
602.84	3136.32
603.00	2197.76
603.16	1416.02
603.31	1071.97
603.47	667.05
603.62	367.46
603.78	351.08
603.94	201.29
604.09	236.39
604.25	264.48
604.40	210.65
604.56	189.58
604.71	266.82
604.87	245.76
605.03	201.29
605.18	227.03
605.34	294.91
605.49	308.95
605.65	290.23
605.80	287.89
605.96	217.67
606.12	257.46
606.27	290.23
606.43	315.97
606.58	421.30
606.74	800.46
606.89	3159.72
607.05	6883.52
607.20	9846.63
607.36	8067.83
607.51	5416.00
607.67	3382.07
607.82	2298.41
607.98	1334.11
608.13	667.05
608.29	414.27
608.44	416.62
608.60	372.15
608.75	585.13
608.91	1107.07
609.06	5043.85
609.22	11896.94
609.37	16746.53
609.53	15019.22
609.68	9823.23
609.84	6155.61
609.99	4056.15
610.15	2279.68
610.30	980.68
610.46	543.00
610.61	332.36
610.76	360.44
610.92	301.93
611.07	330.02
611.23	365.12
611.38	280.86
611.54	234.05
611.69	210.65
611.84	292.57
