SpectraSuite Data File
++++++++++++++++++++++++++++++++++++
Date: Fri Oct 04 11:47:07 GMT-05:00 2013
User: price-jones
Dark Spectrum Present: No
Reference Spectrum Present: No
Number of Sampled Component Spectra: 1
Spectrometers: USB2+H05261
Integration Time (usec): 100000 (USB2+H05261)
Spectra Averaged: 1 (USB2+H05261)
Boxcar Smoothing: 0 (USB2+H05261)
Correct for Electrical Dark: No (USB2+H05261)
Strobe/Lamp Enabled: No (USB2+H05261)
Correct for Detector Non-linearity: No (USB2+H05261)
Correct for Stray Light: No (USB2+H05261)
Number of Pixels in Processed Spectrum: 2048
>>>>>Begin Processed Spectral Data<<<<<
365.73	0.00
365.92	0.00
366.12	0.00
366.32	0.00
366.52	0.00
366.72	0.00
366.91	0.00
367.11	0.00
367.31	0.00
367.51	0.00
367.70	0.00
367.90	11.70
368.10	0.00
368.30	0.00
368.49	0.00
368.69	0.00
368.89	0.00
369.09	0.00
369.28	0.00
369.48	0.00
369.68	0.00
369.87	0.00
370.07	0.00
370.27	58.51
370.47	23.41
370.66	7.02
370.86	16.38
371.06	14.04
371.25	39.79
371.45	39.79
371.65	93.62
371.84	79.58
372.04	63.19
372.24	79.58
372.44	28.09
372.63	102.98
372.83	140.43
373.03	65.54
373.22	121.71
373.42	131.07
373.62	79.58
373.81	105.32
374.01	65.54
374.21	184.90
374.40	77.24
374.60	107.66
374.79	100.64
374.99	86.60
375.19	147.45
375.38	227.03
375.58	121.71
375.78	135.75
375.97	152.13
376.17	149.79
376.37	124.05
376.56	107.66
376.76	46.81
376.95	107.66
377.15	110.01
377.35	173.20
377.54	114.69
377.74	105.32
377.93	117.03
378.13	56.17
378.33	95.96
378.52	35.11
378.72	93.62
378.91	107.66
379.11	81.92
379.31	77.24
379.50	56.17
379.70	86.60
379.89	65.54
380.09	84.26
380.28	44.47
380.48	72.56
380.68	53.83
380.87	112.35
381.07	88.94
381.26	161.50
381.46	128.73
381.65	133.41
381.85	11.70
382.04	124.05
382.24	98.30
382.43	84.26
382.63	74.90
382.83	117.03
383.02	191.92
383.22	156.82
383.41	65.54
383.61	91.28
383.80	105.32
384.00	117.03
384.19	49.15
384.39	72.56
384.58	110.01
384.78	138.09
384.97	100.64
385.17	81.92
385.36	60.85
385.56	74.90
385.75	168.52
385.95	42.13
386.14	100.64
386.34	110.01
386.53	135.75
386.72	67.88
386.92	177.88
387.11	138.09
387.31	77.24
387.50	102.98
387.70	49.15
387.89	131.07
388.09	124.05
388.28	102.98
388.48	100.64
388.67	133.41
388.86	102.98
389.06	79.58
389.25	98.30
389.45	105.32
389.64	142.77
389.84	25.75
390.03	49.15
390.22	77.24
390.42	131.07
390.61	79.58
390.81	98.30
391.00	105.32
391.19	189.58
391.39	126.39
391.58	79.58
391.78	67.88
391.97	107.66
392.16	44.47
392.36	86.60
392.55	91.28
392.75	67.88
392.94	53.83
393.13	81.92
393.33	67.88
393.52	51.49
393.71	121.71
393.91	124.05
394.10	100.64
394.29	126.39
394.49	142.77
394.68	145.11
394.88	159.16
395.07	105.32
395.26	114.69
395.46	119.37
395.65	49.15
395.84	156.82
396.04	138.09
396.23	124.05
396.42	100.64
396.62	42.13
396.81	65.54
397.00	112.35
397.19	84.26
397.39	93.62
397.58	86.60
397.77	35.11
397.97	138.09
398.16	65.54
398.35	98.30
398.55	110.01
398.74	173.20
398.93	93.62
399.12	98.30
399.32	126.39
399.51	102.98
399.70	72.56
399.90	79.58
400.09	117.03
400.28	105.32
400.47	124.05
400.67	102.98
400.86	79.58
401.05	168.52
401.24	189.58
401.44	44.47
401.63	170.86
401.82	117.03
402.01	114.69
402.21	105.32
402.40	117.03
402.59	98.30
402.78	67.88
402.97	84.26
403.17	189.58
403.36	170.86
403.55	142.77
403.74	121.71
403.93	133.41
404.13	217.67
404.32	138.09
404.51	114.69
404.70	126.39
404.89	126.39
405.09	138.09
405.28	126.39
405.47	138.09
405.66	131.07
405.85	154.48
406.05	105.32
406.24	93.62
406.43	154.48
406.62	114.69
406.81	133.41
407.00	107.66
407.20	126.39
407.39	72.56
407.58	93.62
407.77	107.66
407.96	107.66
408.15	79.58
408.34	84.26
408.54	117.03
408.73	28.09
408.92	93.62
409.11	121.71
409.30	86.60
409.49	142.77
409.68	175.54
409.87	114.69
410.07	110.01
410.26	168.52
410.45	140.43
410.64	126.39
410.83	77.24
411.02	93.62
411.21	110.01
411.40	93.62
411.59	131.07
411.78	131.07
411.98	154.48
412.17	53.83
412.36	187.24
412.55	95.96
412.74	147.45
412.93	126.39
413.12	159.16
413.31	182.56
413.50	86.60
413.69	79.58
413.88	140.43
414.07	121.71
414.26	140.43
414.45	119.37
414.64	203.63
414.83	128.73
415.02	147.45
415.22	77.24
415.41	110.01
415.60	88.94
415.79	126.39
415.98	196.60
416.17	102.98
416.36	107.66
416.55	112.35
416.74	133.41
416.93	91.28
417.12	65.54
417.31	149.79
417.50	131.07
417.69	212.99
417.88	248.10
418.07	88.94
418.26	102.98
418.45	131.07
418.64	161.50
418.83	276.18
419.02	248.10
419.21	154.48
419.39	156.82
419.58	102.98
419.77	205.97
419.96	203.63
420.15	229.37
420.34	102.98
420.53	131.07
420.72	107.66
420.91	117.03
421.10	124.05
421.29	91.28
421.48	215.33
421.67	133.41
421.86	98.30
422.05	112.35
422.24	126.39
422.43	126.39
422.61	51.49
422.80	145.11
422.99	133.41
423.18	95.96
423.37	175.54
423.56	124.05
423.75	102.98
423.94	126.39
424.13	161.50
424.32	156.82
424.50	154.48
424.69	152.13
424.88	131.07
425.07	42.13
425.26	156.82
425.45	252.78
425.64	257.46
425.83	273.84
426.01	149.79
426.20	100.64
426.39	67.88
426.58	49.15
426.77	121.71
426.96	194.26
427.15	124.05
427.33	119.37
427.52	191.92
427.71	191.92
427.90	182.56
428.09	215.33
428.28	72.56
428.46	163.84
428.65	70.22
428.84	159.16
429.03	140.43
429.22	70.22
429.40	138.09
429.59	110.01
429.78	119.37
429.97	105.32
430.16	110.01
430.34	220.01
430.53	77.24
430.72	191.92
430.91	86.60
431.10	170.86
431.28	175.54
431.47	156.82
431.66	128.73
431.85	128.73
432.03	117.03
432.22	84.26
432.41	114.69
432.60	175.54
432.79	203.63
432.97	322.99
433.16	348.74
433.35	189.58
433.54	163.84
433.72	168.52
433.91	149.79
434.10	131.07
434.28	189.58
434.47	124.05
434.66	170.86
434.85	175.54
435.03	117.03
435.22	112.35
435.41	248.10
435.59	121.71
435.78	138.09
435.97	112.35
436.16	180.22
436.34	154.48
436.53	196.60
436.72	135.75
436.90	210.65
437.09	152.13
437.28	114.69
437.46	142.77
437.65	91.28
437.84	86.60
438.02	93.62
438.21	217.67
438.40	114.69
438.58	154.48
438.77	110.01
438.96	42.13
439.14	107.66
439.33	140.43
439.52	100.64
439.70	102.98
439.89	142.77
440.08	117.03
440.26	145.11
440.45	166.18
440.63	60.85
440.82	138.09
441.01	147.45
441.19	65.54
441.38	198.95
441.57	112.35
441.75	140.43
441.94	124.05
442.12	170.86
442.31	102.98
442.50	166.18
442.68	102.98
442.87	175.54
443.05	168.52
443.24	135.75
443.43	145.11
443.61	91.28
443.80	140.43
443.98	156.82
444.17	110.01
444.35	140.43
444.54	91.28
444.73	131.07
444.91	142.77
445.10	88.94
445.28	175.54
445.47	142.77
445.65	124.05
445.84	88.94
446.02	110.01
446.21	159.16
446.39	168.52
446.58	152.13
446.77	110.01
446.95	70.22
447.14	208.31
447.32	189.58
447.51	154.48
447.69	46.81
447.88	51.49
448.06	156.82
448.25	189.58
448.43	145.11
448.62	156.82
448.80	110.01
448.99	98.30
449.17	177.88
449.36	100.64
449.54	121.71
449.73	88.94
449.91	161.50
450.10	145.11
450.28	187.24
450.46	182.56
450.65	135.75
450.83	131.07
451.02	140.43
451.20	79.58
451.39	86.60
451.57	124.05
451.76	124.05
451.94	126.39
452.13	77.24
452.31	166.18
452.49	182.56
452.68	189.58
452.86	110.01
453.05	100.64
453.23	100.64
453.42	126.39
453.60	105.32
453.78	154.48
453.97	114.69
454.15	117.03
454.34	119.37
454.52	119.37
454.70	121.71
454.89	170.86
455.07	222.35
455.26	133.41
455.44	98.30
455.62	152.13
455.81	112.35
455.99	110.01
456.17	138.09
456.36	70.22
456.54	131.07
456.73	67.88
456.91	170.86
457.09	189.58
457.28	189.58
457.46	128.73
457.64	117.03
457.83	154.48
458.01	119.37
458.19	114.69
458.38	102.98
458.56	126.39
458.74	98.30
458.93	173.20
459.11	161.50
459.29	107.66
459.48	156.82
459.66	114.69
459.84	243.42
460.03	198.95
460.21	189.58
460.39	184.90
460.57	177.88
460.76	203.63
460.94	147.45
461.12	215.33
461.31	180.22
461.49	163.84
461.67	107.66
461.85	140.43
462.04	180.22
462.22	608.54
462.40	126.39
462.59	100.64
462.77	170.86
462.95	138.09
463.13	88.94
463.32	107.66
463.50	182.56
463.68	77.24
463.86	128.73
464.05	140.43
464.23	180.22
464.41	184.90
464.59	72.56
464.78	107.66
464.96	128.73
465.14	149.79
465.32	124.05
465.50	180.22
465.69	159.16
465.87	79.58
466.05	205.97
466.23	86.60
466.41	84.26
466.60	212.99
466.78	133.41
466.96	187.24
467.14	135.75
467.32	184.90
467.51	161.50
467.69	147.45
467.87	145.11
468.05	107.66
468.23	215.33
468.41	154.48
468.60	149.79
468.78	110.01
468.96	163.84
469.14	124.05
469.32	147.45
469.50	201.29
469.69	175.54
469.87	187.24
470.05	173.20
470.23	154.48
470.41	121.71
470.59	121.71
470.77	217.67
470.95	119.37
471.14	217.67
471.32	222.35
471.50	149.79
471.68	128.73
471.86	93.62
472.04	180.22
472.22	170.86
472.40	170.86
472.58	95.96
472.77	126.39
472.95	168.52
473.13	180.22
473.31	152.13
473.49	119.37
473.67	135.75
473.85	126.39
474.03	126.39
474.21	142.77
474.39	191.92
474.57	124.05
474.75	112.35
474.93	194.26
475.12	86.60
475.30	126.39
475.48	142.77
475.66	145.11
475.84	86.60
476.02	215.33
476.20	168.52
476.38	145.11
476.56	161.50
476.74	189.58
476.92	98.30
477.10	112.35
477.28	126.39
477.46	140.43
477.64	121.71
477.82	182.56
478.00	121.71
478.18	161.50
478.36	161.50
478.54	166.18
478.72	117.03
478.90	131.07
479.08	91.28
479.26	152.13
479.44	135.75
479.62	119.37
479.80	180.22
479.98	133.41
480.16	161.50
480.34	184.90
480.52	149.79
480.70	194.26
480.88	159.16
481.06	121.71
481.24	168.52
481.41	110.01
481.59	142.77
481.77	135.75
481.95	91.28
482.13	194.26
482.31	128.73
482.49	124.05
482.67	95.96
482.85	177.88
483.03	163.84
483.21	135.75
483.39	161.50
483.57	138.09
483.74	229.37
483.92	170.86
484.10	84.26
484.28	210.65
484.46	304.27
484.64	159.16
484.82	241.08
485.00	189.58
485.18	128.73
485.35	159.16
485.53	100.64
485.71	212.99
485.89	65.54
486.07	124.05
486.25	210.65
486.43	184.90
486.61	238.73
486.78	156.82
486.96	161.50
487.14	119.37
487.32	133.41
487.50	140.43
487.68	194.26
487.85	184.90
488.03	154.48
488.21	187.24
488.39	187.24
488.57	168.52
488.75	159.16
488.92	414.27
489.10	203.63
489.28	140.43
489.46	152.13
489.64	93.62
489.81	131.07
489.99	222.35
490.17	198.95
490.35	252.78
490.53	236.39
490.70	124.05
490.88	163.84
491.06	138.09
491.24	180.22
491.41	163.84
491.59	198.95
491.77	140.43
491.95	238.73
492.13	231.71
492.30	222.35
492.48	250.44
492.66	191.92
492.84	163.84
493.01	198.95
493.19	234.05
493.37	208.31
493.54	217.67
493.72	201.29
493.90	234.05
494.08	114.69
494.25	257.46
494.43	114.69
494.61	133.41
494.79	222.35
494.96	163.84
495.14	234.05
495.32	196.60
495.49	180.22
495.67	105.32
495.85	135.75
496.02	142.77
496.20	227.03
496.38	142.77
496.55	180.22
496.73	133.41
496.91	161.50
497.09	222.35
497.26	198.95
497.44	220.01
497.62	187.24
497.79	208.31
497.97	147.45
498.14	189.58
498.32	182.56
498.50	203.63
498.67	142.77
498.85	196.60
499.03	180.22
499.20	187.24
499.38	147.45
499.56	154.48
499.73	287.89
499.91	140.43
500.08	152.13
500.26	149.79
500.44	175.54
500.61	140.43
500.79	175.54
500.97	156.82
501.14	201.29
501.32	182.56
501.49	220.01
501.67	161.50
501.84	208.31
502.02	126.39
502.20	182.56
502.37	191.92
502.55	201.29
502.72	168.52
502.90	212.99
503.07	220.01
503.25	283.20
503.43	241.08
503.60	234.05
503.78	266.82
503.95	187.24
504.13	182.56
504.30	205.97
504.48	208.31
504.65	243.42
504.83	201.29
505.01	159.16
505.18	196.60
505.36	189.58
505.53	175.54
505.71	173.20
505.88	215.33
506.06	175.54
506.23	175.54
506.41	191.92
506.58	224.69
506.76	203.63
506.93	187.24
507.11	229.37
507.28	196.60
507.46	238.73
507.63	248.10
507.81	304.27
507.98	255.12
508.16	198.95
508.33	191.92
508.50	215.33
508.68	173.20
508.85	231.71
509.03	88.94
509.20	121.71
509.38	220.01
509.55	149.79
509.73	227.03
509.90	269.16
510.08	126.39
510.25	168.52
510.42	299.59
510.60	184.90
510.77	182.56
510.95	203.63
511.12	264.48
511.30	257.46
511.47	283.20
511.64	306.61
511.82	271.50
511.99	229.37
512.17	210.65
512.34	166.18
512.51	156.82
512.69	173.20
512.86	196.60
513.04	236.39
513.21	112.35
513.38	147.45
513.56	170.86
513.73	203.63
513.90	231.71
514.08	243.42
514.25	236.39
514.43	215.33
514.60	238.73
514.77	222.35
514.95	217.67
515.12	248.10
515.29	252.78
515.47	198.95
515.64	196.60
515.81	201.29
515.99	271.50
516.16	238.73
516.33	241.08
516.51	166.18
516.68	168.52
516.85	180.22
517.03	212.99
517.20	131.07
517.37	156.82
517.54	252.78
517.72	205.97
517.89	175.54
518.06	241.08
518.24	133.41
518.41	196.60
518.58	259.80
518.75	292.57
518.93	255.12
519.10	264.48
519.27	222.35
519.45	191.92
519.62	128.73
519.79	198.95
519.96	142.77
520.14	182.56
520.31	241.08
520.48	168.52
520.65	241.08
520.83	238.73
521.00	224.69
521.17	220.01
521.34	208.31
521.52	105.32
521.69	126.39
521.86	217.67
522.03	241.08
522.20	229.37
522.38	208.31
522.55	203.63
522.72	166.18
522.89	220.01
523.07	234.05
523.24	201.29
523.41	217.67
523.58	168.52
523.75	248.10
523.92	201.29
524.10	177.88
524.27	227.03
524.44	184.90
524.61	252.78
524.78	173.20
524.96	231.71
525.13	170.86
525.30	245.76
525.47	203.63
525.64	229.37
525.81	208.31
525.98	170.86
526.16	154.48
526.33	133.41
526.50	112.35
526.67	187.24
526.84	229.37
527.01	166.18
527.18	215.33
527.36	166.18
527.53	196.60
527.70	266.82
527.87	208.31
528.04	234.05
528.21	117.03
528.38	227.03
528.55	234.05
528.72	210.65
528.89	217.67
529.07	138.09
529.24	210.65
529.41	257.46
529.58	173.20
529.75	154.48
529.92	189.58
530.09	180.22
530.26	234.05
530.43	210.65
530.60	205.97
530.77	156.82
530.94	224.69
531.11	231.71
531.28	163.84
531.46	227.03
531.63	210.65
531.80	126.39
531.97	187.24
532.14	184.90
532.31	243.42
532.48	351.08
532.65	444.70
532.82	477.47
532.99	407.25
533.16	332.36
533.33	280.86
533.50	299.59
533.67	388.53
533.84	425.98
534.01	519.60
534.18	376.83
534.35	418.96
534.52	266.82
534.69	320.65
534.86	217.67
535.03	208.31
535.20	220.01
535.37	196.60
535.54	198.95
535.71	236.39
535.88	252.78
536.05	203.63
536.22	184.90
536.38	252.78
536.55	208.31
536.72	203.63
536.89	180.22
537.06	283.20
537.23	210.65
537.40	189.58
537.57	212.99
537.74	236.39
537.91	194.26
538.08	241.08
538.25	283.20
538.42	191.92
538.59	271.50
538.75	168.52
538.92	184.90
539.09	290.23
539.26	264.48
539.43	568.75
539.60	1465.18
539.77	2424.80
539.94	2396.71
540.11	1577.52
540.28	1015.79
540.44	683.44
540.61	346.40
540.78	217.67
540.95	154.48
541.12	210.65
541.29	184.90
541.46	266.82
541.62	175.54
541.79	236.39
541.96	128.73
542.13	191.92
542.30	238.73
542.47	196.60
542.63	243.42
542.80	203.63
542.97	248.10
543.14	187.24
543.31	205.97
543.48	264.48
543.64	262.14
543.81	215.33
543.98	191.92
544.15	173.20
544.32	182.56
544.48	224.69
544.65	264.48
544.82	224.69
544.99	257.46
545.16	252.78
545.32	252.78
545.49	182.56
545.66	191.92
545.83	210.65
546.00	168.52
546.16	187.24
546.33	124.05
546.50	250.44
546.67	222.35
546.83	229.37
547.00	180.22
547.17	177.88
547.34	114.69
547.50	161.50
547.67	236.39
547.84	241.08
548.00	217.67
548.17	175.54
548.34	208.31
548.51	231.71
548.67	168.52
548.84	222.35
549.01	224.69
549.18	220.01
549.34	217.67
549.51	196.60
549.68	257.46
549.84	196.60
550.01	203.63
550.18	308.95
550.34	227.03
550.51	196.60
550.68	250.44
550.84	220.01
551.01	175.54
551.18	269.16
551.34	203.63
551.51	217.67
551.68	227.03
551.84	229.37
552.01	180.22
552.18	215.33
552.34	241.08
552.51	201.29
552.68	243.42
552.84	252.78
553.01	180.22
553.18	217.67
553.34	191.92
553.51	212.99
553.67	248.10
553.84	243.42
554.01	229.37
554.17	180.22
554.34	205.97
554.51	198.95
554.67	278.52
554.84	147.45
555.00	220.01
555.17	248.10
555.33	180.22
555.50	273.84
555.67	231.71
555.83	220.01
556.00	220.01
556.16	383.85
556.33	304.27
556.50	205.97
556.66	262.14
556.83	222.35
556.99	147.45
557.16	271.50
557.32	184.90
557.49	184.90
557.65	189.58
557.82	250.44
557.98	194.26
558.15	114.69
558.32	152.13
558.48	182.56
558.65	180.22
558.81	198.95
558.98	166.18
559.14	215.33
559.31	196.60
559.47	189.58
559.64	184.90
559.80	182.56
559.97	154.48
560.13	215.33
560.30	217.67
560.46	161.50
560.63	173.20
560.79	266.82
560.96	166.18
561.12	222.35
561.29	250.44
561.45	243.42
561.61	212.99
561.78	250.44
561.94	250.44
562.11	166.18
562.27	212.99
562.44	227.03
562.60	215.33
562.77	163.84
562.93	175.54
563.10	212.99
563.26	248.10
563.42	215.33
563.59	222.35
563.75	149.79
563.92	205.97
564.08	182.56
564.24	315.97
564.41	168.52
564.57	180.22
564.74	175.54
564.90	269.16
565.07	187.24
565.23	285.55
565.39	313.63
565.56	255.12
565.72	271.50
565.88	198.95
566.05	264.48
566.21	166.18
566.38	203.63
566.54	271.50
566.70	187.24
566.87	135.75
567.03	145.11
567.19	147.45
567.36	170.86
567.52	189.58
567.68	294.91
567.85	126.39
568.01	138.09
568.17	133.41
568.34	142.77
568.50	283.20
568.66	198.95
568.83	259.80
568.99	215.33
569.15	205.97
569.32	257.46
569.48	175.54
569.64	154.48
569.81	210.65
569.97	252.78
570.13	154.48
570.30	191.92
570.46	201.29
570.62	149.79
570.78	131.07
570.95	196.60
571.11	236.39
571.27	290.23
571.43	294.91
571.60	262.14
571.76	292.57
571.92	266.82
572.09	173.20
572.25	102.98
572.41	220.01
572.57	210.65
572.74	250.44
572.90	173.20
573.06	224.69
573.22	276.18
573.38	243.42
573.55	308.95
573.71	236.39
573.87	234.05
574.03	280.86
574.20	138.09
574.36	241.08
574.52	362.78
574.68	355.76
574.84	381.51
575.01	266.82
575.17	304.27
575.33	278.52
575.49	318.31
575.65	294.91
575.82	374.49
575.98	744.29
576.14	1053.24
576.30	1064.94
576.46	809.83
576.62	620.24
576.79	402.57
576.95	404.91
577.11	266.82
577.27	276.18
577.43	297.25
577.59	320.65
577.75	332.36
577.92	348.74
578.08	325.33
578.24	227.03
578.40	304.27
578.56	379.17
578.72	304.27
578.88	318.31
579.04	304.27
579.21	262.14
579.37	351.08
579.53	337.04
579.69	390.87
579.85	374.49
580.01	386.19
580.17	461.09
580.33	489.17
580.49	388.53
580.65	393.21
580.82	425.98
580.98	423.64
581.14	397.89
581.30	440.02
581.46	613.22
581.62	763.01
581.78	816.85
581.94	875.36
582.10	603.86
582.26	594.50
582.42	550.03
582.58	571.09
582.74	559.39
582.90	500.87
583.06	550.03
583.22	566.41
583.38	683.44
583.54	667.05
583.70	889.40
583.86	938.55
584.02	1142.18
584.18	1306.02
584.34	1762.42
584.50	5018.11
584.66	38157.75
584.82	65535.00
584.98	65535.00
585.14	65535.00
585.30	65535.00
585.46	53352.51
585.62	32985.17
585.78	14668.14
585.94	5678.14
586.10	2597.99
586.26	1551.78
586.42	1284.95
586.58	987.71
586.74	861.32
586.90	826.21
587.06	786.42
587.22	746.63
587.38	716.20
587.54	1661.78
587.70	5668.78
587.86	9930.89
588.02	11609.06
588.18	7981.23
588.34	4858.95
588.49	3358.67
588.65	1867.75
588.81	940.90
588.97	587.47
589.13	407.25
589.29	482.15
589.45	402.57
589.61	421.30
589.77	421.30
589.93	592.16
590.08	601.52
590.24	599.18
590.40	575.77
590.56	561.73
590.72	414.27
590.88	461.09
591.04	383.85
591.20	372.15
591.35	358.10
591.51	367.46
591.67	447.04
591.83	339.38
591.99	400.23
592.15	327.68
592.31	285.55
592.46	278.52
592.62	280.86
592.78	334.70
592.94	290.23
593.10	355.76
593.26	297.25
593.41	393.21
593.57	397.89
593.73	730.25
593.89	4463.40
594.05	12608.47
594.20	19569.22
594.36	18939.62
594.52	11936.73
594.68	7515.46
594.84	4858.95
594.99	2609.70
595.15	1249.85
595.31	648.33
595.47	489.17
595.62	390.87
595.78	367.46
595.94	332.36
596.10	381.51
596.25	433.00
596.41	390.87
596.57	351.08
596.73	411.93
596.88	727.91
597.04	2104.14
597.20	3859.54
597.36	4678.73
597.51	3609.11
597.67	2256.28
597.83	1544.75
597.99	1018.13
598.14	594.50
598.30	451.72
598.46	388.53
598.61	433.00
598.77	393.21
598.93	234.05
599.09	269.16
599.24	318.31
599.40	292.57
599.56	294.91
599.71	245.76
599.87	273.84
600.03	238.73
600.18	191.92
600.34	217.67
600.50	327.68
600.65	231.71
600.81	299.59
600.97	159.16
601.12	217.67
601.28	245.76
601.44	212.99
601.59	245.76
601.75	294.91
601.91	266.82
602.06	299.59
602.22	344.06
602.37	1008.77
602.53	2745.45
602.69	4472.76
602.84	5041.51
603.00	3506.12
603.16	2160.31
603.31	1596.25
603.47	1153.88
603.62	601.52
603.78	383.85
603.94	325.33
604.09	341.72
604.25	266.82
604.40	283.20
604.56	297.25
604.71	337.04
604.87	283.20
605.03	353.42
605.18	320.65
605.34	308.95
605.49	234.05
605.65	334.70
605.80	311.29
605.96	390.87
606.12	322.99
606.27	381.51
606.43	393.21
606.58	461.09
606.74	1221.76
606.89	5589.20
607.05	12236.32
607.20	16727.81
607.36	13577.45
607.51	9163.20
607.67	5877.09
607.82	3833.80
607.98	2125.21
608.13	908.13
608.29	592.16
608.44	575.77
608.60	524.28
608.75	638.97
608.91	1652.42
609.06	8519.55
609.22	20849.49
609.37	29514.16
609.53	25177.14
609.68	16601.42
609.84	10431.77
609.99	6984.16
610.15	3557.61
610.30	1598.59
610.46	842.59
610.61	627.26
610.76	465.77
610.92	463.43
611.07	407.25
611.23	503.22
