SpectraSuite Data File
++++++++++++++++++++++++++++++++++++
Date: Fri Oct 04 11:47:04 GMT-05:00 2013
User: price-jones
Dark Spectrum Present: No
Reference Spectrum Present: No
Number of Sampled Component Spectra: 1
Spectrometers: USB2+H05261
Integration Time (usec): 100000 (USB2+H05261)
Spectra Averaged: 1 (USB2+H05261)
Boxcar Smoothing: 0 (USB2+H05261)
Correct for Electrical Dark: No (USB2+H05261)
Strobe/Lamp Enabled: No (USB2+H05261)
Correct for Detector Non-linearity: No (USB2+H05261)
Correct for Stray Light: No (USB2+H05261)
Number of Pixels in Processed Spectrum: 2048
>>>>>Begin Processed Spectral Data<<<<<
365.73	46.81
365.92	46.81
366.12	46.81
366.32	0.00
366.52	0.00
366.72	0.00
366.91	0.00
367.11	0.00
367.31	0.00
367.51	0.00
367.70	0.00
367.90	0.00
368.10	0.00
368.30	0.00
368.49	0.00
368.69	0.00
368.89	0.00
369.09	0.00
369.28	0.00
369.48	0.00
369.68	0.00
369.87	0.00
370.07	0.00
370.27	11.70
370.47	0.00
370.66	9.36
370.86	18.72
371.06	79.58
371.25	63.19
371.45	0.00
371.65	105.32
371.84	14.04
372.04	81.92
372.24	105.32
372.44	23.41
372.63	88.94
372.83	203.63
373.03	126.39
373.22	21.06
373.42	102.98
373.62	117.03
373.81	107.66
374.01	124.05
374.21	77.24
374.40	14.04
374.60	159.16
374.79	105.32
374.99	102.98
375.19	114.69
375.38	65.54
375.58	177.88
375.78	112.35
375.97	70.22
376.17	208.31
376.37	126.39
376.56	140.43
376.76	168.52
376.95	81.92
377.15	107.66
377.35	70.22
377.54	98.30
377.74	51.49
377.93	107.66
378.13	84.26
378.33	131.07
378.52	98.30
378.72	51.49
378.91	77.24
379.11	131.07
379.31	72.56
379.50	170.86
379.70	98.30
379.89	95.96
380.09	30.43
380.28	93.62
380.48	135.75
380.68	93.62
380.87	98.30
381.07	49.15
381.26	98.30
381.46	37.45
381.65	133.41
381.85	63.19
382.04	107.66
382.24	70.22
382.43	70.22
382.63	51.49
382.83	49.15
383.02	79.58
383.22	102.98
383.41	135.75
383.61	105.32
383.80	145.11
384.00	51.49
384.19	114.69
384.39	102.98
384.58	133.41
384.78	102.98
384.97	126.39
385.17	93.62
385.36	72.56
385.56	72.56
385.75	91.28
385.95	95.96
386.14	126.39
386.34	60.85
386.53	98.30
386.72	81.92
386.92	126.39
387.11	126.39
387.31	133.41
387.50	114.69
387.70	114.69
387.89	25.75
388.09	9.36
388.28	37.45
388.48	91.28
388.67	138.09
388.86	100.64
389.06	35.11
389.25	107.66
389.45	142.77
389.64	133.41
389.84	65.54
390.03	93.62
390.22	60.85
390.42	72.56
390.61	44.47
390.81	112.35
391.00	72.56
391.19	147.45
391.39	140.43
391.58	74.90
391.78	60.85
391.97	98.30
392.16	81.92
392.36	100.64
392.55	173.20
392.75	67.88
392.94	60.85
393.13	100.64
393.33	77.24
393.52	74.90
393.71	170.86
393.91	72.56
394.10	67.88
394.29	102.98
394.49	149.79
394.68	119.37
394.88	180.22
395.07	110.01
395.26	100.64
395.46	161.50
395.65	114.69
395.84	121.71
396.04	105.32
396.23	91.28
396.42	170.86
396.62	74.90
396.81	93.62
397.00	138.09
397.19	60.85
397.39	102.98
397.58	79.58
397.77	42.13
397.97	154.48
398.16	49.15
398.35	112.35
398.55	102.98
398.74	142.77
398.93	117.03
399.12	110.01
399.32	117.03
399.51	117.03
399.70	79.58
399.90	98.30
400.09	161.50
400.28	131.07
400.47	51.49
400.67	119.37
400.86	119.37
401.05	102.98
401.24	135.75
401.44	84.26
401.63	145.11
401.82	100.64
402.01	117.03
402.21	88.94
402.40	100.64
402.59	65.54
402.78	88.94
402.97	60.85
403.17	65.54
403.36	30.43
403.55	65.54
403.74	145.11
403.93	156.82
404.13	114.69
404.32	161.50
404.51	114.69
404.70	187.24
404.89	16.38
405.09	149.79
405.28	114.69
405.47	2.34
405.66	77.24
405.85	60.85
406.05	140.43
406.24	126.39
406.43	79.58
406.62	107.66
406.81	77.24
407.00	77.24
407.20	44.47
407.39	175.54
407.58	88.94
407.77	18.72
407.96	205.97
408.15	107.66
408.34	142.77
408.54	39.79
408.73	105.32
408.92	91.28
409.11	166.18
409.30	119.37
409.49	46.81
409.68	102.98
409.87	138.09
410.07	119.37
410.26	128.73
410.45	81.92
410.64	30.43
410.83	77.24
411.02	63.19
411.21	51.49
411.40	95.96
411.59	100.64
411.78	100.64
411.98	25.75
412.17	67.88
412.36	102.98
412.55	100.64
412.74	74.90
412.93	166.18
413.12	124.05
413.31	145.11
413.50	110.01
413.69	100.64
413.88	166.18
414.07	119.37
414.26	154.48
414.45	84.26
414.64	81.92
414.83	39.79
415.02	107.66
415.22	194.26
415.41	168.52
415.60	126.39
415.79	86.60
415.98	131.07
416.17	93.62
416.36	142.77
416.55	131.07
416.74	133.41
416.93	184.90
417.12	133.41
417.31	107.66
417.50	110.01
417.69	236.39
417.88	212.99
418.07	112.35
418.26	184.90
418.45	119.37
418.64	191.92
418.83	184.90
419.02	168.52
419.21	198.95
419.39	133.41
419.58	154.48
419.77	128.73
419.96	161.50
420.15	140.43
420.34	93.62
420.53	72.56
420.72	110.01
420.91	222.35
421.10	159.16
421.29	182.56
421.48	180.22
421.67	140.43
421.86	184.90
422.05	72.56
422.24	60.85
422.43	142.77
422.61	98.30
422.80	124.05
422.99	72.56
423.18	133.41
423.37	142.77
423.56	126.39
423.75	63.19
423.94	53.83
424.13	177.88
424.32	21.06
424.50	91.28
424.69	124.05
424.88	201.29
425.07	112.35
425.26	175.54
425.45	271.50
425.64	210.65
425.83	189.58
426.01	201.29
426.20	114.69
426.39	53.83
426.58	98.30
426.77	142.77
426.96	133.41
427.15	128.73
427.33	105.32
427.52	121.71
427.71	156.82
427.90	180.22
428.09	98.30
428.28	149.79
428.46	63.19
428.65	147.45
428.84	156.82
429.03	196.60
429.22	117.03
429.40	107.66
429.59	42.13
429.78	138.09
429.97	74.90
430.16	98.30
430.34	84.26
430.53	128.73
430.72	53.83
430.91	152.13
431.10	98.30
431.28	91.28
431.47	98.30
431.66	140.43
431.85	91.28
432.03	70.22
432.22	131.07
432.41	77.24
432.60	189.58
432.79	79.58
432.97	168.52
433.16	231.71
433.35	189.58
433.54	173.20
433.72	140.43
433.91	126.39
434.10	161.50
434.28	135.75
434.47	191.92
434.66	138.09
434.85	154.48
435.03	114.69
435.22	205.97
435.41	166.18
435.59	102.98
435.78	194.26
435.97	105.32
436.16	161.50
436.34	119.37
436.53	152.13
436.72	184.90
436.90	198.95
437.09	161.50
437.28	131.07
437.46	159.16
437.65	149.79
437.84	93.62
438.02	154.48
438.21	135.75
438.40	138.09
438.58	128.73
438.77	126.39
438.96	201.29
439.14	131.07
439.33	112.35
439.52	126.39
439.70	145.11
439.89	42.13
440.08	121.71
440.26	124.05
440.45	126.39
440.63	161.50
440.82	124.05
441.01	175.54
441.19	121.71
441.38	102.98
441.57	88.94
441.75	128.73
441.94	145.11
442.12	170.86
442.31	147.45
442.50	70.22
442.68	117.03
442.87	110.01
443.05	154.48
443.24	110.01
443.43	98.30
443.61	152.13
443.80	159.16
443.98	147.45
444.17	112.35
444.35	180.22
444.54	100.64
444.73	159.16
444.91	210.65
445.10	166.18
445.28	212.99
445.47	107.66
445.65	112.35
445.84	166.18
446.02	128.73
446.21	114.69
446.39	63.19
446.58	170.86
446.77	105.32
446.95	133.41
447.14	159.16
447.32	126.39
447.51	124.05
447.69	145.11
447.88	128.73
448.06	175.54
448.25	102.98
448.43	121.71
448.62	145.11
448.80	107.66
448.99	79.58
449.17	128.73
449.36	170.86
449.54	163.84
449.73	79.58
449.91	163.84
450.10	93.62
450.28	245.76
450.46	107.66
450.65	220.01
450.83	147.45
451.02	156.82
451.20	182.56
451.39	107.66
451.57	180.22
451.76	156.82
451.94	177.88
452.13	177.88
452.31	121.71
452.49	187.24
452.68	191.92
452.86	156.82
453.05	201.29
453.23	114.69
453.42	131.07
453.60	105.32
453.78	149.79
453.97	112.35
454.15	84.26
454.34	81.92
454.52	102.98
454.70	147.45
454.89	145.11
455.07	67.88
455.26	175.54
455.44	217.67
455.62	135.75
455.81	121.71
455.99	210.65
456.17	156.82
456.36	140.43
456.54	58.51
456.73	147.45
456.91	161.50
457.09	138.09
457.28	81.92
457.46	128.73
457.64	163.84
457.83	86.60
458.01	60.85
458.19	131.07
458.38	170.86
458.56	205.97
458.74	60.85
458.93	124.05
459.11	196.60
459.29	86.60
459.48	91.28
459.66	262.14
459.84	149.79
460.03	229.37
460.21	201.29
460.39	170.86
460.57	170.86
460.76	191.92
460.94	149.79
461.12	175.54
461.31	88.94
461.49	142.77
461.67	126.39
461.85	194.26
462.04	147.45
462.22	592.16
462.40	163.84
462.59	147.45
462.77	93.62
462.95	170.86
463.13	81.92
463.32	100.64
463.50	161.50
463.68	217.67
463.86	84.26
464.05	102.98
464.23	271.50
464.41	77.24
464.59	102.98
464.78	107.66
464.96	114.69
465.14	112.35
465.32	107.66
465.50	149.79
465.69	161.50
465.87	203.63
466.05	170.86
466.23	133.41
466.41	170.86
466.60	161.50
466.78	117.03
466.96	119.37
467.14	51.49
467.32	187.24
467.51	180.22
467.69	212.99
467.87	184.90
468.05	95.96
468.23	170.86
468.41	170.86
468.60	149.79
468.78	133.41
468.96	107.66
469.14	166.18
469.32	142.77
469.50	124.05
469.69	208.31
469.87	142.77
470.05	152.13
470.23	175.54
470.41	168.52
470.59	161.50
470.77	142.77
470.95	154.48
471.14	138.09
471.32	112.35
471.50	124.05
471.68	152.13
471.86	131.07
472.04	180.22
472.22	114.69
472.40	119.37
472.58	88.94
472.77	95.96
472.95	88.94
473.13	220.01
473.31	217.67
473.49	175.54
473.67	100.64
473.85	161.50
474.03	163.84
474.21	98.30
474.39	133.41
474.57	170.86
474.75	241.08
474.93	161.50
475.12	93.62
475.30	126.39
475.48	203.63
475.66	156.82
475.84	126.39
476.02	102.98
476.20	166.18
476.38	189.58
476.56	201.29
476.74	170.86
476.92	121.71
477.10	100.64
477.28	142.77
477.46	138.09
477.64	196.60
477.82	177.88
478.00	177.88
478.18	168.52
478.36	154.48
478.54	161.50
478.72	175.54
478.90	100.64
479.08	175.54
479.26	198.95
479.44	93.62
479.62	112.35
479.80	191.92
479.98	177.88
480.16	168.52
480.34	98.30
480.52	138.09
480.70	177.88
480.88	208.31
481.06	191.92
481.24	147.45
481.41	201.29
481.59	145.11
481.77	168.52
481.95	131.07
482.13	220.01
482.31	107.66
482.49	154.48
482.67	95.96
482.85	119.37
483.03	163.84
483.21	138.09
483.39	180.22
483.57	128.73
483.74	187.24
483.92	135.75
484.10	112.35
484.28	217.67
484.46	142.77
484.64	124.05
484.82	133.41
485.00	156.82
485.18	175.54
485.35	131.07
485.53	93.62
485.71	210.65
485.89	124.05
486.07	126.39
486.25	189.58
486.43	159.16
486.61	170.86
486.78	238.73
486.96	163.84
487.14	154.48
487.32	88.94
487.50	159.16
487.68	205.97
487.85	145.11
488.03	173.20
488.21	210.65
488.39	93.62
488.57	117.03
488.75	140.43
488.92	409.59
489.10	180.22
489.28	215.33
489.46	173.20
489.64	140.43
489.81	175.54
489.99	156.82
490.17	112.35
490.35	212.99
490.53	124.05
490.70	102.98
490.88	182.56
491.06	126.39
491.24	222.35
491.41	182.56
491.59	220.01
491.77	135.75
491.95	149.79
492.13	184.90
492.30	168.52
492.48	154.48
492.66	166.18
492.84	180.22
493.01	215.33
493.19	170.86
493.37	283.20
493.54	145.11
493.72	117.03
493.90	208.31
494.08	163.84
494.25	140.43
494.43	161.50
494.61	152.13
494.79	119.37
494.96	177.88
495.14	196.60
495.32	203.63
495.49	266.82
495.67	201.29
495.85	119.37
496.02	205.97
496.20	159.16
496.38	187.24
496.55	203.63
496.73	252.78
496.91	180.22
497.09	182.56
497.26	138.09
497.44	163.84
497.62	154.48
497.79	210.65
497.97	208.31
498.14	149.79
498.32	180.22
498.50	154.48
498.67	170.86
498.85	203.63
499.03	154.48
499.20	203.63
499.38	159.16
499.56	220.01
499.73	231.71
499.91	163.84
500.08	215.33
500.26	145.11
500.44	79.58
500.61	203.63
500.79	250.44
500.97	250.44
501.14	243.42
501.32	161.50
501.49	215.33
501.67	145.11
501.84	126.39
502.02	156.82
502.20	201.29
502.37	212.99
502.55	182.56
502.72	177.88
502.90	147.45
503.07	241.08
503.25	255.12
503.43	147.45
503.60	238.73
503.78	177.88
503.95	241.08
504.13	149.79
504.30	222.35
504.48	229.37
504.65	217.67
504.83	250.44
505.01	128.73
505.18	74.90
505.36	161.50
505.53	212.99
505.71	191.92
505.88	177.88
506.06	163.84
506.23	196.60
506.41	187.24
506.58	215.33
506.76	212.99
506.93	112.35
507.11	177.88
507.28	152.13
507.46	168.52
507.63	142.77
507.81	184.90
507.98	184.90
508.16	184.90
508.33	229.37
508.50	161.50
508.68	257.46
508.85	140.43
509.03	231.71
509.20	273.84
509.38	212.99
509.55	248.10
509.73	280.86
509.90	215.33
510.08	175.54
510.25	231.71
510.42	163.84
510.60	175.54
510.77	271.50
510.95	236.39
511.12	189.58
511.30	259.80
511.47	278.52
511.64	299.59
511.82	264.48
511.99	152.13
512.17	238.73
512.34	196.60
512.51	170.86
512.69	234.05
512.86	220.01
513.04	203.63
513.21	189.58
513.38	170.86
513.56	138.09
513.73	257.46
513.90	135.75
514.08	149.79
514.25	220.01
514.43	224.69
514.60	278.52
514.77	229.37
514.95	264.48
515.12	241.08
515.29	271.50
515.47	227.03
515.64	222.35
515.81	166.18
515.99	187.24
516.16	248.10
516.33	241.08
516.51	215.33
516.68	198.95
516.85	201.29
517.03	152.13
517.20	285.55
517.37	166.18
517.54	259.80
517.72	175.54
517.89	170.86
518.06	121.71
518.24	161.50
518.41	271.50
518.58	243.42
518.75	210.65
518.93	191.92
519.10	196.60
519.27	205.97
519.45	234.05
519.62	177.88
519.79	227.03
519.96	121.71
520.14	222.35
520.31	264.48
520.48	238.73
520.65	236.39
520.83	252.78
521.00	212.99
521.17	238.73
521.34	217.67
521.52	245.76
521.69	220.01
521.86	133.41
522.03	205.97
522.20	266.82
522.38	114.69
522.55	276.18
522.72	126.39
522.89	215.33
523.07	266.82
523.24	177.88
523.41	133.41
523.58	205.97
523.75	184.90
523.92	236.39
524.10	173.20
524.27	217.67
524.44	142.77
524.61	287.89
524.78	220.01
524.96	252.78
525.13	175.54
525.30	266.82
525.47	210.65
525.64	241.08
525.81	156.82
525.98	227.03
526.16	170.86
526.33	252.78
526.50	107.66
526.67	152.13
526.84	175.54
527.01	177.88
527.18	201.29
527.36	107.66
527.53	135.75
527.70	299.59
527.87	222.35
528.04	205.97
528.21	198.95
528.38	170.86
528.55	187.24
528.72	194.26
528.89	196.60
529.07	238.73
529.24	278.52
529.41	198.95
529.58	184.90
529.75	203.63
529.92	220.01
530.09	203.63
530.26	245.76
530.43	227.03
530.60	201.29
530.77	189.58
530.94	201.29
531.11	198.95
531.28	194.26
531.46	191.92
531.63	208.31
531.80	128.73
531.97	224.69
532.14	203.63
532.31	234.05
532.48	248.10
532.65	400.23
532.82	379.17
532.99	400.23
533.16	325.33
533.33	266.82
533.50	308.95
533.67	374.49
533.84	472.79
534.01	449.38
534.18	435.34
534.35	341.72
534.52	252.78
534.69	255.12
534.86	212.99
535.03	149.79
535.20	201.29
535.37	224.69
535.54	215.33
535.71	229.37
535.88	227.03
536.05	238.73
536.22	259.80
536.38	215.33
536.55	252.78
536.72	245.76
536.89	273.84
537.06	187.24
537.23	173.20
537.40	252.78
537.57	227.03
537.74	215.33
537.91	238.73
538.08	205.97
538.25	152.13
538.42	198.95
538.59	114.69
538.75	117.03
538.92	170.86
539.09	142.77
539.26	215.33
539.43	543.00
539.60	1423.05
539.77	2253.94
539.94	2097.12
540.11	1296.66
540.28	875.36
540.44	528.96
540.61	264.48
540.78	241.08
540.95	187.24
541.12	196.60
541.29	198.95
541.46	234.05
541.62	187.24
541.79	236.39
541.96	177.88
542.13	287.89
542.30	154.48
542.47	180.22
542.63	170.86
542.80	250.44
542.97	184.90
543.14	184.90
543.31	255.12
543.48	124.05
543.64	184.90
543.81	159.16
543.98	170.86
544.15	131.07
544.32	229.37
544.48	241.08
544.65	205.97
544.82	201.29
544.99	236.39
545.16	215.33
545.32	154.48
545.49	222.35
545.66	266.82
545.83	215.33
546.00	184.90
546.16	201.29
546.33	224.69
546.50	217.67
546.67	175.54
546.83	212.99
547.00	191.92
547.17	189.58
547.34	234.05
547.50	229.37
547.67	189.58
547.84	222.35
548.00	224.69
548.17	114.69
548.34	234.05
548.51	243.42
548.67	196.60
548.84	222.35
549.01	194.26
549.18	234.05
549.34	205.97
549.51	210.65
549.68	278.52
549.84	180.22
550.01	182.56
550.18	308.95
550.34	276.18
550.51	166.18
550.68	278.52
550.84	210.65
551.01	182.56
551.18	259.80
551.34	264.48
551.51	248.10
551.68	243.42
551.84	245.76
552.01	194.26
552.18	168.52
552.34	147.45
552.51	152.13
552.68	168.52
552.84	180.22
553.01	304.27
553.18	205.97
553.34	250.44
553.51	138.09
553.67	217.67
553.84	264.48
554.01	301.93
554.17	262.14
554.34	182.56
554.51	205.97
554.67	229.37
554.84	236.39
555.00	212.99
555.17	257.46
555.33	175.54
555.50	217.67
555.67	250.44
555.83	271.50
556.00	252.78
556.16	360.44
556.33	229.37
556.50	220.01
556.66	159.16
556.83	142.77
556.99	201.29
557.16	173.20
557.32	203.63
557.49	245.76
557.65	166.18
557.82	173.20
557.98	224.69
558.15	227.03
558.32	245.76
558.48	182.56
558.65	224.69
558.81	306.61
558.98	248.10
559.14	243.42
559.31	201.29
559.47	241.08
559.64	189.58
559.80	252.78
559.97	182.56
560.13	252.78
560.30	145.11
560.46	220.01
560.63	266.82
560.79	177.88
560.96	159.16
561.12	138.09
561.29	170.86
561.45	189.58
561.61	145.11
561.78	313.63
561.94	170.86
562.11	140.43
562.27	222.35
562.44	177.88
562.60	205.97
562.77	175.54
562.93	311.29
563.10	201.29
563.26	210.65
563.42	203.63
563.59	198.95
563.75	229.37
563.92	222.35
564.08	224.69
564.24	114.69
564.41	227.03
564.57	138.09
564.74	264.48
564.90	243.42
565.07	229.37
565.23	278.52
565.39	264.48
565.56	290.23
565.72	210.65
565.88	248.10
566.05	238.73
566.21	243.42
566.38	264.48
566.54	191.92
566.70	227.03
566.87	269.16
567.03	205.97
567.19	159.16
567.36	238.73
567.52	159.16
567.68	180.22
567.85	210.65
568.01	252.78
568.17	203.63
568.34	215.33
568.50	227.03
568.66	189.58
568.83	236.39
568.99	210.65
569.15	248.10
569.32	140.43
569.48	229.37
569.64	269.16
569.81	252.78
569.97	203.63
570.13	170.86
570.30	264.48
570.46	161.50
570.62	234.05
570.78	210.65
570.95	198.95
571.11	177.88
571.27	248.10
571.43	182.56
571.60	257.46
571.76	313.63
571.92	154.48
572.09	149.79
572.25	220.01
572.41	220.01
572.57	184.90
572.74	325.33
572.90	299.59
573.06	243.42
573.22	212.99
573.38	227.03
573.55	182.56
573.71	290.23
573.87	236.39
574.03	177.88
574.20	182.56
574.36	292.57
574.52	327.68
574.68	393.21
574.84	355.76
575.01	182.56
575.17	229.37
575.33	229.37
575.49	238.73
575.65	322.99
575.82	404.91
575.98	648.33
576.14	940.90
576.30	964.30
576.46	692.80
576.62	414.27
576.79	339.38
576.95	367.46
577.11	236.39
577.27	257.46
577.43	269.16
577.59	271.50
577.75	241.08
577.92	208.31
578.08	311.29
578.24	266.82
578.40	341.72
578.56	301.93
578.72	257.46
578.88	292.57
579.04	313.63
579.21	264.48
579.37	212.99
579.53	332.36
579.69	337.04
579.85	304.27
580.01	447.04
580.17	402.57
580.33	423.64
580.49	411.93
580.65	362.78
580.82	456.40
580.98	376.83
581.14	346.40
581.30	407.25
581.46	578.11
581.62	716.20
581.78	830.89
581.94	702.16
582.10	657.69
582.26	550.03
582.42	505.56
582.58	465.77
582.74	543.00
582.90	533.64
583.06	519.60
583.22	587.47
583.38	599.18
583.54	592.16
583.70	788.76
583.86	884.72
584.02	1039.20
584.18	1306.02
584.34	1666.46
584.50	4856.61
584.66	38646.93
584.82	65535.00
584.98	65535.00
585.14	65535.00
585.30	64881.99
585.46	44362.51
585.62	27718.96
585.78	12388.46
585.94	4947.89
586.10	2354.58
586.26	1427.73
586.42	1170.27
586.58	851.96
586.74	751.31
586.90	758.33
587.06	737.27
587.22	653.01
587.38	634.29
587.54	1771.79
587.70	5315.36
587.86	8809.78
588.02	9715.56
588.18	6670.53
588.34	4184.88
588.49	2754.81
588.65	1645.40
588.81	875.36
588.97	512.58
589.13	351.08
589.29	325.33
589.45	379.17
589.61	337.04
589.77	503.22
589.93	571.09
590.08	629.60
590.24	547.69
590.40	554.71
590.56	456.40
590.72	423.64
590.88	374.49
591.04	409.59
591.20	407.25
591.35	409.59
591.51	355.76
591.67	337.04
591.83	297.25
591.99	327.68
592.15	372.15
592.31	241.08
592.46	283.20
592.62	365.12
592.78	330.02
592.94	327.68
593.10	301.93
593.26	322.99
593.41	400.23
593.57	388.53
593.73	730.25
593.89	4521.92
594.05	11501.39
594.20	16812.07
594.36	15896.92
594.52	10150.90
594.68	6256.25
594.84	4147.43
594.99	2193.08
595.15	1011.11
595.31	505.56
595.47	404.91
595.62	337.04
595.78	325.33
595.94	397.89
596.10	416.62
596.25	440.02
596.41	376.83
596.57	271.50
596.73	315.97
596.88	641.31
597.04	2097.12
597.20	3578.68
597.36	3899.33
597.51	2920.99
597.67	1888.81
597.83	1369.21
597.99	931.53
598.14	540.66
598.30	421.30
598.46	348.74
598.61	414.27
598.77	383.85
598.93	369.80
599.09	276.18
599.24	231.71
599.40	276.18
599.56	182.56
599.71	262.14
599.87	273.84
600.03	276.18
600.18	280.86
600.34	255.12
600.50	187.24
600.65	208.31
600.81	212.99
600.97	229.37
601.12	229.37
601.28	262.14
601.44	308.95
601.59	229.37
601.75	205.97
601.91	231.71
602.06	283.20
602.22	416.62
602.37	940.90
602.53	2588.63
602.69	3950.82
602.84	4037.42
603.00	2876.52
603.16	2036.27
603.31	1294.32
603.47	868.34
603.62	514.92
603.78	404.91
603.94	283.20
604.09	294.91
604.25	290.23
604.40	278.52
604.56	315.97
604.71	245.76
604.87	266.82
605.03	313.63
605.18	353.42
605.34	339.38
605.49	346.40
605.65	264.48
605.80	306.61
605.96	381.51
606.12	306.61
606.27	304.27
606.43	374.49
606.58	409.59
606.74	1186.65
606.89	5174.92
607.05	10927.96
607.20	14141.52
607.36	11487.35
607.51	7583.34
607.67	5011.09
607.82	3281.43
607.98	1692.21
608.13	938.55
608.29	585.13
608.44	538.32
608.60	543.00
608.75	533.64
608.91	1636.03
609.06	8404.86
609.22	18668.11
609.37	24706.70
609.53	20929.07
609.68	13767.03
609.84	9074.26
609.99	5912.19
610.15	3075.46
610.30	1467.52
610.46	774.72
610.61	468.11
610.76	393.21
610.92	411.93
611.07	339.38
611.23	332.36
611.38	402.57
611.54	386.19
611.69	404.91
