SpectraSuite Data File
++++++++++++++++++++++++++++++++++++
Date: Fri Oct 04 11:33:55 GMT-05:00 2013
User: price-jones
Dark Spectrum Present: No
Reference Spectrum Present: No
Number of Sampled Component Spectra: 1
Spectrometers: USB2+H05261
Integration Time (usec): 100000 (USB2+H05261)
Spectra Averaged: 1 (USB2+H05261)
Boxcar Smoothing: 0 (USB2+H05261)
Correct for Electrical Dark: No (USB2+H05261)
Strobe/Lamp Enabled: No (USB2+H05261)
Correct for Detector Non-linearity: No (USB2+H05261)
Correct for Stray Light: No (USB2+H05261)
Number of Pixels in Processed Spectrum: 2048
>>>>>Begin Processed Spectral Data<<<<<
365.73	63.19
365.92	63.19
366.12	63.19
366.32	0.00
366.52	28.09
366.72	14.04
366.91	0.00
367.11	0.00
367.31	0.00
367.51	0.00
367.70	0.00
367.90	0.00
368.10	0.00
368.30	0.00
368.49	0.00
368.69	0.00
368.89	0.00
369.09	0.00
369.28	2.34
369.48	0.00
369.68	37.45
369.87	0.00
370.07	32.77
370.27	35.11
370.47	32.77
370.66	18.72
370.86	149.79
371.06	114.69
371.25	212.99
371.45	60.85
371.65	0.00
371.84	30.43
372.04	119.37
372.24	131.07
372.44	119.37
372.63	126.39
372.83	135.75
373.03	124.05
373.22	72.56
373.42	163.84
373.62	140.43
373.81	126.39
374.01	102.98
374.21	166.18
374.40	175.54
374.60	205.97
374.79	177.88
374.99	173.20
375.19	173.20
375.38	145.11
375.58	107.66
375.78	180.22
375.97	196.60
376.17	257.46
376.37	128.73
376.56	170.86
376.76	117.03
376.95	110.01
377.15	110.01
377.35	168.52
377.54	126.39
377.74	126.39
377.93	166.18
378.13	121.71
378.33	156.82
378.52	131.07
378.72	140.43
378.91	201.29
379.11	77.24
379.31	184.90
379.50	67.88
379.70	159.16
379.89	184.90
380.09	142.77
380.28	159.16
380.48	112.35
380.68	100.64
380.87	46.81
381.07	177.88
381.26	121.71
381.46	145.11
381.65	102.98
381.85	107.66
382.04	117.03
382.24	142.77
382.43	107.66
382.63	166.18
382.83	166.18
383.02	222.35
383.22	163.84
383.41	131.07
383.61	135.75
383.80	152.13
384.00	102.98
384.19	81.92
384.39	138.09
384.58	131.07
384.78	196.60
384.97	147.45
385.17	149.79
385.36	44.47
385.56	84.26
385.75	138.09
385.95	135.75
386.14	241.08
386.34	149.79
386.53	67.88
386.72	138.09
386.92	194.26
387.11	166.18
387.31	156.82
387.50	105.32
387.70	119.37
387.89	128.73
388.09	189.58
388.28	128.73
388.48	117.03
388.67	173.20
388.86	149.79
389.06	154.48
389.25	128.73
389.45	65.54
389.64	147.45
389.84	154.48
390.03	135.75
390.22	156.82
390.42	112.35
390.61	117.03
390.81	149.79
391.00	159.16
391.19	194.26
391.39	175.54
391.58	142.77
391.78	86.60
391.97	98.30
392.16	170.86
392.36	173.20
392.55	196.60
392.75	142.77
392.94	161.50
393.13	161.50
393.33	166.18
393.52	126.39
393.71	173.20
393.91	147.45
394.10	189.58
394.29	166.18
394.49	203.63
394.68	201.29
394.88	166.18
395.07	131.07
395.26	208.31
395.46	189.58
395.65	100.64
395.84	191.92
396.04	191.92
396.23	88.94
396.42	189.58
396.62	215.33
396.81	189.58
397.00	159.16
397.19	196.60
397.39	152.13
397.58	212.99
397.77	121.71
397.97	86.60
398.16	161.50
398.35	180.22
398.55	198.95
398.74	142.77
398.93	159.16
399.12	79.58
399.32	149.79
399.51	182.56
399.70	145.11
399.90	173.20
400.09	191.92
400.28	180.22
400.47	177.88
400.67	198.95
400.86	208.31
401.05	131.07
401.24	203.63
401.44	217.67
401.63	208.31
401.82	187.24
402.01	107.66
402.21	180.22
402.40	72.56
402.59	135.75
402.78	159.16
402.97	119.37
403.17	187.24
403.36	95.96
403.55	138.09
403.74	166.18
403.93	201.29
404.13	205.97
404.32	224.69
404.51	227.03
404.70	177.88
404.89	189.58
405.09	264.48
405.28	184.90
405.47	159.16
405.66	201.29
405.85	191.92
406.05	187.24
406.24	145.11
406.43	114.69
406.62	208.31
406.81	210.65
407.00	175.54
407.20	112.35
407.39	102.98
407.58	184.90
407.77	95.96
407.96	177.88
408.15	224.69
408.34	220.01
408.54	201.29
408.73	175.54
408.92	159.16
409.11	208.31
409.30	159.16
409.49	222.35
409.68	159.16
409.87	231.71
410.07	222.35
410.26	203.63
410.45	208.31
410.64	194.26
410.83	135.75
411.02	110.01
411.21	217.67
411.40	166.18
411.59	163.84
411.78	161.50
411.98	208.31
412.17	102.98
412.36	180.22
412.55	149.79
412.74	152.13
412.93	191.92
413.12	173.20
413.31	100.64
413.50	140.43
413.69	161.50
413.88	210.65
414.07	149.79
414.26	203.63
414.45	168.52
414.64	180.22
414.83	161.50
415.02	180.22
415.22	184.90
415.41	175.54
415.60	152.13
415.79	156.82
415.98	156.82
416.17	168.52
416.36	159.16
416.55	135.75
416.74	114.69
416.93	170.86
417.12	156.82
417.31	156.82
417.50	175.54
417.69	227.03
417.88	177.88
418.07	182.56
418.26	208.31
418.45	201.29
418.64	264.48
418.83	217.67
419.02	238.73
419.21	245.76
419.39	180.22
419.58	222.35
419.77	133.41
419.96	241.08
420.15	212.99
420.34	124.05
420.53	138.09
420.72	149.79
420.91	184.90
421.10	133.41
421.29	119.37
421.48	166.18
421.67	131.07
421.86	124.05
422.05	166.18
422.24	217.67
422.43	173.20
422.61	177.88
422.80	210.65
422.99	166.18
423.18	168.52
423.37	229.37
423.56	191.92
423.75	119.37
423.94	145.11
424.13	161.50
424.32	187.24
424.50	252.78
424.69	131.07
424.88	266.82
425.07	138.09
425.26	212.99
425.45	271.50
425.64	266.82
425.83	266.82
426.01	250.44
426.20	196.60
426.39	163.84
426.58	175.54
426.77	212.99
426.96	173.20
427.15	220.01
427.33	210.65
427.52	124.05
427.71	182.56
427.90	231.71
428.09	184.90
428.28	110.01
428.46	175.54
428.65	128.73
428.84	215.33
429.03	147.45
429.22	245.76
429.40	133.41
429.59	119.37
429.78	215.33
429.97	191.92
430.16	166.18
430.34	201.29
430.53	180.22
430.72	121.71
430.91	154.48
431.10	128.73
431.28	128.73
431.47	175.54
431.66	140.43
431.85	187.24
432.03	175.54
432.22	294.91
432.41	156.82
432.60	210.65
432.79	231.71
432.97	173.20
433.16	320.65
433.35	102.98
433.54	198.95
433.72	196.60
433.91	269.16
434.10	163.84
434.28	189.58
434.47	124.05
434.66	248.10
434.85	187.24
435.03	250.44
435.22	287.89
435.41	393.21
435.59	414.27
435.78	360.44
435.97	236.39
436.16	234.05
436.34	142.77
436.53	241.08
436.72	163.84
436.90	184.90
437.09	212.99
437.28	140.43
437.46	154.48
437.65	147.45
437.84	278.52
438.02	201.29
438.21	168.52
438.40	163.84
438.58	187.24
438.77	95.96
438.96	117.03
439.14	187.24
439.33	154.48
439.52	182.56
439.70	220.01
439.89	236.39
440.08	182.56
440.26	177.88
440.45	266.82
440.63	156.82
440.82	163.84
441.01	194.26
441.19	264.48
441.38	212.99
441.57	210.65
441.75	294.91
441.94	238.73
442.12	205.97
442.31	175.54
442.50	161.50
442.68	163.84
442.87	138.09
443.05	236.39
443.24	222.35
443.43	182.56
443.61	184.90
443.80	198.95
443.98	124.05
444.17	121.71
444.35	215.33
444.54	100.64
444.73	126.39
444.91	194.26
445.10	126.39
445.28	131.07
445.47	201.29
445.65	117.03
445.84	128.73
446.02	212.99
446.21	142.77
446.39	201.29
446.58	271.50
446.77	227.03
446.95	161.50
447.14	168.52
447.32	210.65
447.51	159.16
447.69	215.33
447.88	182.56
448.06	217.67
448.25	196.60
448.43	205.97
448.62	91.28
448.80	156.82
448.99	236.39
449.17	170.86
449.36	170.86
449.54	210.65
449.73	222.35
449.91	222.35
450.10	170.86
450.28	245.76
450.46	191.92
450.65	203.63
450.83	198.95
451.02	145.11
451.20	168.52
451.39	184.90
451.57	145.11
451.76	126.39
451.94	210.65
452.13	222.35
452.31	110.01
452.49	196.60
452.68	222.35
452.86	196.60
453.05	234.05
453.23	205.97
453.42	161.50
453.60	161.50
453.78	159.16
453.97	210.65
454.15	184.90
454.34	147.45
454.52	212.99
454.70	217.67
454.89	227.03
455.07	163.84
455.26	177.88
455.44	168.52
455.62	154.48
455.81	215.33
455.99	184.90
456.17	224.69
456.36	208.31
456.54	229.37
456.73	173.20
456.91	210.65
457.09	121.71
457.28	201.29
457.46	248.10
457.64	161.50
457.83	220.01
458.01	128.73
458.19	163.84
458.38	175.54
458.56	222.35
458.74	154.48
458.93	142.77
459.11	126.39
459.29	177.88
459.48	145.11
459.66	269.16
459.84	252.78
460.03	269.16
460.21	145.11
460.39	266.82
460.57	229.37
460.76	201.29
460.94	212.99
461.12	266.82
461.31	231.71
461.49	189.58
461.67	201.29
461.85	184.90
462.04	168.52
462.22	664.71
462.40	189.58
462.59	210.65
462.77	187.24
462.95	170.86
463.13	217.67
463.32	203.63
463.50	252.78
463.68	191.92
463.86	189.58
464.05	189.58
464.23	203.63
464.41	212.99
464.59	191.92
464.78	215.33
464.96	170.86
465.14	149.79
465.32	149.79
465.50	224.69
465.69	224.69
465.87	187.24
466.05	133.41
466.23	138.09
466.41	154.48
466.60	238.73
466.78	208.31
466.96	234.05
467.14	205.97
467.32	234.05
467.51	238.73
467.69	220.01
467.87	166.18
468.05	175.54
468.23	215.33
468.41	210.65
468.60	163.84
468.78	196.60
468.96	243.42
469.14	182.56
469.32	248.10
469.50	145.11
469.69	241.08
469.87	231.71
470.05	231.71
470.23	196.60
470.41	212.99
470.59	180.22
470.77	198.95
470.95	140.43
471.14	191.92
471.32	238.73
471.50	161.50
471.68	208.31
471.86	145.11
472.04	194.26
472.22	154.48
472.40	208.31
472.58	152.13
472.77	154.48
472.95	163.84
473.13	252.78
473.31	241.08
473.49	210.65
473.67	138.09
473.85	236.39
474.03	217.67
474.21	241.08
474.39	250.44
474.57	266.82
474.75	234.05
474.93	152.13
475.12	194.26
475.30	217.67
475.48	194.26
475.66	238.73
475.84	159.16
476.02	191.92
476.20	269.16
476.38	154.48
476.56	227.03
476.74	184.90
476.92	229.37
477.10	280.86
477.28	177.88
477.46	292.57
477.64	299.59
477.82	266.82
478.00	245.76
478.18	269.16
478.36	184.90
478.54	201.29
478.72	154.48
478.90	250.44
479.08	231.71
479.26	220.01
479.44	224.69
479.62	189.58
479.80	238.73
479.98	187.24
480.16	177.88
480.34	212.99
480.52	278.52
480.70	243.42
480.88	196.60
481.06	227.03
481.24	194.26
481.41	257.46
481.59	210.65
481.77	238.73
481.95	208.31
482.13	266.82
482.31	175.54
482.49	215.33
482.67	245.76
482.85	203.63
483.03	236.39
483.21	255.12
483.39	241.08
483.57	257.46
483.74	351.08
483.92	245.76
484.10	241.08
484.28	255.12
484.46	311.29
484.64	264.48
484.82	189.58
485.00	236.39
485.18	154.48
485.35	187.24
485.53	245.76
485.71	203.63
485.89	229.37
486.07	217.67
486.25	299.59
486.43	308.95
486.61	236.39
486.78	212.99
486.96	280.86
487.14	245.76
487.32	238.73
487.50	238.73
487.68	287.89
487.85	348.74
488.03	266.82
488.21	257.46
488.39	208.31
488.57	290.23
488.75	266.82
488.92	491.51
489.10	276.18
489.28	299.59
489.46	243.42
489.64	203.63
489.81	264.48
489.99	250.44
490.17	205.97
490.35	301.93
490.53	177.88
490.70	241.08
490.88	259.80
491.06	180.22
491.24	236.39
491.41	234.05
491.59	276.18
491.77	241.08
491.95	308.95
492.13	149.79
492.30	201.29
492.48	271.50
492.66	301.93
492.84	177.88
493.01	290.23
493.19	224.69
493.37	327.68
493.54	278.52
493.72	241.08
493.90	283.20
494.08	227.03
494.25	133.41
494.43	292.57
494.61	184.90
494.79	201.29
494.96	259.80
495.14	306.61
495.32	208.31
495.49	306.61
495.67	224.69
495.85	280.86
496.02	238.73
496.20	283.20
496.38	273.84
496.55	241.08
496.73	201.29
496.91	201.29
497.09	203.63
497.26	210.65
497.44	299.59
497.62	234.05
497.79	294.91
497.97	257.46
498.14	243.42
498.32	238.73
498.50	245.76
498.67	271.50
498.85	248.10
499.03	252.78
499.20	259.80
499.38	210.65
499.56	271.50
499.73	330.02
499.91	334.70
500.08	337.04
500.26	306.61
500.44	234.05
500.61	250.44
500.79	252.78
500.97	220.01
501.14	332.36
501.32	276.18
501.49	252.78
501.67	205.97
501.84	292.57
502.02	287.89
502.20	287.89
502.37	269.16
502.55	241.08
502.72	229.37
502.90	348.74
503.07	220.01
503.25	187.24
503.43	278.52
503.60	278.52
503.78	269.16
503.95	285.55
504.13	236.39
504.30	271.50
504.48	271.50
504.65	229.37
504.83	201.29
505.01	276.18
505.18	234.05
505.36	257.46
505.53	212.99
505.71	234.05
505.88	315.97
506.06	241.08
506.23	278.52
506.41	208.31
506.58	266.82
506.76	184.90
506.93	248.10
507.11	243.42
507.28	220.01
507.46	271.50
507.63	250.44
507.81	198.95
507.98	278.52
508.16	271.50
508.33	264.48
508.50	234.05
508.68	266.82
508.85	304.27
509.03	255.12
509.20	278.52
509.38	311.29
509.55	224.69
509.73	262.14
509.90	276.18
510.08	243.42
510.25	217.67
510.42	229.37
510.60	227.03
510.77	346.40
510.95	283.20
511.12	262.14
511.30	360.44
511.47	351.08
511.64	341.72
511.82	290.23
511.99	320.65
512.17	285.55
512.34	271.50
512.51	297.25
512.69	224.69
512.86	299.59
513.04	245.76
513.21	266.82
513.38	255.12
513.56	287.89
513.73	203.63
513.90	283.20
514.08	266.82
514.25	170.86
514.43	276.18
514.60	285.55
514.77	264.48
514.95	283.20
515.12	234.05
515.29	280.86
515.47	252.78
515.64	278.52
515.81	278.52
515.99	351.08
516.16	369.80
516.33	259.80
516.51	208.31
516.68	173.20
516.85	245.76
517.03	173.20
517.20	252.78
517.37	210.65
517.54	299.59
517.72	276.18
517.89	252.78
518.06	259.80
518.24	393.21
518.41	334.70
518.58	327.68
518.75	255.12
518.93	271.50
519.10	210.65
519.27	297.25
519.45	196.60
519.62	238.73
519.79	217.67
519.96	238.73
520.14	320.65
520.31	292.57
520.48	250.44
520.65	332.36
520.83	287.89
521.00	210.65
521.17	234.05
521.34	217.67
521.52	236.39
521.69	271.50
521.86	318.31
522.03	313.63
522.20	262.14
522.38	266.82
522.55	325.33
522.72	269.16
522.89	348.74
523.07	287.89
523.24	283.20
523.41	187.24
523.58	229.37
523.75	234.05
523.92	234.05
524.10	245.76
524.27	313.63
524.44	311.29
524.61	315.97
524.78	257.46
524.96	234.05
525.13	358.10
525.30	301.93
525.47	280.86
525.64	283.20
525.81	269.16
525.98	273.84
526.16	187.24
526.33	266.82
526.50	292.57
526.67	224.69
526.84	203.63
527.01	255.12
527.18	301.93
527.36	241.08
527.53	220.01
527.70	297.25
527.87	301.93
528.04	285.55
528.21	255.12
528.38	175.54
528.55	210.65
528.72	280.86
528.89	322.99
529.07	353.42
529.24	297.25
529.41	287.89
529.58	259.80
529.75	273.84
529.92	231.71
530.09	248.10
530.26	330.02
530.43	292.57
530.60	308.95
530.77	334.70
530.94	339.38
531.11	255.12
531.28	311.29
531.46	245.76
531.63	292.57
531.80	344.06
531.97	353.42
532.14	257.46
532.31	353.42
532.48	294.91
532.65	423.64
532.82	409.59
532.99	425.98
533.16	365.12
533.33	355.76
533.50	313.63
533.67	322.99
533.84	461.09
534.01	512.58
534.18	428.32
534.35	320.65
534.52	341.72
534.69	369.80
534.86	264.48
535.03	227.03
535.20	229.37
535.37	330.02
535.54	318.31
535.71	327.68
535.88	301.93
536.05	234.05
536.22	201.29
536.38	290.23
536.55	297.25
536.72	273.84
536.89	297.25
537.06	320.65
537.23	278.52
537.40	280.86
537.57	341.72
537.74	358.10
537.91	306.61
538.08	297.25
538.25	351.08
538.42	250.44
538.59	313.63
538.75	280.86
538.92	327.68
539.09	304.27
539.26	379.17
539.43	566.41
539.60	1245.16
539.77	1870.09
539.94	1830.30
540.11	1221.76
540.28	924.51
540.44	760.67
540.61	491.51
540.78	519.60
540.95	449.38
541.12	526.62
541.29	589.82
541.46	580.45
541.62	547.69
541.79	479.81
541.96	449.38
542.13	566.41
542.30	472.79
542.47	554.71
542.63	428.32
542.80	456.40
542.97	519.60
543.14	503.22
543.31	430.66
543.48	458.74
543.64	447.04
543.81	463.43
543.98	388.53
544.15	486.83
544.32	524.28
544.48	458.74
544.65	486.83
544.82	482.15
544.99	423.64
545.16	524.28
545.32	524.28
545.49	641.31
545.66	842.59
545.83	924.51
546.00	856.64
546.16	653.01
546.33	582.79
546.50	440.02
546.67	486.83
546.83	407.25
547.00	442.36
547.17	330.02
547.34	376.83
547.50	372.15
547.67	383.85
547.84	346.40
548.00	381.51
548.17	393.21
548.34	411.93
548.51	407.25
548.67	337.04
548.84	322.99
549.01	332.36
549.18	383.85
549.34	442.36
549.51	421.30
549.68	383.85
549.84	404.91
550.01	322.99
550.18	395.55
550.34	393.21
550.51	397.89
550.68	409.59
550.84	266.82
551.01	292.57
551.18	320.65
551.34	320.65
551.51	306.61
551.68	283.20
551.84	294.91
552.01	278.52
552.18	320.65
552.34	320.65
552.51	287.89
552.68	306.61
552.84	280.86
553.01	243.42
553.18	301.93
553.34	222.35
553.51	250.44
553.67	332.36
553.84	325.33
554.01	280.86
554.17	259.80
554.34	224.69
554.51	322.99
554.67	290.23
554.84	311.29
555.00	212.99
555.17	327.68
555.33	330.02
555.50	252.78
555.67	290.23
555.83	320.65
556.00	341.72
556.16	367.46
556.33	348.74
556.50	252.78
556.66	238.73
556.83	304.27
556.99	299.59
557.16	245.76
557.32	264.48
557.49	262.14
557.65	301.93
557.82	236.39
557.98	276.18
558.15	205.97
558.32	224.69
558.48	313.63
558.65	238.73
558.81	311.29
558.98	252.78
559.14	315.97
559.31	273.84
559.47	276.18
559.64	283.20
559.80	278.52
559.97	217.67
560.13	290.23
560.30	255.12
560.46	287.89
560.63	287.89
560.79	383.85
560.96	269.16
561.12	220.01
561.29	238.73
561.45	292.57
561.61	315.97
561.78	290.23
561.94	259.80
562.11	299.59
562.27	287.89
562.44	259.80
562.60	311.29
562.77	238.73
562.93	341.72
563.10	271.50
563.26	280.86
563.42	245.76
563.59	266.82
563.75	234.05
563.92	257.46
564.08	238.73
564.24	269.16
564.41	327.68
564.57	266.82
564.74	224.69
564.90	306.61
565.07	259.80
565.23	271.50
565.39	334.70
565.56	341.72
565.72	243.42
565.88	330.02
566.05	292.57
566.21	315.97
566.38	271.50
566.54	255.12
566.70	306.61
566.87	250.44
567.03	280.86
567.19	297.25
567.36	269.16
567.52	189.58
567.68	299.59
567.85	236.39
568.01	318.31
568.17	205.97
568.34	255.12
568.50	341.72
568.66	276.18
568.83	358.10
568.99	205.97
569.15	215.33
569.32	327.68
569.48	269.16
569.64	191.92
569.81	271.50
569.97	266.82
570.13	283.20
570.30	196.60
570.46	217.67
570.62	184.90
570.78	287.89
570.95	187.24
571.11	271.50
571.27	313.63
571.43	182.56
571.60	362.78
571.76	327.68
571.92	315.97
572.09	271.50
572.25	278.52
572.41	205.97
572.57	362.78
572.74	252.78
572.90	306.61
573.06	285.55
573.22	250.44
573.38	280.86
573.55	304.27
573.71	273.84
573.87	278.52
574.03	255.12
574.20	334.70
574.36	404.91
574.52	423.64
574.68	402.57
574.84	374.49
575.01	304.27
575.17	290.23
575.33	269.16
575.49	320.65
575.65	287.89
575.82	390.87
575.98	678.76
576.14	837.91
576.30	868.34
576.46	732.59
576.62	596.84
576.79	461.09
576.95	454.06
577.11	433.00
577.27	313.63
577.43	320.65
577.59	355.76
577.75	472.79
577.92	315.97
578.08	318.31
578.24	376.83
578.40	386.19
578.56	442.36
578.72	449.38
578.88	498.53
579.04	397.89
579.21	334.70
579.37	360.44
579.53	404.91
579.69	411.93
579.85	362.78
580.01	425.98
580.17	447.04
580.33	463.43
580.49	365.12
580.65	489.17
580.82	472.79
580.98	421.30
581.14	444.70
581.30	423.64
581.46	493.85
581.62	702.16
581.78	709.18
581.94	678.76
582.10	683.44
582.26	540.66
582.42	526.62
582.58	477.47
582.74	547.69
582.90	533.64
583.06	578.11
583.22	596.84
583.38	552.37
583.54	547.69
583.70	802.80
583.86	863.66
584.02	922.17
584.18	1076.65
584.34	1371.55
584.50	3655.92
584.66	26946.59
584.82	59475.35
584.98	65535.00
585.14	65535.00
585.30	53357.19
585.46	33472.00
585.62	20601.40
585.78	9638.33
585.94	3840.82
586.10	1846.68
586.26	1296.66
586.42	1046.22
586.58	830.89
586.74	699.82
586.90	833.23
587.06	702.16
587.22	711.52
587.38	667.05
587.54	1380.92
587.70	3932.10
587.86	6527.75
588.02	7258.00
588.18	5144.50
588.34	3227.60
588.49	2132.23
588.65	1387.94
588.81	793.44
588.97	454.06
589.13	468.11
589.29	369.80
589.45	402.57
589.61	425.98
589.77	454.06
589.93	472.79
590.08	592.16
590.24	512.58
590.40	566.41
590.56	498.53
590.72	444.70
590.88	358.10
591.04	379.17
591.20	367.46
591.35	372.15
591.51	414.27
591.67	414.27
591.83	348.74
591.99	393.21
592.15	334.70
592.31	428.32
592.46	381.51
592.62	547.69
592.78	365.12
592.94	456.40
593.10	409.59
593.26	458.74
593.41	512.58
593.57	440.02
593.73	814.51
593.89	3190.15
594.05	8180.17
594.20	12243.34
594.36	11648.85
594.52	7915.69
594.68	4805.12
594.84	3173.77
594.99	1877.11
595.15	919.83
595.31	594.50
595.47	491.51
595.62	337.04
595.78	367.46
595.94	320.65
596.10	526.62
596.25	491.51
596.41	573.43
596.57	435.34
596.73	404.91
596.88	624.92
597.04	1638.38
597.20	2642.46
597.36	3218.24
597.51	2401.39
597.67	1619.65
597.83	1259.21
597.99	774.72
598.14	608.54
598.30	491.51
598.46	425.98
598.61	430.66
598.77	414.27
598.93	390.87
599.09	348.74
599.24	376.83
599.40	327.68
599.56	320.65
599.71	397.89
599.87	360.44
600.03	365.12
600.18	315.97
600.34	287.89
600.50	283.20
600.65	365.12
600.81	339.38
600.97	255.12
601.12	257.46
601.28	379.17
601.44	280.86
601.59	278.52
601.75	273.84
601.91	283.20
602.06	355.76
602.22	386.19
602.37	800.46
602.53	1853.70
602.69	3115.25
602.84	3229.94
603.00	2396.71
603.16	1528.37
603.31	1153.88
603.47	751.31
603.62	491.51
603.78	393.21
603.94	344.06
604.09	397.89
604.25	306.61
604.40	322.99
604.56	346.40
604.71	278.52
604.87	236.39
605.03	330.02
605.18	367.46
605.34	308.95
605.49	294.91
605.65	402.57
605.80	383.85
605.96	337.04
606.12	374.49
606.27	407.25
606.43	416.62
606.58	528.96
606.74	894.08
606.89	3770.60
607.05	7887.61
607.20	10663.48
607.36	8819.14
607.51	5968.37
607.67	3861.88
607.82	2626.08
607.98	1570.50
608.13	791.10
608.29	585.13
608.44	578.11
608.60	503.22
608.75	702.16
608.91	1350.49
609.06	6127.52
609.22	13556.38
609.37	18576.83
609.53	16381.41
609.68	10864.77
609.84	6963.09
609.99	4683.41
