SpectraSuite Data File
++++++++++++++++++++++++++++++++++++
Date: Fri Oct 04 11:34:09 GMT-05:00 2013
User: price-jones
Dark Spectrum Present: No
Reference Spectrum Present: No
Number of Sampled Component Spectra: 1
Spectrometers: USB2+H05261
Integration Time (usec): 100000 (USB2+H05261)
Spectra Averaged: 1 (USB2+H05261)
Boxcar Smoothing: 0 (USB2+H05261)
Correct for Electrical Dark: No (USB2+H05261)
Strobe/Lamp Enabled: No (USB2+H05261)
Correct for Detector Non-linearity: No (USB2+H05261)
Correct for Stray Light: No (USB2+H05261)
Number of Pixels in Processed Spectrum: 2048
>>>>>Begin Processed Spectral Data<<<<<
365.73	74.90
365.92	74.90
366.12	74.90
366.32	0.00
366.52	0.00
366.72	44.47
366.91	0.00
367.11	0.00
367.31	0.00
367.51	0.00
367.70	0.00
367.90	11.70
368.10	0.00
368.30	0.00
368.49	42.13
368.69	0.00
368.89	0.00
369.09	0.00
369.28	28.09
369.48	0.00
369.68	0.00
369.87	0.00
370.07	18.72
370.27	46.81
370.47	44.47
370.66	117.03
370.86	49.15
371.06	126.39
371.25	124.05
371.45	51.49
371.65	149.79
371.84	107.66
372.04	105.32
372.24	126.39
372.44	117.03
372.63	147.45
372.83	177.88
373.03	110.01
373.22	114.69
373.42	180.22
373.62	220.01
373.81	126.39
374.01	177.88
374.21	105.32
374.40	152.13
374.60	163.84
374.79	110.01
374.99	156.82
375.19	91.28
375.38	241.08
375.58	191.92
375.78	126.39
375.97	180.22
376.17	198.95
376.37	133.41
376.56	124.05
376.76	128.73
376.95	102.98
377.15	147.45
377.35	79.58
377.54	194.26
377.74	102.98
377.93	88.94
378.13	145.11
378.33	72.56
378.52	91.28
378.72	88.94
378.91	95.96
379.11	95.96
379.31	119.37
379.50	161.50
379.70	212.99
379.89	156.82
380.09	173.20
380.28	145.11
380.48	173.20
380.68	135.75
380.87	149.79
381.07	135.75
381.26	180.22
381.46	147.45
381.65	124.05
381.85	110.01
382.04	152.13
382.24	166.18
382.43	93.62
382.63	145.11
382.83	117.03
383.02	149.79
383.22	128.73
383.41	135.75
383.61	173.20
383.80	187.24
384.00	131.07
384.19	112.35
384.39	35.11
384.58	147.45
384.78	184.90
384.97	117.03
385.17	133.41
385.36	145.11
385.56	126.39
385.75	161.50
385.95	126.39
386.14	133.41
386.34	91.28
386.53	98.30
386.72	88.94
386.92	131.07
387.11	91.28
387.31	100.64
387.50	102.98
387.70	91.28
387.89	184.90
388.09	49.15
388.28	180.22
388.48	154.48
388.67	189.58
388.86	95.96
389.06	156.82
389.25	126.39
389.45	168.52
389.64	175.54
389.84	156.82
390.03	135.75
390.22	210.65
390.42	138.09
390.61	81.92
390.81	175.54
391.00	102.98
391.19	245.76
391.39	140.43
391.58	173.20
391.78	110.01
391.97	149.79
392.16	110.01
392.36	117.03
392.55	184.90
392.75	77.24
392.94	215.33
393.13	177.88
393.33	152.13
393.52	205.97
393.71	117.03
393.91	105.32
394.10	156.82
394.29	159.16
394.49	198.95
394.68	168.52
394.88	203.63
395.07	145.11
395.26	184.90
395.46	147.45
395.65	105.32
395.84	107.66
396.04	222.35
396.23	184.90
396.42	133.41
396.62	133.41
396.81	93.62
397.00	138.09
397.19	159.16
397.39	161.50
397.58	201.29
397.77	110.01
397.97	135.75
398.16	203.63
398.35	177.88
398.55	117.03
398.74	168.52
398.93	184.90
399.12	86.60
399.32	170.86
399.51	173.20
399.70	184.90
399.90	168.52
400.09	201.29
400.28	184.90
400.47	74.90
400.67	182.56
400.86	81.92
401.05	142.77
401.24	154.48
401.44	182.56
401.63	133.41
401.82	173.20
402.01	112.35
402.21	140.43
402.40	133.41
402.59	124.05
402.78	119.37
402.97	196.60
403.17	152.13
403.36	175.54
403.55	102.98
403.74	142.77
403.93	187.24
404.13	180.22
404.32	215.33
404.51	220.01
404.70	285.55
404.89	250.44
405.09	234.05
405.28	63.19
405.47	152.13
405.66	166.18
405.85	166.18
406.05	163.84
406.24	196.60
406.43	145.11
406.62	184.90
406.81	201.29
407.00	184.90
407.20	121.71
407.39	227.03
407.58	135.75
407.77	224.69
407.96	187.24
408.15	159.16
408.34	124.05
408.54	238.73
408.73	224.69
408.92	142.77
409.11	166.18
409.30	140.43
409.49	175.54
409.68	95.96
409.87	140.43
410.07	91.28
410.26	156.82
410.45	149.79
410.64	126.39
410.83	180.22
411.02	198.95
411.21	205.97
411.40	201.29
411.59	135.75
411.78	135.75
411.98	210.65
412.17	156.82
412.36	159.16
412.55	154.48
412.74	173.20
412.93	220.01
413.12	107.66
413.31	236.39
413.50	220.01
413.69	173.20
413.88	187.24
414.07	168.52
414.26	93.62
414.45	117.03
414.64	166.18
414.83	161.50
415.02	173.20
415.22	250.44
415.41	191.92
415.60	117.03
415.79	180.22
415.98	198.95
416.17	145.11
416.36	149.79
416.55	234.05
416.74	231.71
416.93	187.24
417.12	152.13
417.31	159.16
417.50	163.84
417.69	271.50
417.88	255.12
418.07	156.82
418.26	180.22
418.45	220.01
418.64	285.55
418.83	243.42
419.02	273.84
419.21	145.11
419.39	224.69
419.58	224.69
419.77	168.52
419.96	191.92
420.15	196.60
420.34	159.16
420.53	166.18
420.72	234.05
420.91	161.50
421.10	182.56
421.29	175.54
421.48	182.56
421.67	212.99
421.86	170.86
422.05	166.18
422.24	166.18
422.43	191.92
422.61	182.56
422.80	250.44
422.99	210.65
423.18	177.88
423.37	189.58
423.56	224.69
423.75	266.82
423.94	147.45
424.13	114.69
424.32	131.07
424.50	180.22
424.69	159.16
424.88	182.56
425.07	187.24
425.26	161.50
425.45	313.63
425.64	255.12
425.83	229.37
426.01	299.59
426.20	191.92
426.39	105.32
426.58	117.03
426.77	159.16
426.96	208.31
427.15	245.76
427.33	217.67
427.52	191.92
427.71	170.86
427.90	187.24
428.09	215.33
428.28	145.11
428.46	220.01
428.65	205.97
428.84	154.48
429.03	184.90
429.22	163.84
429.40	138.09
429.59	126.39
429.78	124.05
429.97	60.85
430.16	154.48
430.34	198.95
430.53	105.32
430.72	152.13
430.91	198.95
431.10	142.77
431.28	147.45
431.47	163.84
431.66	180.22
431.85	210.65
432.03	224.69
432.22	212.99
432.41	212.99
432.60	215.33
432.79	224.69
432.97	266.82
433.16	306.61
433.35	259.80
433.54	196.60
433.72	224.69
433.91	262.14
434.10	229.37
434.28	180.22
434.47	145.11
434.66	175.54
434.85	166.18
435.03	217.67
435.22	341.72
435.41	517.26
435.59	437.68
435.78	372.15
435.97	194.26
436.16	241.08
436.34	161.50
436.53	140.43
436.72	278.52
436.90	152.13
437.09	177.88
437.28	140.43
437.46	124.05
437.65	198.95
437.84	138.09
438.02	208.31
438.21	208.31
438.40	236.39
438.58	95.96
438.77	203.63
438.96	191.92
439.14	220.01
439.33	203.63
439.52	117.03
439.70	100.64
439.89	170.86
440.08	243.42
440.26	140.43
440.45	170.86
440.63	215.33
440.82	255.12
441.01	184.90
441.19	203.63
441.38	110.01
441.57	196.60
441.75	262.14
441.94	163.84
442.12	215.33
442.31	152.13
442.50	117.03
442.68	147.45
442.87	220.01
443.05	154.48
443.24	177.88
443.43	215.33
443.61	159.16
443.80	163.84
443.98	212.99
444.17	117.03
444.35	180.22
444.54	208.31
444.73	131.07
444.91	168.52
445.10	161.50
445.28	102.98
445.47	205.97
445.65	241.08
445.84	177.88
446.02	205.97
446.21	154.48
446.39	222.35
446.58	168.52
446.77	154.48
446.95	177.88
447.14	177.88
447.32	208.31
447.51	102.98
447.69	212.99
447.88	191.92
448.06	220.01
448.25	147.45
448.43	252.78
448.62	135.75
448.80	280.86
448.99	266.82
449.17	236.39
449.36	220.01
449.54	215.33
449.73	152.13
449.91	217.67
450.10	124.05
450.28	306.61
450.46	205.97
450.65	205.97
450.83	198.95
451.02	212.99
451.20	177.88
451.39	154.48
451.57	175.54
451.76	175.54
451.94	102.98
452.13	231.71
452.31	184.90
452.49	152.13
452.68	241.08
452.86	196.60
453.05	166.18
453.23	203.63
453.42	180.22
453.60	198.95
453.78	212.99
453.97	114.69
454.15	196.60
454.34	117.03
454.52	126.39
454.70	217.67
454.89	269.16
455.07	147.45
455.26	173.20
455.44	255.12
455.62	191.92
455.81	154.48
455.99	194.26
456.17	175.54
456.36	175.54
456.54	145.11
456.73	177.88
456.91	217.67
457.09	217.67
457.28	234.05
457.46	182.56
457.64	156.82
457.83	98.30
458.01	156.82
458.19	170.86
458.38	231.71
458.56	184.90
458.74	138.09
458.93	161.50
459.11	292.57
459.29	210.65
459.48	210.65
459.66	198.95
459.84	128.73
460.03	229.37
460.21	299.59
460.39	215.33
460.57	234.05
460.76	222.35
460.94	210.65
461.12	220.01
461.31	196.60
461.49	184.90
461.67	229.37
461.85	170.86
462.04	180.22
462.22	306.61
462.40	173.20
462.59	236.39
462.77	163.84
462.95	210.65
463.13	168.52
463.32	154.48
463.50	191.92
463.68	145.11
463.86	177.88
464.05	119.37
464.23	196.60
464.41	163.84
464.59	142.77
464.78	205.97
464.96	180.22
465.14	168.52
465.32	159.16
465.50	224.69
465.69	259.80
465.87	138.09
466.05	212.99
466.23	156.82
466.41	152.13
466.60	231.71
466.78	198.95
466.96	203.63
467.14	191.92
467.32	273.84
467.51	184.90
467.69	201.29
467.87	306.61
468.05	182.56
468.23	208.31
468.41	297.25
468.60	238.73
468.78	196.60
468.96	224.69
469.14	224.69
469.32	142.77
469.50	154.48
469.69	215.33
469.87	114.69
470.05	189.58
470.23	142.77
470.41	126.39
470.59	238.73
470.77	229.37
470.95	243.42
471.14	236.39
471.32	154.48
471.50	236.39
471.68	194.26
471.86	236.39
472.04	107.66
472.22	238.73
472.40	189.58
472.58	175.54
472.77	210.65
472.95	177.88
473.13	184.90
473.31	283.20
473.49	194.26
473.67	252.78
473.85	203.63
474.03	170.86
474.21	187.24
474.39	163.84
474.57	250.44
474.75	222.35
474.93	262.14
475.12	126.39
475.30	166.18
475.48	243.42
475.66	287.89
475.84	227.03
476.02	180.22
476.20	210.65
476.38	184.90
476.56	287.89
476.74	173.20
476.92	175.54
477.10	238.73
477.28	203.63
477.46	147.45
477.64	215.33
477.82	205.97
478.00	191.92
478.18	217.67
478.36	234.05
478.54	168.52
478.72	212.99
478.90	248.10
479.08	210.65
479.26	180.22
479.44	135.75
479.62	191.92
479.80	259.80
479.98	234.05
480.16	163.84
480.34	189.58
480.52	255.12
480.70	276.18
480.88	166.18
481.06	241.08
481.24	234.05
481.41	236.39
481.59	299.59
481.77	203.63
481.95	341.72
482.13	271.50
482.31	205.97
482.49	175.54
482.67	273.84
482.85	271.50
483.03	259.80
483.21	238.73
483.39	269.16
483.57	238.73
483.74	248.10
483.92	215.33
484.10	304.27
484.28	266.82
484.46	379.17
484.64	306.61
484.82	187.24
485.00	194.26
485.18	245.76
485.35	266.82
485.53	215.33
485.71	255.12
485.89	194.26
486.07	241.08
486.25	280.86
486.43	205.97
486.61	313.63
486.78	248.10
486.96	191.92
487.14	313.63
487.32	224.69
487.50	262.14
487.68	280.86
487.85	264.48
488.03	283.20
488.21	313.63
488.39	238.73
488.57	205.97
488.75	238.73
488.92	489.17
489.10	318.31
489.28	257.46
489.46	255.12
489.64	280.86
489.81	180.22
489.99	257.46
490.17	290.23
490.35	276.18
490.53	255.12
490.70	201.29
490.88	308.95
491.06	252.78
491.24	292.57
491.41	315.97
491.59	203.63
491.77	245.76
491.95	201.29
492.13	182.56
492.30	159.16
492.48	194.26
492.66	201.29
492.84	278.52
493.01	278.52
493.19	290.23
493.37	301.93
493.54	320.65
493.72	264.48
493.90	311.29
494.08	257.46
494.25	269.16
494.43	283.20
494.61	287.89
494.79	245.76
494.96	203.63
495.14	217.67
495.32	271.50
495.49	205.97
495.67	196.60
495.85	241.08
496.02	184.90
496.20	273.84
496.38	273.84
496.55	276.18
496.73	285.55
496.91	271.50
497.09	255.12
497.26	339.38
497.44	271.50
497.62	301.93
497.79	210.65
497.97	198.95
498.14	266.82
498.32	161.50
498.50	292.57
498.67	236.39
498.85	369.80
499.03	301.93
499.20	245.76
499.38	259.80
499.56	304.27
499.73	322.99
499.91	278.52
500.08	212.99
500.26	290.23
500.44	264.48
500.61	252.78
500.79	231.71
500.97	241.08
501.14	339.38
501.32	234.05
501.49	334.70
501.67	287.89
501.84	229.37
502.02	220.01
502.20	294.91
502.37	271.50
502.55	243.42
502.72	285.55
502.90	215.33
503.07	283.20
503.25	308.95
503.43	241.08
503.60	264.48
503.78	227.03
503.95	294.91
504.13	241.08
504.30	259.80
504.48	313.63
504.65	255.12
504.83	227.03
505.01	229.37
505.18	264.48
505.36	227.03
505.53	243.42
505.71	252.78
505.88	320.65
506.06	255.12
506.23	243.42
506.41	245.76
506.58	170.86
506.76	255.12
506.93	243.42
507.11	273.84
507.28	250.44
507.46	224.69
507.63	236.39
507.81	294.91
507.98	287.89
508.16	191.92
508.33	320.65
508.50	259.80
508.68	238.73
508.85	217.67
509.03	264.48
509.20	191.92
509.38	255.12
509.55	318.31
509.73	330.02
509.90	245.76
510.08	292.57
510.25	280.86
510.42	271.50
510.60	278.52
510.77	327.68
510.95	339.38
511.12	315.97
511.30	358.10
511.47	301.93
511.64	365.12
511.82	264.48
511.99	269.16
512.17	201.29
512.34	217.67
512.51	227.03
512.69	245.76
512.86	311.29
513.04	306.61
513.21	280.86
513.38	313.63
513.56	241.08
513.73	222.35
513.90	278.52
514.08	294.91
514.25	311.29
514.43	301.93
514.60	285.55
514.77	262.14
514.95	264.48
515.12	294.91
515.29	294.91
515.47	287.89
515.64	273.84
515.81	280.86
515.99	243.42
516.16	264.48
516.33	252.78
516.51	231.71
516.68	177.88
516.85	191.92
517.03	210.65
517.20	283.20
517.37	273.84
517.54	227.03
517.72	250.44
517.89	236.39
518.06	234.05
518.24	285.55
518.41	367.46
518.58	311.29
518.75	257.46
518.93	220.01
519.10	208.31
519.27	250.44
519.45	269.16
519.62	264.48
519.79	360.44
519.96	273.84
520.14	273.84
520.31	299.59
520.48	283.20
520.65	257.46
520.83	262.14
521.00	283.20
521.17	297.25
521.34	271.50
521.52	262.14
521.69	297.25
521.86	285.55
522.03	252.78
522.20	292.57
522.38	229.37
522.55	266.82
522.72	241.08
522.89	339.38
523.07	374.49
523.24	290.23
523.41	173.20
523.58	315.97
523.75	262.14
523.92	339.38
524.10	283.20
524.27	285.55
524.44	308.95
524.61	304.27
524.78	285.55
524.96	320.65
525.13	236.39
525.30	313.63
525.47	332.36
525.64	299.59
525.81	248.10
525.98	229.37
526.16	266.82
526.33	269.16
526.50	269.16
526.67	299.59
526.84	238.73
527.01	259.80
527.18	299.59
527.36	250.44
527.53	252.78
527.70	252.78
527.87	224.69
528.04	266.82
528.21	280.86
528.38	292.57
528.55	362.78
528.72	318.31
528.89	344.06
529.07	252.78
529.24	182.56
529.41	294.91
529.58	337.04
529.75	250.44
529.92	374.49
530.09	285.55
530.26	313.63
530.43	259.80
530.60	241.08
530.77	266.82
530.94	379.17
531.11	203.63
531.28	358.10
531.46	196.60
531.63	227.03
531.80	290.23
531.97	278.52
532.14	353.42
532.31	318.31
532.48	383.85
532.65	358.10
532.82	365.12
532.99	388.53
533.16	290.23
533.33	287.89
533.50	297.25
533.67	355.76
533.84	456.40
534.01	486.83
534.18	395.55
534.35	360.44
534.52	311.29
534.69	407.25
534.86	248.10
535.03	269.16
535.20	304.27
535.37	344.06
535.54	337.04
535.71	325.33
535.88	362.78
536.05	250.44
536.22	297.25
536.38	294.91
536.55	278.52
536.72	269.16
536.89	322.99
537.06	306.61
537.23	337.04
537.40	355.76
537.57	311.29
537.74	369.80
537.91	320.65
538.08	332.36
538.25	299.59
538.42	386.19
538.59	369.80
538.75	337.04
538.92	315.97
539.09	388.53
539.26	409.59
539.43	608.54
539.60	1268.57
539.77	1781.15
539.94	1701.57
540.11	1196.01
540.28	854.30
540.44	695.14
540.61	472.79
540.78	468.11
540.95	397.89
541.12	641.31
541.29	507.90
541.46	608.54
541.62	526.62
541.79	662.37
541.96	517.26
542.13	582.79
542.30	496.19
542.47	491.51
542.63	585.13
542.80	643.65
542.97	566.41
543.14	491.51
543.31	514.92
543.48	566.41
543.64	543.00
543.81	568.75
543.98	512.58
544.15	540.66
544.32	550.03
544.48	526.62
544.65	601.52
544.82	543.00
544.99	465.77
545.16	535.98
545.32	514.92
545.49	737.27
545.66	1020.47
545.83	1111.75
546.00	987.71
546.16	774.72
546.33	648.33
546.50	519.60
546.67	543.00
546.83	444.70
547.00	402.57
547.17	360.44
547.34	421.30
547.50	437.68
547.67	383.85
547.84	435.34
548.00	440.02
548.17	344.06
548.34	449.38
548.51	418.96
548.67	435.34
548.84	386.19
549.01	388.53
549.18	379.17
549.34	346.40
549.51	386.19
549.68	372.15
549.84	372.15
550.01	381.51
550.18	444.70
550.34	369.80
550.51	294.91
550.68	369.80
550.84	327.68
551.01	304.27
551.18	358.10
551.34	358.10
551.51	346.40
551.68	297.25
551.84	348.74
552.01	299.59
552.18	334.70
552.34	348.74
552.51	227.03
552.68	376.83
552.84	266.82
553.01	306.61
553.18	306.61
553.34	341.72
553.51	271.50
553.67	358.10
553.84	362.78
554.01	348.74
554.17	304.27
554.34	278.52
554.51	313.63
554.67	313.63
554.84	273.84
555.00	374.49
555.17	306.61
555.33	259.80
555.50	315.97
555.67	287.89
555.83	224.69
556.00	276.18
556.16	440.02
556.33	327.68
556.50	252.78
556.66	283.20
556.83	311.29
556.99	266.82
557.16	297.25
557.32	278.52
557.49	297.25
557.65	271.50
557.82	180.22
557.98	259.80
558.15	283.20
558.32	360.44
558.48	266.82
558.65	250.44
558.81	334.70
558.98	287.89
559.14	273.84
559.31	290.23
559.47	259.80
559.64	304.27
559.80	269.16
559.97	311.29
560.13	308.95
560.30	346.40
560.46	348.74
560.63	306.61
560.79	280.86
560.96	304.27
561.12	205.97
561.29	304.27
561.45	227.03
561.61	250.44
561.78	348.74
561.94	322.99
562.11	306.61
562.27	348.74
562.44	227.03
562.60	290.23
562.77	252.78
562.93	360.44
563.10	259.80
563.26	280.86
563.42	304.27
563.59	320.65
563.75	304.27
563.92	250.44
564.08	337.04
564.24	191.92
564.41	273.84
564.57	353.42
564.74	250.44
564.90	243.42
565.07	313.63
565.23	381.51
565.39	330.02
565.56	369.80
565.72	278.52
565.88	315.97
566.05	299.59
566.21	248.10
566.38	383.85
566.54	189.58
566.70	276.18
566.87	222.35
567.03	301.93
567.19	227.03
567.36	304.27
567.52	308.95
567.68	301.93
567.85	241.08
568.01	177.88
568.17	224.69
568.34	334.70
568.50	301.93
568.66	234.05
568.83	388.53
568.99	248.10
569.15	278.52
569.32	236.39
569.48	269.16
569.64	313.63
569.81	294.91
569.97	297.25
570.13	304.27
570.30	212.99
570.46	252.78
570.62	313.63
570.78	224.69
570.95	234.05
571.11	306.61
571.27	423.64
571.43	208.31
571.60	297.25
571.76	278.52
571.92	278.52
572.09	278.52
572.25	299.59
572.41	266.82
572.57	234.05
572.74	355.76
572.90	248.10
573.06	238.73
573.22	297.25
573.38	292.57
573.55	299.59
573.71	346.40
573.87	374.49
574.03	217.67
574.20	337.04
574.36	351.08
574.52	346.40
574.68	360.44
574.84	411.93
575.01	339.38
575.17	301.93
575.33	262.14
575.49	290.23
575.65	285.55
575.82	374.49
575.98	671.73
576.14	767.70
576.30	795.78
576.46	688.12
576.62	688.12
576.79	528.96
576.95	505.56
577.11	358.10
577.27	386.19
577.43	393.21
577.59	390.87
577.75	280.86
577.92	299.59
578.08	236.39
578.24	346.40
578.40	393.21
578.56	461.09
578.72	418.96
578.88	475.13
579.04	444.70
579.21	381.51
579.37	470.45
579.53	358.10
579.69	425.98
579.85	411.93
580.01	425.98
580.17	484.49
580.33	454.06
580.49	409.59
580.65	423.64
580.82	430.66
580.98	372.15
581.14	404.91
581.30	472.79
581.46	500.87
581.62	613.22
581.78	734.93
581.94	667.05
582.10	498.53
582.26	482.15
582.42	585.13
582.58	484.49
582.74	491.51
582.90	514.92
583.06	547.69
583.22	535.98
583.38	531.30
583.54	610.88
583.70	695.14
583.86	739.61
584.02	896.43
584.18	999.41
584.34	1364.53
584.50	3171.43
584.66	24226.89
584.82	57059.92
584.98	65535.00
585.14	63550.23
585.30	49748.09
585.46	30593.14
585.62	19047.28
585.78	8709.13
585.94	3536.55
586.10	1846.68
586.26	1186.65
586.42	889.40
586.58	755.99
586.74	692.80
586.90	816.85
587.06	856.64
587.22	753.65
587.38	678.76
587.54	1313.04
587.70	3723.79
587.86	6061.99
588.02	6621.38
588.18	4830.87
588.34	3030.99
588.49	2045.63
588.65	1254.53
588.81	732.59
588.97	510.24
589.13	472.79
589.29	416.62
589.45	470.45
589.61	388.53
589.77	458.74
589.93	557.05
590.08	608.54
590.24	543.00
590.40	461.09
590.56	430.66
590.72	465.77
590.88	379.17
591.04	437.68
591.20	402.57
591.35	430.66
591.51	376.83
591.67	470.45
591.83	362.78
591.99	390.87
592.15	430.66
592.31	374.49
592.46	351.08
592.62	411.93
592.78	428.32
592.94	451.72
593.10	428.32
593.26	411.93
593.41	503.22
593.57	470.45
593.73	685.78
593.89	2930.35
594.05	7796.32
594.20	11548.20
594.36	10682.20
594.52	7178.42
594.68	4557.02
594.84	3054.40
594.99	1633.69
595.15	931.53
595.31	535.98
595.47	454.06
595.62	376.83
595.78	425.98
595.94	386.19
596.10	444.70
596.25	421.30
596.41	512.58
596.57	397.89
596.73	416.62
596.88	641.31
597.04	1554.12
597.20	2537.14
597.36	2827.37
597.51	2169.68
597.67	1561.14
597.83	1149.20
597.99	711.52
598.14	547.69
598.30	407.25
598.46	402.57
598.61	444.70
598.77	433.00
598.93	423.64
599.09	369.80
599.24	402.57
599.40	365.12
599.56	374.49
599.71	318.31
599.87	351.08
600.03	311.29
600.18	294.91
600.34	269.16
600.50	313.63
600.65	344.06
600.81	322.99
600.97	301.93
601.12	348.74
601.28	367.46
601.44	337.04
601.59	332.36
601.75	311.29
601.91	348.74
602.06	395.55
602.22	435.34
602.37	816.85
602.53	1823.28
602.69	2752.47
602.84	3035.67
603.00	2214.15
603.16	1600.93
603.31	1081.33
603.47	760.67
603.62	519.60
603.78	425.98
603.94	353.42
604.09	346.40
604.25	341.72
604.40	393.21
604.56	290.23
604.71	334.70
604.87	341.72
605.03	360.44
605.18	311.29
605.34	397.89
605.49	273.84
605.65	322.99
605.80	320.65
605.96	372.15
606.12	381.51
606.27	369.80
606.43	334.70
606.58	393.21
606.74	910.47
606.89	3522.51
607.05	7206.51
607.20	9785.78
607.36	8065.49
607.51	5479.19
607.67	3592.72
607.82	2541.82
607.98	1458.15
608.13	800.46
608.29	622.58
608.44	533.64
608.60	559.39
608.75	606.20
608.91	1404.32
609.06	5774.10
609.22	12784.01
609.37	16718.45
609.53	14988.79
609.68	10127.50
609.84	6602.65
609.99	4519.57
