SpectraSuite Data File
++++++++++++++++++++++++++++++++++++
Date: Fri Oct 04 11:34:02 GMT-05:00 2013
User: price-jones
Dark Spectrum Present: No
Reference Spectrum Present: No
Number of Sampled Component Spectra: 1
Spectrometers: USB2+H05261
Integration Time (usec): 100000 (USB2+H05261)
Spectra Averaged: 1 (USB2+H05261)
Boxcar Smoothing: 0 (USB2+H05261)
Correct for Electrical Dark: No (USB2+H05261)
Strobe/Lamp Enabled: No (USB2+H05261)
Correct for Detector Non-linearity: No (USB2+H05261)
Correct for Stray Light: No (USB2+H05261)
Number of Pixels in Processed Spectrum: 2048
>>>>>Begin Processed Spectral Data<<<<<
365.73	49.15
365.92	49.15
366.12	49.15
366.32	23.41
366.52	0.00
366.72	23.41
366.91	0.00
367.11	4.68
367.31	0.00
367.51	0.00
367.70	0.00
367.90	0.00
368.10	0.00
368.30	0.00
368.49	0.00
368.69	0.00
368.89	0.00
369.09	0.00
369.28	0.00
369.48	0.00
369.68	72.56
369.87	70.22
370.07	65.54
370.27	11.70
370.47	42.13
370.66	79.58
370.86	98.30
371.06	152.13
371.25	145.11
371.45	60.85
371.65	147.45
371.84	77.24
372.04	70.22
372.24	149.79
372.44	149.79
372.63	128.73
372.83	203.63
373.03	187.24
373.22	110.01
373.42	175.54
373.62	220.01
373.81	191.92
374.01	208.31
374.21	182.56
374.40	152.13
374.60	121.71
374.79	98.30
374.99	131.07
375.19	142.77
375.38	255.12
375.58	212.99
375.78	257.46
375.97	138.09
376.17	156.82
376.37	170.86
376.56	175.54
376.76	189.58
376.95	142.77
377.15	152.13
377.35	180.22
377.54	170.86
377.74	110.01
377.93	152.13
378.13	154.48
378.33	191.92
378.52	180.22
378.72	149.79
378.91	189.58
379.11	154.48
379.31	79.58
379.50	110.01
379.70	203.63
379.89	203.63
380.09	88.94
380.28	128.73
380.48	117.03
380.68	100.64
380.87	184.90
381.07	191.92
381.26	152.13
381.46	159.16
381.65	140.43
381.85	152.13
382.04	161.50
382.24	170.86
382.43	86.60
382.63	177.88
382.83	140.43
383.02	117.03
383.22	145.11
383.41	180.22
383.61	140.43
383.80	170.86
384.00	128.73
384.19	86.60
384.39	184.90
384.58	126.39
384.78	166.18
384.97	161.50
385.17	180.22
385.36	184.90
385.56	163.84
385.75	91.28
385.95	135.75
386.14	114.69
386.34	184.90
386.53	159.16
386.72	100.64
386.92	215.33
387.11	175.54
387.31	131.07
387.50	196.60
387.70	135.75
387.89	119.37
388.09	220.01
388.28	98.30
388.48	117.03
388.67	156.82
388.86	156.82
389.06	196.60
389.25	114.69
389.45	112.35
389.64	215.33
389.84	227.03
390.03	189.58
390.22	175.54
390.42	135.75
390.61	124.05
390.81	60.85
391.00	110.01
391.19	231.71
391.39	140.43
391.58	128.73
391.78	175.54
391.97	159.16
392.16	70.22
392.36	110.01
392.55	180.22
392.75	147.45
392.94	114.69
393.13	145.11
393.33	175.54
393.52	65.54
393.71	177.88
393.91	79.58
394.10	107.66
394.29	105.32
394.49	156.82
394.68	168.52
394.88	189.58
395.07	145.11
395.26	182.56
395.46	175.54
395.65	161.50
395.84	114.69
396.04	210.65
396.23	131.07
396.42	145.11
396.62	135.75
396.81	145.11
397.00	203.63
397.19	128.73
397.39	177.88
397.58	168.52
397.77	117.03
397.97	159.16
398.16	161.50
398.35	159.16
398.55	147.45
398.74	156.82
398.93	135.75
399.12	138.09
399.32	168.52
399.51	229.37
399.70	187.24
399.90	107.66
400.09	140.43
400.28	131.07
400.47	210.65
400.67	196.60
400.86	147.45
401.05	131.07
401.24	210.65
401.44	163.84
401.63	212.99
401.82	184.90
402.01	135.75
402.21	133.41
402.40	208.31
402.59	149.79
402.78	117.03
402.97	182.56
403.17	91.28
403.36	227.03
403.55	161.50
403.74	126.39
403.93	194.26
404.13	365.12
404.32	257.46
404.51	210.65
404.70	210.65
404.89	205.97
405.09	210.65
405.28	140.43
405.47	119.37
405.66	149.79
405.85	191.92
406.05	128.73
406.24	138.09
406.43	154.48
406.62	210.65
406.81	220.01
407.00	98.30
407.20	110.01
407.39	133.41
407.58	166.18
407.77	191.92
407.96	168.52
408.15	243.42
408.34	147.45
408.54	243.42
408.73	177.88
408.92	98.30
409.11	182.56
409.30	196.60
409.49	163.84
409.68	168.52
409.87	231.71
410.07	147.45
410.26	145.11
410.45	102.98
410.64	107.66
410.83	184.90
411.02	184.90
411.21	145.11
411.40	227.03
411.59	149.79
411.78	131.07
411.98	166.18
412.17	32.77
412.36	180.22
412.55	159.16
412.74	140.43
412.93	243.42
413.12	147.45
413.31	156.82
413.50	95.96
413.69	112.35
413.88	131.07
414.07	173.20
414.26	138.09
414.45	152.13
414.64	161.50
414.83	175.54
415.02	173.20
415.22	189.58
415.41	159.16
415.60	149.79
415.79	184.90
415.98	187.24
416.17	194.26
416.36	142.77
416.55	156.82
416.74	145.11
416.93	184.90
417.12	112.35
417.31	154.48
417.50	126.39
417.69	212.99
417.88	187.24
418.07	180.22
418.26	241.08
418.45	189.58
418.64	299.59
418.83	318.31
419.02	217.67
419.21	166.18
419.39	222.35
419.58	180.22
419.77	191.92
419.96	252.78
420.15	168.52
420.34	205.97
420.53	170.86
420.72	220.01
420.91	175.54
421.10	217.67
421.29	131.07
421.48	196.60
421.67	142.77
421.86	189.58
422.05	231.71
422.24	117.03
422.43	128.73
422.61	168.52
422.80	149.79
422.99	149.79
423.18	175.54
423.37	234.05
423.56	212.99
423.75	191.92
423.94	105.32
424.13	173.20
424.32	177.88
424.50	208.31
424.69	145.11
424.88	198.95
425.07	175.54
425.26	142.77
425.45	224.69
425.64	330.02
425.83	245.76
426.01	262.14
426.20	128.73
426.39	173.20
426.58	196.60
426.77	163.84
426.96	201.29
427.15	121.71
427.33	205.97
427.52	145.11
427.71	177.88
427.90	203.63
428.09	208.31
428.28	140.43
428.46	121.71
428.65	187.24
428.84	217.67
429.03	182.56
429.22	191.92
429.40	215.33
429.59	133.41
429.78	229.37
429.97	187.24
430.16	220.01
430.34	135.75
430.53	147.45
430.72	180.22
430.91	222.35
431.10	91.28
431.28	131.07
431.47	173.20
431.66	238.73
431.85	175.54
432.03	168.52
432.22	191.92
432.41	191.92
432.60	234.05
432.79	222.35
432.97	304.27
433.16	332.36
433.35	224.69
433.54	212.99
433.72	180.22
433.91	196.60
434.10	95.96
434.28	250.44
434.47	236.39
434.66	299.59
434.85	180.22
435.03	224.69
435.22	430.66
435.41	489.17
435.59	442.36
435.78	393.21
435.97	290.23
436.16	257.46
436.34	154.48
436.53	241.08
436.72	205.97
436.90	133.41
437.09	152.13
437.28	163.84
437.46	166.18
437.65	217.67
437.84	173.20
438.02	229.37
438.21	252.78
438.40	159.16
438.58	194.26
438.77	152.13
438.96	170.86
439.14	161.50
439.33	201.29
439.52	74.90
439.70	142.77
439.89	236.39
440.08	124.05
440.26	217.67
440.45	196.60
440.63	220.01
440.82	170.86
441.01	163.84
441.19	163.84
441.38	175.54
441.57	191.92
441.75	243.42
441.94	208.31
442.12	189.58
442.31	180.22
442.50	191.92
442.68	135.75
442.87	159.16
443.05	117.03
443.24	227.03
443.43	149.79
443.61	220.01
443.80	168.52
443.98	182.56
444.17	182.56
444.35	177.88
444.54	177.88
444.73	142.77
444.91	156.82
445.10	198.95
445.28	138.09
445.47	177.88
445.65	243.42
445.84	135.75
446.02	156.82
446.21	194.26
446.39	173.20
446.58	224.69
446.77	166.18
446.95	231.71
447.14	184.90
447.32	173.20
447.51	229.37
447.69	170.86
447.88	117.03
448.06	210.65
448.25	187.24
448.43	154.48
448.62	212.99
448.80	196.60
448.99	154.48
449.17	170.86
449.36	236.39
449.54	264.48
449.73	187.24
449.91	222.35
450.10	114.69
450.28	241.08
450.46	257.46
450.65	220.01
450.83	210.65
451.02	161.50
451.20	168.52
451.39	196.60
451.57	173.20
451.76	215.33
451.94	112.35
452.13	220.01
452.31	245.76
452.49	243.42
452.68	257.46
452.86	135.75
453.05	257.46
453.23	159.16
453.42	196.60
453.60	191.92
453.78	259.80
453.97	175.54
454.15	220.01
454.34	229.37
454.52	212.99
454.70	212.99
454.89	196.60
455.07	187.24
455.26	217.67
455.44	241.08
455.62	170.86
455.81	283.20
455.99	241.08
456.17	198.95
456.36	163.84
456.54	196.60
456.73	124.05
456.91	168.52
457.09	210.65
457.28	318.31
457.46	135.75
457.64	245.76
457.83	189.58
458.01	187.24
458.19	257.46
458.38	198.95
458.56	88.94
458.74	147.45
458.93	182.56
459.11	191.92
459.29	168.52
459.48	198.95
459.66	269.16
459.84	215.33
460.03	276.18
460.21	238.73
460.39	161.50
460.57	222.35
460.76	187.24
460.94	208.31
461.12	234.05
461.31	187.24
461.49	187.24
461.67	201.29
461.85	210.65
462.04	161.50
462.22	683.44
462.40	266.82
462.59	156.82
462.77	175.54
462.95	198.95
463.13	159.16
463.32	248.10
463.50	205.97
463.68	215.33
463.86	191.92
464.05	117.03
464.23	236.39
464.41	210.65
464.59	163.84
464.78	222.35
464.96	212.99
465.14	198.95
465.32	177.88
465.50	231.71
465.69	276.18
465.87	194.26
466.05	276.18
466.23	215.33
466.41	198.95
466.60	215.33
466.78	184.90
466.96	238.73
467.14	168.52
467.32	196.60
467.51	177.88
467.69	215.33
467.87	187.24
468.05	236.39
468.23	222.35
468.41	234.05
468.60	154.48
468.78	203.63
468.96	168.52
469.14	121.71
469.32	184.90
469.50	201.29
469.69	135.75
469.87	297.25
470.05	196.60
470.23	259.80
470.41	250.44
470.59	161.50
470.77	152.13
470.95	215.33
471.14	98.30
471.32	170.86
471.50	243.42
471.68	222.35
471.86	227.03
472.04	234.05
472.22	264.48
472.40	208.31
472.58	259.80
472.77	201.29
472.95	124.05
473.13	201.29
473.31	173.20
473.49	205.97
473.67	156.82
473.85	205.97
474.03	243.42
474.21	173.20
474.39	220.01
474.57	250.44
474.75	262.14
474.93	131.07
475.12	159.16
475.30	131.07
475.48	205.97
475.66	203.63
475.84	142.77
476.02	147.45
476.20	229.37
476.38	234.05
476.56	306.61
476.74	128.73
476.92	196.60
477.10	205.97
477.28	222.35
477.46	168.52
477.64	217.67
477.82	196.60
478.00	196.60
478.18	257.46
478.36	217.67
478.54	152.13
478.72	201.29
478.90	145.11
479.08	229.37
479.26	220.01
479.44	208.31
479.62	245.76
479.80	187.24
479.98	205.97
480.16	124.05
480.34	299.59
480.52	257.46
480.70	194.26
480.88	177.88
481.06	142.77
481.24	222.35
481.41	271.50
481.59	229.37
481.77	273.84
481.95	227.03
482.13	234.05
482.31	299.59
482.49	163.84
482.67	212.99
482.85	264.48
483.03	222.35
483.21	245.76
483.39	140.43
483.57	334.70
483.74	252.78
483.92	217.67
484.10	234.05
484.28	238.73
484.46	276.18
484.64	154.48
484.82	283.20
485.00	264.48
485.18	264.48
485.35	187.24
485.53	189.58
485.71	222.35
485.89	215.33
486.07	292.57
486.25	339.38
486.43	250.44
486.61	264.48
486.78	201.29
486.96	175.54
487.14	182.56
487.32	224.69
487.50	245.76
487.68	215.33
487.85	166.18
488.03	318.31
488.21	304.27
488.39	212.99
488.57	245.76
488.75	234.05
488.92	433.00
489.10	290.23
489.28	283.20
489.46	238.73
489.64	184.90
489.81	210.65
489.99	283.20
490.17	168.52
490.35	334.70
490.53	196.60
490.70	285.55
490.88	264.48
491.06	220.01
491.24	248.10
491.41	369.80
491.59	325.33
491.77	196.60
491.95	205.97
492.13	257.46
492.30	231.71
492.48	198.95
492.66	276.18
492.84	266.82
493.01	271.50
493.19	205.97
493.37	297.25
493.54	297.25
493.72	299.59
493.90	166.18
494.08	297.25
494.25	182.56
494.43	257.46
494.61	297.25
494.79	189.58
494.96	203.63
495.14	299.59
495.32	170.86
495.49	266.82
495.67	276.18
495.85	184.90
496.02	285.55
496.20	294.91
496.38	297.25
496.55	234.05
496.73	287.89
496.91	315.97
497.09	304.27
497.26	182.56
497.44	245.76
497.62	266.82
497.79	255.12
497.97	292.57
498.14	262.14
498.32	297.25
498.50	227.03
498.67	252.78
498.85	287.89
499.03	238.73
499.20	285.55
499.38	290.23
499.56	201.29
499.73	278.52
499.91	290.23
500.08	243.42
500.26	287.89
500.44	217.67
500.61	187.24
500.79	255.12
500.97	262.14
501.14	205.97
501.32	241.08
501.49	255.12
501.67	269.16
501.84	273.84
502.02	224.69
502.20	215.33
502.37	280.86
502.55	210.65
502.72	229.37
502.90	266.82
503.07	238.73
503.25	264.48
503.43	224.69
503.60	280.86
503.78	234.05
503.95	212.99
504.13	236.39
504.30	227.03
504.48	257.46
504.65	292.57
504.83	294.91
505.01	231.71
505.18	266.82
505.36	241.08
505.53	264.48
505.71	208.31
505.88	311.29
506.06	313.63
506.23	203.63
506.41	184.90
506.58	257.46
506.76	159.16
506.93	257.46
507.11	264.48
507.28	177.88
507.46	250.44
507.63	292.57
507.81	332.36
507.98	290.23
508.16	198.95
508.33	276.18
508.50	255.12
508.68	217.67
508.85	147.45
509.03	224.69
509.20	250.44
509.38	271.50
509.55	297.25
509.73	236.39
509.90	283.20
510.08	166.18
510.25	271.50
510.42	332.36
510.60	308.95
510.77	234.05
510.95	241.08
511.12	304.27
511.30	318.31
511.47	311.29
511.64	332.36
511.82	245.76
511.99	276.18
512.17	210.65
512.34	250.44
512.51	238.73
512.69	241.08
512.86	231.71
513.04	222.35
513.21	250.44
513.38	217.67
513.56	182.56
513.73	299.59
513.90	248.10
514.08	208.31
514.25	269.16
514.43	285.55
514.60	292.57
514.77	243.42
514.95	222.35
515.12	320.65
515.29	280.86
515.47	315.97
515.64	229.37
515.81	224.69
515.99	372.15
516.16	294.91
516.33	301.93
516.51	220.01
516.68	269.16
516.85	262.14
517.03	205.97
517.20	243.42
517.37	243.42
517.54	264.48
517.72	259.80
517.89	212.99
518.06	224.69
518.24	287.89
518.41	325.33
518.58	294.91
518.75	273.84
518.93	313.63
519.10	173.20
519.27	248.10
519.45	285.55
519.62	250.44
519.79	346.40
519.96	276.18
520.14	224.69
520.31	283.20
520.48	278.52
520.65	280.86
520.83	280.86
521.00	315.97
521.17	271.50
521.34	248.10
521.52	341.72
521.69	208.31
521.86	301.93
522.03	231.71
522.20	266.82
522.38	294.91
522.55	292.57
522.72	215.33
522.89	278.52
523.07	278.52
523.24	273.84
523.41	201.29
523.58	255.12
523.75	294.91
523.92	269.16
524.10	252.78
524.27	276.18
524.44	220.01
524.61	339.38
524.78	301.93
524.96	299.59
525.13	304.27
525.30	337.04
525.47	243.42
525.64	301.93
525.81	224.69
525.98	227.03
526.16	266.82
526.33	248.10
526.50	187.24
526.67	205.97
526.84	252.78
527.01	227.03
527.18	278.52
527.36	257.46
527.53	163.84
527.70	276.18
527.87	308.95
528.04	383.85
528.21	346.40
528.38	271.50
528.55	276.18
528.72	315.97
528.89	280.86
529.07	248.10
529.24	231.71
529.41	255.12
529.58	229.37
529.75	313.63
529.92	231.71
530.09	241.08
530.26	259.80
530.43	332.36
530.60	255.12
530.77	308.95
530.94	276.18
531.11	308.95
531.28	259.80
531.46	238.73
531.63	257.46
531.80	348.74
531.97	407.25
532.14	271.50
532.31	269.16
532.48	299.59
532.65	248.10
532.82	344.06
532.99	393.21
533.16	358.10
533.33	374.49
533.50	238.73
533.67	339.38
533.84	458.74
534.01	402.57
534.18	341.72
534.35	358.10
534.52	257.46
534.69	273.84
534.86	344.06
535.03	315.97
535.20	294.91
535.37	334.70
535.54	304.27
535.71	231.71
535.88	266.82
536.05	217.67
536.22	313.63
536.38	229.37
536.55	353.42
536.72	241.08
536.89	369.80
537.06	252.78
537.23	299.59
537.40	322.99
537.57	341.72
537.74	334.70
537.91	327.68
538.08	283.20
538.25	332.36
538.42	304.27
538.59	315.97
538.75	292.57
538.92	381.51
539.09	266.82
539.26	397.89
539.43	512.58
539.60	1064.94
539.77	1617.31
539.94	1390.28
540.11	1097.71
540.28	833.23
540.44	627.26
540.61	491.51
540.78	421.30
540.95	528.96
541.12	580.45
541.29	606.20
541.46	723.23
541.62	650.67
541.79	585.13
541.96	585.13
542.13	575.77
542.30	599.18
542.47	505.56
542.63	507.90
542.80	547.69
542.97	517.26
543.14	510.24
543.31	550.03
543.48	489.17
543.64	528.96
543.81	521.94
543.98	514.92
544.15	491.51
544.32	533.64
544.48	571.09
544.65	510.24
544.82	519.60
544.99	517.26
545.16	517.26
545.32	587.47
545.49	772.38
545.66	987.71
545.83	1111.75
546.00	1062.60
546.16	758.33
546.33	653.01
546.50	543.00
546.67	461.09
546.83	582.79
547.00	411.93
547.17	404.91
547.34	472.79
547.50	386.19
547.67	454.06
547.84	414.27
548.00	479.81
548.17	358.10
548.34	379.17
548.51	315.97
548.67	421.30
548.84	393.21
549.01	367.46
549.18	418.96
549.34	383.85
549.51	440.02
549.68	355.76
549.84	386.19
550.01	369.80
550.18	433.00
550.34	433.00
550.51	418.96
550.68	369.80
550.84	334.70
551.01	334.70
551.18	334.70
551.34	344.06
551.51	313.63
551.68	215.33
551.84	351.08
552.01	290.23
552.18	229.37
552.34	238.73
552.51	297.25
552.68	278.52
552.84	308.95
553.01	360.44
553.18	304.27
553.34	355.76
553.51	320.65
553.67	257.46
553.84	355.76
554.01	318.31
554.17	325.33
554.34	306.61
554.51	250.44
554.67	313.63
554.84	280.86
555.00	271.50
555.17	280.86
555.33	189.58
555.50	243.42
555.67	308.95
555.83	266.82
556.00	308.95
556.16	456.40
556.33	285.55
556.50	245.76
556.66	332.36
556.83	229.37
556.99	229.37
557.16	217.67
557.32	306.61
557.49	243.42
557.65	248.10
557.82	217.67
557.98	238.73
558.15	271.50
558.32	341.72
558.48	220.01
558.65	208.31
558.81	311.29
558.98	220.01
559.14	330.02
559.31	301.93
559.47	266.82
559.64	276.18
559.80	283.20
559.97	276.18
560.13	327.68
560.30	315.97
560.46	255.12
560.63	245.76
560.79	250.44
560.96	278.52
561.12	227.03
561.29	311.29
561.45	283.20
561.61	245.76
561.78	318.31
561.94	299.59
562.11	278.52
562.27	201.29
562.44	208.31
562.60	330.02
562.77	308.95
562.93	262.14
563.10	278.52
563.26	257.46
563.42	287.89
563.59	402.57
563.75	212.99
563.92	327.68
564.08	294.91
564.24	243.42
564.41	294.91
564.57	297.25
564.74	285.55
564.90	283.20
565.07	311.29
565.23	294.91
565.39	287.89
565.56	327.68
565.72	243.42
565.88	283.20
566.05	304.27
566.21	308.95
566.38	301.93
566.54	299.59
566.70	215.33
566.87	243.42
567.03	257.46
567.19	238.73
567.36	299.59
567.52	304.27
567.68	297.25
567.85	308.95
568.01	266.82
568.17	187.24
568.34	250.44
568.50	346.40
568.66	285.55
568.83	332.36
568.99	337.04
569.15	311.29
569.32	217.67
569.48	245.76
569.64	290.23
569.81	308.95
569.97	285.55
570.13	278.52
570.30	318.31
570.46	238.73
570.62	259.80
570.78	159.16
570.95	255.12
571.11	294.91
571.27	217.67
571.43	194.26
571.60	257.46
571.76	290.23
571.92	299.59
572.09	332.36
572.25	292.57
572.41	257.46
572.57	264.48
572.74	280.86
572.90	236.39
573.06	252.78
573.22	374.49
573.38	255.12
573.55	325.33
573.71	313.63
573.87	234.05
574.03	269.16
574.20	266.82
574.36	367.46
574.52	414.27
574.68	351.08
574.84	322.99
575.01	308.95
575.17	294.91
575.33	285.55
575.49	262.14
575.65	367.46
575.82	327.68
575.98	554.71
576.14	638.97
576.30	751.31
576.46	582.79
576.62	519.60
576.79	571.09
576.95	475.13
577.11	334.70
577.27	327.68
577.43	341.72
577.59	369.80
577.75	327.68
577.92	222.35
578.08	346.40
578.24	315.97
578.40	278.52
578.56	447.04
578.72	475.13
578.88	437.68
579.04	484.49
579.21	402.57
579.37	322.99
579.53	416.62
579.69	414.27
579.85	386.19
580.01	444.70
580.17	404.91
580.33	444.70
580.49	458.74
580.65	390.87
580.82	367.46
580.98	423.64
581.14	325.33
581.30	386.19
581.46	475.13
581.62	547.69
581.78	627.26
581.94	627.26
582.10	505.56
582.26	543.00
582.42	477.47
582.58	559.39
582.74	482.15
582.90	456.40
583.06	561.73
583.22	498.53
583.38	482.15
583.54	594.50
583.70	641.31
583.86	627.26
584.02	791.10
584.18	983.02
584.34	1146.86
584.50	2740.77
584.66	20748.85
584.82	52044.15
584.98	61759.72
585.14	58183.38
585.30	41977.51
585.46	25280.13
585.62	15992.88
585.78	7375.03
585.94	3066.10
586.10	1563.48
586.26	976.00
586.42	837.91
586.58	758.33
586.74	739.61
586.90	674.07
587.06	709.18
587.22	702.16
587.38	547.69
587.54	1181.97
587.70	3162.06
587.86	5076.62
588.02	5495.58
588.18	3962.53
588.34	2511.39
588.49	1680.50
588.65	1158.57
588.81	662.37
588.97	545.34
589.13	444.70
589.29	337.04
589.45	360.44
589.61	374.49
589.77	458.74
589.93	496.19
590.08	526.62
590.24	465.77
590.40	454.06
590.56	519.60
590.72	425.98
590.88	421.30
591.04	402.57
591.20	383.85
591.35	404.91
591.51	388.53
591.67	430.66
591.83	390.87
591.99	393.21
592.15	390.87
592.31	355.76
592.46	376.83
592.62	451.72
592.78	381.51
592.94	351.08
593.10	437.68
593.26	437.68
593.41	425.98
593.57	456.40
593.73	711.52
593.89	2717.36
594.05	6700.95
594.20	9448.74
594.36	8791.05
594.52	5846.66
594.68	3775.28
594.84	2579.27
594.99	1455.81
595.15	861.32
595.31	477.47
595.47	496.19
595.62	386.19
595.78	372.15
595.94	348.74
596.10	454.06
596.25	425.98
596.41	407.25
596.57	418.96
596.73	362.78
596.88	550.03
597.04	1327.08
597.20	2052.65
597.36	2438.84
597.51	1774.13
597.67	1277.93
597.83	908.13
597.99	660.03
598.14	472.79
598.30	435.34
598.46	414.27
598.61	395.55
598.77	451.72
598.93	388.53
599.09	327.68
599.24	337.04
599.40	414.27
599.56	360.44
599.71	365.12
599.87	292.57
600.03	330.02
600.18	315.97
600.34	294.91
600.50	262.14
600.65	262.14
600.81	313.63
600.97	266.82
601.12	301.93
601.28	292.57
601.44	388.53
601.59	285.55
601.75	266.82
601.91	388.53
602.06	299.59
602.22	358.10
602.37	662.37
602.53	1626.67
602.69	2279.68
602.84	2455.22
603.00	1881.79
603.16	1359.85
603.31	983.02
603.47	734.93
603.62	409.59
603.78	372.15
603.94	348.74
604.09	292.57
604.25	313.63
604.40	416.62
604.56	304.27
604.71	374.49
604.87	346.40
605.03	245.76
605.18	325.33
605.34	360.44
605.49	369.80
605.65	348.74
605.80	334.70
605.96	351.08
606.12	418.96
606.27	400.23
606.43	337.04
606.58	440.02
606.74	821.53
606.89	3082.49
607.05	6293.70
607.20	8175.49
607.36	6672.87
607.51	4688.09
607.67	3061.42
607.82	2153.29
607.98	1238.14
608.13	725.57
608.29	503.22
608.44	498.53
608.60	554.71
608.75	526.62
608.91	1170.27
609.06	4849.59
609.22	10527.73
609.37	13930.87
609.53	12280.79
609.68	8482.10
609.84	5570.48
609.99	3681.66
