SpectraSuite Data File
++++++++++++++++++++++++++++++++++++
Date: Fri Oct 04 12:14:19 GMT-05:00 2013
User: price-jones
Dark Spectrum Present: No
Reference Spectrum Present: No
Number of Sampled Component Spectra: 1
Spectrometers: USB2+H05261
Integration Time (usec): 1000000 (USB2+H05261)
Spectra Averaged: 1 (USB2+H05261)
Boxcar Smoothing: 0 (USB2+H05261)
Correct for Electrical Dark: No (USB2+H05261)
Strobe/Lamp Enabled: No (USB2+H05261)
Correct for Detector Non-linearity: No (USB2+H05261)
Correct for Stray Light: No (USB2+H05261)
Number of Pixels in Processed Spectrum: 2048
>>>>>Begin Processed Spectral Data<<<<<
365.73	0.00
365.92	0.00
366.12	0.00
366.32	0.00
366.52	0.00
366.72	332.36
366.91	114.69
367.11	353.42
367.31	243.42
367.51	304.27
367.70	414.27
367.90	531.30
368.10	390.87
368.30	273.84
368.49	131.07
368.69	372.15
368.89	271.50
369.09	119.37
369.28	311.29
369.48	159.16
369.68	264.48
369.87	332.36
370.07	255.12
370.27	622.58
370.47	362.78
370.66	243.42
370.86	510.24
371.06	772.38
371.25	938.55
371.45	402.57
371.65	727.91
371.84	311.29
372.04	287.89
372.24	545.34
372.44	484.49
372.63	528.96
372.83	837.91
373.03	470.45
373.22	367.46
373.42	433.00
373.62	550.03
373.81	538.32
374.01	702.16
374.21	610.88
374.40	477.47
374.60	800.46
374.79	608.54
374.99	486.83
375.19	580.45
375.38	622.58
375.58	444.70
375.78	606.20
375.97	641.31
376.17	912.81
376.37	479.81
376.56	559.39
376.76	442.36
376.95	407.25
377.15	575.77
377.35	615.56
377.54	547.69
377.74	421.30
377.93	372.15
378.13	582.79
378.33	709.18
378.52	535.98
378.72	690.46
378.91	610.88
379.11	362.78
379.31	374.49
379.50	322.99
379.70	732.59
379.89	648.33
380.09	440.02
380.28	393.21
380.48	500.87
380.68	353.42
380.87	297.25
381.07	559.39
381.26	737.27
381.46	650.67
381.65	608.54
381.85	409.59
382.04	397.89
382.24	514.92
382.43	479.81
382.63	383.85
382.83	395.55
383.02	645.99
383.22	734.93
383.41	376.83
383.61	430.66
383.80	327.68
384.00	440.02
384.19	468.11
384.39	521.94
384.58	470.45
384.78	660.03
384.97	472.79
385.17	512.58
385.36	475.13
385.56	720.88
385.75	372.15
385.95	435.34
386.14	653.01
386.34	440.02
386.53	568.75
386.72	416.62
386.92	741.95
387.11	587.47
387.31	601.52
387.50	386.19
387.70	379.17
387.89	491.51
388.09	308.95
388.28	355.76
388.48	421.30
388.67	688.12
388.86	477.47
389.06	393.21
389.25	634.29
389.45	491.51
389.64	540.66
389.84	730.25
390.03	596.84
390.22	568.75
390.42	510.24
390.61	301.93
390.81	327.68
391.00	451.72
391.19	779.40
391.39	524.28
391.58	615.56
391.78	475.13
391.97	524.28
392.16	337.04
392.36	798.12
392.55	683.44
392.75	538.32
392.94	360.44
393.13	610.88
393.33	374.49
393.52	451.72
393.71	866.00
393.91	596.84
394.10	355.76
394.29	524.28
394.49	425.98
394.68	610.88
394.88	688.12
395.07	690.46
395.26	564.07
395.46	535.98
395.65	765.36
395.84	613.22
396.04	1191.33
396.23	521.94
396.42	358.10
396.62	566.41
396.81	531.30
397.00	510.24
397.19	557.05
397.39	472.79
397.58	784.08
397.77	496.19
397.97	571.09
398.16	561.73
398.35	709.18
398.55	458.74
398.74	596.84
398.93	830.89
399.12	514.92
399.32	730.25
399.51	517.26
399.70	601.52
399.90	594.50
400.09	573.43
400.28	793.44
400.47	575.77
400.67	772.38
400.86	641.31
401.05	638.97
401.24	718.54
401.44	650.67
401.63	727.91
401.82	753.65
402.01	496.19
402.21	653.01
402.40	575.77
402.59	521.94
402.78	521.94
402.97	596.84
403.17	603.86
403.36	650.67
403.55	547.69
403.74	535.98
403.93	524.28
404.13	819.19
404.32	486.83
404.51	538.32
404.70	669.39
404.89	540.66
405.09	954.94
405.28	568.75
405.47	418.96
405.66	655.35
405.85	795.78
406.05	620.24
406.24	564.07
406.43	648.33
406.62	683.44
406.81	1025.15
407.00	840.25
407.20	634.29
407.39	519.60
407.58	575.77
407.77	704.50
407.96	919.83
408.15	709.18
408.34	755.99
408.54	631.94
408.73	676.41
408.92	620.24
409.11	718.54
409.30	910.47
409.49	535.98
409.68	538.32
409.87	528.96
410.07	489.17
410.26	634.29
410.45	641.31
410.64	505.56
410.83	617.90
411.02	620.24
411.21	739.61
411.40	821.53
411.59	648.33
411.78	557.05
411.98	664.71
412.17	493.85
412.36	613.22
412.55	585.13
412.74	802.80
412.93	1064.94
413.12	622.58
413.31	898.77
413.50	800.46
413.69	657.69
413.88	968.98
414.07	727.91
414.26	664.71
414.45	592.16
414.64	842.59
414.83	842.59
415.02	758.33
415.22	798.12
415.41	961.96
415.60	596.84
415.79	692.80
415.98	973.66
416.17	734.93
416.36	734.93
416.55	594.50
416.74	814.51
416.93	936.21
417.12	667.05
417.31	606.20
417.50	631.94
417.69	1146.86
417.88	702.16
418.07	634.29
418.26	660.03
418.45	622.58
418.64	1029.84
418.83	779.40
419.02	798.12
419.21	706.84
419.39	704.50
419.58	624.92
419.77	533.64
419.96	868.34
420.15	954.94
420.34	699.82
420.53	777.06
420.72	931.53
420.91	716.20
421.10	657.69
421.29	678.76
421.48	807.48
421.67	896.43
421.86	601.52
422.05	653.01
422.24	681.10
422.43	720.88
422.61	557.05
422.80	737.27
422.99	725.57
423.18	613.22
423.37	1018.13
423.56	795.78
423.75	903.45
423.94	599.18
424.13	699.82
424.32	578.11
424.50	641.31
424.69	702.16
424.88	999.41
425.07	608.54
425.26	805.14
425.45	851.96
425.64	610.88
425.83	692.80
426.01	1025.15
426.20	809.83
426.39	765.36
426.58	641.31
426.77	720.88
426.96	894.08
427.15	753.65
427.33	615.56
427.52	709.18
427.71	770.04
427.90	795.78
428.09	578.11
428.28	547.69
428.46	706.84
428.65	901.11
428.84	856.64
429.03	1018.13
429.22	685.78
429.40	531.30
429.59	547.69
429.78	1121.12
429.97	702.16
430.16	503.22
430.34	678.76
430.53	664.71
430.72	695.14
430.91	821.53
431.10	571.09
431.28	741.95
431.47	851.96
431.66	915.15
431.85	737.27
432.03	774.72
432.22	1205.38
432.41	671.73
432.60	992.39
432.79	650.67
432.97	837.91
433.16	704.50
433.35	634.29
433.54	641.31
433.72	788.76
433.91	842.59
434.10	650.67
434.28	807.48
434.47	678.76
434.66	901.11
434.85	734.93
435.03	805.14
435.22	1198.35
435.41	1139.84
435.59	924.51
435.78	835.57
435.97	685.78
436.16	1013.45
436.34	772.38
436.53	842.59
436.72	1055.58
436.90	936.21
437.09	833.23
437.28	837.91
437.46	788.76
437.65	912.81
437.84	931.53
438.02	884.72
438.21	877.70
438.40	713.86
438.58	657.69
438.77	770.04
438.96	861.32
439.14	622.58
439.33	990.05
439.52	784.08
439.70	730.25
439.89	922.17
440.08	798.12
440.26	837.91
440.45	1034.52
440.63	971.32
440.82	884.72
441.01	926.85
441.19	849.61
441.38	753.65
441.57	753.65
441.75	1104.73
441.94	1135.16
442.12	877.70
442.31	854.30
442.50	746.63
442.68	763.01
442.87	966.64
443.05	854.30
443.24	938.55
443.43	1160.91
443.61	1196.01
443.80	912.81
443.98	814.51
444.17	784.08
444.35	1062.60
444.54	828.55
444.73	830.89
444.91	1118.78
445.10	681.10
445.28	744.29
445.47	889.40
445.65	851.96
445.84	779.40
446.02	875.36
446.21	870.68
446.39	861.32
446.58	980.68
446.77	837.91
446.95	901.11
447.14	1004.09
447.32	1104.73
447.51	905.79
447.69	947.92
447.88	931.53
448.06	1261.55
448.25	1015.79
448.43	812.17
448.62	767.70
448.80	985.37
448.99	1086.01
449.17	861.32
449.36	725.57
449.54	1027.50
449.73	774.72
449.91	1074.31
450.10	889.40
450.28	1437.09
450.46	1299.00
450.65	1097.71
450.83	997.07
451.02	926.85
451.20	959.62
451.39	924.51
451.57	912.81
451.76	896.43
451.94	905.79
452.13	1015.79
452.31	1064.94
452.49	957.28
452.68	807.48
452.86	964.30
453.05	1284.95
453.23	929.19
453.42	798.12
453.60	926.85
453.78	987.71
453.97	784.08
454.15	739.61
454.34	898.77
454.52	870.68
454.70	1275.59
454.89	1057.92
455.07	854.30
455.26	1039.20
455.44	1118.78
455.62	964.30
455.81	947.92
455.99	1071.97
456.17	1102.39
456.36	983.02
456.54	840.25
456.73	882.38
456.91	922.17
457.09	1027.50
457.28	1160.91
457.46	957.28
457.64	1067.28
457.83	903.45
458.01	770.04
458.19	1001.75
458.38	842.59
458.56	1102.39
458.74	774.72
458.93	1008.77
459.11	952.60
459.29	882.38
459.48	1041.54
459.66	1355.17
459.84	1097.71
460.03	1689.87
460.21	1165.59
460.39	931.53
460.57	1247.51
460.76	1034.52
460.94	961.96
461.12	1390.28
461.31	1303.68
461.49	926.85
461.67	891.74
461.85	1011.11
462.04	973.66
462.22	5832.62
462.40	1320.06
462.59	1221.76
462.77	933.87
462.95	1086.01
463.13	779.40
463.32	1170.27
463.50	1039.20
463.68	961.96
463.86	1064.94
464.05	940.90
464.23	1200.69
464.41	1142.18
464.59	856.64
464.78	933.87
464.96	840.25
465.14	973.66
465.32	889.40
465.50	1095.37
465.69	1107.07
465.87	854.30
466.05	1064.94
466.23	779.40
466.41	861.32
466.60	1027.50
466.78	1041.54
466.96	1242.82
467.14	1034.52
467.32	1184.31
467.51	1137.50
467.69	1076.65
467.87	1287.29
468.05	983.02
468.23	1423.05
468.41	1191.33
468.60	908.13
468.78	1011.11
468.96	1198.35
469.14	1074.31
469.32	877.70
469.50	826.21
469.69	1062.60
469.87	1015.79
470.05	894.08
470.23	992.39
470.41	891.74
470.59	910.47
470.77	1050.90
470.95	940.90
471.14	1235.80
471.32	1041.54
471.50	1345.81
471.68	999.41
471.86	1111.75
472.04	901.11
472.22	1156.22
472.40	851.96
472.58	896.43
472.77	779.40
472.95	1025.15
473.13	1371.55
473.31	1296.66
473.49	870.68
473.67	910.47
473.85	1196.01
474.03	1130.48
474.21	1018.13
474.39	1263.89
474.57	1441.77
474.75	1181.97
474.93	1029.84
475.12	840.25
475.30	983.02
475.48	1128.14
475.66	983.02
475.84	999.41
476.02	1053.24
476.20	1188.99
476.38	1081.33
476.56	1652.42
476.74	1097.71
476.92	1062.60
477.10	964.30
477.28	1210.06
477.46	1004.09
477.64	1233.46
477.82	1081.33
478.00	1041.54
478.18	1081.33
478.36	1048.56
478.54	952.60
478.72	1001.75
478.90	1177.29
479.08	1186.65
479.26	1121.12
479.44	1020.47
479.62	1015.79
479.80	1055.58
479.98	997.07
480.16	1027.50
480.34	1301.34
480.52	1001.75
480.70	1221.76
480.88	1020.47
481.06	952.60
481.24	1149.20
481.41	1125.80
481.59	1252.19
481.77	1226.44
481.95	1174.95
482.13	1469.86
482.31	1259.21
482.49	1226.44
482.67	1280.27
482.85	1345.81
483.03	1341.13
483.21	1231.12
483.39	1207.72
483.57	1203.04
483.74	1565.82
483.92	1139.84
484.10	1067.28
484.28	1369.21
484.46	1767.10
484.64	1224.10
484.82	1217.08
485.00	1174.95
485.18	1207.72
485.35	1240.48
485.53	938.55
485.71	1334.11
485.89	866.00
486.07	1032.18
486.25	1713.27
486.43	1263.89
486.61	1306.02
486.78	1317.72
486.96	1067.28
487.14	1153.88
487.32	1188.99
487.50	1221.76
487.68	1451.13
487.85	1268.57
488.03	1334.11
488.21	1664.12
488.39	1163.25
488.57	1434.75
488.75	1137.50
488.92	4009.34
489.10	1416.02
489.28	1799.87
489.46	1310.70
489.64	1387.94
489.81	1364.53
489.99	1479.22
490.17	1275.59
490.35	1942.64
490.53	1387.94
490.70	1294.32
490.88	1486.24
491.06	1306.02
491.24	1523.69
491.41	1717.95
491.59	1472.20
491.77	1165.59
491.95	1284.95
492.13	1207.72
492.30	1413.68
492.48	1294.32
492.66	1472.20
492.84	1352.83
493.01	1490.92
493.19	1291.98
493.37	1755.40
493.54	1572.84
493.72	1490.92
493.90	1357.51
494.08	1413.68
494.25	1624.33
494.43	1607.95
494.61	1416.02
494.79	1327.08
494.96	1387.94
495.14	1483.90
495.32	1437.09
495.49	1556.46
495.67	1540.07
495.85	1432.41
496.02	1369.21
496.20	1633.69
496.38	1643.06
496.55	1523.69
496.73	1572.84
496.91	1460.49
497.09	1668.80
497.26	1535.39
497.44	1516.67
497.62	1444.11
497.79	1495.60
497.97	1549.43
498.14	1638.38
498.32	1598.59
498.50	1713.27
498.67	1371.55
498.85	1572.84
499.03	1479.22
499.20	1483.90
499.38	1502.62
499.56	1521.35
499.73	1933.28
499.91	1755.40
500.08	1689.87
500.26	1516.67
500.44	1376.24
500.61	1603.27
500.79	1486.24
500.97	1650.08
501.14	1732.00
501.32	1511.99
501.49	1799.87
501.67	1500.28
501.84	1572.84
502.02	1348.15
502.20	1832.64
502.37	1734.34
502.55	1565.82
502.72	1540.07
502.90	1650.08
503.07	1614.97
503.25	1547.09
503.43	1308.36
503.60	1444.11
503.78	1575.18
503.95	1526.03
504.13	1397.30
504.30	1727.32
504.48	1788.17
504.65	1802.21
504.83	1767.10
505.01	1591.56
505.18	1755.40
505.36	1657.10
505.53	1558.80
505.71	1542.41
505.88	1909.88
506.06	1572.84
506.23	1521.35
506.41	1549.43
506.58	1645.40
506.76	1584.54
506.93	1497.94
507.11	1666.46
507.28	1528.37
507.46	1584.54
507.63	1682.85
507.81	1430.07
507.98	1568.16
508.16	1638.38
508.33	1596.25
508.50	1732.00
508.68	1598.59
508.85	1715.61
509.03	1507.30
509.20	1591.56
509.38	1706.25
509.55	1879.45
509.73	1863.07
509.90	1888.81
510.08	1504.96
510.25	1809.23
510.42	1570.50
510.60	1722.63
510.77	1879.45
510.95	1874.77
511.12	1652.42
511.30	1774.13
511.47	1837.32
511.64	2078.40
511.82	1633.69
511.99	1612.63
512.17	1610.29
512.34	1462.83
512.51	1584.54
512.69	1465.18
512.86	1961.37
513.04	1568.16
513.21	1739.02
513.38	1549.43
513.56	1640.72
513.73	1523.69
513.90	1481.56
514.08	1399.64
514.25	1703.91
514.43	1682.85
514.60	1448.79
514.77	1652.42
514.95	1694.55
515.12	1591.56
515.29	1809.23
515.47	1722.63
515.64	1657.10
515.81	1523.69
515.99	1928.60
516.16	1666.46
516.33	1767.10
516.51	1416.02
516.68	1341.13
516.85	1472.20
517.03	1476.88
517.20	1643.06
517.37	1771.79
517.54	1682.85
517.72	1617.31
517.89	1320.06
518.06	1397.30
518.24	1994.14
518.41	2033.93
518.58	1771.79
518.75	1493.26
518.93	1687.53
519.10	1643.06
519.27	1582.20
519.45	1638.38
519.62	1739.02
519.79	1792.85
519.96	1554.12
520.14	1713.27
520.31	1928.60
520.48	1668.80
520.65	1689.87
520.83	1816.26
521.00	1844.34
521.17	1792.85
521.34	1633.69
521.52	1750.72
521.69	1720.29
521.86	1598.59
522.03	1783.49
522.20	2111.16
522.38	1715.61
522.55	1570.50
522.72	1481.56
522.89	1980.09
523.07	2225.85
523.24	1905.20
523.41	1767.10
523.58	1605.61
523.75	1666.46
523.92	1685.19
524.10	1884.13
524.27	1717.95
524.44	1673.48
524.61	1921.58
524.78	1706.25
524.96	1881.79
525.13	1717.95
525.30	1952.01
525.47	1966.05
525.64	1898.17
525.81	1736.68
525.98	1701.57
526.16	1603.27
526.33	1526.03
526.50	1481.56
526.67	1420.71
526.84	1437.09
527.01	1493.26
527.18	1837.32
527.36	1598.59
527.53	1650.08
527.70	1998.82
527.87	1687.53
528.04	2246.91
528.21	1596.25
528.38	1968.39
528.55	2005.84
528.72	2066.69
528.89	2183.72
529.07	1799.87
529.24	1769.44
529.41	2043.29
529.58	1762.42
529.75	1811.57
529.92	1891.15
530.09	1713.27
530.26	1846.68
530.43	1966.05
530.60	1767.10
530.77	1788.17
530.94	1944.99
531.11	1839.66
531.28	1673.48
531.46	1753.06
531.63	1724.97
531.80	1757.74
531.97	1849.02
532.14	1701.57
532.31	1788.17
532.48	1809.23
532.65	1762.42
532.82	1631.35
532.99	1680.50
533.16	1771.79
533.33	1788.17
533.50	1743.70
533.67	1715.61
533.84	1942.64
534.01	1849.02
534.18	1717.95
534.35	1724.97
534.52	1720.29
534.69	2193.08
534.86	1762.42
535.03	1710.93
535.20	1657.10
535.37	2120.53
535.54	1970.73
535.71	1762.42
535.88	2104.14
536.05	1713.27
536.22	1734.34
536.38	1619.65
536.55	1809.23
536.72	1912.22
536.89	1636.03
537.06	1664.12
537.23	1678.16
537.40	1741.36
537.57	1657.10
537.74	1863.07
537.91	1916.90
538.08	1757.74
538.25	1881.79
538.42	1671.14
538.59	1741.36
538.75	1764.76
538.92	1762.42
539.09	1949.67
539.26	1652.42
539.43	2172.02
539.60	1935.62
539.77	2062.01
539.94	1884.13
540.11	1952.01
540.28	2022.22
540.44	1996.48
540.61	1657.10
540.78	1579.86
540.95	1465.18
541.12	2069.03
541.29	1696.89
541.46	2033.93
541.62	1860.73
541.79	1600.93
541.96	1563.48
542.13	1643.06
542.30	1572.84
542.47	1954.35
542.63	1788.17
542.80	1724.97
542.97	1968.39
543.14	1689.87
543.31	1820.94
543.48	1591.56
543.64	1818.60
543.81	1783.49
543.98	1586.88
544.15	1537.73
544.32	1722.63
544.48	1664.12
544.65	1621.99
544.82	1605.61
544.99	1732.00
545.16	1895.83
545.32	1544.75
545.49	1736.68
545.66	1717.95
545.83	1715.61
546.00	1568.16
546.16	1680.50
546.33	1647.74
546.50	1741.36
546.67	1980.09
546.83	1886.47
547.00	1666.46
547.17	1530.71
547.34	1509.65
547.50	1739.02
547.67	1746.04
547.84	1533.05
548.00	1891.15
548.17	1570.50
548.34	1610.29
548.51	1984.77
548.67	1937.96
548.84	1652.42
549.01	1650.08
549.18	1764.76
549.34	1797.53
549.51	1767.10
549.68	1811.57
549.84	1757.74
550.01	1502.62
550.18	2700.98
550.34	2307.77
550.51	1748.38
550.68	2263.30
550.84	1671.14
551.01	1699.23
551.18	1902.86
551.34	1757.74
551.51	1703.91
551.68	1621.99
551.84	1884.13
552.01	1619.65
552.18	1570.50
552.34	1682.85
552.51	1657.10
552.68	1846.68
552.84	1575.18
553.01	1703.91
553.18	1905.20
553.34	1689.87
553.51	1572.84
553.67	1846.68
553.84	2099.46
554.01	1785.83
554.17	1767.10
554.34	1694.55
554.51	1820.94
554.67	2001.16
554.84	1778.81
555.00	1884.13
555.17	1757.74
555.33	1895.83
555.50	1797.53
555.67	1785.83
555.83	1533.05
556.00	1652.42
556.16	3234.62
556.33	1884.13
556.50	1516.67
556.66	1617.31
556.83	1523.69
556.99	1565.82
557.16	1703.91
557.32	1572.84
557.49	1476.88
557.65	1547.09
557.82	1497.94
557.98	1755.40
558.15	1465.18
558.32	1586.88
558.48	1535.39
558.65	1610.29
558.81	1837.32
558.98	1661.78
559.14	1799.87
559.31	1701.57
559.47	1863.07
559.64	1570.50
559.80	1797.53
559.97	1547.09
560.13	1652.42
560.30	1528.37
560.46	1547.09
560.63	1619.65
560.79	1746.04
560.96	1659.44
561.12	1511.99
561.29	1757.74
561.45	1603.27
561.61	1675.82
561.78	2382.67
561.94	1699.23
562.11	1495.60
562.27	1629.01
562.44	1343.47
562.60	1572.84
562.77	1544.75
562.93	2272.66
563.10	1678.16
563.26	1591.56
563.42	1863.07
563.59	1717.95
563.75	1526.03
563.92	1846.68
564.08	1647.74
564.24	1778.81
564.41	2005.84
564.57	1474.54
564.74	1507.30
564.90	1671.14
565.07	1849.02
565.23	1804.55
565.39	1488.58
565.56	1659.44
565.72	1568.16
565.88	1586.88
566.05	1540.07
566.21	1572.84
566.38	1715.61
566.54	1638.38
566.70	1636.03
566.87	1591.56
567.03	1514.33
567.19	1706.25
567.36	1614.97
567.52	1584.54
567.68	1699.23
567.85	1753.06
568.01	1582.20
568.17	1315.38
568.34	1430.07
568.50	1774.13
568.66	1336.45
568.83	2279.68
568.99	1565.82
569.15	1813.92
569.32	1507.30
569.48	1392.62
569.64	1416.02
569.81	1540.07
569.97	1448.79
570.13	1631.35
570.30	1540.07
570.46	1427.73
570.62	1565.82
570.78	1397.30
570.95	1357.51
571.11	1834.98
571.27	1884.13
571.43	1451.13
571.60	1621.99
571.76	1488.58
571.92	1537.73
572.09	1558.80
572.25	1490.92
572.41	1638.38
572.57	1511.99
572.74	1959.03
572.90	1795.19
573.06	1743.70
573.22	1689.87
573.38	1809.23
573.55	1722.63
573.71	1734.34
573.87	1706.25
574.03	1453.47
574.20	1511.99
574.36	1771.79
574.52	1404.32
574.68	1493.26
574.84	1694.55
575.01	1401.98
575.17	1675.82
575.33	1404.32
575.49	1799.87
575.65	1703.91
575.82	1736.68
575.98	2115.84
576.14	1514.33
576.30	1455.81
576.46	1462.83
576.62	1526.03
576.79	1708.59
576.95	1930.94
577.11	1430.07
577.27	1458.15
577.43	1748.38
577.59	1783.49
577.75	1596.25
577.92	1479.22
578.08	1479.22
578.24	1401.98
578.40	1732.00
578.56	1804.55
578.72	1839.66
578.88	1682.85
579.04	1554.12
579.21	1554.12
579.37	1556.46
579.53	1551.78
579.69	1788.17
579.85	1357.51
580.01	1636.03
580.17	1519.01
580.33	1495.60
580.49	1551.78
580.65	1645.40
580.82	1547.09
580.98	1336.45
581.14	1387.94
581.30	1713.27
581.46	1558.80
581.62	1778.81
581.78	1507.30
581.94	1664.12
582.10	1460.49
582.26	1465.18
582.42	1458.15
582.58	1755.40
582.74	1521.35
582.90	1746.04
583.06	1640.72
583.22	1596.25
583.38	1434.75
583.54	1453.47
583.70	1820.94
583.86	1678.16
584.02	1584.54
584.18	1853.70
584.34	1605.61
584.50	2284.36
584.66	6370.94
584.82	12772.30
584.98	16119.27
585.14	13432.33
585.30	9434.70
585.46	6443.49
585.62	4388.50
585.78	2906.95
585.94	2193.08
586.10	1664.12
586.26	1610.29
586.42	2019.88
586.58	1689.87
586.74	1399.64
586.90	1579.86
587.06	1685.19
587.22	1561.14
587.38	1394.96
587.54	1710.93
587.70	2354.58
587.86	2626.08
588.02	2282.02
588.18	2115.84
588.34	1895.83
588.49	1270.91
588.65	1383.26
588.81	1242.82
588.97	1118.78
589.13	1203.04
589.29	1289.64
589.45	1467.52
589.61	1390.28
589.77	1554.12
589.93	1280.27
590.08	1160.91
590.24	1310.70
590.40	1357.51
590.56	1481.56
590.72	1462.83
590.88	1221.76
591.04	1420.71
591.20	1294.32
591.35	1682.85
591.51	1313.04
591.67	1245.16
591.83	1287.29
591.99	1521.35
592.15	1600.93
592.31	1483.90
592.46	1366.87
592.62	1521.35
592.78	1221.76
592.94	1266.23
593.10	1177.29
593.26	1210.06
593.41	1451.13
593.57	1364.53
593.73	1338.79
593.89	2062.01
594.05	2712.68
594.20	3049.72
594.36	3103.55
594.52	2230.53
594.68	2029.24
594.84	1870.09
594.99	1888.81
595.15	1579.86
595.31	1603.27
595.47	1741.36
595.62	1369.21
595.78	1418.36
595.94	1514.33
596.10	1797.53
596.25	1486.24
596.41	1511.99
596.57	1121.12
596.73	1235.80
596.88	1451.13
597.04	1675.82
597.20	1636.03
597.36	1827.96
597.51	1643.06
597.67	1348.15
597.83	1448.79
597.99	1699.23
598.14	1486.24
598.30	1647.74
598.46	1357.51
598.61	1638.38
598.77	1507.30
598.93	1203.04
599.09	1423.05
599.24	1565.82
599.40	1638.38
599.56	1399.64
599.71	1420.71
599.87	1376.24
600.03	1507.30
600.18	1394.96
600.34	1504.96
600.50	1362.19
600.65	1329.42
600.81	1591.56
600.97	1352.83
