SpectraSuite Data File
++++++++++++++++++++++++++++++++++++
Date: Fri Oct 04 11:33:57 GMT-05:00 2013
User: price-jones
Dark Spectrum Present: No
Reference Spectrum Present: No
Number of Sampled Component Spectra: 1
Spectrometers: USB2+H05261
Integration Time (usec): 100000 (USB2+H05261)
Spectra Averaged: 1 (USB2+H05261)
Boxcar Smoothing: 0 (USB2+H05261)
Correct for Electrical Dark: No (USB2+H05261)
Strobe/Lamp Enabled: No (USB2+H05261)
Correct for Detector Non-linearity: No (USB2+H05261)
Correct for Stray Light: No (USB2+H05261)
Number of Pixels in Processed Spectrum: 2048
>>>>>Begin Processed Spectral Data<<<<<
365.73	166.18
365.92	166.18
366.12	166.18
366.32	16.38
366.52	0.00
366.72	0.00
366.91	0.00
367.11	0.00
367.31	14.04
367.51	0.00
367.70	0.00
367.90	0.00
368.10	0.00
368.30	0.00
368.49	0.00
368.69	2.34
368.89	0.00
369.09	0.00
369.28	0.00
369.48	0.00
369.68	0.00
369.87	0.00
370.07	30.43
370.27	23.41
370.47	74.90
370.66	98.30
370.86	100.64
371.06	180.22
371.25	175.54
371.45	72.56
371.65	112.35
371.84	124.05
372.04	58.51
372.24	72.56
372.44	58.51
372.63	126.39
372.83	154.48
373.03	117.03
373.22	140.43
373.42	49.15
373.62	138.09
373.81	110.01
374.01	154.48
374.21	131.07
374.40	81.92
374.60	203.63
374.79	138.09
374.99	128.73
375.19	189.58
375.38	173.20
375.58	166.18
375.78	161.50
375.97	191.92
376.17	173.20
376.37	133.41
376.56	222.35
376.76	131.07
376.95	74.90
377.15	114.69
377.35	168.52
377.54	222.35
377.74	110.01
377.93	117.03
378.13	163.84
378.33	149.79
378.52	156.82
378.72	168.52
378.91	170.86
379.11	98.30
379.31	105.32
379.50	154.48
379.70	198.95
379.89	65.54
380.09	142.77
380.28	70.22
380.48	133.41
380.68	126.39
380.87	152.13
381.07	131.07
381.26	217.67
381.46	159.16
381.65	196.60
381.85	84.26
382.04	74.90
382.24	154.48
382.43	138.09
382.63	112.35
382.83	145.11
383.02	159.16
383.22	180.22
383.41	63.19
383.61	145.11
383.80	124.05
384.00	98.30
384.19	142.77
384.39	105.32
384.58	175.54
384.78	215.33
384.97	117.03
385.17	191.92
385.36	133.41
385.56	175.54
385.75	98.30
385.95	161.50
386.14	107.66
386.34	140.43
386.53	175.54
386.72	166.18
386.92	175.54
387.11	163.84
387.31	121.71
387.50	105.32
387.70	138.09
387.89	93.62
388.09	170.86
388.28	175.54
388.48	133.41
388.67	180.22
388.86	182.56
389.06	142.77
389.25	131.07
389.45	133.41
389.64	180.22
389.84	205.97
390.03	224.69
390.22	107.66
390.42	95.96
390.61	133.41
390.81	149.79
391.00	180.22
391.19	194.26
391.39	117.03
391.58	194.26
391.78	161.50
391.97	177.88
392.16	128.73
392.36	168.52
392.55	215.33
392.75	149.79
392.94	180.22
393.13	163.84
393.33	110.01
393.52	140.43
393.71	273.84
393.91	168.52
394.10	121.71
394.29	159.16
394.49	147.45
394.68	168.52
394.88	154.48
395.07	154.48
395.26	149.79
395.46	117.03
395.65	203.63
395.84	149.79
396.04	241.08
396.23	156.82
396.42	93.62
396.62	149.79
396.81	114.69
397.00	198.95
397.19	154.48
397.39	149.79
397.58	184.90
397.77	124.05
397.97	215.33
398.16	201.29
398.35	121.71
398.55	72.56
398.74	138.09
398.93	128.73
399.12	124.05
399.32	175.54
399.51	191.92
399.70	121.71
399.90	205.97
400.09	191.92
400.28	154.48
400.47	65.54
400.67	131.07
400.86	65.54
401.05	241.08
401.24	220.01
401.44	149.79
401.63	152.13
401.82	152.13
402.01	182.56
402.21	210.65
402.40	168.52
402.59	168.52
402.78	60.85
402.97	147.45
403.17	180.22
403.36	86.60
403.55	243.42
403.74	196.60
403.93	184.90
404.13	262.14
404.32	229.37
404.51	203.63
404.70	189.58
404.89	154.48
405.09	252.78
405.28	201.29
405.47	124.05
405.66	105.32
405.85	180.22
406.05	175.54
406.24	100.64
406.43	163.84
406.62	210.65
406.81	152.13
407.00	212.99
407.20	224.69
407.39	138.09
407.58	100.64
407.77	142.77
407.96	217.67
408.15	159.16
408.34	173.20
408.54	182.56
408.73	142.77
408.92	147.45
409.11	154.48
409.30	128.73
409.49	180.22
409.68	189.58
409.87	112.35
410.07	194.26
410.26	159.16
410.45	236.39
410.64	163.84
410.83	212.99
411.02	159.16
411.21	173.20
411.40	152.13
411.59	131.07
411.78	126.39
411.98	131.07
412.17	184.90
412.36	163.84
412.55	161.50
412.74	159.16
412.93	210.65
413.12	166.18
413.31	119.37
413.50	142.77
413.69	112.35
413.88	86.60
414.07	168.52
414.26	182.56
414.45	236.39
414.64	191.92
414.83	173.20
415.02	229.37
415.22	196.60
415.41	163.84
415.60	170.86
415.79	168.52
415.98	180.22
416.17	191.92
416.36	114.69
416.55	205.97
416.74	152.13
416.93	166.18
417.12	138.09
417.31	133.41
417.50	182.56
417.69	250.44
417.88	227.03
418.07	238.73
418.26	269.16
418.45	201.29
418.64	259.80
418.83	194.26
419.02	212.99
419.21	238.73
419.39	215.33
419.58	248.10
419.77	166.18
419.96	201.29
420.15	203.63
420.34	182.56
420.53	203.63
420.72	191.92
420.91	161.50
421.10	100.64
421.29	191.92
421.48	140.43
421.67	184.90
421.86	159.16
422.05	133.41
422.24	163.84
422.43	194.26
422.61	156.82
422.80	147.45
422.99	126.39
423.18	138.09
423.37	163.84
423.56	182.56
423.75	252.78
423.94	194.26
424.13	159.16
424.32	161.50
424.50	224.69
424.69	159.16
424.88	224.69
425.07	152.13
425.26	187.24
425.45	255.12
425.64	306.61
425.83	262.14
426.01	243.42
426.20	212.99
426.39	156.82
426.58	187.24
426.77	198.95
426.96	215.33
427.15	177.88
427.33	191.92
427.52	259.80
427.71	140.43
427.90	88.94
428.09	170.86
428.28	53.83
428.46	166.18
428.65	208.31
428.84	156.82
429.03	194.26
429.22	114.69
429.40	224.69
429.59	196.60
429.78	175.54
429.97	194.26
430.16	196.60
430.34	194.26
430.53	133.41
430.72	173.20
430.91	191.92
431.10	117.03
431.28	154.48
431.47	205.97
431.66	131.07
431.85	124.05
432.03	189.58
432.22	252.78
432.41	168.52
432.60	248.10
432.79	196.60
432.97	299.59
433.16	273.84
433.35	212.99
433.54	159.16
433.72	245.76
433.91	170.86
434.10	152.13
434.28	184.90
434.47	259.80
434.66	224.69
434.85	182.56
435.03	182.56
435.22	346.40
435.41	514.92
435.59	400.23
435.78	360.44
435.97	306.61
436.16	215.33
436.34	161.50
436.53	189.58
436.72	177.88
436.90	170.86
437.09	180.22
437.28	215.33
437.46	156.82
437.65	231.71
437.84	156.82
438.02	203.63
438.21	187.24
438.40	194.26
438.58	191.92
438.77	163.84
438.96	177.88
439.14	124.05
439.33	229.37
439.52	182.56
439.70	184.90
439.89	140.43
440.08	177.88
440.26	117.03
440.45	203.63
440.63	177.88
440.82	238.73
441.01	117.03
441.19	161.50
441.38	187.24
441.57	187.24
441.75	266.82
441.94	191.92
442.12	163.84
442.31	161.50
442.50	182.56
442.68	112.35
442.87	229.37
443.05	166.18
443.24	231.71
443.43	159.16
443.61	257.46
443.80	257.46
443.98	203.63
444.17	161.50
444.35	210.65
444.54	196.60
444.73	133.41
444.91	196.60
445.10	191.92
445.28	140.43
445.47	248.10
445.65	187.24
445.84	182.56
446.02	231.71
446.21	182.56
446.39	184.90
446.58	236.39
446.77	187.24
446.95	147.45
447.14	182.56
447.32	208.31
447.51	248.10
447.69	203.63
447.88	198.95
448.06	227.03
448.25	142.77
448.43	135.75
448.62	173.20
448.80	191.92
448.99	224.69
449.17	177.88
449.36	124.05
449.54	215.33
449.73	227.03
449.91	198.95
450.10	224.69
450.28	182.56
450.46	198.95
450.65	163.84
450.83	184.90
451.02	184.90
451.20	227.03
451.39	187.24
451.57	191.92
451.76	210.65
451.94	159.16
452.13	234.05
452.31	222.35
452.49	252.78
452.68	208.31
452.86	184.90
453.05	248.10
453.23	177.88
453.42	208.31
453.60	180.22
453.78	208.31
453.97	159.16
454.15	145.11
454.34	257.46
454.52	229.37
454.70	212.99
454.89	203.63
455.07	170.86
455.26	210.65
455.44	208.31
455.62	173.20
455.81	173.20
455.99	142.77
456.17	264.48
456.36	168.52
456.54	114.69
456.73	156.82
456.91	156.82
457.09	203.63
457.28	248.10
457.46	173.20
457.64	187.24
457.83	252.78
458.01	201.29
458.19	287.89
458.38	189.58
458.56	280.86
458.74	163.84
458.93	217.67
459.11	220.01
459.29	180.22
459.48	220.01
459.66	250.44
459.84	191.92
460.03	311.29
460.21	107.66
460.39	102.98
460.57	227.03
460.76	229.37
460.94	257.46
461.12	205.97
461.31	210.65
461.49	217.67
461.67	138.09
461.85	191.92
462.04	212.99
462.22	627.26
462.40	252.78
462.59	292.57
462.77	154.48
462.95	205.97
463.13	224.69
463.32	220.01
463.50	187.24
463.68	224.69
463.86	208.31
464.05	189.58
464.23	182.56
464.41	189.58
464.59	112.35
464.78	135.75
464.96	138.09
465.14	154.48
465.32	184.90
465.50	212.99
465.69	257.46
465.87	147.45
466.05	217.67
466.23	152.13
466.41	166.18
466.60	250.44
466.78	161.50
466.96	182.56
467.14	170.86
467.32	166.18
467.51	184.90
467.69	51.49
467.87	227.03
468.05	180.22
468.23	236.39
468.41	170.86
468.60	229.37
468.78	238.73
468.96	175.54
469.14	201.29
469.32	257.46
469.50	175.54
469.69	196.60
469.87	252.78
470.05	208.31
470.23	140.43
470.41	224.69
470.59	191.92
470.77	224.69
470.95	229.37
471.14	177.88
471.32	203.63
471.50	215.33
471.68	236.39
471.86	189.58
472.04	128.73
472.22	252.78
472.40	175.54
472.58	147.45
472.77	229.37
472.95	210.65
473.13	215.33
473.31	173.20
473.49	182.56
473.67	170.86
473.85	215.33
474.03	189.58
474.21	229.37
474.39	168.52
474.57	224.69
474.75	224.69
474.93	203.63
475.12	161.50
475.30	220.01
475.48	145.11
475.66	205.97
475.84	231.71
476.02	187.24
476.20	208.31
476.38	142.77
476.56	224.69
476.74	229.37
476.92	177.88
477.10	245.76
477.28	201.29
477.46	187.24
477.64	163.84
477.82	205.97
478.00	126.39
478.18	175.54
478.36	156.82
478.54	177.88
478.72	177.88
478.90	173.20
479.08	248.10
479.26	248.10
479.44	280.86
479.62	194.26
479.80	222.35
479.98	196.60
480.16	264.48
480.34	229.37
480.52	175.54
480.70	262.14
480.88	229.37
481.06	161.50
481.24	173.20
481.41	334.70
481.59	231.71
481.77	175.54
481.95	180.22
482.13	191.92
482.31	252.78
482.49	196.60
482.67	241.08
482.85	292.57
483.03	287.89
483.21	180.22
483.39	170.86
483.57	248.10
483.74	248.10
483.92	203.63
484.10	224.69
484.28	306.61
484.46	262.14
484.64	208.31
484.82	208.31
485.00	294.91
485.18	236.39
485.35	250.44
485.53	271.50
485.71	161.50
485.89	142.77
486.07	187.24
486.25	322.99
486.43	315.97
486.61	245.76
486.78	182.56
486.96	276.18
487.14	224.69
487.32	283.20
487.50	243.42
487.68	315.97
487.85	266.82
488.03	245.76
488.21	262.14
488.39	280.86
488.57	243.42
488.75	114.69
488.92	507.90
489.10	283.20
489.28	238.73
489.46	276.18
489.64	262.14
489.81	227.03
489.99	255.12
490.17	271.50
490.35	320.65
490.53	245.76
490.70	266.82
490.88	236.39
491.06	241.08
491.24	210.65
491.41	222.35
491.59	280.86
491.77	227.03
491.95	170.86
492.13	205.97
492.30	241.08
492.48	196.60
492.66	266.82
492.84	187.24
493.01	217.67
493.19	243.42
493.37	315.97
493.54	259.80
493.72	255.12
493.90	243.42
494.08	152.13
494.25	243.42
494.43	294.91
494.61	290.23
494.79	248.10
494.96	227.03
495.14	227.03
495.32	250.44
495.49	304.27
495.67	201.29
495.85	231.71
496.02	205.97
496.20	320.65
496.38	205.97
496.55	212.99
496.73	264.48
496.91	255.12
497.09	243.42
497.26	292.57
497.44	124.05
497.62	311.29
497.79	203.63
497.97	248.10
498.14	262.14
498.32	236.39
498.50	308.95
498.67	222.35
498.85	245.76
499.03	243.42
499.20	243.42
499.38	257.46
499.56	210.65
499.73	250.44
499.91	227.03
500.08	231.71
500.26	264.48
500.44	203.63
500.61	243.42
500.79	220.01
500.97	264.48
501.14	248.10
501.32	234.05
501.49	252.78
501.67	241.08
501.84	259.80
502.02	159.16
502.20	241.08
502.37	231.71
502.55	229.37
502.72	220.01
502.90	248.10
503.07	264.48
503.25	191.92
503.43	285.55
503.60	196.60
503.78	283.20
503.95	201.29
504.13	255.12
504.30	266.82
504.48	280.86
504.65	252.78
504.83	299.59
505.01	280.86
505.18	273.84
505.36	241.08
505.53	264.48
505.71	175.54
505.88	262.14
506.06	205.97
506.23	280.86
506.41	231.71
506.58	283.20
506.76	330.02
506.93	243.42
507.11	189.58
507.28	229.37
507.46	250.44
507.63	285.55
507.81	273.84
507.98	236.39
508.16	308.95
508.33	294.91
508.50	280.86
508.68	250.44
508.85	257.46
509.03	299.59
509.20	280.86
509.38	301.93
509.55	301.93
509.73	327.68
509.90	341.72
510.08	241.08
510.25	285.55
510.42	280.86
510.60	203.63
510.77	304.27
510.95	306.61
511.12	330.02
511.30	346.40
511.47	250.44
511.64	365.12
511.82	367.46
511.99	266.82
512.17	308.95
512.34	229.37
512.51	220.01
512.69	304.27
512.86	327.68
513.04	234.05
513.21	215.33
513.38	250.44
513.56	266.82
513.73	264.48
513.90	215.33
514.08	241.08
514.25	266.82
514.43	348.74
514.60	250.44
514.77	276.18
514.95	170.86
515.12	243.42
515.29	248.10
515.47	238.73
515.64	266.82
515.81	250.44
515.99	287.89
516.16	234.05
516.33	280.86
516.51	257.46
516.68	280.86
516.85	189.58
517.03	231.71
517.20	301.93
517.37	292.57
517.54	269.16
517.72	250.44
517.89	257.46
518.06	271.50
518.24	290.23
518.41	313.63
518.58	280.86
518.75	311.29
518.93	245.76
519.10	315.97
519.27	241.08
519.45	292.57
519.62	322.99
519.79	201.29
519.96	262.14
520.14	259.80
520.31	320.65
520.48	248.10
520.65	259.80
520.83	292.57
521.00	290.23
521.17	266.82
521.34	355.76
521.52	224.69
521.69	243.42
521.86	278.52
522.03	332.36
522.20	301.93
522.38	280.86
522.55	243.42
522.72	264.48
522.89	299.59
523.07	327.68
523.24	264.48
523.41	205.97
523.58	276.18
523.75	278.52
523.92	264.48
524.10	238.73
524.27	243.42
524.44	358.10
524.61	322.99
524.78	238.73
524.96	252.78
525.13	217.67
525.30	327.68
525.47	297.25
525.64	257.46
525.81	322.99
525.98	271.50
526.16	212.99
526.33	278.52
526.50	205.97
526.67	231.71
526.84	234.05
527.01	245.76
527.18	180.22
527.36	189.58
527.53	278.52
527.70	276.18
527.87	304.27
528.04	355.76
528.21	229.37
528.38	360.44
528.55	283.20
528.72	325.33
528.89	313.63
529.07	243.42
529.24	222.35
529.41	315.97
529.58	276.18
529.75	322.99
529.92	250.44
530.09	205.97
530.26	315.97
530.43	269.16
530.60	273.84
530.77	266.82
530.94	332.36
531.11	257.46
531.28	285.55
531.46	252.78
531.63	224.69
531.80	262.14
531.97	238.73
532.14	290.23
532.31	313.63
532.48	362.78
532.65	447.04
532.82	402.57
532.99	423.64
533.16	313.63
533.33	409.59
533.50	337.04
533.67	355.76
533.84	444.70
534.01	449.38
534.18	355.76
534.35	362.78
534.52	285.55
534.69	308.95
534.86	379.17
535.03	334.70
535.20	273.84
535.37	259.80
535.54	304.27
535.71	259.80
535.88	287.89
536.05	262.14
536.22	299.59
536.38	227.03
536.55	266.82
536.72	395.55
536.89	269.16
537.06	339.38
537.23	327.68
537.40	325.33
537.57	327.68
537.74	416.62
537.91	374.49
538.08	271.50
538.25	311.29
538.42	236.39
538.59	264.48
538.75	280.86
538.92	320.65
539.09	301.93
539.26	383.85
539.43	564.07
539.60	1050.90
539.77	1483.90
539.94	1535.39
540.11	1060.26
540.28	765.36
540.44	566.41
540.61	456.40
540.78	512.58
540.95	458.74
541.12	538.32
541.29	545.34
541.46	531.30
541.62	545.34
541.79	535.98
541.96	503.22
542.13	484.49
542.30	517.26
542.47	550.03
542.63	521.94
542.80	486.83
542.97	526.62
543.14	425.98
543.31	484.49
543.48	475.13
543.64	559.39
543.81	557.05
543.98	463.43
544.15	433.00
544.32	486.83
544.48	503.22
544.65	454.06
544.82	491.51
544.99	430.66
545.16	514.92
545.32	531.30
545.49	716.20
545.66	891.74
545.83	1006.43
546.00	833.23
546.16	645.99
546.33	550.03
546.50	552.37
546.67	425.98
546.83	489.17
547.00	404.91
547.17	365.12
547.34	353.42
547.50	418.96
547.67	418.96
547.84	369.80
548.00	390.87
548.17	390.87
548.34	367.46
548.51	425.98
548.67	418.96
548.84	358.10
549.01	365.12
549.18	322.99
549.34	409.59
549.51	430.66
549.68	409.59
549.84	304.27
550.01	278.52
550.18	454.06
550.34	369.80
550.51	339.38
550.68	348.74
550.84	308.95
551.01	304.27
551.18	301.93
551.34	362.78
551.51	322.99
551.68	423.64
551.84	346.40
552.01	306.61
552.18	276.18
552.34	285.55
552.51	262.14
552.68	320.65
552.84	313.63
553.01	252.78
553.18	346.40
553.34	353.42
553.51	285.55
553.67	285.55
553.84	374.49
554.01	344.06
554.17	344.06
554.34	269.16
554.51	264.48
554.67	297.25
554.84	332.36
555.00	238.73
555.17	297.25
555.33	322.99
555.50	243.42
555.67	294.91
555.83	315.97
556.00	313.63
556.16	482.15
556.33	280.86
556.50	266.82
556.66	283.20
556.83	220.01
556.99	374.49
557.16	269.16
557.32	330.02
557.49	266.82
557.65	301.93
557.82	259.80
557.98	212.99
558.15	264.48
558.32	287.89
558.48	201.29
558.65	238.73
558.81	341.72
558.98	238.73
559.14	327.68
559.31	262.14
559.47	290.23
559.64	266.82
559.80	285.55
559.97	339.38
560.13	234.05
560.30	250.44
560.46	294.91
560.63	234.05
560.79	283.20
560.96	278.52
561.12	196.60
561.29	257.46
561.45	287.89
561.61	229.37
561.78	266.82
561.94	285.55
562.11	325.33
562.27	280.86
562.44	208.31
562.60	276.18
562.77	311.29
562.93	269.16
563.10	278.52
563.26	224.69
563.42	341.72
563.59	250.44
563.75	255.12
563.92	315.97
564.08	278.52
564.24	290.23
564.41	348.74
564.57	159.16
564.74	292.57
564.90	262.14
565.07	229.37
565.23	327.68
565.39	271.50
565.56	301.93
565.72	311.29
565.88	264.48
566.05	287.89
566.21	262.14
566.38	273.84
566.54	280.86
566.70	212.99
566.87	222.35
567.03	243.42
567.19	224.69
567.36	290.23
567.52	322.99
567.68	231.71
567.85	234.05
568.01	250.44
568.17	318.31
568.34	255.12
568.50	248.10
568.66	287.89
568.83	311.29
568.99	294.91
569.15	290.23
569.32	220.01
569.48	318.31
569.64	327.68
569.81	339.38
569.97	248.10
570.13	262.14
570.30	273.84
570.46	241.08
570.62	278.52
570.78	276.18
570.95	215.33
571.11	301.93
571.27	348.74
571.43	271.50
571.60	297.25
571.76	252.78
571.92	285.55
572.09	287.89
572.25	252.78
572.41	353.42
572.57	311.29
572.74	273.84
572.90	257.46
573.06	243.42
573.22	313.63
573.38	259.80
573.55	297.25
573.71	290.23
573.87	344.06
574.03	262.14
574.20	308.95
574.36	290.23
574.52	320.65
574.68	367.46
574.84	365.12
575.01	278.52
575.17	294.91
575.33	360.44
575.49	269.16
575.65	376.83
575.82	346.40
575.98	571.09
576.14	678.76
576.30	645.99
576.46	554.71
576.62	543.00
576.79	533.64
576.95	400.23
577.11	369.80
577.27	332.36
577.43	283.20
577.59	341.72
577.75	297.25
577.92	287.89
578.08	287.89
578.24	273.84
578.40	299.59
578.56	395.55
578.72	451.72
578.88	484.49
579.04	411.93
579.21	395.55
579.37	304.27
579.53	313.63
579.69	320.65
579.85	327.68
580.01	393.21
580.17	468.11
580.33	437.68
580.49	440.02
580.65	428.32
580.82	360.44
580.98	381.51
581.14	421.30
581.30	454.06
581.46	517.26
581.62	566.41
581.78	568.75
581.94	660.03
582.10	578.11
582.26	498.53
582.42	449.38
582.58	468.11
582.74	545.34
582.90	479.81
583.06	514.92
583.22	526.62
583.38	472.79
583.54	533.64
583.70	641.31
583.86	667.05
584.02	641.31
584.18	978.34
584.34	1200.69
584.50	3019.29
584.66	21605.49
584.82	52591.84
584.98	61616.94
585.14	58532.12
585.30	41841.76
585.46	25443.96
585.62	15625.42
585.78	7279.07
585.94	2916.31
586.10	1479.22
586.26	985.37
586.42	819.19
586.58	678.76
586.74	671.73
586.90	664.71
587.06	643.65
587.22	620.24
587.38	620.24
587.54	1125.80
587.70	3201.85
587.86	5055.56
588.02	5568.13
588.18	3847.84
588.34	2654.17
588.49	1657.10
588.65	1022.81
588.81	683.44
588.97	433.00
589.13	367.46
589.29	362.78
589.45	397.89
589.61	444.70
589.77	472.79
589.93	564.07
590.08	547.69
590.24	489.17
590.40	500.87
590.56	404.91
590.72	369.80
590.88	365.12
591.04	440.02
591.20	339.38
591.35	456.40
591.51	416.62
591.67	341.72
591.83	404.91
591.99	418.96
592.15	383.85
592.31	362.78
592.46	355.76
592.62	416.62
592.78	369.80
592.94	397.89
593.10	407.25
593.26	411.93
593.41	402.57
593.57	454.06
593.73	580.45
593.89	2759.49
594.05	6724.36
594.20	9628.96
594.36	9104.68
594.52	6022.20
594.68	3824.44
594.84	2565.23
594.99	1469.86
595.15	816.85
595.31	510.24
595.47	414.27
595.62	348.74
595.78	351.08
595.94	292.57
596.10	383.85
596.25	444.70
596.41	461.09
596.57	325.33
596.73	330.02
596.88	540.66
597.04	1284.95
597.20	2083.08
597.36	2431.82
597.51	1914.56
597.67	1252.19
597.83	929.19
597.99	758.33
598.14	484.49
598.30	372.15
598.46	369.80
598.61	351.08
598.77	376.83
598.93	376.83
599.09	322.99
599.24	276.18
599.40	358.10
599.56	327.68
599.71	369.80
599.87	311.29
600.03	315.97
600.18	379.17
600.34	376.83
600.50	341.72
600.65	287.89
600.81	402.57
600.97	344.06
601.12	222.35
601.28	355.76
601.44	269.16
601.59	276.18
601.75	341.72
601.91	330.02
602.06	299.59
602.22	325.33
602.37	725.57
602.53	1577.52
602.69	2356.92
602.84	2459.90
603.00	1884.13
603.16	1343.47
603.31	915.15
603.47	748.97
603.62	421.30
603.78	404.91
603.94	400.23
604.09	299.59
604.25	325.33
604.40	367.46
604.56	325.33
604.71	353.42
604.87	325.33
605.03	367.46
605.18	400.23
605.34	341.72
605.49	313.63
605.65	344.06
605.80	320.65
605.96	327.68
606.12	360.44
606.27	360.44
606.43	388.53
606.58	461.09
606.74	863.66
606.89	3145.68
607.05	6326.47
607.20	8182.51
607.36	6637.76
607.51	4678.73
607.67	3094.19
607.82	2003.50
607.98	1242.82
608.13	641.31
608.29	535.98
608.44	524.28
608.60	482.15
608.75	557.05
608.91	1109.41
609.06	4938.53
609.22	10745.40
609.37	13778.73
609.53	12439.95
609.68	8486.78
609.84	5516.64
609.99	3698.05
610.15	2169.68
