SpectraSuite Data File
++++++++++++++++++++++++++++++++++++
Date: Fri Oct 04 11:33:44 GMT-05:00 2013
User: price-jones
Dark Spectrum Present: No
Reference Spectrum Present: No
Number of Sampled Component Spectra: 1
Spectrometers: USB2+H05261
Integration Time (usec): 100000 (USB2+H05261)
Spectra Averaged: 1 (USB2+H05261)
Boxcar Smoothing: 0 (USB2+H05261)
Correct for Electrical Dark: No (USB2+H05261)
Strobe/Lamp Enabled: No (USB2+H05261)
Correct for Detector Non-linearity: No (USB2+H05261)
Correct for Stray Light: No (USB2+H05261)
Number of Pixels in Processed Spectrum: 2048
>>>>>Begin Processed Spectral Data<<<<<
365.73	25.75
365.92	25.75
366.12	25.75
366.32	0.00
366.52	0.00
366.72	67.88
366.91	0.00
367.11	0.00
367.31	0.00
367.51	0.00
367.70	44.47
367.90	0.00
368.10	0.00
368.30	14.04
368.49	0.00
368.69	0.00
368.89	0.00
369.09	9.36
369.28	0.00
369.48	7.02
369.68	0.00
369.87	86.60
370.07	53.83
370.27	138.09
370.47	81.92
370.66	51.49
370.86	84.26
371.06	102.98
371.25	159.16
371.45	107.66
371.65	138.09
371.84	159.16
372.04	117.03
372.24	124.05
372.44	117.03
372.63	161.50
372.83	133.41
373.03	98.30
373.22	77.24
373.42	140.43
373.62	88.94
373.81	147.45
374.01	173.20
374.21	173.20
374.40	72.56
374.60	191.92
374.79	112.35
374.99	126.39
375.19	124.05
375.38	187.24
375.58	142.77
375.78	203.63
375.97	236.39
376.17	271.50
376.37	105.32
376.56	131.07
376.76	182.56
376.95	117.03
377.15	128.73
377.35	161.50
377.54	133.41
377.74	81.92
377.93	93.62
378.13	177.88
378.33	175.54
378.52	147.45
378.72	152.13
378.91	191.92
379.11	126.39
379.31	88.94
379.50	91.28
379.70	180.22
379.89	159.16
380.09	105.32
380.28	166.18
380.48	79.58
380.68	100.64
380.87	147.45
381.07	194.26
381.26	107.66
381.46	180.22
381.65	161.50
381.85	145.11
382.04	194.26
382.24	53.83
382.43	173.20
382.63	93.62
382.83	145.11
383.02	126.39
383.22	170.86
383.41	98.30
383.61	107.66
383.80	124.05
384.00	156.82
384.19	95.96
384.39	142.77
384.58	156.82
384.78	140.43
384.97	81.92
385.17	163.84
385.36	110.01
385.56	212.99
385.75	126.39
385.95	77.24
386.14	198.95
386.34	147.45
386.53	147.45
386.72	112.35
386.92	154.48
387.11	154.48
387.31	142.77
387.50	79.58
387.70	86.60
387.89	133.41
388.09	168.52
388.28	142.77
388.48	154.48
388.67	149.79
388.86	156.82
389.06	131.07
389.25	145.11
389.45	194.26
389.64	156.82
389.84	170.86
390.03	224.69
390.22	161.50
390.42	149.79
390.61	166.18
390.81	135.75
391.00	88.94
391.19	191.92
391.39	198.95
391.58	84.26
391.78	187.24
391.97	112.35
392.16	147.45
392.36	140.43
392.55	100.64
392.75	95.96
392.94	86.60
393.13	100.64
393.33	133.41
393.52	107.66
393.71	114.69
393.91	182.56
394.10	98.30
394.29	154.48
394.49	152.13
394.68	187.24
394.88	205.97
395.07	119.37
395.26	124.05
395.46	133.41
395.65	184.90
395.84	201.29
396.04	212.99
396.23	147.45
396.42	142.77
396.62	180.22
396.81	100.64
397.00	198.95
397.19	170.86
397.39	138.09
397.58	152.13
397.77	142.77
397.97	215.33
398.16	147.45
398.35	98.30
398.55	107.66
398.74	196.60
398.93	149.79
399.12	140.43
399.32	128.73
399.51	126.39
399.70	182.56
399.90	175.54
400.09	191.92
400.28	208.31
400.47	102.98
400.67	241.08
400.86	252.78
401.05	152.13
401.24	177.88
401.44	210.65
401.63	203.63
401.82	133.41
402.01	201.29
402.21	154.48
402.40	135.75
402.59	124.05
402.78	105.32
402.97	112.35
403.17	126.39
403.36	138.09
403.55	128.73
403.74	194.26
403.93	163.84
404.13	243.42
404.32	273.84
404.51	161.50
404.70	156.82
404.89	166.18
405.09	168.52
405.28	180.22
405.47	142.77
405.66	175.54
405.85	163.84
406.05	159.16
406.24	152.13
406.43	166.18
406.62	175.54
406.81	168.52
407.00	142.77
407.20	170.86
407.39	140.43
407.58	126.39
407.77	135.75
407.96	180.22
408.15	119.37
408.34	159.16
408.54	180.22
408.73	184.90
408.92	173.20
409.11	152.13
409.30	140.43
409.49	156.82
409.68	77.24
409.87	142.77
410.07	227.03
410.26	187.24
410.45	187.24
410.64	117.03
410.83	203.63
411.02	166.18
411.21	128.73
411.40	201.29
411.59	177.88
411.78	182.56
411.98	196.60
412.17	81.92
412.36	128.73
412.55	203.63
412.74	194.26
412.93	187.24
413.12	140.43
413.31	156.82
413.50	126.39
413.69	166.18
413.88	180.22
414.07	161.50
414.26	147.45
414.45	95.96
414.64	189.58
414.83	191.92
415.02	163.84
415.22	112.35
415.41	152.13
415.60	100.64
415.79	168.52
415.98	173.20
416.17	173.20
416.36	142.77
416.55	177.88
416.74	163.84
416.93	220.01
417.12	166.18
417.31	163.84
417.50	175.54
417.69	212.99
417.88	156.82
418.07	145.11
418.26	117.03
418.45	119.37
418.64	215.33
418.83	215.33
419.02	128.73
419.21	243.42
419.39	238.73
419.58	131.07
419.77	184.90
419.96	269.16
420.15	196.60
420.34	79.58
420.53	180.22
420.72	227.03
420.91	128.73
421.10	238.73
421.29	110.01
421.48	140.43
421.67	175.54
421.86	208.31
422.05	170.86
422.24	154.48
422.43	194.26
422.61	70.22
422.80	189.58
422.99	147.45
423.18	182.56
423.37	236.39
423.56	236.39
423.75	147.45
423.94	145.11
424.13	121.71
424.32	173.20
424.50	276.18
424.69	124.05
424.88	166.18
425.07	182.56
425.26	194.26
425.45	182.56
425.64	292.57
425.83	196.60
426.01	184.90
426.20	205.97
426.39	163.84
426.58	133.41
426.77	128.73
426.96	194.26
427.15	184.90
427.33	145.11
427.52	177.88
427.71	163.84
427.90	245.76
428.09	166.18
428.28	56.17
428.46	131.07
428.65	189.58
428.84	234.05
429.03	280.86
429.22	112.35
429.40	126.39
429.59	114.69
429.78	229.37
429.97	159.16
430.16	147.45
430.34	168.52
430.53	119.37
430.72	133.41
430.91	196.60
431.10	147.45
431.28	145.11
431.47	154.48
431.66	161.50
431.85	128.73
432.03	182.56
432.22	248.10
432.41	147.45
432.60	222.35
432.79	135.75
432.97	180.22
433.16	163.84
433.35	175.54
433.54	191.92
433.72	290.23
433.91	135.75
434.10	198.95
434.28	84.26
434.47	161.50
434.66	217.67
434.85	245.76
435.03	236.39
435.22	292.57
435.41	386.19
435.59	386.19
435.78	318.31
435.97	287.89
436.16	198.95
436.34	212.99
436.53	180.22
436.72	170.86
436.90	124.05
437.09	156.82
437.28	182.56
437.46	205.97
437.65	212.99
437.84	149.79
438.02	182.56
438.21	224.69
438.40	187.24
438.58	152.13
438.77	161.50
438.96	248.10
439.14	86.60
439.33	184.90
439.52	163.84
439.70	189.58
439.89	222.35
440.08	215.33
440.26	259.80
440.45	205.97
440.63	252.78
440.82	159.16
441.01	194.26
441.19	198.95
441.38	205.97
441.57	238.73
441.75	177.88
441.94	234.05
442.12	238.73
442.31	175.54
442.50	212.99
442.68	163.84
442.87	131.07
443.05	114.69
443.24	187.24
443.43	215.33
443.61	208.31
443.80	147.45
443.98	161.50
444.17	201.29
444.35	205.97
444.54	138.09
444.73	152.13
444.91	154.48
445.10	131.07
445.28	135.75
445.47	189.58
445.65	168.52
445.84	173.20
446.02	222.35
446.21	159.16
446.39	168.52
446.58	201.29
446.77	182.56
446.95	224.69
447.14	180.22
447.32	161.50
447.51	170.86
447.69	229.37
447.88	196.60
448.06	262.14
448.25	220.01
448.43	163.84
448.62	147.45
448.80	264.48
448.99	177.88
449.17	224.69
449.36	243.42
449.54	290.23
449.73	231.71
449.91	194.26
450.10	212.99
450.28	252.78
450.46	266.82
450.65	297.25
450.83	154.48
451.02	189.58
451.20	177.88
451.39	180.22
451.57	161.50
451.76	156.82
451.94	264.48
452.13	234.05
452.31	236.39
452.49	229.37
452.68	156.82
452.86	128.73
453.05	205.97
453.23	208.31
453.42	208.31
453.60	208.31
453.78	182.56
453.97	196.60
454.15	147.45
454.34	243.42
454.52	182.56
454.70	168.52
454.89	117.03
455.07	145.11
455.26	147.45
455.44	220.01
455.62	250.44
455.81	224.69
455.99	154.48
456.17	131.07
456.36	173.20
456.54	229.37
456.73	245.76
456.91	173.20
457.09	217.67
457.28	135.75
457.46	182.56
457.64	217.67
457.83	194.26
458.01	201.29
458.19	191.92
458.38	212.99
458.56	280.86
458.74	259.80
458.93	220.01
459.11	208.31
459.29	215.33
459.48	208.31
459.66	238.73
459.84	248.10
460.03	308.95
460.21	273.84
460.39	224.69
460.57	262.14
460.76	201.29
460.94	175.54
461.12	269.16
461.31	234.05
461.49	198.95
461.67	168.52
461.85	273.84
462.04	210.65
462.22	627.26
462.40	210.65
462.59	231.71
462.77	285.55
462.95	131.07
463.13	72.56
463.32	234.05
463.50	145.11
463.68	194.26
463.86	187.24
464.05	234.05
464.23	245.76
464.41	133.41
464.59	175.54
464.78	198.95
464.96	128.73
465.14	234.05
465.32	194.26
465.50	191.92
465.69	259.80
465.87	177.88
466.05	189.58
466.23	196.60
466.41	212.99
466.60	173.20
466.78	154.48
466.96	210.65
467.14	140.43
467.32	194.26
467.51	154.48
467.69	180.22
467.87	173.20
468.05	133.41
468.23	203.63
468.41	257.46
468.60	168.52
468.78	224.69
468.96	243.42
469.14	210.65
469.32	152.13
469.50	215.33
469.69	269.16
469.87	112.35
470.05	189.58
470.23	252.78
470.41	154.48
470.59	184.90
470.77	236.39
470.95	241.08
471.14	217.67
471.32	205.97
471.50	212.99
471.68	112.35
471.86	280.86
472.04	166.18
472.22	205.97
472.40	191.92
472.58	229.37
472.77	224.69
472.95	189.58
473.13	208.31
473.31	175.54
473.49	187.24
473.67	177.88
473.85	187.24
474.03	222.35
474.21	255.12
474.39	210.65
474.57	182.56
474.75	154.48
474.93	201.29
475.12	224.69
475.30	196.60
475.48	168.52
475.66	203.63
475.84	210.65
476.02	170.86
476.20	215.33
476.38	201.29
476.56	299.59
476.74	191.92
476.92	203.63
477.10	259.80
477.28	229.37
477.46	196.60
477.64	227.03
477.82	257.46
478.00	255.12
478.18	212.99
478.36	259.80
478.54	203.63
478.72	182.56
478.90	238.73
479.08	182.56
479.26	227.03
479.44	168.52
479.62	210.65
479.80	217.67
479.98	205.97
480.16	271.50
480.34	189.58
480.52	198.95
480.70	248.10
480.88	189.58
481.06	173.20
481.24	191.92
481.41	215.33
481.59	196.60
481.77	198.95
481.95	205.97
482.13	198.95
482.31	196.60
482.49	189.58
482.67	161.50
482.85	234.05
483.03	198.95
483.21	238.73
483.39	184.90
483.57	229.37
483.74	175.54
483.92	215.33
484.10	189.58
484.28	208.31
484.46	255.12
484.64	238.73
484.82	227.03
485.00	236.39
485.18	205.97
485.35	161.50
485.53	187.24
485.71	191.92
485.89	182.56
486.07	177.88
486.25	280.86
486.43	238.73
486.61	271.50
486.78	266.82
486.96	198.95
487.14	203.63
487.32	217.67
487.50	278.52
487.68	257.46
487.85	215.33
488.03	215.33
488.21	224.69
488.39	243.42
488.57	264.48
488.75	290.23
488.92	521.94
489.10	229.37
489.28	217.67
489.46	276.18
489.64	257.46
489.81	266.82
489.99	243.42
490.17	234.05
490.35	285.55
490.53	337.04
490.70	271.50
490.88	269.16
491.06	278.52
491.24	262.14
491.41	276.18
491.59	271.50
491.77	184.90
491.95	210.65
492.13	236.39
492.30	215.33
492.48	266.82
492.66	208.31
492.84	271.50
493.01	222.35
493.19	241.08
493.37	255.12
493.54	184.90
493.72	194.26
493.90	234.05
494.08	220.01
494.25	252.78
494.43	201.29
494.61	252.78
494.79	234.05
494.96	255.12
495.14	259.80
495.32	259.80
495.49	252.78
495.67	191.92
495.85	173.20
496.02	194.26
496.20	252.78
496.38	252.78
496.55	280.86
496.73	280.86
496.91	210.65
497.09	173.20
497.26	313.63
497.44	257.46
497.62	269.16
497.79	243.42
497.97	294.91
498.14	236.39
498.32	271.50
498.50	259.80
498.67	194.26
498.85	224.69
499.03	227.03
499.20	306.61
499.38	308.95
499.56	245.76
499.73	229.37
499.91	184.90
500.08	191.92
500.26	285.55
500.44	215.33
500.61	273.84
500.79	269.16
500.97	273.84
501.14	285.55
501.32	252.78
501.49	273.84
501.67	234.05
501.84	170.86
502.02	196.60
502.20	301.93
502.37	248.10
502.55	208.31
502.72	250.44
502.90	290.23
503.07	322.99
503.25	264.48
503.43	290.23
503.60	227.03
503.78	257.46
503.95	212.99
504.13	243.42
504.30	210.65
504.48	299.59
504.65	238.73
504.83	276.18
505.01	257.46
505.18	273.84
505.36	236.39
505.53	311.29
505.71	257.46
505.88	266.82
506.06	175.54
506.23	299.59
506.41	290.23
506.58	227.03
506.76	205.97
506.93	252.78
507.11	243.42
507.28	212.99
507.46	189.58
507.63	292.57
507.81	250.44
507.98	222.35
508.16	231.71
508.33	271.50
508.50	257.46
508.68	227.03
508.85	276.18
509.03	285.55
509.20	238.73
509.38	285.55
509.55	259.80
509.73	276.18
509.90	259.80
510.08	250.44
510.25	266.82
510.42	205.97
510.60	313.63
510.77	367.46
510.95	252.78
511.12	313.63
511.30	255.12
511.47	341.72
511.64	245.76
511.82	297.25
511.99	269.16
512.17	299.59
512.34	196.60
512.51	250.44
512.69	227.03
512.86	283.20
513.04	271.50
513.21	243.42
513.38	252.78
513.56	259.80
513.73	238.73
513.90	259.80
514.08	290.23
514.25	318.31
514.43	191.92
514.60	245.76
514.77	313.63
514.95	301.93
515.12	266.82
515.29	327.68
515.47	245.76
515.64	264.48
515.81	262.14
515.99	285.55
516.16	276.18
516.33	285.55
516.51	266.82
516.68	243.42
516.85	248.10
517.03	215.33
517.20	238.73
517.37	294.91
517.54	227.03
517.72	210.65
517.89	210.65
518.06	212.99
518.24	285.55
518.41	276.18
518.58	278.52
518.75	259.80
518.93	264.48
519.10	245.76
519.27	198.95
519.45	271.50
519.62	264.48
519.79	337.04
519.96	191.92
520.14	191.92
520.31	271.50
520.48	290.23
520.65	245.76
520.83	297.25
521.00	306.61
521.17	243.42
521.34	175.54
521.52	210.65
521.69	262.14
521.86	306.61
522.03	184.90
522.20	248.10
522.38	175.54
522.55	259.80
522.72	273.84
522.89	280.86
523.07	358.10
523.24	243.42
523.41	315.97
523.58	241.08
523.75	259.80
523.92	266.82
524.10	294.91
524.27	154.48
524.44	322.99
524.61	276.18
524.78	299.59
524.96	276.18
525.13	308.95
525.30	313.63
525.47	355.76
525.64	304.27
525.81	243.42
525.98	205.97
526.16	234.05
526.33	222.35
526.50	327.68
526.67	222.35
526.84	250.44
527.01	205.97
527.18	234.05
527.36	259.80
527.53	280.86
527.70	262.14
527.87	238.73
528.04	297.25
528.21	170.86
528.38	346.40
528.55	292.57
528.72	280.86
528.89	294.91
529.07	315.97
529.24	311.29
529.41	278.52
529.58	301.93
529.75	236.39
529.92	280.86
530.09	264.48
530.26	351.08
530.43	269.16
530.60	264.48
530.77	334.70
530.94	301.93
531.11	203.63
531.28	248.10
531.46	283.20
531.63	283.20
531.80	215.33
531.97	224.69
532.14	273.84
532.31	273.84
532.48	330.02
532.65	339.38
532.82	248.10
532.99	355.76
533.16	280.86
533.33	266.82
533.50	269.16
533.67	332.36
533.84	320.65
534.01	330.02
534.18	341.72
534.35	306.61
534.52	318.31
534.69	322.99
534.86	222.35
535.03	283.20
535.20	271.50
535.37	285.55
535.54	259.80
535.71	241.08
535.88	252.78
536.05	259.80
536.22	311.29
536.38	248.10
536.55	318.31
536.72	306.61
536.89	238.73
537.06	280.86
537.23	229.37
537.40	318.31
537.57	339.38
537.74	341.72
537.91	283.20
538.08	290.23
538.25	327.68
538.42	311.29
538.59	341.72
538.75	259.80
538.92	315.97
539.09	322.99
539.26	273.84
539.43	444.70
539.60	674.07
539.77	903.45
539.94	868.34
540.11	681.10
540.28	627.26
540.44	517.26
540.61	423.64
540.78	369.80
540.95	472.79
541.12	582.79
541.29	454.06
541.46	540.66
541.62	463.43
541.79	444.70
541.96	390.87
542.13	447.04
542.30	454.06
542.47	463.43
542.63	379.17
542.80	390.87
542.97	416.62
543.14	472.79
543.31	468.11
543.48	435.34
543.64	512.58
543.81	437.68
543.98	449.38
544.15	411.93
544.32	433.00
544.48	430.66
544.65	451.72
544.82	463.43
544.99	416.62
545.16	491.51
545.32	428.32
545.49	608.54
545.66	718.54
545.83	816.85
546.00	671.73
546.16	524.28
546.33	465.77
546.50	425.98
546.67	425.98
546.83	416.62
547.00	425.98
547.17	383.85
547.34	330.02
547.50	348.74
547.67	362.78
547.84	390.87
548.00	500.87
548.17	362.78
548.34	257.46
548.51	379.17
548.67	313.63
548.84	341.72
549.01	299.59
549.18	344.06
549.34	369.80
549.51	395.55
549.68	308.95
549.84	360.44
550.01	339.38
550.18	440.02
550.34	374.49
550.51	304.27
550.68	299.59
550.84	297.25
551.01	397.89
551.18	369.80
551.34	308.95
551.51	297.25
551.68	304.27
551.84	337.04
552.01	306.61
552.18	259.80
552.34	287.89
552.51	259.80
552.68	255.12
552.84	259.80
553.01	301.93
553.18	262.14
553.34	325.33
553.51	262.14
553.67	308.95
553.84	355.76
554.01	358.10
554.17	306.61
554.34	245.76
554.51	311.29
554.67	262.14
554.84	376.83
555.00	301.93
555.17	301.93
555.33	208.31
555.50	318.31
555.67	304.27
555.83	266.82
556.00	287.89
556.16	397.89
556.33	243.42
556.50	250.44
556.66	273.84
556.83	301.93
556.99	243.42
557.16	255.12
557.32	276.18
557.49	245.76
557.65	271.50
557.82	224.69
557.98	217.67
558.15	255.12
558.32	168.52
558.48	299.59
558.65	325.33
558.81	341.72
558.98	191.92
559.14	201.29
559.31	238.73
559.47	308.95
559.64	161.50
559.80	234.05
559.97	243.42
560.13	212.99
560.30	231.71
560.46	241.08
560.63	313.63
560.79	330.02
560.96	322.99
561.12	308.95
561.29	341.72
561.45	262.14
561.61	287.89
561.78	355.76
561.94	210.65
562.11	191.92
562.27	276.18
562.44	224.69
562.60	220.01
562.77	250.44
562.93	318.31
563.10	217.67
563.26	236.39
563.42	184.90
563.59	241.08
563.75	290.23
563.92	299.59
564.08	264.48
564.24	285.55
564.41	255.12
564.57	212.99
564.74	297.25
564.90	330.02
565.07	227.03
565.23	386.19
565.39	234.05
565.56	292.57
565.72	285.55
565.88	271.50
566.05	262.14
566.21	285.55
566.38	236.39
566.54	278.52
566.70	234.05
566.87	241.08
567.03	194.26
567.19	131.07
567.36	269.16
567.52	243.42
567.68	285.55
567.85	276.18
568.01	259.80
568.17	248.10
568.34	222.35
568.50	269.16
568.66	259.80
568.83	290.23
568.99	266.82
569.15	283.20
569.32	187.24
569.48	248.10
569.64	257.46
569.81	245.76
569.97	227.03
570.13	269.16
570.30	250.44
570.46	257.46
570.62	182.56
570.78	229.37
570.95	222.35
571.11	231.71
571.27	348.74
571.43	248.10
571.60	231.71
571.76	250.44
571.92	224.69
572.09	245.76
572.25	231.71
572.41	231.71
572.57	238.73
572.74	266.82
572.90	234.05
573.06	320.65
573.22	311.29
573.38	285.55
573.55	229.37
573.71	231.71
573.87	243.42
574.03	269.16
574.20	252.78
574.36	273.84
574.52	287.89
574.68	297.25
574.84	257.46
575.01	259.80
575.17	325.33
575.33	252.78
575.49	222.35
575.65	257.46
575.82	290.23
575.98	418.96
576.14	503.22
576.30	482.15
576.46	409.59
576.62	449.38
576.79	374.49
576.95	374.49
577.11	280.86
577.27	334.70
577.43	292.57
577.59	320.65
577.75	271.50
577.92	344.06
578.08	318.31
578.24	334.70
578.40	294.91
578.56	362.78
578.72	449.38
578.88	376.83
579.04	376.83
579.21	353.42
579.37	290.23
579.53	271.50
579.69	325.33
579.85	337.04
580.01	355.76
580.17	341.72
580.33	400.23
580.49	283.20
580.65	407.25
580.82	318.31
580.98	351.08
581.14	311.29
581.30	351.08
581.46	290.23
581.62	433.00
581.78	465.77
581.94	465.77
582.10	376.83
582.26	367.46
582.42	325.33
582.58	374.49
582.74	351.08
582.90	390.87
583.06	404.91
583.22	346.40
583.38	395.55
583.54	465.77
583.70	397.89
583.86	533.64
584.02	510.24
584.18	622.58
584.34	711.52
584.50	1696.89
584.66	11777.58
584.82	29626.50
584.98	38588.41
585.14	33415.83
585.30	20634.16
585.46	12758.26
585.62	7885.26
585.78	3889.97
585.94	1619.65
586.10	950.26
586.26	636.63
586.42	531.30
586.58	479.81
586.74	451.72
586.90	477.47
587.06	505.56
587.22	484.49
587.38	451.72
587.54	741.95
587.70	1785.83
587.86	2768.85
588.02	2869.50
588.18	2054.99
588.34	1448.79
588.49	1006.43
588.65	641.31
588.81	395.55
588.97	315.97
589.13	369.80
589.29	292.57
589.45	308.95
589.61	320.65
589.77	339.38
589.93	330.02
590.08	440.02
590.24	348.74
590.40	411.93
590.56	346.40
590.72	322.99
590.88	322.99
591.04	369.80
591.20	292.57
591.35	348.74
591.51	369.80
591.67	308.95
591.83	339.38
591.99	322.99
592.15	301.93
592.31	353.42
592.46	311.29
592.62	367.46
592.78	252.78
592.94	311.29
593.10	306.61
593.26	250.44
593.41	360.44
593.57	330.02
593.73	454.06
593.89	1458.15
594.05	3597.40
594.20	4770.01
594.36	4526.60
594.52	2970.14
594.68	1942.64
594.84	1366.87
594.99	912.81
595.15	531.30
595.31	463.43
595.47	430.66
595.62	334.70
595.78	337.04
595.94	241.08
596.10	330.02
596.25	360.44
596.41	346.40
596.57	290.23
596.73	290.23
596.88	414.27
597.04	910.47
597.20	1249.85
597.36	1266.23
597.51	1041.54
597.67	758.33
597.83	617.90
597.99	507.90
598.14	351.08
598.30	351.08
598.46	322.99
598.61	320.65
598.77	327.68
598.93	252.78
599.09	292.57
599.24	311.29
599.40	285.55
599.56	276.18
599.71	388.53
599.87	388.53
600.03	238.73
600.18	245.76
600.34	287.89
600.50	280.86
600.65	262.14
600.81	276.18
600.97	297.25
601.12	294.91
601.28	372.15
601.44	290.23
601.59	231.71
601.75	203.63
601.91	318.31
602.06	264.48
602.22	372.15
602.37	468.11
602.53	1022.81
602.69	1390.28
602.84	1327.08
603.00	1069.62
603.16	826.21
603.31	587.47
603.47	470.45
603.62	297.25
603.78	325.33
603.94	318.31
604.09	306.61
604.25	257.46
604.40	273.84
604.56	280.86
604.71	250.44
604.87	285.55
605.03	322.99
605.18	294.91
605.34	334.70
605.49	313.63
605.65	255.12
605.80	344.06
605.96	222.35
606.12	318.31
606.27	308.95
606.43	290.23
606.58	348.74
606.74	589.82
606.89	1722.63
607.05	3267.39
607.20	3971.89
607.36	3304.84
607.51	2277.34
607.67	1535.39
607.82	1146.86
607.98	744.29
608.13	517.26
608.29	409.59
608.44	402.57
608.60	360.44
608.75	423.64
608.91	748.97
609.06	2782.90
609.22	5467.49
609.37	7157.36
609.53	5795.17
609.68	4248.07
609.84	2909.29
609.99	2106.48
610.15	1277.93
610.30	847.27
