SpectraSuite Data File
++++++++++++++++++++++++++++++++++++
Date: Fri Oct 04 11:33:49 GMT-05:00 2013
User: price-jones
Dark Spectrum Present: No
Reference Spectrum Present: No
Number of Sampled Component Spectra: 1
Spectrometers: USB2+H05261
Integration Time (usec): 100000 (USB2+H05261)
Spectra Averaged: 1 (USB2+H05261)
Boxcar Smoothing: 0 (USB2+H05261)
Correct for Electrical Dark: No (USB2+H05261)
Strobe/Lamp Enabled: No (USB2+H05261)
Correct for Detector Non-linearity: No (USB2+H05261)
Correct for Stray Light: No (USB2+H05261)
Number of Pixels in Processed Spectrum: 2048
>>>>>Begin Processed Spectral Data<<<<<
365.73	142.77
365.92	142.77
366.12	142.77
366.32	0.00
366.52	0.00
366.72	81.92
366.91	0.00
367.11	4.68
367.31	0.00
367.51	0.00
367.70	9.36
367.90	28.09
368.10	0.00
368.30	25.75
368.49	0.00
368.69	0.00
368.89	0.00
369.09	0.00
369.28	0.00
369.48	0.00
369.68	0.00
369.87	0.00
370.07	0.00
370.27	0.00
370.47	51.49
370.66	37.45
370.86	63.19
371.06	79.58
371.25	161.50
371.45	102.98
371.65	72.56
371.84	138.09
372.04	131.07
372.24	173.20
372.44	70.22
372.63	180.22
372.83	156.82
373.03	145.11
373.22	133.41
373.42	133.41
373.62	168.52
373.81	74.90
374.01	86.60
374.21	110.01
374.40	51.49
374.60	215.33
374.79	121.71
374.99	163.84
375.19	95.96
375.38	191.92
375.58	140.43
375.78	131.07
375.97	119.37
376.17	191.92
376.37	227.03
376.56	145.11
376.76	166.18
376.95	191.92
377.15	182.56
377.35	119.37
377.54	168.52
377.74	88.94
377.93	152.13
378.13	135.75
378.33	147.45
378.52	128.73
378.72	126.39
378.91	215.33
379.11	51.49
379.31	126.39
379.50	81.92
379.70	121.71
379.89	131.07
380.09	117.03
380.28	72.56
380.48	100.64
380.68	91.28
380.87	138.09
381.07	147.45
381.26	126.39
381.46	126.39
381.65	154.48
381.85	65.54
382.04	84.26
382.24	117.03
382.43	107.66
382.63	189.58
382.83	156.82
383.02	177.88
383.22	168.52
383.41	112.35
383.61	145.11
383.80	159.16
384.00	95.96
384.19	65.54
384.39	77.24
384.58	91.28
384.78	107.66
384.97	142.77
385.17	154.48
385.36	187.24
385.56	133.41
385.75	114.69
385.95	191.92
386.14	138.09
386.34	212.99
386.53	110.01
386.72	131.07
386.92	121.71
387.11	119.37
387.31	119.37
387.50	110.01
387.70	102.98
387.89	217.67
388.09	196.60
388.28	147.45
388.48	117.03
388.67	166.18
388.86	117.03
389.06	121.71
389.25	170.86
389.45	126.39
389.64	175.54
389.84	184.90
390.03	177.88
390.22	79.58
390.42	133.41
390.61	229.37
390.81	86.60
391.00	105.32
391.19	168.52
391.39	147.45
391.58	154.48
391.78	102.98
391.97	67.88
392.16	138.09
392.36	133.41
392.55	203.63
392.75	166.18
392.94	159.16
393.13	110.01
393.33	114.69
393.52	142.77
393.71	198.95
393.91	189.58
394.10	133.41
394.29	147.45
394.49	152.13
394.68	149.79
394.88	220.01
395.07	201.29
395.26	117.03
395.46	215.33
395.65	175.54
395.84	168.52
396.04	177.88
396.23	93.62
396.42	112.35
396.62	117.03
396.81	152.13
397.00	182.56
397.19	100.64
397.39	180.22
397.58	149.79
397.77	147.45
397.97	229.37
398.16	128.73
398.35	140.43
398.55	133.41
398.74	177.88
398.93	191.92
399.12	196.60
399.32	145.11
399.51	191.92
399.70	168.52
399.90	156.82
400.09	220.01
400.28	161.50
400.47	65.54
400.67	121.71
400.86	154.48
401.05	173.20
401.24	149.79
401.44	203.63
401.63	156.82
401.82	187.24
402.01	149.79
402.21	159.16
402.40	198.95
402.59	175.54
402.78	133.41
402.97	161.50
403.17	166.18
403.36	145.11
403.55	243.42
403.74	180.22
403.93	163.84
404.13	236.39
404.32	149.79
404.51	222.35
404.70	161.50
404.89	138.09
405.09	248.10
405.28	140.43
405.47	140.43
405.66	210.65
405.85	173.20
406.05	133.41
406.24	175.54
406.43	114.69
406.62	182.56
406.81	159.16
407.00	152.13
407.20	131.07
407.39	140.43
407.58	110.01
407.77	184.90
407.96	191.92
408.15	205.97
408.34	121.71
408.54	154.48
408.73	156.82
408.92	187.24
409.11	152.13
409.30	173.20
409.49	205.97
409.68	105.32
409.87	187.24
410.07	175.54
410.26	205.97
410.45	138.09
410.64	105.32
410.83	231.71
411.02	180.22
411.21	135.75
411.40	147.45
411.59	159.16
411.78	140.43
411.98	126.39
412.17	187.24
412.36	112.35
412.55	117.03
412.74	166.18
412.93	243.42
413.12	138.09
413.31	227.03
413.50	100.64
413.69	154.48
413.88	177.88
414.07	142.77
414.26	159.16
414.45	222.35
414.64	175.54
414.83	217.67
415.02	252.78
415.22	189.58
415.41	156.82
415.60	156.82
415.79	170.86
415.98	161.50
416.17	177.88
416.36	161.50
416.55	84.26
416.74	196.60
416.93	229.37
417.12	86.60
417.31	156.82
417.50	180.22
417.69	187.24
417.88	163.84
418.07	91.28
418.26	154.48
418.45	161.50
418.64	245.76
418.83	215.33
419.02	231.71
419.21	177.88
419.39	131.07
419.58	168.52
419.77	222.35
419.96	212.99
420.15	208.31
420.34	182.56
420.53	215.33
420.72	173.20
420.91	84.26
421.10	156.82
421.29	184.90
421.48	149.79
421.67	152.13
421.86	163.84
422.05	198.95
422.24	201.29
422.43	131.07
422.61	184.90
422.80	135.75
422.99	170.86
423.18	121.71
423.37	238.73
423.56	271.50
423.75	191.92
423.94	124.05
424.13	212.99
424.32	147.45
424.50	84.26
424.69	168.52
424.88	201.29
425.07	173.20
425.26	222.35
425.45	203.63
425.64	231.71
425.83	163.84
426.01	257.46
426.20	159.16
426.39	196.60
426.58	224.69
426.77	191.92
426.96	224.69
427.15	285.55
427.33	255.12
427.52	159.16
427.71	224.69
427.90	138.09
428.09	177.88
428.28	63.19
428.46	138.09
428.65	156.82
428.84	161.50
429.03	278.52
429.22	112.35
429.40	91.28
429.59	100.64
429.78	245.76
429.97	203.63
430.16	156.82
430.34	133.41
430.53	117.03
430.72	205.97
430.91	114.69
431.10	215.33
431.28	145.11
431.47	147.45
431.66	147.45
431.85	121.71
432.03	147.45
432.22	231.71
432.41	238.73
432.60	266.82
432.79	170.86
432.97	220.01
433.16	252.78
433.35	229.37
433.54	168.52
433.72	177.88
433.91	149.79
434.10	227.03
434.28	194.26
434.47	250.44
434.66	152.13
434.85	152.13
435.03	243.42
435.22	362.78
435.41	367.46
435.59	362.78
435.78	320.65
435.97	149.79
436.16	252.78
436.34	184.90
436.53	205.97
436.72	100.64
436.90	229.37
437.09	212.99
437.28	203.63
437.46	194.26
437.65	205.97
437.84	149.79
438.02	166.18
438.21	205.97
438.40	257.46
438.58	140.43
438.77	180.22
438.96	189.58
439.14	191.92
439.33	145.11
439.52	107.66
439.70	208.31
439.89	238.73
440.08	205.97
440.26	173.20
440.45	168.52
440.63	201.29
440.82	238.73
441.01	220.01
441.19	175.54
441.38	201.29
441.57	243.42
441.75	156.82
441.94	278.52
442.12	168.52
442.31	177.88
442.50	189.58
442.68	159.16
442.87	196.60
443.05	187.24
443.24	238.73
443.43	180.22
443.61	238.73
443.80	259.80
443.98	173.20
444.17	271.50
444.35	215.33
444.54	166.18
444.73	180.22
444.91	180.22
445.10	208.31
445.28	163.84
445.47	170.86
445.65	220.01
445.84	166.18
446.02	201.29
446.21	110.01
446.39	208.31
446.58	217.67
446.77	173.20
446.95	182.56
447.14	259.80
447.32	224.69
447.51	222.35
447.69	161.50
447.88	159.16
448.06	255.12
448.25	173.20
448.43	163.84
448.62	126.39
448.80	182.56
448.99	191.92
449.17	177.88
449.36	126.39
449.54	149.79
449.73	166.18
449.91	215.33
450.10	156.82
450.28	241.08
450.46	234.05
450.65	250.44
450.83	159.16
451.02	184.90
451.20	229.37
451.39	135.75
451.57	152.13
451.76	161.50
451.94	217.67
452.13	208.31
452.31	147.45
452.49	152.13
452.68	177.88
452.86	212.99
453.05	283.20
453.23	166.18
453.42	119.37
453.60	159.16
453.78	243.42
453.97	138.09
454.15	154.48
454.34	170.86
454.52	229.37
454.70	208.31
454.89	170.86
455.07	86.60
455.26	156.82
455.44	198.95
455.62	182.56
455.81	205.97
455.99	222.35
456.17	173.20
456.36	152.13
456.54	208.31
456.73	140.43
456.91	182.56
457.09	149.79
457.28	210.65
457.46	121.71
457.64	175.54
457.83	166.18
458.01	117.03
458.19	220.01
458.38	182.56
458.56	212.99
458.74	175.54
458.93	205.97
459.11	196.60
459.29	168.52
459.48	243.42
459.66	231.71
459.84	217.67
460.03	255.12
460.21	243.42
460.39	112.35
460.57	184.90
460.76	222.35
460.94	220.01
461.12	156.82
461.31	210.65
461.49	154.48
461.67	187.24
461.85	170.86
462.04	182.56
462.22	653.01
462.40	280.86
462.59	318.31
462.77	191.92
462.95	201.29
463.13	154.48
463.32	205.97
463.50	215.33
463.68	182.56
463.86	196.60
464.05	180.22
464.23	234.05
464.41	191.92
464.59	238.73
464.78	119.37
464.96	203.63
465.14	182.56
465.32	152.13
465.50	135.75
465.69	93.62
465.87	189.58
466.05	241.08
466.23	189.58
466.41	177.88
466.60	196.60
466.78	215.33
466.96	245.76
467.14	180.22
467.32	241.08
467.51	224.69
467.69	163.84
467.87	126.39
468.05	208.31
468.23	215.33
468.41	182.56
468.60	234.05
468.78	238.73
468.96	168.52
469.14	217.67
469.32	248.10
469.50	255.12
469.69	248.10
469.87	255.12
470.05	168.52
470.23	198.95
470.41	184.90
470.59	229.37
470.77	212.99
470.95	236.39
471.14	229.37
471.32	170.86
471.50	173.20
471.68	147.45
471.86	168.52
472.04	145.11
472.22	196.60
472.40	170.86
472.58	201.29
472.77	149.79
472.95	175.54
473.13	238.73
473.31	222.35
473.49	201.29
473.67	198.95
473.85	205.97
474.03	231.71
474.21	124.05
474.39	320.65
474.57	224.69
474.75	234.05
474.93	283.20
475.12	170.86
475.30	156.82
475.48	145.11
475.66	140.43
475.84	154.48
476.02	189.58
476.20	156.82
476.38	224.69
476.56	241.08
476.74	210.65
476.92	184.90
477.10	252.78
477.28	252.78
477.46	231.71
477.64	196.60
477.82	177.88
478.00	189.58
478.18	236.39
478.36	224.69
478.54	201.29
478.72	255.12
478.90	229.37
479.08	250.44
479.26	222.35
479.44	177.88
479.62	182.56
479.80	180.22
479.98	231.71
480.16	128.73
480.34	292.57
480.52	243.42
480.70	245.76
480.88	175.54
481.06	217.67
481.24	168.52
481.41	215.33
481.59	187.24
481.77	252.78
481.95	229.37
482.13	194.26
482.31	210.65
482.49	257.46
482.67	229.37
482.85	191.92
483.03	217.67
483.21	243.42
483.39	227.03
483.57	227.03
483.74	306.61
483.92	210.65
484.10	229.37
484.28	283.20
484.46	229.37
484.64	248.10
484.82	173.20
485.00	297.25
485.18	238.73
485.35	248.10
485.53	259.80
485.71	191.92
485.89	229.37
486.07	250.44
486.25	334.70
486.43	276.18
486.61	318.31
486.78	205.97
486.96	278.52
487.14	294.91
487.32	173.20
487.50	229.37
487.68	208.31
487.85	245.76
488.03	236.39
488.21	212.99
488.39	248.10
488.57	184.90
488.75	220.01
488.92	477.47
489.10	257.46
489.28	315.97
489.46	170.86
489.64	196.60
489.81	196.60
489.99	203.63
490.17	196.60
490.35	229.37
490.53	229.37
490.70	196.60
490.88	208.31
491.06	259.80
491.24	229.37
491.41	262.14
491.59	273.84
491.77	250.44
491.95	196.60
492.13	245.76
492.30	262.14
492.48	299.59
492.66	252.78
492.84	205.97
493.01	159.16
493.19	198.95
493.37	229.37
493.54	241.08
493.72	234.05
493.90	250.44
494.08	212.99
494.25	217.67
494.43	196.60
494.61	236.39
494.79	224.69
494.96	248.10
495.14	205.97
495.32	236.39
495.49	245.76
495.67	262.14
495.85	224.69
496.02	238.73
496.20	280.86
496.38	283.20
496.55	264.48
496.73	285.55
496.91	238.73
497.09	264.48
497.26	269.16
497.44	208.31
497.62	170.86
497.79	266.82
497.97	212.99
498.14	220.01
498.32	222.35
498.50	227.03
498.67	224.69
498.85	259.80
499.03	259.80
499.20	217.67
499.38	149.79
499.56	182.56
499.73	241.08
499.91	262.14
500.08	236.39
500.26	236.39
500.44	212.99
500.61	266.82
500.79	248.10
500.97	166.18
501.14	238.73
501.32	278.52
501.49	222.35
501.67	198.95
501.84	220.01
502.02	280.86
502.20	308.95
502.37	283.20
502.55	276.18
502.72	196.60
502.90	266.82
503.07	308.95
503.25	212.99
503.43	273.84
503.60	238.73
503.78	299.59
503.95	304.27
504.13	271.50
504.30	231.71
504.48	252.78
504.65	292.57
504.83	210.65
505.01	252.78
505.18	262.14
505.36	234.05
505.53	180.22
505.71	205.97
505.88	266.82
506.06	318.31
506.23	191.92
506.41	224.69
506.58	257.46
506.76	177.88
506.93	306.61
507.11	208.31
507.28	238.73
507.46	227.03
507.63	229.37
507.81	269.16
507.98	229.37
508.16	203.63
508.33	234.05
508.50	238.73
508.68	276.18
508.85	278.52
509.03	248.10
509.20	149.79
509.38	231.71
509.55	245.76
509.73	287.89
509.90	330.02
510.08	278.52
510.25	322.99
510.42	297.25
510.60	250.44
510.77	337.04
510.95	259.80
511.12	273.84
511.30	276.18
511.47	283.20
511.64	294.91
511.82	287.89
511.99	262.14
512.17	283.20
512.34	224.69
512.51	285.55
512.69	248.10
512.86	259.80
513.04	252.78
513.21	198.95
513.38	322.99
513.56	308.95
513.73	297.25
513.90	250.44
514.08	248.10
514.25	273.84
514.43	241.08
514.60	269.16
514.77	229.37
514.95	252.78
515.12	255.12
515.29	203.63
515.47	294.91
515.64	238.73
515.81	241.08
515.99	353.42
516.16	222.35
516.33	255.12
516.51	266.82
516.68	241.08
516.85	205.97
517.03	236.39
517.20	262.14
517.37	182.56
517.54	224.69
517.72	280.86
517.89	255.12
518.06	269.16
518.24	318.31
518.41	273.84
518.58	330.02
518.75	341.72
518.93	348.74
519.10	327.68
519.27	287.89
519.45	262.14
519.62	334.70
519.79	215.33
519.96	290.23
520.14	229.37
520.31	203.63
520.48	224.69
520.65	306.61
520.83	355.76
521.00	276.18
521.17	325.33
521.34	196.60
521.52	238.73
521.69	266.82
521.86	231.71
522.03	248.10
522.20	241.08
522.38	264.48
522.55	322.99
522.72	266.82
522.89	245.76
523.07	236.39
523.24	210.65
523.41	222.35
523.58	264.48
523.75	299.59
523.92	248.10
524.10	327.68
524.27	255.12
524.44	208.31
524.61	304.27
524.78	194.26
524.96	287.89
525.13	266.82
525.30	266.82
525.47	264.48
525.64	266.82
525.81	311.29
525.98	236.39
526.16	257.46
526.33	241.08
526.50	287.89
526.67	196.60
526.84	194.26
527.01	231.71
527.18	264.48
527.36	248.10
527.53	238.73
527.70	287.89
527.87	234.05
528.04	266.82
528.21	285.55
528.38	301.93
528.55	259.80
528.72	278.52
528.89	332.36
529.07	290.23
529.24	381.51
529.41	273.84
529.58	332.36
529.75	198.95
529.92	308.95
530.09	297.25
530.26	301.93
530.43	252.78
530.60	252.78
530.77	269.16
530.94	325.33
531.11	271.50
531.28	222.35
531.46	290.23
531.63	241.08
531.80	269.16
531.97	297.25
532.14	280.86
532.31	283.20
532.48	334.70
532.65	297.25
532.82	390.87
532.99	390.87
533.16	322.99
533.33	262.14
533.50	243.42
533.67	292.57
533.84	388.53
534.01	327.68
534.18	346.40
534.35	231.71
534.52	322.99
534.69	320.65
534.86	271.50
535.03	271.50
535.20	257.46
535.37	320.65
535.54	278.52
535.71	257.46
535.88	348.74
536.05	276.18
536.22	269.16
536.38	280.86
536.55	229.37
536.72	308.95
536.89	308.95
537.06	308.95
537.23	304.27
537.40	334.70
537.57	231.71
537.74	292.57
537.91	236.39
538.08	292.57
538.25	285.55
538.42	325.33
538.59	280.86
538.75	276.18
538.92	318.31
539.09	304.27
539.26	358.10
539.43	458.74
539.60	697.48
539.77	943.24
539.94	954.94
540.11	732.59
540.28	510.24
540.44	440.02
540.61	404.91
540.78	337.04
540.95	411.93
541.12	421.30
541.29	463.43
541.46	456.40
541.62	479.81
541.79	493.85
541.96	449.38
542.13	444.70
542.30	468.11
542.47	416.62
542.63	379.17
542.80	491.51
542.97	444.70
543.14	402.57
543.31	374.49
543.48	376.83
543.64	437.68
543.81	404.91
543.98	435.34
544.15	358.10
544.32	496.19
544.48	395.55
544.65	400.23
544.82	402.57
544.99	423.64
545.16	458.74
545.32	503.22
545.49	624.92
545.66	751.31
545.83	795.78
546.00	636.63
546.16	475.13
546.33	486.83
546.50	421.30
546.67	461.09
546.83	390.87
547.00	372.15
547.17	409.59
547.34	369.80
547.50	360.44
547.67	306.61
547.84	346.40
548.00	383.85
548.17	362.78
548.34	344.06
548.51	379.17
548.67	397.89
548.84	283.20
549.01	381.51
549.18	297.25
549.34	330.02
549.51	397.89
549.68	362.78
549.84	372.15
550.01	318.31
550.18	388.53
550.34	388.53
550.51	318.31
550.68	372.15
550.84	318.31
551.01	320.65
551.18	278.52
551.34	313.63
551.51	283.20
551.68	250.44
551.84	332.36
552.01	383.85
552.18	278.52
552.34	322.99
552.51	250.44
552.68	273.84
552.84	339.38
553.01	344.06
553.18	381.51
553.34	257.46
553.51	250.44
553.67	287.89
553.84	290.23
554.01	327.68
554.17	227.03
554.34	290.23
554.51	255.12
554.67	269.16
554.84	271.50
555.00	278.52
555.17	252.78
555.33	341.72
555.50	266.82
555.67	266.82
555.83	276.18
556.00	224.69
556.16	433.00
556.33	262.14
556.50	262.14
556.66	278.52
556.83	248.10
556.99	252.78
557.16	271.50
557.32	257.46
557.49	330.02
557.65	248.10
557.82	322.99
557.98	241.08
558.15	238.73
558.32	140.43
558.48	271.50
558.65	166.18
558.81	280.86
558.98	294.91
559.14	248.10
559.31	313.63
559.47	290.23
559.64	252.78
559.80	236.39
559.97	210.65
560.13	285.55
560.30	229.37
560.46	266.82
560.63	271.50
560.79	248.10
560.96	264.48
561.12	351.08
561.29	257.46
561.45	273.84
561.61	238.73
561.78	299.59
561.94	294.91
562.11	269.16
562.27	229.37
562.44	290.23
562.60	194.26
562.77	315.97
562.93	271.50
563.10	264.48
563.26	191.92
563.42	315.97
563.59	259.80
563.75	269.16
563.92	278.52
564.08	264.48
564.24	344.06
564.41	250.44
564.57	269.16
564.74	229.37
564.90	283.20
565.07	224.69
565.23	346.40
565.39	266.82
565.56	252.78
565.72	266.82
565.88	355.76
566.05	250.44
566.21	238.73
566.38	294.91
566.54	369.80
566.70	250.44
566.87	311.29
567.03	173.20
567.19	250.44
567.36	362.78
567.52	198.95
567.68	315.97
567.85	212.99
568.01	266.82
568.17	238.73
568.34	229.37
568.50	301.93
568.66	234.05
568.83	248.10
568.99	212.99
569.15	311.29
569.32	266.82
569.48	287.89
569.64	259.80
569.81	280.86
569.97	205.97
570.13	271.50
570.30	243.42
570.46	201.29
570.62	241.08
570.78	250.44
570.95	236.39
571.11	264.48
571.27	212.99
571.43	248.10
571.60	313.63
571.76	231.71
571.92	306.61
572.09	264.48
572.25	187.24
572.41	283.20
572.57	301.93
572.74	341.72
572.90	313.63
573.06	294.91
573.22	299.59
573.38	259.80
573.55	273.84
573.71	297.25
573.87	177.88
574.03	238.73
574.20	322.99
574.36	360.44
574.52	273.84
574.68	255.12
574.84	301.93
575.01	238.73
575.17	308.95
575.33	182.56
575.49	290.23
575.65	353.42
575.82	322.99
575.98	388.53
576.14	503.22
576.30	505.56
576.46	463.43
576.62	428.32
576.79	465.77
576.95	458.74
577.11	320.65
577.27	264.48
577.43	301.93
577.59	231.71
577.75	301.93
577.92	320.65
578.08	229.37
578.24	271.50
578.40	325.33
578.56	388.53
578.72	355.76
578.88	355.76
579.04	390.87
579.21	311.29
579.37	327.68
579.53	351.08
579.69	355.76
579.85	297.25
580.01	369.80
580.17	369.80
580.33	304.27
580.49	339.38
580.65	407.25
580.82	266.82
580.98	304.27
581.14	294.91
581.30	280.86
581.46	299.59
581.62	414.27
581.78	468.11
581.94	404.91
582.10	411.93
582.26	397.89
582.42	411.93
582.58	437.68
582.74	433.00
582.90	383.85
583.06	437.68
583.22	388.53
583.38	411.93
583.54	416.62
583.70	409.59
583.86	540.66
584.02	550.03
584.18	664.71
584.34	819.19
584.50	1727.32
584.66	11655.87
584.82	30595.48
584.98	44179.95
585.14	37968.17
585.30	24077.09
585.46	14443.45
585.62	9184.26
585.78	4388.50
585.94	1856.04
586.10	952.60
586.26	699.82
586.42	645.99
586.58	573.43
586.74	468.11
586.90	437.68
587.06	540.66
587.22	498.53
587.38	524.28
587.54	793.44
587.70	1856.04
587.86	2979.50
588.02	3157.38
588.18	2450.54
588.34	1593.90
588.49	1100.05
588.65	760.67
588.81	484.49
588.97	386.19
589.13	287.89
589.29	292.57
589.45	372.15
589.61	304.27
589.77	393.21
589.93	369.80
590.08	344.06
590.24	311.29
590.40	346.40
590.56	313.63
590.72	351.08
590.88	264.48
591.04	344.06
591.20	271.50
591.35	390.87
591.51	283.20
591.67	423.64
591.83	322.99
591.99	346.40
592.15	332.36
592.31	346.40
592.46	290.23
592.62	337.04
592.78	379.17
592.94	280.86
593.10	313.63
593.26	306.61
593.41	402.57
593.57	294.91
593.73	414.27
593.89	1551.78
594.05	3676.98
594.20	5509.62
594.36	5107.05
594.52	3618.47
594.68	2253.94
594.84	1584.54
594.99	940.90
595.15	477.47
595.31	383.85
595.47	390.87
595.62	339.38
595.78	278.52
595.94	299.59
596.10	334.70
596.25	337.04
596.41	390.87
596.57	262.14
596.73	250.44
596.88	395.55
597.04	779.40
597.20	1289.64
597.36	1465.18
597.51	1191.33
597.67	903.45
597.83	645.99
597.99	486.83
598.14	358.10
598.30	348.74
598.46	346.40
598.61	358.10
598.77	306.61
598.93	290.23
599.09	301.93
599.24	313.63
599.40	344.06
599.56	297.25
599.71	285.55
599.87	292.57
600.03	311.29
600.18	198.95
600.34	287.89
600.50	262.14
600.65	217.67
600.81	313.63
600.97	243.42
601.12	332.36
601.28	252.78
601.44	220.01
601.59	220.01
601.75	315.97
601.91	381.51
602.06	285.55
602.22	362.78
602.37	461.09
602.53	990.05
602.69	1476.88
602.84	1486.24
603.00	1142.18
603.16	844.93
603.31	674.07
603.47	430.66
603.62	294.91
603.78	280.86
603.94	259.80
604.09	262.14
604.25	346.40
604.40	271.50
604.56	297.25
604.71	299.59
604.87	280.86
605.03	299.59
605.18	266.82
605.34	320.65
605.49	285.55
605.65	264.48
605.80	257.46
605.96	276.18
606.12	285.55
606.27	376.83
606.43	294.91
606.58	416.62
606.74	578.11
606.89	1818.60
607.05	3653.58
607.20	4702.14
607.36	3805.71
607.51	2572.25
607.67	1874.77
607.82	1315.38
607.98	903.45
608.13	498.53
608.29	404.91
608.44	402.57
608.60	369.80
608.75	411.93
608.91	739.61
609.06	2918.65
609.22	6171.99
609.37	7843.14
609.53	6927.99
609.68	4690.43
609.84	3213.56
609.99	2270.32
610.15	1366.87
610.30	940.90
610.46	660.03
