SpectraSuite Data File
++++++++++++++++++++++++++++++++++++
Date: Fri Oct 04 11:33:51 GMT-05:00 2013
User: price-jones
Dark Spectrum Present: No
Reference Spectrum Present: No
Number of Sampled Component Spectra: 1
Spectrometers: USB2+H05261
Integration Time (usec): 100000 (USB2+H05261)
Spectra Averaged: 1 (USB2+H05261)
Boxcar Smoothing: 0 (USB2+H05261)
Correct for Electrical Dark: No (USB2+H05261)
Strobe/Lamp Enabled: No (USB2+H05261)
Correct for Detector Non-linearity: No (USB2+H05261)
Correct for Stray Light: No (USB2+H05261)
Number of Pixels in Processed Spectrum: 2048
>>>>>Begin Processed Spectral Data<<<<<
365.73	0.00
365.92	0.00
366.12	0.00
366.32	0.00
366.52	0.00
366.72	0.00
366.91	0.00
367.11	21.06
367.31	0.00
367.51	0.00
367.70	21.06
367.90	0.00
368.10	0.00
368.30	0.00
368.49	0.00
368.69	0.00
368.89	0.00
369.09	4.68
369.28	30.43
369.48	51.49
369.68	0.00
369.87	21.06
370.07	0.00
370.27	25.75
370.47	58.51
370.66	65.54
370.86	81.92
371.06	35.11
371.25	39.79
371.45	49.15
371.65	32.77
371.84	70.22
372.04	95.96
372.24	182.56
372.44	86.60
372.63	88.94
372.83	138.09
373.03	220.01
373.22	138.09
373.42	98.30
373.62	145.11
373.81	184.90
374.01	131.07
374.21	159.16
374.40	248.10
374.60	166.18
374.79	215.33
374.99	168.52
375.19	159.16
375.38	201.29
375.58	138.09
375.78	117.03
375.97	168.52
376.17	168.52
376.37	222.35
376.56	191.92
376.76	133.41
376.95	140.43
377.15	168.52
377.35	102.98
377.54	173.20
377.74	100.64
377.93	98.30
378.13	145.11
378.33	98.30
378.52	138.09
378.72	170.86
378.91	177.88
379.11	145.11
379.31	149.79
379.50	142.77
379.70	114.69
379.89	147.45
380.09	180.22
380.28	184.90
380.48	128.73
380.68	117.03
380.87	133.41
381.07	93.62
381.26	149.79
381.46	191.92
381.65	184.90
381.85	114.69
382.04	114.69
382.24	145.11
382.43	161.50
382.63	184.90
382.83	173.20
383.02	128.73
383.22	88.94
383.41	154.48
383.61	126.39
383.80	168.52
384.00	182.56
384.19	107.66
384.39	102.98
384.58	72.56
384.78	152.13
384.97	138.09
385.17	166.18
385.36	154.48
385.56	189.58
385.75	84.26
385.95	177.88
386.14	140.43
386.34	81.92
386.53	86.60
386.72	149.79
386.92	220.01
387.11	149.79
387.31	245.76
387.50	187.24
387.70	156.82
387.89	86.60
388.09	58.51
388.28	110.01
388.48	156.82
388.67	145.11
388.86	124.05
389.06	74.90
389.25	210.65
389.45	152.13
389.64	145.11
389.84	117.03
390.03	170.86
390.22	217.67
390.42	117.03
390.61	117.03
390.81	102.98
391.00	135.75
391.19	184.90
391.39	215.33
391.58	51.49
391.78	166.18
391.97	102.98
392.16	182.56
392.36	154.48
392.55	241.08
392.75	102.98
392.94	114.69
393.13	84.26
393.33	159.16
393.52	124.05
393.71	238.73
393.91	177.88
394.10	145.11
394.29	91.28
394.49	191.92
394.68	217.67
394.88	156.82
395.07	138.09
395.26	117.03
395.46	149.79
395.65	135.75
395.84	154.48
396.04	248.10
396.23	93.62
396.42	88.94
396.62	194.26
396.81	175.54
397.00	159.16
397.19	128.73
397.39	163.84
397.58	138.09
397.77	138.09
397.97	168.52
398.16	110.01
398.35	220.01
398.55	93.62
398.74	126.39
398.93	173.20
399.12	133.41
399.32	142.77
399.51	180.22
399.70	119.37
399.90	110.01
400.09	131.07
400.28	133.41
400.47	187.24
400.67	119.37
400.86	166.18
401.05	236.39
401.24	135.75
401.44	110.01
401.63	161.50
401.82	173.20
402.01	32.77
402.21	161.50
402.40	191.92
402.59	156.82
402.78	187.24
402.97	177.88
403.17	138.09
403.36	166.18
403.55	133.41
403.74	145.11
403.93	154.48
404.13	212.99
404.32	156.82
404.51	220.01
404.70	180.22
404.89	102.98
405.09	191.92
405.28	184.90
405.47	152.13
405.66	91.28
405.85	133.41
406.05	152.13
406.24	131.07
406.43	208.31
406.62	135.75
406.81	166.18
407.00	121.71
407.20	166.18
407.39	180.22
407.58	161.50
407.77	227.03
407.96	168.52
408.15	152.13
408.34	74.90
408.54	182.56
408.73	126.39
408.92	117.03
409.11	163.84
409.30	198.95
409.49	152.13
409.68	147.45
409.87	154.48
410.07	142.77
410.26	145.11
410.45	100.64
410.64	147.45
410.83	191.92
411.02	187.24
411.21	149.79
411.40	145.11
411.59	177.88
411.78	128.73
411.98	100.64
412.17	222.35
412.36	140.43
412.55	154.48
412.74	231.71
412.93	201.29
413.12	177.88
413.31	145.11
413.50	168.52
413.69	222.35
413.88	243.42
414.07	194.26
414.26	128.73
414.45	142.77
414.64	114.69
414.83	156.82
415.02	182.56
415.22	205.97
415.41	191.92
415.60	117.03
415.79	147.45
415.98	112.35
416.17	95.96
416.36	168.52
416.55	126.39
416.74	133.41
416.93	205.97
417.12	189.58
417.31	84.26
417.50	131.07
417.69	198.95
417.88	133.41
418.07	187.24
418.26	119.37
418.45	248.10
418.64	196.60
418.83	124.05
419.02	205.97
419.21	278.52
419.39	142.77
419.58	159.16
419.77	128.73
419.96	119.37
420.15	173.20
420.34	79.58
420.53	161.50
420.72	163.84
420.91	131.07
421.10	133.41
421.29	152.13
421.48	161.50
421.67	278.52
421.86	243.42
422.05	131.07
422.24	184.90
422.43	191.92
422.61	184.90
422.80	81.92
422.99	177.88
423.18	128.73
423.37	182.56
423.56	215.33
423.75	133.41
423.94	135.75
424.13	191.92
424.32	156.82
424.50	147.45
424.69	149.79
424.88	163.84
425.07	112.35
425.26	175.54
425.45	196.60
425.64	156.82
425.83	173.20
426.01	170.86
426.20	243.42
426.39	187.24
426.58	177.88
426.77	147.45
426.96	210.65
427.15	133.41
427.33	180.22
427.52	170.86
427.71	182.56
427.90	205.97
428.09	131.07
428.28	142.77
428.46	189.58
428.65	203.63
428.84	154.48
429.03	189.58
429.22	159.16
429.40	138.09
429.59	154.48
429.78	243.42
429.97	177.88
430.16	163.84
430.34	173.20
430.53	119.37
430.72	187.24
430.91	138.09
431.10	131.07
431.28	145.11
431.47	201.29
431.66	187.24
431.85	215.33
432.03	245.76
432.22	196.60
432.41	133.41
432.60	173.20
432.79	227.03
432.97	236.39
433.16	149.79
433.35	196.60
433.54	182.56
433.72	194.26
433.91	210.65
434.10	142.77
434.28	168.52
434.47	152.13
434.66	201.29
434.85	173.20
435.03	259.80
435.22	313.63
435.41	425.98
435.59	376.83
435.78	290.23
435.97	220.01
436.16	229.37
436.34	182.56
436.53	152.13
436.72	198.95
436.90	184.90
437.09	154.48
437.28	163.84
437.46	198.95
437.65	175.54
437.84	189.58
438.02	91.28
438.21	212.99
438.40	161.50
438.58	152.13
438.77	147.45
438.96	105.32
439.14	203.63
439.33	119.37
439.52	229.37
439.70	175.54
439.89	189.58
440.08	184.90
440.26	149.79
440.45	187.24
440.63	196.60
440.82	145.11
441.01	161.50
441.19	220.01
441.38	173.20
441.57	292.57
441.75	191.92
441.94	231.71
442.12	156.82
442.31	234.05
442.50	133.41
442.68	161.50
442.87	184.90
443.05	135.75
443.24	173.20
443.43	166.18
443.61	177.88
443.80	173.20
443.98	156.82
444.17	117.03
444.35	224.69
444.54	196.60
444.73	201.29
444.91	182.56
445.10	168.52
445.28	180.22
445.47	152.13
445.65	189.58
445.84	133.41
446.02	128.73
446.21	147.45
446.39	168.52
446.58	205.97
446.77	182.56
446.95	119.37
447.14	175.54
447.32	217.67
447.51	187.24
447.69	262.14
447.88	170.86
448.06	243.42
448.25	147.45
448.43	180.22
448.62	187.24
448.80	301.93
448.99	198.95
449.17	152.13
449.36	156.82
449.54	227.03
449.73	166.18
449.91	259.80
450.10	149.79
450.28	250.44
450.46	187.24
450.65	245.76
450.83	191.92
451.02	175.54
451.20	196.60
451.39	180.22
451.57	245.76
451.76	152.13
451.94	180.22
452.13	215.33
452.31	121.71
452.49	224.69
452.68	126.39
452.86	222.35
453.05	241.08
453.23	154.48
453.42	227.03
453.60	156.82
453.78	250.44
453.97	152.13
454.15	138.09
454.34	173.20
454.52	191.92
454.70	212.99
454.89	208.31
455.07	100.64
455.26	245.76
455.44	238.73
455.62	182.56
455.81	208.31
455.99	227.03
456.17	231.71
456.36	135.75
456.54	159.16
456.73	154.48
456.91	135.75
457.09	227.03
457.28	266.82
457.46	173.20
457.64	243.42
457.83	168.52
458.01	201.29
458.19	177.88
458.38	173.20
458.56	222.35
458.74	168.52
458.93	138.09
459.11	208.31
459.29	124.05
459.48	238.73
459.66	220.01
459.84	154.48
460.03	220.01
460.21	318.31
460.39	201.29
460.57	163.84
460.76	198.95
460.94	208.31
461.12	168.52
461.31	191.92
461.49	194.26
461.67	168.52
461.85	196.60
462.04	138.09
462.22	657.69
462.40	198.95
462.59	266.82
462.77	266.82
462.95	210.65
463.13	154.48
463.32	184.90
463.50	126.39
463.68	234.05
463.86	149.79
464.05	159.16
464.23	283.20
464.41	269.16
464.59	180.22
464.78	161.50
464.96	128.73
465.14	208.31
465.32	135.75
465.50	245.76
465.69	105.32
465.87	236.39
466.05	156.82
466.23	114.69
466.41	229.37
466.60	236.39
466.78	117.03
466.96	203.63
467.14	126.39
467.32	297.25
467.51	215.33
467.69	231.71
467.87	217.67
468.05	154.48
468.23	266.82
468.41	215.33
468.60	250.44
468.78	210.65
468.96	152.13
469.14	184.90
469.32	177.88
469.50	184.90
469.69	184.90
469.87	212.99
470.05	224.69
470.23	170.86
470.41	126.39
470.59	110.01
470.77	131.07
470.95	133.41
471.14	147.45
471.32	241.08
471.50	220.01
471.68	105.32
471.86	208.31
472.04	187.24
472.22	201.29
472.40	149.79
472.58	234.05
472.77	135.75
472.95	222.35
473.13	236.39
473.31	224.69
473.49	154.48
473.67	126.39
473.85	159.16
474.03	189.58
474.21	187.24
474.39	278.52
474.57	224.69
474.75	201.29
474.93	161.50
475.12	189.58
475.30	156.82
475.48	163.84
475.66	241.08
475.84	266.82
476.02	217.67
476.20	301.93
476.38	154.48
476.56	259.80
476.74	243.42
476.92	163.84
477.10	180.22
477.28	189.58
477.46	184.90
477.64	163.84
477.82	161.50
478.00	217.67
478.18	166.18
478.36	220.01
478.54	198.95
478.72	170.86
478.90	191.92
479.08	297.25
479.26	196.60
479.44	187.24
479.62	217.67
479.80	276.18
479.98	259.80
480.16	149.79
480.34	245.76
480.52	220.01
480.70	166.18
480.88	133.41
481.06	227.03
481.24	189.58
481.41	245.76
481.59	175.54
481.77	203.63
481.95	86.60
482.13	227.03
482.31	208.31
482.49	145.11
482.67	238.73
482.85	187.24
483.03	259.80
483.21	222.35
483.39	208.31
483.57	170.86
483.74	234.05
483.92	203.63
484.10	224.69
484.28	280.86
484.46	234.05
484.64	203.63
484.82	236.39
485.00	243.42
485.18	264.48
485.35	215.33
485.53	222.35
485.71	292.57
485.89	175.54
486.07	159.16
486.25	287.89
486.43	250.44
486.61	208.31
486.78	299.59
486.96	196.60
487.14	229.37
487.32	142.77
487.50	117.03
487.68	234.05
487.85	280.86
488.03	238.73
488.21	294.91
488.39	194.26
488.57	231.71
488.75	175.54
488.92	498.53
489.10	159.16
489.28	255.12
489.46	217.67
489.64	315.97
489.81	283.20
489.99	271.50
490.17	208.31
490.35	341.72
490.53	241.08
490.70	212.99
490.88	259.80
491.06	245.76
491.24	241.08
491.41	248.10
491.59	292.57
491.77	301.93
491.95	250.44
492.13	194.26
492.30	241.08
492.48	170.86
492.66	271.50
492.84	257.46
493.01	294.91
493.19	166.18
493.37	252.78
493.54	311.29
493.72	152.13
493.90	163.84
494.08	182.56
494.25	255.12
494.43	238.73
494.61	203.63
494.79	264.48
494.96	210.65
495.14	231.71
495.32	276.18
495.49	215.33
495.67	227.03
495.85	266.82
496.02	198.95
496.20	266.82
496.38	320.65
496.55	311.29
496.73	255.12
496.91	205.97
497.09	241.08
497.26	276.18
497.44	241.08
497.62	304.27
497.79	306.61
497.97	276.18
498.14	262.14
498.32	241.08
498.50	222.35
498.67	198.95
498.85	241.08
499.03	290.23
499.20	278.52
499.38	292.57
499.56	241.08
499.73	301.93
499.91	297.25
500.08	262.14
500.26	255.12
500.44	198.95
500.61	224.69
500.79	313.63
500.97	266.82
501.14	227.03
501.32	287.89
501.49	255.12
501.67	217.67
501.84	283.20
502.02	304.27
502.20	294.91
502.37	297.25
502.55	252.78
502.72	311.29
502.90	238.73
503.07	236.39
503.25	299.59
503.43	163.84
503.60	220.01
503.78	250.44
503.95	304.27
504.13	194.26
504.30	205.97
504.48	313.63
504.65	330.02
504.83	266.82
505.01	194.26
505.18	236.39
505.36	217.67
505.53	231.71
505.71	212.99
505.88	243.42
506.06	201.29
506.23	220.01
506.41	236.39
506.58	217.67
506.76	234.05
506.93	262.14
507.11	290.23
507.28	269.16
507.46	203.63
507.63	231.71
507.81	255.12
507.98	280.86
508.16	166.18
508.33	255.12
508.50	210.65
508.68	222.35
508.85	262.14
509.03	264.48
509.20	196.60
509.38	280.86
509.55	252.78
509.73	262.14
509.90	205.97
510.08	194.26
510.25	238.73
510.42	245.76
510.60	201.29
510.77	234.05
510.95	283.20
511.12	227.03
511.30	294.91
511.47	191.92
511.64	266.82
511.82	292.57
511.99	222.35
512.17	231.71
512.34	252.78
512.51	266.82
512.69	189.58
512.86	224.69
513.04	245.76
513.21	236.39
513.38	217.67
513.56	161.50
513.73	205.97
513.90	222.35
514.08	203.63
514.25	252.78
514.43	173.20
514.60	149.79
514.77	241.08
514.95	250.44
515.12	250.44
515.29	220.01
515.47	266.82
515.64	252.78
515.81	203.63
515.99	259.80
516.16	243.42
516.33	287.89
516.51	243.42
516.68	238.73
516.85	198.95
517.03	208.31
517.20	365.12
517.37	236.39
517.54	238.73
517.72	294.91
517.89	205.97
518.06	269.16
518.24	264.48
518.41	208.31
518.58	264.48
518.75	201.29
518.93	250.44
519.10	187.24
519.27	234.05
519.45	264.48
519.62	250.44
519.79	229.37
519.96	224.69
520.14	280.86
520.31	346.40
520.48	224.69
520.65	119.37
520.83	175.54
521.00	287.89
521.17	250.44
521.34	189.58
521.52	287.89
521.69	234.05
521.86	243.42
522.03	276.18
522.20	297.25
522.38	140.43
522.55	243.42
522.72	257.46
522.89	278.52
523.07	280.86
523.24	220.01
523.41	234.05
523.58	248.10
523.75	234.05
523.92	287.89
524.10	273.84
524.27	315.97
524.44	252.78
524.61	290.23
524.78	252.78
524.96	238.73
525.13	255.12
525.30	229.37
525.47	313.63
525.64	276.18
525.81	339.38
525.98	182.56
526.16	217.67
526.33	234.05
526.50	224.69
526.67	196.60
526.84	299.59
527.01	257.46
527.18	280.86
527.36	257.46
527.53	301.93
527.70	266.82
527.87	224.69
528.04	322.99
528.21	257.46
528.38	248.10
528.55	299.59
528.72	259.80
528.89	306.61
529.07	278.52
529.24	243.42
529.41	187.24
529.58	163.84
529.75	238.73
529.92	311.29
530.09	229.37
530.26	243.42
530.43	278.52
530.60	273.84
530.77	234.05
530.94	217.67
531.11	248.10
531.28	276.18
531.46	299.59
531.63	269.16
531.80	245.76
531.97	220.01
532.14	205.97
532.31	252.78
532.48	262.14
532.65	229.37
532.82	231.71
532.99	320.65
533.16	273.84
533.33	285.55
533.50	292.57
533.67	241.08
533.84	229.37
534.01	227.03
534.18	229.37
534.35	290.23
534.52	294.91
534.69	372.15
534.86	163.84
535.03	198.95
535.20	248.10
535.37	318.31
535.54	278.52
535.71	227.03
535.88	299.59
536.05	292.57
536.22	271.50
536.38	271.50
536.55	210.65
536.72	297.25
536.89	313.63
537.06	250.44
537.23	318.31
537.40	227.03
537.57	198.95
537.74	262.14
537.91	301.93
538.08	252.78
538.25	280.86
538.42	353.42
538.59	290.23
538.75	285.55
538.92	325.33
539.09	355.76
539.26	344.06
539.43	404.91
539.60	337.04
539.77	449.38
539.94	276.18
540.11	325.33
540.28	383.85
540.44	339.38
540.61	425.98
540.78	367.46
540.95	383.85
541.12	433.00
541.29	477.47
541.46	447.04
541.62	547.69
541.79	407.25
541.96	430.66
542.13	442.36
542.30	433.00
542.47	456.40
542.63	404.91
542.80	428.32
542.97	423.64
543.14	442.36
543.31	454.06
543.48	358.10
543.64	444.70
543.81	355.76
543.98	397.89
544.15	421.30
544.32	376.83
544.48	449.38
544.65	435.34
544.82	381.51
544.99	435.34
545.16	472.79
545.32	444.70
545.49	589.82
545.66	779.40
545.83	858.98
546.00	727.91
546.16	521.94
546.33	435.34
546.50	484.49
546.67	367.46
546.83	339.38
547.00	344.06
547.17	306.61
547.34	353.42
547.50	287.89
547.67	299.59
547.84	278.52
548.00	306.61
548.17	290.23
548.34	255.12
548.51	393.21
548.67	334.70
548.84	365.12
549.01	330.02
549.18	369.80
549.34	308.95
549.51	358.10
549.68	285.55
549.84	355.76
550.01	271.50
550.18	348.74
550.34	351.08
550.51	252.78
550.68	437.68
550.84	290.23
551.01	330.02
551.18	341.72
551.34	269.16
551.51	269.16
551.68	322.99
551.84	264.48
552.01	292.57
552.18	334.70
552.34	299.59
552.51	308.95
552.68	353.42
552.84	203.63
553.01	252.78
553.18	273.84
553.34	297.25
553.51	262.14
553.67	243.42
553.84	262.14
554.01	241.08
554.17	332.36
554.34	262.14
554.51	273.84
554.67	212.99
554.84	273.84
555.00	257.46
555.17	280.86
555.33	311.29
555.50	236.39
555.67	234.05
555.83	187.24
556.00	205.97
556.16	393.21
556.33	266.82
556.50	245.76
556.66	248.10
556.83	245.76
556.99	280.86
557.16	208.31
557.32	234.05
557.49	217.67
557.65	276.18
557.82	236.39
557.98	231.71
558.15	241.08
558.32	203.63
558.48	271.50
558.65	280.86
558.81	285.55
558.98	322.99
559.14	320.65
559.31	278.52
559.47	243.42
559.64	238.73
559.80	264.48
559.97	241.08
560.13	278.52
560.30	189.58
560.46	220.01
560.63	280.86
560.79	264.48
560.96	278.52
561.12	266.82
561.29	238.73
561.45	276.18
561.61	231.71
561.78	330.02
561.94	243.42
562.11	184.90
562.27	210.65
562.44	234.05
562.60	215.33
562.77	205.97
562.93	327.68
563.10	236.39
563.26	276.18
563.42	264.48
563.59	257.46
563.75	262.14
563.92	325.33
564.08	238.73
564.24	325.33
564.41	285.55
564.57	250.44
564.74	243.42
564.90	292.57
565.07	306.61
565.23	311.29
565.39	290.23
565.56	224.69
565.72	224.69
565.88	224.69
566.05	313.63
566.21	205.97
566.38	220.01
566.54	241.08
566.70	259.80
566.87	133.41
567.03	241.08
567.19	250.44
567.36	227.03
567.52	140.43
567.68	292.57
567.85	212.99
568.01	280.86
568.17	248.10
568.34	255.12
568.50	344.06
568.66	241.08
568.83	360.44
568.99	280.86
569.15	313.63
569.32	271.50
569.48	248.10
569.64	126.39
569.81	252.78
569.97	210.65
570.13	259.80
570.30	255.12
570.46	341.72
570.62	320.65
570.78	238.73
570.95	201.29
571.11	339.38
571.27	271.50
571.43	196.60
571.60	313.63
571.76	266.82
571.92	229.37
572.09	229.37
572.25	283.20
572.41	250.44
572.57	243.42
572.74	257.46
572.90	283.20
573.06	245.76
573.22	299.59
573.38	292.57
573.55	250.44
573.71	262.14
573.87	245.76
574.03	276.18
574.20	234.05
574.36	262.14
574.52	234.05
574.68	255.12
574.84	220.01
575.01	285.55
575.17	278.52
575.33	252.78
575.49	313.63
575.65	243.42
575.82	252.78
575.98	299.59
576.14	191.92
576.30	269.16
576.46	327.68
576.62	348.74
576.79	381.51
576.95	294.91
577.11	201.29
577.27	248.10
577.43	327.68
577.59	301.93
577.75	287.89
577.92	238.73
578.08	257.46
578.24	217.67
578.40	325.33
578.56	325.33
578.72	358.10
578.88	353.42
579.04	271.50
579.21	285.55
579.37	241.08
579.53	276.18
579.69	311.29
579.85	234.05
580.01	278.52
580.17	266.82
580.33	280.86
580.49	294.91
580.65	264.48
580.82	297.25
580.98	269.16
581.14	301.93
581.30	325.33
581.46	215.33
581.62	393.21
581.78	332.36
581.94	301.93
582.10	313.63
582.26	322.99
582.42	294.91
582.58	250.44
582.74	269.16
582.90	278.52
583.06	227.03
583.22	315.97
583.38	334.70
583.54	283.20
583.70	285.55
583.86	308.95
584.02	294.91
584.18	273.84
584.34	231.71
584.50	411.93
584.66	702.16
584.82	1214.74
584.98	1741.36
585.14	1558.80
585.30	1261.55
585.46	786.42
585.62	493.85
585.78	486.83
585.94	292.57
586.10	330.02
586.26	280.86
586.42	388.53
586.58	318.31
586.74	280.86
586.90	278.52
587.06	353.42
587.22	315.97
587.38	353.42
587.54	276.18
587.70	390.87
587.86	379.17
588.02	327.68
588.18	374.49
588.34	231.71
588.49	184.90
588.65	245.76
588.81	177.88
588.97	205.97
589.13	133.41
589.29	224.69
589.45	315.97
589.61	182.56
589.77	215.33
589.93	262.14
590.08	283.20
590.24	180.22
590.40	294.91
590.56	315.97
590.72	315.97
590.88	269.16
591.04	224.69
591.20	299.59
591.35	248.10
591.51	243.42
591.67	227.03
591.83	224.69
591.99	320.65
592.15	255.12
592.31	236.39
592.46	278.52
592.62	337.04
592.78	236.39
592.94	227.03
593.10	229.37
593.26	224.69
593.41	327.68
593.57	236.39
593.73	196.60
593.89	299.59
594.05	290.23
594.20	397.89
594.36	416.62
594.52	299.59
594.68	273.84
594.84	222.35
594.99	285.55
595.15	220.01
595.31	187.24
595.47	334.70
595.62	273.84
595.78	180.22
595.94	182.56
596.10	238.73
596.25	238.73
596.41	273.84
596.57	259.80
596.73	266.82
596.88	194.26
597.04	248.10
597.20	220.01
597.36	353.42
597.51	262.14
597.67	205.97
597.83	269.16
597.99	320.65
598.14	234.05
598.30	273.84
598.46	224.69
598.61	360.44
598.77	245.76
598.93	217.67
599.09	285.55
599.24	250.44
599.40	266.82
599.56	313.63
599.71	304.27
599.87	304.27
600.03	311.29
600.18	229.37
600.34	255.12
600.50	208.31
600.65	304.27
600.81	241.08
600.97	229.37
601.12	234.05
601.28	304.27
601.44	262.14
601.59	229.37
601.75	259.80
601.91	222.35
602.06	227.03
602.22	330.02
602.37	257.46
602.53	222.35
602.69	330.02
602.84	273.84
603.00	280.86
603.16	283.20
603.31	294.91
603.47	276.18
603.62	191.92
603.78	191.92
603.94	290.23
604.09	227.03
604.25	243.42
604.40	238.73
604.56	257.46
604.71	292.57
604.87	227.03
605.03	229.37
605.18	238.73
605.34	245.76
605.49	344.06
605.65	315.97
605.80	304.27
605.96	163.84
606.12	236.39
606.27	222.35
606.43	245.76
606.58	313.63
606.74	318.31
606.89	292.57
607.05	332.36
607.20	456.40
607.36	418.96
607.51	367.46
607.67	297.25
607.82	306.61
607.98	266.82
608.13	313.63
608.29	198.95
608.44	294.91
608.60	257.46
608.75	212.99
608.91	276.18
609.06	437.68
609.22	461.09
609.37	545.34
609.53	585.13
609.68	479.81
609.84	461.09
609.99	425.98
610.15	472.79
610.30	447.04
610.46	533.64
610.61	557.05
610.76	641.31
610.92	727.91
