SpectraSuite Data File
++++++++++++++++++++++++++++++++++++
Date: Fri Oct 04 11:33:46 GMT-05:00 2013
User: price-jones
Dark Spectrum Present: No
Reference Spectrum Present: No
Number of Sampled Component Spectra: 1
Spectrometers: USB2+H05261
Integration Time (usec): 100000 (USB2+H05261)
Spectra Averaged: 1 (USB2+H05261)
Boxcar Smoothing: 0 (USB2+H05261)
Correct for Electrical Dark: No (USB2+H05261)
Strobe/Lamp Enabled: No (USB2+H05261)
Correct for Detector Non-linearity: No (USB2+H05261)
Correct for Stray Light: No (USB2+H05261)
Number of Pixels in Processed Spectrum: 2048
>>>>>Begin Processed Spectral Data<<<<<
365.73	77.24
365.92	77.24
366.12	77.24
366.32	0.00
366.52	0.00
366.72	18.72
366.91	0.00
367.11	0.00
367.31	23.41
367.51	4.68
367.70	0.00
367.90	0.00
368.10	0.00
368.30	9.36
368.49	0.00
368.69	0.00
368.89	2.34
369.09	0.00
369.28	11.70
369.48	0.00
369.68	0.00
369.87	25.75
370.07	9.36
370.27	74.90
370.47	86.60
370.66	56.17
370.86	145.11
371.06	112.35
371.25	135.75
371.45	110.01
371.65	77.24
371.84	98.30
372.04	51.49
372.24	170.86
372.44	154.48
372.63	119.37
372.83	166.18
373.03	133.41
373.22	135.75
373.42	182.56
373.62	102.98
373.81	105.32
374.01	180.22
374.21	187.24
374.40	131.07
374.60	126.39
374.79	147.45
374.99	234.05
375.19	84.26
375.38	201.29
375.58	107.66
375.78	217.67
375.97	236.39
376.17	191.92
376.37	187.24
376.56	175.54
376.76	149.79
376.95	95.96
377.15	159.16
377.35	131.07
377.54	184.90
377.74	154.48
377.93	65.54
378.13	177.88
378.33	196.60
378.52	142.77
378.72	175.54
378.91	159.16
379.11	140.43
379.31	156.82
379.50	191.92
379.70	163.84
379.89	161.50
380.09	135.75
380.28	121.71
380.48	159.16
380.68	147.45
380.87	112.35
381.07	124.05
381.26	173.20
381.46	170.86
381.65	72.56
381.85	135.75
382.04	117.03
382.24	140.43
382.43	105.32
382.63	161.50
382.83	112.35
383.02	180.22
383.22	128.73
383.41	142.77
383.61	98.30
383.80	95.96
384.00	98.30
384.19	72.56
384.39	184.90
384.58	112.35
384.78	203.63
384.97	184.90
385.17	159.16
385.36	93.62
385.56	159.16
385.75	91.28
385.95	98.30
386.14	147.45
386.34	194.26
386.53	229.37
386.72	159.16
386.92	138.09
387.11	133.41
387.31	173.20
387.50	154.48
387.70	184.90
387.89	180.22
388.09	124.05
388.28	74.90
388.48	201.29
388.67	170.86
388.86	175.54
389.06	198.95
389.25	156.82
389.45	63.19
389.64	177.88
389.84	173.20
390.03	152.13
390.22	212.99
390.42	154.48
390.61	124.05
390.81	131.07
391.00	102.98
391.19	140.43
391.39	117.03
391.58	168.52
391.78	149.79
391.97	175.54
392.16	184.90
392.36	147.45
392.55	161.50
392.75	124.05
392.94	95.96
393.13	217.67
393.33	159.16
393.52	79.58
393.71	222.35
393.91	191.92
394.10	182.56
394.29	100.64
394.49	140.43
394.68	173.20
394.88	128.73
395.07	170.86
395.26	180.22
395.46	105.32
395.65	86.60
395.84	201.29
396.04	210.65
396.23	98.30
396.42	67.88
396.62	170.86
396.81	147.45
397.00	49.15
397.19	88.94
397.39	119.37
397.58	189.58
397.77	133.41
397.97	166.18
398.16	119.37
398.35	149.79
398.55	91.28
398.74	168.52
398.93	203.63
399.12	149.79
399.32	112.35
399.51	175.54
399.70	170.86
399.90	175.54
400.09	128.73
400.28	227.03
400.47	217.67
400.67	257.46
400.86	168.52
401.05	231.71
401.24	121.71
401.44	154.48
401.63	133.41
401.82	154.48
402.01	117.03
402.21	234.05
402.40	163.84
402.59	173.20
402.78	154.48
402.97	114.69
403.17	250.44
403.36	198.95
403.55	84.26
403.74	93.62
403.93	187.24
404.13	227.03
404.32	227.03
404.51	229.37
404.70	189.58
404.89	128.73
405.09	217.67
405.28	119.37
405.47	117.03
405.66	161.50
405.85	170.86
406.05	217.67
406.24	166.18
406.43	187.24
406.62	124.05
406.81	182.56
407.00	170.86
407.20	224.69
407.39	177.88
407.58	163.84
407.77	184.90
407.96	180.22
408.15	187.24
408.34	161.50
408.54	114.69
408.73	124.05
408.92	149.79
409.11	224.69
409.30	191.92
409.49	72.56
409.68	168.52
409.87	159.16
410.07	105.32
410.26	175.54
410.45	100.64
410.64	196.60
410.83	163.84
411.02	138.09
411.21	170.86
411.40	138.09
411.59	133.41
411.78	110.01
411.98	236.39
412.17	131.07
412.36	180.22
412.55	117.03
412.74	189.58
412.93	182.56
413.12	121.71
413.31	119.37
413.50	138.09
413.69	152.13
413.88	262.14
414.07	149.79
414.26	191.92
414.45	224.69
414.64	102.98
414.83	175.54
415.02	114.69
415.22	161.50
415.41	154.48
415.60	163.84
415.79	210.65
415.98	205.97
416.17	133.41
416.36	149.79
416.55	156.82
416.74	145.11
416.93	245.76
417.12	133.41
417.31	88.94
417.50	145.11
417.69	189.58
417.88	212.99
418.07	161.50
418.26	138.09
418.45	173.20
418.64	161.50
418.83	154.48
419.02	184.90
419.21	177.88
419.39	231.71
419.58	196.60
419.77	159.16
419.96	184.90
420.15	224.69
420.34	238.73
420.53	170.86
420.72	177.88
420.91	257.46
421.10	159.16
421.29	110.01
421.48	152.13
421.67	170.86
421.86	212.99
422.05	161.50
422.24	182.56
422.43	203.63
422.61	224.69
422.80	154.48
422.99	119.37
423.18	175.54
423.37	163.84
423.56	210.65
423.75	177.88
423.94	114.69
424.13	91.28
424.32	210.65
424.50	159.16
424.69	182.56
424.88	238.73
425.07	234.05
425.26	236.39
425.45	234.05
425.64	159.16
425.83	210.65
426.01	177.88
426.20	154.48
426.39	149.79
426.58	105.32
426.77	154.48
426.96	220.01
427.15	159.16
427.33	166.18
427.52	163.84
427.71	229.37
427.90	245.76
428.09	152.13
428.28	159.16
428.46	168.52
428.65	248.10
428.84	154.48
429.03	224.69
429.22	191.92
429.40	184.90
429.59	161.50
429.78	170.86
429.97	161.50
430.16	142.77
430.34	161.50
430.53	208.31
430.72	180.22
430.91	147.45
431.10	168.52
431.28	163.84
431.47	229.37
431.66	198.95
431.85	131.07
432.03	161.50
432.22	238.73
432.41	208.31
432.60	184.90
432.79	203.63
432.97	229.37
433.16	170.86
433.35	217.67
433.54	189.58
433.72	159.16
433.91	271.50
434.10	135.75
434.28	161.50
434.47	182.56
434.66	227.03
434.85	152.13
435.03	250.44
435.22	325.33
435.41	390.87
435.59	374.49
435.78	243.42
435.97	189.58
436.16	222.35
436.34	266.82
436.53	210.65
436.72	177.88
436.90	231.71
437.09	227.03
437.28	212.99
437.46	210.65
437.65	208.31
437.84	236.39
438.02	159.16
438.21	140.43
438.40	173.20
438.58	149.79
438.77	184.90
438.96	170.86
439.14	147.45
439.33	227.03
439.52	105.32
439.70	189.58
439.89	222.35
440.08	222.35
440.26	264.48
440.45	196.60
440.63	196.60
440.82	198.95
441.01	180.22
441.19	117.03
441.38	250.44
441.57	184.90
441.75	250.44
441.94	283.20
442.12	252.78
442.31	156.82
442.50	145.11
442.68	149.79
442.87	175.54
443.05	208.31
443.24	241.08
443.43	315.97
443.61	210.65
443.80	182.56
443.98	182.56
444.17	175.54
444.35	210.65
444.54	149.79
444.73	231.71
444.91	166.18
445.10	224.69
445.28	220.01
445.47	212.99
445.65	273.84
445.84	187.24
446.02	245.76
446.21	222.35
446.39	180.22
446.58	152.13
446.77	269.16
446.95	210.65
447.14	189.58
447.32	187.24
447.51	166.18
447.69	182.56
447.88	196.60
448.06	217.67
448.25	236.39
448.43	135.75
448.62	112.35
448.80	182.56
448.99	135.75
449.17	145.11
449.36	138.09
449.54	264.48
449.73	205.97
449.91	322.99
450.10	184.90
450.28	280.86
450.46	189.58
450.65	220.01
450.83	224.69
451.02	236.39
451.20	182.56
451.39	166.18
451.57	170.86
451.76	220.01
451.94	243.42
452.13	276.18
452.31	210.65
452.49	217.67
452.68	173.20
452.86	269.16
453.05	227.03
453.23	168.52
453.42	142.77
453.60	180.22
453.78	175.54
453.97	161.50
454.15	208.31
454.34	259.80
454.52	330.02
454.70	175.54
454.89	208.31
455.07	187.24
455.26	142.77
455.44	196.60
455.62	182.56
455.81	320.65
455.99	187.24
456.17	215.33
456.36	252.78
456.54	222.35
456.73	184.90
456.91	166.18
457.09	163.84
457.28	191.92
457.46	138.09
457.64	198.95
457.83	259.80
458.01	163.84
458.19	227.03
458.38	159.16
458.56	222.35
458.74	231.71
458.93	234.05
459.11	194.26
459.29	191.92
459.48	220.01
459.66	212.99
459.84	142.77
460.03	299.59
460.21	215.33
460.39	196.60
460.57	229.37
460.76	210.65
460.94	234.05
461.12	243.42
461.31	243.42
461.49	255.12
461.67	142.77
461.85	191.92
462.04	224.69
462.22	662.37
462.40	287.89
462.59	248.10
462.77	194.26
462.95	205.97
463.13	212.99
463.32	238.73
463.50	231.71
463.68	259.80
463.86	285.55
464.05	175.54
464.23	283.20
464.41	203.63
464.59	217.67
464.78	255.12
464.96	229.37
465.14	224.69
465.32	292.57
465.50	269.16
465.69	210.65
465.87	163.84
466.05	205.97
466.23	220.01
466.41	161.50
466.60	224.69
466.78	175.54
466.96	245.76
467.14	229.37
467.32	264.48
467.51	191.92
467.69	180.22
467.87	234.05
468.05	208.31
468.23	241.08
468.41	294.91
468.60	180.22
468.78	255.12
468.96	276.18
469.14	170.86
469.32	173.20
469.50	201.29
469.69	257.46
469.87	107.66
470.05	177.88
470.23	229.37
470.41	180.22
470.59	184.90
470.77	271.50
470.95	201.29
471.14	245.76
471.32	210.65
471.50	170.86
471.68	238.73
471.86	269.16
472.04	243.42
472.22	222.35
472.40	189.58
472.58	241.08
472.77	194.26
472.95	227.03
473.13	234.05
473.31	126.39
473.49	229.37
473.67	255.12
473.85	210.65
474.03	210.65
474.21	184.90
474.39	170.86
474.57	205.97
474.75	290.23
474.93	196.60
475.12	163.84
475.30	217.67
475.48	182.56
475.66	243.42
475.84	236.39
476.02	117.03
476.20	276.18
476.38	220.01
476.56	255.12
476.74	201.29
476.92	245.76
477.10	234.05
477.28	269.16
477.46	156.82
477.64	259.80
477.82	304.27
478.00	276.18
478.18	149.79
478.36	198.95
478.54	184.90
478.72	248.10
478.90	255.12
479.08	182.56
479.26	238.73
479.44	205.97
479.62	177.88
479.80	245.76
479.98	238.73
480.16	250.44
480.34	222.35
480.52	187.24
480.70	175.54
480.88	187.24
481.06	252.78
481.24	234.05
481.41	220.01
481.59	161.50
481.77	273.84
481.95	205.97
482.13	294.91
482.31	241.08
482.49	287.89
482.67	161.50
482.85	287.89
483.03	280.86
483.21	280.86
483.39	273.84
483.57	280.86
483.74	372.15
483.92	264.48
484.10	203.63
484.28	269.16
484.46	290.23
484.64	234.05
484.82	304.27
485.00	313.63
485.18	283.20
485.35	236.39
485.53	191.92
485.71	297.25
485.89	243.42
486.07	245.76
486.25	290.23
486.43	301.93
486.61	215.33
486.78	266.82
486.96	283.20
487.14	287.89
487.32	208.31
487.50	374.49
487.68	308.95
487.85	243.42
488.03	252.78
488.21	334.70
488.39	252.78
488.57	222.35
488.75	259.80
488.92	489.17
489.10	205.97
489.28	322.99
489.46	294.91
489.64	315.97
489.81	255.12
489.99	301.93
490.17	266.82
490.35	299.59
490.53	229.37
490.70	322.99
490.88	318.31
491.06	301.93
491.24	311.29
491.41	271.50
491.59	285.55
491.77	273.84
491.95	278.52
492.13	238.73
492.30	276.18
492.48	287.89
492.66	224.69
492.84	351.08
493.01	229.37
493.19	231.71
493.37	325.33
493.54	299.59
493.72	278.52
493.90	285.55
494.08	304.27
494.25	330.02
494.43	264.48
494.61	285.55
494.79	255.12
494.96	285.55
495.14	355.76
495.32	276.18
495.49	243.42
495.67	292.57
495.85	245.76
496.02	255.12
496.20	299.59
496.38	252.78
496.55	332.36
496.73	355.76
496.91	245.76
497.09	290.23
497.26	222.35
497.44	397.89
497.62	299.59
497.79	231.71
497.97	304.27
498.14	360.44
498.32	351.08
498.50	325.33
498.67	257.46
498.85	297.25
499.03	271.50
499.20	266.82
499.38	311.29
499.56	255.12
499.73	304.27
499.91	315.97
500.08	283.20
500.26	299.59
500.44	292.57
500.61	294.91
500.79	271.50
500.97	280.86
501.14	383.85
501.32	308.95
501.49	344.06
501.67	299.59
501.84	379.17
502.02	264.48
502.20	322.99
502.37	285.55
502.55	320.65
502.72	177.88
502.90	255.12
503.07	280.86
503.25	210.65
503.43	224.69
503.60	297.25
503.78	327.68
503.95	255.12
504.13	220.01
504.30	290.23
504.48	299.59
504.65	327.68
504.83	346.40
505.01	351.08
505.18	325.33
505.36	273.84
505.53	325.33
505.71	269.16
505.88	332.36
506.06	327.68
506.23	255.12
506.41	332.36
506.58	283.20
506.76	344.06
506.93	344.06
507.11	285.55
507.28	330.02
507.46	341.72
507.63	337.04
507.81	264.48
507.98	327.68
508.16	299.59
508.33	390.87
508.50	299.59
508.68	255.12
508.85	285.55
509.03	266.82
509.20	315.97
509.38	278.52
509.55	276.18
509.73	308.95
509.90	362.78
510.08	273.84
510.25	376.83
510.42	325.33
510.60	292.57
510.77	358.10
510.95	320.65
511.12	217.67
511.30	330.02
511.47	360.44
511.64	334.70
511.82	245.76
511.99	341.72
512.17	337.04
512.34	196.60
512.51	318.31
512.69	353.42
512.86	322.99
513.04	313.63
513.21	255.12
513.38	344.06
513.56	358.10
513.73	285.55
513.90	227.03
514.08	283.20
514.25	234.05
514.43	360.44
514.60	285.55
514.77	320.65
514.95	360.44
515.12	325.33
515.29	318.31
515.47	388.53
515.64	334.70
515.81	278.52
515.99	383.85
516.16	283.20
516.33	315.97
516.51	290.23
516.68	287.89
516.85	259.80
517.03	271.50
517.20	393.21
517.37	290.23
517.54	330.02
517.72	280.86
517.89	252.78
518.06	236.39
518.24	428.32
518.41	322.99
518.58	264.48
518.75	327.68
518.93	318.31
519.10	322.99
519.27	337.04
519.45	245.76
519.62	402.57
519.79	311.29
519.96	325.33
520.14	294.91
520.31	299.59
520.48	313.63
520.65	311.29
520.83	285.55
521.00	369.80
521.17	346.40
521.34	332.36
521.52	269.16
521.69	269.16
521.86	334.70
522.03	348.74
522.20	355.76
522.38	313.63
522.55	332.36
522.72	341.72
522.89	362.78
523.07	358.10
523.24	304.27
523.41	341.72
523.58	313.63
523.75	341.72
523.92	311.29
524.10	353.42
524.27	322.99
524.44	308.95
524.61	402.57
524.78	287.89
524.96	250.44
525.13	322.99
525.30	339.38
525.47	330.02
525.64	395.55
525.81	315.97
525.98	367.46
526.16	308.95
526.33	252.78
526.50	203.63
526.67	262.14
526.84	182.56
527.01	259.80
527.18	379.17
527.36	304.27
527.53	238.73
527.70	388.53
527.87	322.99
528.04	423.64
528.21	332.36
528.38	311.29
528.55	376.83
528.72	414.27
528.89	360.44
529.07	341.72
529.24	374.49
529.41	337.04
529.58	255.12
529.75	351.08
529.92	416.62
530.09	308.95
530.26	379.17
530.43	383.85
530.60	313.63
530.77	334.70
530.94	395.55
531.11	330.02
531.28	390.87
531.46	332.36
531.63	332.36
531.80	339.38
531.97	353.42
532.14	283.20
532.31	297.25
532.48	334.70
532.65	416.62
532.82	414.27
532.99	386.19
533.16	369.80
533.33	454.06
533.50	344.06
533.67	318.31
533.84	388.53
534.01	299.59
534.18	327.68
534.35	348.74
534.52	411.93
534.69	444.70
534.86	308.95
535.03	367.46
535.20	337.04
535.37	362.78
535.54	416.62
535.71	318.31
535.88	449.38
536.05	411.93
536.22	416.62
536.38	383.85
536.55	379.17
536.72	299.59
536.89	313.63
537.06	278.52
537.23	418.96
537.40	362.78
537.57	397.89
537.74	409.59
537.91	470.45
538.08	346.40
538.25	393.21
538.42	433.00
538.59	430.66
538.75	423.64
538.92	425.98
539.09	376.83
539.26	454.06
539.43	435.34
539.60	589.82
539.77	812.17
539.94	753.65
540.11	667.05
540.28	582.79
540.44	533.64
540.61	514.92
540.78	479.81
540.95	519.60
541.12	601.52
541.29	645.99
541.46	681.10
541.62	653.01
541.79	648.33
541.96	660.03
542.13	559.39
542.30	559.39
542.47	545.34
542.63	622.58
542.80	599.18
542.97	634.29
543.14	617.90
543.31	491.51
543.48	564.07
543.64	540.66
543.81	571.09
543.98	573.43
544.15	491.51
544.32	538.32
544.48	543.00
544.65	596.84
544.82	589.82
544.99	557.05
545.16	568.75
545.32	491.51
545.49	784.08
545.66	964.30
545.83	1097.71
546.00	952.60
546.16	842.59
546.33	643.65
546.50	564.07
546.67	479.81
546.83	437.68
547.00	533.64
547.17	550.03
547.34	407.25
547.50	458.74
547.67	498.53
547.84	428.32
548.00	543.00
548.17	397.89
548.34	440.02
548.51	449.38
548.67	463.43
548.84	402.57
549.01	416.62
549.18	404.91
549.34	514.92
549.51	454.06
549.68	414.27
549.84	451.72
550.01	463.43
550.18	545.34
550.34	428.32
550.51	430.66
550.68	465.77
550.84	390.87
551.01	381.51
551.18	367.46
551.34	304.27
551.51	351.08
551.68	339.38
551.84	362.78
552.01	360.44
552.18	355.76
552.34	423.64
552.51	397.89
552.68	318.31
552.84	330.02
553.01	374.49
553.18	341.72
553.34	374.49
553.51	308.95
553.67	374.49
553.84	390.87
554.01	362.78
554.17	397.89
554.34	346.40
554.51	292.57
554.67	393.21
554.84	290.23
555.00	330.02
555.17	297.25
555.33	409.59
555.50	332.36
555.67	355.76
555.83	337.04
556.00	372.15
556.16	475.13
556.33	348.74
556.50	290.23
556.66	344.06
556.83	299.59
556.99	351.08
557.16	308.95
557.32	334.70
557.49	355.76
557.65	360.44
557.82	393.21
557.98	400.23
558.15	280.86
558.32	395.55
558.48	280.86
558.65	285.55
558.81	362.78
558.98	374.49
559.14	308.95
559.31	297.25
559.47	315.97
559.64	341.72
559.80	313.63
559.97	395.55
560.13	379.17
560.30	308.95
560.46	308.95
560.63	390.87
560.79	301.93
560.96	376.83
561.12	337.04
561.29	297.25
561.45	301.93
561.61	325.33
561.78	393.21
561.94	330.02
562.11	332.36
562.27	327.68
562.44	374.49
562.60	313.63
562.77	320.65
562.93	341.72
563.10	271.50
563.26	280.86
563.42	299.59
563.59	325.33
563.75	264.48
563.92	304.27
564.08	257.46
564.24	376.83
564.41	374.49
564.57	362.78
564.74	311.29
564.90	341.72
565.07	388.53
565.23	372.15
565.39	322.99
565.56	351.08
565.72	292.57
565.88	344.06
566.05	369.80
566.21	301.93
566.38	311.29
566.54	297.25
566.70	341.72
566.87	315.97
567.03	327.68
567.19	365.12
567.36	306.61
567.52	280.86
567.68	320.65
567.85	348.74
568.01	278.52
568.17	322.99
568.34	365.12
568.50	355.76
568.66	243.42
568.83	348.74
568.99	318.31
569.15	332.36
569.32	315.97
569.48	280.86
569.64	313.63
569.81	245.76
569.97	325.33
570.13	379.17
570.30	241.08
570.46	290.23
570.62	255.12
570.78	262.14
570.95	224.69
571.11	360.44
571.27	337.04
571.43	320.65
571.60	325.33
571.76	276.18
571.92	334.70
572.09	320.65
572.25	273.84
572.41	294.91
572.57	259.80
572.74	344.06
572.90	358.10
573.06	337.04
573.22	292.57
573.38	285.55
573.55	348.74
573.71	351.08
573.87	313.63
574.03	297.25
574.20	360.44
574.36	322.99
574.52	290.23
574.68	318.31
574.84	365.12
575.01	327.68
575.17	301.93
575.33	290.23
575.49	320.65
575.65	311.29
575.82	355.76
575.98	402.57
576.14	463.43
576.30	430.66
576.46	507.90
576.62	416.62
576.79	456.40
576.95	421.30
577.11	346.40
577.27	383.85
577.43	353.42
577.59	351.08
577.75	402.57
577.92	374.49
578.08	325.33
578.24	325.33
578.40	334.70
578.56	397.89
578.72	461.09
578.88	484.49
579.04	400.23
579.21	414.27
579.37	330.02
579.53	381.51
579.69	344.06
579.85	355.76
580.01	435.34
580.17	376.83
580.33	411.93
580.49	395.55
580.65	381.51
580.82	393.21
580.98	292.57
581.14	346.40
581.30	418.96
581.46	463.43
581.62	463.43
581.78	421.30
581.94	418.96
582.10	411.93
582.26	320.65
582.42	430.66
582.58	470.45
582.74	435.34
582.90	433.00
583.06	411.93
583.22	362.78
583.38	414.27
583.54	461.09
583.70	503.22
583.86	535.98
584.02	479.81
584.18	547.69
584.34	559.39
584.50	1071.97
584.66	5554.09
584.82	14544.09
584.98	22089.98
585.14	19744.76
585.30	12407.18
585.46	7630.15
585.62	4983.00
585.78	2366.28
585.94	1174.95
586.10	681.10
586.26	585.13
586.42	587.47
586.58	547.69
586.74	505.56
586.90	479.81
587.06	559.39
587.22	533.64
587.38	500.87
587.54	631.94
587.70	1198.35
587.86	1722.63
588.02	1914.56
588.18	1406.66
588.34	971.32
588.49	676.41
588.65	578.11
588.81	360.44
588.97	322.99
589.13	337.04
589.29	294.91
589.45	362.78
589.61	327.68
589.77	390.87
589.93	330.02
590.08	351.08
590.24	423.64
590.40	372.15
590.56	376.83
590.72	409.59
590.88	304.27
591.04	339.38
591.20	404.91
591.35	397.89
591.51	299.59
591.67	409.59
591.83	383.85
591.99	414.27
592.15	341.72
592.31	369.80
592.46	337.04
592.62	437.68
592.78	428.32
592.94	409.59
593.10	414.27
593.26	397.89
593.41	458.74
593.57	369.80
593.73	458.74
593.89	929.19
594.05	2017.54
594.20	2958.44
594.36	2768.85
594.52	1914.56
594.68	1294.32
594.84	1093.03
594.99	734.93
595.15	526.62
595.31	423.64
595.47	374.49
595.62	341.72
595.78	339.38
595.94	290.23
596.10	395.55
596.25	367.46
596.41	351.08
596.57	280.86
596.73	414.27
596.88	421.30
597.04	617.90
597.20	861.32
597.36	1060.26
597.51	833.23
597.67	624.92
597.83	493.85
597.99	482.15
598.14	416.62
598.30	477.47
598.46	294.91
598.61	437.68
598.77	383.85
598.93	346.40
599.09	344.06
599.24	311.29
599.40	344.06
599.56	362.78
599.71	355.76
599.87	313.63
600.03	278.52
600.18	315.97
600.34	367.46
600.50	332.36
600.65	285.55
600.81	388.53
600.97	346.40
601.12	367.46
601.28	330.02
601.44	337.04
601.59	365.12
601.75	374.49
601.91	351.08
602.06	327.68
602.22	418.96
602.37	447.04
602.53	753.65
602.69	976.00
602.84	1062.60
603.00	821.53
603.16	615.56
603.31	587.47
603.47	578.11
603.62	372.15
603.78	395.55
603.94	327.68
604.09	376.83
604.25	266.82
604.40	294.91
604.56	353.42
604.71	379.17
604.87	278.52
605.03	344.06
605.18	386.19
605.34	397.89
605.49	428.32
605.65	341.72
605.80	299.59
605.96	351.08
606.12	348.74
606.27	330.02
606.43	351.08
606.58	355.76
606.74	458.74
606.89	1177.29
607.05	1968.39
607.20	2485.65
607.36	2211.81
607.51	1633.69
607.67	1088.35
607.82	980.68
607.98	645.99
608.13	512.58
608.29	444.70
608.44	451.72
608.60	407.25
608.75	486.83
608.91	617.90
609.06	1668.80
609.22	3225.26
609.37	4184.88
609.53	3852.52
609.68	2698.64
609.84	1912.22
609.99	1481.56
610.15	1107.07
610.30	784.08
610.46	898.77
