SpectraSuite Data File
++++++++++++++++++++++++++++++++++++
Date: Fri Oct 04 11:33:44 GMT-05:00 2013
User: price-jones
Dark Spectrum Present: No
Reference Spectrum Present: No
Number of Sampled Component Spectra: 1
Spectrometers: USB2+H05261
Integration Time (usec): 100000 (USB2+H05261)
Spectra Averaged: 1 (USB2+H05261)
Boxcar Smoothing: 0 (USB2+H05261)
Correct for Electrical Dark: No (USB2+H05261)
Strobe/Lamp Enabled: No (USB2+H05261)
Correct for Detector Non-linearity: No (USB2+H05261)
Correct for Stray Light: No (USB2+H05261)
Number of Pixels in Processed Spectrum: 2048
>>>>>Begin Processed Spectral Data<<<<<
365.73	124.05
365.92	124.05
366.12	124.05
366.32	0.00
366.52	0.00
366.72	0.00
366.91	0.00
367.11	0.00
367.31	0.00
367.51	0.00
367.70	4.68
367.90	11.70
368.10	0.00
368.30	0.00
368.49	0.00
368.69	0.00
368.89	0.00
369.09	0.00
369.28	16.38
369.48	0.00
369.68	16.38
369.87	0.00
370.07	9.36
370.27	79.58
370.47	67.88
370.66	86.60
370.86	84.26
371.06	112.35
371.25	163.84
371.45	91.28
371.65	149.79
371.84	42.13
372.04	166.18
372.24	149.79
372.44	114.69
372.63	74.90
372.83	177.88
373.03	81.92
373.22	175.54
373.42	100.64
373.62	100.64
373.81	180.22
374.01	49.15
374.21	98.30
374.40	70.22
374.60	201.29
374.79	163.84
374.99	147.45
375.19	135.75
375.38	67.88
375.58	177.88
375.78	95.96
375.97	170.86
376.17	145.11
376.37	124.05
376.56	135.75
376.76	152.13
376.95	175.54
377.15	98.30
377.35	95.96
377.54	128.73
377.74	138.09
377.93	208.31
378.13	114.69
378.33	168.52
378.52	154.48
378.72	128.73
378.91	184.90
379.11	163.84
379.31	191.92
379.50	149.79
379.70	154.48
379.89	210.65
380.09	133.41
380.28	191.92
380.48	140.43
380.68	133.41
380.87	161.50
381.07	170.86
381.26	180.22
381.46	102.98
381.65	184.90
381.85	51.49
382.04	182.56
382.24	100.64
382.43	110.01
382.63	91.28
382.83	142.77
383.02	187.24
383.22	149.79
383.41	152.13
383.61	154.48
383.80	133.41
384.00	121.71
384.19	100.64
384.39	145.11
384.58	133.41
384.78	145.11
384.97	135.75
385.17	152.13
385.36	138.09
385.56	182.56
385.75	112.35
385.95	163.84
386.14	156.82
386.34	135.75
386.53	173.20
386.72	70.22
386.92	142.77
387.11	166.18
387.31	152.13
387.50	224.69
387.70	84.26
387.89	117.03
388.09	93.62
388.28	53.83
388.48	128.73
388.67	175.54
388.86	196.60
389.06	124.05
389.25	177.88
389.45	210.65
389.64	187.24
389.84	175.54
390.03	173.20
390.22	163.84
390.42	180.22
390.61	84.26
390.81	79.58
391.00	119.37
391.19	196.60
391.39	170.86
391.58	243.42
391.78	175.54
391.97	154.48
392.16	58.51
392.36	81.92
392.55	198.95
392.75	170.86
392.94	194.26
393.13	147.45
393.33	119.37
393.52	119.37
393.71	161.50
393.91	133.41
394.10	67.88
394.29	196.60
394.49	170.86
394.68	149.79
394.88	191.92
395.07	212.99
395.26	100.64
395.46	112.35
395.65	163.84
395.84	180.22
396.04	224.69
396.23	124.05
396.42	149.79
396.62	140.43
396.81	241.08
397.00	191.92
397.19	269.16
397.39	140.43
397.58	145.11
397.77	86.60
397.97	140.43
398.16	191.92
398.35	215.33
398.55	161.50
398.74	86.60
398.93	170.86
399.12	180.22
399.32	154.48
399.51	177.88
399.70	147.45
399.90	138.09
400.09	131.07
400.28	252.78
400.47	142.77
400.67	201.29
400.86	203.63
401.05	119.37
401.24	114.69
401.44	145.11
401.63	163.84
401.82	266.82
402.01	107.66
402.21	159.16
402.40	161.50
402.59	142.77
402.78	138.09
402.97	147.45
403.17	203.63
403.36	156.82
403.55	114.69
403.74	173.20
403.93	152.13
404.13	194.26
404.32	238.73
404.51	266.82
404.70	128.73
404.89	119.37
405.09	170.86
405.28	175.54
405.47	140.43
405.66	210.65
405.85	173.20
406.05	198.95
406.24	177.88
406.43	196.60
406.62	156.82
406.81	222.35
407.00	156.82
407.20	154.48
407.39	138.09
407.58	46.81
407.77	135.75
407.96	203.63
408.15	205.97
408.34	110.01
408.54	81.92
408.73	198.95
408.92	173.20
409.11	184.90
409.30	238.73
409.49	88.94
409.68	152.13
409.87	107.66
410.07	133.41
410.26	163.84
410.45	128.73
410.64	135.75
410.83	159.16
411.02	126.39
411.21	180.22
411.40	84.26
411.59	112.35
411.78	98.30
411.98	175.54
412.17	114.69
412.36	147.45
412.55	205.97
412.74	154.48
412.93	234.05
413.12	112.35
413.31	133.41
413.50	166.18
413.69	163.84
413.88	161.50
414.07	227.03
414.26	163.84
414.45	126.39
414.64	166.18
414.83	147.45
415.02	128.73
415.22	173.20
415.41	128.73
415.60	227.03
415.79	170.86
415.98	189.58
416.17	117.03
416.36	100.64
416.55	131.07
416.74	170.86
416.93	194.26
417.12	107.66
417.31	198.95
417.50	184.90
417.69	173.20
417.88	191.92
418.07	142.77
418.26	203.63
418.45	110.01
418.64	208.31
418.83	224.69
419.02	196.60
419.21	208.31
419.39	166.18
419.58	147.45
419.77	161.50
419.96	217.67
420.15	222.35
420.34	166.18
420.53	102.98
420.72	238.73
420.91	98.30
421.10	152.13
421.29	241.08
421.48	182.56
421.67	201.29
421.86	182.56
422.05	147.45
422.24	180.22
422.43	208.31
422.61	147.45
422.80	145.11
422.99	163.84
423.18	147.45
423.37	128.73
423.56	133.41
423.75	124.05
423.94	156.82
424.13	121.71
424.32	184.90
424.50	205.97
424.69	210.65
424.88	152.13
425.07	180.22
425.26	135.75
425.45	194.26
425.64	175.54
425.83	152.13
426.01	208.31
426.20	196.60
426.39	145.11
426.58	243.42
426.77	170.86
426.96	182.56
427.15	177.88
427.33	93.62
427.52	166.18
427.71	180.22
427.90	217.67
428.09	217.67
428.28	205.97
428.46	88.94
428.65	128.73
428.84	121.71
429.03	182.56
429.22	163.84
429.40	156.82
429.59	159.16
429.78	262.14
429.97	163.84
430.16	142.77
430.34	95.96
430.53	152.13
430.72	177.88
430.91	243.42
431.10	112.35
431.28	133.41
431.47	198.95
431.66	189.58
431.85	184.90
432.03	84.26
432.22	154.48
432.41	271.50
432.60	290.23
432.79	229.37
432.97	292.57
433.16	182.56
433.35	262.14
433.54	210.65
433.72	184.90
433.91	238.73
434.10	184.90
434.28	208.31
434.47	135.75
434.66	259.80
434.85	210.65
435.03	212.99
435.22	280.86
435.41	388.53
435.59	402.57
435.78	269.16
435.97	203.63
436.16	142.77
436.34	170.86
436.53	215.33
436.72	161.50
436.90	138.09
437.09	159.16
437.28	191.92
437.46	215.33
437.65	187.24
437.84	196.60
438.02	234.05
438.21	156.82
438.40	180.22
438.58	203.63
438.77	128.73
438.96	189.58
439.14	212.99
439.33	166.18
439.52	175.54
439.70	166.18
439.89	187.24
440.08	156.82
440.26	126.39
440.45	145.11
440.63	220.01
440.82	236.39
441.01	208.31
441.19	154.48
441.38	168.52
441.57	166.18
441.75	154.48
441.94	126.39
442.12	194.26
442.31	210.65
442.50	102.98
442.68	170.86
442.87	180.22
443.05	177.88
443.24	238.73
443.43	220.01
443.61	297.25
443.80	210.65
443.98	110.01
444.17	126.39
444.35	212.99
444.54	133.41
444.73	241.08
444.91	259.80
445.10	191.92
445.28	166.18
445.47	194.26
445.65	180.22
445.84	315.97
446.02	177.88
446.21	203.63
446.39	159.16
446.58	222.35
446.77	170.86
446.95	140.43
447.14	161.50
447.32	222.35
447.51	175.54
447.69	149.79
447.88	196.60
448.06	257.46
448.25	212.99
448.43	241.08
448.62	210.65
448.80	257.46
448.99	217.67
449.17	154.48
449.36	163.84
449.54	180.22
449.73	149.79
449.91	245.76
450.10	231.71
450.28	262.14
450.46	227.03
450.65	170.86
450.83	215.33
451.02	189.58
451.20	210.65
451.39	156.82
451.57	149.79
451.76	170.86
451.94	191.92
452.13	135.75
452.31	184.90
452.49	170.86
452.68	124.05
452.86	170.86
453.05	196.60
453.23	189.58
453.42	124.05
453.60	128.73
453.78	243.42
453.97	191.92
454.15	227.03
454.34	257.46
454.52	166.18
454.70	238.73
454.89	259.80
455.07	259.80
455.26	205.97
455.44	248.10
455.62	236.39
455.81	208.31
455.99	264.48
456.17	229.37
456.36	173.20
456.54	215.33
456.73	196.60
456.91	203.63
457.09	194.26
457.28	205.97
457.46	194.26
457.64	180.22
457.83	177.88
458.01	215.33
458.19	252.78
458.38	161.50
458.56	212.99
458.74	210.65
458.93	173.20
459.11	138.09
459.29	114.69
459.48	264.48
459.66	231.71
459.84	191.92
460.03	301.93
460.21	173.20
460.39	208.31
460.57	189.58
460.76	161.50
460.94	196.60
461.12	250.44
461.31	196.60
461.49	196.60
461.67	220.01
461.85	180.22
462.04	215.33
462.22	657.69
462.40	173.20
462.59	273.84
462.77	177.88
462.95	175.54
463.13	166.18
463.32	187.24
463.50	224.69
463.68	238.73
463.86	203.63
464.05	203.63
464.23	201.29
464.41	220.01
464.59	182.56
464.78	170.86
464.96	133.41
465.14	292.57
465.32	173.20
465.50	248.10
465.69	238.73
465.87	198.95
466.05	194.26
466.23	147.45
466.41	187.24
466.60	187.24
466.78	224.69
466.96	184.90
467.14	250.44
467.32	238.73
467.51	182.56
467.69	198.95
467.87	201.29
468.05	257.46
468.23	220.01
468.41	234.05
468.60	215.33
468.78	257.46
468.96	229.37
469.14	173.20
469.32	145.11
469.50	215.33
469.69	245.76
469.87	234.05
470.05	107.66
470.23	170.86
470.41	243.42
470.59	140.43
470.77	210.65
470.95	184.90
471.14	255.12
471.32	285.55
471.50	245.76
471.68	224.69
471.86	224.69
472.04	133.41
472.22	189.58
472.40	191.92
472.58	177.88
472.77	215.33
472.95	201.29
473.13	196.60
473.31	187.24
473.49	168.52
473.67	187.24
473.85	273.84
474.03	224.69
474.21	191.92
474.39	243.42
474.57	245.76
474.75	304.27
474.93	149.79
475.12	159.16
475.30	191.92
475.48	168.52
475.66	184.90
475.84	231.71
476.02	180.22
476.20	208.31
476.38	229.37
476.56	285.55
476.74	173.20
476.92	203.63
477.10	203.63
477.28	222.35
477.46	173.20
477.64	177.88
477.82	229.37
478.00	234.05
478.18	182.56
478.36	194.26
478.54	287.89
478.72	229.37
478.90	236.39
479.08	224.69
479.26	194.26
479.44	212.99
479.62	210.65
479.80	264.48
479.98	154.48
480.16	102.98
480.34	269.16
480.52	236.39
480.70	198.95
480.88	220.01
481.06	184.90
481.24	166.18
481.41	175.54
481.59	177.88
481.77	250.44
481.95	210.65
482.13	322.99
482.31	229.37
482.49	159.16
482.67	210.65
482.85	187.24
483.03	166.18
483.21	269.16
483.39	170.86
483.57	264.48
483.74	234.05
483.92	182.56
484.10	119.37
484.28	215.33
484.46	280.86
484.64	166.18
484.82	255.12
485.00	248.10
485.18	220.01
485.35	187.24
485.53	187.24
485.71	234.05
485.89	208.31
486.07	241.08
486.25	224.69
486.43	205.97
486.61	187.24
486.78	262.14
486.96	248.10
487.14	243.42
487.32	311.29
487.50	262.14
487.68	273.84
487.85	266.82
488.03	259.80
488.21	224.69
488.39	180.22
488.57	259.80
488.75	252.78
488.92	458.74
489.10	311.29
489.28	294.91
489.46	285.55
489.64	191.92
489.81	220.01
489.99	318.31
490.17	198.95
490.35	262.14
490.53	273.84
490.70	255.12
490.88	245.76
491.06	250.44
491.24	224.69
491.41	266.82
491.59	297.25
491.77	255.12
491.95	257.46
492.13	220.01
492.30	229.37
492.48	257.46
492.66	224.69
492.84	182.56
493.01	215.33
493.19	264.48
493.37	287.89
493.54	278.52
493.72	227.03
493.90	131.07
494.08	217.67
494.25	250.44
494.43	236.39
494.61	234.05
494.79	294.91
494.96	236.39
495.14	257.46
495.32	245.76
495.49	224.69
495.67	245.76
495.85	259.80
496.02	234.05
496.20	217.67
496.38	315.97
496.55	250.44
496.73	287.89
496.91	168.52
497.09	285.55
497.26	278.52
497.44	180.22
497.62	231.71
497.79	198.95
497.97	105.32
498.14	201.29
498.32	248.10
498.50	266.82
498.67	194.26
498.85	243.42
499.03	234.05
499.20	285.55
499.38	297.25
499.56	273.84
499.73	334.70
499.91	269.16
500.08	220.01
500.26	266.82
500.44	245.76
500.61	266.82
500.79	229.37
500.97	208.31
501.14	257.46
501.32	229.37
501.49	238.73
501.67	255.12
501.84	276.18
502.02	210.65
502.20	224.69
502.37	299.59
502.55	241.08
502.72	262.14
502.90	266.82
503.07	220.01
503.25	271.50
503.43	222.35
503.60	231.71
503.78	243.42
503.95	252.78
504.13	210.65
504.30	184.90
504.48	269.16
504.65	191.92
504.83	290.23
505.01	276.18
505.18	234.05
505.36	215.33
505.53	304.27
505.71	194.26
505.88	198.95
506.06	276.18
506.23	276.18
506.41	236.39
506.58	301.93
506.76	280.86
506.93	212.99
507.11	283.20
507.28	224.69
507.46	231.71
507.63	308.95
507.81	269.16
507.98	266.82
508.16	318.31
508.33	243.42
508.50	191.92
508.68	266.82
508.85	269.16
509.03	231.71
509.20	220.01
509.38	231.71
509.55	259.80
509.73	250.44
509.90	285.55
510.08	311.29
510.25	318.31
510.42	229.37
510.60	229.37
510.77	290.23
510.95	220.01
511.12	264.48
511.30	346.40
511.47	327.68
511.64	308.95
511.82	262.14
511.99	208.31
512.17	182.56
512.34	236.39
512.51	273.84
512.69	262.14
512.86	306.61
513.04	212.99
513.21	330.02
513.38	154.48
513.56	166.18
513.73	283.20
513.90	264.48
514.08	255.12
514.25	273.84
514.43	287.89
514.60	194.26
514.77	227.03
514.95	278.52
515.12	220.01
515.29	287.89
515.47	299.59
515.64	290.23
515.81	198.95
515.99	306.61
516.16	322.99
516.33	262.14
516.51	276.18
516.68	266.82
516.85	170.86
517.03	243.42
517.20	236.39
517.37	315.97
517.54	170.86
517.72	252.78
517.89	250.44
518.06	220.01
518.24	325.33
518.41	353.42
518.58	238.73
518.75	234.05
518.93	180.22
519.10	229.37
519.27	250.44
519.45	243.42
519.62	222.35
519.79	210.65
519.96	241.08
520.14	330.02
520.31	341.72
520.48	236.39
520.65	259.80
520.83	297.25
521.00	269.16
521.17	238.73
521.34	241.08
521.52	250.44
521.69	313.63
521.86	205.97
522.03	205.97
522.20	290.23
522.38	238.73
522.55	280.86
522.72	266.82
522.89	262.14
523.07	344.06
523.24	332.36
523.41	259.80
523.58	245.76
523.75	255.12
523.92	266.82
524.10	259.80
524.27	259.80
524.44	301.93
524.61	241.08
524.78	327.68
524.96	327.68
525.13	271.50
525.30	191.92
525.47	285.55
525.64	269.16
525.81	210.65
525.98	285.55
526.16	217.67
526.33	236.39
526.50	234.05
526.67	220.01
526.84	231.71
527.01	280.86
527.18	320.65
527.36	177.88
527.53	294.91
527.70	264.48
527.87	257.46
528.04	376.83
528.21	299.59
528.38	271.50
528.55	285.55
528.72	306.61
528.89	332.36
529.07	367.46
529.24	290.23
529.41	327.68
529.58	271.50
529.75	276.18
529.92	243.42
530.09	222.35
530.26	294.91
530.43	271.50
530.60	255.12
530.77	294.91
530.94	292.57
531.11	294.91
531.28	259.80
531.46	339.38
531.63	393.21
531.80	383.85
531.97	301.93
532.14	236.39
532.31	285.55
532.48	255.12
532.65	273.84
532.82	301.93
532.99	313.63
533.16	374.49
533.33	283.20
533.50	344.06
533.67	248.10
533.84	393.21
534.01	404.91
534.18	381.51
534.35	346.40
534.52	290.23
534.69	337.04
534.86	290.23
535.03	266.82
535.20	311.29
535.37	271.50
535.54	250.44
535.71	236.39
535.88	287.89
536.05	271.50
536.22	311.29
536.38	355.76
536.55	278.52
536.72	276.18
536.89	278.52
537.06	311.29
537.23	278.52
537.40	320.65
537.57	290.23
537.74	353.42
537.91	306.61
538.08	322.99
538.25	290.23
538.42	264.48
538.59	325.33
538.75	290.23
538.92	306.61
539.09	346.40
539.26	318.31
539.43	447.04
539.60	851.96
539.77	1252.19
539.94	1107.07
540.11	800.46
540.28	709.18
540.44	479.81
540.61	407.25
540.78	430.66
540.95	400.23
541.12	451.72
541.29	489.17
541.46	538.32
541.62	411.93
541.79	468.11
541.96	428.32
542.13	449.38
542.30	451.72
542.47	433.00
542.63	461.09
542.80	524.28
542.97	470.45
543.14	360.44
543.31	454.06
543.48	447.04
543.64	482.15
543.81	482.15
543.98	367.46
544.15	489.17
544.32	468.11
544.48	435.34
544.65	454.06
544.82	388.53
544.99	461.09
545.16	437.68
545.32	365.12
545.49	613.22
545.66	685.78
545.83	765.36
546.00	662.37
546.16	547.69
546.33	486.83
546.50	475.13
546.67	449.38
546.83	447.04
547.00	484.49
547.17	386.19
547.34	344.06
547.50	351.08
547.67	318.31
547.84	320.65
548.00	339.38
548.17	414.27
548.34	294.91
548.51	421.30
548.67	362.78
548.84	376.83
549.01	402.57
549.18	372.15
549.34	407.25
549.51	372.15
549.68	395.55
549.84	306.61
550.01	248.10
550.18	393.21
550.34	393.21
550.51	238.73
550.68	337.04
550.84	351.08
551.01	304.27
551.18	362.78
551.34	285.55
551.51	273.84
551.68	283.20
551.84	330.02
552.01	290.23
552.18	273.84
552.34	322.99
552.51	238.73
552.68	327.68
552.84	271.50
553.01	322.99
553.18	287.89
553.34	306.61
553.51	243.42
553.67	273.84
553.84	339.38
554.01	337.04
554.17	386.19
554.34	271.50
554.51	243.42
554.67	283.20
554.84	290.23
555.00	278.52
555.17	205.97
555.33	222.35
555.50	278.52
555.67	257.46
555.83	283.20
556.00	273.84
556.16	437.68
556.33	248.10
556.50	222.35
556.66	269.16
556.83	259.80
556.99	266.82
557.16	299.59
557.32	252.78
557.49	304.27
557.65	259.80
557.82	301.93
557.98	229.37
558.15	250.44
558.32	198.95
558.48	264.48
558.65	184.90
558.81	353.42
558.98	238.73
559.14	257.46
559.31	243.42
559.47	330.02
559.64	229.37
559.80	255.12
559.97	257.46
560.13	217.67
560.30	262.14
560.46	238.73
560.63	266.82
560.79	362.78
560.96	257.46
561.12	297.25
561.29	252.78
561.45	220.01
561.61	205.97
561.78	278.52
561.94	243.42
562.11	306.61
562.27	234.05
562.44	210.65
562.60	299.59
562.77	180.22
562.93	301.93
563.10	278.52
563.26	308.95
563.42	236.39
563.59	276.18
563.75	201.29
563.92	297.25
564.08	236.39
564.24	294.91
564.41	304.27
564.57	257.46
564.74	215.33
564.90	313.63
565.07	257.46
565.23	262.14
565.39	344.06
565.56	243.42
565.72	393.21
565.88	262.14
566.05	287.89
566.21	154.48
566.38	227.03
566.54	229.37
566.70	208.31
566.87	259.80
567.03	194.26
567.19	283.20
567.36	292.57
567.52	227.03
567.68	248.10
567.85	250.44
568.01	264.48
568.17	229.37
568.34	271.50
568.50	386.19
568.66	269.16
568.83	404.91
568.99	311.29
569.15	259.80
569.32	203.63
569.48	255.12
569.64	220.01
569.81	301.93
569.97	290.23
570.13	266.82
570.30	299.59
570.46	252.78
570.62	234.05
570.78	189.58
570.95	201.29
571.11	315.97
571.27	306.61
571.43	215.33
571.60	276.18
571.76	229.37
571.92	287.89
572.09	290.23
572.25	311.29
572.41	273.84
572.57	266.82
572.74	306.61
572.90	304.27
573.06	351.08
573.22	280.86
573.38	259.80
573.55	355.76
573.71	313.63
573.87	322.99
574.03	248.10
574.20	201.29
574.36	339.38
574.52	283.20
574.68	315.97
574.84	287.89
575.01	351.08
575.17	266.82
575.33	229.37
575.49	231.71
575.65	229.37
575.82	334.70
575.98	514.92
576.14	596.84
576.30	580.45
576.46	514.92
576.62	416.62
576.79	372.15
576.95	433.00
577.11	327.68
577.27	245.76
577.43	315.97
577.59	313.63
577.75	304.27
577.92	304.27
578.08	337.04
578.24	325.33
578.40	234.05
578.56	351.08
578.72	348.74
578.88	294.91
579.04	278.52
579.21	374.49
579.37	360.44
579.53	266.82
579.69	318.31
579.85	428.32
580.01	433.00
580.17	341.72
580.33	414.27
580.49	353.42
580.65	433.00
580.82	339.38
580.98	292.57
581.14	358.10
581.30	390.87
581.46	440.02
581.62	592.16
581.78	535.98
581.94	435.34
582.10	454.06
582.26	451.72
582.42	470.45
582.58	423.64
582.74	465.77
582.90	393.21
583.06	463.43
583.22	454.06
583.38	472.79
583.54	533.64
583.70	606.20
583.86	578.11
584.02	643.65
584.18	823.87
584.34	940.90
584.50	2183.72
584.66	15255.61
584.82	39896.77
584.98	52978.03
585.14	47784.38
585.30	30665.70
585.46	18274.90
585.62	11229.89
585.78	5462.81
585.94	2251.60
586.10	1144.52
586.26	788.76
586.42	763.01
586.58	592.16
586.74	585.13
586.90	610.88
587.06	641.31
587.22	535.98
587.38	458.74
587.54	898.77
587.70	2289.04
587.86	3742.52
588.02	4128.70
588.18	2995.89
588.34	1977.75
588.49	1313.04
588.65	896.43
588.81	484.49
588.97	435.34
589.13	376.83
589.29	255.12
589.45	362.78
589.61	379.17
589.77	304.27
589.93	379.17
590.08	421.30
590.24	372.15
590.40	404.91
590.56	386.19
590.72	397.89
590.88	358.10
591.04	365.12
591.20	383.85
591.35	348.74
591.51	372.15
591.67	311.29
591.83	301.93
591.99	290.23
592.15	348.74
592.31	322.99
592.46	325.33
592.62	416.62
592.78	383.85
592.94	327.68
593.10	322.99
593.26	327.68
593.41	358.10
593.57	372.15
593.73	449.38
593.89	1959.03
594.05	4660.01
594.20	6860.11
594.36	6459.88
594.52	4222.33
594.68	2740.77
594.84	1865.41
594.99	1114.10
595.15	685.78
595.31	313.63
595.47	416.62
595.62	318.31
595.78	252.78
595.94	212.99
596.10	376.83
596.25	437.68
596.41	367.46
596.57	294.91
596.73	306.61
596.88	500.87
597.04	1088.35
597.20	1631.35
597.36	1694.55
597.51	1418.36
597.67	1022.81
597.83	779.40
597.99	573.43
598.14	388.53
598.30	386.19
598.46	414.27
598.61	418.96
598.77	346.40
598.93	355.76
599.09	250.44
599.24	355.76
599.40	395.55
599.56	332.36
599.71	322.99
599.87	308.95
600.03	313.63
600.18	285.55
600.34	360.44
600.50	245.76
600.65	241.08
600.81	292.57
600.97	220.01
601.12	390.87
601.28	334.70
601.44	292.57
601.59	201.29
601.75	280.86
601.91	269.16
602.06	299.59
602.22	362.78
602.37	603.86
602.53	1268.57
602.69	1750.72
602.84	1750.72
603.00	1327.08
603.16	1076.65
603.31	725.57
603.47	526.62
603.62	339.38
603.78	367.46
603.94	351.08
604.09	313.63
604.25	334.70
604.40	339.38
604.56	311.29
604.71	358.10
604.87	313.63
605.03	339.38
605.18	224.69
605.34	276.18
605.49	262.14
605.65	355.76
605.80	287.89
605.96	320.65
606.12	402.57
606.27	416.62
606.43	351.08
606.58	337.04
606.74	622.58
606.89	2258.62
607.05	4610.86
607.20	5778.78
607.36	4737.24
607.51	3328.24
607.67	2272.66
607.82	1533.05
607.98	990.05
608.13	608.54
608.29	402.57
608.44	379.17
608.60	416.62
608.75	437.68
608.91	912.81
609.06	3590.38
609.22	7667.60
609.37	10083.03
609.53	8645.94
609.68	6015.18
609.84	4098.28
609.99	2759.49
610.15	1636.03
610.30	994.73
