SpectraSuite Data File
++++++++++++++++++++++++++++++++++++
Date: Fri Oct 04 11:34:11 GMT-05:00 2013
User: price-jones
Dark Spectrum Present: No
Reference Spectrum Present: No
Number of Sampled Component Spectra: 1
Spectrometers: USB2+H05261
Integration Time (usec): 100000 (USB2+H05261)
Spectra Averaged: 1 (USB2+H05261)
Boxcar Smoothing: 0 (USB2+H05261)
Correct for Electrical Dark: No (USB2+H05261)
Strobe/Lamp Enabled: No (USB2+H05261)
Correct for Detector Non-linearity: No (USB2+H05261)
Correct for Stray Light: No (USB2+H05261)
Number of Pixels in Processed Spectrum: 2048
>>>>>Begin Processed Spectral Data<<<<<
365.73	72.56
365.92	72.56
366.12	72.56
366.32	51.49
366.52	0.00
366.72	0.00
366.91	0.00
367.11	51.49
367.31	4.68
367.51	0.00
367.70	0.00
367.90	0.00
368.10	0.00
368.30	18.72
368.49	0.00
368.69	23.41
368.89	0.00
369.09	0.00
369.28	0.00
369.48	21.06
369.68	0.00
369.87	32.77
370.07	0.00
370.27	30.43
370.47	56.17
370.66	23.41
370.86	110.01
371.06	114.69
371.25	147.45
371.45	81.92
371.65	131.07
371.84	16.38
372.04	74.90
372.24	126.39
372.44	128.73
372.63	114.69
372.83	166.18
373.03	180.22
373.22	133.41
373.42	42.13
373.62	147.45
373.81	133.41
374.01	227.03
374.21	173.20
374.40	147.45
374.60	238.73
374.79	95.96
374.99	79.58
375.19	217.67
375.38	135.75
375.58	145.11
375.78	177.88
375.97	210.65
376.17	257.46
376.37	131.07
376.56	56.17
376.76	131.07
376.95	131.07
377.15	161.50
377.35	234.05
377.54	147.45
377.74	196.60
377.93	117.03
378.13	30.43
378.33	177.88
378.52	142.77
378.72	147.45
378.91	184.90
379.11	166.18
379.31	182.56
379.50	91.28
379.70	152.13
379.89	135.75
380.09	70.22
380.28	201.29
380.48	159.16
380.68	124.05
380.87	67.88
381.07	133.41
381.26	149.79
381.46	119.37
381.65	133.41
381.85	184.90
382.04	184.90
382.24	168.52
382.43	107.66
382.63	140.43
382.83	152.13
383.02	149.79
383.22	163.84
383.41	51.49
383.61	161.50
383.80	131.07
384.00	117.03
384.19	110.01
384.39	124.05
384.58	180.22
384.78	91.28
384.97	86.60
385.17	177.88
385.36	131.07
385.56	198.95
385.75	95.96
385.95	147.45
386.14	175.54
386.34	163.84
386.53	135.75
386.72	177.88
386.92	245.76
387.11	100.64
387.31	152.13
387.50	84.26
387.70	112.35
387.89	91.28
388.09	126.39
388.28	145.11
388.48	77.24
388.67	133.41
388.86	168.52
389.06	98.30
389.25	156.82
389.45	124.05
389.64	93.62
389.84	161.50
390.03	133.41
390.22	184.90
390.42	110.01
390.61	154.48
390.81	98.30
391.00	187.24
391.19	177.88
391.39	124.05
391.58	135.75
391.78	201.29
391.97	175.54
392.16	131.07
392.36	212.99
392.55	135.75
392.75	107.66
392.94	112.35
393.13	203.63
393.33	88.94
393.52	77.24
393.71	161.50
393.91	140.43
394.10	93.62
394.29	88.94
394.49	168.52
394.68	149.79
394.88	126.39
395.07	131.07
395.26	117.03
395.46	112.35
395.65	145.11
395.84	203.63
396.04	241.08
396.23	100.64
396.42	124.05
396.62	166.18
396.81	161.50
397.00	119.37
397.19	84.26
397.39	98.30
397.58	131.07
397.77	121.71
397.97	198.95
398.16	180.22
398.35	124.05
398.55	173.20
398.74	91.28
398.93	72.56
399.12	177.88
399.32	119.37
399.51	72.56
399.70	161.50
399.90	149.79
400.09	196.60
400.28	173.20
400.47	49.15
400.67	145.11
400.86	119.37
401.05	173.20
401.24	173.20
401.44	112.35
401.63	156.82
401.82	215.33
402.01	95.96
402.21	152.13
402.40	180.22
402.59	98.30
402.78	98.30
402.97	201.29
403.17	49.15
403.36	112.35
403.55	154.48
403.74	163.84
403.93	222.35
404.13	238.73
404.32	133.41
404.51	191.92
404.70	224.69
404.89	257.46
405.09	168.52
405.28	147.45
405.47	149.79
405.66	100.64
405.85	154.48
406.05	163.84
406.24	217.67
406.43	152.13
406.62	91.28
406.81	182.56
407.00	187.24
407.20	147.45
407.39	149.79
407.58	147.45
407.77	201.29
407.96	210.65
408.15	133.41
408.34	133.41
408.54	121.71
408.73	212.99
408.92	112.35
409.11	98.30
409.30	227.03
409.49	100.64
409.68	105.32
409.87	191.92
410.07	156.82
410.26	133.41
410.45	182.56
410.64	147.45
410.83	203.63
411.02	124.05
411.21	203.63
411.40	194.26
411.59	126.39
411.78	175.54
411.98	140.43
412.17	182.56
412.36	222.35
412.55	133.41
412.74	107.66
412.93	220.01
413.12	154.48
413.31	107.66
413.50	140.43
413.69	187.24
413.88	196.60
414.07	198.95
414.26	135.75
414.45	152.13
414.64	203.63
414.83	189.58
415.02	184.90
415.22	102.98
415.41	287.89
415.60	184.90
415.79	140.43
415.98	196.60
416.17	114.69
416.36	58.51
416.55	110.01
416.74	110.01
416.93	163.84
417.12	128.73
417.31	128.73
417.50	133.41
417.69	170.86
417.88	163.84
418.07	98.30
418.26	194.26
418.45	142.77
418.64	210.65
418.83	198.95
419.02	145.11
419.21	147.45
419.39	159.16
419.58	117.03
419.77	170.86
419.96	210.65
420.15	147.45
420.34	121.71
420.53	201.29
420.72	173.20
420.91	170.86
421.10	161.50
421.29	196.60
421.48	117.03
421.67	121.71
421.86	156.82
422.05	133.41
422.24	142.77
422.43	168.52
422.61	159.16
422.80	170.86
422.99	212.99
423.18	140.43
423.37	182.56
423.56	180.22
423.75	128.73
423.94	131.07
424.13	175.54
424.32	105.32
424.50	187.24
424.69	201.29
424.88	205.97
425.07	170.86
425.26	128.73
425.45	145.11
425.64	184.90
425.83	173.20
426.01	245.76
426.20	140.43
426.39	149.79
426.58	177.88
426.77	163.84
426.96	198.95
427.15	196.60
427.33	159.16
427.52	98.30
427.71	126.39
427.90	138.09
428.09	159.16
428.28	138.09
428.46	229.37
428.65	212.99
428.84	198.95
429.03	208.31
429.22	191.92
429.40	191.92
429.59	212.99
429.78	220.01
429.97	238.73
430.16	168.52
430.34	154.48
430.53	110.01
430.72	184.90
430.91	210.65
431.10	121.71
431.28	215.33
431.47	180.22
431.66	210.65
431.85	156.82
432.03	128.73
432.22	220.01
432.41	124.05
432.60	220.01
432.79	191.92
432.97	126.39
433.16	187.24
433.35	114.69
433.54	194.26
433.72	196.60
433.91	205.97
434.10	177.88
434.28	138.09
434.47	217.67
434.66	248.10
434.85	110.01
435.03	170.86
435.22	315.97
435.41	400.23
435.59	337.04
435.78	285.55
435.97	212.99
436.16	217.67
436.34	161.50
436.53	154.48
436.72	229.37
436.90	117.03
437.09	205.97
437.28	124.05
437.46	175.54
437.65	212.99
437.84	177.88
438.02	205.97
438.21	166.18
438.40	205.97
438.58	86.60
438.77	112.35
438.96	187.24
439.14	105.32
439.33	229.37
439.52	154.48
439.70	145.11
439.89	102.98
440.08	112.35
440.26	170.86
440.45	161.50
440.63	138.09
440.82	175.54
441.01	208.31
441.19	133.41
441.38	201.29
441.57	114.69
441.75	257.46
441.94	196.60
442.12	166.18
442.31	191.92
442.50	156.82
442.68	191.92
442.87	142.77
443.05	212.99
443.24	229.37
443.43	222.35
443.61	215.33
443.80	222.35
443.98	152.13
444.17	201.29
444.35	208.31
444.54	203.63
444.73	159.16
444.91	152.13
445.10	156.82
445.28	168.52
445.47	175.54
445.65	149.79
445.84	175.54
446.02	220.01
446.21	163.84
446.39	147.45
446.58	180.22
446.77	168.52
446.95	180.22
447.14	205.97
447.32	128.73
447.51	196.60
447.69	166.18
447.88	184.90
448.06	212.99
448.25	205.97
448.43	154.48
448.62	126.39
448.80	175.54
448.99	224.69
449.17	210.65
449.36	140.43
449.54	229.37
449.73	180.22
449.91	163.84
450.10	145.11
450.28	259.80
450.46	250.44
450.65	266.82
450.83	177.88
451.02	231.71
451.20	175.54
451.39	236.39
451.57	152.13
451.76	88.94
451.94	168.52
452.13	224.69
452.31	201.29
452.49	154.48
452.68	121.71
452.86	205.97
453.05	273.84
453.23	196.60
453.42	210.65
453.60	177.88
453.78	133.41
453.97	212.99
454.15	163.84
454.34	175.54
454.52	175.54
454.70	168.52
454.89	229.37
455.07	217.67
455.26	145.11
455.44	203.63
455.62	245.76
455.81	126.39
455.99	203.63
456.17	154.48
456.36	203.63
456.54	166.18
456.73	154.48
456.91	212.99
457.09	241.08
457.28	168.52
457.46	212.99
457.64	217.67
457.83	266.82
458.01	191.92
458.19	163.84
458.38	189.58
458.56	224.69
458.74	156.82
458.93	224.69
459.11	173.20
459.29	168.52
459.48	173.20
459.66	262.14
459.84	170.86
460.03	311.29
460.21	280.86
460.39	145.11
460.57	264.48
460.76	262.14
460.94	205.97
461.12	248.10
461.31	161.50
461.49	248.10
461.67	138.09
461.85	175.54
462.04	180.22
462.22	320.65
462.40	198.95
462.59	166.18
462.77	180.22
462.95	203.63
463.13	205.97
463.32	231.71
463.50	170.86
463.68	147.45
463.86	234.05
464.05	280.86
464.23	212.99
464.41	194.26
464.59	175.54
464.78	194.26
464.96	128.73
465.14	236.39
465.32	161.50
465.50	210.65
465.69	250.44
465.87	154.48
466.05	201.29
466.23	170.86
466.41	180.22
466.60	147.45
466.78	217.67
466.96	175.54
467.14	194.26
467.32	189.58
467.51	175.54
467.69	189.58
467.87	238.73
468.05	168.52
468.23	180.22
468.41	154.48
468.60	222.35
468.78	177.88
468.96	201.29
469.14	201.29
469.32	180.22
469.50	161.50
469.69	210.65
469.87	189.58
470.05	201.29
470.23	201.29
470.41	222.35
470.59	227.03
470.77	168.52
470.95	248.10
471.14	201.29
471.32	203.63
471.50	180.22
471.68	138.09
471.86	248.10
472.04	175.54
472.22	159.16
472.40	114.69
472.58	177.88
472.77	154.48
472.95	245.76
473.13	203.63
473.31	234.05
473.49	222.35
473.67	238.73
473.85	205.97
474.03	255.12
474.21	203.63
474.39	215.33
474.57	212.99
474.75	194.26
474.93	229.37
475.12	182.56
475.30	168.52
475.48	163.84
475.66	241.08
475.84	217.67
476.02	194.26
476.20	149.79
476.38	205.97
476.56	285.55
476.74	117.03
476.92	184.90
477.10	205.97
477.28	184.90
477.46	194.26
477.64	201.29
477.82	229.37
478.00	224.69
478.18	250.44
478.36	201.29
478.54	180.22
478.72	222.35
478.90	248.10
479.08	217.67
479.26	152.13
479.44	212.99
479.62	182.56
479.80	196.60
479.98	229.37
480.16	163.84
480.34	297.25
480.52	234.05
480.70	203.63
480.88	187.24
481.06	187.24
481.24	177.88
481.41	203.63
481.59	224.69
481.77	212.99
481.95	145.11
482.13	264.48
482.31	191.92
482.49	194.26
482.67	259.80
482.85	290.23
483.03	318.31
483.21	191.92
483.39	238.73
483.57	191.92
483.74	243.42
483.92	196.60
484.10	180.22
484.28	266.82
484.46	278.52
484.64	217.67
484.82	238.73
485.00	159.16
485.18	198.95
485.35	227.03
485.53	175.54
485.71	280.86
485.89	243.42
486.07	222.35
486.25	351.08
486.43	191.92
486.61	210.65
486.78	266.82
486.96	215.33
487.14	198.95
487.32	187.24
487.50	259.80
487.68	248.10
487.85	191.92
488.03	220.01
488.21	220.01
488.39	250.44
488.57	271.50
488.75	177.88
488.92	461.09
489.10	210.65
489.28	255.12
489.46	212.99
489.64	203.63
489.81	110.01
489.99	355.76
490.17	250.44
490.35	341.72
490.53	276.18
490.70	234.05
490.88	276.18
491.06	241.08
491.24	315.97
491.41	220.01
491.59	208.31
491.77	257.46
491.95	243.42
492.13	196.60
492.30	243.42
492.48	290.23
492.66	220.01
492.84	318.31
493.01	243.42
493.19	278.52
493.37	311.29
493.54	159.16
493.72	266.82
493.90	196.60
494.08	215.33
494.25	222.35
494.43	238.73
494.61	236.39
494.79	191.92
494.96	212.99
495.14	245.76
495.32	227.03
495.49	241.08
495.67	229.37
495.85	210.65
496.02	264.48
496.20	243.42
496.38	212.99
496.55	259.80
496.73	308.95
496.91	238.73
497.09	238.73
497.26	290.23
497.44	259.80
497.62	229.37
497.79	236.39
497.97	201.29
498.14	278.52
498.32	220.01
498.50	238.73
498.67	266.82
498.85	166.18
499.03	238.73
499.20	259.80
499.38	248.10
499.56	264.48
499.73	250.44
499.91	283.20
500.08	273.84
500.26	241.08
500.44	292.57
500.61	297.25
500.79	220.01
500.97	278.52
501.14	252.78
501.32	196.60
501.49	168.52
501.67	238.73
501.84	332.36
502.02	243.42
502.20	248.10
502.37	313.63
502.55	334.70
502.72	208.31
502.90	229.37
503.07	248.10
503.25	229.37
503.43	306.61
503.60	313.63
503.78	229.37
503.95	243.42
504.13	212.99
504.30	341.72
504.48	304.27
504.65	322.99
504.83	283.20
505.01	229.37
505.18	318.31
505.36	297.25
505.53	299.59
505.71	224.69
505.88	276.18
506.06	227.03
506.23	264.48
506.41	224.69
506.58	238.73
506.76	222.35
506.93	152.13
507.11	294.91
507.28	184.90
507.46	142.77
507.63	241.08
507.81	250.44
507.98	208.31
508.16	280.86
508.33	208.31
508.50	229.37
508.68	194.26
508.85	264.48
509.03	215.33
509.20	222.35
509.38	353.42
509.55	330.02
509.73	262.14
509.90	304.27
510.08	245.76
510.25	220.01
510.42	142.77
510.60	215.33
510.77	212.99
510.95	313.63
511.12	196.60
511.30	215.33
511.47	297.25
511.64	250.44
511.82	308.95
511.99	201.29
512.17	210.65
512.34	243.42
512.51	198.95
512.69	194.26
512.86	269.16
513.04	252.78
513.21	280.86
513.38	203.63
513.56	201.29
513.73	273.84
513.90	210.65
514.08	273.84
514.25	290.23
514.43	255.12
514.60	177.88
514.77	276.18
514.95	222.35
515.12	301.93
515.29	297.25
515.47	250.44
515.64	266.82
515.81	245.76
515.99	238.73
516.16	257.46
516.33	264.48
516.51	287.89
516.68	208.31
516.85	205.97
517.03	196.60
517.20	283.20
517.37	245.76
517.54	266.82
517.72	182.56
517.89	191.92
518.06	194.26
518.24	297.25
518.41	320.65
518.58	273.84
518.75	210.65
518.93	276.18
519.10	252.78
519.27	210.65
519.45	271.50
519.62	220.01
519.79	227.03
519.96	238.73
520.14	283.20
520.31	299.59
520.48	294.91
520.65	255.12
520.83	262.14
521.00	297.25
521.17	259.80
521.34	175.54
521.52	273.84
521.69	278.52
521.86	161.50
522.03	248.10
522.20	194.26
522.38	170.86
522.55	304.27
522.72	238.73
522.89	231.71
523.07	313.63
523.24	215.33
523.41	262.14
523.58	287.89
523.75	248.10
523.92	222.35
524.10	290.23
524.27	255.12
524.44	330.02
524.61	276.18
524.78	238.73
524.96	227.03
525.13	313.63
525.30	250.44
525.47	266.82
525.64	259.80
525.81	210.65
525.98	280.86
526.16	290.23
526.33	236.39
526.50	243.42
526.67	234.05
526.84	203.63
527.01	191.92
527.18	234.05
527.36	234.05
527.53	205.97
527.70	290.23
527.87	243.42
528.04	287.89
528.21	273.84
528.38	257.46
528.55	182.56
528.72	264.48
528.89	315.97
529.07	252.78
529.24	224.69
529.41	283.20
529.58	355.76
529.75	311.29
529.92	271.50
530.09	257.46
530.26	210.65
530.43	285.55
530.60	227.03
530.77	248.10
530.94	264.48
531.11	196.60
531.28	330.02
531.46	262.14
531.63	231.71
531.80	257.46
531.97	325.33
532.14	271.50
532.31	276.18
532.48	337.04
532.65	231.71
532.82	210.65
532.99	271.50
533.16	231.71
533.33	224.69
533.50	271.50
533.67	201.29
533.84	306.61
534.01	248.10
534.18	255.12
534.35	308.95
534.52	215.33
534.69	238.73
534.86	257.46
535.03	255.12
535.20	306.61
535.37	304.27
535.54	304.27
535.71	231.71
535.88	297.25
536.05	269.16
536.22	353.42
536.38	322.99
536.55	308.95
536.72	252.78
536.89	255.12
537.06	292.57
537.23	269.16
537.40	297.25
537.57	308.95
537.74	318.31
537.91	287.89
538.08	241.08
538.25	332.36
538.42	236.39
538.59	304.27
538.75	301.93
538.92	243.42
539.09	299.59
539.26	327.68
539.43	299.59
539.60	365.12
539.77	402.57
539.94	367.46
540.11	369.80
540.28	411.93
540.44	381.51
540.61	383.85
540.78	428.32
540.95	388.53
541.12	433.00
541.29	397.89
541.46	472.79
541.62	561.73
541.79	390.87
541.96	465.77
542.13	381.51
542.30	430.66
542.47	407.25
542.63	461.09
542.80	397.89
542.97	451.72
543.14	341.72
543.31	449.38
543.48	468.11
543.64	402.57
543.81	397.89
543.98	404.91
544.15	435.34
544.32	433.00
544.48	372.15
544.65	449.38
544.82	447.04
544.99	463.43
545.16	482.15
545.32	404.91
545.49	683.44
545.66	765.36
545.83	774.72
546.00	723.23
546.16	592.16
546.33	418.96
546.50	407.25
546.67	479.81
546.83	383.85
547.00	430.66
547.17	400.23
547.34	351.08
547.50	379.17
547.67	397.89
547.84	308.95
548.00	318.31
548.17	355.76
548.34	320.65
548.51	428.32
548.67	355.76
548.84	292.57
549.01	318.31
549.18	290.23
549.34	362.78
549.51	372.15
549.68	344.06
549.84	346.40
550.01	294.91
550.18	365.12
550.34	351.08
550.51	255.12
550.68	327.68
550.84	304.27
551.01	322.99
551.18	327.68
551.34	358.10
551.51	280.86
551.68	269.16
551.84	358.10
552.01	311.29
552.18	297.25
552.34	243.42
552.51	280.86
552.68	292.57
552.84	278.52
553.01	255.12
553.18	304.27
553.34	252.78
553.51	269.16
553.67	266.82
553.84	351.08
554.01	262.14
554.17	290.23
554.34	238.73
554.51	292.57
554.67	308.95
554.84	344.06
555.00	339.38
555.17	227.03
555.33	348.74
555.50	271.50
555.67	311.29
555.83	212.99
556.00	280.86
556.16	416.62
556.33	250.44
556.50	304.27
556.66	236.39
556.83	215.33
556.99	285.55
557.16	341.72
557.32	269.16
557.49	222.35
557.65	334.70
557.82	220.01
557.98	191.92
558.15	220.01
558.32	294.91
558.48	236.39
558.65	245.76
558.81	208.31
558.98	250.44
559.14	236.39
559.31	278.52
559.47	273.84
559.64	205.97
559.80	224.69
559.97	184.90
560.13	320.65
560.30	271.50
560.46	280.86
560.63	222.35
560.79	194.26
560.96	311.29
561.12	259.80
561.29	212.99
561.45	222.35
561.61	294.91
561.78	416.62
561.94	299.59
562.11	220.01
562.27	224.69
562.44	203.63
562.60	189.58
562.77	220.01
562.93	290.23
563.10	301.93
563.26	273.84
563.42	264.48
563.59	299.59
563.75	227.03
563.92	259.80
564.08	266.82
564.24	252.78
564.41	297.25
564.57	189.58
564.74	224.69
564.90	234.05
565.07	255.12
565.23	229.37
565.39	243.42
565.56	227.03
565.72	208.31
565.88	236.39
566.05	234.05
566.21	266.82
566.38	227.03
566.54	287.89
566.70	278.52
566.87	294.91
567.03	271.50
567.19	245.76
567.36	306.61
567.52	269.16
567.68	313.63
567.85	294.91
568.01	212.99
568.17	269.16
568.34	231.71
568.50	301.93
568.66	191.92
568.83	292.57
568.99	308.95
569.15	301.93
569.32	276.18
569.48	234.05
569.64	196.60
569.81	257.46
569.97	208.31
570.13	266.82
570.30	271.50
570.46	138.09
570.62	203.63
570.78	152.13
570.95	170.86
571.11	266.82
571.27	301.93
571.43	332.36
571.60	283.20
571.76	196.60
571.92	269.16
572.09	229.37
572.25	292.57
572.41	173.20
572.57	318.31
572.74	334.70
572.90	191.92
573.06	220.01
573.22	266.82
573.38	229.37
573.55	227.03
573.71	264.48
573.87	259.80
574.03	224.69
574.20	269.16
574.36	191.92
574.52	168.52
574.68	276.18
574.84	231.71
575.01	189.58
575.17	248.10
575.33	234.05
575.49	285.55
575.65	280.86
575.82	276.18
575.98	355.76
576.14	269.16
576.30	264.48
576.46	252.78
576.62	365.12
576.79	337.04
576.95	355.76
577.11	313.63
577.27	262.14
577.43	201.29
577.59	257.46
577.75	294.91
577.92	306.61
578.08	222.35
578.24	236.39
578.40	301.93
578.56	332.36
578.72	395.55
578.88	334.70
579.04	264.48
579.21	290.23
579.37	252.78
579.53	330.02
579.69	304.27
579.85	292.57
580.01	241.08
580.17	243.42
580.33	306.61
580.49	325.33
580.65	327.68
580.82	248.10
580.98	344.06
581.14	262.14
581.30	299.59
581.46	266.82
581.62	292.57
581.78	327.68
581.94	266.82
582.10	264.48
582.26	325.33
582.42	220.01
582.58	227.03
582.74	283.20
582.90	304.27
583.06	344.06
583.22	229.37
583.38	266.82
583.54	278.52
583.70	318.31
583.86	386.19
584.02	287.89
584.18	346.40
584.34	313.63
584.50	496.19
584.66	1643.06
584.82	3297.81
584.98	4456.38
585.14	4077.21
585.30	2661.19
585.46	1652.42
585.62	1095.37
585.78	641.31
585.94	418.96
586.10	411.93
586.26	355.76
586.42	355.76
586.58	334.70
586.74	337.04
586.90	278.52
587.06	330.02
587.22	334.70
587.38	322.99
587.54	367.46
587.70	411.93
587.86	594.50
588.02	580.45
588.18	493.85
588.34	409.59
588.49	308.95
588.65	285.55
588.81	168.52
588.97	243.42
589.13	241.08
589.29	252.78
589.45	257.46
589.61	245.76
589.77	292.57
589.93	220.01
590.08	224.69
590.24	301.93
590.40	241.08
590.56	250.44
590.72	344.06
590.88	259.80
591.04	287.89
591.20	203.63
591.35	280.86
591.51	222.35
591.67	215.33
591.83	280.86
591.99	271.50
592.15	196.60
592.31	278.52
592.46	341.72
592.62	318.31
592.78	313.63
592.94	322.99
593.10	266.82
593.26	259.80
593.41	306.61
593.57	311.29
593.73	306.61
593.89	486.83
594.05	582.79
594.20	751.31
594.36	676.41
594.52	503.22
594.68	531.30
594.84	402.57
594.99	367.46
595.15	241.08
595.31	299.59
595.47	224.69
595.62	266.82
595.78	264.48
595.94	276.18
596.10	325.33
596.25	236.39
596.41	325.33
596.57	236.39
596.73	248.10
596.88	315.97
597.04	322.99
597.20	353.42
597.36	386.19
597.51	315.97
597.67	276.18
597.83	243.42
597.99	372.15
598.14	210.65
598.30	294.91
598.46	252.78
598.61	234.05
598.77	250.44
598.93	250.44
599.09	290.23
599.24	301.93
599.40	273.84
599.56	231.71
599.71	189.58
599.87	198.95
600.03	257.46
600.18	269.16
600.34	241.08
600.50	203.63
600.65	220.01
600.81	313.63
600.97	215.33
601.12	229.37
601.28	344.06
601.44	250.44
601.59	236.39
601.75	238.73
601.91	142.77
602.06	245.76
602.22	297.25
602.37	290.23
602.53	301.93
602.69	407.25
602.84	372.15
603.00	411.93
603.16	348.74
603.31	304.27
603.47	278.52
603.62	252.78
603.78	229.37
603.94	222.35
604.09	266.82
604.25	234.05
604.40	266.82
604.56	259.80
604.71	255.12
604.87	257.46
605.03	250.44
605.18	266.82
605.34	250.44
605.49	255.12
605.65	285.55
605.80	283.20
605.96	250.44
606.12	264.48
606.27	294.91
606.43	283.20
606.58	276.18
606.74	313.63
606.89	535.98
607.05	573.43
607.20	674.07
607.36	608.54
607.51	552.37
607.67	402.57
607.82	299.59
607.98	348.74
608.13	292.57
608.29	252.78
608.44	337.04
608.60	212.99
608.75	341.72
608.91	400.23
609.06	613.22
609.22	901.11
609.37	1104.73
609.53	987.71
609.68	695.14
609.84	662.37
609.99	557.05
610.15	507.90
610.30	535.98
610.46	535.98
610.61	575.77
610.76	674.07
610.92	826.21
