SpectraSuite Data File
++++++++++++++++++++++++++++++++++++
Date: Fri Oct 04 11:33:47 GMT-05:00 2013
User: price-jones
Dark Spectrum Present: No
Reference Spectrum Present: No
Number of Sampled Component Spectra: 1
Spectrometers: USB2+H05261
Integration Time (usec): 100000 (USB2+H05261)
Spectra Averaged: 1 (USB2+H05261)
Boxcar Smoothing: 0 (USB2+H05261)
Correct for Electrical Dark: No (USB2+H05261)
Strobe/Lamp Enabled: No (USB2+H05261)
Correct for Detector Non-linearity: No (USB2+H05261)
Correct for Stray Light: No (USB2+H05261)
Number of Pixels in Processed Spectrum: 2048
>>>>>Begin Processed Spectral Data<<<<<
365.73	166.18
365.92	166.18
366.12	166.18
366.32	0.00
366.52	9.36
366.72	25.75
366.91	4.68
367.11	39.79
367.31	4.68
367.51	0.00
367.70	0.00
367.90	0.00
368.10	35.11
368.30	0.00
368.49	0.00
368.69	28.09
368.89	4.68
369.09	30.43
369.28	0.00
369.48	0.00
369.68	49.15
369.87	81.92
370.07	7.02
370.27	95.96
370.47	95.96
370.66	35.11
370.86	58.51
371.06	84.26
371.25	84.26
371.45	121.71
371.65	140.43
371.84	86.60
372.04	112.35
372.24	107.66
372.44	140.43
372.63	98.30
372.83	142.77
373.03	215.33
373.22	187.24
373.42	154.48
373.62	149.79
373.81	98.30
374.01	154.48
374.21	154.48
374.40	152.13
374.60	163.84
374.79	175.54
374.99	194.26
375.19	184.90
375.38	182.56
375.58	128.73
375.78	182.56
375.97	175.54
376.17	177.88
376.37	110.01
376.56	222.35
376.76	170.86
376.95	124.05
377.15	142.77
377.35	156.82
377.54	154.48
377.74	184.90
377.93	149.79
378.13	145.11
378.33	142.77
378.52	182.56
378.72	194.26
378.91	147.45
379.11	112.35
379.31	117.03
379.50	110.01
379.70	252.78
379.89	177.88
380.09	140.43
380.28	84.26
380.48	142.77
380.68	100.64
380.87	131.07
381.07	175.54
381.26	198.95
381.46	163.84
381.65	205.97
381.85	105.32
382.04	114.69
382.24	81.92
382.43	81.92
382.63	100.64
382.83	142.77
383.02	168.52
383.22	170.86
383.41	191.92
383.61	121.71
383.80	119.37
384.00	126.39
384.19	184.90
384.39	121.71
384.58	81.92
384.78	60.85
384.97	156.82
385.17	147.45
385.36	175.54
385.56	173.20
385.75	117.03
385.95	177.88
386.14	159.16
386.34	107.66
386.53	133.41
386.72	102.98
386.92	149.79
387.11	217.67
387.31	93.62
387.50	128.73
387.70	51.49
387.89	74.90
388.09	107.66
388.28	140.43
388.48	117.03
388.67	147.45
388.86	126.39
389.06	70.22
389.25	187.24
389.45	140.43
389.64	182.56
389.84	156.82
390.03	189.58
390.22	191.92
390.42	168.52
390.61	117.03
390.81	102.98
391.00	98.30
391.19	105.32
391.39	124.05
391.58	166.18
391.78	98.30
391.97	191.92
392.16	102.98
392.36	187.24
392.55	170.86
392.75	39.79
392.94	142.77
393.13	173.20
393.33	79.58
393.52	114.69
393.71	117.03
393.91	191.92
394.10	135.75
394.29	86.60
394.49	53.83
394.68	159.16
394.88	154.48
395.07	135.75
395.26	184.90
395.46	217.67
395.65	168.52
395.84	138.09
396.04	264.48
396.23	142.77
396.42	88.94
396.62	81.92
396.81	166.18
397.00	147.45
397.19	142.77
397.39	91.28
397.58	102.98
397.77	114.69
397.97	117.03
398.16	121.71
398.35	163.84
398.55	142.77
398.74	156.82
398.93	124.05
399.12	147.45
399.32	117.03
399.51	166.18
399.70	184.90
399.90	201.29
400.09	159.16
400.28	161.50
400.47	177.88
400.67	84.26
400.86	152.13
401.05	236.39
401.24	175.54
401.44	133.41
401.63	140.43
401.82	175.54
402.01	149.79
402.21	201.29
402.40	88.94
402.59	147.45
402.78	152.13
402.97	189.58
403.17	187.24
403.36	187.24
403.55	156.82
403.74	142.77
403.93	135.75
404.13	182.56
404.32	189.58
404.51	170.86
404.70	161.50
404.89	229.37
405.09	215.33
405.28	196.60
405.47	236.39
405.66	168.52
405.85	189.58
406.05	187.24
406.24	117.03
406.43	189.58
406.62	196.60
406.81	182.56
407.00	217.67
407.20	187.24
407.39	138.09
407.58	161.50
407.77	170.86
407.96	194.26
408.15	187.24
408.34	182.56
408.54	175.54
408.73	184.90
408.92	138.09
409.11	173.20
409.30	133.41
409.49	189.58
409.68	142.77
409.87	145.11
410.07	124.05
410.26	177.88
410.45	159.16
410.64	187.24
410.83	187.24
411.02	142.77
411.21	152.13
411.40	149.79
411.59	112.35
411.78	147.45
411.98	112.35
412.17	184.90
412.36	152.13
412.55	198.95
412.74	154.48
412.93	227.03
413.12	173.20
413.31	229.37
413.50	222.35
413.69	121.71
413.88	142.77
414.07	147.45
414.26	117.03
414.45	84.26
414.64	217.67
414.83	133.41
415.02	215.33
415.22	135.75
415.41	131.07
415.60	25.75
415.79	159.16
415.98	140.43
416.17	159.16
416.36	147.45
416.55	180.22
416.74	191.92
416.93	290.23
417.12	180.22
417.31	196.60
417.50	161.50
417.69	180.22
417.88	187.24
418.07	161.50
418.26	205.97
418.45	119.37
418.64	133.41
418.83	163.84
419.02	196.60
419.21	175.54
419.39	131.07
419.58	217.67
419.77	117.03
419.96	205.97
420.15	166.18
420.34	201.29
420.53	194.26
420.72	203.63
420.91	133.41
421.10	147.45
421.29	173.20
421.48	180.22
421.67	163.84
421.86	182.56
422.05	147.45
422.24	217.67
422.43	187.24
422.61	126.39
422.80	220.01
422.99	114.69
423.18	110.01
423.37	142.77
423.56	163.84
423.75	212.99
423.94	131.07
424.13	231.71
424.32	114.69
424.50	149.79
424.69	205.97
424.88	163.84
425.07	149.79
425.26	138.09
425.45	173.20
425.64	224.69
425.83	156.82
426.01	205.97
426.20	175.54
426.39	194.26
426.58	152.13
426.77	241.08
426.96	154.48
427.15	227.03
427.33	175.54
427.52	147.45
427.71	128.73
427.90	161.50
428.09	154.48
428.28	189.58
428.46	231.71
428.65	243.42
428.84	161.50
429.03	220.01
429.22	198.95
429.40	166.18
429.59	161.50
429.78	173.20
429.97	102.98
430.16	84.26
430.34	133.41
430.53	217.67
430.72	140.43
430.91	198.95
431.10	159.16
431.28	177.88
431.47	170.86
431.66	149.79
431.85	224.69
432.03	114.69
432.22	224.69
432.41	245.76
432.60	208.31
432.79	161.50
432.97	266.82
433.16	177.88
433.35	182.56
433.54	170.86
433.72	191.92
433.91	133.41
434.10	217.67
434.28	205.97
434.47	212.99
434.66	229.37
434.85	163.84
435.03	266.82
435.22	376.83
435.41	444.70
435.59	440.02
435.78	311.29
435.97	346.40
436.16	245.76
436.34	175.54
436.53	250.44
436.72	205.97
436.90	156.82
437.09	208.31
437.28	189.58
437.46	231.71
437.65	241.08
437.84	259.80
438.02	201.29
438.21	184.90
438.40	161.50
438.58	224.69
438.77	196.60
438.96	170.86
439.14	112.35
439.33	191.92
439.52	215.33
439.70	177.88
439.89	135.75
440.08	234.05
440.26	182.56
440.45	177.88
440.63	194.26
440.82	266.82
441.01	166.18
441.19	201.29
441.38	166.18
441.57	105.32
441.75	187.24
441.94	231.71
442.12	203.63
442.31	182.56
442.50	222.35
442.68	217.67
442.87	245.76
443.05	203.63
443.24	208.31
443.43	177.88
443.61	245.76
443.80	196.60
443.98	201.29
444.17	215.33
444.35	224.69
444.54	266.82
444.73	154.48
444.91	238.73
445.10	117.03
445.28	196.60
445.47	149.79
445.65	147.45
445.84	205.97
446.02	121.71
446.21	124.05
446.39	138.09
446.58	184.90
446.77	131.07
446.95	147.45
447.14	170.86
447.32	198.95
447.51	194.26
447.69	180.22
447.88	140.43
448.06	187.24
448.25	215.33
448.43	173.20
448.62	205.97
448.80	264.48
448.99	159.16
449.17	135.75
449.36	147.45
449.54	262.14
449.73	208.31
449.91	187.24
450.10	128.73
450.28	173.20
450.46	189.58
450.65	252.78
450.83	170.86
451.02	259.80
451.20	252.78
451.39	194.26
451.57	161.50
451.76	149.79
451.94	227.03
452.13	205.97
452.31	212.99
452.49	140.43
452.68	138.09
452.86	168.52
453.05	238.73
453.23	191.92
453.42	182.56
453.60	201.29
453.78	187.24
453.97	208.31
454.15	173.20
454.34	227.03
454.52	170.86
454.70	290.23
454.89	266.82
455.07	191.92
455.26	196.60
455.44	255.12
455.62	180.22
455.81	168.52
455.99	212.99
456.17	187.24
456.36	224.69
456.54	161.50
456.73	159.16
456.91	191.92
457.09	229.37
457.28	215.33
457.46	262.14
457.64	248.10
457.83	145.11
458.01	191.92
458.19	234.05
458.38	180.22
458.56	159.16
458.74	245.76
458.93	194.26
459.11	208.31
459.29	131.07
459.48	224.69
459.66	238.73
459.84	180.22
460.03	318.31
460.21	182.56
460.39	173.20
460.57	161.50
460.76	236.39
460.94	236.39
461.12	252.78
461.31	191.92
461.49	131.07
461.67	196.60
461.85	175.54
462.04	205.97
462.22	720.88
462.40	304.27
462.59	208.31
462.77	145.11
462.95	166.18
463.13	203.63
463.32	203.63
463.50	187.24
463.68	222.35
463.86	210.65
464.05	198.95
464.23	250.44
464.41	238.73
464.59	208.31
464.78	264.48
464.96	168.52
465.14	170.86
465.32	191.92
465.50	201.29
465.69	245.76
465.87	266.82
466.05	227.03
466.23	173.20
466.41	210.65
466.60	210.65
466.78	194.26
466.96	248.10
467.14	217.67
467.32	238.73
467.51	168.52
467.69	147.45
467.87	280.86
468.05	189.58
468.23	280.86
468.41	278.52
468.60	222.35
468.78	229.37
468.96	184.90
469.14	220.01
469.32	173.20
469.50	86.60
469.69	149.79
469.87	170.86
470.05	210.65
470.23	203.63
470.41	142.77
470.59	166.18
470.77	133.41
470.95	217.67
471.14	175.54
471.32	147.45
471.50	182.56
471.68	205.97
471.86	241.08
472.04	161.50
472.22	220.01
472.40	227.03
472.58	163.84
472.77	161.50
472.95	243.42
473.13	299.59
473.31	280.86
473.49	163.84
473.67	147.45
473.85	238.73
474.03	198.95
474.21	187.24
474.39	276.18
474.57	189.58
474.75	250.44
474.93	215.33
475.12	156.82
475.30	203.63
475.48	243.42
475.66	166.18
475.84	163.84
476.02	203.63
476.20	170.86
476.38	140.43
476.56	294.91
476.74	224.69
476.92	189.58
477.10	205.97
477.28	229.37
477.46	182.56
477.64	285.55
477.82	238.73
478.00	184.90
478.18	152.13
478.36	191.92
478.54	215.33
478.72	231.71
478.90	154.48
479.08	243.42
479.26	227.03
479.44	196.60
479.62	212.99
479.80	198.95
479.98	208.31
480.16	227.03
480.34	198.95
480.52	177.88
480.70	201.29
480.88	224.69
481.06	205.97
481.24	259.80
481.41	184.90
481.59	259.80
481.77	203.63
481.95	238.73
482.13	234.05
482.31	262.14
482.49	276.18
482.67	198.95
482.85	241.08
483.03	278.52
483.21	248.10
483.39	238.73
483.57	234.05
483.74	215.33
483.92	208.31
484.10	248.10
484.28	257.46
484.46	266.82
484.64	278.52
484.82	201.29
485.00	292.57
485.18	271.50
485.35	259.80
485.53	243.42
485.71	280.86
485.89	180.22
486.07	304.27
486.25	241.08
486.43	250.44
486.61	262.14
486.78	306.61
486.96	203.63
487.14	227.03
487.32	259.80
487.50	273.84
487.68	259.80
487.85	220.01
488.03	299.59
488.21	308.95
488.39	262.14
488.57	322.99
488.75	285.55
488.92	519.60
489.10	266.82
489.28	330.02
489.46	287.89
489.64	264.48
489.81	194.26
489.99	287.89
490.17	241.08
490.35	358.10
490.53	325.33
490.70	180.22
490.88	241.08
491.06	283.20
491.24	367.46
491.41	297.25
491.59	264.48
491.77	262.14
491.95	280.86
492.13	198.95
492.30	205.97
492.48	224.69
492.66	255.12
492.84	252.78
493.01	290.23
493.19	322.99
493.37	355.76
493.54	229.37
493.72	299.59
493.90	229.37
494.08	278.52
494.25	255.12
494.43	255.12
494.61	262.14
494.79	301.93
494.96	236.39
495.14	234.05
495.32	252.78
495.49	301.93
495.67	212.99
495.85	205.97
496.02	215.33
496.20	283.20
496.38	170.86
496.55	285.55
496.73	220.01
496.91	276.18
497.09	290.23
497.26	285.55
497.44	266.82
497.62	252.78
497.79	243.42
497.97	248.10
498.14	255.12
498.32	271.50
498.50	262.14
498.67	255.12
498.85	215.33
499.03	248.10
499.20	217.67
499.38	220.01
499.56	287.89
499.73	227.03
499.91	306.61
500.08	250.44
500.26	220.01
500.44	168.52
500.61	327.68
500.79	138.09
500.97	325.33
501.14	285.55
501.32	166.18
501.49	376.83
501.67	238.73
501.84	229.37
502.02	224.69
502.20	285.55
502.37	234.05
502.55	273.84
502.72	262.14
502.90	205.97
503.07	322.99
503.25	308.95
503.43	334.70
503.60	280.86
503.78	227.03
503.95	255.12
504.13	198.95
504.30	266.82
504.48	362.78
504.65	341.72
504.83	318.31
505.01	243.42
505.18	311.29
505.36	257.46
505.53	283.20
505.71	250.44
505.88	257.46
506.06	290.23
506.23	276.18
506.41	283.20
506.58	308.95
506.76	252.78
506.93	285.55
507.11	229.37
507.28	330.02
507.46	224.69
507.63	266.82
507.81	255.12
507.98	273.84
508.16	273.84
508.33	220.01
508.50	318.31
508.68	304.27
508.85	318.31
509.03	259.80
509.20	257.46
509.38	276.18
509.55	224.69
509.73	283.20
509.90	308.95
510.08	259.80
510.25	280.86
510.42	294.91
510.60	362.78
510.77	374.49
510.95	315.97
511.12	292.57
511.30	346.40
511.47	273.84
511.64	372.15
511.82	299.59
511.99	231.71
512.17	271.50
512.34	273.84
512.51	297.25
512.69	217.67
512.86	220.01
513.04	248.10
513.21	320.65
513.38	297.25
513.56	266.82
513.73	245.76
513.90	294.91
514.08	325.33
514.25	208.31
514.43	297.25
514.60	259.80
514.77	301.93
514.95	318.31
515.12	313.63
515.29	330.02
515.47	308.95
515.64	227.03
515.81	212.99
515.99	411.93
516.16	276.18
516.33	327.68
516.51	220.01
516.68	173.20
516.85	330.02
517.03	306.61
517.20	250.44
517.37	266.82
517.54	259.80
517.72	334.70
517.89	264.48
518.06	245.76
518.24	273.84
518.41	266.82
518.58	245.76
518.75	334.70
518.93	248.10
519.10	255.12
519.27	381.51
519.45	285.55
519.62	344.06
519.79	315.97
519.96	287.89
520.14	238.73
520.31	304.27
520.48	304.27
520.65	304.27
520.83	285.55
521.00	259.80
521.17	332.36
521.34	271.50
521.52	187.24
521.69	215.33
521.86	285.55
522.03	294.91
522.20	339.38
522.38	224.69
522.55	189.58
522.72	255.12
522.89	252.78
523.07	313.63
523.24	332.36
523.41	280.86
523.58	299.59
523.75	271.50
523.92	283.20
524.10	360.44
524.27	224.69
524.44	308.95
524.61	325.33
524.78	224.69
524.96	334.70
525.13	245.76
525.30	325.33
525.47	257.46
525.64	271.50
525.81	294.91
525.98	304.27
526.16	315.97
526.33	304.27
526.50	339.38
526.67	276.18
526.84	301.93
527.01	170.86
527.18	325.33
527.36	278.52
527.53	290.23
527.70	334.70
527.87	276.18
528.04	330.02
528.21	262.14
528.38	348.74
528.55	348.74
528.72	257.46
528.89	273.84
529.07	304.27
529.24	346.40
529.41	308.95
529.58	313.63
529.75	332.36
529.92	234.05
530.09	330.02
530.26	280.86
530.43	320.65
530.60	198.95
530.77	297.25
530.94	355.76
531.11	257.46
531.28	327.68
531.46	273.84
531.63	376.83
531.80	334.70
531.97	322.99
532.14	355.76
532.31	285.55
532.48	311.29
532.65	299.59
532.82	369.80
532.99	294.91
533.16	304.27
533.33	341.72
533.50	241.08
533.67	287.89
533.84	339.38
534.01	278.52
534.18	308.95
534.35	330.02
534.52	208.31
534.69	311.29
534.86	297.25
535.03	304.27
535.20	290.23
535.37	311.29
535.54	283.20
535.71	287.89
535.88	337.04
536.05	276.18
536.22	376.83
536.38	330.02
536.55	266.82
536.72	297.25
536.89	341.72
537.06	339.38
537.23	383.85
537.40	341.72
537.57	337.04
537.74	355.76
537.91	369.80
538.08	229.37
538.25	418.96
538.42	372.15
538.59	308.95
538.75	353.42
538.92	353.42
539.09	414.27
539.26	372.15
539.43	346.40
539.60	397.89
539.77	468.11
539.94	507.90
540.11	514.92
540.28	489.17
540.44	456.40
540.61	444.70
540.78	526.62
540.95	517.26
541.12	589.82
541.29	557.05
541.46	575.77
541.62	624.92
541.79	503.22
541.96	608.54
542.13	603.86
542.30	512.58
542.47	500.87
542.63	500.87
542.80	493.85
542.97	547.69
543.14	550.03
543.31	517.26
543.48	568.75
543.64	444.70
543.81	594.50
543.98	475.13
544.15	425.98
544.32	465.77
544.48	505.56
544.65	500.87
544.82	512.58
544.99	482.15
545.16	526.62
545.32	517.26
545.49	692.80
545.66	1020.47
545.83	954.94
546.00	950.26
546.16	755.99
546.33	575.77
546.50	603.86
546.67	491.51
546.83	437.68
547.00	425.98
547.17	414.27
547.34	397.89
547.50	451.72
547.67	437.68
547.84	423.64
548.00	465.77
548.17	407.25
548.34	414.27
548.51	479.81
548.67	449.38
548.84	362.78
549.01	344.06
549.18	360.44
549.34	381.51
549.51	386.19
549.68	372.15
549.84	367.46
550.01	367.46
550.18	491.51
550.34	416.62
550.51	386.19
550.68	444.70
550.84	388.53
551.01	297.25
551.18	358.10
551.34	346.40
551.51	376.83
551.68	301.93
551.84	280.86
552.01	224.69
552.18	280.86
552.34	287.89
552.51	341.72
552.68	395.55
552.84	294.91
553.01	440.02
553.18	334.70
553.34	259.80
553.51	306.61
553.67	379.17
553.84	322.99
554.01	294.91
554.17	327.68
554.34	273.84
554.51	379.17
554.67	334.70
554.84	360.44
555.00	355.76
555.17	341.72
555.33	367.46
555.50	334.70
555.67	252.78
555.83	273.84
556.00	332.36
556.16	400.23
556.33	337.04
556.50	276.18
556.66	327.68
556.83	332.36
556.99	269.16
557.16	320.65
557.32	351.08
557.49	224.69
557.65	262.14
557.82	308.95
557.98	273.84
558.15	229.37
558.32	287.89
558.48	327.68
558.65	276.18
558.81	311.29
558.98	287.89
559.14	271.50
559.31	245.76
559.47	332.36
559.64	266.82
559.80	297.25
559.97	243.42
560.13	322.99
560.30	245.76
560.46	308.95
560.63	236.39
560.79	276.18
560.96	212.99
561.12	210.65
561.29	301.93
561.45	241.08
561.61	250.44
561.78	351.08
561.94	273.84
562.11	248.10
562.27	259.80
562.44	294.91
562.60	262.14
562.77	205.97
562.93	297.25
563.10	367.46
563.26	222.35
563.42	243.42
563.59	297.25
563.75	229.37
563.92	259.80
564.08	262.14
564.24	344.06
564.41	348.74
564.57	271.50
564.74	238.73
564.90	278.52
565.07	266.82
565.23	306.61
565.39	313.63
565.56	224.69
565.72	196.60
565.88	229.37
566.05	248.10
566.21	224.69
566.38	273.84
566.54	325.33
566.70	285.55
566.87	327.68
567.03	290.23
567.19	273.84
567.36	269.16
567.52	266.82
567.68	278.52
567.85	259.80
568.01	292.57
568.17	231.71
568.34	278.52
568.50	273.84
568.66	229.37
568.83	313.63
568.99	287.89
569.15	294.91
569.32	266.82
569.48	358.10
569.64	278.52
569.81	292.57
569.97	278.52
570.13	297.25
570.30	248.10
570.46	257.46
570.62	210.65
570.78	280.86
570.95	262.14
571.11	369.80
571.27	322.99
571.43	210.65
571.60	248.10
571.76	222.35
571.92	325.33
572.09	318.31
572.25	276.18
572.41	224.69
572.57	301.93
572.74	372.15
572.90	332.36
573.06	292.57
573.22	290.23
573.38	341.72
573.55	360.44
573.71	222.35
573.87	269.16
574.03	290.23
574.20	264.48
574.36	313.63
574.52	301.93
574.68	241.08
574.84	306.61
575.01	280.86
575.17	252.78
575.33	285.55
575.49	264.48
575.65	365.12
575.82	306.61
575.98	276.18
576.14	327.68
576.30	400.23
576.46	402.57
576.62	395.55
576.79	433.00
576.95	393.21
577.11	411.93
577.27	308.95
577.43	315.97
577.59	367.46
577.75	318.31
577.92	262.14
578.08	280.86
578.24	177.88
578.40	266.82
578.56	397.89
578.72	353.42
578.88	477.47
579.04	372.15
579.21	311.29
579.37	297.25
579.53	341.72
579.69	341.72
579.85	311.29
580.01	348.74
580.17	285.55
580.33	327.68
580.49	372.15
580.65	306.61
580.82	381.51
580.98	283.20
581.14	297.25
581.30	292.57
581.46	308.95
581.62	348.74
581.78	388.53
581.94	374.49
582.10	444.70
582.26	325.33
582.42	315.97
582.58	337.04
582.74	325.33
582.90	257.46
583.06	369.80
583.22	381.51
583.38	259.80
583.54	351.08
583.70	322.99
583.86	390.87
584.02	376.83
584.18	454.06
584.34	409.59
584.50	491.51
584.66	1507.30
584.82	3581.02
584.98	5210.03
585.14	4620.22
585.30	3180.79
585.46	2019.88
585.62	1390.28
585.78	828.55
585.94	489.17
586.10	393.21
586.26	400.23
586.42	397.89
586.58	416.62
586.74	423.64
586.90	407.25
587.06	407.25
587.22	425.98
587.38	433.00
587.54	437.68
587.70	491.51
587.86	638.97
588.02	645.99
588.18	477.47
588.34	507.90
588.49	339.38
588.65	348.74
588.81	322.99
588.97	255.12
589.13	259.80
589.29	231.71
589.45	285.55
589.61	259.80
589.77	238.73
589.93	287.89
590.08	306.61
590.24	227.03
590.40	374.49
590.56	351.08
590.72	278.52
590.88	297.25
591.04	308.95
591.20	337.04
591.35	351.08
591.51	285.55
591.67	283.20
591.83	280.86
591.99	243.42
592.15	327.68
592.31	250.44
592.46	334.70
592.62	330.02
592.78	327.68
592.94	379.17
593.10	409.59
593.26	318.31
593.41	348.74
593.57	351.08
593.73	341.72
593.89	486.83
594.05	695.14
594.20	856.64
594.36	933.87
594.52	678.76
594.68	585.13
594.84	454.06
594.99	351.08
595.15	344.06
595.31	301.93
595.47	299.59
595.62	313.63
595.78	287.89
595.94	285.55
596.10	311.29
596.25	360.44
596.41	341.72
596.57	234.05
596.73	287.89
596.88	374.49
597.04	388.53
597.20	402.57
597.36	500.87
597.51	355.76
597.67	334.70
597.83	337.04
597.99	355.76
598.14	327.68
598.30	400.23
598.46	297.25
598.61	372.15
598.77	341.72
598.93	322.99
599.09	369.80
599.24	348.74
599.40	283.20
599.56	292.57
599.71	301.93
599.87	290.23
600.03	334.70
600.18	315.97
600.34	325.33
600.50	196.60
600.65	339.38
600.81	372.15
600.97	313.63
601.12	313.63
601.28	294.91
601.44	292.57
601.59	313.63
601.75	269.16
601.91	262.14
602.06	318.31
602.22	325.33
602.37	337.04
602.53	344.06
602.69	430.66
602.84	461.09
603.00	386.19
603.16	416.62
603.31	353.42
603.47	315.97
603.62	278.52
603.78	252.78
603.94	248.10
604.09	292.57
604.25	337.04
604.40	248.10
604.56	241.08
604.71	234.05
604.87	264.48
605.03	304.27
605.18	276.18
605.34	372.15
605.49	222.35
605.65	283.20
605.80	241.08
605.96	259.80
606.12	318.31
606.27	322.99
606.43	304.27
606.58	304.27
606.74	341.72
606.89	451.72
607.05	709.18
607.20	842.59
607.36	706.84
607.51	599.18
607.67	566.41
607.82	477.47
607.98	362.78
608.13	304.27
608.29	360.44
608.44	400.23
608.60	358.10
608.75	318.31
608.91	407.25
609.06	763.01
609.22	1057.92
609.37	1235.80
609.53	1172.61
609.68	952.60
609.84	758.33
609.99	660.03
610.15	629.60
610.30	596.84
610.46	657.69
610.61	786.42
610.76	910.47
