SpectraSuite Data File
++++++++++++++++++++++++++++++++++++
Date: Fri Oct 04 11:33:48 GMT-05:00 2013
User: price-jones
Dark Spectrum Present: No
Reference Spectrum Present: No
Number of Sampled Component Spectra: 1
Spectrometers: USB2+H05261
Integration Time (usec): 100000 (USB2+H05261)
Spectra Averaged: 1 (USB2+H05261)
Boxcar Smoothing: 0 (USB2+H05261)
Correct for Electrical Dark: No (USB2+H05261)
Strobe/Lamp Enabled: No (USB2+H05261)
Correct for Detector Non-linearity: No (USB2+H05261)
Correct for Stray Light: No (USB2+H05261)
Number of Pixels in Processed Spectrum: 2048
>>>>>Begin Processed Spectral Data<<<<<
365.73	91.28
365.92	91.28
366.12	91.28
366.32	0.00
366.52	0.00
366.72	39.79
366.91	0.00
367.11	0.00
367.31	0.00
367.51	0.00
367.70	0.00
367.90	11.70
368.10	0.00
368.30	0.00
368.49	0.00
368.69	0.00
368.89	0.00
369.09	0.00
369.28	23.41
369.48	0.00
369.68	0.00
369.87	11.70
370.07	0.00
370.27	65.54
370.47	0.00
370.66	0.00
370.86	32.77
371.06	142.77
371.25	175.54
371.45	74.90
371.65	128.73
371.84	72.56
372.04	67.88
372.24	117.03
372.44	138.09
372.63	191.92
372.83	227.03
373.03	91.28
373.22	105.32
373.42	112.35
373.62	133.41
373.81	182.56
374.01	170.86
374.21	112.35
374.40	175.54
374.60	168.52
374.79	124.05
374.99	142.77
375.19	208.31
375.38	180.22
375.58	107.66
375.78	95.96
375.97	215.33
376.17	271.50
376.37	180.22
376.56	154.48
376.76	112.35
376.95	105.32
377.15	182.56
377.35	140.43
377.54	196.60
377.74	166.18
377.93	147.45
378.13	128.73
378.33	182.56
378.52	149.79
378.72	81.92
378.91	231.71
379.11	170.86
379.31	168.52
379.50	117.03
379.70	205.97
379.89	166.18
380.09	117.03
380.28	124.05
380.48	105.32
380.68	100.64
380.87	154.48
381.07	98.30
381.26	215.33
381.46	201.29
381.65	84.26
381.85	131.07
382.04	119.37
382.24	117.03
382.43	91.28
382.63	152.13
382.83	112.35
383.02	189.58
383.22	126.39
383.41	119.37
383.61	128.73
383.80	117.03
384.00	102.98
384.19	105.32
384.39	159.16
384.58	84.26
384.78	173.20
384.97	98.30
385.17	100.64
385.36	147.45
385.56	107.66
385.75	114.69
385.95	152.13
386.14	168.52
386.34	138.09
386.53	110.01
386.72	100.64
386.92	112.35
387.11	180.22
387.31	135.75
387.50	98.30
387.70	86.60
387.89	138.09
388.09	138.09
388.28	79.58
388.48	140.43
388.67	163.84
388.86	222.35
389.06	107.66
389.25	81.92
389.45	166.18
389.64	177.88
389.84	208.31
390.03	112.35
390.22	95.96
390.42	105.32
390.61	131.07
390.81	121.71
391.00	145.11
391.19	161.50
391.39	70.22
391.58	102.98
391.78	131.07
391.97	224.69
392.16	79.58
392.36	131.07
392.55	222.35
392.75	187.24
392.94	102.98
393.13	184.90
393.33	163.84
393.52	140.43
393.71	161.50
393.91	133.41
394.10	170.86
394.29	159.16
394.49	271.50
394.68	177.88
394.88	168.52
395.07	156.82
395.26	133.41
395.46	126.39
395.65	170.86
395.84	156.82
396.04	215.33
396.23	124.05
396.42	173.20
396.62	152.13
396.81	194.26
397.00	145.11
397.19	117.03
397.39	105.32
397.58	222.35
397.77	110.01
397.97	175.54
398.16	191.92
398.35	152.13
398.55	117.03
398.74	126.39
398.93	191.92
399.12	110.01
399.32	126.39
399.51	112.35
399.70	166.18
399.90	184.90
400.09	168.52
400.28	210.65
400.47	126.39
400.67	177.88
400.86	140.43
401.05	215.33
401.24	177.88
401.44	180.22
401.63	140.43
401.82	222.35
402.01	166.18
402.21	152.13
402.40	154.48
402.59	161.50
402.78	177.88
402.97	142.77
403.17	159.16
403.36	166.18
403.55	194.26
403.74	152.13
403.93	177.88
404.13	201.29
404.32	205.97
404.51	198.95
404.70	131.07
404.89	154.48
405.09	170.86
405.28	161.50
405.47	117.03
405.66	154.48
405.85	170.86
406.05	182.56
406.24	142.77
406.43	182.56
406.62	175.54
406.81	210.65
407.00	196.60
407.20	147.45
407.39	187.24
407.58	114.69
407.77	170.86
407.96	201.29
408.15	191.92
408.34	156.82
408.54	245.76
408.73	91.28
408.92	135.75
409.11	224.69
409.30	166.18
409.49	133.41
409.68	140.43
409.87	168.52
410.07	224.69
410.26	124.05
410.45	142.77
410.64	128.73
410.83	98.30
411.02	163.84
411.21	184.90
411.40	154.48
411.59	163.84
411.78	124.05
411.98	112.35
412.17	128.73
412.36	128.73
412.55	163.84
412.74	194.26
412.93	208.31
413.12	77.24
413.31	208.31
413.50	133.41
413.69	124.05
413.88	154.48
414.07	227.03
414.26	159.16
414.45	114.69
414.64	152.13
414.83	105.32
415.02	163.84
415.22	152.13
415.41	159.16
415.60	203.63
415.79	173.20
415.98	278.52
416.17	138.09
416.36	208.31
416.55	159.16
416.74	117.03
416.93	215.33
417.12	173.20
417.31	140.43
417.50	205.97
417.69	264.48
417.88	180.22
418.07	180.22
418.26	91.28
418.45	173.20
418.64	273.84
418.83	194.26
419.02	147.45
419.21	152.13
419.39	276.18
419.58	203.63
419.77	231.71
419.96	173.20
420.15	276.18
420.34	131.07
420.53	198.95
420.72	196.60
420.91	117.03
421.10	194.26
421.29	182.56
421.48	196.60
421.67	173.20
421.86	180.22
422.05	173.20
422.24	182.56
422.43	140.43
422.61	149.79
422.80	67.88
422.99	147.45
423.18	135.75
423.37	173.20
423.56	156.82
423.75	287.89
423.94	168.52
424.13	205.97
424.32	152.13
424.50	198.95
424.69	154.48
424.88	163.84
425.07	156.82
425.26	205.97
425.45	220.01
425.64	203.63
425.83	266.82
426.01	276.18
426.20	205.97
426.39	161.50
426.58	177.88
426.77	198.95
426.96	236.39
427.15	201.29
427.33	175.54
427.52	189.58
427.71	205.97
427.90	180.22
428.09	236.39
428.28	156.82
428.46	173.20
428.65	182.56
428.84	208.31
429.03	259.80
429.22	173.20
429.40	124.05
429.59	194.26
429.78	264.48
429.97	147.45
430.16	166.18
430.34	154.48
430.53	201.29
430.72	142.77
430.91	189.58
431.10	154.48
431.28	110.01
431.47	229.37
431.66	182.56
431.85	224.69
432.03	142.77
432.22	241.08
432.41	173.20
432.60	292.57
432.79	154.48
432.97	266.82
433.16	280.86
433.35	250.44
433.54	159.16
433.72	198.95
433.91	229.37
434.10	205.97
434.28	231.71
434.47	201.29
434.66	231.71
434.85	156.82
435.03	212.99
435.22	334.70
435.41	353.42
435.59	365.12
435.78	348.74
435.97	224.69
436.16	154.48
436.34	159.16
436.53	156.82
436.72	142.77
436.90	248.10
437.09	201.29
437.28	229.37
437.46	203.63
437.65	205.97
437.84	161.50
438.02	194.26
438.21	245.76
438.40	210.65
438.58	140.43
438.77	163.84
438.96	184.90
439.14	201.29
439.33	145.11
439.52	135.75
439.70	191.92
439.89	194.26
440.08	227.03
440.26	175.54
440.45	229.37
440.63	208.31
440.82	306.61
441.01	222.35
441.19	245.76
441.38	187.24
441.57	145.11
441.75	222.35
441.94	180.22
442.12	140.43
442.31	234.05
442.50	257.46
442.68	180.22
442.87	170.86
443.05	198.95
443.24	227.03
443.43	133.41
443.61	196.60
443.80	124.05
443.98	215.33
444.17	133.41
444.35	208.31
444.54	215.33
444.73	205.97
444.91	180.22
445.10	224.69
445.28	170.86
445.47	231.71
445.65	205.97
445.84	159.16
446.02	250.44
446.21	173.20
446.39	105.32
446.58	210.65
446.77	189.58
446.95	238.73
447.14	159.16
447.32	152.13
447.51	154.48
447.69	243.42
447.88	182.56
448.06	255.12
448.25	227.03
448.43	212.99
448.62	163.84
448.80	184.90
448.99	198.95
449.17	255.12
449.36	227.03
449.54	210.65
449.73	161.50
449.91	201.29
450.10	182.56
450.28	215.33
450.46	203.63
450.65	229.37
450.83	149.79
451.02	215.33
451.20	224.69
451.39	262.14
451.57	142.77
451.76	177.88
451.94	234.05
452.13	210.65
452.31	191.92
452.49	210.65
452.68	152.13
452.86	159.16
453.05	250.44
453.23	154.48
453.42	259.80
453.60	156.82
453.78	154.48
453.97	133.41
454.15	149.79
454.34	236.39
454.52	201.29
454.70	187.24
454.89	222.35
455.07	217.67
455.26	163.84
455.44	236.39
455.62	149.79
455.81	227.03
455.99	271.50
456.17	166.18
456.36	175.54
456.54	154.48
456.73	294.91
456.91	224.69
457.09	189.58
457.28	308.95
457.46	152.13
457.64	224.69
457.83	128.73
458.01	187.24
458.19	175.54
458.38	100.64
458.56	194.26
458.74	140.43
458.93	175.54
459.11	194.26
459.29	248.10
459.48	191.92
459.66	177.88
459.84	210.65
460.03	341.72
460.21	222.35
460.39	198.95
460.57	184.90
460.76	177.88
460.94	210.65
461.12	227.03
461.31	215.33
461.49	166.18
461.67	180.22
461.85	208.31
462.04	184.90
462.22	643.65
462.40	196.60
462.59	198.95
462.77	182.56
462.95	159.16
463.13	182.56
463.32	238.73
463.50	238.73
463.68	203.63
463.86	187.24
464.05	191.92
464.23	189.58
464.41	194.26
464.59	114.69
464.78	220.01
464.96	175.54
465.14	201.29
465.32	177.88
465.50	182.56
465.69	189.58
465.87	205.97
466.05	147.45
466.23	166.18
466.41	191.92
466.60	184.90
466.78	187.24
466.96	212.99
467.14	191.92
467.32	149.79
467.51	224.69
467.69	212.99
467.87	255.12
468.05	189.58
468.23	252.78
468.41	224.69
468.60	184.90
468.78	227.03
468.96	266.82
469.14	163.84
469.32	156.82
469.50	175.54
469.69	220.01
469.87	224.69
470.05	187.24
470.23	191.92
470.41	156.82
470.59	156.82
470.77	255.12
470.95	166.18
471.14	241.08
471.32	250.44
471.50	271.50
471.68	212.99
471.86	147.45
472.04	142.77
472.22	271.50
472.40	119.37
472.58	135.75
472.77	201.29
472.95	245.76
473.13	229.37
473.31	205.97
473.49	196.60
473.67	203.63
473.85	217.67
474.03	236.39
474.21	180.22
474.39	217.67
474.57	170.86
474.75	205.97
474.93	210.65
475.12	210.65
475.30	227.03
475.48	205.97
475.66	250.44
475.84	168.52
476.02	121.71
476.20	203.63
476.38	142.77
476.56	236.39
476.74	205.97
476.92	166.18
477.10	203.63
477.28	191.92
477.46	133.41
477.64	194.26
477.82	194.26
478.00	229.37
478.18	248.10
478.36	184.90
478.54	191.92
478.72	243.42
478.90	217.67
479.08	212.99
479.26	166.18
479.44	231.71
479.62	147.45
479.80	173.20
479.98	189.58
480.16	194.26
480.34	215.33
480.52	229.37
480.70	262.14
480.88	215.33
481.06	187.24
481.24	220.01
481.41	259.80
481.59	222.35
481.77	252.78
481.95	166.18
482.13	238.73
482.31	182.56
482.49	177.88
482.67	238.73
482.85	222.35
483.03	236.39
483.21	285.55
483.39	266.82
483.57	203.63
483.74	227.03
483.92	159.16
484.10	241.08
484.28	243.42
484.46	266.82
484.64	238.73
484.82	215.33
485.00	198.95
485.18	238.73
485.35	262.14
485.53	208.31
485.71	243.42
485.89	234.05
486.07	154.48
486.25	266.82
486.43	294.91
486.61	224.69
486.78	238.73
486.96	241.08
487.14	248.10
487.32	252.78
487.50	170.86
487.68	259.80
487.85	208.31
488.03	234.05
488.21	266.82
488.39	266.82
488.57	231.71
488.75	292.57
488.92	430.66
489.10	306.61
489.28	304.27
489.46	245.76
489.64	194.26
489.81	217.67
489.99	313.63
490.17	241.08
490.35	304.27
490.53	236.39
490.70	264.48
490.88	285.55
491.06	234.05
491.24	215.33
491.41	241.08
491.59	278.52
491.77	248.10
491.95	168.52
492.13	198.95
492.30	339.38
492.48	224.69
492.66	266.82
492.84	269.16
493.01	306.61
493.19	292.57
493.37	327.68
493.54	269.16
493.72	292.57
493.90	173.20
494.08	255.12
494.25	318.31
494.43	262.14
494.61	168.52
494.79	159.16
494.96	212.99
495.14	278.52
495.32	201.29
495.49	269.16
495.67	283.20
495.85	238.73
496.02	220.01
496.20	224.69
496.38	231.71
496.55	269.16
496.73	212.99
496.91	198.95
497.09	248.10
497.26	287.89
497.44	355.76
497.62	280.86
497.79	297.25
497.97	215.33
498.14	205.97
498.32	299.59
498.50	234.05
498.67	245.76
498.85	285.55
499.03	229.37
499.20	175.54
499.38	264.48
499.56	203.63
499.73	212.99
499.91	297.25
500.08	203.63
500.26	241.08
500.44	257.46
500.61	170.86
500.79	273.84
500.97	332.36
501.14	304.27
501.32	259.80
501.49	257.46
501.67	217.67
501.84	212.99
502.02	238.73
502.20	290.23
502.37	315.97
502.55	278.52
502.72	243.42
502.90	285.55
503.07	227.03
503.25	318.31
503.43	269.16
503.60	315.97
503.78	273.84
503.95	273.84
504.13	220.01
504.30	299.59
504.48	266.82
504.65	271.50
504.83	259.80
505.01	245.76
505.18	269.16
505.36	304.27
505.53	245.76
505.71	243.42
505.88	313.63
506.06	264.48
506.23	266.82
506.41	278.52
506.58	227.03
506.76	252.78
506.93	203.63
507.11	215.33
507.28	255.12
507.46	287.89
507.63	306.61
507.81	215.33
507.98	245.76
508.16	290.23
508.33	217.67
508.50	266.82
508.68	285.55
508.85	234.05
509.03	276.18
509.20	318.31
509.38	252.78
509.55	313.63
509.73	252.78
509.90	285.55
510.08	252.78
510.25	257.46
510.42	180.22
510.60	259.80
510.77	283.20
510.95	330.02
511.12	250.44
511.30	334.70
511.47	355.76
511.64	386.19
511.82	290.23
511.99	262.14
512.17	308.95
512.34	245.76
512.51	184.90
512.69	220.01
512.86	290.23
513.04	229.37
513.21	311.29
513.38	273.84
513.56	311.29
513.73	287.89
513.90	259.80
514.08	203.63
514.25	344.06
514.43	266.82
514.60	278.52
514.77	245.76
514.95	259.80
515.12	266.82
515.29	297.25
515.47	264.48
515.64	322.99
515.81	264.48
515.99	266.82
516.16	255.12
516.33	208.31
516.51	320.65
516.68	220.01
516.85	287.89
517.03	241.08
517.20	306.61
517.37	283.20
517.54	327.68
517.72	224.69
517.89	208.31
518.06	201.29
518.24	278.52
518.41	337.04
518.58	365.12
518.75	236.39
518.93	283.20
519.10	273.84
519.27	266.82
519.45	257.46
519.62	248.10
519.79	205.97
519.96	215.33
520.14	236.39
520.31	301.93
520.48	238.73
520.65	301.93
520.83	292.57
521.00	315.97
521.17	236.39
521.34	264.48
521.52	196.60
521.69	301.93
521.86	276.18
522.03	337.04
522.20	306.61
522.38	269.16
522.55	269.16
522.72	191.92
522.89	250.44
523.07	290.23
523.24	250.44
523.41	224.69
523.58	231.71
523.75	264.48
523.92	266.82
524.10	243.42
524.27	238.73
524.44	280.86
524.61	283.20
524.78	238.73
524.96	273.84
525.13	191.92
525.30	297.25
525.47	283.20
525.64	255.12
525.81	259.80
525.98	332.36
526.16	278.52
526.33	278.52
526.50	304.27
526.67	229.37
526.84	250.44
527.01	259.80
527.18	292.57
527.36	313.63
527.53	229.37
527.70	358.10
527.87	175.54
528.04	297.25
528.21	297.25
528.38	259.80
528.55	198.95
528.72	372.15
528.89	365.12
529.07	315.97
529.24	276.18
529.41	245.76
529.58	280.86
529.75	292.57
529.92	285.55
530.09	224.69
530.26	360.44
530.43	238.73
530.60	212.99
530.77	250.44
530.94	177.88
531.11	304.27
531.28	163.84
531.46	320.65
531.63	236.39
531.80	348.74
531.97	299.59
532.14	229.37
532.31	308.95
532.48	318.31
532.65	325.33
532.82	388.53
532.99	386.19
533.16	337.04
533.33	283.20
533.50	297.25
533.67	301.93
533.84	428.32
534.01	407.25
534.18	365.12
534.35	318.31
534.52	308.95
534.69	259.80
534.86	292.57
535.03	271.50
535.20	339.38
535.37	322.99
535.54	285.55
535.71	365.12
535.88	355.76
536.05	248.10
536.22	311.29
536.38	304.27
536.55	257.46
536.72	379.17
536.89	250.44
537.06	301.93
537.23	320.65
537.40	271.50
537.57	264.48
537.74	318.31
537.91	320.65
538.08	386.19
538.25	311.29
538.42	311.29
538.59	318.31
538.75	306.61
538.92	411.93
539.09	397.89
539.26	337.04
539.43	531.30
539.60	985.37
539.77	1575.18
539.94	1603.27
540.11	1111.75
540.28	809.83
540.44	641.31
540.61	442.36
540.78	482.15
540.95	468.11
541.12	578.11
541.29	564.07
541.46	500.87
541.62	489.17
541.79	437.68
541.96	470.45
542.13	461.09
542.30	433.00
542.47	390.87
542.63	411.93
542.80	493.85
542.97	585.13
543.14	510.24
543.31	472.79
543.48	390.87
543.64	444.70
543.81	425.98
543.98	447.04
544.15	425.98
544.32	411.93
544.48	496.19
544.65	498.53
544.82	444.70
544.99	353.42
545.16	421.30
545.32	465.77
545.49	660.03
545.66	830.89
545.83	875.36
546.00	676.41
546.16	585.13
546.33	524.28
546.50	456.40
546.67	440.02
546.83	397.89
547.00	451.72
547.17	470.45
547.34	386.19
547.50	332.36
547.67	355.76
547.84	362.78
548.00	327.68
548.17	374.49
548.34	346.40
548.51	435.34
548.67	440.02
548.84	353.42
549.01	376.83
549.18	414.27
549.34	386.19
549.51	311.29
549.68	362.78
549.84	332.36
550.01	315.97
550.18	393.21
550.34	423.64
550.51	301.93
550.68	341.72
550.84	280.86
551.01	301.93
551.18	390.87
551.34	369.80
551.51	374.49
551.68	346.40
551.84	252.78
552.01	266.82
552.18	353.42
552.34	283.20
552.51	266.82
552.68	327.68
552.84	355.76
553.01	271.50
553.18	313.63
553.34	276.18
553.51	210.65
553.67	276.18
553.84	322.99
554.01	252.78
554.17	283.20
554.34	212.99
554.51	276.18
554.67	346.40
554.84	311.29
555.00	280.86
555.17	276.18
555.33	189.58
555.50	308.95
555.67	313.63
555.83	283.20
556.00	297.25
556.16	505.56
556.33	306.61
556.50	231.71
556.66	266.82
556.83	299.59
556.99	325.33
557.16	299.59
557.32	322.99
557.49	227.03
557.65	248.10
557.82	208.31
557.98	259.80
558.15	259.80
558.32	280.86
558.48	278.52
558.65	217.67
558.81	287.89
558.98	208.31
559.14	278.52
559.31	294.91
559.47	299.59
559.64	276.18
559.80	313.63
559.97	287.89
560.13	311.29
560.30	198.95
560.46	222.35
560.63	259.80
560.79	210.65
560.96	308.95
561.12	259.80
561.29	299.59
561.45	208.31
561.61	264.48
561.78	283.20
561.94	264.48
562.11	327.68
562.27	276.18
562.44	320.65
562.60	285.55
562.77	292.57
562.93	273.84
563.10	273.84
563.26	311.29
563.42	297.25
563.59	257.46
563.75	243.42
563.92	318.31
564.08	318.31
564.24	285.55
564.41	285.55
564.57	264.48
564.74	241.08
564.90	212.99
565.07	297.25
565.23	243.42
565.39	245.76
565.56	369.80
565.72	280.86
565.88	280.86
566.05	177.88
566.21	257.46
566.38	196.60
566.54	297.25
566.70	276.18
566.87	271.50
567.03	212.99
567.19	215.33
567.36	266.82
567.52	292.57
567.68	285.55
567.85	276.18
568.01	175.54
568.17	231.71
568.34	222.35
568.50	255.12
568.66	245.76
568.83	362.78
568.99	292.57
569.15	330.02
569.32	257.46
569.48	250.44
569.64	168.52
569.81	292.57
569.97	294.91
570.13	322.99
570.30	287.89
570.46	198.95
570.62	220.01
570.78	330.02
570.95	271.50
571.11	285.55
571.27	304.27
571.43	231.71
571.60	259.80
571.76	264.48
571.92	229.37
572.09	278.52
572.25	297.25
572.41	257.46
572.57	194.26
572.74	292.57
572.90	294.91
573.06	332.36
573.22	269.16
573.38	332.36
573.55	191.92
573.71	278.52
573.87	334.70
574.03	245.76
574.20	341.72
574.36	297.25
574.52	276.18
574.68	332.36
574.84	360.44
575.01	278.52
575.17	283.20
575.33	273.84
575.49	318.31
575.65	320.65
575.82	381.51
575.98	606.20
576.14	629.60
576.30	828.55
576.46	653.01
576.62	571.09
576.79	456.40
576.95	475.13
577.11	301.93
577.27	325.33
577.43	259.80
577.59	381.51
577.75	330.02
577.92	262.14
578.08	320.65
578.24	327.68
578.40	327.68
578.56	437.68
578.72	397.89
578.88	496.19
579.04	322.99
579.21	365.12
579.37	301.93
579.53	330.02
579.69	365.12
579.85	360.44
580.01	395.55
580.17	468.11
580.33	367.46
580.49	276.18
580.65	381.51
580.82	351.08
580.98	365.12
581.14	330.02
581.30	470.45
581.46	386.19
581.62	599.18
581.78	763.01
581.94	617.90
582.10	496.19
582.26	505.56
582.42	430.66
582.58	489.17
582.74	500.87
582.90	468.11
583.06	613.22
583.22	484.49
583.38	510.24
583.54	582.79
583.70	582.79
583.86	793.44
584.02	823.87
584.18	990.05
584.34	1118.78
584.50	2715.02
584.66	19030.90
584.82	51737.54
584.98	64860.93
585.14	63454.26
585.30	48594.20
585.46	28957.11
585.62	17771.69
585.78	8430.61
585.94	3393.78
586.10	1561.14
586.26	1125.80
586.42	917.49
586.58	791.10
586.74	723.23
586.90	711.52
587.06	678.76
587.22	650.67
587.38	613.22
587.54	1151.54
587.70	3089.51
587.86	5380.89
588.02	6644.78
588.18	4624.90
588.34	2864.82
588.49	1935.62
588.65	1252.19
588.81	660.03
588.97	465.77
589.13	365.12
589.29	390.87
589.45	397.89
589.61	313.63
589.77	388.53
589.93	484.49
590.08	486.83
590.24	566.41
590.40	458.74
590.56	498.53
590.72	435.34
590.88	409.59
591.04	351.08
591.20	444.70
591.35	472.79
591.51	388.53
591.67	388.53
591.83	330.02
591.99	358.10
592.15	376.83
592.31	362.78
592.46	358.10
592.62	367.46
592.78	395.55
592.94	383.85
593.10	386.19
593.26	344.06
593.41	489.17
593.57	414.27
593.73	575.77
593.89	2328.83
594.05	6324.13
594.20	10548.79
594.36	10534.75
594.52	7002.88
594.68	4299.56
594.84	2860.13
594.99	1561.14
595.15	823.87
595.31	470.45
595.47	411.93
595.62	304.27
595.78	346.40
595.94	301.93
596.10	400.23
596.25	400.23
596.41	468.11
596.57	369.80
596.73	400.23
596.88	550.03
597.04	1282.61
597.20	2115.84
597.36	2780.56
597.51	2031.58
597.67	1369.21
597.83	980.68
597.99	763.01
598.14	491.51
598.30	519.60
598.46	386.19
598.61	433.00
598.77	337.04
598.93	388.53
599.09	306.61
599.24	320.65
599.40	383.85
599.56	341.72
599.71	299.59
599.87	351.08
600.03	332.36
600.18	334.70
600.34	292.57
600.50	313.63
600.65	276.18
600.81	257.46
600.97	259.80
601.12	320.65
601.28	259.80
601.44	257.46
601.59	320.65
601.75	311.29
601.91	297.25
602.06	360.44
602.22	416.62
602.37	737.27
602.53	1577.52
602.69	2558.21
602.84	2972.48
603.00	2179.04
603.16	1359.85
603.31	1041.54
603.47	662.37
603.62	468.11
603.78	353.42
603.94	311.29
604.09	325.33
604.25	278.52
604.40	346.40
604.56	325.33
604.71	339.38
604.87	283.20
605.03	285.55
605.18	292.57
605.34	397.89
605.49	313.63
605.65	379.17
605.80	313.63
605.96	353.42
606.12	334.70
606.27	348.74
606.43	435.34
606.58	428.32
606.74	805.14
606.89	2953.76
607.05	6438.81
607.20	9013.40
607.36	7805.69
607.51	5226.42
607.67	3356.33
607.82	2319.47
607.98	1345.81
608.13	737.27
608.29	425.98
608.44	503.22
608.60	519.60
608.75	615.56
608.91	1053.24
609.06	4526.60
609.22	10513.69
609.37	15700.31
609.53	13767.03
609.68	9282.56
609.84	6061.99
609.99	3971.89
610.15	2249.25
