SpectraSuite Data File
++++++++++++++++++++++++++++++++++++
Date: Fri Oct 04 11:34:01 GMT-05:00 2013
User: price-jones
Dark Spectrum Present: No
Reference Spectrum Present: No
Number of Sampled Component Spectra: 1
Spectrometers: USB2+H05261
Integration Time (usec): 100000 (USB2+H05261)
Spectra Averaged: 1 (USB2+H05261)
Boxcar Smoothing: 0 (USB2+H05261)
Correct for Electrical Dark: No (USB2+H05261)
Strobe/Lamp Enabled: No (USB2+H05261)
Correct for Detector Non-linearity: No (USB2+H05261)
Correct for Stray Light: No (USB2+H05261)
Number of Pixels in Processed Spectrum: 2048
>>>>>Begin Processed Spectral Data<<<<<
365.73	117.03
365.92	117.03
366.12	117.03
366.32	0.00
366.52	35.11
366.72	0.00
366.91	0.00
367.11	0.00
367.31	60.85
367.51	0.00
367.70	4.68
367.90	0.00
368.10	0.00
368.30	0.00
368.49	0.00
368.69	44.47
368.89	0.00
369.09	7.02
369.28	7.02
369.48	0.00
369.68	0.00
369.87	11.70
370.07	0.00
370.27	58.51
370.47	98.30
370.66	53.83
370.86	77.24
371.06	107.66
371.25	121.71
371.45	147.45
371.65	105.32
371.84	37.45
372.04	56.17
372.24	135.75
372.44	191.92
372.63	156.82
372.83	154.48
373.03	124.05
373.22	112.35
373.42	184.90
373.62	126.39
373.81	156.82
374.01	215.33
374.21	198.95
374.40	152.13
374.60	184.90
374.79	152.13
374.99	149.79
375.19	128.73
375.38	212.99
375.58	203.63
375.78	147.45
375.97	149.79
376.17	196.60
376.37	196.60
376.56	187.24
376.76	154.48
376.95	126.39
377.15	149.79
377.35	86.60
377.54	187.24
377.74	175.54
377.93	70.22
378.13	182.56
378.33	217.67
378.52	112.35
378.72	236.39
378.91	159.16
379.11	37.45
379.31	91.28
379.50	37.45
379.70	145.11
379.89	189.58
380.09	163.84
380.28	81.92
380.48	117.03
380.68	147.45
380.87	70.22
381.07	105.32
381.26	93.62
381.46	142.77
381.65	145.11
381.85	126.39
382.04	86.60
382.24	110.01
382.43	91.28
382.63	117.03
382.83	152.13
383.02	163.84
383.22	166.18
383.41	107.66
383.61	93.62
383.80	149.79
384.00	175.54
384.19	88.94
384.39	67.88
384.58	46.81
384.78	163.84
384.97	107.66
385.17	140.43
385.36	44.47
385.56	220.01
385.75	147.45
385.95	112.35
386.14	161.50
386.34	112.35
386.53	114.69
386.72	91.28
386.92	156.82
387.11	182.56
387.31	121.71
387.50	93.62
387.70	93.62
387.89	175.54
388.09	72.56
388.28	149.79
388.48	135.75
388.67	168.52
388.86	138.09
389.06	161.50
389.25	121.71
389.45	112.35
389.64	102.98
389.84	250.44
390.03	138.09
390.22	112.35
390.42	114.69
390.61	145.11
390.81	177.88
391.00	205.97
391.19	163.84
391.39	121.71
391.58	205.97
391.78	170.86
391.97	182.56
392.16	159.16
392.36	212.99
392.55	133.41
392.75	142.77
392.94	133.41
393.13	170.86
393.33	98.30
393.52	124.05
393.71	208.31
393.91	138.09
394.10	39.79
394.29	114.69
394.49	210.65
394.68	212.99
394.88	156.82
395.07	168.52
395.26	222.35
395.46	163.84
395.65	138.09
395.84	53.83
396.04	208.31
396.23	112.35
396.42	161.50
396.62	152.13
396.81	184.90
397.00	79.58
397.19	140.43
397.39	102.98
397.58	215.33
397.77	161.50
397.97	117.03
398.16	124.05
398.35	147.45
398.55	166.18
398.74	187.24
398.93	170.86
399.12	201.29
399.32	168.52
399.51	95.96
399.70	184.90
399.90	149.79
400.09	177.88
400.28	264.48
400.47	156.82
400.67	145.11
400.86	187.24
401.05	229.37
401.24	191.92
401.44	173.20
401.63	212.99
401.82	170.86
402.01	201.29
402.21	215.33
402.40	189.58
402.59	180.22
402.78	163.84
402.97	205.97
403.17	252.78
403.36	234.05
403.55	81.92
403.74	121.71
403.93	203.63
404.13	250.44
404.32	241.08
404.51	273.84
404.70	245.76
404.89	93.62
405.09	208.31
405.28	149.79
405.47	161.50
405.66	182.56
405.85	180.22
406.05	128.73
406.24	180.22
406.43	138.09
406.62	194.26
406.81	201.29
407.00	201.29
407.20	138.09
407.39	159.16
407.58	121.71
407.77	131.07
407.96	149.79
408.15	161.50
408.34	131.07
408.54	222.35
408.73	187.24
408.92	175.54
409.11	175.54
409.30	196.60
409.49	93.62
409.68	170.86
409.87	154.48
410.07	163.84
410.26	222.35
410.45	128.73
410.64	131.07
410.83	170.86
411.02	161.50
411.21	152.13
411.40	196.60
411.59	154.48
411.78	102.98
411.98	154.48
412.17	126.39
412.36	187.24
412.55	98.30
412.74	156.82
412.93	212.99
413.12	147.45
413.31	175.54
413.50	184.90
413.69	170.86
413.88	135.75
414.07	112.35
414.26	145.11
414.45	222.35
414.64	145.11
414.83	184.90
415.02	138.09
415.22	152.13
415.41	201.29
415.60	205.97
415.79	177.88
415.98	271.50
416.17	184.90
416.36	175.54
416.55	187.24
416.74	128.73
416.93	159.16
417.12	205.97
417.31	182.56
417.50	159.16
417.69	245.76
417.88	238.73
418.07	201.29
418.26	196.60
418.45	222.35
418.64	259.80
418.83	191.92
419.02	234.05
419.21	140.43
419.39	180.22
419.58	189.58
419.77	238.73
419.96	241.08
420.15	145.11
420.34	184.90
420.53	168.52
420.72	222.35
420.91	224.69
421.10	145.11
421.29	194.26
421.48	229.37
421.67	257.46
421.86	168.52
422.05	173.20
422.24	203.63
422.43	196.60
422.61	180.22
422.80	159.16
422.99	149.79
423.18	121.71
423.37	161.50
423.56	159.16
423.75	189.58
423.94	140.43
424.13	159.16
424.32	166.18
424.50	170.86
424.69	133.41
424.88	212.99
425.07	147.45
425.26	220.01
425.45	299.59
425.64	205.97
425.83	255.12
426.01	170.86
426.20	161.50
426.39	170.86
426.58	159.16
426.77	198.95
426.96	189.58
427.15	121.71
427.33	140.43
427.52	156.82
427.71	220.01
427.90	149.79
428.09	173.20
428.28	131.07
428.46	119.37
428.65	203.63
428.84	212.99
429.03	180.22
429.22	110.01
429.40	159.16
429.59	133.41
429.78	196.60
429.97	145.11
430.16	86.60
430.34	140.43
430.53	98.30
430.72	166.18
430.91	217.67
431.10	170.86
431.28	189.58
431.47	189.58
431.66	131.07
431.85	140.43
432.03	161.50
432.22	182.56
432.41	194.26
432.60	252.78
432.79	224.69
432.97	276.18
433.16	339.38
433.35	273.84
433.54	184.90
433.72	231.71
433.91	203.63
434.10	229.37
434.28	248.10
434.47	220.01
434.66	208.31
434.85	191.92
435.03	170.86
435.22	362.78
435.41	414.27
435.59	435.34
435.78	320.65
435.97	198.95
436.16	259.80
436.34	187.24
436.53	184.90
436.72	245.76
436.90	229.37
437.09	173.20
437.28	201.29
437.46	159.16
437.65	128.73
437.84	210.65
438.02	149.79
438.21	194.26
438.40	159.16
438.58	166.18
438.77	205.97
438.96	147.45
439.14	182.56
439.33	156.82
439.52	121.71
439.70	203.63
439.89	262.14
440.08	196.60
440.26	205.97
440.45	196.60
440.63	245.76
440.82	203.63
441.01	177.88
441.19	205.97
441.38	189.58
441.57	142.77
441.75	191.92
441.94	184.90
442.12	210.65
442.31	152.13
442.50	166.18
442.68	177.88
442.87	166.18
443.05	196.60
443.24	198.95
443.43	266.82
443.61	234.05
443.80	229.37
443.98	248.10
444.17	191.92
444.35	147.45
444.54	138.09
444.73	234.05
444.91	203.63
445.10	156.82
445.28	105.32
445.47	156.82
445.65	245.76
445.84	117.03
446.02	138.09
446.21	138.09
446.39	159.16
446.58	196.60
446.77	168.52
446.95	180.22
447.14	191.92
447.32	168.52
447.51	168.52
447.69	203.63
447.88	168.52
448.06	205.97
448.25	163.84
448.43	145.11
448.62	266.82
448.80	210.65
448.99	217.67
449.17	147.45
449.36	161.50
449.54	191.92
449.73	208.31
449.91	252.78
450.10	255.12
450.28	245.76
450.46	212.99
450.65	191.92
450.83	187.24
451.02	100.64
451.20	177.88
451.39	168.52
451.57	147.45
451.76	180.22
451.94	187.24
452.13	238.73
452.31	210.65
452.49	203.63
452.68	243.42
452.86	105.32
453.05	269.16
453.23	220.01
453.42	156.82
453.60	259.80
453.78	220.01
453.97	201.29
454.15	189.58
454.34	215.33
454.52	210.65
454.70	203.63
454.89	138.09
455.07	161.50
455.26	128.73
455.44	234.05
455.62	201.29
455.81	198.95
455.99	124.05
456.17	229.37
456.36	114.69
456.54	180.22
456.73	156.82
456.91	159.16
457.09	184.90
457.28	212.99
457.46	180.22
457.64	212.99
457.83	208.31
458.01	175.54
458.19	133.41
458.38	147.45
458.56	201.29
458.74	196.60
458.93	220.01
459.11	198.95
459.29	241.08
459.48	229.37
459.66	203.63
459.84	166.18
460.03	304.27
460.21	248.10
460.39	173.20
460.57	229.37
460.76	229.37
460.94	217.67
461.12	173.20
461.31	231.71
461.49	182.56
461.67	168.52
461.85	220.01
462.04	229.37
462.22	587.47
462.40	271.50
462.59	203.63
462.77	236.39
462.95	252.78
463.13	189.58
463.32	276.18
463.50	161.50
463.68	259.80
463.86	119.37
464.05	196.60
464.23	222.35
464.41	154.48
464.59	177.88
464.78	241.08
464.96	135.75
465.14	161.50
465.32	191.92
465.50	210.65
465.69	231.71
465.87	124.05
466.05	227.03
466.23	184.90
466.41	236.39
466.60	234.05
466.78	173.20
466.96	248.10
467.14	163.84
467.32	170.86
467.51	175.54
467.69	187.24
467.87	173.20
468.05	208.31
468.23	259.80
468.41	248.10
468.60	166.18
468.78	194.26
468.96	175.54
469.14	224.69
469.32	217.67
469.50	182.56
469.69	217.67
469.87	175.54
470.05	236.39
470.23	250.44
470.41	217.67
470.59	189.58
470.77	194.26
470.95	128.73
471.14	180.22
471.32	273.84
471.50	264.48
471.68	145.11
471.86	287.89
472.04	220.01
472.22	231.71
472.40	205.97
472.58	198.95
472.77	161.50
472.95	191.92
473.13	203.63
473.31	215.33
473.49	147.45
473.67	184.90
473.85	203.63
474.03	149.79
474.21	149.79
474.39	250.44
474.57	245.76
474.75	220.01
474.93	161.50
475.12	173.20
475.30	138.09
475.48	184.90
475.66	177.88
475.84	217.67
476.02	196.60
476.20	222.35
476.38	229.37
476.56	264.48
476.74	262.14
476.92	159.16
477.10	180.22
477.28	177.88
477.46	210.65
477.64	177.88
477.82	184.90
478.00	222.35
478.18	280.86
478.36	145.11
478.54	196.60
478.72	175.54
478.90	217.67
479.08	212.99
479.26	238.73
479.44	264.48
479.62	102.98
479.80	266.82
479.98	210.65
480.16	142.77
480.34	266.82
480.52	142.77
480.70	196.60
480.88	227.03
481.06	201.29
481.24	273.84
481.41	215.33
481.59	234.05
481.77	187.24
481.95	154.48
482.13	273.84
482.31	205.97
482.49	334.70
482.67	308.95
482.85	184.90
483.03	276.18
483.21	194.26
483.39	208.31
483.57	243.42
483.74	229.37
483.92	252.78
484.10	187.24
484.28	259.80
484.46	262.14
484.64	191.92
484.82	276.18
485.00	252.78
485.18	196.60
485.35	194.26
485.53	215.33
485.71	304.27
485.89	163.84
486.07	241.08
486.25	273.84
486.43	290.23
486.61	276.18
486.78	234.05
486.96	248.10
487.14	264.48
487.32	217.67
487.50	194.26
487.68	234.05
487.85	175.54
488.03	318.31
488.21	304.27
488.39	245.76
488.57	205.97
488.75	250.44
488.92	484.49
489.10	229.37
489.28	290.23
489.46	152.13
489.64	269.16
489.81	257.46
489.99	259.80
490.17	217.67
490.35	269.16
490.53	208.31
490.70	285.55
490.88	273.84
491.06	208.31
491.24	313.63
491.41	306.61
491.59	241.08
491.77	294.91
491.95	224.69
492.13	248.10
492.30	285.55
492.48	269.16
492.66	255.12
492.84	161.50
493.01	203.63
493.19	208.31
493.37	276.18
493.54	255.12
493.72	229.37
493.90	208.31
494.08	241.08
494.25	250.44
494.43	290.23
494.61	287.89
494.79	269.16
494.96	234.05
495.14	290.23
495.32	243.42
495.49	297.25
495.67	269.16
495.85	224.69
496.02	278.52
496.20	341.72
496.38	330.02
496.55	297.25
496.73	264.48
496.91	238.73
497.09	264.48
497.26	241.08
497.44	311.29
497.62	201.29
497.79	241.08
497.97	276.18
498.14	330.02
498.32	299.59
498.50	320.65
498.67	224.69
498.85	248.10
499.03	250.44
499.20	262.14
499.38	234.05
499.56	285.55
499.73	320.65
499.91	182.56
500.08	224.69
500.26	234.05
500.44	191.92
500.61	278.52
500.79	271.50
500.97	280.86
501.14	330.02
501.32	238.73
501.49	273.84
501.67	177.88
501.84	215.33
502.02	224.69
502.20	292.57
502.37	222.35
502.55	175.54
502.72	220.01
502.90	210.65
503.07	180.22
503.25	266.82
503.43	194.26
503.60	194.26
503.78	222.35
503.95	276.18
504.13	294.91
504.30	238.73
504.48	257.46
504.65	271.50
504.83	337.04
505.01	210.65
505.18	245.76
505.36	212.99
505.53	262.14
505.71	238.73
505.88	299.59
506.06	299.59
506.23	262.14
506.41	236.39
506.58	229.37
506.76	243.42
506.93	205.97
507.11	259.80
507.28	250.44
507.46	266.82
507.63	280.86
507.81	252.78
507.98	255.12
508.16	299.59
508.33	276.18
508.50	280.86
508.68	299.59
508.85	222.35
509.03	110.01
509.20	269.16
509.38	222.35
509.55	315.97
509.73	266.82
509.90	299.59
510.08	262.14
510.25	273.84
510.42	227.03
510.60	297.25
510.77	234.05
510.95	287.89
511.12	308.95
511.30	248.10
511.47	369.80
511.64	313.63
511.82	222.35
511.99	227.03
512.17	264.48
512.34	278.52
512.51	278.52
512.69	245.76
512.86	280.86
513.04	224.69
513.21	278.52
513.38	217.67
513.56	220.01
513.73	290.23
513.90	262.14
514.08	264.48
514.25	290.23
514.43	266.82
514.60	238.73
514.77	269.16
514.95	276.18
515.12	201.29
515.29	294.91
515.47	262.14
515.64	259.80
515.81	198.95
515.99	304.27
516.16	276.18
516.33	325.33
516.51	222.35
516.68	196.60
516.85	149.79
517.03	191.92
517.20	250.44
517.37	276.18
517.54	308.95
517.72	276.18
517.89	264.48
518.06	262.14
518.24	266.82
518.41	351.08
518.58	276.18
518.75	220.01
518.93	250.44
519.10	311.29
519.27	236.39
519.45	318.31
519.62	271.50
519.79	311.29
519.96	294.91
520.14	234.05
520.31	238.73
520.48	259.80
520.65	259.80
520.83	285.55
521.00	301.93
521.17	278.52
521.34	278.52
521.52	285.55
521.69	266.82
521.86	283.20
522.03	290.23
522.20	297.25
522.38	299.59
522.55	287.89
522.72	330.02
522.89	311.29
523.07	278.52
523.24	252.78
523.41	278.52
523.58	330.02
523.75	229.37
523.92	257.46
524.10	278.52
524.27	245.76
524.44	271.50
524.61	236.39
524.78	280.86
524.96	224.69
525.13	245.76
525.30	341.72
525.47	299.59
525.64	222.35
525.81	224.69
525.98	283.20
526.16	276.18
526.33	217.67
526.50	189.58
526.67	283.20
526.84	266.82
527.01	196.60
527.18	255.12
527.36	250.44
527.53	243.42
527.70	259.80
527.87	304.27
528.04	372.15
528.21	234.05
528.38	248.10
528.55	322.99
528.72	306.61
528.89	297.25
529.07	292.57
529.24	227.03
529.41	257.46
529.58	273.84
529.75	266.82
529.92	245.76
530.09	205.97
530.26	215.33
530.43	266.82
530.60	273.84
530.77	250.44
530.94	388.53
531.11	278.52
531.28	234.05
531.46	292.57
531.63	297.25
531.80	362.78
531.97	264.48
532.14	318.31
532.31	306.61
532.48	369.80
532.65	435.34
532.82	395.55
532.99	397.89
533.16	283.20
533.33	360.44
533.50	266.82
533.67	351.08
533.84	411.93
534.01	379.17
534.18	416.62
534.35	437.68
534.52	367.46
534.69	369.80
534.86	341.72
535.03	327.68
535.20	294.91
535.37	299.59
535.54	327.68
535.71	250.44
535.88	388.53
536.05	341.72
536.22	341.72
536.38	285.55
536.55	358.10
536.72	299.59
536.89	285.55
537.06	273.84
537.23	374.49
537.40	304.27
537.57	215.33
537.74	222.35
537.91	322.99
538.08	318.31
538.25	358.10
538.42	304.27
538.59	337.04
538.75	360.44
538.92	304.27
539.09	358.10
539.26	358.10
539.43	610.88
539.60	1149.20
539.77	1804.55
539.94	1614.97
540.11	1228.78
540.28	894.08
540.44	667.05
540.61	566.41
540.78	477.47
540.95	458.74
541.12	631.94
541.29	585.13
541.46	627.26
541.62	573.43
541.79	514.92
541.96	510.24
542.13	510.24
542.30	486.83
542.47	496.19
542.63	578.11
542.80	559.39
542.97	573.43
543.14	552.37
543.31	568.75
543.48	554.71
543.64	540.66
543.81	493.85
543.98	484.49
544.15	477.47
544.32	482.15
544.48	566.41
544.65	472.79
544.82	526.62
544.99	456.40
545.16	489.17
545.32	517.26
545.49	772.38
545.66	971.32
545.83	994.73
546.00	971.32
546.16	802.80
546.33	641.31
546.50	528.96
546.67	566.41
546.83	433.00
547.00	465.77
547.17	369.80
547.34	437.68
547.50	442.36
547.67	423.64
547.84	386.19
548.00	402.57
548.17	383.85
548.34	369.80
548.51	362.78
548.67	390.87
548.84	341.72
549.01	388.53
549.18	393.21
549.34	379.17
549.51	355.76
549.68	430.66
549.84	379.17
550.01	327.68
550.18	390.87
550.34	372.15
550.51	355.76
550.68	402.57
550.84	348.74
551.01	294.91
551.18	381.51
551.34	301.93
551.51	245.76
551.68	330.02
551.84	339.38
552.01	287.89
552.18	308.95
552.34	372.15
552.51	290.23
552.68	318.31
552.84	285.55
553.01	341.72
553.18	341.72
553.34	341.72
553.51	301.93
553.67	292.57
553.84	348.74
554.01	351.08
554.17	278.52
554.34	297.25
554.51	266.82
554.67	292.57
554.84	194.26
555.00	325.33
555.17	299.59
555.33	311.29
555.50	290.23
555.67	311.29
555.83	276.18
556.00	320.65
556.16	425.98
556.33	346.40
556.50	318.31
556.66	330.02
556.83	386.19
556.99	308.95
557.16	344.06
557.32	299.59
557.49	252.78
557.65	266.82
557.82	278.52
557.98	297.25
558.15	189.58
558.32	294.91
558.48	212.99
558.65	285.55
558.81	273.84
558.98	285.55
559.14	269.16
559.31	278.52
559.47	271.50
559.64	201.29
559.80	339.38
559.97	208.31
560.13	238.73
560.30	320.65
560.46	262.14
560.63	262.14
560.79	315.97
560.96	299.59
561.12	273.84
561.29	306.61
561.45	339.38
561.61	294.91
561.78	339.38
561.94	264.48
562.11	290.23
562.27	201.29
562.44	287.89
562.60	252.78
562.77	257.46
562.93	297.25
563.10	278.52
563.26	229.37
563.42	271.50
563.59	308.95
563.75	210.65
563.92	175.54
564.08	245.76
564.24	294.91
564.41	287.89
564.57	304.27
564.74	215.33
564.90	224.69
565.07	283.20
565.23	276.18
565.39	330.02
565.56	330.02
565.72	290.23
565.88	311.29
566.05	339.38
566.21	241.08
566.38	276.18
566.54	278.52
566.70	264.48
566.87	215.33
567.03	220.01
567.19	290.23
567.36	290.23
567.52	262.14
567.68	299.59
567.85	311.29
568.01	280.86
568.17	262.14
568.34	264.48
568.50	294.91
568.66	243.42
568.83	327.68
568.99	259.80
569.15	369.80
569.32	311.29
569.48	304.27
569.64	252.78
569.81	273.84
569.97	231.71
570.13	301.93
570.30	355.76
570.46	266.82
570.62	241.08
570.78	212.99
570.95	248.10
571.11	304.27
571.27	346.40
571.43	196.60
571.60	262.14
571.76	315.97
571.92	208.31
572.09	294.91
572.25	283.20
572.41	294.91
572.57	252.78
572.74	318.31
572.90	327.68
573.06	297.25
573.22	248.10
573.38	276.18
573.55	273.84
573.71	346.40
573.87	252.78
574.03	245.76
574.20	292.57
574.36	285.55
574.52	367.46
574.68	428.32
574.84	360.44
575.01	280.86
575.17	311.29
575.33	198.95
575.49	257.46
575.65	292.57
575.82	318.31
575.98	601.52
576.14	758.33
576.30	774.72
576.46	786.42
576.62	617.90
576.79	568.75
576.95	503.22
577.11	393.21
577.27	285.55
577.43	369.80
577.59	285.55
577.75	313.63
577.92	327.68
578.08	278.52
578.24	339.38
578.40	379.17
578.56	440.02
578.72	547.69
578.88	531.30
579.04	388.53
579.21	423.64
579.37	241.08
579.53	322.99
579.69	407.25
579.85	395.55
580.01	451.72
580.17	372.15
580.33	526.62
580.49	496.19
580.65	369.80
580.82	404.91
580.98	381.51
581.14	468.11
581.30	367.46
581.46	533.64
581.62	664.71
581.78	727.91
581.94	683.44
582.10	613.22
582.26	559.39
582.42	596.84
582.58	472.79
582.74	465.77
582.90	524.28
583.06	500.87
583.22	484.49
583.38	634.29
583.54	667.05
583.70	599.18
583.86	765.36
584.02	992.39
584.18	999.41
584.34	1221.76
584.50	3080.14
584.66	22211.68
584.82	56460.74
584.98	65535.00
585.14	63945.78
585.30	51107.94
585.46	31222.75
585.62	19302.40
585.78	8877.65
585.94	3445.27
586.10	1774.13
586.26	1174.95
586.42	952.60
586.58	873.02
586.74	748.97
586.90	664.71
587.06	725.57
587.22	725.57
587.38	660.03
587.54	1177.29
587.70	3585.70
587.86	6038.58
588.02	6799.26
588.18	4840.23
588.34	3145.68
588.49	2031.58
588.65	1427.73
588.81	678.76
588.97	479.81
589.13	360.44
589.29	306.61
589.45	400.23
589.61	381.51
589.77	507.90
589.93	519.60
590.08	437.68
590.24	571.09
590.40	517.26
590.56	543.00
590.72	369.80
590.88	372.15
591.04	409.59
591.20	440.02
591.35	447.04
591.51	381.51
591.67	332.36
591.83	344.06
591.99	414.27
592.15	411.93
592.31	435.34
592.46	388.53
592.62	421.30
592.78	416.62
592.94	383.85
593.10	388.53
593.26	433.00
593.41	472.79
593.57	465.77
593.73	657.69
593.89	2829.71
594.05	7501.42
594.20	11534.16
594.36	11009.88
594.52	7293.11
594.68	4550.00
594.84	3117.59
594.99	1774.13
595.15	875.36
595.31	533.64
595.47	489.17
595.62	379.17
595.78	414.27
595.94	301.93
596.10	435.34
596.25	416.62
596.41	519.60
596.57	351.08
596.73	374.49
596.88	596.84
597.04	1486.24
597.20	2450.54
597.36	2925.67
597.51	2204.78
597.67	1453.47
597.83	1071.97
597.99	819.19
598.14	531.30
598.30	447.04
598.46	402.57
598.61	362.78
598.77	440.02
598.93	458.74
599.09	341.72
599.24	386.19
599.40	447.04
599.56	304.27
599.71	322.99
599.87	308.95
600.03	346.40
600.18	292.57
600.34	248.10
600.50	257.46
600.65	255.12
600.81	271.50
600.97	367.46
601.12	322.99
601.28	337.04
601.44	313.63
601.59	386.19
601.75	301.93
601.91	264.48
602.06	322.99
602.22	435.34
602.37	748.97
602.53	1827.96
602.69	2803.96
602.84	2958.44
603.00	2176.70
603.16	1612.63
603.31	1210.06
603.47	770.04
603.62	524.28
603.78	351.08
603.94	337.04
604.09	400.23
604.25	383.85
604.40	341.72
604.56	287.89
604.71	294.91
604.87	304.27
605.03	360.44
605.18	327.68
605.34	313.63
605.49	386.19
605.65	470.45
605.80	278.52
605.96	402.57
606.12	266.82
606.27	465.77
606.43	456.40
606.58	421.30
606.74	896.43
606.89	3412.50
607.05	7267.36
607.20	9848.97
607.36	8093.57
607.51	5654.73
607.67	3501.44
607.82	2569.91
607.98	1483.90
608.13	755.99
608.29	554.71
608.44	575.77
608.60	470.45
608.75	589.82
608.91	1254.53
609.06	5235.78
609.22	12407.18
609.37	17235.70
609.53	15110.50
609.68	10370.91
609.84	6663.51
609.99	4585.11
610.15	2593.31
