SpectraSuite Data File
++++++++++++++++++++++++++++++++++++
Date: Fri Oct 04 11:34:03 GMT-05:00 2013
User: price-jones
Dark Spectrum Present: No
Reference Spectrum Present: No
Number of Sampled Component Spectra: 1
Spectrometers: USB2+H05261
Integration Time (usec): 100000 (USB2+H05261)
Spectra Averaged: 1 (USB2+H05261)
Boxcar Smoothing: 0 (USB2+H05261)
Correct for Electrical Dark: No (USB2+H05261)
Strobe/Lamp Enabled: No (USB2+H05261)
Correct for Detector Non-linearity: No (USB2+H05261)
Correct for Stray Light: No (USB2+H05261)
Number of Pixels in Processed Spectrum: 2048
>>>>>Begin Processed Spectral Data<<<<<
365.73	18.72
365.92	18.72
366.12	18.72
366.32	0.00
366.52	21.06
366.72	58.51
366.91	0.00
367.11	0.00
367.31	0.00
367.51	0.00
367.70	0.00
367.90	0.00
368.10	0.00
368.30	0.00
368.49	0.00
368.69	23.41
368.89	0.00
369.09	0.00
369.28	21.06
369.48	21.06
369.68	0.00
369.87	0.00
370.07	7.02
370.27	60.85
370.47	11.70
370.66	11.70
370.86	49.15
371.06	65.54
371.25	102.98
371.45	110.01
371.65	133.41
371.84	110.01
372.04	21.06
372.24	98.30
372.44	124.05
372.63	140.43
372.83	170.86
373.03	102.98
373.22	140.43
373.42	91.28
373.62	198.95
373.81	159.16
374.01	187.24
374.21	231.71
374.40	156.82
374.60	205.97
374.79	229.37
374.99	124.05
375.19	184.90
375.38	121.71
375.58	201.29
375.78	229.37
375.97	107.66
376.17	196.60
376.37	154.48
376.56	152.13
376.76	163.84
376.95	163.84
377.15	163.84
377.35	210.65
377.54	117.03
377.74	65.54
377.93	177.88
378.13	203.63
378.33	131.07
378.52	166.18
378.72	220.01
378.91	138.09
379.11	140.43
379.31	107.66
379.50	77.24
379.70	166.18
379.89	74.90
380.09	86.60
380.28	156.82
380.48	102.98
380.68	98.30
380.87	72.56
381.07	124.05
381.26	142.77
381.46	117.03
381.65	168.52
381.85	182.56
382.04	133.41
382.24	152.13
382.43	138.09
382.63	194.26
382.83	191.92
383.02	86.60
383.22	182.56
383.41	124.05
383.61	121.71
383.80	74.90
384.00	100.64
384.19	159.16
384.39	215.33
384.58	63.19
384.78	184.90
384.97	100.64
385.17	159.16
385.36	126.39
385.56	159.16
385.75	168.52
385.95	77.24
386.14	210.65
386.34	142.77
386.53	107.66
386.72	110.01
386.92	135.75
387.11	79.58
387.31	121.71
387.50	91.28
387.70	145.11
387.89	173.20
388.09	147.45
388.28	187.24
388.48	107.66
388.67	194.26
388.86	189.58
389.06	243.42
389.25	161.50
389.45	161.50
389.64	105.32
389.84	145.11
390.03	163.84
390.22	177.88
390.42	84.26
390.61	152.13
390.81	95.96
391.00	135.75
391.19	133.41
391.39	145.11
391.58	147.45
391.78	168.52
391.97	121.71
392.16	84.26
392.36	168.52
392.55	175.54
392.75	124.05
392.94	84.26
393.13	131.07
393.33	175.54
393.52	63.19
393.71	191.92
393.91	91.28
394.10	102.98
394.29	180.22
394.49	208.31
394.68	194.26
394.88	166.18
395.07	163.84
395.26	105.32
395.46	198.95
395.65	175.54
395.84	98.30
396.04	222.35
396.23	184.90
396.42	147.45
396.62	180.22
396.81	196.60
397.00	168.52
397.19	124.05
397.39	182.56
397.58	241.08
397.77	175.54
397.97	145.11
398.16	135.75
398.35	149.79
398.55	128.73
398.74	159.16
398.93	159.16
399.12	145.11
399.32	145.11
399.51	112.35
399.70	126.39
399.90	166.18
400.09	93.62
400.28	187.24
400.47	119.37
400.67	182.56
400.86	135.75
401.05	159.16
401.24	163.84
401.44	168.52
401.63	184.90
401.82	168.52
402.01	131.07
402.21	86.60
402.40	79.58
402.59	114.69
402.78	184.90
402.97	154.48
403.17	163.84
403.36	191.92
403.55	163.84
403.74	182.56
403.93	243.42
404.13	266.82
404.32	238.73
404.51	220.01
404.70	201.29
404.89	147.45
405.09	159.16
405.28	187.24
405.47	177.88
405.66	234.05
405.85	159.16
406.05	177.88
406.24	102.98
406.43	149.79
406.62	128.73
406.81	112.35
407.00	184.90
407.20	128.73
407.39	72.56
407.58	138.09
407.77	131.07
407.96	159.16
408.15	138.09
408.34	159.16
408.54	128.73
408.73	79.58
408.92	142.77
409.11	119.37
409.30	81.92
409.49	95.96
409.68	156.82
409.87	191.92
410.07	142.77
410.26	170.86
410.45	168.52
410.64	180.22
410.83	121.71
411.02	100.64
411.21	166.18
411.40	191.92
411.59	121.71
411.78	140.43
411.98	110.01
412.17	114.69
412.36	168.52
412.55	138.09
412.74	187.24
412.93	156.82
413.12	98.30
413.31	140.43
413.50	180.22
413.69	182.56
413.88	184.90
414.07	189.58
414.26	166.18
414.45	168.52
414.64	198.95
414.83	131.07
415.02	168.52
415.22	95.96
415.41	166.18
415.60	248.10
415.79	208.31
415.98	184.90
416.17	215.33
416.36	117.03
416.55	166.18
416.74	161.50
416.93	212.99
417.12	210.65
417.31	222.35
417.50	163.84
417.69	189.58
417.88	231.71
418.07	156.82
418.26	196.60
418.45	177.88
418.64	248.10
418.83	180.22
419.02	287.89
419.21	159.16
419.39	217.67
419.58	142.77
419.77	208.31
419.96	231.71
420.15	184.90
420.34	231.71
420.53	257.46
420.72	166.18
420.91	227.03
421.10	182.56
421.29	142.77
421.48	252.78
421.67	236.39
421.86	175.54
422.05	95.96
422.24	110.01
422.43	187.24
422.61	168.52
422.80	182.56
422.99	161.50
423.18	135.75
423.37	222.35
423.56	163.84
423.75	156.82
423.94	117.03
424.13	142.77
424.32	159.16
424.50	168.52
424.69	189.58
424.88	208.31
425.07	175.54
425.26	168.52
425.45	166.18
425.64	301.93
425.83	243.42
426.01	231.71
426.20	205.97
426.39	210.65
426.58	191.92
426.77	269.16
426.96	290.23
427.15	163.84
427.33	135.75
427.52	88.94
427.71	131.07
427.90	203.63
428.09	170.86
428.28	208.31
428.46	124.05
428.65	135.75
428.84	208.31
429.03	180.22
429.22	100.64
429.40	86.60
429.59	105.32
429.78	278.52
429.97	177.88
430.16	117.03
430.34	98.30
430.53	154.48
430.72	227.03
430.91	161.50
431.10	173.20
431.28	154.48
431.47	152.13
431.66	170.86
431.85	154.48
432.03	154.48
432.22	220.01
432.41	189.58
432.60	203.63
432.79	299.59
432.97	290.23
433.16	337.04
433.35	224.69
433.54	194.26
433.72	184.90
433.91	255.12
434.10	245.76
434.28	182.56
434.47	161.50
434.66	182.56
434.85	231.71
435.03	234.05
435.22	285.55
435.41	482.15
435.59	491.51
435.78	404.91
435.97	259.80
436.16	177.88
436.34	196.60
436.53	203.63
436.72	222.35
436.90	198.95
437.09	227.03
437.28	154.48
437.46	175.54
437.65	180.22
437.84	243.42
438.02	184.90
438.21	163.84
438.40	98.30
438.58	177.88
438.77	189.58
438.96	217.67
439.14	119.37
439.33	220.01
439.52	149.79
439.70	159.16
439.89	196.60
440.08	191.92
440.26	175.54
440.45	147.45
440.63	201.29
440.82	163.84
441.01	180.22
441.19	210.65
441.38	159.16
441.57	163.84
441.75	217.67
441.94	227.03
442.12	294.91
442.31	156.82
442.50	163.84
442.68	154.48
442.87	168.52
443.05	173.20
443.24	159.16
443.43	299.59
443.61	205.97
443.80	124.05
443.98	212.99
444.17	177.88
444.35	212.99
444.54	166.18
444.73	147.45
444.91	163.84
445.10	166.18
445.28	149.79
445.47	210.65
445.65	128.73
445.84	191.92
446.02	159.16
446.21	126.39
446.39	189.58
446.58	210.65
446.77	168.52
446.95	248.10
447.14	93.62
447.32	161.50
447.51	175.54
447.69	175.54
447.88	271.50
448.06	201.29
448.25	212.99
448.43	184.90
448.62	184.90
448.80	145.11
448.99	259.80
449.17	163.84
449.36	231.71
449.54	194.26
449.73	102.98
449.91	215.33
450.10	140.43
450.28	196.60
450.46	177.88
450.65	201.29
450.83	187.24
451.02	156.82
451.20	168.52
451.39	201.29
451.57	262.14
451.76	163.84
451.94	114.69
452.13	175.54
452.31	215.33
452.49	203.63
452.68	220.01
452.86	189.58
453.05	194.26
453.23	149.79
453.42	159.16
453.60	110.01
453.78	184.90
453.97	182.56
454.15	161.50
454.34	145.11
454.52	212.99
454.70	276.18
454.89	180.22
455.07	215.33
455.26	198.95
455.44	224.69
455.62	191.92
455.81	184.90
455.99	222.35
456.17	147.45
456.36	201.29
456.54	112.35
456.73	191.92
456.91	220.01
457.09	212.99
457.28	271.50
457.46	283.20
457.64	166.18
457.83	220.01
458.01	196.60
458.19	205.97
458.38	212.99
458.56	177.88
458.74	194.26
458.93	238.73
459.11	191.92
459.29	205.97
459.48	273.84
459.66	252.78
459.84	210.65
460.03	278.52
460.21	220.01
460.39	241.08
460.57	135.75
460.76	238.73
460.94	168.52
461.12	304.27
461.31	257.46
461.49	238.73
461.67	154.48
461.85	180.22
462.04	149.79
462.22	638.97
462.40	133.41
462.59	266.82
462.77	161.50
462.95	208.31
463.13	168.52
463.32	201.29
463.50	168.52
463.68	198.95
463.86	224.69
464.05	189.58
464.23	257.46
464.41	191.92
464.59	245.76
464.78	203.63
464.96	175.54
465.14	191.92
465.32	191.92
465.50	229.37
465.69	241.08
465.87	203.63
466.05	201.29
466.23	138.09
466.41	119.37
466.60	159.16
466.78	215.33
466.96	205.97
467.14	170.86
467.32	231.71
467.51	170.86
467.69	128.73
467.87	215.33
468.05	154.48
468.23	280.86
468.41	248.10
468.60	126.39
468.78	154.48
468.96	196.60
469.14	220.01
469.32	177.88
469.50	159.16
469.69	241.08
469.87	173.20
470.05	159.16
470.23	227.03
470.41	149.79
470.59	133.41
470.77	208.31
470.95	156.82
471.14	170.86
471.32	210.65
471.50	283.20
471.68	217.67
471.86	177.88
472.04	220.01
472.22	191.92
472.40	196.60
472.58	222.35
472.77	168.52
472.95	201.29
473.13	234.05
473.31	231.71
473.49	138.09
473.67	154.48
473.85	173.20
474.03	231.71
474.21	173.20
474.39	248.10
474.57	210.65
474.75	229.37
474.93	189.58
475.12	107.66
475.30	220.01
475.48	236.39
475.66	196.60
475.84	184.90
476.02	264.48
476.20	264.48
476.38	182.56
476.56	222.35
476.74	201.29
476.92	133.41
477.10	191.92
477.28	205.97
477.46	189.58
477.64	220.01
477.82	201.29
478.00	126.39
478.18	252.78
478.36	198.95
478.54	210.65
478.72	175.54
478.90	266.82
479.08	114.69
479.26	182.56
479.44	177.88
479.62	201.29
479.80	198.95
479.98	276.18
480.16	212.99
480.34	191.92
480.52	163.84
480.70	184.90
480.88	227.03
481.06	220.01
481.24	208.31
481.41	222.35
481.59	208.31
481.77	196.60
481.95	191.92
482.13	243.42
482.31	187.24
482.49	210.65
482.67	229.37
482.85	266.82
483.03	245.76
483.21	257.46
483.39	210.65
483.57	187.24
483.74	238.73
483.92	271.50
484.10	126.39
484.28	290.23
484.46	203.63
484.64	271.50
484.82	241.08
485.00	266.82
485.18	210.65
485.35	278.52
485.53	217.67
485.71	276.18
485.89	170.86
486.07	290.23
486.25	252.78
486.43	334.70
486.61	250.44
486.78	283.20
486.96	217.67
487.14	283.20
487.32	208.31
487.50	266.82
487.68	189.58
487.85	262.14
488.03	257.46
488.21	301.93
488.39	231.71
488.57	280.86
488.75	231.71
488.92	521.94
489.10	280.86
489.28	259.80
489.46	177.88
489.64	287.89
489.81	252.78
489.99	250.44
490.17	220.01
490.35	292.57
490.53	166.18
490.70	184.90
490.88	294.91
491.06	229.37
491.24	262.14
491.41	278.52
491.59	229.37
491.77	212.99
491.95	175.54
492.13	222.35
492.30	227.03
492.48	231.71
492.66	290.23
492.84	245.76
493.01	278.52
493.19	250.44
493.37	245.76
493.54	271.50
493.72	297.25
493.90	236.39
494.08	224.69
494.25	292.57
494.43	212.99
494.61	304.27
494.79	353.42
494.96	238.73
495.14	259.80
495.32	208.31
495.49	348.74
495.67	262.14
495.85	255.12
496.02	269.16
496.20	287.89
496.38	243.42
496.55	208.31
496.73	231.71
496.91	245.76
497.09	322.99
497.26	280.86
497.44	269.16
497.62	220.01
497.79	266.82
497.97	229.37
498.14	292.57
498.32	187.24
498.50	212.99
498.67	180.22
498.85	250.44
499.03	348.74
499.20	269.16
499.38	318.31
499.56	264.48
499.73	313.63
499.91	234.05
500.08	278.52
500.26	259.80
500.44	220.01
500.61	266.82
500.79	220.01
500.97	255.12
501.14	231.71
501.32	290.23
501.49	264.48
501.67	259.80
501.84	269.16
502.02	229.37
502.20	332.36
502.37	257.46
502.55	245.76
502.72	344.06
502.90	234.05
503.07	135.75
503.25	241.08
503.43	262.14
503.60	278.52
503.78	397.89
503.95	248.10
504.13	198.95
504.30	248.10
504.48	257.46
504.65	280.86
504.83	271.50
505.01	252.78
505.18	224.69
505.36	210.65
505.53	276.18
505.71	182.56
505.88	280.86
506.06	196.60
506.23	276.18
506.41	280.86
506.58	320.65
506.76	234.05
506.93	212.99
507.11	262.14
507.28	271.50
507.46	301.93
507.63	285.55
507.81	306.61
507.98	259.80
508.16	238.73
508.33	278.52
508.50	262.14
508.68	292.57
508.85	278.52
509.03	283.20
509.20	220.01
509.38	259.80
509.55	238.73
509.73	271.50
509.90	276.18
510.08	159.16
510.25	273.84
510.42	308.95
510.60	220.01
510.77	266.82
510.95	285.55
511.12	297.25
511.30	358.10
511.47	273.84
511.64	334.70
511.82	280.86
511.99	250.44
512.17	264.48
512.34	203.63
512.51	201.29
512.69	208.31
512.86	285.55
513.04	243.42
513.21	238.73
513.38	259.80
513.56	245.76
513.73	280.86
513.90	208.31
514.08	198.95
514.25	292.57
514.43	278.52
514.60	311.29
514.77	220.01
514.95	287.89
515.12	262.14
515.29	248.10
515.47	290.23
515.64	215.33
515.81	196.60
515.99	271.50
516.16	285.55
516.33	287.89
516.51	304.27
516.68	245.76
516.85	250.44
517.03	229.37
517.20	259.80
517.37	311.29
517.54	287.89
517.72	252.78
517.89	212.99
518.06	313.63
518.24	299.59
518.41	341.72
518.58	297.25
518.75	252.78
518.93	287.89
519.10	262.14
519.27	271.50
519.45	227.03
519.62	358.10
519.79	259.80
519.96	250.44
520.14	322.99
520.31	205.97
520.48	318.31
520.65	273.84
520.83	290.23
521.00	299.59
521.17	285.55
521.34	229.37
521.52	266.82
521.69	285.55
521.86	245.76
522.03	290.23
522.20	294.91
522.38	241.08
522.55	276.18
522.72	290.23
522.89	262.14
523.07	285.55
523.24	287.89
523.41	252.78
523.58	257.46
523.75	222.35
523.92	224.69
524.10	266.82
524.27	252.78
524.44	198.95
524.61	306.61
524.78	262.14
524.96	297.25
525.13	285.55
525.30	229.37
525.47	238.73
525.64	255.12
525.81	285.55
525.98	266.82
526.16	259.80
526.33	287.89
526.50	217.67
526.67	304.27
526.84	184.90
527.01	276.18
527.18	257.46
527.36	208.31
527.53	292.57
527.70	311.29
527.87	217.67
528.04	266.82
528.21	203.63
528.38	266.82
528.55	322.99
528.72	304.27
528.89	330.02
529.07	196.60
529.24	245.76
529.41	311.29
529.58	283.20
529.75	278.52
529.92	264.48
530.09	243.42
530.26	273.84
530.43	318.31
530.60	227.03
530.77	252.78
530.94	297.25
531.11	252.78
531.28	294.91
531.46	339.38
531.63	238.73
531.80	355.76
531.97	330.02
532.14	299.59
532.31	320.65
532.48	318.31
532.65	421.30
532.82	381.51
532.99	433.00
533.16	344.06
533.33	308.95
533.50	266.82
533.67	355.76
533.84	526.62
534.01	435.34
534.18	344.06
534.35	257.46
534.52	320.65
534.69	411.93
534.86	156.82
535.03	262.14
535.20	360.44
535.37	355.76
535.54	238.73
535.71	283.20
535.88	311.29
536.05	269.16
536.22	294.91
536.38	322.99
536.55	262.14
536.72	355.76
536.89	222.35
537.06	341.72
537.23	276.18
537.40	234.05
537.57	322.99
537.74	322.99
537.91	306.61
538.08	313.63
538.25	308.95
538.42	306.61
538.59	372.15
538.75	390.87
538.92	322.99
539.09	351.08
539.26	325.33
539.43	634.29
539.60	1048.56
539.77	1523.69
539.94	1607.95
540.11	1179.63
540.28	786.42
540.44	685.78
540.61	451.72
540.78	498.53
540.95	491.51
541.12	535.98
541.29	596.84
541.46	648.33
541.62	613.22
541.79	543.00
541.96	491.51
542.13	564.07
542.30	585.13
542.47	526.62
542.63	482.15
542.80	507.90
542.97	472.79
543.14	580.45
543.31	510.24
543.48	479.81
543.64	503.22
543.81	461.09
543.98	491.51
544.15	463.43
544.32	454.06
544.48	500.87
544.65	543.00
544.82	444.70
544.99	407.25
545.16	653.01
545.32	561.73
545.49	744.29
545.66	950.26
545.83	1111.75
546.00	1060.26
546.16	793.44
546.33	671.73
546.50	547.69
546.67	503.22
546.83	496.19
547.00	444.70
547.17	383.85
547.34	327.68
547.50	435.34
547.67	418.96
547.84	379.17
548.00	472.79
548.17	411.93
548.34	435.34
548.51	407.25
548.67	381.51
548.84	379.17
549.01	374.49
549.18	444.70
549.34	381.51
549.51	353.42
549.68	397.89
549.84	425.98
550.01	344.06
550.18	400.23
550.34	395.55
550.51	386.19
550.68	393.21
550.84	315.97
551.01	339.38
551.18	358.10
551.34	369.80
551.51	358.10
551.68	330.02
551.84	327.68
552.01	259.80
552.18	304.27
552.34	327.68
552.51	294.91
552.68	351.08
552.84	360.44
553.01	259.80
553.18	327.68
553.34	346.40
553.51	306.61
553.67	297.25
553.84	346.40
554.01	287.89
554.17	308.95
554.34	264.48
554.51	245.76
554.67	280.86
554.84	290.23
555.00	341.72
555.17	294.91
555.33	294.91
555.50	278.52
555.67	287.89
555.83	266.82
556.00	227.03
556.16	348.74
556.33	290.23
556.50	234.05
556.66	308.95
556.83	269.16
556.99	273.84
557.16	278.52
557.32	313.63
557.49	339.38
557.65	194.26
557.82	299.59
557.98	264.48
558.15	248.10
558.32	280.86
558.48	257.46
558.65	210.65
558.81	290.23
558.98	325.33
559.14	273.84
559.31	294.91
559.47	250.44
559.64	308.95
559.80	369.80
559.97	243.42
560.13	203.63
560.30	224.69
560.46	262.14
560.63	278.52
560.79	313.63
560.96	306.61
561.12	283.20
561.29	297.25
561.45	212.99
561.61	269.16
561.78	433.00
561.94	229.37
562.11	250.44
562.27	262.14
562.44	283.20
562.60	243.42
562.77	243.42
562.93	269.16
563.10	266.82
563.26	278.52
563.42	250.44
563.59	297.25
563.75	243.42
563.92	238.73
564.08	318.31
564.24	273.84
564.41	358.10
564.57	245.76
564.74	208.31
564.90	278.52
565.07	257.46
565.23	360.44
565.39	283.20
565.56	278.52
565.72	250.44
565.88	264.48
566.05	257.46
566.21	301.93
566.38	276.18
566.54	308.95
566.70	266.82
566.87	280.86
567.03	224.69
567.19	259.80
567.36	315.97
567.52	322.99
567.68	297.25
567.85	220.01
568.01	210.65
568.17	231.71
568.34	231.71
568.50	159.16
568.66	208.31
568.83	327.68
568.99	236.39
569.15	332.36
569.32	301.93
569.48	299.59
569.64	325.33
569.81	308.95
569.97	259.80
570.13	290.23
570.30	208.31
570.46	201.29
570.62	231.71
570.78	257.46
570.95	241.08
571.11	294.91
571.27	290.23
571.43	325.33
571.60	271.50
571.76	259.80
571.92	306.61
572.09	313.63
572.25	241.08
572.41	285.55
572.57	325.33
572.74	292.57
572.90	360.44
573.06	299.59
573.22	210.65
573.38	374.49
573.55	241.08
573.71	285.55
573.87	236.39
574.03	250.44
574.20	332.36
574.36	369.80
574.52	325.33
574.68	320.65
574.84	337.04
575.01	301.93
575.17	259.80
575.33	262.14
575.49	318.31
575.65	369.80
575.82	339.38
575.98	603.86
576.14	751.31
576.30	690.46
576.46	641.31
576.62	603.86
576.79	507.90
576.95	463.43
577.11	358.10
577.27	407.25
577.43	344.06
577.59	332.36
577.75	362.78
577.92	294.91
578.08	315.97
578.24	283.20
578.40	313.63
578.56	430.66
578.72	468.11
578.88	461.09
579.04	393.21
579.21	421.30
579.37	416.62
579.53	341.72
579.69	386.19
579.85	407.25
580.01	468.11
580.17	461.09
580.33	510.24
580.49	395.55
580.65	433.00
580.82	451.72
580.98	425.98
581.14	400.23
581.30	524.28
581.46	451.72
581.62	603.86
581.78	678.76
581.94	657.69
582.10	484.49
582.26	489.17
582.42	493.85
582.58	538.32
582.74	493.85
582.90	418.96
583.06	519.60
583.22	475.13
583.38	566.41
583.54	533.64
583.70	657.69
583.86	706.84
584.02	784.08
584.18	1015.79
584.34	1130.48
584.50	2855.45
584.66	21502.50
584.82	53399.32
584.98	62787.21
585.14	60027.72
585.30	43945.90
585.46	26529.97
585.62	16744.19
585.78	7597.38
585.94	3056.74
586.10	1547.09
586.26	1001.75
586.42	851.96
586.58	746.63
586.74	746.63
586.90	692.80
587.06	678.76
587.22	683.44
587.38	627.26
587.54	1142.18
587.70	3382.07
587.86	5371.53
588.02	5968.37
588.18	4266.80
588.34	2778.22
588.49	1764.76
588.65	1167.93
588.81	636.63
588.97	514.92
589.13	379.17
589.29	327.68
589.45	449.38
589.61	393.21
589.77	535.98
589.93	521.94
590.08	547.69
590.24	540.66
590.40	491.51
590.56	442.36
590.72	423.64
590.88	367.46
591.04	360.44
591.20	416.62
591.35	372.15
591.51	411.93
591.67	433.00
591.83	360.44
591.99	334.70
592.15	327.68
592.31	383.85
592.46	411.93
592.62	369.80
592.78	351.08
592.94	395.55
593.10	386.19
593.26	365.12
593.41	423.64
593.57	456.40
593.73	678.76
593.89	2794.60
594.05	6977.14
594.20	10015.15
594.36	9509.60
594.52	6373.28
594.68	4093.60
594.84	2626.08
594.99	1519.01
595.15	800.46
595.31	540.66
595.47	475.13
595.62	330.02
595.78	365.12
595.94	346.40
596.10	477.47
596.25	423.64
596.41	418.96
596.57	318.31
596.73	351.08
596.88	624.92
597.04	1357.51
597.20	2157.97
597.36	2504.37
597.51	2017.54
597.67	1378.58
597.83	945.58
597.99	791.10
598.14	468.11
598.30	393.21
598.46	395.55
598.61	428.32
598.77	351.08
598.93	290.23
599.09	376.83
599.24	304.27
599.40	280.86
599.56	372.15
599.71	397.89
599.87	322.99
600.03	301.93
600.18	325.33
600.34	348.74
600.50	292.57
600.65	297.25
600.81	346.40
600.97	322.99
601.12	276.18
601.28	322.99
601.44	266.82
601.59	313.63
601.75	360.44
601.91	255.12
602.06	407.25
602.22	423.64
602.37	798.12
602.53	1598.59
602.69	2487.99
602.84	2579.27
603.00	1921.58
603.16	1373.89
603.31	1046.22
603.47	669.39
603.62	442.36
603.78	358.10
603.94	360.44
604.09	341.72
604.25	351.08
604.40	334.70
604.56	348.74
604.71	287.89
604.87	259.80
605.03	337.04
605.18	369.80
605.34	404.91
605.49	383.85
605.65	276.18
605.80	294.91
605.96	341.72
606.12	365.12
606.27	383.85
606.43	365.12
606.58	386.19
606.74	957.28
606.89	3164.40
607.05	6616.69
607.20	8505.51
607.36	6986.50
607.51	4826.18
607.67	3368.03
607.82	2225.85
607.98	1245.16
608.13	690.46
608.29	489.17
608.44	449.38
608.60	461.09
608.75	582.79
608.91	1210.06
609.06	4980.66
609.22	11082.44
609.37	14614.30
609.53	12917.42
609.68	8856.59
609.84	5837.30
609.99	3885.29
610.15	2218.83
