SpectraSuite Data File
++++++++++++++++++++++++++++++++++++
Date: Fri Oct 04 11:34:10 GMT-05:00 2013
User: price-jones
Dark Spectrum Present: No
Reference Spectrum Present: No
Number of Sampled Component Spectra: 1
Spectrometers: USB2+H05261
Integration Time (usec): 100000 (USB2+H05261)
Spectra Averaged: 1 (USB2+H05261)
Boxcar Smoothing: 0 (USB2+H05261)
Correct for Electrical Dark: No (USB2+H05261)
Strobe/Lamp Enabled: No (USB2+H05261)
Correct for Detector Non-linearity: No (USB2+H05261)
Correct for Stray Light: No (USB2+H05261)
Number of Pixels in Processed Spectrum: 2048
>>>>>Begin Processed Spectral Data<<<<<
365.73	128.73
365.92	128.73
366.12	128.73
366.32	0.00
366.52	0.00
366.72	23.41
366.91	0.00
367.11	11.70
367.31	4.68
367.51	28.09
367.70	0.00
367.90	0.00
368.10	7.02
368.30	0.00
368.49	0.00
368.69	9.36
368.89	0.00
369.09	7.02
369.28	0.00
369.48	0.00
369.68	0.00
369.87	70.22
370.07	0.00
370.27	9.36
370.47	35.11
370.66	32.77
370.86	49.15
371.06	173.20
371.25	131.07
371.45	117.03
371.65	117.03
371.84	126.39
372.04	194.26
372.24	135.75
372.44	142.77
372.63	152.13
372.83	110.01
373.03	114.69
373.22	88.94
373.42	180.22
373.62	196.60
373.81	142.77
374.01	229.37
374.21	196.60
374.40	163.84
374.60	182.56
374.79	131.07
374.99	142.77
375.19	168.52
375.38	168.52
375.58	147.45
375.78	119.37
375.97	166.18
376.17	163.84
376.37	95.96
376.56	140.43
376.76	159.16
376.95	203.63
377.15	145.11
377.35	138.09
377.54	119.37
377.74	133.41
377.93	42.13
378.13	180.22
378.33	159.16
378.52	126.39
378.72	180.22
378.91	231.71
379.11	156.82
379.31	140.43
379.50	84.26
379.70	124.05
379.89	102.98
380.09	194.26
380.28	119.37
380.48	191.92
380.68	77.24
380.87	119.37
381.07	117.03
381.26	98.30
381.46	227.03
381.65	70.22
381.85	135.75
382.04	191.92
382.24	196.60
382.43	140.43
382.63	126.39
382.83	238.73
383.02	105.32
383.22	121.71
383.41	93.62
383.61	168.52
383.80	28.09
384.00	117.03
384.19	138.09
384.39	177.88
384.58	110.01
384.78	138.09
384.97	152.13
385.17	140.43
385.36	124.05
385.56	145.11
385.75	142.77
385.95	126.39
386.14	131.07
386.34	142.77
386.53	93.62
386.72	84.26
386.92	163.84
387.11	105.32
387.31	180.22
387.50	184.90
387.70	49.15
387.89	142.77
388.09	105.32
388.28	32.77
388.48	100.64
388.67	147.45
388.86	93.62
389.06	110.01
389.25	168.52
389.45	187.24
389.64	135.75
389.84	184.90
390.03	138.09
390.22	227.03
390.42	152.13
390.61	187.24
390.81	147.45
391.00	74.90
391.19	205.97
391.39	149.79
391.58	180.22
391.78	154.48
391.97	126.39
392.16	126.39
392.36	156.82
392.55	168.52
392.75	138.09
392.94	194.26
393.13	154.48
393.33	117.03
393.52	105.32
393.71	191.92
393.91	173.20
394.10	86.60
394.29	184.90
394.49	189.58
394.68	222.35
394.88	147.45
395.07	142.77
395.26	163.84
395.46	100.64
395.65	180.22
395.84	166.18
396.04	191.92
396.23	110.01
396.42	114.69
396.62	70.22
396.81	128.73
397.00	212.99
397.19	170.86
397.39	100.64
397.58	191.92
397.77	166.18
397.97	119.37
398.16	175.54
398.35	135.75
398.55	159.16
398.74	166.18
398.93	147.45
399.12	163.84
399.32	128.73
399.51	140.43
399.70	238.73
399.90	196.60
400.09	182.56
400.28	72.56
400.47	184.90
400.67	121.71
400.86	91.28
401.05	145.11
401.24	222.35
401.44	166.18
401.63	142.77
401.82	212.99
402.01	102.98
402.21	168.52
402.40	102.98
402.59	145.11
402.78	110.01
402.97	159.16
403.17	154.48
403.36	187.24
403.55	170.86
403.74	163.84
403.93	227.03
404.13	243.42
404.32	184.90
404.51	212.99
404.70	152.13
404.89	163.84
405.09	215.33
405.28	114.69
405.47	180.22
405.66	229.37
405.85	138.09
406.05	147.45
406.24	114.69
406.43	180.22
406.62	159.16
406.81	168.52
407.00	182.56
407.20	131.07
407.39	133.41
407.58	201.29
407.77	84.26
407.96	212.99
408.15	191.92
408.34	177.88
408.54	210.65
408.73	215.33
408.92	72.56
409.11	198.95
409.30	133.41
409.49	131.07
409.68	110.01
409.87	147.45
410.07	180.22
410.26	126.39
410.45	152.13
410.64	182.56
410.83	149.79
411.02	166.18
411.21	180.22
411.40	170.86
411.59	121.71
411.78	142.77
411.98	117.03
412.17	149.79
412.36	187.24
412.55	182.56
412.74	161.50
412.93	243.42
413.12	98.30
413.31	170.86
413.50	126.39
413.69	168.52
413.88	175.54
414.07	149.79
414.26	210.65
414.45	105.32
414.64	191.92
414.83	215.33
415.02	191.92
415.22	238.73
415.41	257.46
415.60	198.95
415.79	177.88
415.98	196.60
416.17	110.01
416.36	102.98
416.55	112.35
416.74	152.13
416.93	166.18
417.12	154.48
417.31	140.43
417.50	170.86
417.69	252.78
417.88	217.67
418.07	175.54
418.26	212.99
418.45	224.69
418.64	330.02
418.83	250.44
419.02	243.42
419.21	191.92
419.39	276.18
419.58	191.92
419.77	229.37
419.96	145.11
420.15	273.84
420.34	154.48
420.53	217.67
420.72	208.31
420.91	189.58
421.10	84.26
421.29	142.77
421.48	189.58
421.67	168.52
421.86	133.41
422.05	119.37
422.24	152.13
422.43	161.50
422.61	203.63
422.80	152.13
422.99	138.09
423.18	187.24
423.37	191.92
423.56	156.82
423.75	156.82
423.94	191.92
424.13	133.41
424.32	177.88
424.50	182.56
424.69	243.42
424.88	177.88
425.07	191.92
425.26	184.90
425.45	187.24
425.64	322.99
425.83	255.12
426.01	191.92
426.20	163.84
426.39	210.65
426.58	220.01
426.77	182.56
426.96	184.90
427.15	191.92
427.33	170.86
427.52	187.24
427.71	173.20
427.90	133.41
428.09	145.11
428.28	145.11
428.46	161.50
428.65	182.56
428.84	159.16
429.03	194.26
429.22	124.05
429.40	191.92
429.59	154.48
429.78	241.08
429.97	208.31
430.16	140.43
430.34	182.56
430.53	93.62
430.72	135.75
430.91	142.77
431.10	124.05
431.28	138.09
431.47	215.33
431.66	191.92
431.85	276.18
432.03	208.31
432.22	191.92
432.41	159.16
432.60	217.67
432.79	184.90
432.97	252.78
433.16	322.99
433.35	243.42
433.54	252.78
433.72	212.99
433.91	236.39
434.10	255.12
434.28	259.80
434.47	170.86
434.66	259.80
434.85	170.86
435.03	248.10
435.22	411.93
435.41	587.47
435.59	503.22
435.78	407.25
435.97	308.95
436.16	198.95
436.34	166.18
436.53	194.26
436.72	210.65
436.90	187.24
437.09	210.65
437.28	170.86
437.46	269.16
437.65	220.01
437.84	210.65
438.02	182.56
438.21	173.20
438.40	180.22
438.58	142.77
438.77	243.42
438.96	170.86
439.14	124.05
439.33	196.60
439.52	187.24
439.70	194.26
439.89	252.78
440.08	149.79
440.26	159.16
440.45	229.37
440.63	168.52
440.82	208.31
441.01	196.60
441.19	229.37
441.38	196.60
441.57	222.35
441.75	189.58
441.94	264.48
442.12	184.90
442.31	212.99
442.50	187.24
442.68	180.22
442.87	140.43
443.05	131.07
443.24	163.84
443.43	269.16
443.61	191.92
443.80	100.64
443.98	229.37
444.17	140.43
444.35	182.56
444.54	187.24
444.73	210.65
444.91	156.82
445.10	191.92
445.28	98.30
445.47	173.20
445.65	180.22
445.84	201.29
446.02	203.63
446.21	140.43
446.39	166.18
446.58	173.20
446.77	180.22
446.95	250.44
447.14	208.31
447.32	147.45
447.51	152.13
447.69	149.79
447.88	217.67
448.06	241.08
448.25	182.56
448.43	161.50
448.62	112.35
448.80	250.44
448.99	182.56
449.17	236.39
449.36	198.95
449.54	147.45
449.73	128.73
449.91	243.42
450.10	220.01
450.28	224.69
450.46	212.99
450.65	229.37
450.83	170.86
451.02	250.44
451.20	224.69
451.39	161.50
451.57	238.73
451.76	196.60
451.94	217.67
452.13	269.16
452.31	290.23
452.49	236.39
452.68	110.01
452.86	236.39
453.05	278.52
453.23	173.20
453.42	117.03
453.60	177.88
453.78	147.45
453.97	121.71
454.15	98.30
454.34	147.45
454.52	152.13
454.70	177.88
454.89	243.42
455.07	161.50
455.26	245.76
455.44	166.18
455.62	184.90
455.81	191.92
455.99	210.65
456.17	180.22
456.36	250.44
456.54	222.35
456.73	266.82
456.91	170.86
457.09	161.50
457.28	271.50
457.46	189.58
457.64	220.01
457.83	203.63
458.01	215.33
458.19	210.65
458.38	168.52
458.56	189.58
458.74	182.56
458.93	168.52
459.11	147.45
459.29	149.79
459.48	166.18
459.66	257.46
459.84	91.28
460.03	287.89
460.21	140.43
460.39	163.84
460.57	227.03
460.76	231.71
460.94	264.48
461.12	215.33
461.31	276.18
461.49	166.18
461.67	126.39
461.85	252.78
462.04	159.16
462.22	315.97
462.40	184.90
462.59	241.08
462.77	140.43
462.95	217.67
463.13	241.08
463.32	187.24
463.50	234.05
463.68	243.42
463.86	126.39
464.05	205.97
464.23	212.99
464.41	245.76
464.59	189.58
464.78	205.97
464.96	201.29
465.14	170.86
465.32	161.50
465.50	142.77
465.69	187.24
465.87	159.16
466.05	220.01
466.23	191.92
466.41	128.73
466.60	145.11
466.78	163.84
466.96	170.86
467.14	250.44
467.32	231.71
467.51	278.52
467.69	187.24
467.87	189.58
468.05	159.16
468.23	234.05
468.41	208.31
468.60	229.37
468.78	292.57
468.96	257.46
469.14	250.44
469.32	184.90
469.50	159.16
469.69	149.79
469.87	227.03
470.05	203.63
470.23	163.84
470.41	196.60
470.59	168.52
470.77	187.24
470.95	245.76
471.14	198.95
471.32	182.56
471.50	241.08
471.68	180.22
471.86	229.37
472.04	138.09
472.22	250.44
472.40	224.69
472.58	184.90
472.77	175.54
472.95	163.84
473.13	205.97
473.31	238.73
473.49	175.54
473.67	161.50
473.85	180.22
474.03	184.90
474.21	142.77
474.39	299.59
474.57	203.63
474.75	203.63
474.93	229.37
475.12	147.45
475.30	154.48
475.48	180.22
475.66	208.31
475.84	210.65
476.02	245.76
476.20	182.56
476.38	182.56
476.56	283.20
476.74	163.84
476.92	217.67
477.10	241.08
477.28	208.31
477.46	231.71
477.64	269.16
477.82	159.16
478.00	205.97
478.18	224.69
478.36	196.60
478.54	152.13
478.72	140.43
478.90	203.63
479.08	269.16
479.26	224.69
479.44	149.79
479.62	262.14
479.80	243.42
479.98	189.58
480.16	262.14
480.34	283.20
480.52	203.63
480.70	147.45
480.88	250.44
481.06	257.46
481.24	262.14
481.41	252.78
481.59	236.39
481.77	262.14
481.95	262.14
482.13	259.80
482.31	287.89
482.49	184.90
482.67	266.82
482.85	248.10
483.03	198.95
483.21	215.33
483.39	182.56
483.57	252.78
483.74	278.52
483.92	276.18
484.10	184.90
484.28	243.42
484.46	248.10
484.64	262.14
484.82	273.84
485.00	248.10
485.18	264.48
485.35	292.57
485.53	245.76
485.71	271.50
485.89	271.50
486.07	217.67
486.25	294.91
486.43	292.57
486.61	325.33
486.78	231.71
486.96	269.16
487.14	241.08
487.32	191.92
487.50	184.90
487.68	269.16
487.85	243.42
488.03	269.16
488.21	271.50
488.39	285.55
488.57	245.76
488.75	234.05
488.92	514.92
489.10	234.05
489.28	285.55
489.46	220.01
489.64	294.91
489.81	250.44
489.99	191.92
490.17	285.55
490.35	355.76
490.53	285.55
490.70	222.35
490.88	217.67
491.06	292.57
491.24	241.08
491.41	224.69
491.59	280.86
491.77	271.50
491.95	283.20
492.13	266.82
492.30	292.57
492.48	238.73
492.66	243.42
492.84	217.67
493.01	271.50
493.19	308.95
493.37	318.31
493.54	231.71
493.72	257.46
493.90	229.37
494.08	227.03
494.25	334.70
494.43	248.10
494.61	290.23
494.79	276.18
494.96	227.03
495.14	262.14
495.32	238.73
495.49	238.73
495.67	238.73
495.85	264.48
496.02	252.78
496.20	231.71
496.38	243.42
496.55	250.44
496.73	313.63
496.91	215.33
497.09	276.18
497.26	278.52
497.44	273.84
497.62	287.89
497.79	273.84
497.97	259.80
498.14	227.03
498.32	243.42
498.50	245.76
498.67	238.73
498.85	313.63
499.03	212.99
499.20	248.10
499.38	245.76
499.56	238.73
499.73	271.50
499.91	315.97
500.08	299.59
500.26	280.86
500.44	299.59
500.61	250.44
500.79	234.05
500.97	229.37
501.14	318.31
501.32	212.99
501.49	224.69
501.67	269.16
501.84	248.10
502.02	250.44
502.20	283.20
502.37	292.57
502.55	147.45
502.72	222.35
502.90	278.52
503.07	299.59
503.25	315.97
503.43	280.86
503.60	236.39
503.78	280.86
503.95	297.25
504.13	227.03
504.30	276.18
504.48	285.55
504.65	196.60
504.83	224.69
505.01	308.95
505.18	252.78
505.36	175.54
505.53	250.44
505.71	255.12
505.88	229.37
506.06	322.99
506.23	224.69
506.41	259.80
506.58	252.78
506.76	212.99
506.93	266.82
507.11	255.12
507.28	308.95
507.46	262.14
507.63	262.14
507.81	217.67
507.98	315.97
508.16	271.50
508.33	215.33
508.50	276.18
508.68	292.57
508.85	290.23
509.03	224.69
509.20	245.76
509.38	330.02
509.55	208.31
509.73	266.82
509.90	334.70
510.08	262.14
510.25	234.05
510.42	222.35
510.60	262.14
510.77	294.91
510.95	360.44
511.12	332.36
511.30	301.93
511.47	367.46
511.64	337.04
511.82	271.50
511.99	208.31
512.17	266.82
512.34	262.14
512.51	327.68
512.69	306.61
512.86	262.14
513.04	299.59
513.21	318.31
513.38	285.55
513.56	210.65
513.73	196.60
513.90	292.57
514.08	238.73
514.25	304.27
514.43	266.82
514.60	255.12
514.77	271.50
514.95	248.10
515.12	322.99
515.29	252.78
515.47	238.73
515.64	283.20
515.81	301.93
515.99	322.99
516.16	271.50
516.33	287.89
516.51	243.42
516.68	294.91
516.85	248.10
517.03	320.65
517.20	210.65
517.37	285.55
517.54	238.73
517.72	231.71
517.89	276.18
518.06	234.05
518.24	276.18
518.41	325.33
518.58	339.38
518.75	287.89
518.93	276.18
519.10	297.25
519.27	318.31
519.45	189.58
519.62	170.86
519.79	292.57
519.96	322.99
520.14	306.61
520.31	255.12
520.48	264.48
520.65	212.99
520.83	280.86
521.00	285.55
521.17	236.39
521.34	266.82
521.52	262.14
521.69	229.37
521.86	301.93
522.03	222.35
522.20	280.86
522.38	262.14
522.55	255.12
522.72	245.76
522.89	212.99
523.07	285.55
523.24	297.25
523.41	301.93
523.58	327.68
523.75	238.73
523.92	315.97
524.10	243.42
524.27	229.37
524.44	236.39
524.61	344.06
524.78	262.14
524.96	311.29
525.13	201.29
525.30	311.29
525.47	264.48
525.64	264.48
525.81	259.80
525.98	304.27
526.16	224.69
526.33	227.03
526.50	205.97
526.67	252.78
526.84	278.52
527.01	294.91
527.18	273.84
527.36	297.25
527.53	313.63
527.70	294.91
527.87	238.73
528.04	301.93
528.21	315.97
528.38	262.14
528.55	372.15
528.72	311.29
528.89	327.68
529.07	337.04
529.24	259.80
529.41	292.57
529.58	227.03
529.75	262.14
529.92	301.93
530.09	285.55
530.26	304.27
530.43	322.99
530.60	339.38
530.77	320.65
530.94	231.71
531.11	346.40
531.28	308.95
531.46	301.93
531.63	241.08
531.80	330.02
531.97	367.46
532.14	264.48
532.31	280.86
532.48	348.74
532.65	369.80
532.82	465.77
532.99	376.83
533.16	348.74
533.33	374.49
533.50	358.10
533.67	397.89
533.84	477.47
534.01	482.15
534.18	327.68
534.35	334.70
534.52	196.60
534.69	418.96
534.86	304.27
535.03	299.59
535.20	231.71
535.37	290.23
535.54	301.93
535.71	269.16
535.88	355.76
536.05	285.55
536.22	278.52
536.38	299.59
536.55	248.10
536.72	320.65
536.89	280.86
537.06	271.50
537.23	273.84
537.40	229.37
537.57	283.20
537.74	315.97
537.91	369.80
538.08	337.04
538.25	437.68
538.42	358.10
538.59	222.35
538.75	301.93
538.92	390.87
539.09	351.08
539.26	388.53
539.43	645.99
539.60	1174.95
539.77	1811.57
539.94	1654.76
540.11	1221.76
540.28	858.98
540.44	744.29
540.61	594.50
540.78	475.13
540.95	568.75
541.12	638.97
541.29	559.39
541.46	589.82
541.62	655.35
541.79	596.84
541.96	554.71
542.13	507.90
542.30	519.60
542.47	587.47
542.63	486.83
542.80	589.82
542.97	540.66
543.14	517.26
543.31	531.30
543.48	486.83
543.64	463.43
543.81	524.28
543.98	557.05
544.15	479.81
544.32	512.58
544.48	489.17
544.65	554.71
544.82	491.51
544.99	531.30
545.16	554.71
545.32	486.83
545.49	793.44
545.66	1018.13
545.83	1064.94
546.00	990.05
546.16	858.98
546.33	592.16
546.50	505.56
546.67	479.81
546.83	468.11
547.00	430.66
547.17	456.40
547.34	482.15
547.50	458.74
547.67	402.57
547.84	388.53
548.00	458.74
548.17	414.27
548.34	407.25
548.51	402.57
548.67	411.93
548.84	369.80
549.01	416.62
549.18	395.55
549.34	458.74
549.51	379.17
549.68	423.64
549.84	465.77
550.01	322.99
550.18	421.30
550.34	444.70
550.51	327.68
550.68	409.59
550.84	283.20
551.01	332.36
551.18	297.25
551.34	393.21
551.51	280.86
551.68	294.91
551.84	241.08
552.01	290.23
552.18	278.52
552.34	290.23
552.51	304.27
552.68	400.23
552.84	322.99
553.01	339.38
553.18	308.95
553.34	292.57
553.51	229.37
553.67	276.18
553.84	306.61
554.01	308.95
554.17	287.89
554.34	238.73
554.51	315.97
554.67	362.78
554.84	322.99
555.00	276.18
555.17	205.97
555.33	229.37
555.50	315.97
555.67	294.91
555.83	311.29
556.00	367.46
556.16	505.56
556.33	276.18
556.50	362.78
556.66	304.27
556.83	285.55
556.99	290.23
557.16	222.35
557.32	266.82
557.49	318.31
557.65	243.42
557.82	297.25
557.98	250.44
558.15	231.71
558.32	290.23
558.48	341.72
558.65	292.57
558.81	355.76
558.98	243.42
559.14	283.20
559.31	252.78
559.47	294.91
559.64	208.31
559.80	344.06
559.97	278.52
560.13	280.86
560.30	264.48
560.46	250.44
560.63	257.46
560.79	252.78
560.96	299.59
561.12	334.70
561.29	248.10
561.45	299.59
561.61	334.70
561.78	365.12
561.94	299.59
562.11	243.42
562.27	304.27
562.44	266.82
562.60	283.20
562.77	315.97
562.93	358.10
563.10	280.86
563.26	301.93
563.42	245.76
563.59	227.03
563.75	273.84
563.92	278.52
564.08	292.57
564.24	283.20
564.41	259.80
564.57	299.59
564.74	231.71
564.90	283.20
565.07	294.91
565.23	313.63
565.39	311.29
565.56	407.25
565.72	280.86
565.88	360.44
566.05	299.59
566.21	278.52
566.38	318.31
566.54	278.52
566.70	238.73
566.87	283.20
567.03	292.57
567.19	306.61
567.36	311.29
567.52	315.97
567.68	259.80
567.85	257.46
568.01	203.63
568.17	301.93
568.34	241.08
568.50	290.23
568.66	313.63
568.83	299.59
568.99	315.97
569.15	330.02
569.32	299.59
569.48	257.46
569.64	262.14
569.81	283.20
569.97	285.55
570.13	257.46
570.30	222.35
570.46	285.55
570.62	231.71
570.78	224.69
570.95	245.76
571.11	276.18
571.27	325.33
571.43	255.12
571.60	264.48
571.76	273.84
571.92	266.82
572.09	248.10
572.25	292.57
572.41	271.50
572.57	262.14
572.74	322.99
572.90	299.59
573.06	271.50
573.22	287.89
573.38	266.82
573.55	285.55
573.71	283.20
573.87	297.25
574.03	311.29
574.20	224.69
574.36	351.08
574.52	404.91
574.68	442.36
574.84	297.25
575.01	301.93
575.17	294.91
575.33	287.89
575.49	442.36
575.65	351.08
575.82	299.59
575.98	580.45
576.14	734.93
576.30	767.70
576.46	660.03
576.62	648.33
576.79	571.09
576.95	437.68
577.11	339.38
577.27	355.76
577.43	304.27
577.59	358.10
577.75	283.20
577.92	313.63
578.08	238.73
578.24	259.80
578.40	376.83
578.56	435.34
578.72	451.72
578.88	484.49
579.04	404.91
579.21	433.00
579.37	409.59
579.53	327.68
579.69	386.19
579.85	365.12
580.01	475.13
580.17	491.51
580.33	388.53
580.49	465.77
580.65	367.46
580.82	369.80
580.98	365.12
581.14	425.98
581.30	395.55
581.46	535.98
581.62	648.33
581.78	627.26
581.94	603.86
582.10	608.54
582.26	599.18
582.42	519.60
582.58	535.98
582.74	472.79
582.90	510.24
583.06	571.09
583.22	540.66
583.38	582.79
583.54	676.41
583.70	638.97
583.86	800.46
584.02	856.64
584.18	1020.47
584.34	1235.80
584.50	3215.90
584.66	24243.27
584.82	56442.02
584.98	64905.40
585.14	61914.19
585.30	47253.08
585.46	29317.55
585.62	18071.28
585.78	8365.07
585.94	3339.94
586.10	1619.65
586.26	1130.48
586.42	1032.18
586.58	784.08
586.74	770.04
586.90	702.16
587.06	674.07
587.22	676.41
587.38	599.18
587.54	1394.96
587.70	3550.59
587.86	5764.74
588.02	6298.38
588.18	4561.70
588.34	2974.82
588.49	1907.54
588.65	1219.42
588.81	739.61
588.97	423.64
589.13	301.93
589.29	381.51
589.45	414.27
589.61	425.98
589.77	521.94
589.93	559.39
590.08	503.22
590.24	552.37
590.40	573.43
590.56	503.22
590.72	355.76
590.88	404.91
591.04	449.38
591.20	449.38
591.35	440.02
591.51	430.66
591.67	360.44
591.83	404.91
591.99	407.25
592.15	348.74
592.31	407.25
592.46	390.87
592.62	386.19
592.78	437.68
592.94	386.19
593.10	421.30
593.26	524.28
593.41	444.70
593.57	470.45
593.73	685.78
593.89	2953.76
594.05	7503.76
594.20	10860.09
594.36	10104.09
594.52	6731.38
594.68	4344.03
594.84	2876.52
594.99	1647.74
595.15	844.93
595.31	524.28
595.47	482.15
595.62	360.44
595.78	358.10
595.94	430.66
596.10	402.57
596.25	472.79
596.41	400.23
596.57	433.00
596.73	344.06
596.88	559.39
597.04	1528.37
597.20	2382.67
597.36	2733.75
597.51	2047.97
597.67	1460.49
597.83	1041.54
597.99	732.59
598.14	512.58
598.30	489.17
598.46	416.62
598.61	430.66
598.77	383.85
598.93	386.19
599.09	383.85
599.24	346.40
599.40	400.23
599.56	330.02
599.71	337.04
599.87	320.65
600.03	266.82
600.18	334.70
600.34	311.29
600.50	383.85
600.65	348.74
600.81	351.08
600.97	311.29
601.12	393.21
601.28	311.29
601.44	264.48
601.59	299.59
601.75	304.27
601.91	390.87
602.06	264.48
602.22	404.91
602.37	777.06
602.53	1783.49
602.69	2686.94
602.84	2710.34
603.00	2136.91
603.16	1500.28
603.31	1041.54
603.47	763.01
603.62	461.09
603.78	383.85
603.94	379.17
604.09	334.70
604.25	344.06
604.40	306.61
604.56	348.74
604.71	273.84
604.87	285.55
605.03	337.04
605.18	299.59
605.34	311.29
605.49	351.08
605.65	327.68
605.80	297.25
605.96	330.02
606.12	395.55
606.27	376.83
606.43	414.27
606.58	456.40
606.74	894.08
606.89	3543.57
607.05	6951.39
607.20	9263.84
607.36	7531.84
607.51	5071.94
607.67	3466.33
607.82	2218.83
607.98	1455.81
608.13	858.98
608.29	575.77
608.44	547.69
608.60	528.96
608.75	674.07
608.91	1324.74
609.06	5708.57
609.22	12297.17
609.37	15913.30
609.53	14052.58
609.68	9474.49
609.84	6319.45
609.99	4238.71
