SpectraSuite Data File
++++++++++++++++++++++++++++++++++++
Date: Fri Oct 04 11:33:52 GMT-05:00 2013
User: price-jones
Dark Spectrum Present: No
Reference Spectrum Present: No
Number of Sampled Component Spectra: 1
Spectrometers: USB2+H05261
Integration Time (usec): 100000 (USB2+H05261)
Spectra Averaged: 1 (USB2+H05261)
Boxcar Smoothing: 0 (USB2+H05261)
Correct for Electrical Dark: No (USB2+H05261)
Strobe/Lamp Enabled: No (USB2+H05261)
Correct for Detector Non-linearity: No (USB2+H05261)
Correct for Stray Light: No (USB2+H05261)
Number of Pixels in Processed Spectrum: 2048
>>>>>Begin Processed Spectral Data<<<<<
365.73	56.17
365.92	56.17
366.12	56.17
366.32	0.00
366.52	0.00
366.72	0.00
366.91	0.00
367.11	9.36
367.31	21.06
367.51	0.00
367.70	7.02
367.90	53.83
368.10	0.00
368.30	28.09
368.49	0.00
368.69	7.02
368.89	9.36
369.09	0.00
369.28	14.04
369.48	35.11
369.68	21.06
369.87	72.56
370.07	23.41
370.27	16.38
370.47	98.30
370.66	46.81
370.86	117.03
371.06	124.05
371.25	121.71
371.45	93.62
371.65	124.05
371.84	95.96
372.04	58.51
372.24	147.45
372.44	95.96
372.63	140.43
372.83	112.35
373.03	44.47
373.22	145.11
373.42	124.05
373.62	86.60
373.81	177.88
374.01	177.88
374.21	215.33
374.40	168.52
374.60	173.20
374.79	131.07
374.99	189.58
375.19	191.92
375.38	117.03
375.58	142.77
375.78	105.32
375.97	234.05
376.17	180.22
376.37	166.18
376.56	140.43
376.76	208.31
376.95	133.41
377.15	133.41
377.35	135.75
377.54	60.85
377.74	135.75
377.93	56.17
378.13	110.01
378.33	217.67
378.52	147.45
378.72	198.95
378.91	147.45
379.11	105.32
379.31	170.86
379.50	110.01
379.70	161.50
379.89	140.43
380.09	177.88
380.28	28.09
380.48	203.63
380.68	142.77
380.87	126.39
381.07	170.86
381.26	187.24
381.46	170.86
381.65	138.09
381.85	135.75
382.04	86.60
382.24	145.11
382.43	112.35
382.63	107.66
382.83	86.60
383.02	147.45
383.22	166.18
383.41	84.26
383.61	131.07
383.80	152.13
384.00	205.97
384.19	138.09
384.39	180.22
384.58	126.39
384.78	102.98
384.97	177.88
385.17	95.96
385.36	142.77
385.56	124.05
385.75	149.79
385.95	175.54
386.14	74.90
386.34	124.05
386.53	126.39
386.72	112.35
386.92	236.39
387.11	140.43
387.31	133.41
387.50	140.43
387.70	114.69
387.89	147.45
388.09	156.82
388.28	131.07
388.48	161.50
388.67	37.45
388.86	124.05
389.06	93.62
389.25	156.82
389.45	105.32
389.64	154.48
389.84	110.01
390.03	154.48
390.22	128.73
390.42	72.56
390.61	180.22
390.81	84.26
391.00	152.13
391.19	117.03
391.39	147.45
391.58	161.50
391.78	112.35
391.97	201.29
392.16	91.28
392.36	163.84
392.55	180.22
392.75	140.43
392.94	107.66
393.13	135.75
393.33	156.82
393.52	124.05
393.71	241.08
393.91	131.07
394.10	163.84
394.29	163.84
394.49	184.90
394.68	166.18
394.88	182.56
395.07	133.41
395.26	173.20
395.46	147.45
395.65	161.50
395.84	154.48
396.04	231.71
396.23	173.20
396.42	149.79
396.62	128.73
396.81	105.32
397.00	168.52
397.19	154.48
397.39	194.26
397.58	215.33
397.77	117.03
397.97	131.07
398.16	154.48
398.35	203.63
398.55	201.29
398.74	131.07
398.93	175.54
399.12	117.03
399.32	149.79
399.51	117.03
399.70	110.01
399.90	154.48
400.09	196.60
400.28	149.79
400.47	166.18
400.67	201.29
400.86	156.82
401.05	105.32
401.24	147.45
401.44	173.20
401.63	198.95
401.82	147.45
402.01	163.84
402.21	255.12
402.40	100.64
402.59	142.77
402.78	128.73
402.97	91.28
403.17	163.84
403.36	194.26
403.55	102.98
403.74	177.88
403.93	149.79
404.13	236.39
404.32	154.48
404.51	135.75
404.70	180.22
404.89	177.88
405.09	166.18
405.28	175.54
405.47	194.26
405.66	138.09
405.85	142.77
406.05	149.79
406.24	227.03
406.43	79.58
406.62	161.50
406.81	191.92
407.00	203.63
407.20	196.60
407.39	140.43
407.58	241.08
407.77	198.95
407.96	198.95
408.15	196.60
408.34	119.37
408.54	175.54
408.73	117.03
408.92	128.73
409.11	84.26
409.30	156.82
409.49	175.54
409.68	156.82
409.87	121.71
410.07	168.52
410.26	126.39
410.45	227.03
410.64	135.75
410.83	102.98
411.02	170.86
411.21	194.26
411.40	70.22
411.59	187.24
411.78	215.33
411.98	88.94
412.17	142.77
412.36	107.66
412.55	72.56
412.74	156.82
412.93	210.65
413.12	142.77
413.31	161.50
413.50	114.69
413.69	187.24
413.88	205.97
414.07	105.32
414.26	145.11
414.45	159.16
414.64	138.09
414.83	187.24
415.02	208.31
415.22	163.84
415.41	177.88
415.60	166.18
415.79	154.48
415.98	124.05
416.17	145.11
416.36	149.79
416.55	126.39
416.74	110.01
416.93	203.63
417.12	142.77
417.31	131.07
417.50	191.92
417.69	210.65
417.88	147.45
418.07	170.86
418.26	161.50
418.45	49.15
418.64	227.03
418.83	180.22
419.02	196.60
419.21	135.75
419.39	180.22
419.58	145.11
419.77	124.05
419.96	152.13
420.15	238.73
420.34	177.88
420.53	170.86
420.72	159.16
420.91	180.22
421.10	180.22
421.29	194.26
421.48	95.96
421.67	156.82
421.86	135.75
422.05	152.13
422.24	196.60
422.43	110.01
422.61	154.48
422.80	175.54
422.99	156.82
423.18	173.20
423.37	184.90
423.56	175.54
423.75	208.31
423.94	163.84
424.13	191.92
424.32	212.99
424.50	149.79
424.69	173.20
424.88	163.84
425.07	184.90
425.26	201.29
425.45	220.01
425.64	124.05
425.83	182.56
426.01	210.65
426.20	236.39
426.39	163.84
426.58	135.75
426.77	184.90
426.96	191.92
427.15	100.64
427.33	128.73
427.52	168.52
427.71	175.54
427.90	175.54
428.09	140.43
428.28	198.95
428.46	173.20
428.65	201.29
428.84	259.80
429.03	231.71
429.22	131.07
429.40	163.84
429.59	121.71
429.78	215.33
429.97	121.71
430.16	180.22
430.34	107.66
430.53	133.41
430.72	161.50
430.91	161.50
431.10	124.05
431.28	147.45
431.47	140.43
431.66	182.56
431.85	149.79
432.03	149.79
432.22	177.88
432.41	177.88
432.60	201.29
432.79	140.43
432.97	184.90
433.16	224.69
433.35	140.43
433.54	154.48
433.72	224.69
433.91	173.20
434.10	210.65
434.28	220.01
434.47	173.20
434.66	156.82
434.85	184.90
435.03	184.90
435.22	252.78
435.41	407.25
435.59	353.42
435.78	292.57
435.97	187.24
436.16	231.71
436.34	175.54
436.53	88.94
436.72	163.84
436.90	63.19
437.09	170.86
437.28	250.44
437.46	154.48
437.65	234.05
437.84	182.56
438.02	177.88
438.21	142.77
438.40	133.41
438.58	140.43
438.77	210.65
438.96	110.01
439.14	100.64
439.33	142.77
439.52	166.18
439.70	187.24
439.89	175.54
440.08	173.20
440.26	131.07
440.45	159.16
440.63	191.92
440.82	182.56
441.01	231.71
441.19	133.41
441.38	107.66
441.57	184.90
441.75	198.95
441.94	145.11
442.12	208.31
442.31	170.86
442.50	194.26
442.68	173.20
442.87	142.77
443.05	180.22
443.24	198.95
443.43	217.67
443.61	173.20
443.80	114.69
443.98	238.73
444.17	145.11
444.35	203.63
444.54	177.88
444.73	196.60
444.91	215.33
445.10	161.50
445.28	248.10
445.47	252.78
445.65	140.43
445.84	154.48
446.02	133.41
446.21	133.41
446.39	159.16
446.58	203.63
446.77	163.84
446.95	220.01
447.14	229.37
447.32	243.42
447.51	156.82
447.69	191.92
447.88	161.50
448.06	205.97
448.25	145.11
448.43	208.31
448.62	182.56
448.80	105.32
448.99	182.56
449.17	173.20
449.36	187.24
449.54	231.71
449.73	131.07
449.91	175.54
450.10	222.35
450.28	175.54
450.46	255.12
450.65	255.12
450.83	208.31
451.02	166.18
451.20	156.82
451.39	105.32
451.57	231.71
451.76	191.92
451.94	133.41
452.13	252.78
452.31	241.08
452.49	205.97
452.68	175.54
452.86	156.82
453.05	180.22
453.23	180.22
453.42	241.08
453.60	231.71
453.78	149.79
453.97	180.22
454.15	198.95
454.34	201.29
454.52	170.86
454.70	180.22
454.89	227.03
455.07	163.84
455.26	187.24
455.44	212.99
455.62	175.54
455.81	159.16
455.99	196.60
456.17	154.48
456.36	196.60
456.54	227.03
456.73	196.60
456.91	205.97
457.09	187.24
457.28	241.08
457.46	163.84
457.64	163.84
457.83	170.86
458.01	180.22
458.19	210.65
458.38	245.76
458.56	191.92
458.74	208.31
458.93	224.69
459.11	224.69
459.29	177.88
459.48	154.48
459.66	243.42
459.84	229.37
460.03	273.84
460.21	250.44
460.39	187.24
460.57	227.03
460.76	166.18
460.94	173.20
461.12	227.03
461.31	271.50
461.49	166.18
461.67	168.52
461.85	210.65
462.04	159.16
462.22	575.77
462.40	287.89
462.59	217.67
462.77	264.48
462.95	177.88
463.13	189.58
463.32	180.22
463.50	152.13
463.68	175.54
463.86	166.18
464.05	231.71
464.23	283.20
464.41	184.90
464.59	154.48
464.78	152.13
464.96	142.77
465.14	138.09
465.32	161.50
465.50	194.26
465.69	201.29
465.87	159.16
466.05	208.31
466.23	140.43
466.41	259.80
466.60	173.20
466.78	177.88
466.96	227.03
467.14	241.08
467.32	201.29
467.51	177.88
467.69	177.88
467.87	182.56
468.05	173.20
468.23	255.12
468.41	201.29
468.60	220.01
468.78	236.39
468.96	201.29
469.14	156.82
469.32	152.13
469.50	152.13
469.69	166.18
469.87	124.05
470.05	170.86
470.23	168.52
470.41	220.01
470.59	145.11
470.77	217.67
470.95	194.26
471.14	168.52
471.32	229.37
471.50	201.29
471.68	152.13
471.86	212.99
472.04	203.63
472.22	140.43
472.40	180.22
472.58	215.33
472.77	201.29
472.95	198.95
473.13	126.39
473.31	215.33
473.49	229.37
473.67	149.79
473.85	173.20
474.03	184.90
474.21	212.99
474.39	224.69
474.57	180.22
474.75	217.67
474.93	175.54
475.12	175.54
475.30	177.88
475.48	248.10
475.66	184.90
475.84	217.67
476.02	241.08
476.20	210.65
476.38	159.16
476.56	280.86
476.74	145.11
476.92	194.26
477.10	173.20
477.28	198.95
477.46	229.37
477.64	217.67
477.82	205.97
478.00	215.33
478.18	241.08
478.36	128.73
478.54	212.99
478.72	205.97
478.90	184.90
479.08	280.86
479.26	161.50
479.44	189.58
479.62	159.16
479.80	117.03
479.98	238.73
480.16	180.22
480.34	201.29
480.52	229.37
480.70	229.37
480.88	243.42
481.06	159.16
481.24	163.84
481.41	222.35
481.59	250.44
481.77	215.33
481.95	210.65
482.13	238.73
482.31	159.16
482.49	210.65
482.67	208.31
482.85	259.80
483.03	198.95
483.21	196.60
483.39	215.33
483.57	196.60
483.74	140.43
483.92	220.01
484.10	191.92
484.28	248.10
484.46	332.36
484.64	259.80
484.82	273.84
485.00	196.60
485.18	215.33
485.35	163.84
485.53	166.18
485.71	250.44
485.89	215.33
486.07	238.73
486.25	229.37
486.43	227.03
486.61	318.31
486.78	285.55
486.96	220.01
487.14	205.97
487.32	250.44
487.50	222.35
487.68	159.16
487.85	217.67
488.03	250.44
488.21	229.37
488.39	198.95
488.57	304.27
488.75	166.18
488.92	505.56
489.10	339.38
489.28	299.59
489.46	208.31
489.64	276.18
489.81	236.39
489.99	297.25
490.17	259.80
490.35	292.57
490.53	210.65
490.70	227.03
490.88	222.35
491.06	222.35
491.24	210.65
491.41	238.73
491.59	294.91
491.77	234.05
491.95	255.12
492.13	245.76
492.30	222.35
492.48	259.80
492.66	248.10
492.84	248.10
493.01	252.78
493.19	250.44
493.37	234.05
493.54	264.48
493.72	255.12
493.90	250.44
494.08	187.24
494.25	187.24
494.43	280.86
494.61	243.42
494.79	262.14
494.96	259.80
495.14	297.25
495.32	245.76
495.49	175.54
495.67	278.52
495.85	212.99
496.02	205.97
496.20	318.31
496.38	224.69
496.55	161.50
496.73	191.92
496.91	250.44
497.09	308.95
497.26	215.33
497.44	198.95
497.62	234.05
497.79	255.12
497.97	294.91
498.14	292.57
498.32	285.55
498.50	229.37
498.67	266.82
498.85	280.86
499.03	273.84
499.20	257.46
499.38	266.82
499.56	222.35
499.73	259.80
499.91	285.55
500.08	262.14
500.26	250.44
500.44	227.03
500.61	271.50
500.79	203.63
500.97	262.14
501.14	292.57
501.32	220.01
501.49	212.99
501.67	248.10
501.84	227.03
502.02	224.69
502.20	241.08
502.37	212.99
502.55	294.91
502.72	224.69
502.90	234.05
503.07	243.42
503.25	187.24
503.43	170.86
503.60	210.65
503.78	212.99
503.95	276.18
504.13	168.52
504.30	262.14
504.48	234.05
504.65	248.10
504.83	306.61
505.01	241.08
505.18	238.73
505.36	304.27
505.53	208.31
505.71	163.84
505.88	241.08
506.06	210.65
506.23	170.86
506.41	285.55
506.58	262.14
506.76	259.80
506.93	198.95
507.11	217.67
507.28	227.03
507.46	301.93
507.63	166.18
507.81	203.63
507.98	248.10
508.16	238.73
508.33	245.76
508.50	292.57
508.68	250.44
508.85	201.29
509.03	290.23
509.20	271.50
509.38	250.44
509.55	280.86
509.73	245.76
509.90	250.44
510.08	175.54
510.25	241.08
510.42	210.65
510.60	210.65
510.77	276.18
510.95	280.86
511.12	243.42
511.30	217.67
511.47	198.95
511.64	308.95
511.82	285.55
511.99	212.99
512.17	236.39
512.34	241.08
512.51	236.39
512.69	337.04
512.86	215.33
513.04	245.76
513.21	238.73
513.38	245.76
513.56	245.76
513.73	292.57
513.90	163.84
514.08	241.08
514.25	299.59
514.43	243.42
514.60	241.08
514.77	280.86
514.95	315.97
515.12	217.67
515.29	318.31
515.47	161.50
515.64	203.63
515.81	236.39
515.99	266.82
516.16	269.16
516.33	248.10
516.51	217.67
516.68	269.16
516.85	271.50
517.03	180.22
517.20	241.08
517.37	243.42
517.54	222.35
517.72	259.80
517.89	294.91
518.06	238.73
518.24	245.76
518.41	278.52
518.58	205.97
518.75	203.63
518.93	191.92
519.10	217.67
519.27	257.46
519.45	227.03
519.62	255.12
519.79	346.40
519.96	205.97
520.14	210.65
520.31	292.57
520.48	215.33
520.65	208.31
520.83	252.78
521.00	280.86
521.17	257.46
521.34	255.12
521.52	231.71
521.69	217.67
521.86	287.89
522.03	257.46
522.20	348.74
522.38	252.78
522.55	250.44
522.72	220.01
522.89	301.93
523.07	280.86
523.24	257.46
523.41	241.08
523.58	215.33
523.75	210.65
523.92	231.71
524.10	203.63
524.27	205.97
524.44	264.48
524.61	313.63
524.78	257.46
524.96	280.86
525.13	358.10
525.30	259.80
525.47	292.57
525.64	266.82
525.81	182.56
525.98	229.37
526.16	271.50
526.33	227.03
526.50	262.14
526.67	241.08
526.84	175.54
527.01	234.05
527.18	252.78
527.36	299.59
527.53	224.69
527.70	201.29
527.87	241.08
528.04	346.40
528.21	224.69
528.38	285.55
528.55	227.03
528.72	313.63
528.89	269.16
529.07	304.27
529.24	283.20
529.41	262.14
529.58	220.01
529.75	294.91
529.92	292.57
530.09	234.05
530.26	271.50
530.43	217.67
530.60	269.16
530.77	278.52
530.94	374.49
531.11	255.12
531.28	287.89
531.46	313.63
531.63	341.72
531.80	285.55
531.97	241.08
532.14	257.46
532.31	234.05
532.48	231.71
532.65	201.29
532.82	222.35
532.99	264.48
533.16	259.80
533.33	297.25
533.50	236.39
533.67	285.55
533.84	248.10
534.01	308.95
534.18	243.42
534.35	283.20
534.52	341.72
534.69	337.04
534.86	264.48
535.03	220.01
535.20	231.71
535.37	367.46
535.54	313.63
535.71	280.86
535.88	215.33
536.05	269.16
536.22	273.84
536.38	168.52
536.55	292.57
536.72	269.16
536.89	234.05
537.06	259.80
537.23	208.31
537.40	238.73
537.57	229.37
537.74	308.95
537.91	264.48
538.08	311.29
538.25	358.10
538.42	280.86
538.59	304.27
538.75	337.04
538.92	276.18
539.09	299.59
539.26	313.63
539.43	386.19
539.60	315.97
539.77	423.64
539.94	299.59
540.11	421.30
540.28	339.38
540.44	416.62
540.61	332.36
540.78	397.89
540.95	358.10
541.12	449.38
541.29	435.34
541.46	524.28
541.62	472.79
541.79	468.11
541.96	367.46
542.13	409.59
542.30	381.51
542.47	458.74
542.63	449.38
542.80	437.68
542.97	423.64
543.14	416.62
543.31	440.02
543.48	430.66
543.64	411.93
543.81	449.38
543.98	477.47
544.15	416.62
544.32	435.34
544.48	390.87
544.65	409.59
544.82	360.44
544.99	449.38
545.16	437.68
545.32	425.98
545.49	535.98
545.66	772.38
545.83	758.33
546.00	685.78
546.16	552.37
546.33	472.79
546.50	458.74
546.67	358.10
546.83	470.45
547.00	306.61
547.17	248.10
547.34	397.89
547.50	421.30
547.67	372.15
547.84	383.85
548.00	330.02
548.17	367.46
548.34	322.99
548.51	341.72
548.67	339.38
548.84	390.87
549.01	374.49
549.18	339.38
549.34	283.20
549.51	334.70
549.68	257.46
549.84	304.27
550.01	241.08
550.18	411.93
550.34	400.23
550.51	325.33
550.68	320.65
550.84	299.59
551.01	308.95
551.18	358.10
551.34	360.44
551.51	311.29
551.68	241.08
551.84	327.68
552.01	294.91
552.18	262.14
552.34	313.63
552.51	306.61
552.68	358.10
552.84	273.84
553.01	313.63
553.18	292.57
553.34	259.80
553.51	334.70
553.67	217.67
553.84	269.16
554.01	299.59
554.17	348.74
554.34	315.97
554.51	191.92
554.67	294.91
554.84	222.35
555.00	320.65
555.17	269.16
555.33	257.46
555.50	241.08
555.67	262.14
555.83	222.35
556.00	224.69
556.16	456.40
556.33	308.95
556.50	243.42
556.66	245.76
556.83	234.05
556.99	236.39
557.16	308.95
557.32	297.25
557.49	304.27
557.65	229.37
557.82	227.03
557.98	266.82
558.15	217.67
558.32	252.78
558.48	313.63
558.65	250.44
558.81	294.91
558.98	210.65
559.14	266.82
559.31	266.82
559.47	269.16
559.64	271.50
559.80	241.08
559.97	187.24
560.13	315.97
560.30	187.24
560.46	257.46
560.63	166.18
560.79	280.86
560.96	292.57
561.12	224.69
561.29	294.91
561.45	283.20
561.61	250.44
561.78	311.29
561.94	198.95
562.11	215.33
562.27	327.68
562.44	283.20
562.60	273.84
562.77	236.39
562.93	376.83
563.10	212.99
563.26	271.50
563.42	308.95
563.59	222.35
563.75	257.46
563.92	337.04
564.08	231.71
564.24	280.86
564.41	273.84
564.57	250.44
564.74	212.99
564.90	306.61
565.07	212.99
565.23	285.55
565.39	217.67
565.56	351.08
565.72	187.24
565.88	320.65
566.05	224.69
566.21	245.76
566.38	320.65
566.54	196.60
566.70	285.55
566.87	220.01
567.03	224.69
567.19	220.01
567.36	252.78
567.52	224.69
567.68	301.93
567.85	262.14
568.01	210.65
568.17	170.86
568.34	238.73
568.50	229.37
568.66	180.22
568.83	292.57
568.99	250.44
569.15	238.73
569.32	231.71
569.48	208.31
569.64	220.01
569.81	217.67
569.97	245.76
570.13	198.95
570.30	241.08
570.46	184.90
570.62	252.78
570.78	250.44
570.95	173.20
571.11	248.10
571.27	283.20
571.43	170.86
571.60	210.65
571.76	266.82
571.92	238.73
572.09	243.42
572.25	205.97
572.41	271.50
572.57	241.08
572.74	248.10
572.90	241.08
573.06	269.16
573.22	229.37
573.38	299.59
573.55	184.90
573.71	262.14
573.87	311.29
574.03	238.73
574.20	173.20
574.36	259.80
574.52	189.58
574.68	203.63
574.84	198.95
575.01	212.99
575.17	248.10
575.33	210.65
575.49	231.71
575.65	290.23
575.82	234.05
575.98	315.97
576.14	322.99
576.30	315.97
576.46	245.76
576.62	334.70
576.79	397.89
576.95	355.76
577.11	212.99
577.27	271.50
577.43	234.05
577.59	287.89
577.75	243.42
577.92	201.29
578.08	220.01
578.24	180.22
578.40	341.72
578.56	280.86
578.72	428.32
578.88	341.72
579.04	351.08
579.21	334.70
579.37	236.39
579.53	290.23
579.69	304.27
579.85	236.39
580.01	297.25
580.17	262.14
580.33	224.69
580.49	250.44
580.65	304.27
580.82	278.52
580.98	322.99
581.14	306.61
581.30	334.70
581.46	294.91
581.62	322.99
581.78	236.39
581.94	325.33
582.10	330.02
582.26	222.35
582.42	252.78
582.58	266.82
582.74	318.31
582.90	287.89
583.06	285.55
583.22	266.82
583.38	283.20
583.54	234.05
583.70	390.87
583.86	222.35
584.02	276.18
584.18	351.08
584.34	299.59
584.50	404.91
584.66	816.85
584.82	1757.74
584.98	2534.80
585.14	2265.64
585.30	1577.52
585.46	1118.78
585.62	716.20
585.78	472.79
585.94	355.76
586.10	337.04
586.26	250.44
586.42	379.17
586.58	358.10
586.74	353.42
586.90	290.23
587.06	372.15
587.22	299.59
587.38	318.31
587.54	320.65
587.70	416.62
587.86	404.91
588.02	418.96
588.18	447.04
588.34	430.66
588.49	283.20
588.65	322.99
588.81	276.18
588.97	187.24
589.13	250.44
589.29	278.52
589.45	215.33
589.61	220.01
589.77	222.35
589.93	320.65
590.08	255.12
590.24	276.18
590.40	257.46
590.56	269.16
590.72	238.73
590.88	196.60
591.04	280.86
591.20	229.37
591.35	259.80
591.51	252.78
591.67	205.97
591.83	189.58
591.99	196.60
592.15	227.03
592.31	299.59
592.46	271.50
592.62	276.18
592.78	215.33
592.94	248.10
593.10	243.42
593.26	269.16
593.41	292.57
593.57	315.97
593.73	166.18
593.89	386.19
594.05	409.59
594.20	463.43
594.36	517.26
594.52	411.93
594.68	374.49
594.84	327.68
594.99	271.50
595.15	379.17
595.31	236.39
595.47	278.52
595.62	234.05
595.78	236.39
595.94	322.99
596.10	311.29
596.25	243.42
596.41	273.84
596.57	259.80
596.73	210.65
596.88	238.73
597.04	264.48
597.20	355.76
597.36	311.29
597.51	252.78
597.67	280.86
597.83	215.33
597.99	332.36
598.14	271.50
598.30	341.72
598.46	290.23
598.61	257.46
598.77	236.39
598.93	234.05
599.09	262.14
599.24	301.93
599.40	337.04
599.56	346.40
599.71	266.82
599.87	320.65
600.03	304.27
600.18	248.10
600.34	210.65
600.50	273.84
600.65	222.35
600.81	248.10
600.97	241.08
601.12	315.97
601.28	297.25
601.44	315.97
601.59	203.63
601.75	262.14
601.91	234.05
602.06	217.67
602.22	301.93
602.37	308.95
602.53	255.12
602.69	351.08
602.84	327.68
603.00	294.91
603.16	308.95
603.31	355.76
603.47	301.93
603.62	271.50
603.78	259.80
603.94	198.95
604.09	234.05
604.25	257.46
604.40	269.16
604.56	276.18
604.71	269.16
604.87	255.12
605.03	217.67
605.18	229.37
605.34	311.29
605.49	191.92
605.65	245.76
605.80	255.12
605.96	290.23
606.12	250.44
606.27	320.65
606.43	285.55
606.58	273.84
606.74	299.59
606.89	308.95
607.05	468.11
607.20	496.19
607.36	447.04
607.51	437.68
607.67	351.08
607.82	351.08
607.98	325.33
608.13	271.50
608.29	248.10
608.44	327.68
608.60	341.72
608.75	374.49
608.91	332.36
609.06	491.51
609.22	578.11
609.37	657.69
609.53	624.92
609.68	566.41
609.84	526.62
609.99	491.51
610.15	454.06
610.30	475.13
610.46	540.66
610.61	533.64
610.76	697.48
