SpectraSuite Data File
++++++++++++++++++++++++++++++++++++
Date: Fri Oct 04 11:33:56 GMT-05:00 2013
User: price-jones
Dark Spectrum Present: No
Reference Spectrum Present: No
Number of Sampled Component Spectra: 1
Spectrometers: USB2+H05261
Integration Time (usec): 100000 (USB2+H05261)
Spectra Averaged: 1 (USB2+H05261)
Boxcar Smoothing: 0 (USB2+H05261)
Correct for Electrical Dark: No (USB2+H05261)
Strobe/Lamp Enabled: No (USB2+H05261)
Correct for Detector Non-linearity: No (USB2+H05261)
Correct for Stray Light: No (USB2+H05261)
Number of Pixels in Processed Spectrum: 2048
>>>>>Begin Processed Spectral Data<<<<<
365.73	35.11
365.92	35.11
366.12	35.11
366.32	0.00
366.52	0.00
366.72	77.24
366.91	0.00
367.11	0.00
367.31	0.00
367.51	0.00
367.70	0.00
367.90	0.00
368.10	0.00
368.30	23.41
368.49	0.00
368.69	9.36
368.89	23.41
369.09	11.70
369.28	0.00
369.48	0.00
369.68	2.34
369.87	7.02
370.07	0.00
370.27	72.56
370.47	56.17
370.66	65.54
370.86	49.15
371.06	121.71
371.25	182.56
371.45	100.64
371.65	79.58
371.84	126.39
372.04	117.03
372.24	84.26
372.44	93.62
372.63	131.07
372.83	203.63
373.03	133.41
373.22	121.71
373.42	138.09
373.62	126.39
373.81	145.11
374.01	231.71
374.21	126.39
374.40	86.60
374.60	184.90
374.79	170.86
374.99	175.54
375.19	203.63
375.38	147.45
375.58	161.50
375.78	175.54
375.97	220.01
376.17	210.65
376.37	177.88
376.56	163.84
376.76	124.05
376.95	107.66
377.15	88.94
377.35	114.69
377.54	159.16
377.74	205.97
377.93	140.43
378.13	100.64
378.33	138.09
378.52	105.32
378.72	107.66
378.91	140.43
379.11	98.30
379.31	184.90
379.50	112.35
379.70	168.52
379.89	189.58
380.09	177.88
380.28	114.69
380.48	149.79
380.68	163.84
380.87	105.32
381.07	51.49
381.26	170.86
381.46	194.26
381.65	161.50
381.85	166.18
382.04	170.86
382.24	98.30
382.43	86.60
382.63	173.20
382.83	100.64
383.02	163.84
383.22	241.08
383.41	112.35
383.61	126.39
383.80	126.39
384.00	44.47
384.19	173.20
384.39	53.83
384.58	105.32
384.78	110.01
384.97	138.09
385.17	133.41
385.36	140.43
385.56	182.56
385.75	117.03
385.95	126.39
386.14	142.77
386.34	81.92
386.53	205.97
386.72	121.71
386.92	170.86
387.11	241.08
387.31	205.97
387.50	152.13
387.70	70.22
387.89	154.48
388.09	145.11
388.28	93.62
388.48	147.45
388.67	156.82
388.86	117.03
389.06	180.22
389.25	149.79
389.45	147.45
389.64	194.26
389.84	182.56
390.03	128.73
390.22	81.92
390.42	105.32
390.61	163.84
390.81	138.09
391.00	102.98
391.19	210.65
391.39	191.92
391.58	168.52
391.78	110.01
391.97	166.18
392.16	128.73
392.36	222.35
392.55	198.95
392.75	173.20
392.94	161.50
393.13	138.09
393.33	100.64
393.52	128.73
393.71	131.07
393.91	91.28
394.10	79.58
394.29	145.11
394.49	191.92
394.68	224.69
394.88	187.24
395.07	175.54
395.26	191.92
395.46	81.92
395.65	102.98
395.84	105.32
396.04	220.01
396.23	138.09
396.42	135.75
396.62	100.64
396.81	196.60
397.00	79.58
397.19	163.84
397.39	60.85
397.58	95.96
397.77	100.64
397.97	110.01
398.16	170.86
398.35	187.24
398.55	117.03
398.74	177.88
398.93	138.09
399.12	175.54
399.32	212.99
399.51	128.73
399.70	133.41
399.90	145.11
400.09	140.43
400.28	88.94
400.47	131.07
400.67	182.56
400.86	177.88
401.05	156.82
401.24	154.48
401.44	250.44
401.63	205.97
401.82	142.77
402.01	102.98
402.21	182.56
402.40	175.54
402.59	180.22
402.78	133.41
402.97	138.09
403.17	191.92
403.36	191.92
403.55	154.48
403.74	163.84
403.93	241.08
404.13	177.88
404.32	163.84
404.51	196.60
404.70	170.86
404.89	114.69
405.09	243.42
405.28	147.45
405.47	149.79
405.66	117.03
405.85	142.77
406.05	88.94
406.24	145.11
406.43	145.11
406.62	198.95
406.81	245.76
407.00	250.44
407.20	177.88
407.39	124.05
407.58	135.75
407.77	128.73
407.96	133.41
408.15	138.09
408.34	196.60
408.54	110.01
408.73	182.56
408.92	140.43
409.11	77.24
409.30	210.65
409.49	194.26
409.68	205.97
409.87	100.64
410.07	156.82
410.26	231.71
410.45	107.66
410.64	133.41
410.83	126.39
411.02	142.77
411.21	173.20
411.40	208.31
411.59	177.88
411.78	149.79
411.98	203.63
412.17	182.56
412.36	119.37
412.55	173.20
412.74	201.29
412.93	170.86
413.12	198.95
413.31	168.52
413.50	177.88
413.69	201.29
413.88	138.09
414.07	121.71
414.26	138.09
414.45	173.20
414.64	175.54
414.83	156.82
415.02	107.66
415.22	203.63
415.41	163.84
415.60	231.71
415.79	107.66
415.98	124.05
416.17	163.84
416.36	154.48
416.55	187.24
416.74	287.89
416.93	184.90
417.12	201.29
417.31	205.97
417.50	187.24
417.69	217.67
417.88	191.92
418.07	163.84
418.26	203.63
418.45	234.05
418.64	255.12
418.83	222.35
419.02	212.99
419.21	215.33
419.39	168.52
419.58	271.50
419.77	243.42
419.96	168.52
420.15	210.65
420.34	177.88
420.53	203.63
420.72	208.31
420.91	152.13
421.10	138.09
421.29	227.03
421.48	154.48
421.67	173.20
421.86	149.79
422.05	170.86
422.24	133.41
422.43	124.05
422.61	182.56
422.80	184.90
422.99	168.52
423.18	203.63
423.37	187.24
423.56	210.65
423.75	196.60
423.94	145.11
424.13	121.71
424.32	163.84
424.50	117.03
424.69	163.84
424.88	257.46
425.07	131.07
425.26	227.03
425.45	215.33
425.64	236.39
425.83	234.05
426.01	208.31
426.20	145.11
426.39	147.45
426.58	182.56
426.77	168.52
426.96	229.37
427.15	189.58
427.33	147.45
427.52	112.35
427.71	196.60
427.90	180.22
428.09	241.08
428.28	117.03
428.46	149.79
428.65	105.32
428.84	194.26
429.03	210.65
429.22	163.84
429.40	210.65
429.59	159.16
429.78	220.01
429.97	180.22
430.16	105.32
430.34	217.67
430.53	212.99
430.72	173.20
430.91	152.13
431.10	145.11
431.28	149.79
431.47	180.22
431.66	262.14
431.85	105.32
432.03	194.26
432.22	203.63
432.41	184.90
432.60	212.99
432.79	194.26
432.97	304.27
433.16	306.61
433.35	248.10
433.54	259.80
433.72	187.24
433.91	191.92
434.10	222.35
434.28	220.01
434.47	229.37
434.66	212.99
434.85	161.50
435.03	241.08
435.22	372.15
435.41	383.85
435.59	397.89
435.78	341.72
435.97	196.60
436.16	227.03
436.34	161.50
436.53	189.58
436.72	201.29
436.90	161.50
437.09	208.31
437.28	210.65
437.46	131.07
437.65	170.86
437.84	166.18
438.02	100.64
438.21	152.13
438.40	205.97
438.58	88.94
438.77	152.13
438.96	170.86
439.14	114.69
439.33	205.97
439.52	189.58
439.70	191.92
439.89	210.65
440.08	145.11
440.26	131.07
440.45	229.37
440.63	117.03
440.82	196.60
441.01	205.97
441.19	140.43
441.38	138.09
441.57	170.86
441.75	203.63
441.94	187.24
442.12	138.09
442.31	147.45
442.50	175.54
442.68	212.99
442.87	147.45
443.05	147.45
443.24	149.79
443.43	217.67
443.61	210.65
443.80	156.82
443.98	180.22
444.17	224.69
444.35	177.88
444.54	227.03
444.73	212.99
444.91	184.90
445.10	131.07
445.28	145.11
445.47	95.96
445.65	177.88
445.84	180.22
446.02	212.99
446.21	191.92
446.39	203.63
446.58	210.65
446.77	182.56
446.95	126.39
447.14	170.86
447.32	159.16
447.51	180.22
447.69	243.42
447.88	184.90
448.06	208.31
448.25	215.33
448.43	114.69
448.62	194.26
448.80	191.92
448.99	198.95
449.17	229.37
449.36	149.79
449.54	250.44
449.73	156.82
449.91	315.97
450.10	152.13
450.28	241.08
450.46	273.84
450.65	238.73
450.83	189.58
451.02	163.84
451.20	168.52
451.39	149.79
451.57	189.58
451.76	149.79
451.94	205.97
452.13	191.92
452.31	229.37
452.49	201.29
452.68	133.41
452.86	175.54
453.05	170.86
453.23	210.65
453.42	252.78
453.60	229.37
453.78	168.52
453.97	182.56
454.15	215.33
454.34	138.09
454.52	156.82
454.70	215.33
454.89	203.63
455.07	208.31
455.26	175.54
455.44	255.12
455.62	201.29
455.81	161.50
455.99	248.10
456.17	145.11
456.36	189.58
456.54	222.35
456.73	196.60
456.91	180.22
457.09	212.99
457.28	222.35
457.46	222.35
457.64	224.69
457.83	212.99
458.01	217.67
458.19	184.90
458.38	124.05
458.56	161.50
458.74	262.14
458.93	224.69
459.11	184.90
459.29	163.84
459.48	191.92
459.66	182.56
459.84	222.35
460.03	334.70
460.21	173.20
460.39	145.11
460.57	208.31
460.76	152.13
460.94	203.63
461.12	224.69
461.31	236.39
461.49	166.18
461.67	191.92
461.85	266.82
462.04	182.56
462.22	664.71
462.40	159.16
462.59	194.26
462.77	215.33
462.95	102.98
463.13	238.73
463.32	182.56
463.50	280.86
463.68	269.16
463.86	170.86
464.05	170.86
464.23	161.50
464.41	189.58
464.59	184.90
464.78	187.24
464.96	145.11
465.14	301.93
465.32	152.13
465.50	161.50
465.69	229.37
465.87	126.39
466.05	259.80
466.23	154.48
466.41	252.78
466.60	191.92
466.78	257.46
466.96	196.60
467.14	259.80
467.32	191.92
467.51	250.44
467.69	182.56
467.87	212.99
468.05	187.24
468.23	222.35
468.41	227.03
468.60	205.97
468.78	138.09
468.96	189.58
469.14	222.35
469.32	147.45
469.50	191.92
469.69	224.69
469.87	285.55
470.05	262.14
470.23	222.35
470.41	168.52
470.59	231.71
470.77	243.42
470.95	227.03
471.14	210.65
471.32	208.31
471.50	198.95
471.68	217.67
471.86	259.80
472.04	184.90
472.22	215.33
472.40	180.22
472.58	196.60
472.77	198.95
472.95	63.19
473.13	217.67
473.31	243.42
473.49	110.01
473.67	224.69
473.85	217.67
474.03	156.82
474.21	210.65
474.39	269.16
474.57	252.78
474.75	91.28
474.93	173.20
475.12	227.03
475.30	210.65
475.48	187.24
475.66	231.71
475.84	196.60
476.02	236.39
476.20	170.86
476.38	215.33
476.56	266.82
476.74	241.08
476.92	161.50
477.10	224.69
477.28	227.03
477.46	187.24
477.64	229.37
477.82	259.80
478.00	269.16
478.18	201.29
478.36	220.01
478.54	255.12
478.72	135.75
478.90	88.94
479.08	241.08
479.26	245.76
479.44	175.54
479.62	159.16
479.80	168.52
479.98	201.29
480.16	159.16
480.34	231.71
480.52	205.97
480.70	175.54
480.88	210.65
481.06	163.84
481.24	278.52
481.41	201.29
481.59	255.12
481.77	285.55
481.95	205.97
482.13	252.78
482.31	243.42
482.49	222.35
482.67	212.99
482.85	227.03
483.03	217.67
483.21	266.82
483.39	252.78
483.57	170.86
483.74	248.10
483.92	227.03
484.10	227.03
484.28	217.67
484.46	297.25
484.64	180.22
484.82	166.18
485.00	311.29
485.18	191.92
485.35	252.78
485.53	248.10
485.71	250.44
485.89	161.50
486.07	290.23
486.25	229.37
486.43	315.97
486.61	180.22
486.78	271.50
486.96	142.77
487.14	243.42
487.32	194.26
487.50	304.27
487.68	234.05
487.85	236.39
488.03	203.63
488.21	262.14
488.39	248.10
488.57	241.08
488.75	255.12
488.92	538.32
489.10	327.68
489.28	325.33
489.46	241.08
489.64	252.78
489.81	262.14
489.99	255.12
490.17	229.37
490.35	285.55
490.53	294.91
490.70	198.95
490.88	325.33
491.06	259.80
491.24	245.76
491.41	299.59
491.59	264.48
491.77	297.25
491.95	220.01
492.13	236.39
492.30	290.23
492.48	208.31
492.66	283.20
492.84	241.08
493.01	290.23
493.19	259.80
493.37	273.84
493.54	210.65
493.72	273.84
493.90	248.10
494.08	224.69
494.25	313.63
494.43	210.65
494.61	257.46
494.79	280.86
494.96	248.10
495.14	231.71
495.32	269.16
495.49	264.48
495.67	217.67
495.85	327.68
496.02	315.97
496.20	250.44
496.38	210.65
496.55	266.82
496.73	271.50
496.91	327.68
497.09	294.91
497.26	210.65
497.44	210.65
497.62	224.69
497.79	182.56
497.97	248.10
498.14	210.65
498.32	299.59
498.50	287.89
498.67	248.10
498.85	248.10
499.03	205.97
499.20	283.20
499.38	241.08
499.56	271.50
499.73	278.52
499.91	208.31
500.08	259.80
500.26	126.39
500.44	255.12
500.61	271.50
500.79	220.01
500.97	276.18
501.14	264.48
501.32	210.65
501.49	301.93
501.67	255.12
501.84	180.22
502.02	248.10
502.20	201.29
502.37	269.16
502.55	229.37
502.72	252.78
502.90	248.10
503.07	290.23
503.25	262.14
503.43	266.82
503.60	325.33
503.78	236.39
503.95	273.84
504.13	177.88
504.30	259.80
504.48	229.37
504.65	217.67
504.83	264.48
505.01	236.39
505.18	227.03
505.36	264.48
505.53	210.65
505.71	259.80
505.88	264.48
506.06	194.26
506.23	276.18
506.41	163.84
506.58	285.55
506.76	287.89
506.93	189.58
507.11	308.95
507.28	262.14
507.46	245.76
507.63	322.99
507.81	290.23
507.98	229.37
508.16	337.04
508.33	259.80
508.50	315.97
508.68	201.29
508.85	201.29
509.03	220.01
509.20	271.50
509.38	308.95
509.55	255.12
509.73	234.05
509.90	257.46
510.08	238.73
510.25	280.86
510.42	210.65
510.60	238.73
510.77	255.12
510.95	351.08
511.12	187.24
511.30	297.25
511.47	306.61
511.64	355.76
511.82	248.10
511.99	210.65
512.17	290.23
512.34	208.31
512.51	255.12
512.69	292.57
512.86	273.84
513.04	262.14
513.21	205.97
513.38	266.82
513.56	224.69
513.73	168.52
513.90	191.92
514.08	266.82
514.25	297.25
514.43	236.39
514.60	198.95
514.77	264.48
514.95	327.68
515.12	238.73
515.29	269.16
515.47	257.46
515.64	283.20
515.81	264.48
515.99	243.42
516.16	294.91
516.33	287.89
516.51	255.12
516.68	201.29
516.85	257.46
517.03	194.26
517.20	252.78
517.37	264.48
517.54	234.05
517.72	266.82
517.89	248.10
518.06	269.16
518.24	315.97
518.41	215.33
518.58	330.02
518.75	318.31
518.93	306.61
519.10	259.80
519.27	152.13
519.45	304.27
519.62	280.86
519.79	327.68
519.96	266.82
520.14	250.44
520.31	351.08
520.48	327.68
520.65	227.03
520.83	252.78
521.00	248.10
521.17	322.99
521.34	269.16
521.52	227.03
521.69	325.33
521.86	330.02
522.03	217.67
522.20	330.02
522.38	238.73
522.55	395.55
522.72	276.18
522.89	266.82
523.07	313.63
523.24	313.63
523.41	257.46
523.58	234.05
523.75	184.90
523.92	301.93
524.10	297.25
524.27	266.82
524.44	276.18
524.61	257.46
524.78	220.01
524.96	271.50
525.13	231.71
525.30	285.55
525.47	306.61
525.64	278.52
525.81	229.37
525.98	236.39
526.16	266.82
526.33	212.99
526.50	220.01
526.67	266.82
526.84	205.97
527.01	222.35
527.18	266.82
527.36	252.78
527.53	205.97
527.70	304.27
527.87	271.50
528.04	299.59
528.21	280.86
528.38	292.57
528.55	264.48
528.72	297.25
528.89	365.12
529.07	234.05
529.24	280.86
529.41	227.03
529.58	264.48
529.75	264.48
529.92	262.14
530.09	245.76
530.26	290.23
530.43	292.57
530.60	320.65
530.77	280.86
530.94	252.78
531.11	262.14
531.28	252.78
531.46	278.52
531.63	294.91
531.80	255.12
531.97	208.31
532.14	313.63
532.31	341.72
532.48	351.08
532.65	386.19
532.82	414.27
532.99	397.89
533.16	332.36
533.33	299.59
533.50	306.61
533.67	325.33
533.84	409.59
534.01	416.62
534.18	339.38
534.35	341.72
534.52	255.12
534.69	400.23
534.86	301.93
535.03	264.48
535.20	306.61
535.37	339.38
535.54	360.44
535.71	306.61
535.88	280.86
536.05	351.08
536.22	322.99
536.38	264.48
536.55	311.29
536.72	257.46
536.89	243.42
537.06	264.48
537.23	325.33
537.40	241.08
537.57	184.90
537.74	325.33
537.91	311.29
538.08	330.02
538.25	395.55
538.42	311.29
538.59	322.99
538.75	283.20
538.92	341.72
539.09	280.86
539.26	390.87
539.43	634.29
539.60	1184.31
539.77	1717.95
539.94	1682.85
540.11	1196.01
540.28	823.87
540.44	685.78
540.61	440.02
540.78	409.59
540.95	510.24
541.12	512.58
541.29	418.96
541.46	512.58
541.62	564.07
541.79	505.56
541.96	465.77
542.13	552.37
542.30	421.30
542.47	465.77
542.63	449.38
542.80	461.09
542.97	550.03
543.14	475.13
543.31	521.94
543.48	425.98
543.64	496.19
543.81	526.62
543.98	425.98
544.15	433.00
544.32	512.58
544.48	468.11
544.65	489.17
544.82	440.02
544.99	456.40
545.16	498.53
545.32	533.64
545.49	638.97
545.66	856.64
545.83	877.70
546.00	854.30
546.16	671.73
546.33	601.52
546.50	528.96
546.67	533.64
546.83	351.08
547.00	425.98
547.17	362.78
547.34	351.08
547.50	411.93
547.67	402.57
547.84	362.78
548.00	351.08
548.17	407.25
548.34	365.12
548.51	379.17
548.67	374.49
548.84	255.12
549.01	360.44
549.18	369.80
549.34	290.23
549.51	404.91
549.68	402.57
549.84	388.53
550.01	369.80
550.18	418.96
550.34	416.62
550.51	271.50
550.68	280.86
550.84	269.16
551.01	294.91
551.18	365.12
551.34	308.95
551.51	383.85
551.68	264.48
551.84	285.55
552.01	344.06
552.18	280.86
552.34	339.38
552.51	259.80
552.68	292.57
552.84	304.27
553.01	346.40
553.18	294.91
553.34	245.76
553.51	337.04
553.67	351.08
553.84	292.57
554.01	257.46
554.17	348.74
554.34	311.29
554.51	313.63
554.67	313.63
554.84	318.31
555.00	315.97
555.17	372.15
555.33	304.27
555.50	351.08
555.67	311.29
555.83	330.02
556.00	297.25
556.16	397.89
556.33	353.42
556.50	266.82
556.66	259.80
556.83	229.37
556.99	215.33
557.16	236.39
557.32	222.35
557.49	259.80
557.65	273.84
557.82	292.57
557.98	245.76
558.15	280.86
558.32	271.50
558.48	220.01
558.65	255.12
558.81	337.04
558.98	280.86
559.14	250.44
559.31	341.72
559.47	271.50
559.64	266.82
559.80	285.55
559.97	271.50
560.13	273.84
560.30	269.16
560.46	259.80
560.63	250.44
560.79	250.44
560.96	255.12
561.12	259.80
561.29	255.12
561.45	245.76
561.61	322.99
561.78	390.87
561.94	301.93
562.11	283.20
562.27	322.99
562.44	278.52
562.60	229.37
562.77	222.35
562.93	304.27
563.10	297.25
563.26	255.12
563.42	276.18
563.59	292.57
563.75	294.91
563.92	297.25
564.08	285.55
564.24	243.42
564.41	341.72
564.57	255.12
564.74	283.20
564.90	271.50
565.07	346.40
565.23	292.57
565.39	313.63
565.56	287.89
565.72	292.57
565.88	308.95
566.05	224.69
566.21	231.71
566.38	372.15
566.54	360.44
566.70	271.50
566.87	292.57
567.03	341.72
567.19	276.18
567.36	332.36
567.52	255.12
567.68	262.14
567.85	320.65
568.01	285.55
568.17	297.25
568.34	292.57
568.50	297.25
568.66	231.71
568.83	421.30
568.99	322.99
569.15	285.55
569.32	372.15
569.48	217.67
569.64	273.84
569.81	306.61
569.97	294.91
570.13	311.29
570.30	205.97
570.46	280.86
570.62	201.29
570.78	262.14
570.95	208.31
571.11	339.38
571.27	285.55
571.43	241.08
571.60	306.61
571.76	269.16
571.92	341.72
572.09	287.89
572.25	212.99
572.41	264.48
572.57	255.12
572.74	264.48
572.90	355.76
573.06	243.42
573.22	283.20
573.38	264.48
573.55	327.68
573.71	365.12
573.87	311.29
574.03	182.56
574.20	334.70
574.36	383.85
574.52	418.96
574.68	325.33
574.84	365.12
575.01	325.33
575.17	292.57
575.33	266.82
575.49	386.19
575.65	306.61
575.82	425.98
575.98	559.39
576.14	695.14
576.30	793.44
576.46	669.39
576.62	575.77
576.79	552.37
576.95	470.45
577.11	374.49
577.27	255.12
577.43	341.72
577.59	346.40
577.75	315.97
577.92	248.10
578.08	285.55
578.24	273.84
578.40	334.70
578.56	381.51
578.72	491.51
578.88	437.68
579.04	379.17
579.21	379.17
579.37	390.87
579.53	395.55
579.69	318.31
579.85	397.89
580.01	470.45
580.17	479.81
580.33	433.00
580.49	416.62
580.65	358.10
580.82	353.42
580.98	447.04
581.14	334.70
581.30	416.62
581.46	498.53
581.62	669.39
581.78	713.86
581.94	690.46
582.10	521.94
582.26	510.24
582.42	535.98
582.58	505.56
582.74	454.06
582.90	463.43
583.06	526.62
583.22	468.11
583.38	540.66
583.54	587.47
583.70	671.73
583.86	814.51
584.02	861.32
584.18	1043.88
584.34	1282.61
584.50	3267.39
584.66	24723.08
584.82	56835.23
584.98	65535.00
585.14	62717.00
585.30	48769.74
585.46	29685.01
585.62	18265.54
585.78	8407.20
585.94	3499.10
586.10	1673.48
586.26	1144.52
586.42	924.51
586.58	751.31
586.74	737.27
586.90	697.48
587.06	713.86
587.22	702.16
587.38	580.45
587.54	1261.55
587.70	3611.45
587.86	5832.62
588.02	6485.62
588.18	4711.50
588.34	3089.51
588.49	1884.13
588.65	1284.95
588.81	648.33
588.97	456.40
589.13	400.23
589.29	400.23
589.45	386.19
589.61	369.80
589.77	461.09
589.93	437.68
590.08	552.37
590.24	545.34
590.40	517.26
590.56	486.83
590.72	514.92
590.88	355.76
591.04	472.79
591.20	411.93
591.35	404.91
591.51	447.04
591.67	383.85
591.83	320.65
591.99	388.53
592.15	330.02
592.31	402.57
592.46	374.49
592.62	355.76
592.78	381.51
592.94	475.13
593.10	433.00
593.26	355.76
593.41	468.11
593.57	449.38
593.73	669.39
593.89	3068.44
594.05	7609.08
594.20	10773.49
594.36	10281.97
594.52	7096.50
594.68	4353.40
594.84	2890.56
594.99	1736.68
595.15	849.61
595.31	580.45
595.47	416.62
595.62	355.76
595.78	440.02
595.94	372.15
596.10	372.15
596.25	351.08
596.41	435.34
596.57	315.97
596.73	297.25
596.88	564.07
597.04	1465.18
597.20	2525.44
597.36	2874.18
597.51	2204.78
597.67	1439.43
597.83	1027.50
597.99	781.74
598.14	526.62
598.30	390.87
598.46	365.12
598.61	458.74
598.77	489.17
598.93	365.12
599.09	365.12
599.24	367.46
599.40	367.46
599.56	294.91
599.71	292.57
599.87	313.63
600.03	250.44
600.18	294.91
600.34	292.57
600.50	334.70
600.65	341.72
600.81	374.49
600.97	294.91
601.12	313.63
601.28	325.33
601.44	332.36
601.59	290.23
601.75	280.86
601.91	353.42
602.06	334.70
602.22	393.21
602.37	751.31
602.53	1767.10
602.69	2710.34
602.84	2850.77
603.00	2083.08
603.16	1416.02
603.31	1043.88
603.47	774.72
603.62	388.53
603.78	346.40
603.94	386.19
604.09	372.15
604.25	313.63
604.40	390.87
604.56	334.70
604.71	311.29
604.87	306.61
605.03	351.08
605.18	269.16
605.34	292.57
605.49	252.78
605.65	355.76
605.80	386.19
605.96	308.95
606.12	374.49
606.27	447.04
606.43	374.49
606.58	454.06
606.74	807.48
606.89	3522.51
607.05	7321.20
607.20	9474.49
607.36	7875.90
607.51	5291.95
607.67	3426.54
607.82	2415.43
607.98	1383.26
608.13	751.31
608.29	645.99
608.44	596.84
608.60	482.15
608.75	535.98
608.91	1348.15
609.06	5605.58
609.22	12020.99
609.37	16152.04
609.53	14349.82
609.68	9497.89
609.84	6239.87
609.99	4325.31
610.15	2396.71
