SpectraSuite Data File
++++++++++++++++++++++++++++++++++++
Date: Fri Oct 04 11:33:44 GMT-05:00 2013
User: price-jones
Dark Spectrum Present: No
Reference Spectrum Present: No
Number of Sampled Component Spectra: 1
Spectrometers: USB2+H05261
Integration Time (usec): 100000 (USB2+H05261)
Spectra Averaged: 1 (USB2+H05261)
Boxcar Smoothing: 0 (USB2+H05261)
Correct for Electrical Dark: No (USB2+H05261)
Strobe/Lamp Enabled: No (USB2+H05261)
Correct for Detector Non-linearity: No (USB2+H05261)
Correct for Stray Light: No (USB2+H05261)
Number of Pixels in Processed Spectrum: 2048
>>>>>Begin Processed Spectral Data<<<<<
365.73	163.84
365.92	163.84
366.12	163.84
366.32	4.68
366.52	4.68
366.72	18.72
366.91	70.22
367.11	0.00
367.31	0.00
367.51	0.00
367.70	0.00
367.90	0.00
368.10	0.00
368.30	0.00
368.49	0.00
368.69	0.00
368.89	0.00
369.09	4.68
369.28	14.04
369.48	42.13
369.68	39.79
369.87	37.45
370.07	16.38
370.27	135.75
370.47	11.70
370.66	18.72
370.86	72.56
371.06	138.09
371.25	194.26
371.45	95.96
371.65	149.79
371.84	156.82
372.04	170.86
372.24	110.01
372.44	138.09
372.63	93.62
372.83	161.50
373.03	142.77
373.22	117.03
373.42	194.26
373.62	117.03
373.81	154.48
374.01	191.92
374.21	145.11
374.40	138.09
374.60	180.22
374.79	177.88
374.99	135.75
375.19	114.69
375.38	184.90
375.58	217.67
375.78	173.20
375.97	156.82
376.17	208.31
376.37	105.32
376.56	166.18
376.76	128.73
376.95	156.82
377.15	119.37
377.35	128.73
377.54	135.75
377.74	105.32
377.93	163.84
378.13	107.66
378.33	168.52
378.52	117.03
378.72	205.97
378.91	128.73
379.11	100.64
379.31	107.66
379.50	147.45
379.70	105.32
379.89	168.52
380.09	124.05
380.28	95.96
380.48	124.05
380.68	124.05
380.87	142.77
381.07	100.64
381.26	166.18
381.46	159.16
381.65	114.69
381.85	182.56
382.04	138.09
382.24	191.92
382.43	198.95
382.63	102.98
382.83	56.17
383.02	145.11
383.22	198.95
383.41	194.26
383.61	100.64
383.80	154.48
384.00	159.16
384.19	117.03
384.39	177.88
384.58	180.22
384.78	215.33
384.97	184.90
385.17	184.90
385.36	133.41
385.56	133.41
385.75	84.26
385.95	149.79
386.14	149.79
386.34	175.54
386.53	217.67
386.72	95.96
386.92	140.43
387.11	159.16
387.31	159.16
387.50	170.86
387.70	152.13
387.89	215.33
388.09	159.16
388.28	110.01
388.48	159.16
388.67	168.52
388.86	154.48
389.06	152.13
389.25	205.97
389.45	93.62
389.64	182.56
389.84	203.63
390.03	154.48
390.22	198.95
390.42	124.05
390.61	152.13
390.81	140.43
391.00	166.18
391.19	105.32
391.39	95.96
391.58	145.11
391.78	112.35
391.97	142.77
392.16	128.73
392.36	168.52
392.55	119.37
392.75	112.35
392.94	126.39
393.13	128.73
393.33	187.24
393.52	182.56
393.71	175.54
393.91	107.66
394.10	142.77
394.29	191.92
394.49	163.84
394.68	245.76
394.88	236.39
395.07	131.07
395.26	145.11
395.46	142.77
395.65	173.20
395.84	154.48
396.04	187.24
396.23	149.79
396.42	121.71
396.62	184.90
396.81	163.84
397.00	229.37
397.19	135.75
397.39	149.79
397.58	147.45
397.77	135.75
397.97	163.84
398.16	126.39
398.35	72.56
398.55	86.60
398.74	201.29
398.93	198.95
399.12	135.75
399.32	196.60
399.51	110.01
399.70	117.03
399.90	163.84
400.09	126.39
400.28	166.18
400.47	170.86
400.67	133.41
400.86	191.92
401.05	159.16
401.24	86.60
401.44	166.18
401.63	166.18
401.82	177.88
402.01	182.56
402.21	163.84
402.40	175.54
402.59	138.09
402.78	126.39
402.97	117.03
403.17	138.09
403.36	163.84
403.55	149.79
403.74	205.97
403.93	243.42
404.13	210.65
404.32	168.52
404.51	112.35
404.70	140.43
404.89	173.20
405.09	201.29
405.28	142.77
405.47	128.73
405.66	217.67
405.85	177.88
406.05	156.82
406.24	152.13
406.43	149.79
406.62	210.65
406.81	184.90
407.00	196.60
407.20	187.24
407.39	117.03
407.58	37.45
407.77	121.71
407.96	161.50
408.15	236.39
408.34	156.82
408.54	159.16
408.73	93.62
408.92	142.77
409.11	180.22
409.30	196.60
409.49	126.39
409.68	147.45
409.87	208.31
410.07	154.48
410.26	133.41
410.45	119.37
410.64	222.35
410.83	166.18
411.02	145.11
411.21	166.18
411.40	198.95
411.59	149.79
411.78	140.43
411.98	152.13
412.17	119.37
412.36	145.11
412.55	201.29
412.74	198.95
412.93	238.73
413.12	173.20
413.31	180.22
413.50	175.54
413.69	187.24
413.88	259.80
414.07	126.39
414.26	166.18
414.45	198.95
414.64	182.56
414.83	205.97
415.02	227.03
415.22	248.10
415.41	147.45
415.60	187.24
415.79	98.30
415.98	173.20
416.17	194.26
416.36	152.13
416.55	46.81
416.74	166.18
416.93	198.95
417.12	170.86
417.31	180.22
417.50	208.31
417.69	255.12
417.88	245.76
418.07	128.73
418.26	140.43
418.45	187.24
418.64	269.16
418.83	301.93
419.02	229.37
419.21	196.60
419.39	227.03
419.58	201.29
419.77	205.97
419.96	140.43
420.15	201.29
420.34	177.88
420.53	184.90
420.72	194.26
420.91	177.88
421.10	159.16
421.29	224.69
421.48	187.24
421.67	182.56
421.86	182.56
422.05	184.90
422.24	187.24
422.43	217.67
422.61	147.45
422.80	159.16
422.99	189.58
423.18	124.05
423.37	189.58
423.56	145.11
423.75	187.24
423.94	135.75
424.13	177.88
424.32	145.11
424.50	201.29
424.69	163.84
424.88	175.54
425.07	224.69
425.26	173.20
425.45	191.92
425.64	280.86
425.83	252.78
426.01	259.80
426.20	229.37
426.39	191.92
426.58	124.05
426.77	110.01
426.96	283.20
427.15	201.29
427.33	205.97
427.52	227.03
427.71	184.90
427.90	191.92
428.09	93.62
428.28	147.45
428.46	110.01
428.65	234.05
428.84	215.33
429.03	203.63
429.22	170.86
429.40	121.71
429.59	154.48
429.78	194.26
429.97	124.05
430.16	154.48
430.34	117.03
430.53	194.26
430.72	191.92
430.91	208.31
431.10	210.65
431.28	220.01
431.47	177.88
431.66	224.69
431.85	161.50
432.03	182.56
432.22	187.24
432.41	128.73
432.60	208.31
432.79	220.01
432.97	257.46
433.16	245.76
433.35	215.33
433.54	198.95
433.72	149.79
433.91	215.33
434.10	191.92
434.28	276.18
434.47	208.31
434.66	154.48
434.85	147.45
435.03	175.54
435.22	297.25
435.41	383.85
435.59	355.76
435.78	362.78
435.97	243.42
436.16	173.20
436.34	173.20
436.53	138.09
436.72	163.84
436.90	182.56
437.09	159.16
437.28	145.11
437.46	205.97
437.65	198.95
437.84	220.01
438.02	201.29
438.21	236.39
438.40	142.77
438.58	124.05
438.77	222.35
438.96	194.26
439.14	184.90
439.33	215.33
439.52	140.43
439.70	170.86
439.89	266.82
440.08	166.18
440.26	234.05
440.45	292.57
440.63	170.86
440.82	168.52
441.01	196.60
441.19	154.48
441.38	250.44
441.57	142.77
441.75	201.29
441.94	177.88
442.12	184.90
442.31	196.60
442.50	166.18
442.68	154.48
442.87	187.24
443.05	166.18
443.24	170.86
443.43	177.88
443.61	203.63
443.80	241.08
443.98	227.03
444.17	63.19
444.35	236.39
444.54	198.95
444.73	126.39
444.91	278.52
445.10	163.84
445.28	215.33
445.47	156.82
445.65	236.39
445.84	159.16
446.02	180.22
446.21	180.22
446.39	161.50
446.58	231.71
446.77	166.18
446.95	191.92
447.14	224.69
447.32	198.95
447.51	191.92
447.69	220.01
447.88	187.24
448.06	210.65
448.25	222.35
448.43	184.90
448.62	159.16
448.80	166.18
448.99	196.60
449.17	177.88
449.36	133.41
449.54	175.54
449.73	173.20
449.91	161.50
450.10	166.18
450.28	217.67
450.46	231.71
450.65	189.58
450.83	236.39
451.02	241.08
451.20	149.79
451.39	124.05
451.57	173.20
451.76	227.03
451.94	161.50
452.13	231.71
452.31	220.01
452.49	231.71
452.68	159.16
452.86	140.43
453.05	210.65
453.23	264.48
453.42	140.43
453.60	152.13
453.78	175.54
453.97	187.24
454.15	222.35
454.34	205.97
454.52	156.82
454.70	248.10
454.89	241.08
455.07	210.65
455.26	217.67
455.44	222.35
455.62	194.26
455.81	187.24
455.99	189.58
456.17	124.05
456.36	140.43
456.54	142.77
456.73	191.92
456.91	210.65
457.09	135.75
457.28	271.50
457.46	166.18
457.64	156.82
457.83	72.56
458.01	175.54
458.19	177.88
458.38	222.35
458.56	241.08
458.74	191.92
458.93	236.39
459.11	152.13
459.29	201.29
459.48	229.37
459.66	262.14
459.84	250.44
460.03	362.78
460.21	269.16
460.39	152.13
460.57	205.97
460.76	215.33
460.94	184.90
461.12	243.42
461.31	198.95
461.49	152.13
461.67	191.92
461.85	231.71
462.04	196.60
462.22	585.13
462.40	191.92
462.59	194.26
462.77	177.88
462.95	196.60
463.13	177.88
463.32	212.99
463.50	215.33
463.68	220.01
463.86	252.78
464.05	245.76
464.23	238.73
464.41	166.18
464.59	133.41
464.78	145.11
464.96	142.77
465.14	203.63
465.32	147.45
465.50	208.31
465.69	217.67
465.87	117.03
466.05	241.08
466.23	95.96
466.41	117.03
466.60	152.13
466.78	196.60
466.96	229.37
467.14	170.86
467.32	203.63
467.51	229.37
467.69	189.58
467.87	231.71
468.05	229.37
468.23	248.10
468.41	224.69
468.60	117.03
468.78	217.67
468.96	147.45
469.14	147.45
469.32	196.60
469.50	145.11
469.69	184.90
469.87	212.99
470.05	212.99
470.23	166.18
470.41	159.16
470.59	170.86
470.77	175.54
470.95	215.33
471.14	269.16
471.32	184.90
471.50	227.03
471.68	133.41
471.86	220.01
472.04	224.69
472.22	245.76
472.40	184.90
472.58	175.54
472.77	182.56
472.95	168.52
473.13	255.12
473.31	210.65
473.49	180.22
473.67	159.16
473.85	163.84
474.03	243.42
474.21	234.05
474.39	280.86
474.57	208.31
474.75	159.16
474.93	88.94
475.12	201.29
475.30	128.73
475.48	133.41
475.66	170.86
475.84	241.08
476.02	201.29
476.20	201.29
476.38	203.63
476.56	294.91
476.74	222.35
476.92	194.26
477.10	229.37
477.28	243.42
477.46	229.37
477.64	208.31
477.82	229.37
478.00	262.14
478.18	245.76
478.36	212.99
478.54	220.01
478.72	243.42
478.90	212.99
479.08	231.71
479.26	222.35
479.44	182.56
479.62	208.31
479.80	196.60
479.98	220.01
480.16	184.90
480.34	255.12
480.52	191.92
480.70	215.33
480.88	201.29
481.06	248.10
481.24	203.63
481.41	168.52
481.59	182.56
481.77	262.14
481.95	182.56
482.13	203.63
482.31	217.67
482.49	259.80
482.67	163.84
482.85	217.67
483.03	276.18
483.21	205.97
483.39	231.71
483.57	231.71
483.74	212.99
483.92	205.97
484.10	208.31
484.28	187.24
484.46	248.10
484.64	236.39
484.82	248.10
485.00	222.35
485.18	273.84
485.35	234.05
485.53	128.73
485.71	203.63
485.89	234.05
486.07	191.92
486.25	262.14
486.43	227.03
486.61	315.97
486.78	241.08
486.96	262.14
487.14	231.71
487.32	280.86
487.50	205.97
487.68	210.65
487.85	208.31
488.03	266.82
488.21	292.57
488.39	252.78
488.57	203.63
488.75	187.24
488.92	531.30
489.10	215.33
489.28	259.80
489.46	168.52
489.64	212.99
489.81	290.23
489.99	205.97
490.17	250.44
490.35	248.10
490.53	252.78
490.70	135.75
490.88	346.40
491.06	224.69
491.24	262.14
491.41	269.16
491.59	241.08
491.77	262.14
491.95	205.97
492.13	252.78
492.30	170.86
492.48	301.93
492.66	224.69
492.84	285.55
493.01	252.78
493.19	140.43
493.37	294.91
493.54	332.36
493.72	198.95
493.90	276.18
494.08	168.52
494.25	271.50
494.43	327.68
494.61	159.16
494.79	248.10
494.96	191.92
495.14	285.55
495.32	283.20
495.49	308.95
495.67	198.95
495.85	191.92
496.02	191.92
496.20	238.73
496.38	269.16
496.55	173.20
496.73	292.57
496.91	210.65
497.09	278.52
497.26	287.89
497.44	299.59
497.62	224.69
497.79	234.05
497.97	285.55
498.14	255.12
498.32	297.25
498.50	280.86
498.67	224.69
498.85	259.80
499.03	163.84
499.20	212.99
499.38	271.50
499.56	271.50
499.73	308.95
499.91	224.69
500.08	234.05
500.26	212.99
500.44	215.33
500.61	236.39
500.79	191.92
500.97	191.92
501.14	238.73
501.32	264.48
501.49	266.82
501.67	259.80
501.84	238.73
502.02	203.63
502.20	266.82
502.37	231.71
502.55	252.78
502.72	287.89
502.90	229.37
503.07	280.86
503.25	215.33
503.43	285.55
503.60	276.18
503.78	252.78
503.95	280.86
504.13	208.31
504.30	266.82
504.48	241.08
504.65	238.73
504.83	241.08
505.01	271.50
505.18	250.44
505.36	280.86
505.53	222.35
505.71	269.16
505.88	259.80
506.06	220.01
506.23	180.22
506.41	205.97
506.58	255.12
506.76	208.31
506.93	227.03
507.11	301.93
507.28	177.88
507.46	241.08
507.63	273.84
507.81	292.57
507.98	294.91
508.16	234.05
508.33	184.90
508.50	259.80
508.68	283.20
508.85	313.63
509.03	229.37
509.20	287.89
509.38	285.55
509.55	257.46
509.73	231.71
509.90	297.25
510.08	184.90
510.25	250.44
510.42	301.93
510.60	252.78
510.77	255.12
510.95	229.37
511.12	318.31
511.30	334.70
511.47	280.86
511.64	376.83
511.82	273.84
511.99	273.84
512.17	189.58
512.34	191.92
512.51	252.78
512.69	257.46
512.86	346.40
513.04	250.44
513.21	257.46
513.38	182.56
513.56	259.80
513.73	184.90
513.90	276.18
514.08	311.29
514.25	276.18
514.43	372.15
514.60	264.48
514.77	243.42
514.95	273.84
515.12	283.20
515.29	327.68
515.47	255.12
515.64	283.20
515.81	285.55
515.99	304.27
516.16	299.59
516.33	259.80
516.51	266.82
516.68	243.42
516.85	191.92
517.03	149.79
517.20	212.99
517.37	220.01
517.54	238.73
517.72	252.78
517.89	224.69
518.06	184.90
518.24	227.03
518.41	304.27
518.58	241.08
518.75	182.56
518.93	280.86
519.10	243.42
519.27	250.44
519.45	278.52
519.62	262.14
519.79	224.69
519.96	271.50
520.14	276.18
520.31	299.59
520.48	222.35
520.65	297.25
520.83	234.05
521.00	322.99
521.17	271.50
521.34	325.33
521.52	231.71
521.69	278.52
521.86	327.68
522.03	283.20
522.20	259.80
522.38	273.84
522.55	198.95
522.72	212.99
522.89	318.31
523.07	315.97
523.24	292.57
523.41	182.56
523.58	250.44
523.75	290.23
523.92	257.46
524.10	255.12
524.27	248.10
524.44	297.25
524.61	234.05
524.78	283.20
524.96	353.42
525.13	227.03
525.30	301.93
525.47	280.86
525.64	276.18
525.81	344.06
525.98	283.20
526.16	313.63
526.33	166.18
526.50	245.76
526.67	201.29
526.84	194.26
527.01	311.29
527.18	313.63
527.36	205.97
527.53	217.67
527.70	264.48
527.87	278.52
528.04	313.63
528.21	280.86
528.38	248.10
528.55	341.72
528.72	344.06
528.89	294.91
529.07	346.40
529.24	156.82
529.41	297.25
529.58	287.89
529.75	297.25
529.92	269.16
530.09	332.36
530.26	322.99
530.43	287.89
530.60	297.25
530.77	205.97
530.94	299.59
531.11	327.68
531.28	287.89
531.46	299.59
531.63	327.68
531.80	245.76
531.97	259.80
532.14	241.08
532.31	287.89
532.48	269.16
532.65	344.06
532.82	458.74
532.99	362.78
533.16	353.42
533.33	231.71
533.50	231.71
533.67	313.63
533.84	388.53
534.01	451.72
534.18	411.93
534.35	301.93
534.52	241.08
534.69	386.19
534.86	313.63
535.03	327.68
535.20	278.52
535.37	264.48
535.54	266.82
535.71	283.20
535.88	332.36
536.05	294.91
536.22	311.29
536.38	212.99
536.55	308.95
536.72	287.89
536.89	283.20
537.06	341.72
537.23	304.27
537.40	311.29
537.57	271.50
537.74	379.17
537.91	294.91
538.08	311.29
538.25	294.91
538.42	252.78
538.59	273.84
538.75	271.50
538.92	365.12
539.09	337.04
539.26	362.78
539.43	510.24
539.60	987.71
539.77	1584.54
539.94	1640.72
540.11	1184.31
540.28	781.74
540.44	678.76
540.61	458.74
540.78	430.66
540.95	430.66
541.12	505.56
541.29	472.79
541.46	545.34
541.62	505.56
541.79	500.87
541.96	463.43
542.13	470.45
542.30	454.06
542.47	472.79
542.63	407.25
542.80	500.87
542.97	477.47
543.14	454.06
543.31	428.32
543.48	423.64
543.64	416.62
543.81	449.38
543.98	402.57
544.15	510.24
544.32	449.38
544.48	414.27
544.65	409.59
544.82	454.06
544.99	514.92
545.16	479.81
545.32	409.59
545.49	498.53
545.66	709.18
545.83	851.96
546.00	697.48
546.16	615.56
546.33	512.58
546.50	362.78
546.67	463.43
546.83	428.32
547.00	337.04
547.17	383.85
547.34	374.49
547.50	348.74
547.67	404.91
547.84	369.80
548.00	421.30
548.17	313.63
548.34	332.36
548.51	458.74
548.67	404.91
548.84	362.78
549.01	369.80
549.18	372.15
549.34	285.55
549.51	346.40
549.68	299.59
549.84	365.12
550.01	271.50
550.18	369.80
550.34	360.44
550.51	245.76
550.68	227.03
550.84	362.78
551.01	379.17
551.18	262.14
551.34	315.97
551.51	234.05
551.68	308.95
551.84	330.02
552.01	278.52
552.18	243.42
552.34	339.38
552.51	287.89
552.68	304.27
552.84	337.04
553.01	348.74
553.18	341.72
553.34	273.84
553.51	184.90
553.67	196.60
553.84	318.31
554.01	220.01
554.17	297.25
554.34	297.25
554.51	355.76
554.67	287.89
554.84	341.72
555.00	327.68
555.17	227.03
555.33	325.33
555.50	301.93
555.67	283.20
555.83	271.50
556.00	313.63
556.16	484.49
556.33	299.59
556.50	301.93
556.66	250.44
556.83	297.25
556.99	252.78
557.16	334.70
557.32	262.14
557.49	273.84
557.65	297.25
557.82	320.65
557.98	248.10
558.15	266.82
558.32	262.14
558.48	313.63
558.65	250.44
558.81	255.12
558.98	315.97
559.14	163.84
559.31	294.91
559.47	212.99
559.64	266.82
559.80	266.82
559.97	177.88
560.13	208.31
560.30	243.42
560.46	346.40
560.63	266.82
560.79	339.38
560.96	269.16
561.12	215.33
561.29	238.73
561.45	297.25
561.61	262.14
561.78	330.02
561.94	250.44
562.11	285.55
562.27	245.76
562.44	252.78
562.60	266.82
562.77	271.50
562.93	271.50
563.10	220.01
563.26	276.18
563.42	315.97
563.59	327.68
563.75	294.91
563.92	255.12
564.08	315.97
564.24	292.57
564.41	332.36
564.57	262.14
564.74	257.46
564.90	327.68
565.07	330.02
565.23	285.55
565.39	322.99
565.56	287.89
565.72	334.70
565.88	224.69
566.05	180.22
566.21	224.69
566.38	304.27
566.54	358.10
566.70	294.91
566.87	276.18
567.03	322.99
567.19	243.42
567.36	262.14
567.52	212.99
567.68	320.65
567.85	238.73
568.01	210.65
568.17	255.12
568.34	273.84
568.50	299.59
568.66	308.95
568.83	367.46
568.99	315.97
569.15	259.80
569.32	231.71
569.48	208.31
569.64	220.01
569.81	217.67
569.97	273.84
570.13	299.59
570.30	238.73
570.46	283.20
570.62	306.61
570.78	273.84
570.95	224.69
571.11	285.55
571.27	273.84
571.43	231.71
571.60	266.82
571.76	337.04
571.92	252.78
572.09	280.86
572.25	278.52
572.41	252.78
572.57	322.99
572.74	320.65
572.90	255.12
573.06	313.63
573.22	248.10
573.38	241.08
573.55	234.05
573.71	311.29
573.87	264.48
574.03	273.84
574.20	334.70
574.36	374.49
574.52	372.15
574.68	395.55
574.84	400.23
575.01	325.33
575.17	285.55
575.33	243.42
575.49	297.25
575.65	313.63
575.82	330.02
575.98	575.77
576.14	784.08
576.30	725.57
576.46	704.50
576.62	491.51
576.79	505.56
576.95	425.98
577.11	348.74
577.27	278.52
577.43	294.91
577.59	318.31
577.75	297.25
577.92	306.61
578.08	299.59
578.24	320.65
578.40	304.27
578.56	297.25
578.72	416.62
578.88	447.04
579.04	292.57
579.21	404.91
579.37	400.23
579.53	290.23
579.69	383.85
579.85	407.25
580.01	442.36
580.17	414.27
580.33	411.93
580.49	395.55
580.65	348.74
580.82	381.51
580.98	355.76
581.14	435.34
581.30	461.09
581.46	477.47
581.62	678.76
581.78	648.33
581.94	645.99
582.10	554.71
582.26	550.03
582.42	468.11
582.58	430.66
582.74	496.19
582.90	470.45
583.06	451.72
583.22	440.02
583.38	517.26
583.54	575.77
583.70	655.35
583.86	784.08
584.02	863.66
584.18	1032.18
584.34	1261.55
584.50	3021.63
584.66	22424.67
584.82	55543.25
584.98	65312.65
585.14	62791.89
585.30	48924.22
585.46	29797.36
585.62	18284.26
585.78	8517.21
585.94	3218.24
586.10	1652.42
586.26	1116.44
586.42	954.94
586.58	727.91
586.74	636.63
586.90	737.27
587.06	662.37
587.22	702.16
587.38	650.67
587.54	1207.72
587.70	3342.28
587.86	5694.52
588.02	6415.41
588.18	4465.74
588.34	2986.52
588.49	1895.83
588.65	1200.69
588.81	730.25
588.97	444.70
589.13	400.23
589.29	407.25
589.45	437.68
589.61	383.85
589.77	458.74
589.93	468.11
590.08	468.11
590.24	550.03
590.40	526.62
590.56	416.62
590.72	442.36
590.88	334.70
591.04	402.57
591.20	372.15
591.35	468.11
591.51	423.64
591.67	351.08
591.83	376.83
591.99	386.19
592.15	365.12
592.31	369.80
592.46	395.55
592.62	437.68
592.78	386.19
592.94	386.19
593.10	341.72
593.26	414.27
593.41	449.38
593.57	365.12
593.73	594.50
593.89	2686.94
594.05	7000.54
594.20	10698.59
594.36	10356.87
594.52	6899.90
594.68	4131.05
594.84	2888.22
594.99	1568.16
595.15	772.38
595.31	486.83
595.47	365.12
595.62	327.68
595.78	339.38
595.94	369.80
596.10	428.32
596.25	440.02
596.41	386.19
596.57	248.10
596.73	414.27
596.88	622.58
597.04	1369.21
597.20	2289.04
597.36	2724.38
597.51	2052.65
597.67	1416.02
597.83	990.05
597.99	699.82
598.14	444.70
598.30	440.02
598.46	386.19
598.61	425.98
598.77	376.83
598.93	390.87
599.09	332.36
599.24	320.65
599.40	367.46
599.56	327.68
599.71	266.82
599.87	339.38
600.03	341.72
600.18	325.33
600.34	269.16
600.50	330.02
600.65	327.68
600.81	346.40
600.97	266.82
601.12	283.20
601.28	341.72
601.44	376.83
601.59	250.44
601.75	273.84
601.91	376.83
602.06	252.78
602.22	416.62
602.37	716.20
602.53	1706.25
602.69	2717.36
602.84	2949.08
603.00	2118.18
603.16	1469.86
603.31	933.87
603.47	746.63
603.62	458.74
603.78	393.21
603.94	367.46
604.09	369.80
604.25	395.55
604.40	301.93
604.56	280.86
604.71	353.42
604.87	360.44
605.03	409.59
605.18	278.52
605.34	381.51
605.49	322.99
605.65	383.85
605.80	367.46
605.96	411.93
606.12	372.15
606.27	395.55
606.43	367.46
606.58	388.53
606.74	763.01
606.89	3141.00
607.05	6588.61
607.20	9174.90
607.36	7698.02
607.51	5078.96
607.67	3300.16
607.82	2200.10
607.98	1334.11
608.13	739.61
608.29	507.90
608.44	507.90
608.60	479.81
608.75	564.07
608.91	1102.39
609.06	5046.20
609.22	11480.33
609.37	15854.79
609.53	14141.52
609.68	9324.69
609.84	6097.10
609.99	4191.90
