SpectraSuite Data File
++++++++++++++++++++++++++++++++++++
Date: Fri Oct 04 11:33:45 GMT-05:00 2013
User: price-jones
Dark Spectrum Present: No
Reference Spectrum Present: No
Number of Sampled Component Spectra: 1
Spectrometers: USB2+H05261
Integration Time (usec): 100000 (USB2+H05261)
Spectra Averaged: 1 (USB2+H05261)
Boxcar Smoothing: 0 (USB2+H05261)
Correct for Electrical Dark: No (USB2+H05261)
Strobe/Lamp Enabled: No (USB2+H05261)
Correct for Detector Non-linearity: No (USB2+H05261)
Correct for Stray Light: No (USB2+H05261)
Number of Pixels in Processed Spectrum: 2048
>>>>>Begin Processed Spectral Data<<<<<
365.73	44.47
365.92	44.47
366.12	44.47
366.32	0.00
366.52	0.00
366.72	0.00
366.91	0.00
367.11	28.09
367.31	0.00
367.51	0.00
367.70	0.00
367.90	9.36
368.10	0.00
368.30	0.00
368.49	0.00
368.69	35.11
368.89	14.04
369.09	28.09
369.28	0.00
369.48	0.00
369.68	60.85
369.87	9.36
370.07	46.81
370.27	16.38
370.47	79.58
370.66	58.51
370.86	44.47
371.06	112.35
371.25	124.05
371.45	30.43
371.65	110.01
371.84	128.73
372.04	42.13
372.24	44.47
372.44	84.26
372.63	156.82
372.83	229.37
373.03	88.94
373.22	126.39
373.42	154.48
373.62	142.77
373.81	133.41
374.01	98.30
374.21	105.32
374.40	84.26
374.60	168.52
374.79	140.43
374.99	198.95
375.19	110.01
375.38	215.33
375.58	173.20
375.78	105.32
375.97	173.20
376.17	177.88
376.37	124.05
376.56	241.08
376.76	126.39
376.95	161.50
377.15	191.92
377.35	110.01
377.54	131.07
377.74	208.31
377.93	173.20
378.13	102.98
378.33	154.48
378.52	152.13
378.72	189.58
378.91	177.88
379.11	177.88
379.31	187.24
379.50	138.09
379.70	128.73
379.89	156.82
380.09	152.13
380.28	98.30
380.48	170.86
380.68	95.96
380.87	98.30
381.07	156.82
381.26	79.58
381.46	121.71
381.65	102.98
381.85	119.37
382.04	149.79
382.24	175.54
382.43	170.86
382.63	161.50
382.83	86.60
383.02	184.90
383.22	166.18
383.41	152.13
383.61	180.22
383.80	63.19
384.00	126.39
384.19	88.94
384.39	149.79
384.58	79.58
384.78	117.03
384.97	142.77
385.17	105.32
385.36	135.75
385.56	128.73
385.75	107.66
385.95	98.30
386.14	117.03
386.34	121.71
386.53	145.11
386.72	147.45
386.92	119.37
387.11	138.09
387.31	184.90
387.50	175.54
387.70	145.11
387.89	180.22
388.09	91.28
388.28	112.35
388.48	84.26
388.67	152.13
388.86	51.49
389.06	124.05
389.25	133.41
389.45	154.48
389.64	51.49
389.84	161.50
390.03	107.66
390.22	168.52
390.42	138.09
390.61	128.73
390.81	196.60
391.00	159.16
391.19	168.52
391.39	170.86
391.58	131.07
391.78	135.75
391.97	131.07
392.16	114.69
392.36	128.73
392.55	161.50
392.75	107.66
392.94	154.48
393.13	105.32
393.33	126.39
393.52	72.56
393.71	184.90
393.91	154.48
394.10	189.58
394.29	196.60
394.49	175.54
394.68	173.20
394.88	290.23
395.07	227.03
395.26	119.37
395.46	70.22
395.65	79.58
395.84	142.77
396.04	224.69
396.23	217.67
396.42	140.43
396.62	133.41
396.81	166.18
397.00	42.13
397.19	110.01
397.39	227.03
397.58	166.18
397.77	142.77
397.97	142.77
398.16	79.58
398.35	110.01
398.55	180.22
398.74	105.32
398.93	100.64
399.12	156.82
399.32	154.48
399.51	147.45
399.70	147.45
399.90	133.41
400.09	163.84
400.28	102.98
400.47	79.58
400.67	210.65
400.86	180.22
401.05	159.16
401.24	131.07
401.44	229.37
401.63	173.20
401.82	224.69
402.01	168.52
402.21	222.35
402.40	152.13
402.59	124.05
402.78	44.47
402.97	173.20
403.17	112.35
403.36	208.31
403.55	201.29
403.74	133.41
403.93	166.18
404.13	257.46
404.32	245.76
404.51	159.16
404.70	236.39
404.89	149.79
405.09	163.84
405.28	142.77
405.47	163.84
405.66	191.92
405.85	182.56
406.05	147.45
406.24	170.86
406.43	121.71
406.62	133.41
406.81	227.03
407.00	166.18
407.20	126.39
407.39	184.90
407.58	119.37
407.77	114.69
407.96	184.90
408.15	152.13
408.34	187.24
408.54	145.11
408.73	159.16
408.92	149.79
409.11	147.45
409.30	175.54
409.49	100.64
409.68	170.86
409.87	138.09
410.07	168.52
410.26	119.37
410.45	131.07
410.64	180.22
410.83	152.13
411.02	128.73
411.21	98.30
411.40	156.82
411.59	201.29
411.78	161.50
411.98	180.22
412.17	93.62
412.36	119.37
412.55	110.01
412.74	168.52
412.93	184.90
413.12	201.29
413.31	166.18
413.50	173.20
413.69	110.01
413.88	229.37
414.07	182.56
414.26	173.20
414.45	147.45
414.64	147.45
414.83	196.60
415.02	72.56
415.22	131.07
415.41	245.76
415.60	170.86
415.79	231.71
415.98	189.58
416.17	161.50
416.36	210.65
416.55	177.88
416.74	208.31
416.93	227.03
417.12	196.60
417.31	212.99
417.50	210.65
417.69	180.22
417.88	173.20
418.07	191.92
418.26	128.73
418.45	189.58
418.64	236.39
418.83	208.31
419.02	198.95
419.21	133.41
419.39	154.48
419.58	205.97
419.77	194.26
419.96	161.50
420.15	196.60
420.34	128.73
420.53	191.92
420.72	170.86
420.91	138.09
421.10	163.84
421.29	212.99
421.48	217.67
421.67	124.05
421.86	163.84
422.05	180.22
422.24	182.56
422.43	154.48
422.61	133.41
422.80	145.11
422.99	135.75
423.18	187.24
423.37	212.99
423.56	182.56
423.75	203.63
423.94	241.08
424.13	194.26
424.32	140.43
424.50	177.88
424.69	245.76
424.88	194.26
425.07	177.88
425.26	201.29
425.45	196.60
425.64	163.84
425.83	212.99
426.01	250.44
426.20	191.92
426.39	149.79
426.58	117.03
426.77	131.07
426.96	217.67
427.15	205.97
427.33	152.13
427.52	173.20
427.71	177.88
427.90	208.31
428.09	182.56
428.28	189.58
428.46	77.24
428.65	189.58
428.84	248.10
429.03	189.58
429.22	98.30
429.40	159.16
429.59	147.45
429.78	205.97
429.97	208.31
430.16	184.90
430.34	133.41
430.53	205.97
430.72	156.82
430.91	145.11
431.10	126.39
431.28	170.86
431.47	196.60
431.66	128.73
431.85	112.35
432.03	177.88
432.22	217.67
432.41	245.76
432.60	252.78
432.79	220.01
432.97	220.01
433.16	222.35
433.35	234.05
433.54	154.48
433.72	264.48
433.91	159.16
434.10	131.07
434.28	147.45
434.47	198.95
434.66	245.76
434.85	159.16
435.03	201.29
435.22	400.23
435.41	433.00
435.59	346.40
435.78	325.33
435.97	271.50
436.16	264.48
436.34	154.48
436.53	166.18
436.72	234.05
436.90	161.50
437.09	187.24
437.28	175.54
437.46	184.90
437.65	248.10
437.84	184.90
438.02	168.52
438.21	227.03
438.40	126.39
438.58	203.63
438.77	154.48
438.96	224.69
439.14	161.50
439.33	196.60
439.52	187.24
439.70	166.18
439.89	138.09
440.08	184.90
440.26	175.54
440.45	205.97
440.63	224.69
440.82	163.84
441.01	128.73
441.19	189.58
441.38	156.82
441.57	285.55
441.75	241.08
441.94	161.50
442.12	210.65
442.31	114.69
442.50	124.05
442.68	145.11
442.87	224.69
443.05	196.60
443.24	271.50
443.43	166.18
443.61	222.35
443.80	180.22
443.98	173.20
444.17	224.69
444.35	194.26
444.54	210.65
444.73	142.77
444.91	194.26
445.10	217.67
445.28	138.09
445.47	196.60
445.65	194.26
445.84	280.86
446.02	119.37
446.21	126.39
446.39	187.24
446.58	234.05
446.77	238.73
446.95	182.56
447.14	182.56
447.32	175.54
447.51	163.84
447.69	105.32
447.88	142.77
448.06	220.01
448.25	229.37
448.43	131.07
448.62	168.52
448.80	201.29
448.99	212.99
449.17	187.24
449.36	142.77
449.54	257.46
449.73	95.96
449.91	241.08
450.10	166.18
450.28	301.93
450.46	250.44
450.65	205.97
450.83	201.29
451.02	210.65
451.20	196.60
451.39	163.84
451.57	255.12
451.76	243.42
451.94	163.84
452.13	173.20
452.31	182.56
452.49	170.86
452.68	208.31
452.86	198.95
453.05	135.75
453.23	119.37
453.42	170.86
453.60	215.33
453.78	252.78
453.97	91.28
454.15	175.54
454.34	182.56
454.52	205.97
454.70	191.92
454.89	222.35
455.07	133.41
455.26	170.86
455.44	175.54
455.62	154.48
455.81	231.71
455.99	140.43
456.17	220.01
456.36	217.67
456.54	166.18
456.73	152.13
456.91	168.52
457.09	231.71
457.28	175.54
457.46	234.05
457.64	170.86
457.83	166.18
458.01	142.77
458.19	229.37
458.38	163.84
458.56	152.13
458.74	189.58
458.93	184.90
459.11	255.12
459.29	201.29
459.48	205.97
459.66	187.24
459.84	131.07
460.03	311.29
460.21	208.31
460.39	102.98
460.57	215.33
460.76	161.50
460.94	222.35
461.12	285.55
461.31	266.82
461.49	203.63
461.67	205.97
461.85	208.31
462.04	203.63
462.22	631.94
462.40	194.26
462.59	241.08
462.77	194.26
462.95	229.37
463.13	166.18
463.32	220.01
463.50	229.37
463.68	241.08
463.86	203.63
464.05	243.42
464.23	187.24
464.41	154.48
464.59	168.52
464.78	147.45
464.96	184.90
465.14	180.22
465.32	191.92
465.50	191.92
465.69	273.84
465.87	196.60
466.05	262.14
466.23	145.11
466.41	191.92
466.60	177.88
466.78	222.35
466.96	215.33
467.14	100.64
467.32	184.90
467.51	189.58
467.69	196.60
467.87	243.42
468.05	227.03
468.23	224.69
468.41	238.73
468.60	231.71
468.78	273.84
468.96	234.05
469.14	124.05
469.32	217.67
469.50	210.65
469.69	215.33
469.87	189.58
470.05	140.43
470.23	173.20
470.41	210.65
470.59	98.30
470.77	212.99
470.95	156.82
471.14	229.37
471.32	210.65
471.50	184.90
471.68	159.16
471.86	180.22
472.04	175.54
472.22	287.89
472.40	187.24
472.58	142.77
472.77	173.20
472.95	198.95
473.13	163.84
473.31	196.60
473.49	182.56
473.67	177.88
473.85	234.05
474.03	189.58
474.21	152.13
474.39	191.92
474.57	241.08
474.75	241.08
474.93	224.69
475.12	189.58
475.30	170.86
475.48	210.65
475.66	159.16
475.84	149.79
476.02	250.44
476.20	229.37
476.38	229.37
476.56	210.65
476.74	177.88
476.92	203.63
477.10	227.03
477.28	224.69
477.46	182.56
477.64	229.37
477.82	187.24
478.00	227.03
478.18	166.18
478.36	245.76
478.54	182.56
478.72	224.69
478.90	280.86
479.08	203.63
479.26	203.63
479.44	161.50
479.62	222.35
479.80	208.31
479.98	205.97
480.16	229.37
480.34	205.97
480.52	198.95
480.70	217.67
480.88	250.44
481.06	224.69
481.24	147.45
481.41	131.07
481.59	201.29
481.77	222.35
481.95	156.82
482.13	212.99
482.31	241.08
482.49	308.95
482.67	222.35
482.85	229.37
483.03	231.71
483.21	194.26
483.39	194.26
483.57	234.05
483.74	248.10
483.92	241.08
484.10	212.99
484.28	250.44
484.46	276.18
484.64	212.99
484.82	229.37
485.00	273.84
485.18	341.72
485.35	227.03
485.53	191.92
485.71	266.82
485.89	208.31
486.07	215.33
486.25	287.89
486.43	198.95
486.61	224.69
486.78	177.88
486.96	114.69
487.14	224.69
487.32	269.16
487.50	252.78
487.68	241.08
487.85	191.92
488.03	257.46
488.21	276.18
488.39	212.99
488.57	227.03
488.75	184.90
488.92	524.28
489.10	262.14
489.28	217.67
489.46	262.14
489.64	259.80
489.81	220.01
489.99	262.14
490.17	255.12
490.35	257.46
490.53	273.84
490.70	215.33
490.88	257.46
491.06	257.46
491.24	222.35
491.41	224.69
491.59	234.05
491.77	217.67
491.95	222.35
492.13	212.99
492.30	257.46
492.48	243.42
492.66	248.10
492.84	234.05
493.01	191.92
493.19	187.24
493.37	301.93
493.54	215.33
493.72	215.33
493.90	163.84
494.08	238.73
494.25	212.99
494.43	243.42
494.61	201.29
494.79	201.29
494.96	205.97
495.14	184.90
495.32	238.73
495.49	262.14
495.67	205.97
495.85	222.35
496.02	182.56
496.20	292.57
496.38	238.73
496.55	145.11
496.73	276.18
496.91	222.35
497.09	271.50
497.26	299.59
497.44	264.48
497.62	203.63
497.79	248.10
497.97	276.18
498.14	229.37
498.32	273.84
498.50	166.18
498.67	198.95
498.85	290.23
499.03	198.95
499.20	322.99
499.38	222.35
499.56	229.37
499.73	271.50
499.91	341.72
500.08	290.23
500.26	236.39
500.44	278.52
500.61	320.65
500.79	271.50
500.97	334.70
501.14	290.23
501.32	266.82
501.49	243.42
501.67	182.56
501.84	269.16
502.02	208.31
502.20	266.82
502.37	257.46
502.55	241.08
502.72	234.05
502.90	229.37
503.07	220.01
503.25	250.44
503.43	220.01
503.60	168.52
503.78	276.18
503.95	320.65
504.13	280.86
504.30	341.72
504.48	208.31
504.65	222.35
504.83	231.71
505.01	292.57
505.18	259.80
505.36	264.48
505.53	280.86
505.71	297.25
505.88	358.10
506.06	280.86
506.23	257.46
506.41	184.90
506.58	208.31
506.76	236.39
506.93	234.05
507.11	220.01
507.28	273.84
507.46	224.69
507.63	360.44
507.81	187.24
507.98	212.99
508.16	262.14
508.33	229.37
508.50	203.63
508.68	280.86
508.85	191.92
509.03	278.52
509.20	215.33
509.38	278.52
509.55	308.95
509.73	255.12
509.90	264.48
510.08	257.46
510.25	210.65
510.42	241.08
510.60	191.92
510.77	278.52
510.95	255.12
511.12	238.73
511.30	224.69
511.47	273.84
511.64	318.31
511.82	236.39
511.99	266.82
512.17	285.55
512.34	210.65
512.51	177.88
512.69	227.03
512.86	259.80
513.04	191.92
513.21	297.25
513.38	231.71
513.56	227.03
513.73	229.37
513.90	229.37
514.08	262.14
514.25	341.72
514.43	290.23
514.60	182.56
514.77	210.65
514.95	280.86
515.12	217.67
515.29	194.26
515.47	283.20
515.64	292.57
515.81	217.67
515.99	280.86
516.16	245.76
516.33	255.12
516.51	273.84
516.68	262.14
516.85	255.12
517.03	215.33
517.20	245.76
517.37	266.82
517.54	322.99
517.72	318.31
517.89	168.52
518.06	191.92
518.24	264.48
518.41	339.38
518.58	224.69
518.75	255.12
518.93	294.91
519.10	248.10
519.27	269.16
519.45	220.01
519.62	304.27
519.79	252.78
519.96	175.54
520.14	273.84
520.31	252.78
520.48	238.73
520.65	252.78
520.83	271.50
521.00	290.23
521.17	283.20
521.34	255.12
521.52	287.89
521.69	234.05
521.86	269.16
522.03	344.06
522.20	297.25
522.38	271.50
522.55	236.39
522.72	264.48
522.89	276.18
523.07	330.02
523.24	259.80
523.41	318.31
523.58	217.67
523.75	252.78
523.92	220.01
524.10	259.80
524.27	353.42
524.44	292.57
524.61	320.65
524.78	243.42
524.96	255.12
525.13	257.46
525.30	241.08
525.47	205.97
525.64	304.27
525.81	278.52
525.98	320.65
526.16	264.48
526.33	248.10
526.50	177.88
526.67	264.48
526.84	283.20
527.01	191.92
527.18	266.82
527.36	315.97
527.53	234.05
527.70	273.84
527.87	217.67
528.04	301.93
528.21	264.48
528.38	344.06
528.55	297.25
528.72	337.04
528.89	304.27
529.07	262.14
529.24	276.18
529.41	292.57
529.58	353.42
529.75	297.25
529.92	306.61
530.09	292.57
530.26	299.59
530.43	285.55
530.60	330.02
530.77	292.57
530.94	297.25
531.11	264.48
531.28	294.91
531.46	250.44
531.63	255.12
531.80	276.18
531.97	241.08
532.14	243.42
532.31	262.14
532.48	306.61
532.65	257.46
532.82	360.44
532.99	271.50
533.16	271.50
533.33	264.48
533.50	297.25
533.67	259.80
533.84	353.42
534.01	353.42
534.18	337.04
534.35	318.31
534.52	290.23
534.69	322.99
534.86	255.12
535.03	348.74
535.20	334.70
535.37	315.97
535.54	224.69
535.71	269.16
535.88	301.93
536.05	287.89
536.22	266.82
536.38	229.37
536.55	271.50
536.72	308.95
536.89	292.57
537.06	269.16
537.23	313.63
537.40	290.23
537.57	294.91
537.74	386.19
537.91	306.61
538.08	304.27
538.25	322.99
538.42	306.61
538.59	252.78
538.75	344.06
538.92	285.55
539.09	325.33
539.26	337.04
539.43	428.32
539.60	720.88
539.77	1034.52
539.94	976.00
540.11	781.74
540.28	554.71
540.44	472.79
540.61	430.66
540.78	437.68
540.95	339.38
541.12	458.74
541.29	477.47
541.46	540.66
541.62	538.32
541.79	463.43
541.96	433.00
542.13	390.87
542.30	379.17
542.47	468.11
542.63	482.15
542.80	435.34
542.97	470.45
543.14	472.79
543.31	418.96
543.48	421.30
543.64	433.00
543.81	461.09
543.98	407.25
544.15	367.46
544.32	475.13
544.48	440.02
544.65	386.19
544.82	388.53
544.99	404.91
545.16	505.56
545.32	376.83
545.49	613.22
545.66	685.78
545.83	734.93
546.00	697.48
546.16	636.63
546.33	528.96
546.50	393.21
546.67	440.02
546.83	482.15
547.00	388.53
547.17	346.40
547.34	355.76
547.50	311.29
547.67	355.76
547.84	407.25
548.00	369.80
548.17	348.74
548.34	292.57
548.51	489.17
548.67	407.25
548.84	276.18
549.01	248.10
549.18	318.31
549.34	423.64
549.51	308.95
549.68	248.10
549.84	304.27
550.01	264.48
550.18	449.38
550.34	383.85
550.51	351.08
550.68	374.49
550.84	241.08
551.01	320.65
551.18	351.08
551.34	334.70
551.51	297.25
551.68	318.31
551.84	327.68
552.01	220.01
552.18	374.49
552.34	269.16
552.51	325.33
552.68	360.44
552.84	243.42
553.01	290.23
553.18	297.25
553.34	215.33
553.51	285.55
553.67	344.06
553.84	294.91
554.01	306.61
554.17	301.93
554.34	285.55
554.51	325.33
554.67	386.19
554.84	297.25
555.00	346.40
555.17	315.97
555.33	327.68
555.50	250.44
555.67	301.93
555.83	243.42
556.00	294.91
556.16	423.64
556.33	327.68
556.50	222.35
556.66	229.37
556.83	227.03
556.99	285.55
557.16	290.23
557.32	339.38
557.49	252.78
557.65	173.20
557.82	248.10
557.98	327.68
558.15	238.73
558.32	285.55
558.48	196.60
558.65	238.73
558.81	262.14
558.98	285.55
559.14	266.82
559.31	280.86
559.47	285.55
559.64	269.16
559.80	224.69
559.97	266.82
560.13	290.23
560.30	234.05
560.46	245.76
560.63	339.38
560.79	262.14
560.96	320.65
561.12	224.69
561.29	339.38
561.45	259.80
561.61	271.50
561.78	290.23
561.94	320.65
562.11	325.33
562.27	248.10
562.44	224.69
562.60	220.01
562.77	234.05
562.93	313.63
563.10	210.65
563.26	238.73
563.42	322.99
563.59	250.44
563.75	234.05
563.92	290.23
564.08	220.01
564.24	353.42
564.41	344.06
564.57	163.84
564.74	245.76
564.90	255.12
565.07	318.31
565.23	304.27
565.39	266.82
565.56	257.46
565.72	248.10
565.88	248.10
566.05	257.46
566.21	318.31
566.38	365.12
566.54	283.20
566.70	231.71
566.87	203.63
567.03	224.69
567.19	217.67
567.36	262.14
567.52	285.55
567.68	255.12
567.85	241.08
568.01	217.67
568.17	187.24
568.34	234.05
568.50	220.01
568.66	290.23
568.83	264.48
568.99	266.82
569.15	327.68
569.32	250.44
569.48	262.14
569.64	227.03
569.81	311.29
569.97	201.29
570.13	238.73
570.30	297.25
570.46	220.01
570.62	287.89
570.78	210.65
570.95	243.42
571.11	252.78
571.27	308.95
571.43	234.05
571.60	266.82
571.76	257.46
571.92	266.82
572.09	236.39
572.25	182.56
572.41	273.84
572.57	294.91
572.74	344.06
572.90	283.20
573.06	205.97
573.22	243.42
573.38	276.18
573.55	308.95
573.71	262.14
573.87	308.95
574.03	224.69
574.20	212.99
574.36	339.38
574.52	355.76
574.68	278.52
574.84	404.91
575.01	236.39
575.17	241.08
575.33	262.14
575.49	285.55
575.65	374.49
575.82	255.12
575.98	489.17
576.14	550.03
576.30	500.87
576.46	500.87
576.62	475.13
576.79	444.70
576.95	325.33
577.11	339.38
577.27	262.14
577.43	318.31
577.59	339.38
577.75	332.36
577.92	294.91
578.08	257.46
578.24	283.20
578.40	365.12
578.56	475.13
578.72	411.93
578.88	418.96
579.04	332.36
579.21	318.31
579.37	287.89
579.53	262.14
579.69	330.02
579.85	421.30
580.01	407.25
580.17	346.40
580.33	376.83
580.49	372.15
580.65	287.89
580.82	290.23
580.98	313.63
581.14	332.36
581.30	435.34
581.46	348.74
581.62	468.11
581.78	451.72
581.94	510.24
582.10	425.98
582.26	411.93
582.42	374.49
582.58	397.89
582.74	437.68
582.90	465.77
583.06	444.70
583.22	395.55
583.38	407.25
583.54	456.40
583.70	463.43
583.86	573.43
584.02	650.67
584.18	643.65
584.34	851.96
584.50	1865.41
584.66	13383.18
584.82	34639.93
584.98	46384.74
585.14	40521.69
585.30	25804.41
585.46	15697.97
585.62	9617.26
585.78	4692.77
585.94	1898.17
586.10	983.02
586.26	760.67
586.42	601.52
586.58	594.50
586.74	517.26
586.90	512.58
587.06	489.17
587.22	493.85
587.38	411.93
587.54	795.78
587.70	2054.99
587.86	3213.56
588.02	3304.84
588.18	2375.64
588.34	1554.12
588.49	1121.12
588.65	786.42
588.81	503.22
588.97	325.33
589.13	353.42
589.29	320.65
589.45	304.27
589.61	355.76
589.77	425.98
589.93	355.76
590.08	397.89
590.24	402.57
590.40	402.57
590.56	369.80
590.72	322.99
590.88	355.76
591.04	337.04
591.20	290.23
591.35	339.38
591.51	348.74
591.67	322.99
591.83	306.61
591.99	367.46
592.15	423.64
592.31	304.27
592.46	248.10
592.62	308.95
592.78	365.12
592.94	287.89
593.10	372.15
593.26	348.74
593.41	386.19
593.57	355.76
593.73	449.38
593.89	1755.40
594.05	4088.92
594.20	5963.68
594.36	5453.45
594.52	3578.68
594.68	2382.67
594.84	1614.97
594.99	990.05
595.15	463.43
595.31	430.66
595.47	351.08
595.62	341.72
595.78	358.10
595.94	301.93
596.10	397.89
596.25	313.63
596.41	315.97
596.57	325.33
596.73	297.25
596.88	456.40
597.04	882.38
597.20	1348.15
597.36	1575.18
597.51	1221.76
597.67	851.96
597.83	636.63
597.99	484.49
598.14	449.38
598.30	271.50
598.46	299.59
598.61	376.83
598.77	297.25
598.93	311.29
599.09	294.91
599.24	339.38
599.40	287.89
599.56	306.61
599.71	273.84
599.87	210.65
600.03	273.84
600.18	262.14
600.34	311.29
600.50	264.48
600.65	283.20
600.81	304.27
600.97	257.46
601.12	243.42
601.28	301.93
601.44	264.48
601.59	229.37
601.75	210.65
601.91	269.16
602.06	322.99
602.22	395.55
602.37	500.87
602.53	1050.90
602.69	1528.37
602.84	1626.67
603.00	1149.20
603.16	898.77
603.31	716.20
603.47	493.85
603.62	367.46
603.78	353.42
603.94	330.02
604.09	353.42
604.25	353.42
604.40	250.44
604.56	292.57
604.71	315.97
604.87	285.55
605.03	301.93
605.18	220.01
605.34	283.20
605.49	341.72
605.65	294.91
605.80	271.50
605.96	259.80
606.12	409.59
606.27	367.46
606.43	337.04
606.58	383.85
606.74	653.01
606.89	1996.48
607.05	3852.52
607.20	4816.82
607.36	4056.15
607.51	2750.13
607.67	1921.58
607.82	1366.87
607.98	805.14
608.13	592.16
608.29	433.00
608.44	397.89
608.60	433.00
608.75	315.97
608.91	807.48
609.06	3077.80
609.22	6619.04
609.37	8470.40
609.53	7272.04
609.68	5263.86
609.84	3447.61
609.99	2359.26
610.15	1413.68
610.30	912.81
610.46	758.33
