SpectraSuite Data File
++++++++++++++++++++++++++++++++++++
Date: Fri Oct 04 11:34:03 GMT-05:00 2013
User: price-jones
Dark Spectrum Present: No
Reference Spectrum Present: No
Number of Sampled Component Spectra: 1
Spectrometers: USB2+H05261
Integration Time (usec): 100000 (USB2+H05261)
Spectra Averaged: 1 (USB2+H05261)
Boxcar Smoothing: 0 (USB2+H05261)
Correct for Electrical Dark: No (USB2+H05261)
Strobe/Lamp Enabled: No (USB2+H05261)
Correct for Detector Non-linearity: No (USB2+H05261)
Correct for Stray Light: No (USB2+H05261)
Number of Pixels in Processed Spectrum: 2048
>>>>>Begin Processed Spectral Data<<<<<
365.73	7.02
365.92	7.02
366.12	7.02
366.32	0.00
366.52	35.11
366.72	53.83
366.91	0.00
367.11	0.00
367.31	0.00
367.51	0.00
367.70	0.00
367.90	11.70
368.10	0.00
368.30	0.00
368.49	0.00
368.69	0.00
368.89	0.00
369.09	0.00
369.28	4.68
369.48	9.36
369.68	18.72
369.87	4.68
370.07	0.00
370.27	25.75
370.47	65.54
370.66	124.05
370.86	86.60
371.06	98.30
371.25	124.05
371.45	102.98
371.65	84.26
371.84	39.79
372.04	81.92
372.24	124.05
372.44	74.90
372.63	112.35
372.83	250.44
373.03	187.24
373.22	168.52
373.42	131.07
373.62	102.98
373.81	147.45
374.01	229.37
374.21	140.43
374.40	142.77
374.60	210.65
374.79	152.13
374.99	156.82
375.19	231.71
375.38	208.31
375.58	182.56
375.78	163.84
375.97	154.48
376.17	194.26
376.37	121.71
376.56	161.50
376.76	180.22
376.95	145.11
377.15	112.35
377.35	201.29
377.54	222.35
377.74	156.82
377.93	131.07
378.13	170.86
378.33	166.18
378.52	161.50
378.72	102.98
378.91	117.03
379.11	145.11
379.31	121.71
379.50	131.07
379.70	154.48
379.89	159.16
380.09	168.52
380.28	49.15
380.48	128.73
380.68	147.45
380.87	154.48
381.07	145.11
381.26	140.43
381.46	131.07
381.65	147.45
381.85	166.18
382.04	170.86
382.24	154.48
382.43	175.54
382.63	135.75
382.83	117.03
383.02	138.09
383.22	138.09
383.41	79.58
383.61	95.96
383.80	65.54
384.00	107.66
384.19	70.22
384.39	149.79
384.58	189.58
384.78	194.26
384.97	135.75
385.17	180.22
385.36	224.69
385.56	173.20
385.75	77.24
385.95	196.60
386.14	173.20
386.34	117.03
386.53	88.94
386.72	112.35
386.92	163.84
387.11	177.88
387.31	112.35
387.50	135.75
387.70	152.13
387.89	170.86
388.09	147.45
388.28	138.09
388.48	107.66
388.67	138.09
388.86	98.30
389.06	53.83
389.25	88.94
389.45	91.28
389.64	161.50
389.84	187.24
390.03	126.39
390.22	121.71
390.42	128.73
390.61	46.81
390.81	152.13
391.00	203.63
391.19	126.39
391.39	128.73
391.58	173.20
391.78	81.92
391.97	142.77
392.16	142.77
392.36	217.67
392.55	184.90
392.75	124.05
392.94	147.45
393.13	117.03
393.33	142.77
393.52	119.37
393.71	107.66
393.91	117.03
394.10	154.48
394.29	138.09
394.49	149.79
394.68	173.20
394.88	175.54
395.07	229.37
395.26	147.45
395.46	124.05
395.65	203.63
395.84	163.84
396.04	210.65
396.23	124.05
396.42	177.88
396.62	175.54
396.81	161.50
397.00	163.84
397.19	149.79
397.39	124.05
397.58	149.79
397.77	138.09
397.97	126.39
398.16	152.13
398.35	72.56
398.55	182.56
398.74	117.03
398.93	124.05
399.12	168.52
399.32	201.29
399.51	161.50
399.70	117.03
399.90	222.35
400.09	145.11
400.28	168.52
400.47	170.86
400.67	191.92
400.86	203.63
401.05	203.63
401.24	184.90
401.44	140.43
401.63	140.43
401.82	93.62
402.01	105.32
402.21	140.43
402.40	194.26
402.59	142.77
402.78	159.16
402.97	184.90
403.17	138.09
403.36	135.75
403.55	112.35
403.74	161.50
403.93	234.05
404.13	266.82
404.32	194.26
404.51	255.12
404.70	257.46
404.89	182.56
405.09	198.95
405.28	145.11
405.47	93.62
405.66	198.95
405.85	159.16
406.05	180.22
406.24	175.54
406.43	112.35
406.62	177.88
406.81	140.43
407.00	124.05
407.20	140.43
407.39	159.16
407.58	152.13
407.77	138.09
407.96	168.52
408.15	182.56
408.34	133.41
408.54	196.60
408.73	217.67
408.92	163.84
409.11	133.41
409.30	147.45
409.49	182.56
409.68	124.05
409.87	187.24
410.07	163.84
410.26	133.41
410.45	159.16
410.64	102.98
410.83	154.48
411.02	93.62
411.21	175.54
411.40	163.84
411.59	149.79
411.78	161.50
411.98	255.12
412.17	131.07
412.36	149.79
412.55	86.60
412.74	173.20
412.93	259.80
413.12	140.43
413.31	196.60
413.50	140.43
413.69	229.37
413.88	191.92
414.07	154.48
414.26	175.54
414.45	107.66
414.64	152.13
414.83	180.22
415.02	191.92
415.22	154.48
415.41	215.33
415.60	208.31
415.79	236.39
415.98	227.03
416.17	110.01
416.36	187.24
416.55	142.77
416.74	131.07
416.93	131.07
417.12	98.30
417.31	257.46
417.50	131.07
417.69	203.63
417.88	156.82
418.07	142.77
418.26	196.60
418.45	152.13
418.64	294.91
418.83	184.90
419.02	170.86
419.21	194.26
419.39	276.18
419.58	220.01
419.77	217.67
419.96	308.95
420.15	273.84
420.34	198.95
420.53	149.79
420.72	91.28
420.91	175.54
421.10	227.03
421.29	154.48
421.48	105.32
421.67	203.63
421.86	140.43
422.05	173.20
422.24	194.26
422.43	201.29
422.61	198.95
422.80	196.60
422.99	133.41
423.18	147.45
423.37	220.01
423.56	173.20
423.75	145.11
423.94	107.66
424.13	147.45
424.32	208.31
424.50	173.20
424.69	126.39
424.88	262.14
425.07	163.84
425.26	208.31
425.45	271.50
425.64	348.74
425.83	327.68
426.01	177.88
426.20	229.37
426.39	119.37
426.58	177.88
426.77	140.43
426.96	189.58
427.15	173.20
427.33	131.07
427.52	189.58
427.71	173.20
427.90	175.54
428.09	112.35
428.28	112.35
428.46	149.79
428.65	105.32
428.84	154.48
429.03	210.65
429.22	67.88
429.40	156.82
429.59	133.41
429.78	203.63
429.97	145.11
430.16	170.86
430.34	159.16
430.53	170.86
430.72	168.52
430.91	229.37
431.10	177.88
431.28	236.39
431.47	236.39
431.66	133.41
431.85	191.92
432.03	201.29
432.22	245.76
432.41	170.86
432.60	248.10
432.79	170.86
432.97	285.55
433.16	430.66
433.35	229.37
433.54	224.69
433.72	194.26
433.91	201.29
434.10	154.48
434.28	290.23
434.47	259.80
434.66	212.99
434.85	140.43
435.03	194.26
435.22	414.27
435.41	489.17
435.59	498.53
435.78	437.68
435.97	269.16
436.16	241.08
436.34	117.03
436.53	142.77
436.72	117.03
436.90	191.92
437.09	191.92
437.28	163.84
437.46	229.37
437.65	161.50
437.84	198.95
438.02	259.80
438.21	152.13
438.40	121.71
438.58	145.11
438.77	112.35
438.96	196.60
439.14	245.76
439.33	234.05
439.52	119.37
439.70	166.18
439.89	177.88
440.08	222.35
440.26	187.24
440.45	234.05
440.63	187.24
440.82	264.48
441.01	124.05
441.19	220.01
441.38	187.24
441.57	191.92
441.75	161.50
441.94	187.24
442.12	152.13
442.31	229.37
442.50	201.29
442.68	121.71
442.87	168.52
443.05	156.82
443.24	208.31
443.43	170.86
443.61	229.37
443.80	196.60
443.98	152.13
444.17	205.97
444.35	196.60
444.54	234.05
444.73	156.82
444.91	175.54
445.10	208.31
445.28	222.35
445.47	196.60
445.65	149.79
445.84	163.84
446.02	175.54
446.21	154.48
446.39	159.16
446.58	227.03
446.77	161.50
446.95	191.92
447.14	215.33
447.32	191.92
447.51	170.86
447.69	231.71
447.88	166.18
448.06	255.12
448.25	227.03
448.43	236.39
448.62	152.13
448.80	198.95
448.99	154.48
449.17	152.13
449.36	194.26
449.54	208.31
449.73	203.63
449.91	205.97
450.10	180.22
450.28	271.50
450.46	210.65
450.65	175.54
450.83	175.54
451.02	220.01
451.20	241.08
451.39	168.52
451.57	117.03
451.76	161.50
451.94	220.01
452.13	203.63
452.31	222.35
452.49	222.35
452.68	126.39
452.86	173.20
453.05	301.93
453.23	152.13
453.42	140.43
453.60	203.63
453.78	187.24
453.97	248.10
454.15	220.01
454.34	117.03
454.52	145.11
454.70	248.10
454.89	276.18
455.07	131.07
455.26	229.37
455.44	255.12
455.62	208.31
455.81	201.29
455.99	156.82
456.17	191.92
456.36	210.65
456.54	215.33
456.73	191.92
456.91	173.20
457.09	133.41
457.28	215.33
457.46	229.37
457.64	163.84
457.83	198.95
458.01	220.01
458.19	191.92
458.38	166.18
458.56	201.29
458.74	222.35
458.93	196.60
459.11	227.03
459.29	124.05
459.48	215.33
459.66	191.92
459.84	170.86
460.03	269.16
460.21	173.20
460.39	156.82
460.57	177.88
460.76	159.16
460.94	182.56
461.12	234.05
461.31	210.65
461.49	191.92
461.67	220.01
461.85	208.31
462.04	161.50
462.22	636.63
462.40	252.78
462.59	276.18
462.77	133.41
462.95	177.88
463.13	215.33
463.32	175.54
463.50	252.78
463.68	252.78
463.86	189.58
464.05	201.29
464.23	175.54
464.41	212.99
464.59	163.84
464.78	161.50
464.96	163.84
465.14	201.29
465.32	173.20
465.50	175.54
465.69	159.16
465.87	175.54
466.05	166.18
466.23	98.30
466.41	149.79
466.60	187.24
466.78	173.20
466.96	220.01
467.14	147.45
467.32	236.39
467.51	227.03
467.69	220.01
467.87	187.24
468.05	140.43
468.23	243.42
468.41	229.37
468.60	212.99
468.78	234.05
468.96	220.01
469.14	170.86
469.32	198.95
469.50	215.33
469.69	168.52
469.87	166.18
470.05	248.10
470.23	245.76
470.41	215.33
470.59	201.29
470.77	212.99
470.95	264.48
471.14	283.20
471.32	198.95
471.50	170.86
471.68	187.24
471.86	276.18
472.04	194.26
472.22	184.90
472.40	182.56
472.58	187.24
472.77	173.20
472.95	224.69
473.13	203.63
473.31	203.63
473.49	203.63
473.67	217.67
473.85	210.65
474.03	133.41
474.21	175.54
474.39	205.97
474.57	208.31
474.75	227.03
474.93	217.67
475.12	191.92
475.30	212.99
475.48	161.50
475.66	234.05
475.84	191.92
476.02	152.13
476.20	198.95
476.38	161.50
476.56	248.10
476.74	248.10
476.92	271.50
477.10	147.45
477.28	166.18
477.46	168.52
477.64	138.09
477.82	177.88
478.00	194.26
478.18	222.35
478.36	124.05
478.54	140.43
478.72	180.22
478.90	196.60
479.08	177.88
479.26	117.03
479.44	234.05
479.62	196.60
479.80	121.71
479.98	119.37
480.16	278.52
480.34	212.99
480.52	220.01
480.70	212.99
480.88	255.12
481.06	191.92
481.24	145.11
481.41	208.31
481.59	212.99
481.77	198.95
481.95	220.01
482.13	306.61
482.31	198.95
482.49	191.92
482.67	252.78
482.85	243.42
483.03	231.71
483.21	269.16
483.39	205.97
483.57	250.44
483.74	304.27
483.92	198.95
484.10	243.42
484.28	266.82
484.46	255.12
484.64	287.89
484.82	290.23
485.00	250.44
485.18	248.10
485.35	269.16
485.53	283.20
485.71	308.95
485.89	273.84
486.07	196.60
486.25	313.63
486.43	287.89
486.61	208.31
486.78	234.05
486.96	294.91
487.14	245.76
487.32	208.31
487.50	215.33
487.68	252.78
487.85	271.50
488.03	287.89
488.21	353.42
488.39	299.59
488.57	250.44
488.75	297.25
488.92	575.77
489.10	252.78
489.28	276.18
489.46	278.52
489.64	229.37
489.81	285.55
489.99	255.12
490.17	241.08
490.35	215.33
490.53	227.03
490.70	301.93
490.88	269.16
491.06	271.50
491.24	255.12
491.41	243.42
491.59	339.38
491.77	231.71
491.95	201.29
492.13	255.12
492.30	259.80
492.48	290.23
492.66	299.59
492.84	238.73
493.01	184.90
493.19	212.99
493.37	320.65
493.54	217.67
493.72	234.05
493.90	210.65
494.08	145.11
494.25	180.22
494.43	222.35
494.61	306.61
494.79	201.29
494.96	248.10
495.14	271.50
495.32	255.12
495.49	341.72
495.67	341.72
495.85	215.33
496.02	224.69
496.20	252.78
496.38	299.59
496.55	250.44
496.73	278.52
496.91	236.39
497.09	252.78
497.26	283.20
497.44	313.63
497.62	276.18
497.79	266.82
497.97	292.57
498.14	271.50
498.32	372.15
498.50	283.20
498.67	245.76
498.85	159.16
499.03	196.60
499.20	217.67
499.38	196.60
499.56	266.82
499.73	315.97
499.91	182.56
500.08	257.46
500.26	229.37
500.44	264.48
500.61	252.78
500.79	217.67
500.97	262.14
501.14	325.33
501.32	315.97
501.49	280.86
501.67	210.65
501.84	220.01
502.02	208.31
502.20	264.48
502.37	234.05
502.55	278.52
502.72	311.29
502.90	290.23
503.07	297.25
503.25	311.29
503.43	266.82
503.60	379.17
503.78	299.59
503.95	248.10
504.13	194.26
504.30	262.14
504.48	250.44
504.65	325.33
504.83	208.31
505.01	255.12
505.18	208.31
505.36	262.14
505.53	189.58
505.71	224.69
505.88	180.22
506.06	250.44
506.23	245.76
506.41	212.99
506.58	290.23
506.76	191.92
506.93	229.37
507.11	252.78
507.28	215.33
507.46	276.18
507.63	280.86
507.81	297.25
507.98	234.05
508.16	259.80
508.33	276.18
508.50	259.80
508.68	278.52
508.85	257.46
509.03	269.16
509.20	250.44
509.38	231.71
509.55	180.22
509.73	189.58
509.90	297.25
510.08	243.42
510.25	238.73
510.42	271.50
510.60	271.50
510.77	264.48
510.95	182.56
511.12	294.91
511.30	250.44
511.47	248.10
511.64	264.48
511.82	248.10
511.99	276.18
512.17	257.46
512.34	187.24
512.51	257.46
512.69	278.52
512.86	262.14
513.04	238.73
513.21	248.10
513.38	271.50
513.56	304.27
513.73	241.08
513.90	170.86
514.08	273.84
514.25	243.42
514.43	220.01
514.60	250.44
514.77	208.31
514.95	220.01
515.12	271.50
515.29	234.05
515.47	208.31
515.64	257.46
515.81	236.39
515.99	238.73
516.16	205.97
516.33	367.46
516.51	285.55
516.68	166.18
516.85	229.37
517.03	212.99
517.20	224.69
517.37	222.35
517.54	287.89
517.72	280.86
517.89	227.03
518.06	198.95
518.24	278.52
518.41	341.72
518.58	290.23
518.75	276.18
518.93	304.27
519.10	285.55
519.27	297.25
519.45	187.24
519.62	236.39
519.79	269.16
519.96	194.26
520.14	299.59
520.31	264.48
520.48	315.97
520.65	318.31
520.83	262.14
521.00	264.48
521.17	243.42
521.34	269.16
521.52	266.82
521.69	308.95
521.86	292.57
522.03	332.36
522.20	285.55
522.38	325.33
522.55	248.10
522.72	236.39
522.89	280.86
523.07	259.80
523.24	294.91
523.41	252.78
523.58	173.20
523.75	259.80
523.92	224.69
524.10	229.37
524.27	262.14
524.44	285.55
524.61	287.89
524.78	227.03
524.96	313.63
525.13	297.25
525.30	325.33
525.47	306.61
525.64	294.91
525.81	220.01
525.98	241.08
526.16	276.18
526.33	278.52
526.50	255.12
526.67	215.33
526.84	215.33
527.01	180.22
527.18	325.33
527.36	238.73
527.53	304.27
527.70	266.82
527.87	294.91
528.04	299.59
528.21	252.78
528.38	259.80
528.55	259.80
528.72	234.05
528.89	334.70
529.07	250.44
529.24	250.44
529.41	224.69
529.58	285.55
529.75	308.95
529.92	320.65
530.09	292.57
530.26	332.36
530.43	287.89
530.60	252.78
530.77	210.65
530.94	320.65
531.11	234.05
531.28	238.73
531.46	299.59
531.63	304.27
531.80	273.84
531.97	306.61
532.14	280.86
532.31	264.48
532.48	327.68
532.65	306.61
532.82	433.00
532.99	430.66
533.16	374.49
533.33	344.06
533.50	266.82
533.67	381.51
533.84	360.44
534.01	472.79
534.18	416.62
534.35	313.63
534.52	290.23
534.69	346.40
534.86	299.59
535.03	330.02
535.20	269.16
535.37	297.25
535.54	315.97
535.71	306.61
535.88	259.80
536.05	271.50
536.22	203.63
536.38	341.72
536.55	269.16
536.72	299.59
536.89	212.99
537.06	367.46
537.23	332.36
537.40	280.86
537.57	283.20
537.74	355.76
537.91	308.95
538.08	278.52
538.25	365.12
538.42	322.99
538.59	393.21
538.75	404.91
538.92	341.72
539.09	358.10
539.26	386.19
539.43	559.39
539.60	1095.37
539.77	1753.06
539.94	1802.21
540.11	1231.12
540.28	947.92
540.44	676.41
540.61	531.30
540.78	418.96
540.95	444.70
541.12	580.45
541.29	550.03
541.46	709.18
541.62	613.22
541.79	596.84
541.96	559.39
542.13	531.30
542.30	596.84
542.47	578.11
542.63	517.26
542.80	582.79
542.97	519.60
543.14	528.96
543.31	585.13
543.48	514.92
543.64	580.45
543.81	594.50
543.98	561.73
544.15	641.31
544.32	594.50
544.48	550.03
544.65	496.19
544.82	528.96
544.99	573.43
545.16	482.15
545.32	538.32
545.49	807.48
545.66	926.85
545.83	1144.52
546.00	1064.94
546.16	858.98
546.33	688.12
546.50	606.20
546.67	461.09
546.83	512.58
547.00	463.43
547.17	358.10
547.34	388.53
547.50	402.57
547.67	435.34
547.84	390.87
548.00	425.98
548.17	411.93
548.34	444.70
548.51	475.13
548.67	418.96
548.84	395.55
549.01	381.51
549.18	409.59
549.34	388.53
549.51	362.78
549.68	337.04
549.84	355.76
550.01	278.52
550.18	463.43
550.34	456.40
550.51	332.36
550.68	482.15
550.84	411.93
551.01	376.83
551.18	327.68
551.34	320.65
551.51	320.65
551.68	308.95
551.84	344.06
552.01	248.10
552.18	337.04
552.34	369.80
552.51	273.84
552.68	362.78
552.84	372.15
553.01	341.72
553.18	269.16
553.34	320.65
553.51	287.89
553.67	315.97
553.84	236.39
554.01	245.76
554.17	264.48
554.34	276.18
554.51	241.08
554.67	332.36
554.84	367.46
555.00	304.27
555.17	245.76
555.33	318.31
555.50	248.10
555.67	348.74
555.83	318.31
556.00	278.52
556.16	468.11
556.33	334.70
556.50	283.20
556.66	273.84
556.83	255.12
556.99	182.56
557.16	334.70
557.32	292.57
557.49	252.78
557.65	222.35
557.82	304.27
557.98	369.80
558.15	308.95
558.32	245.76
558.48	252.78
558.65	297.25
558.81	294.91
558.98	248.10
559.14	248.10
559.31	299.59
559.47	294.91
559.64	290.23
559.80	348.74
559.97	236.39
560.13	287.89
560.30	243.42
560.46	217.67
560.63	313.63
560.79	234.05
560.96	231.71
561.12	257.46
561.29	292.57
561.45	311.29
561.61	243.42
561.78	285.55
561.94	210.65
562.11	241.08
562.27	322.99
562.44	250.44
562.60	297.25
562.77	243.42
562.93	269.16
563.10	348.74
563.26	215.33
563.42	299.59
563.59	212.99
563.75	238.73
563.92	262.14
564.08	276.18
564.24	327.68
564.41	273.84
564.57	332.36
564.74	217.67
564.90	255.12
565.07	259.80
565.23	358.10
565.39	351.08
565.56	339.38
565.72	320.65
565.88	297.25
566.05	255.12
566.21	287.89
566.38	241.08
566.54	276.18
566.70	306.61
566.87	327.68
567.03	243.42
567.19	238.73
567.36	255.12
567.52	245.76
567.68	250.44
567.85	348.74
568.01	276.18
568.17	210.65
568.34	217.67
568.50	313.63
568.66	290.23
568.83	369.80
568.99	294.91
569.15	262.14
569.32	297.25
569.48	191.92
569.64	299.59
569.81	292.57
569.97	278.52
570.13	280.86
570.30	257.46
570.46	241.08
570.62	325.33
570.78	224.69
570.95	208.31
571.11	278.52
571.27	341.72
571.43	311.29
571.60	294.91
571.76	358.10
571.92	311.29
572.09	201.29
572.25	318.31
572.41	273.84
572.57	248.10
572.74	273.84
572.90	283.20
573.06	269.16
573.22	374.49
573.38	344.06
573.55	301.93
573.71	287.89
573.87	287.89
574.03	245.76
574.20	220.01
574.36	320.65
574.52	374.49
574.68	374.49
574.84	355.76
575.01	341.72
575.17	290.23
575.33	248.10
575.49	327.68
575.65	369.80
575.82	379.17
575.98	545.34
576.14	758.33
576.30	837.91
576.46	706.84
576.62	669.39
576.79	585.13
576.95	554.71
577.11	315.97
577.27	325.33
577.43	322.99
577.59	327.68
577.75	344.06
577.92	334.70
578.08	245.76
578.24	248.10
578.40	351.08
578.56	423.64
578.72	482.15
578.88	416.62
579.04	433.00
579.21	465.77
579.37	388.53
579.53	421.30
579.69	430.66
579.85	425.98
580.01	451.72
580.17	486.83
580.33	444.70
580.49	437.68
580.65	461.09
580.82	372.15
580.98	421.30
581.14	339.38
581.30	475.13
581.46	505.56
581.62	648.33
581.78	685.78
581.94	753.65
582.10	582.79
582.26	496.19
582.42	477.47
582.58	491.51
582.74	505.56
582.90	599.18
583.06	599.18
583.22	564.07
583.38	688.12
583.54	615.56
583.70	737.27
583.86	763.01
584.02	821.53
584.18	1076.65
584.34	1404.32
584.50	3253.34
584.66	23513.02
584.82	57593.56
584.98	65535.00
585.14	64905.40
585.30	52011.38
585.46	32533.45
585.62	20039.67
585.78	9350.44
585.94	3810.39
586.10	1851.36
586.26	1074.31
586.42	957.28
586.58	866.00
586.74	800.46
586.90	779.40
587.06	774.72
587.22	692.80
587.38	645.99
587.54	1331.76
587.70	3672.30
587.86	6338.17
588.02	7091.82
588.18	5163.22
588.34	3269.73
588.49	2104.14
588.65	1327.08
588.81	723.23
588.97	475.13
589.13	491.51
589.29	402.57
589.45	362.78
589.61	386.19
589.77	449.38
589.93	519.60
590.08	524.28
590.24	582.79
590.40	486.83
590.56	433.00
590.72	491.51
590.88	449.38
591.04	514.92
591.20	421.30
591.35	416.62
591.51	395.55
591.67	449.38
591.83	402.57
591.99	442.36
592.15	339.38
592.31	386.19
592.46	372.15
592.62	423.64
592.78	447.04
592.94	470.45
593.10	397.89
593.26	395.55
593.41	433.00
593.57	512.58
593.73	617.90
593.89	2808.64
594.05	7808.03
594.20	11889.92
594.36	11477.99
594.52	7597.38
594.68	4660.01
594.84	3248.66
594.99	1844.34
595.15	758.33
595.31	606.20
595.47	500.87
595.62	447.04
595.78	407.25
595.94	367.46
596.10	425.98
596.25	479.81
596.41	472.79
596.57	348.74
596.73	381.51
596.88	564.07
597.04	1558.80
597.20	2459.90
597.36	3000.57
597.51	2317.13
597.67	1621.99
597.83	1130.48
597.99	828.55
598.14	505.56
598.30	489.17
598.46	416.62
598.61	451.72
598.77	435.34
598.93	365.12
599.09	322.99
599.24	330.02
599.40	327.68
599.56	362.78
599.71	337.04
599.87	369.80
600.03	278.52
600.18	259.80
600.34	283.20
600.50	271.50
600.65	278.52
600.81	365.12
600.97	273.84
601.12	325.33
601.28	386.19
601.44	327.68
601.59	290.23
601.75	292.57
601.91	330.02
602.06	315.97
602.22	430.66
602.37	709.18
602.53	1846.68
602.69	2906.95
602.84	3052.06
603.00	2272.66
603.16	1551.78
603.31	1128.14
603.47	781.74
603.62	491.51
603.78	428.32
603.94	339.38
604.09	334.70
604.25	339.38
604.40	301.93
604.56	353.42
604.71	315.97
604.87	344.06
605.03	292.57
605.18	355.76
605.34	344.06
605.49	390.87
605.65	320.65
605.80	367.46
605.96	376.83
606.12	404.91
606.27	400.23
606.43	444.70
606.58	449.38
606.74	882.38
606.89	3468.67
607.05	7499.08
607.20	9989.41
607.36	8589.77
607.51	5696.86
607.67	3606.77
607.82	2752.47
607.98	1652.42
608.13	912.81
608.29	617.90
608.44	613.22
608.60	550.03
608.75	671.73
608.91	1226.44
609.06	5446.43
609.22	13083.59
609.37	17844.24
609.53	15686.27
609.68	10387.30
609.84	6857.77
609.99	4791.08
