SpectraSuite Data File
++++++++++++++++++++++++++++++++++++
Date: Fri Oct 04 11:33:52 GMT-05:00 2013
User: price-jones
Dark Spectrum Present: No
Reference Spectrum Present: No
Number of Sampled Component Spectra: 1
Spectrometers: USB2+H05261
Integration Time (usec): 100000 (USB2+H05261)
Spectra Averaged: 1 (USB2+H05261)
Boxcar Smoothing: 0 (USB2+H05261)
Correct for Electrical Dark: No (USB2+H05261)
Strobe/Lamp Enabled: No (USB2+H05261)
Correct for Detector Non-linearity: No (USB2+H05261)
Correct for Stray Light: No (USB2+H05261)
Number of Pixels in Processed Spectrum: 2048
>>>>>Begin Processed Spectral Data<<<<<
365.73	42.13
365.92	42.13
366.12	42.13
366.32	9.36
366.52	0.00
366.72	30.43
366.91	0.00
367.11	0.00
367.31	14.04
367.51	0.00
367.70	0.00
367.90	0.00
368.10	0.00
368.30	18.72
368.49	0.00
368.69	0.00
368.89	0.00
369.09	0.00
369.28	0.00
369.48	0.00
369.68	0.00
369.87	23.41
370.07	0.00
370.27	142.77
370.47	18.72
370.66	32.77
370.86	107.66
371.06	133.41
371.25	128.73
371.45	93.62
371.65	154.48
371.84	65.54
372.04	124.05
372.24	142.77
372.44	140.43
372.63	138.09
372.83	198.95
373.03	170.86
373.22	147.45
373.42	39.79
373.62	159.16
373.81	70.22
374.01	124.05
374.21	210.65
374.40	168.52
374.60	100.64
374.79	138.09
374.99	170.86
375.19	95.96
375.38	156.82
375.58	100.64
375.78	208.31
375.97	131.07
376.17	163.84
376.37	102.98
376.56	140.43
376.76	170.86
376.95	133.41
377.15	124.05
377.35	135.75
377.54	152.13
377.74	156.82
377.93	98.30
378.13	189.58
378.33	161.50
378.52	196.60
378.72	102.98
378.91	154.48
379.11	175.54
379.31	114.69
379.50	117.03
379.70	163.84
379.89	133.41
380.09	131.07
380.28	105.32
380.48	142.77
380.68	138.09
380.87	126.39
381.07	121.71
381.26	175.54
381.46	128.73
381.65	149.79
381.85	131.07
382.04	117.03
382.24	100.64
382.43	163.84
382.63	170.86
382.83	191.92
383.02	168.52
383.22	128.73
383.41	126.39
383.61	138.09
383.80	208.31
384.00	234.05
384.19	215.33
384.39	152.13
384.58	70.22
384.78	133.41
384.97	140.43
385.17	135.75
385.36	102.98
385.56	196.60
385.75	74.90
385.95	173.20
386.14	189.58
386.34	149.79
386.53	189.58
386.72	63.19
386.92	138.09
387.11	107.66
387.31	191.92
387.50	196.60
387.70	110.01
387.89	140.43
388.09	86.60
388.28	140.43
388.48	126.39
388.67	112.35
388.86	166.18
389.06	156.82
389.25	121.71
389.45	156.82
389.64	117.03
389.84	175.54
390.03	145.11
390.22	187.24
390.42	187.24
390.61	128.73
390.81	105.32
391.00	184.90
391.19	173.20
391.39	147.45
391.58	133.41
391.78	196.60
391.97	180.22
392.16	135.75
392.36	184.90
392.55	208.31
392.75	91.28
392.94	135.75
393.13	140.43
393.33	100.64
393.52	234.05
393.71	184.90
393.91	112.35
394.10	107.66
394.29	84.26
394.49	107.66
394.68	184.90
394.88	126.39
395.07	91.28
395.26	166.18
395.46	110.01
395.65	168.52
395.84	98.30
396.04	166.18
396.23	168.52
396.42	173.20
396.62	215.33
396.81	210.65
397.00	142.77
397.19	154.48
397.39	145.11
397.58	189.58
397.77	91.28
397.97	110.01
398.16	168.52
398.35	140.43
398.55	72.56
398.74	126.39
398.93	205.97
399.12	131.07
399.32	84.26
399.51	135.75
399.70	210.65
399.90	142.77
400.09	152.13
400.28	177.88
400.47	154.48
400.67	114.69
400.86	180.22
401.05	170.86
401.24	196.60
401.44	184.90
401.63	229.37
401.82	163.84
402.01	168.52
402.21	131.07
402.40	138.09
402.59	147.45
402.78	168.52
402.97	135.75
403.17	149.79
403.36	152.13
403.55	142.77
403.74	222.35
403.93	159.16
404.13	212.99
404.32	238.73
404.51	215.33
404.70	93.62
404.89	142.77
405.09	205.97
405.28	117.03
405.47	133.41
405.66	182.56
405.85	189.58
406.05	205.97
406.24	138.09
406.43	128.73
406.62	131.07
406.81	259.80
407.00	140.43
407.20	145.11
407.39	105.32
407.58	182.56
407.77	133.41
407.96	205.97
408.15	222.35
408.34	142.77
408.54	126.39
408.73	241.08
408.92	105.32
409.11	149.79
409.30	177.88
409.49	74.90
409.68	212.99
409.87	170.86
410.07	147.45
410.26	166.18
410.45	149.79
410.64	112.35
410.83	149.79
411.02	208.31
411.21	98.30
411.40	177.88
411.59	149.79
411.78	126.39
411.98	182.56
412.17	184.90
412.36	135.75
412.55	166.18
412.74	187.24
412.93	152.13
413.12	227.03
413.31	170.86
413.50	180.22
413.69	131.07
413.88	145.11
414.07	72.56
414.26	196.60
414.45	161.50
414.64	102.98
414.83	98.30
415.02	156.82
415.22	140.43
415.41	177.88
415.60	187.24
415.79	156.82
415.98	220.01
416.17	241.08
416.36	161.50
416.55	147.45
416.74	238.73
416.93	152.13
417.12	166.18
417.31	124.05
417.50	180.22
417.69	159.16
417.88	154.48
418.07	182.56
418.26	203.63
418.45	231.71
418.64	234.05
418.83	271.50
419.02	198.95
419.21	166.18
419.39	205.97
419.58	135.75
419.77	110.01
419.96	135.75
420.15	156.82
420.34	117.03
420.53	163.84
420.72	117.03
420.91	180.22
421.10	198.95
421.29	177.88
421.48	175.54
421.67	184.90
421.86	121.71
422.05	182.56
422.24	121.71
422.43	180.22
422.61	149.79
422.80	133.41
422.99	175.54
423.18	79.58
423.37	227.03
423.56	145.11
423.75	145.11
423.94	203.63
424.13	119.37
424.32	100.64
424.50	145.11
424.69	142.77
424.88	191.92
425.07	142.77
425.26	220.01
425.45	229.37
425.64	255.12
425.83	201.29
426.01	208.31
426.20	177.88
426.39	238.73
426.58	191.92
426.77	236.39
426.96	264.48
427.15	182.56
427.33	168.52
427.52	173.20
427.71	117.03
427.90	229.37
428.09	145.11
428.28	107.66
428.46	126.39
428.65	126.39
428.84	196.60
429.03	210.65
429.22	133.41
429.40	182.56
429.59	168.52
429.78	182.56
429.97	154.48
430.16	154.48
430.34	166.18
430.53	227.03
430.72	149.79
430.91	168.52
431.10	145.11
431.28	156.82
431.47	262.14
431.66	191.92
431.85	93.62
432.03	138.09
432.22	180.22
432.41	191.92
432.60	266.82
432.79	117.03
432.97	231.71
433.16	220.01
433.35	194.26
433.54	170.86
433.72	191.92
433.91	236.39
434.10	184.90
434.28	184.90
434.47	145.11
434.66	250.44
434.85	182.56
435.03	222.35
435.22	339.38
435.41	428.32
435.59	376.83
435.78	327.68
435.97	250.44
436.16	245.76
436.34	191.92
436.53	168.52
436.72	154.48
436.90	149.79
437.09	156.82
437.28	173.20
437.46	177.88
437.65	224.69
437.84	128.73
438.02	133.41
438.21	227.03
438.40	163.84
438.58	126.39
438.77	117.03
438.96	117.03
439.14	102.98
439.33	147.45
439.52	191.92
439.70	175.54
439.89	177.88
440.08	152.13
440.26	98.30
440.45	198.95
440.63	168.52
440.82	154.48
441.01	161.50
441.19	182.56
441.38	215.33
441.57	135.75
441.75	220.01
441.94	131.07
442.12	217.67
442.31	201.29
442.50	224.69
442.68	184.90
442.87	205.97
443.05	182.56
443.24	138.09
443.43	283.20
443.61	236.39
443.80	201.29
443.98	128.73
444.17	250.44
444.35	208.31
444.54	152.13
444.73	241.08
444.91	248.10
445.10	126.39
445.28	194.26
445.47	177.88
445.65	159.16
445.84	187.24
446.02	184.90
446.21	163.84
446.39	238.73
446.58	227.03
446.77	194.26
446.95	184.90
447.14	198.95
447.32	250.44
447.51	273.84
447.69	222.35
447.88	180.22
448.06	187.24
448.25	231.71
448.43	175.54
448.62	156.82
448.80	201.29
448.99	175.54
449.17	173.20
449.36	205.97
449.54	128.73
449.73	168.52
449.91	215.33
450.10	142.77
450.28	269.16
450.46	201.29
450.65	194.26
450.83	147.45
451.02	173.20
451.20	177.88
451.39	198.95
451.57	175.54
451.76	198.95
451.94	170.86
452.13	262.14
452.31	252.78
452.49	184.90
452.68	138.09
452.86	126.39
453.05	180.22
453.23	175.54
453.42	159.16
453.60	161.50
453.78	227.03
453.97	149.79
454.15	208.31
454.34	215.33
454.52	149.79
454.70	215.33
454.89	212.99
455.07	175.54
455.26	168.52
455.44	280.86
455.62	182.56
455.81	210.65
455.99	227.03
456.17	138.09
456.36	124.05
456.54	173.20
456.73	184.90
456.91	168.52
457.09	212.99
457.28	198.95
457.46	152.13
457.64	229.37
457.83	152.13
458.01	117.03
458.19	100.64
458.38	135.75
458.56	241.08
458.74	194.26
458.93	222.35
459.11	205.97
459.29	170.86
459.48	177.88
459.66	187.24
459.84	196.60
460.03	269.16
460.21	194.26
460.39	156.82
460.57	280.86
460.76	201.29
460.94	208.31
461.12	227.03
461.31	182.56
461.49	142.77
461.67	121.71
461.85	149.79
462.04	276.18
462.22	601.52
462.40	257.46
462.59	170.86
462.77	154.48
462.95	184.90
463.13	175.54
463.32	255.12
463.50	210.65
463.68	266.82
463.86	138.09
464.05	189.58
464.23	227.03
464.41	198.95
464.59	229.37
464.78	152.13
464.96	168.52
465.14	93.62
465.32	198.95
465.50	208.31
465.69	278.52
465.87	229.37
466.05	138.09
466.23	212.99
466.41	175.54
466.60	149.79
466.78	224.69
466.96	177.88
467.14	210.65
467.32	196.60
467.51	201.29
467.69	215.33
467.87	238.73
468.05	227.03
468.23	212.99
468.41	262.14
468.60	168.52
468.78	205.97
468.96	198.95
469.14	262.14
469.32	72.56
469.50	168.52
469.69	257.46
469.87	234.05
470.05	217.67
470.23	177.88
470.41	119.37
470.59	177.88
470.77	236.39
470.95	194.26
471.14	159.16
471.32	142.77
471.50	273.84
471.68	189.58
471.86	163.84
472.04	201.29
472.22	224.69
472.40	196.60
472.58	210.65
472.77	227.03
472.95	196.60
473.13	229.37
473.31	222.35
473.49	177.88
473.67	198.95
473.85	173.20
474.03	166.18
474.21	187.24
474.39	170.86
474.57	243.42
474.75	182.56
474.93	173.20
475.12	182.56
475.30	205.97
475.48	201.29
475.66	201.29
475.84	166.18
476.02	210.65
476.20	180.22
476.38	227.03
476.56	243.42
476.74	163.84
476.92	177.88
477.10	168.52
477.28	182.56
477.46	273.84
477.64	222.35
477.82	191.92
478.00	236.39
478.18	252.78
478.36	170.86
478.54	227.03
478.72	210.65
478.90	273.84
479.08	241.08
479.26	194.26
479.44	262.14
479.62	177.88
479.80	194.26
479.98	196.60
480.16	236.39
480.34	203.63
480.52	266.82
480.70	220.01
480.88	229.37
481.06	215.33
481.24	119.37
481.41	264.48
481.59	280.86
481.77	184.90
481.95	222.35
482.13	278.52
482.31	280.86
482.49	222.35
482.67	252.78
482.85	245.76
483.03	255.12
483.21	215.33
483.39	196.60
483.57	220.01
483.74	313.63
483.92	191.92
484.10	189.58
484.28	217.67
484.46	224.69
484.64	212.99
484.82	177.88
485.00	262.14
485.18	337.04
485.35	224.69
485.53	194.26
485.71	273.84
485.89	212.99
486.07	236.39
486.25	278.52
486.43	278.52
486.61	173.20
486.78	245.76
486.96	292.57
487.14	234.05
487.32	285.55
487.50	255.12
487.68	231.71
487.85	257.46
488.03	273.84
488.21	290.23
488.39	210.65
488.57	248.10
488.75	264.48
488.92	454.06
489.10	241.08
489.28	231.71
489.46	231.71
489.64	297.25
489.81	290.23
489.99	250.44
490.17	262.14
490.35	187.24
490.53	360.44
490.70	194.26
490.88	266.82
491.06	217.67
491.24	280.86
491.41	287.89
491.59	273.84
491.77	203.63
491.95	227.03
492.13	245.76
492.30	294.91
492.48	252.78
492.66	229.37
492.84	285.55
493.01	301.93
493.19	224.69
493.37	278.52
493.54	266.82
493.72	271.50
493.90	273.84
494.08	203.63
494.25	290.23
494.43	194.26
494.61	259.80
494.79	297.25
494.96	285.55
495.14	287.89
495.32	177.88
495.49	250.44
495.67	280.86
495.85	184.90
496.02	180.22
496.20	297.25
496.38	252.78
496.55	241.08
496.73	220.01
496.91	287.89
497.09	196.60
497.26	278.52
497.44	320.65
497.62	250.44
497.79	198.95
497.97	257.46
498.14	238.73
498.32	248.10
498.50	280.86
498.67	259.80
498.85	231.71
499.03	196.60
499.20	271.50
499.38	266.82
499.56	212.99
499.73	283.20
499.91	252.78
500.08	264.48
500.26	255.12
500.44	273.84
500.61	297.25
500.79	175.54
500.97	173.20
501.14	196.60
501.32	280.86
501.49	283.20
501.67	198.95
501.84	238.73
502.02	238.73
502.20	252.78
502.37	227.03
502.55	264.48
502.72	255.12
502.90	203.63
503.07	238.73
503.25	285.55
503.43	236.39
503.60	224.69
503.78	210.65
503.95	255.12
504.13	266.82
504.30	280.86
504.48	236.39
504.65	229.37
504.83	290.23
505.01	224.69
505.18	283.20
505.36	124.05
505.53	252.78
505.71	177.88
505.88	311.29
506.06	208.31
506.23	315.97
506.41	257.46
506.58	231.71
506.76	215.33
506.93	243.42
507.11	245.76
507.28	217.67
507.46	198.95
507.63	243.42
507.81	243.42
507.98	299.59
508.16	245.76
508.33	259.80
508.50	238.73
508.68	264.48
508.85	250.44
509.03	184.90
509.20	180.22
509.38	262.14
509.55	290.23
509.73	306.61
509.90	313.63
510.08	234.05
510.25	276.18
510.42	222.35
510.60	243.42
510.77	252.78
510.95	252.78
511.12	276.18
511.30	252.78
511.47	259.80
511.64	238.73
511.82	238.73
511.99	266.82
512.17	269.16
512.34	236.39
512.51	229.37
512.69	306.61
512.86	259.80
513.04	269.16
513.21	168.52
513.38	297.25
513.56	264.48
513.73	149.79
513.90	222.35
514.08	217.67
514.25	297.25
514.43	308.95
514.60	271.50
514.77	269.16
514.95	224.69
515.12	285.55
515.29	290.23
515.47	250.44
515.64	215.33
515.81	191.92
515.99	224.69
516.16	318.31
516.33	234.05
516.51	257.46
516.68	290.23
516.85	250.44
517.03	168.52
517.20	266.82
517.37	252.78
517.54	271.50
517.72	201.29
517.89	224.69
518.06	182.56
518.24	220.01
518.41	250.44
518.58	264.48
518.75	294.91
518.93	283.20
519.10	250.44
519.27	196.60
519.45	252.78
519.62	252.78
519.79	201.29
519.96	271.50
520.14	234.05
520.31	306.61
520.48	196.60
520.65	238.73
520.83	278.52
521.00	264.48
521.17	236.39
521.34	236.39
521.52	292.57
521.69	231.71
521.86	243.42
522.03	248.10
522.20	346.40
522.38	184.90
522.55	278.52
522.72	215.33
522.89	292.57
523.07	327.68
523.24	252.78
523.41	217.67
523.58	248.10
523.75	154.48
523.92	266.82
524.10	266.82
524.27	287.89
524.44	229.37
524.61	259.80
524.78	276.18
524.96	222.35
525.13	210.65
525.30	304.27
525.47	308.95
525.64	330.02
525.81	234.05
525.98	266.82
526.16	294.91
526.33	177.88
526.50	273.84
526.67	191.92
526.84	252.78
527.01	266.82
527.18	318.31
527.36	299.59
527.53	224.69
527.70	334.70
527.87	250.44
528.04	248.10
528.21	290.23
528.38	299.59
528.55	234.05
528.72	311.29
528.89	266.82
529.07	290.23
529.24	220.01
529.41	259.80
529.58	198.95
529.75	243.42
529.92	332.36
530.09	262.14
530.26	332.36
530.43	255.12
530.60	318.31
530.77	238.73
530.94	306.61
531.11	220.01
531.28	264.48
531.46	311.29
531.63	266.82
531.80	280.86
531.97	231.71
532.14	273.84
532.31	283.20
532.48	243.42
532.65	311.29
532.82	308.95
532.99	325.33
533.16	241.08
533.33	290.23
533.50	301.93
533.67	327.68
533.84	318.31
534.01	278.52
534.18	266.82
534.35	243.42
534.52	257.46
534.69	339.38
534.86	238.73
535.03	315.97
535.20	259.80
535.37	290.23
535.54	344.06
535.71	313.63
535.88	257.46
536.05	248.10
536.22	283.20
536.38	264.48
536.55	304.27
536.72	280.86
536.89	287.89
537.06	280.86
537.23	297.25
537.40	264.48
537.57	337.04
537.74	355.76
537.91	362.78
538.08	337.04
538.25	327.68
538.42	337.04
538.59	278.52
538.75	271.50
538.92	287.89
539.09	346.40
539.26	294.91
539.43	341.72
539.60	472.79
539.77	627.26
539.94	535.98
540.11	505.56
540.28	451.72
540.44	376.83
540.61	397.89
540.78	400.23
540.95	463.43
541.12	461.09
541.29	486.83
541.46	519.60
541.62	660.03
541.79	531.30
541.96	503.22
542.13	489.17
542.30	447.04
542.47	435.34
542.63	416.62
542.80	489.17
542.97	503.22
543.14	491.51
543.31	475.13
543.48	456.40
543.64	533.64
543.81	458.74
543.98	411.93
544.15	582.79
544.32	402.57
544.48	463.43
544.65	442.36
544.82	416.62
544.99	521.94
545.16	390.87
545.32	472.79
545.49	678.76
545.66	868.34
545.83	908.13
546.00	854.30
546.16	615.56
546.33	507.90
546.50	440.02
546.67	507.90
546.83	402.57
547.00	367.46
547.17	447.04
547.34	372.15
547.50	290.23
547.67	372.15
547.84	353.42
548.00	397.89
548.17	304.27
548.34	407.25
548.51	381.51
548.67	339.38
548.84	428.32
549.01	411.93
549.18	327.68
549.34	414.27
549.51	430.66
549.68	344.06
549.84	386.19
550.01	320.65
550.18	365.12
550.34	372.15
550.51	290.23
550.68	301.93
550.84	311.29
551.01	362.78
551.18	269.16
551.34	259.80
551.51	318.31
551.68	341.72
551.84	297.25
552.01	304.27
552.18	227.03
552.34	313.63
552.51	367.46
552.68	325.33
552.84	264.48
553.01	262.14
553.18	353.42
553.34	341.72
553.51	285.55
553.67	287.89
553.84	313.63
554.01	259.80
554.17	332.36
554.34	294.91
554.51	379.17
554.67	290.23
554.84	379.17
555.00	308.95
555.17	285.55
555.33	220.01
555.50	217.67
555.67	210.65
555.83	217.67
556.00	264.48
556.16	390.87
556.33	271.50
556.50	283.20
556.66	264.48
556.83	224.69
556.99	224.69
557.16	262.14
557.32	287.89
557.49	236.39
557.65	292.57
557.82	234.05
557.98	283.20
558.15	217.67
558.32	236.39
558.48	259.80
558.65	222.35
558.81	325.33
558.98	322.99
559.14	238.73
559.31	273.84
559.47	294.91
559.64	299.59
559.80	262.14
559.97	269.16
560.13	334.70
560.30	243.42
560.46	334.70
560.63	292.57
560.79	266.82
560.96	217.67
561.12	205.97
561.29	245.76
561.45	259.80
561.61	217.67
561.78	285.55
561.94	283.20
562.11	198.95
562.27	205.97
562.44	269.16
562.60	271.50
562.77	198.95
562.93	322.99
563.10	241.08
563.26	220.01
563.42	294.91
563.59	269.16
563.75	215.33
563.92	276.18
564.08	278.52
564.24	248.10
564.41	304.27
564.57	259.80
564.74	241.08
564.90	266.82
565.07	292.57
565.23	287.89
565.39	212.99
565.56	236.39
565.72	292.57
565.88	318.31
566.05	250.44
566.21	325.33
566.38	283.20
566.54	208.31
566.70	210.65
566.87	236.39
567.03	257.46
567.19	283.20
567.36	234.05
567.52	201.29
567.68	318.31
567.85	250.44
568.01	177.88
568.17	297.25
568.34	252.78
568.50	315.97
568.66	264.48
568.83	322.99
568.99	304.27
569.15	386.19
569.32	278.52
569.48	212.99
569.64	154.48
569.81	278.52
569.97	283.20
570.13	283.20
570.30	201.29
570.46	196.60
570.62	173.20
570.78	203.63
570.95	266.82
571.11	259.80
571.27	245.76
571.43	250.44
571.60	220.01
571.76	227.03
571.92	262.14
572.09	311.29
572.25	257.46
572.41	189.58
572.57	187.24
572.74	351.08
572.90	238.73
573.06	215.33
573.22	294.91
573.38	308.95
573.55	304.27
573.71	198.95
573.87	322.99
574.03	215.33
574.20	269.16
574.36	248.10
574.52	156.82
574.68	234.05
574.84	273.84
575.01	285.55
575.17	311.29
575.33	271.50
575.49	313.63
575.65	278.52
575.82	393.21
575.98	315.97
576.14	325.33
576.30	425.98
576.46	341.72
576.62	390.87
576.79	421.30
576.95	308.95
577.11	365.12
577.27	208.31
577.43	236.39
577.59	264.48
577.75	257.46
577.92	257.46
578.08	212.99
578.24	304.27
578.40	334.70
578.56	372.15
578.72	404.91
578.88	327.68
579.04	304.27
579.21	365.12
579.37	290.23
579.53	322.99
579.69	273.84
579.85	341.72
580.01	332.36
580.17	348.74
580.33	320.65
580.49	259.80
580.65	264.48
580.82	290.23
580.98	313.63
581.14	224.69
581.30	369.80
581.46	360.44
581.62	379.17
581.78	414.27
581.94	374.49
582.10	280.86
582.26	306.61
582.42	315.97
582.58	320.65
582.74	388.53
582.90	381.51
583.06	397.89
583.22	327.68
583.38	334.70
583.54	423.64
583.70	423.64
583.86	325.33
584.02	374.49
584.18	465.77
584.34	493.85
584.50	940.90
584.66	5685.16
584.82	12182.49
584.98	15653.50
585.14	13322.33
585.30	8444.65
585.46	5303.65
585.62	3293.13
585.78	1624.33
585.94	800.46
586.10	552.37
586.26	440.02
586.42	418.96
586.58	404.91
586.74	437.68
586.90	351.08
587.06	416.62
587.22	301.93
587.38	341.72
587.54	573.43
587.70	971.32
587.86	1336.45
588.02	1334.11
588.18	1057.92
588.34	828.55
588.49	538.32
588.65	404.91
588.81	315.97
588.97	351.08
589.13	283.20
589.29	262.14
589.45	315.97
589.61	280.86
589.77	362.78
589.93	212.99
590.08	297.25
590.24	327.68
590.40	257.46
590.56	290.23
590.72	280.86
590.88	341.72
591.04	241.08
591.20	325.33
591.35	360.44
591.51	278.52
591.67	287.89
591.83	348.74
591.99	294.91
592.15	290.23
592.31	285.55
592.46	297.25
592.62	341.72
592.78	409.59
592.94	390.87
593.10	322.99
593.26	287.89
593.41	292.57
593.57	297.25
593.73	407.25
593.89	961.96
594.05	1710.93
594.20	2232.87
594.36	1947.33
594.52	1355.17
594.68	1020.47
594.84	746.63
594.99	528.96
595.15	430.66
595.31	299.59
595.47	290.23
595.62	332.36
595.78	285.55
595.94	238.73
596.10	353.42
596.25	266.82
596.41	273.84
596.57	222.35
596.73	285.55
596.88	334.70
597.04	526.62
597.20	704.50
597.36	662.37
597.51	531.30
597.67	458.74
597.83	477.47
597.99	367.46
598.14	374.49
598.30	327.68
598.46	243.42
598.61	278.52
598.77	315.97
598.93	259.80
599.09	315.97
599.24	203.63
599.40	278.52
599.56	318.31
599.71	271.50
599.87	290.23
600.03	257.46
600.18	269.16
600.34	365.12
600.50	184.90
600.65	332.36
600.81	287.89
600.97	252.78
601.12	313.63
601.28	290.23
601.44	231.71
601.59	285.55
601.75	301.93
601.91	278.52
602.06	304.27
602.22	311.29
602.37	365.12
602.53	589.82
602.69	760.67
602.84	678.76
603.00	587.47
603.16	568.75
603.31	393.21
603.47	330.02
603.62	222.35
603.78	238.73
603.94	294.91
604.09	245.76
604.25	245.76
604.40	191.92
604.56	292.57
604.71	269.16
604.87	290.23
605.03	294.91
605.18	198.95
605.34	231.71
605.49	250.44
605.65	376.83
605.80	294.91
605.96	180.22
606.12	301.93
606.27	313.63
606.43	369.80
606.58	381.51
606.74	454.06
606.89	976.00
607.05	1673.48
607.20	1818.60
607.36	1511.99
607.51	1083.67
607.67	809.83
607.82	559.39
607.98	425.98
608.13	379.17
608.29	306.61
608.44	425.98
608.60	365.12
608.75	339.38
608.91	596.84
609.06	1378.58
609.22	2546.50
609.37	3028.65
609.53	2682.25
609.68	1888.81
609.84	1338.79
609.99	1111.75
610.15	830.89
610.30	657.69
610.46	669.39
610.61	706.84
