SpectraSuite Data File
++++++++++++++++++++++++++++++++++++
Date: Fri Oct 04 11:34:07 GMT-05:00 2013
User: price-jones
Dark Spectrum Present: No
Reference Spectrum Present: No
Number of Sampled Component Spectra: 1
Spectrometers: USB2+H05261
Integration Time (usec): 100000 (USB2+H05261)
Spectra Averaged: 1 (USB2+H05261)
Boxcar Smoothing: 0 (USB2+H05261)
Correct for Electrical Dark: No (USB2+H05261)
Strobe/Lamp Enabled: No (USB2+H05261)
Correct for Detector Non-linearity: No (USB2+H05261)
Correct for Stray Light: No (USB2+H05261)
Number of Pixels in Processed Spectrum: 2048
>>>>>Begin Processed Spectral Data<<<<<
365.73	110.01
365.92	110.01
366.12	110.01
366.32	28.09
366.52	0.00
366.72	0.00
366.91	0.00
367.11	0.00
367.31	0.00
367.51	0.00
367.70	0.00
367.90	14.04
368.10	0.00
368.30	0.00
368.49	0.00
368.69	25.75
368.89	0.00
369.09	7.02
369.28	14.04
369.48	14.04
369.68	0.00
369.87	23.41
370.07	0.00
370.27	49.15
370.47	46.81
370.66	0.00
370.86	56.17
371.06	93.62
371.25	105.32
371.45	95.96
371.65	117.03
371.84	65.54
372.04	77.24
372.24	110.01
372.44	138.09
372.63	124.05
372.83	154.48
373.03	102.98
373.22	117.03
373.42	133.41
373.62	175.54
373.81	208.31
374.01	121.71
374.21	168.52
374.40	154.48
374.60	154.48
374.79	145.11
374.99	173.20
375.19	159.16
375.38	152.13
375.58	98.30
375.78	168.52
375.97	152.13
376.17	198.95
376.37	187.24
376.56	229.37
376.76	182.56
376.95	112.35
377.15	107.66
377.35	126.39
377.54	161.50
377.74	222.35
377.93	175.54
378.13	194.26
378.33	126.39
378.52	147.45
378.72	163.84
378.91	182.56
379.11	114.69
379.31	98.30
379.50	203.63
379.70	138.09
379.89	135.75
380.09	147.45
380.28	161.50
380.48	170.86
380.68	114.69
380.87	208.31
381.07	152.13
381.26	182.56
381.46	175.54
381.65	142.77
381.85	154.48
382.04	135.75
382.24	102.98
382.43	100.64
382.63	119.37
382.83	131.07
383.02	100.64
383.22	159.16
383.41	152.13
383.61	149.79
383.80	119.37
384.00	145.11
384.19	102.98
384.39	128.73
384.58	152.13
384.78	128.73
384.97	224.69
385.17	102.98
385.36	93.62
385.56	128.73
385.75	44.47
385.95	145.11
386.14	156.82
386.34	159.16
386.53	170.86
386.72	121.71
386.92	117.03
387.11	149.79
387.31	198.95
387.50	135.75
387.70	128.73
387.89	110.01
388.09	110.01
388.28	70.22
388.48	95.96
388.67	175.54
388.86	135.75
389.06	163.84
389.25	124.05
389.45	145.11
389.64	189.58
389.84	119.37
390.03	152.13
390.22	138.09
390.42	173.20
390.61	138.09
390.81	98.30
391.00	180.22
391.19	152.13
391.39	126.39
391.58	173.20
391.78	156.82
391.97	187.24
392.16	126.39
392.36	156.82
392.55	154.48
392.75	196.60
392.94	140.43
393.13	140.43
393.33	149.79
393.52	102.98
393.71	117.03
393.91	145.11
394.10	117.03
394.29	170.86
394.49	107.66
394.68	124.05
394.88	135.75
395.07	95.96
395.26	67.88
395.46	112.35
395.65	182.56
395.84	196.60
396.04	161.50
396.23	236.39
396.42	133.41
396.62	170.86
396.81	168.52
397.00	142.77
397.19	131.07
397.39	145.11
397.58	177.88
397.77	135.75
397.97	124.05
398.16	168.52
398.35	208.31
398.55	159.16
398.74	184.90
398.93	222.35
399.12	168.52
399.32	173.20
399.51	121.71
399.70	180.22
399.90	124.05
400.09	84.26
400.28	198.95
400.47	205.97
400.67	189.58
400.86	196.60
401.05	156.82
401.24	147.45
401.44	175.54
401.63	121.71
401.82	156.82
402.01	154.48
402.21	210.65
402.40	142.77
402.59	138.09
402.78	63.19
402.97	67.88
403.17	149.79
403.36	201.29
403.55	194.26
403.74	140.43
403.93	187.24
404.13	210.65
404.32	156.82
404.51	182.56
404.70	177.88
404.89	133.41
405.09	208.31
405.28	124.05
405.47	124.05
405.66	124.05
405.85	266.82
406.05	201.29
406.24	147.45
406.43	187.24
406.62	154.48
406.81	182.56
407.00	210.65
407.20	187.24
407.39	194.26
407.58	191.92
407.77	159.16
407.96	250.44
408.15	168.52
408.34	140.43
408.54	231.71
408.73	191.92
408.92	117.03
409.11	138.09
409.30	243.42
409.49	128.73
409.68	149.79
409.87	229.37
410.07	100.64
410.26	159.16
410.45	131.07
410.64	121.71
410.83	105.32
411.02	175.54
411.21	187.24
411.40	196.60
411.59	142.77
411.78	135.75
411.98	187.24
412.17	142.77
412.36	105.32
412.55	156.82
412.74	210.65
412.93	142.77
413.12	145.11
413.31	145.11
413.50	138.09
413.69	161.50
413.88	238.73
414.07	142.77
414.26	105.32
414.45	117.03
414.64	231.71
414.83	131.07
415.02	88.94
415.22	159.16
415.41	224.69
415.60	93.62
415.79	126.39
415.98	224.69
416.17	117.03
416.36	135.75
416.55	91.28
416.74	215.33
416.93	166.18
417.12	248.10
417.31	170.86
417.50	133.41
417.69	194.26
417.88	147.45
418.07	203.63
418.26	145.11
418.45	161.50
418.64	297.25
418.83	177.88
419.02	170.86
419.21	110.01
419.39	180.22
419.58	184.90
419.77	166.18
419.96	159.16
420.15	180.22
420.34	168.52
420.53	152.13
420.72	140.43
420.91	198.95
421.10	145.11
421.29	203.63
421.48	180.22
421.67	191.92
421.86	241.08
422.05	117.03
422.24	63.19
422.43	187.24
422.61	180.22
422.80	121.71
422.99	180.22
423.18	112.35
423.37	198.95
423.56	124.05
423.75	215.33
423.94	117.03
424.13	91.28
424.32	196.60
424.50	145.11
424.69	191.92
424.88	159.16
425.07	114.69
425.26	194.26
425.45	182.56
425.64	166.18
425.83	234.05
426.01	210.65
426.20	215.33
426.39	51.49
426.58	173.20
426.77	212.99
426.96	180.22
427.15	142.77
427.33	184.90
427.52	184.90
427.71	156.82
427.90	149.79
428.09	173.20
428.28	156.82
428.46	222.35
428.65	222.35
428.84	175.54
429.03	205.97
429.22	187.24
429.40	166.18
429.59	198.95
429.78	142.77
429.97	222.35
430.16	205.97
430.34	161.50
430.53	117.03
430.72	231.71
430.91	196.60
431.10	128.73
431.28	194.26
431.47	166.18
431.66	145.11
431.85	196.60
432.03	163.84
432.22	220.01
432.41	163.84
432.60	128.73
432.79	163.84
432.97	205.97
433.16	117.03
433.35	175.54
433.54	189.58
433.72	205.97
433.91	177.88
434.10	234.05
434.28	177.88
434.47	180.22
434.66	198.95
434.85	152.13
435.03	177.88
435.22	259.80
435.41	360.44
435.59	397.89
435.78	271.50
435.97	191.92
436.16	203.63
436.34	163.84
436.53	173.20
436.72	201.29
436.90	187.24
437.09	159.16
437.28	152.13
437.46	191.92
437.65	177.88
437.84	191.92
438.02	145.11
438.21	140.43
438.40	112.35
438.58	152.13
438.77	208.31
438.96	147.45
439.14	201.29
439.33	154.48
439.52	100.64
439.70	208.31
439.89	166.18
440.08	196.60
440.26	112.35
440.45	177.88
440.63	175.54
440.82	117.03
441.01	135.75
441.19	180.22
441.38	236.39
441.57	131.07
441.75	257.46
441.94	175.54
442.12	175.54
442.31	166.18
442.50	142.77
442.68	163.84
442.87	173.20
443.05	203.63
443.24	133.41
443.43	250.44
443.61	241.08
443.80	163.84
443.98	194.26
444.17	212.99
444.35	182.56
444.54	203.63
444.73	187.24
444.91	212.99
445.10	102.98
445.28	121.71
445.47	201.29
445.65	224.69
445.84	100.64
446.02	175.54
446.21	217.67
446.39	145.11
446.58	198.95
446.77	208.31
446.95	142.77
447.14	191.92
447.32	182.56
447.51	198.95
447.69	222.35
447.88	175.54
448.06	252.78
448.25	138.09
448.43	93.62
448.62	102.98
448.80	142.77
448.99	149.79
449.17	159.16
449.36	177.88
449.54	210.65
449.73	163.84
449.91	234.05
450.10	170.86
450.28	196.60
450.46	292.57
450.65	152.13
450.83	201.29
451.02	215.33
451.20	170.86
451.39	154.48
451.57	74.90
451.76	102.98
451.94	220.01
452.13	285.55
452.31	102.98
452.49	168.52
452.68	212.99
452.86	241.08
453.05	159.16
453.23	180.22
453.42	163.84
453.60	154.48
453.78	212.99
453.97	114.69
454.15	140.43
454.34	210.65
454.52	203.63
454.70	205.97
454.89	208.31
455.07	198.95
455.26	184.90
455.44	182.56
455.62	198.95
455.81	177.88
455.99	227.03
456.17	210.65
456.36	159.16
456.54	159.16
456.73	135.75
456.91	238.73
457.09	234.05
457.28	257.46
457.46	170.86
457.64	105.32
457.83	147.45
458.01	205.97
458.19	215.33
458.38	140.43
458.56	238.73
458.74	184.90
458.93	180.22
459.11	229.37
459.29	121.71
459.48	191.92
459.66	238.73
459.84	198.95
460.03	374.49
460.21	252.78
460.39	180.22
460.57	252.78
460.76	194.26
460.94	114.69
461.12	259.80
461.31	201.29
461.49	243.42
461.67	238.73
461.85	170.86
462.04	149.79
462.22	704.50
462.40	248.10
462.59	257.46
462.77	126.39
462.95	173.20
463.13	159.16
463.32	222.35
463.50	205.97
463.68	259.80
463.86	241.08
464.05	184.90
464.23	208.31
464.41	290.23
464.59	234.05
464.78	168.52
464.96	208.31
465.14	252.78
465.32	205.97
465.50	283.20
465.69	229.37
465.87	98.30
466.05	264.48
466.23	142.77
466.41	184.90
466.60	135.75
466.78	182.56
466.96	224.69
467.14	224.69
467.32	217.67
467.51	154.48
467.69	154.48
467.87	170.86
468.05	243.42
468.23	236.39
468.41	180.22
468.60	194.26
468.78	205.97
468.96	154.48
469.14	224.69
469.32	220.01
469.50	133.41
469.69	227.03
469.87	252.78
470.05	227.03
470.23	215.33
470.41	212.99
470.59	126.39
470.77	243.42
470.95	163.84
471.14	245.76
471.32	201.29
471.50	198.95
471.68	142.77
471.86	163.84
472.04	189.58
472.22	210.65
472.40	238.73
472.58	224.69
472.77	149.79
472.95	208.31
473.13	255.12
473.31	163.84
473.49	184.90
473.67	93.62
473.85	210.65
474.03	161.50
474.21	152.13
474.39	119.37
474.57	276.18
474.75	287.89
474.93	208.31
475.12	135.75
475.30	198.95
475.48	203.63
475.66	201.29
475.84	173.20
476.02	231.71
476.20	292.57
476.38	180.22
476.56	269.16
476.74	234.05
476.92	161.50
477.10	236.39
477.28	224.69
477.46	198.95
477.64	231.71
477.82	208.31
478.00	217.67
478.18	238.73
478.36	252.78
478.54	191.92
478.72	234.05
478.90	156.82
479.08	201.29
479.26	187.24
479.44	173.20
479.62	201.29
479.80	149.79
479.98	166.18
480.16	149.79
480.34	227.03
480.52	217.67
480.70	170.86
480.88	262.14
481.06	133.41
481.24	187.24
481.41	191.92
481.59	196.60
481.77	248.10
481.95	210.65
482.13	266.82
482.31	205.97
482.49	229.37
482.67	126.39
482.85	191.92
483.03	243.42
483.21	271.50
483.39	236.39
483.57	229.37
483.74	259.80
483.92	224.69
484.10	173.20
484.28	271.50
484.46	227.03
484.64	208.31
484.82	208.31
485.00	220.01
485.18	255.12
485.35	264.48
485.53	170.86
485.71	271.50
485.89	238.73
486.07	201.29
486.25	320.65
486.43	250.44
486.61	250.44
486.78	287.89
486.96	175.54
487.14	196.60
487.32	234.05
487.50	255.12
487.68	196.60
487.85	278.52
488.03	304.27
488.21	311.29
488.39	236.39
488.57	255.12
488.75	245.76
488.92	512.58
489.10	262.14
489.28	297.25
489.46	276.18
489.64	234.05
489.81	280.86
489.99	297.25
490.17	229.37
490.35	269.16
490.53	285.55
490.70	250.44
490.88	203.63
491.06	203.63
491.24	252.78
491.41	262.14
491.59	297.25
491.77	257.46
491.95	215.33
492.13	252.78
492.30	292.57
492.48	245.76
492.66	250.44
492.84	276.18
493.01	290.23
493.19	315.97
493.37	248.10
493.54	299.59
493.72	248.10
493.90	234.05
494.08	245.76
494.25	276.18
494.43	259.80
494.61	271.50
494.79	227.03
494.96	245.76
495.14	334.70
495.32	208.31
495.49	313.63
495.67	201.29
495.85	198.95
496.02	205.97
496.20	318.31
496.38	173.20
496.55	173.20
496.73	203.63
496.91	259.80
497.09	248.10
497.26	161.50
497.44	241.08
497.62	243.42
497.79	266.82
497.97	196.60
498.14	290.23
498.32	245.76
498.50	304.27
498.67	264.48
498.85	294.91
499.03	231.71
499.20	245.76
499.38	229.37
499.56	203.63
499.73	304.27
499.91	236.39
500.08	299.59
500.26	255.12
500.44	208.31
500.61	266.82
500.79	159.16
500.97	205.97
501.14	264.48
501.32	262.14
501.49	290.23
501.67	292.57
501.84	217.67
502.02	210.65
502.20	273.84
502.37	220.01
502.55	215.33
502.72	271.50
502.90	201.29
503.07	273.84
503.25	262.14
503.43	217.67
503.60	236.39
503.78	306.61
503.95	220.01
504.13	292.57
504.30	285.55
504.48	290.23
504.65	280.86
504.83	234.05
505.01	271.50
505.18	238.73
505.36	262.14
505.53	264.48
505.71	259.80
505.88	320.65
506.06	266.82
506.23	271.50
506.41	208.31
506.58	320.65
506.76	318.31
506.93	259.80
507.11	287.89
507.28	257.46
507.46	276.18
507.63	269.16
507.81	234.05
507.98	243.42
508.16	280.86
508.33	269.16
508.50	255.12
508.68	280.86
508.85	252.78
509.03	264.48
509.20	283.20
509.38	306.61
509.55	313.63
509.73	243.42
509.90	334.70
510.08	215.33
510.25	177.88
510.42	224.69
510.60	271.50
510.77	182.56
510.95	297.25
511.12	241.08
511.30	264.48
511.47	264.48
511.64	222.35
511.82	290.23
511.99	238.73
512.17	248.10
512.34	245.76
512.51	210.65
512.69	182.56
512.86	287.89
513.04	278.52
513.21	301.93
513.38	220.01
513.56	269.16
513.73	220.01
513.90	220.01
514.08	217.67
514.25	287.89
514.43	271.50
514.60	231.71
514.77	287.89
514.95	243.42
515.12	210.65
515.29	217.67
515.47	191.92
515.64	238.73
515.81	224.69
515.99	355.76
516.16	276.18
516.33	210.65
516.51	187.24
516.68	215.33
516.85	175.54
517.03	215.33
517.20	250.44
517.37	259.80
517.54	264.48
517.72	215.33
517.89	220.01
518.06	201.29
518.24	278.52
518.41	252.78
518.58	271.50
518.75	255.12
518.93	227.03
519.10	234.05
519.27	255.12
519.45	264.48
519.62	215.33
519.79	210.65
519.96	287.89
520.14	304.27
520.31	259.80
520.48	287.89
520.65	203.63
520.83	266.82
521.00	191.92
521.17	276.18
521.34	248.10
521.52	271.50
521.69	248.10
521.86	252.78
522.03	259.80
522.20	315.97
522.38	332.36
522.55	262.14
522.72	227.03
522.89	220.01
523.07	386.19
523.24	292.57
523.41	255.12
523.58	257.46
523.75	212.99
523.92	250.44
524.10	276.18
524.27	259.80
524.44	217.67
524.61	280.86
524.78	212.99
524.96	231.71
525.13	280.86
525.30	318.31
525.47	341.72
525.64	283.20
525.81	311.29
525.98	344.06
526.16	255.12
526.33	287.89
526.50	278.52
526.67	156.82
526.84	187.24
527.01	248.10
527.18	287.89
527.36	337.04
527.53	259.80
527.70	322.99
527.87	245.76
528.04	353.42
528.21	224.69
528.38	241.08
528.55	236.39
528.72	234.05
528.89	262.14
529.07	266.82
529.24	355.76
529.41	337.04
529.58	276.18
529.75	320.65
529.92	227.03
530.09	227.03
530.26	287.89
530.43	280.86
530.60	257.46
530.77	241.08
530.94	231.71
531.11	259.80
531.28	227.03
531.46	236.39
531.63	308.95
531.80	229.37
531.97	313.63
532.14	252.78
532.31	271.50
532.48	243.42
532.65	306.61
532.82	241.08
532.99	257.46
533.16	217.67
533.33	318.31
533.50	266.82
533.67	287.89
533.84	280.86
534.01	306.61
534.18	283.20
534.35	280.86
534.52	276.18
534.69	273.84
534.86	297.25
535.03	257.46
535.20	238.73
535.37	346.40
535.54	306.61
535.71	280.86
535.88	299.59
536.05	250.44
536.22	304.27
536.38	304.27
536.55	290.23
536.72	266.82
536.89	280.86
537.06	280.86
537.23	294.91
537.40	294.91
537.57	283.20
537.74	365.12
537.91	334.70
538.08	339.38
538.25	248.10
538.42	285.55
538.59	229.37
538.75	330.02
538.92	308.95
539.09	290.23
539.26	315.97
539.43	276.18
539.60	348.74
539.77	397.89
539.94	358.10
540.11	388.53
540.28	414.27
540.44	430.66
540.61	369.80
540.78	386.19
540.95	519.60
541.12	470.45
541.29	475.13
541.46	512.58
541.62	456.40
541.79	477.47
541.96	559.39
542.13	463.43
542.30	428.32
542.47	400.23
542.63	346.40
542.80	447.04
542.97	496.19
543.14	346.40
543.31	423.64
543.48	409.59
543.64	430.66
543.81	465.77
543.98	500.87
544.15	369.80
544.32	442.36
544.48	425.98
544.65	435.34
544.82	442.36
544.99	468.11
545.16	435.34
545.32	451.72
545.49	683.44
545.66	847.27
545.83	760.67
546.00	718.54
546.16	582.79
546.33	407.25
546.50	472.79
546.67	503.22
546.83	409.59
547.00	409.59
547.17	325.33
547.34	255.12
547.50	388.53
547.67	418.96
547.84	416.62
548.00	372.15
548.17	313.63
548.34	374.49
548.51	367.46
548.67	285.55
548.84	355.76
549.01	325.33
549.18	379.17
549.34	402.57
549.51	365.12
549.68	297.25
549.84	313.63
550.01	334.70
550.18	423.64
550.34	388.53
550.51	241.08
550.68	330.02
550.84	334.70
551.01	231.71
551.18	273.84
551.34	353.42
551.51	276.18
551.68	243.42
551.84	327.68
552.01	297.25
552.18	294.91
552.34	320.65
552.51	266.82
552.68	297.25
552.84	332.36
553.01	304.27
553.18	292.57
553.34	276.18
553.51	238.73
553.67	278.52
553.84	334.70
554.01	313.63
554.17	250.44
554.34	332.36
554.51	257.46
554.67	241.08
554.84	217.67
555.00	381.51
555.17	320.65
555.33	327.68
555.50	241.08
555.67	308.95
555.83	201.29
556.00	304.27
556.16	430.66
556.33	259.80
556.50	266.82
556.66	278.52
556.83	250.44
556.99	245.76
557.16	257.46
557.32	315.97
557.49	234.05
557.65	287.89
557.82	287.89
557.98	243.42
558.15	297.25
558.32	301.93
558.48	292.57
558.65	187.24
558.81	276.18
558.98	285.55
559.14	238.73
559.31	227.03
559.47	315.97
559.64	287.89
559.80	315.97
559.97	212.99
560.13	290.23
560.30	257.46
560.46	241.08
560.63	255.12
560.79	278.52
560.96	339.38
561.12	236.39
561.29	262.14
561.45	278.52
561.61	194.26
561.78	322.99
561.94	231.71
562.11	198.95
562.27	229.37
562.44	273.84
562.60	325.33
562.77	229.37
562.93	360.44
563.10	287.89
563.26	238.73
563.42	222.35
563.59	236.39
563.75	255.12
563.92	220.01
564.08	287.89
564.24	269.16
564.41	250.44
564.57	224.69
564.74	255.12
564.90	238.73
565.07	304.27
565.23	318.31
565.39	224.69
565.56	294.91
565.72	241.08
565.88	229.37
566.05	180.22
566.21	299.59
566.38	224.69
566.54	278.52
566.70	292.57
566.87	184.90
567.03	208.31
567.19	276.18
567.36	262.14
567.52	276.18
567.68	241.08
567.85	266.82
568.01	208.31
568.17	220.01
568.34	159.16
568.50	306.61
568.66	217.67
568.83	245.76
568.99	280.86
569.15	330.02
569.32	252.78
569.48	236.39
569.64	198.95
569.81	322.99
569.97	257.46
570.13	262.14
570.30	238.73
570.46	189.58
570.62	280.86
570.78	259.80
570.95	238.73
571.11	217.67
571.27	278.52
571.43	215.33
571.60	292.57
571.76	210.65
571.92	283.20
572.09	273.84
572.25	224.69
572.41	217.67
572.57	250.44
572.74	318.31
572.90	306.61
573.06	285.55
573.22	306.61
573.38	290.23
573.55	276.18
573.71	198.95
573.87	262.14
574.03	276.18
574.20	229.37
574.36	198.95
574.52	196.60
574.68	238.73
574.84	215.33
575.01	262.14
575.17	264.48
575.33	252.78
575.49	262.14
575.65	311.29
575.82	276.18
575.98	287.89
576.14	194.26
576.30	313.63
576.46	315.97
576.62	339.38
576.79	313.63
576.95	287.89
577.11	320.65
577.27	255.12
577.43	276.18
577.59	259.80
577.75	191.92
577.92	212.99
578.08	266.82
578.24	280.86
578.40	358.10
578.56	388.53
578.72	351.08
578.88	304.27
579.04	276.18
579.21	306.61
579.37	276.18
579.53	264.48
579.69	315.97
579.85	278.52
580.01	287.89
580.17	285.55
580.33	315.97
580.49	294.91
580.65	224.69
580.82	304.27
580.98	278.52
581.14	283.20
581.30	337.04
581.46	196.60
581.62	255.12
581.78	255.12
581.94	332.36
582.10	259.80
582.26	287.89
582.42	308.95
582.58	280.86
582.74	271.50
582.90	322.99
583.06	334.70
583.22	255.12
583.38	311.29
583.54	292.57
583.70	388.53
583.86	250.44
584.02	322.99
584.18	355.76
584.34	285.55
584.50	400.23
584.66	1423.05
584.82	2810.98
584.98	3915.72
585.14	3644.21
585.30	2300.75
585.46	1540.07
585.62	1018.13
585.78	634.29
585.94	374.49
586.10	290.23
586.26	334.70
586.42	379.17
586.58	344.06
586.74	290.23
586.90	283.20
587.06	311.29
587.22	381.51
587.38	276.18
587.54	315.97
587.70	381.51
587.86	535.98
588.02	533.64
588.18	489.17
588.34	489.17
588.49	271.50
588.65	299.59
588.81	278.52
588.97	212.99
589.13	245.76
589.29	252.78
589.45	215.33
589.61	285.55
589.77	311.29
589.93	259.80
590.08	304.27
590.24	280.86
590.40	222.35
590.56	330.02
590.72	264.48
590.88	299.59
591.04	259.80
591.20	313.63
591.35	257.46
591.51	238.73
591.67	266.82
591.83	327.68
591.99	276.18
592.15	294.91
592.31	290.23
592.46	287.89
592.62	353.42
592.78	308.95
592.94	355.76
593.10	252.78
593.26	266.82
593.41	248.10
593.57	290.23
593.73	318.31
593.89	379.17
594.05	547.69
594.20	716.20
594.36	685.78
594.52	505.56
594.68	454.06
594.84	330.02
594.99	311.29
595.15	255.12
595.31	255.12
595.47	203.63
595.62	191.92
595.78	208.31
595.94	287.89
596.10	191.92
596.25	217.67
596.41	306.61
596.57	278.52
596.73	262.14
596.88	278.52
597.04	318.31
597.20	313.63
597.36	402.57
597.51	379.17
597.67	306.61
597.83	262.14
597.99	276.18
598.14	224.69
598.30	266.82
598.46	238.73
598.61	318.31
598.77	243.42
598.93	365.12
599.09	266.82
599.24	224.69
599.40	301.93
599.56	257.46
599.71	236.39
599.87	264.48
600.03	332.36
600.18	205.97
600.34	271.50
600.50	236.39
600.65	231.71
600.81	273.84
600.97	210.65
601.12	306.61
601.28	292.57
601.44	278.52
601.59	285.55
601.75	259.80
601.91	278.52
602.06	250.44
602.22	313.63
602.37	252.78
602.53	334.70
602.69	325.33
602.84	383.85
603.00	318.31
603.16	351.08
603.31	236.39
603.47	264.48
603.62	203.63
603.78	276.18
603.94	290.23
604.09	259.80
604.25	299.59
604.40	339.38
604.56	184.90
604.71	163.84
604.87	257.46
605.03	280.86
605.18	241.08
605.34	273.84
605.49	266.82
605.65	278.52
605.80	215.33
605.96	227.03
606.12	273.84
606.27	320.65
606.43	238.73
606.58	215.33
606.74	257.46
606.89	369.80
607.05	608.54
607.20	664.71
607.36	557.05
607.51	498.53
607.67	442.36
607.82	365.12
607.98	311.29
608.13	297.25
608.29	318.31
608.44	334.70
608.60	308.95
608.75	346.40
608.91	388.53
609.06	589.82
609.22	779.40
609.37	1025.15
609.53	919.83
609.68	779.40
609.84	566.41
609.99	449.38
610.15	477.47
610.30	447.04
610.46	510.24
610.61	676.41
610.76	603.86
