SpectraSuite Data File
++++++++++++++++++++++++++++++++++++
Date: Fri Oct 04 11:33:46 GMT-05:00 2013
User: price-jones
Dark Spectrum Present: No
Reference Spectrum Present: No
Number of Sampled Component Spectra: 1
Spectrometers: USB2+H05261
Integration Time (usec): 100000 (USB2+H05261)
Spectra Averaged: 1 (USB2+H05261)
Boxcar Smoothing: 0 (USB2+H05261)
Correct for Electrical Dark: No (USB2+H05261)
Strobe/Lamp Enabled: No (USB2+H05261)
Correct for Detector Non-linearity: No (USB2+H05261)
Correct for Stray Light: No (USB2+H05261)
Number of Pixels in Processed Spectrum: 2048
>>>>>Begin Processed Spectral Data<<<<<
365.73	91.28
365.92	91.28
366.12	91.28
366.32	0.00
366.52	23.41
366.72	46.81
366.91	0.00
367.11	0.00
367.31	16.38
367.51	21.06
367.70	18.72
367.90	23.41
368.10	9.36
368.30	0.00
368.49	0.00
368.69	0.00
368.89	0.00
369.09	0.00
369.28	16.38
369.48	44.47
369.68	53.83
369.87	46.81
370.07	25.75
370.27	42.13
370.47	42.13
370.66	84.26
370.86	105.32
371.06	93.62
371.25	156.82
371.45	63.19
371.65	102.98
371.84	119.37
372.04	63.19
372.24	98.30
372.44	107.66
372.63	100.64
372.83	189.58
373.03	124.05
373.22	161.50
373.42	126.39
373.62	60.85
373.81	154.48
374.01	191.92
374.21	170.86
374.40	173.20
374.60	205.97
374.79	156.82
374.99	107.66
375.19	177.88
375.38	86.60
375.58	88.94
375.78	198.95
375.97	124.05
376.17	255.12
376.37	105.32
376.56	145.11
376.76	98.30
376.95	74.90
377.15	159.16
377.35	124.05
377.54	147.45
377.74	119.37
377.93	138.09
378.13	84.26
378.33	128.73
378.52	126.39
378.72	102.98
378.91	189.58
379.11	149.79
379.31	88.94
379.50	124.05
379.70	119.37
379.89	156.82
380.09	112.35
380.28	166.18
380.48	135.75
380.68	173.20
380.87	102.98
381.07	173.20
381.26	166.18
381.46	170.86
381.65	126.39
381.85	170.86
382.04	156.82
382.24	138.09
382.43	117.03
382.63	156.82
382.83	191.92
383.02	189.58
383.22	105.32
383.41	124.05
383.61	131.07
383.80	114.69
384.00	44.47
384.19	107.66
384.39	77.24
384.58	110.01
384.78	138.09
384.97	119.37
385.17	53.83
385.36	91.28
385.56	266.82
385.75	114.69
385.95	112.35
386.14	166.18
386.34	138.09
386.53	212.99
386.72	156.82
386.92	173.20
387.11	201.29
387.31	187.24
387.50	133.41
387.70	159.16
387.89	72.56
388.09	133.41
388.28	203.63
388.48	121.71
388.67	142.77
388.86	177.88
389.06	194.26
389.25	147.45
389.45	161.50
389.64	107.66
389.84	224.69
390.03	100.64
390.22	170.86
390.42	191.92
390.61	81.92
390.81	100.64
391.00	149.79
391.19	198.95
391.39	79.58
391.58	215.33
391.78	189.58
391.97	102.98
392.16	156.82
392.36	203.63
392.55	124.05
392.75	201.29
392.94	142.77
393.13	95.96
393.33	110.01
393.52	131.07
393.71	117.03
393.91	147.45
394.10	184.90
394.29	163.84
394.49	84.26
394.68	131.07
394.88	128.73
395.07	208.31
395.26	128.73
395.46	142.77
395.65	173.20
395.84	121.71
396.04	191.92
396.23	163.84
396.42	142.77
396.62	126.39
396.81	166.18
397.00	119.37
397.19	147.45
397.39	159.16
397.58	126.39
397.77	95.96
397.97	154.48
398.16	100.64
398.35	243.42
398.55	119.37
398.74	133.41
398.93	266.82
399.12	189.58
399.32	170.86
399.51	147.45
399.70	173.20
399.90	88.94
400.09	196.60
400.28	215.33
400.47	110.01
400.67	222.35
400.86	147.45
401.05	133.41
401.24	184.90
401.44	93.62
401.63	180.22
401.82	205.97
402.01	138.09
402.21	152.13
402.40	128.73
402.59	124.05
402.78	145.11
402.97	107.66
403.17	126.39
403.36	159.16
403.55	133.41
403.74	156.82
403.93	159.16
404.13	264.48
404.32	147.45
404.51	159.16
404.70	203.63
404.89	229.37
405.09	241.08
405.28	121.71
405.47	124.05
405.66	168.52
405.85	168.52
406.05	124.05
406.24	184.90
406.43	128.73
406.62	126.39
406.81	198.95
407.00	191.92
407.20	175.54
407.39	205.97
407.58	203.63
407.77	110.01
407.96	149.79
408.15	187.24
408.34	177.88
408.54	121.71
408.73	117.03
408.92	210.65
409.11	194.26
409.30	189.58
409.49	102.98
409.68	159.16
409.87	131.07
410.07	189.58
410.26	212.99
410.45	142.77
410.64	86.60
410.83	147.45
411.02	177.88
411.21	217.67
411.40	140.43
411.59	131.07
411.78	131.07
411.98	173.20
412.17	203.63
412.36	102.98
412.55	126.39
412.74	138.09
412.93	189.58
413.12	142.77
413.31	212.99
413.50	159.16
413.69	168.52
413.88	135.75
414.07	147.45
414.26	138.09
414.45	201.29
414.64	238.73
414.83	110.01
415.02	138.09
415.22	241.08
415.41	161.50
415.60	180.22
415.79	159.16
415.98	201.29
416.17	215.33
416.36	170.86
416.55	166.18
416.74	189.58
416.93	198.95
417.12	198.95
417.31	168.52
417.50	114.69
417.69	205.97
417.88	142.77
418.07	126.39
418.26	236.39
418.45	135.75
418.64	217.67
418.83	222.35
419.02	212.99
419.21	161.50
419.39	248.10
419.58	170.86
419.77	194.26
419.96	177.88
420.15	276.18
420.34	138.09
420.53	166.18
420.72	245.76
420.91	107.66
421.10	170.86
421.29	131.07
421.48	189.58
421.67	154.48
421.86	140.43
422.05	149.79
422.24	208.31
422.43	170.86
422.61	208.31
422.80	189.58
422.99	147.45
423.18	154.48
423.37	177.88
423.56	236.39
423.75	222.35
423.94	119.37
424.13	159.16
424.32	128.73
424.50	177.88
424.69	166.18
424.88	168.52
425.07	152.13
425.26	180.22
425.45	203.63
425.64	208.31
425.83	114.69
426.01	220.01
426.20	110.01
426.39	184.90
426.58	88.94
426.77	177.88
426.96	140.43
427.15	194.26
427.33	145.11
427.52	128.73
427.71	135.75
427.90	229.37
428.09	163.84
428.28	131.07
428.46	124.05
428.65	180.22
428.84	184.90
429.03	173.20
429.22	189.58
429.40	131.07
429.59	215.33
429.78	154.48
429.97	168.52
430.16	173.20
430.34	145.11
430.53	191.92
430.72	163.84
430.91	187.24
431.10	168.52
431.28	156.82
431.47	100.64
431.66	142.77
431.85	117.03
432.03	173.20
432.22	241.08
432.41	180.22
432.60	145.11
432.79	152.13
432.97	175.54
433.16	166.18
433.35	135.75
433.54	159.16
433.72	217.67
433.91	196.60
434.10	212.99
434.28	168.52
434.47	175.54
434.66	187.24
434.85	196.60
435.03	255.12
435.22	388.53
435.41	451.72
435.59	477.47
435.78	315.97
435.97	243.42
436.16	308.95
436.34	201.29
436.53	222.35
436.72	154.48
436.90	201.29
437.09	212.99
437.28	194.26
437.46	102.98
437.65	224.69
437.84	138.09
438.02	180.22
438.21	220.01
438.40	208.31
438.58	248.10
438.77	175.54
438.96	145.11
439.14	187.24
439.33	177.88
439.52	198.95
439.70	145.11
439.89	205.97
440.08	273.84
440.26	187.24
440.45	168.52
440.63	191.92
440.82	187.24
441.01	182.56
441.19	245.76
441.38	198.95
441.57	170.86
441.75	227.03
441.94	210.65
442.12	149.79
442.31	208.31
442.50	191.92
442.68	229.37
442.87	175.54
443.05	152.13
443.24	124.05
443.43	184.90
443.61	264.48
443.80	205.97
443.98	126.39
444.17	180.22
444.35	243.42
444.54	271.50
444.73	196.60
444.91	220.01
445.10	184.90
445.28	147.45
445.47	177.88
445.65	161.50
445.84	126.39
446.02	161.50
446.21	203.63
446.39	145.11
446.58	248.10
446.77	217.67
446.95	140.43
447.14	138.09
447.32	210.65
447.51	124.05
447.69	224.69
447.88	145.11
448.06	215.33
448.25	147.45
448.43	161.50
448.62	222.35
448.80	229.37
448.99	220.01
449.17	217.67
449.36	168.52
449.54	227.03
449.73	168.52
449.91	294.91
450.10	191.92
450.28	210.65
450.46	255.12
450.65	238.73
450.83	241.08
451.02	128.73
451.20	212.99
451.39	161.50
451.57	255.12
451.76	205.97
451.94	210.65
452.13	163.84
452.31	259.80
452.49	215.33
452.68	234.05
452.86	184.90
453.05	236.39
453.23	159.16
453.42	166.18
453.60	198.95
453.78	271.50
453.97	205.97
454.15	156.82
454.34	170.86
454.52	154.48
454.70	243.42
454.89	243.42
455.07	224.69
455.26	191.92
455.44	170.86
455.62	187.24
455.81	215.33
455.99	156.82
456.17	236.39
456.36	212.99
456.54	287.89
456.73	156.82
456.91	187.24
457.09	238.73
457.28	201.29
457.46	166.18
457.64	198.95
457.83	194.26
458.01	182.56
458.19	243.42
458.38	215.33
458.56	168.52
458.74	191.92
458.93	252.78
459.11	173.20
459.29	177.88
459.48	250.44
459.66	245.76
459.84	248.10
460.03	250.44
460.21	252.78
460.39	152.13
460.57	224.69
460.76	222.35
460.94	168.52
461.12	210.65
461.31	215.33
461.49	215.33
461.67	168.52
461.85	224.69
462.04	234.05
462.22	671.73
462.40	245.76
462.59	245.76
462.77	166.18
462.95	152.13
463.13	201.29
463.32	301.93
463.50	306.61
463.68	196.60
463.86	163.84
464.05	154.48
464.23	234.05
464.41	238.73
464.59	175.54
464.78	227.03
464.96	250.44
465.14	152.13
465.32	175.54
465.50	231.71
465.69	245.76
465.87	238.73
466.05	231.71
466.23	105.32
466.41	203.63
466.60	210.65
466.78	182.56
466.96	271.50
467.14	119.37
467.32	229.37
467.51	222.35
467.69	163.84
467.87	220.01
468.05	222.35
468.23	271.50
468.41	182.56
468.60	212.99
468.78	194.26
468.96	205.97
469.14	243.42
469.32	163.84
469.50	187.24
469.69	212.99
469.87	210.65
470.05	236.39
470.23	236.39
470.41	182.56
470.59	234.05
470.77	175.54
470.95	210.65
471.14	255.12
471.32	238.73
471.50	248.10
471.68	208.31
471.86	210.65
472.04	257.46
472.22	170.86
472.40	245.76
472.58	184.90
472.77	189.58
472.95	236.39
473.13	290.23
473.31	243.42
473.49	194.26
473.67	161.50
473.85	205.97
474.03	229.37
474.21	182.56
474.39	259.80
474.57	224.69
474.75	196.60
474.93	170.86
475.12	262.14
475.30	222.35
475.48	152.13
475.66	170.86
475.84	210.65
476.02	131.07
476.20	163.84
476.38	227.03
476.56	285.55
476.74	166.18
476.92	159.16
477.10	271.50
477.28	177.88
477.46	215.33
477.64	220.01
477.82	203.63
478.00	156.82
478.18	234.05
478.36	229.37
478.54	194.26
478.72	147.45
478.90	191.92
479.08	227.03
479.26	241.08
479.44	180.22
479.62	173.20
479.80	177.88
479.98	210.65
480.16	229.37
480.34	229.37
480.52	201.29
480.70	203.63
480.88	170.86
481.06	269.16
481.24	280.86
481.41	201.29
481.59	234.05
481.77	208.31
481.95	198.95
482.13	198.95
482.31	203.63
482.49	280.86
482.67	224.69
482.85	191.92
483.03	220.01
483.21	217.67
483.39	227.03
483.57	208.31
483.74	327.68
483.92	325.33
484.10	257.46
484.28	210.65
484.46	341.72
484.64	236.39
484.82	236.39
485.00	187.24
485.18	215.33
485.35	210.65
485.53	189.58
485.71	308.95
485.89	243.42
486.07	208.31
486.25	306.61
486.43	255.12
486.61	203.63
486.78	252.78
486.96	159.16
487.14	278.52
487.32	227.03
487.50	276.18
487.68	257.46
487.85	252.78
488.03	311.29
488.21	250.44
488.39	245.76
488.57	346.40
488.75	255.12
488.92	538.32
489.10	318.31
489.28	297.25
489.46	301.93
489.64	266.82
489.81	255.12
489.99	402.57
490.17	322.99
490.35	320.65
490.53	271.50
490.70	245.76
490.88	322.99
491.06	292.57
491.24	313.63
491.41	297.25
491.59	271.50
491.77	250.44
491.95	236.39
492.13	306.61
492.30	243.42
492.48	283.20
492.66	257.46
492.84	271.50
493.01	262.14
493.19	259.80
493.37	306.61
493.54	353.42
493.72	280.86
493.90	287.89
494.08	191.92
494.25	266.82
494.43	245.76
494.61	252.78
494.79	306.61
494.96	217.67
495.14	222.35
495.32	273.84
495.49	292.57
495.67	306.61
495.85	173.20
496.02	271.50
496.20	276.18
496.38	292.57
496.55	287.89
496.73	271.50
496.91	201.29
497.09	327.68
497.26	222.35
497.44	290.23
497.62	290.23
497.79	252.78
497.97	278.52
498.14	348.74
498.32	278.52
498.50	348.74
498.67	241.08
498.85	238.73
499.03	301.93
499.20	255.12
499.38	259.80
499.56	245.76
499.73	308.95
499.91	234.05
500.08	191.92
500.26	266.82
500.44	248.10
500.61	243.42
500.79	222.35
500.97	285.55
501.14	250.44
501.32	264.48
501.49	315.97
501.67	362.78
501.84	252.78
502.02	269.16
502.20	248.10
502.37	255.12
502.55	205.97
502.72	173.20
502.90	271.50
503.07	294.91
503.25	297.25
503.43	245.76
503.60	250.44
503.78	231.71
503.95	259.80
504.13	276.18
504.30	280.86
504.48	259.80
504.65	369.80
504.83	259.80
505.01	283.20
505.18	245.76
505.36	283.20
505.53	266.82
505.71	339.38
505.88	271.50
506.06	301.93
506.23	290.23
506.41	231.71
506.58	280.86
506.76	290.23
506.93	205.97
507.11	234.05
507.28	290.23
507.46	238.73
507.63	278.52
507.81	217.67
507.98	191.92
508.16	351.08
508.33	266.82
508.50	334.70
508.68	227.03
508.85	330.02
509.03	224.69
509.20	379.17
509.38	301.93
509.55	311.29
509.73	301.93
509.90	285.55
510.08	278.52
510.25	301.93
510.42	269.16
510.60	262.14
510.77	315.97
510.95	294.91
511.12	330.02
511.30	315.97
511.47	365.12
511.64	304.27
511.82	273.84
511.99	276.18
512.17	287.89
512.34	210.65
512.51	227.03
512.69	292.57
512.86	318.31
513.04	243.42
513.21	271.50
513.38	306.61
513.56	205.97
513.73	315.97
513.90	308.95
514.08	264.48
514.25	285.55
514.43	297.25
514.60	292.57
514.77	276.18
514.95	327.68
515.12	294.91
515.29	294.91
515.47	264.48
515.64	283.20
515.81	301.93
515.99	318.31
516.16	191.92
516.33	297.25
516.51	231.71
516.68	229.37
516.85	248.10
517.03	257.46
517.20	374.49
517.37	271.50
517.54	224.69
517.72	271.50
517.89	264.48
518.06	252.78
518.24	280.86
518.41	365.12
518.58	318.31
518.75	241.08
518.93	351.08
519.10	278.52
519.27	299.59
519.45	292.57
519.62	283.20
519.79	327.68
519.96	243.42
520.14	297.25
520.31	264.48
520.48	241.08
520.65	252.78
520.83	290.23
521.00	255.12
521.17	269.16
521.34	276.18
521.52	299.59
521.69	264.48
521.86	210.65
522.03	351.08
522.20	294.91
522.38	210.65
522.55	301.93
522.72	325.33
522.89	320.65
523.07	306.61
523.24	283.20
523.41	304.27
523.58	308.95
523.75	290.23
523.92	266.82
524.10	280.86
524.27	351.08
524.44	290.23
524.61	320.65
524.78	266.82
524.96	290.23
525.13	283.20
525.30	278.52
525.47	330.02
525.64	325.33
525.81	264.48
525.98	283.20
526.16	257.46
526.33	236.39
526.50	248.10
526.67	212.99
526.84	248.10
527.01	283.20
527.18	332.36
527.36	299.59
527.53	229.37
527.70	372.15
527.87	330.02
528.04	365.12
528.21	287.89
528.38	308.95
528.55	299.59
528.72	322.99
528.89	299.59
529.07	341.72
529.24	299.59
529.41	339.38
529.58	238.73
529.75	266.82
529.92	283.20
530.09	344.06
530.26	376.83
530.43	353.42
530.60	191.92
530.77	273.84
530.94	308.95
531.11	273.84
531.28	222.35
531.46	313.63
531.63	271.50
531.80	346.40
531.97	273.84
532.14	266.82
532.31	348.74
532.48	278.52
532.65	266.82
532.82	283.20
532.99	266.82
533.16	414.27
533.33	315.97
533.50	271.50
533.67	337.04
533.84	304.27
534.01	276.18
534.18	346.40
534.35	322.99
534.52	308.95
534.69	360.44
534.86	320.65
535.03	243.42
535.20	315.97
535.37	304.27
535.54	306.61
535.71	330.02
535.88	379.17
536.05	330.02
536.22	280.86
536.38	372.15
536.55	322.99
536.72	287.89
536.89	425.98
537.06	318.31
537.23	266.82
537.40	369.80
537.57	322.99
537.74	353.42
537.91	330.02
538.08	388.53
538.25	322.99
538.42	306.61
538.59	400.23
538.75	390.87
538.92	369.80
539.09	379.17
539.26	346.40
539.43	360.44
539.60	425.98
539.77	524.28
539.94	524.28
540.11	447.04
540.28	517.26
540.44	395.55
540.61	440.02
540.78	489.17
540.95	594.50
541.12	566.41
541.29	594.50
541.46	573.43
541.62	568.75
541.79	521.94
541.96	550.03
542.13	559.39
542.30	493.85
542.47	425.98
542.63	566.41
542.80	601.52
542.97	594.50
543.14	507.90
543.31	505.56
543.48	477.47
543.64	608.54
543.81	589.82
543.98	543.00
544.15	550.03
544.32	521.94
544.48	510.24
544.65	568.75
544.82	510.24
544.99	575.77
545.16	521.94
545.32	547.69
545.49	835.57
545.66	1015.79
545.83	1018.13
546.00	1071.97
546.16	706.84
546.33	641.31
546.50	526.62
546.67	454.06
546.83	484.49
547.00	465.77
547.17	414.27
547.34	472.79
547.50	521.94
547.67	425.98
547.84	367.46
548.00	451.72
548.17	435.34
548.34	482.15
548.51	454.06
548.67	400.23
548.84	430.66
549.01	374.49
549.18	353.42
549.34	479.81
549.51	351.08
549.68	301.93
549.84	400.23
550.01	322.99
550.18	461.09
550.34	447.04
550.51	372.15
550.68	386.19
550.84	337.04
551.01	339.38
551.18	395.55
551.34	353.42
551.51	381.51
551.68	271.50
551.84	447.04
552.01	344.06
552.18	325.33
552.34	318.31
552.51	332.36
552.68	301.93
552.84	315.97
553.01	330.02
553.18	325.33
553.34	301.93
553.51	252.78
553.67	341.72
553.84	411.93
554.01	318.31
554.17	292.57
554.34	355.76
554.51	346.40
554.67	365.12
554.84	271.50
555.00	330.02
555.17	273.84
555.33	358.10
555.50	334.70
555.67	367.46
555.83	287.89
556.00	341.72
556.16	472.79
556.33	306.61
556.50	418.96
556.66	351.08
556.83	236.39
556.99	301.93
557.16	301.93
557.32	266.82
557.49	351.08
557.65	322.99
557.82	292.57
557.98	255.12
558.15	292.57
558.32	301.93
558.48	301.93
558.65	276.18
558.81	264.48
558.98	212.99
559.14	292.57
559.31	428.32
559.47	292.57
559.64	325.33
559.80	322.99
559.97	311.29
560.13	290.23
560.30	339.38
560.46	297.25
560.63	266.82
560.79	294.91
560.96	306.61
561.12	231.71
561.29	301.93
561.45	308.95
561.61	301.93
561.78	390.87
561.94	255.12
562.11	280.86
562.27	320.65
562.44	205.97
562.60	269.16
562.77	308.95
562.93	287.89
563.10	318.31
563.26	283.20
563.42	337.04
563.59	365.12
563.75	297.25
563.92	311.29
564.08	362.78
564.24	304.27
564.41	292.57
564.57	255.12
564.74	273.84
564.90	283.20
565.07	283.20
565.23	301.93
565.39	306.61
565.56	308.95
565.72	259.80
565.88	280.86
566.05	285.55
566.21	360.44
566.38	358.10
566.54	290.23
566.70	243.42
566.87	238.73
567.03	229.37
567.19	297.25
567.36	320.65
567.52	255.12
567.68	220.01
567.85	278.52
568.01	273.84
568.17	215.33
568.34	276.18
568.50	196.60
568.66	278.52
568.83	327.68
568.99	248.10
569.15	248.10
569.32	334.70
569.48	198.95
569.64	271.50
569.81	201.29
569.97	238.73
570.13	259.80
570.30	271.50
570.46	283.20
570.62	297.25
570.78	210.65
570.95	334.70
571.11	271.50
571.27	301.93
571.43	304.27
571.60	276.18
571.76	266.82
571.92	180.22
572.09	294.91
572.25	294.91
572.41	198.95
572.57	299.59
572.74	330.02
572.90	241.08
573.06	271.50
573.22	337.04
573.38	280.86
573.55	287.89
573.71	231.71
573.87	231.71
574.03	304.27
574.20	245.76
574.36	327.68
574.52	264.48
574.68	250.44
574.84	241.08
575.01	280.86
575.17	320.65
575.33	276.18
575.49	301.93
575.65	273.84
575.82	327.68
575.98	367.46
576.14	379.17
576.30	369.80
576.46	304.27
576.62	503.22
576.79	461.09
576.95	376.83
577.11	306.61
577.27	313.63
577.43	353.42
577.59	365.12
577.75	297.25
577.92	278.52
578.08	269.16
578.24	234.05
578.40	299.59
578.56	327.68
578.72	451.72
578.88	423.64
579.04	362.78
579.21	381.51
579.37	344.06
579.53	325.33
579.69	465.77
579.85	271.50
580.01	332.36
580.17	332.36
580.33	337.04
580.49	278.52
580.65	320.65
580.82	318.31
580.98	297.25
581.14	299.59
581.30	353.42
581.46	330.02
581.62	348.74
581.78	332.36
581.94	381.51
582.10	346.40
582.26	358.10
582.42	339.38
582.58	367.46
582.74	374.49
582.90	430.66
583.06	404.91
583.22	423.64
583.38	322.99
583.54	292.57
583.70	337.04
583.86	390.87
584.02	372.15
584.18	421.30
584.34	409.59
584.50	589.82
584.66	1853.70
584.82	4095.94
584.98	5921.56
585.14	5418.34
585.30	3482.72
585.46	2286.70
585.62	1467.52
585.78	894.08
585.94	517.26
586.10	418.96
586.26	388.53
586.42	372.15
586.58	339.38
586.74	353.42
586.90	337.04
587.06	416.62
587.22	463.43
587.38	379.17
587.54	435.34
587.70	580.45
587.86	755.99
588.02	711.52
588.18	643.65
588.34	503.22
588.49	423.64
588.65	358.10
588.81	278.52
588.97	271.50
589.13	290.23
589.29	320.65
589.45	292.57
589.61	308.95
589.77	262.14
589.93	222.35
590.08	283.20
590.24	346.40
590.40	280.86
590.56	276.18
590.72	299.59
590.88	304.27
591.04	362.78
591.20	353.42
591.35	376.83
591.51	294.91
591.67	236.39
591.83	278.52
591.99	306.61
592.15	245.76
592.31	344.06
592.46	337.04
592.62	332.36
592.78	362.78
592.94	308.95
593.10	332.36
593.26	252.78
593.41	362.78
593.57	416.62
593.73	313.63
593.89	449.38
594.05	833.23
594.20	1027.50
594.36	1057.92
594.52	816.85
594.68	580.45
594.84	489.17
594.99	388.53
595.15	287.89
595.31	322.99
595.47	334.70
595.62	278.52
595.78	308.95
595.94	320.65
596.10	355.76
596.25	334.70
596.41	344.06
596.57	299.59
596.73	248.10
596.88	248.10
597.04	311.29
597.20	386.19
597.36	458.74
597.51	484.49
597.67	395.55
597.83	248.10
597.99	348.74
598.14	259.80
598.30	320.65
598.46	248.10
598.61	339.38
598.77	320.65
598.93	409.59
599.09	280.86
599.24	259.80
599.40	337.04
599.56	322.99
599.71	339.38
599.87	229.37
600.03	294.91
600.18	346.40
600.34	353.42
600.50	292.57
600.65	358.10
600.81	318.31
600.97	285.55
601.12	287.89
601.28	306.61
601.44	337.04
601.59	252.78
601.75	231.71
601.91	297.25
602.06	234.05
602.22	348.74
602.37	283.20
602.53	416.62
602.69	463.43
602.84	465.77
603.00	390.87
603.16	407.25
603.31	416.62
603.47	353.42
603.62	362.78
603.78	383.85
603.94	262.14
604.09	322.99
604.25	290.23
604.40	346.40
604.56	337.04
604.71	332.36
604.87	236.39
605.03	280.86
605.18	327.68
605.34	339.38
605.49	365.12
605.65	322.99
605.80	339.38
605.96	334.70
606.12	243.42
606.27	411.93
606.43	266.82
606.58	308.95
606.74	379.17
606.89	528.96
607.05	760.67
607.20	1013.45
607.36	866.00
607.51	554.71
607.67	526.62
607.82	416.62
607.98	444.70
608.13	348.74
608.29	369.80
608.44	397.89
608.60	381.51
608.75	400.23
608.91	402.57
609.06	697.48
609.22	1177.29
609.37	1507.30
609.53	1259.21
609.68	1053.24
609.84	905.79
609.99	727.91
610.15	589.82
610.30	664.71
610.46	669.39
610.61	781.74
