SpectraSuite Data File
++++++++++++++++++++++++++++++++++++
Date: Fri Oct 04 11:33:56 GMT-05:00 2013
User: price-jones
Dark Spectrum Present: No
Reference Spectrum Present: No
Number of Sampled Component Spectra: 1
Spectrometers: USB2+H05261
Integration Time (usec): 100000 (USB2+H05261)
Spectra Averaged: 1 (USB2+H05261)
Boxcar Smoothing: 0 (USB2+H05261)
Correct for Electrical Dark: No (USB2+H05261)
Strobe/Lamp Enabled: No (USB2+H05261)
Correct for Detector Non-linearity: No (USB2+H05261)
Correct for Stray Light: No (USB2+H05261)
Number of Pixels in Processed Spectrum: 2048
>>>>>Begin Processed Spectral Data<<<<<
365.73	46.81
365.92	46.81
366.12	46.81
366.32	21.06
366.52	0.00
366.72	0.00
366.91	0.00
367.11	0.00
367.31	0.00
367.51	0.00
367.70	0.00
367.90	0.00
368.10	4.68
368.30	0.00
368.49	0.00
368.69	0.00
368.89	0.00
369.09	0.00
369.28	0.00
369.48	0.00
369.68	0.00
369.87	18.72
370.07	18.72
370.27	93.62
370.47	0.00
370.66	114.69
370.86	86.60
371.06	142.77
371.25	149.79
371.45	77.24
371.65	51.49
371.84	98.30
372.04	51.49
372.24	166.18
372.44	100.64
372.63	189.58
372.83	184.90
373.03	119.37
373.22	222.35
373.42	173.20
373.62	81.92
373.81	203.63
374.01	133.41
374.21	147.45
374.40	124.05
374.60	196.60
374.79	133.41
374.99	147.45
375.19	135.75
375.38	149.79
375.58	217.67
375.78	191.92
375.97	133.41
376.17	259.80
376.37	145.11
376.56	201.29
376.76	95.96
376.95	126.39
377.15	191.92
377.35	117.03
377.54	252.78
377.74	201.29
377.93	63.19
378.13	142.77
378.33	112.35
378.52	128.73
378.72	138.09
378.91	189.58
379.11	91.28
379.31	105.32
379.50	105.32
379.70	145.11
379.89	152.13
380.09	152.13
380.28	117.03
380.48	79.58
380.68	72.56
380.87	140.43
381.07	149.79
381.26	191.92
381.46	126.39
381.65	191.92
381.85	128.73
382.04	128.73
382.24	145.11
382.43	168.52
382.63	135.75
382.83	65.54
383.02	154.48
383.22	142.77
383.41	110.01
383.61	77.24
383.80	126.39
384.00	163.84
384.19	220.01
384.39	112.35
384.58	110.01
384.78	128.73
384.97	149.79
385.17	133.41
385.36	112.35
385.56	196.60
385.75	65.54
385.95	152.13
386.14	161.50
386.34	126.39
386.53	42.13
386.72	86.60
386.92	205.97
387.11	159.16
387.31	152.13
387.50	107.66
387.70	147.45
387.89	168.52
388.09	93.62
388.28	114.69
388.48	163.84
388.67	212.99
388.86	112.35
389.06	133.41
389.25	142.77
389.45	201.29
389.64	126.39
389.84	105.32
390.03	145.11
390.22	163.84
390.42	173.20
390.61	117.03
390.81	182.56
391.00	124.05
391.19	154.48
391.39	135.75
391.58	182.56
391.78	135.75
391.97	81.92
392.16	93.62
392.36	145.11
392.55	210.65
392.75	166.18
392.94	102.98
393.13	117.03
393.33	58.51
393.52	145.11
393.71	236.39
393.91	145.11
394.10	149.79
394.29	142.77
394.49	133.41
394.68	187.24
394.88	252.78
395.07	189.58
395.26	110.01
395.46	149.79
395.65	124.05
395.84	198.95
396.04	191.92
396.23	91.28
396.42	107.66
396.62	135.75
396.81	180.22
397.00	201.29
397.19	112.35
397.39	163.84
397.58	166.18
397.77	112.35
397.97	154.48
398.16	107.66
398.35	117.03
398.55	86.60
398.74	142.77
398.93	161.50
399.12	208.31
399.32	133.41
399.51	112.35
399.70	145.11
399.90	191.92
400.09	135.75
400.28	168.52
400.47	102.98
400.67	154.48
400.86	156.82
401.05	117.03
401.24	154.48
401.44	191.92
401.63	152.13
401.82	159.16
402.01	231.71
402.21	142.77
402.40	156.82
402.59	159.16
402.78	112.35
402.97	196.60
403.17	177.88
403.36	152.13
403.55	154.48
403.74	212.99
403.93	201.29
404.13	255.12
404.32	250.44
404.51	177.88
404.70	166.18
404.89	107.66
405.09	180.22
405.28	133.41
405.47	154.48
405.66	124.05
405.85	250.44
406.05	205.97
406.24	152.13
406.43	145.11
406.62	163.84
406.81	222.35
407.00	184.90
407.20	212.99
407.39	154.48
407.58	175.54
407.77	217.67
407.96	224.69
408.15	147.45
408.34	110.01
408.54	124.05
408.73	156.82
408.92	133.41
409.11	201.29
409.30	177.88
409.49	154.48
409.68	180.22
409.87	177.88
410.07	154.48
410.26	142.77
410.45	128.73
410.64	107.66
410.83	117.03
411.02	121.71
411.21	231.71
411.40	170.86
411.59	154.48
411.78	124.05
411.98	168.52
412.17	72.56
412.36	198.95
412.55	152.13
412.74	154.48
412.93	194.26
413.12	163.84
413.31	234.05
413.50	81.92
413.69	138.09
413.88	205.97
414.07	198.95
414.26	121.71
414.45	117.03
414.64	166.18
414.83	142.77
415.02	231.71
415.22	196.60
415.41	227.03
415.60	168.52
415.79	152.13
415.98	196.60
416.17	222.35
416.36	128.73
416.55	184.90
416.74	224.69
416.93	215.33
417.12	245.76
417.31	149.79
417.50	154.48
417.69	222.35
417.88	262.14
418.07	131.07
418.26	187.24
418.45	154.48
418.64	252.78
418.83	173.20
419.02	201.29
419.21	156.82
419.39	175.54
419.58	168.52
419.77	227.03
419.96	224.69
420.15	159.16
420.34	222.35
420.53	147.45
420.72	133.41
420.91	173.20
421.10	173.20
421.29	161.50
421.48	187.24
421.67	227.03
421.86	187.24
422.05	152.13
422.24	187.24
422.43	170.86
422.61	159.16
422.80	166.18
422.99	252.78
423.18	168.52
423.37	196.60
423.56	177.88
423.75	191.92
423.94	154.48
424.13	46.81
424.32	112.35
424.50	184.90
424.69	217.67
424.88	187.24
425.07	187.24
425.26	259.80
425.45	208.31
425.64	224.69
425.83	252.78
426.01	262.14
426.20	161.50
426.39	147.45
426.58	163.84
426.77	227.03
426.96	201.29
427.15	184.90
427.33	168.52
427.52	86.60
427.71	201.29
427.90	98.30
428.09	161.50
428.28	166.18
428.46	196.60
428.65	159.16
428.84	231.71
429.03	170.86
429.22	147.45
429.40	154.48
429.59	187.24
429.78	224.69
429.97	119.37
430.16	119.37
430.34	95.96
430.53	173.20
430.72	124.05
430.91	189.58
431.10	112.35
431.28	154.48
431.47	149.79
431.66	166.18
431.85	166.18
432.03	163.84
432.22	175.54
432.41	107.66
432.60	203.63
432.79	248.10
432.97	257.46
433.16	234.05
433.35	245.76
433.54	166.18
433.72	184.90
433.91	236.39
434.10	220.01
434.28	212.99
434.47	205.97
434.66	191.92
434.85	245.76
435.03	245.76
435.22	308.95
435.41	458.74
435.59	428.32
435.78	390.87
435.97	306.61
436.16	180.22
436.34	191.92
436.53	189.58
436.72	191.92
436.90	252.78
437.09	182.56
437.28	161.50
437.46	166.18
437.65	154.48
437.84	187.24
438.02	156.82
438.21	175.54
438.40	182.56
438.58	159.16
438.77	145.11
438.96	121.71
439.14	77.24
439.33	131.07
439.52	170.86
439.70	182.56
439.89	203.63
440.08	177.88
440.26	234.05
440.45	128.73
440.63	229.37
440.82	222.35
441.01	149.79
441.19	177.88
441.38	198.95
441.57	182.56
441.75	208.31
441.94	255.12
442.12	189.58
442.31	173.20
442.50	236.39
442.68	184.90
442.87	196.60
443.05	184.90
443.24	152.13
443.43	215.33
443.61	243.42
443.80	180.22
443.98	187.24
444.17	175.54
444.35	205.97
444.54	243.42
444.73	177.88
444.91	227.03
445.10	187.24
445.28	215.33
445.47	119.37
445.65	287.89
445.84	159.16
446.02	163.84
446.21	145.11
446.39	140.43
446.58	175.54
446.77	215.33
446.95	154.48
447.14	184.90
447.32	236.39
447.51	194.26
447.69	166.18
447.88	201.29
448.06	215.33
448.25	161.50
448.43	210.65
448.62	182.56
448.80	227.03
448.99	252.78
449.17	234.05
449.36	163.84
449.54	215.33
449.73	142.77
449.91	166.18
450.10	203.63
450.28	194.26
450.46	203.63
450.65	212.99
450.83	234.05
451.02	182.56
451.20	175.54
451.39	198.95
451.57	205.97
451.76	187.24
451.94	234.05
452.13	238.73
452.31	212.99
452.49	170.86
452.68	194.26
452.86	142.77
453.05	234.05
453.23	191.92
453.42	74.90
453.60	135.75
453.78	126.39
453.97	217.67
454.15	133.41
454.34	201.29
454.52	126.39
454.70	168.52
454.89	154.48
455.07	135.75
455.26	161.50
455.44	177.88
455.62	121.71
455.81	210.65
455.99	189.58
456.17	201.29
456.36	189.58
456.54	180.22
456.73	168.52
456.91	215.33
457.09	212.99
457.28	250.44
457.46	196.60
457.64	257.46
457.83	205.97
458.01	210.65
458.19	166.18
458.38	241.08
458.56	220.01
458.74	220.01
458.93	124.05
459.11	173.20
459.29	163.84
459.48	189.58
459.66	236.39
459.84	175.54
460.03	241.08
460.21	250.44
460.39	196.60
460.57	227.03
460.76	238.73
460.94	212.99
461.12	194.26
461.31	220.01
461.49	245.76
461.67	163.84
461.85	194.26
462.04	175.54
462.22	650.67
462.40	299.59
462.59	224.69
462.77	212.99
462.95	147.45
463.13	273.84
463.32	163.84
463.50	175.54
463.68	182.56
463.86	177.88
464.05	243.42
464.23	212.99
464.41	191.92
464.59	161.50
464.78	175.54
464.96	131.07
465.14	189.58
465.32	184.90
465.50	231.71
465.69	215.33
465.87	198.95
466.05	198.95
466.23	149.79
466.41	222.35
466.60	220.01
466.78	126.39
466.96	182.56
467.14	212.99
467.32	205.97
467.51	182.56
467.69	149.79
467.87	231.71
468.05	177.88
468.23	159.16
468.41	264.48
468.60	189.58
468.78	250.44
468.96	201.29
469.14	273.84
469.32	180.22
469.50	222.35
469.69	217.67
469.87	236.39
470.05	224.69
470.23	191.92
470.41	229.37
470.59	166.18
470.77	243.42
470.95	215.33
471.14	220.01
471.32	224.69
471.50	241.08
471.68	259.80
471.86	189.58
472.04	184.90
472.22	198.95
472.40	212.99
472.58	191.92
472.77	205.97
472.95	215.33
473.13	290.23
473.31	255.12
473.49	159.16
473.67	194.26
473.85	191.92
474.03	170.86
474.21	248.10
474.39	231.71
474.57	224.69
474.75	220.01
474.93	191.92
475.12	196.60
475.30	212.99
475.48	152.13
475.66	180.22
475.84	184.90
476.02	215.33
476.20	210.65
476.38	147.45
476.56	285.55
476.74	196.60
476.92	222.35
477.10	114.69
477.28	198.95
477.46	196.60
477.64	224.69
477.82	196.60
478.00	184.90
478.18	191.92
478.36	173.20
478.54	236.39
478.72	173.20
478.90	138.09
479.08	236.39
479.26	266.82
479.44	161.50
479.62	257.46
479.80	198.95
479.98	205.97
480.16	196.60
480.34	234.05
480.52	187.24
480.70	194.26
480.88	159.16
481.06	227.03
481.24	154.48
481.41	304.27
481.59	229.37
481.77	215.33
481.95	196.60
482.13	236.39
482.31	208.31
482.49	212.99
482.67	285.55
482.85	252.78
483.03	208.31
483.21	215.33
483.39	290.23
483.57	210.65
483.74	280.86
483.92	138.09
484.10	248.10
484.28	196.60
484.46	252.78
484.64	264.48
484.82	177.88
485.00	250.44
485.18	196.60
485.35	234.05
485.53	189.58
485.71	266.82
485.89	287.89
486.07	215.33
486.25	306.61
486.43	259.80
486.61	306.61
486.78	264.48
486.96	248.10
487.14	229.37
487.32	243.42
487.50	241.08
487.68	189.58
487.85	229.37
488.03	311.29
488.21	294.91
488.39	285.55
488.57	262.14
488.75	189.58
488.92	444.70
489.10	250.44
489.28	313.63
489.46	194.26
489.64	217.67
489.81	271.50
489.99	173.20
490.17	264.48
490.35	236.39
490.53	276.18
490.70	222.35
490.88	278.52
491.06	248.10
491.24	278.52
491.41	271.50
491.59	243.42
491.77	269.16
491.95	262.14
492.13	224.69
492.30	269.16
492.48	259.80
492.66	278.52
492.84	236.39
493.01	287.89
493.19	273.84
493.37	238.73
493.54	201.29
493.72	264.48
493.90	201.29
494.08	236.39
494.25	280.86
494.43	262.14
494.61	241.08
494.79	177.88
494.96	255.12
495.14	266.82
495.32	231.71
495.49	215.33
495.67	264.48
495.85	234.05
496.02	198.95
496.20	252.78
496.38	236.39
496.55	304.27
496.73	231.71
496.91	280.86
497.09	217.67
497.26	315.97
497.44	262.14
497.62	297.25
497.79	252.78
497.97	322.99
498.14	313.63
498.32	276.18
498.50	292.57
498.67	224.69
498.85	294.91
499.03	255.12
499.20	271.50
499.38	191.92
499.56	266.82
499.73	266.82
499.91	276.18
500.08	220.01
500.26	203.63
500.44	194.26
500.61	292.57
500.79	257.46
500.97	245.76
501.14	297.25
501.32	292.57
501.49	304.27
501.67	224.69
501.84	297.25
502.02	184.90
502.20	304.27
502.37	278.52
502.55	241.08
502.72	227.03
502.90	287.89
503.07	271.50
503.25	294.91
503.43	198.95
503.60	182.56
503.78	224.69
503.95	262.14
504.13	290.23
504.30	301.93
504.48	297.25
504.65	285.55
504.83	292.57
505.01	236.39
505.18	278.52
505.36	287.89
505.53	184.90
505.71	250.44
505.88	266.82
506.06	290.23
506.23	344.06
506.41	215.33
506.58	248.10
506.76	196.60
506.93	191.92
507.11	243.42
507.28	229.37
507.46	222.35
507.63	201.29
507.81	266.82
507.98	285.55
508.16	287.89
508.33	266.82
508.50	327.68
508.68	245.76
508.85	198.95
509.03	215.33
509.20	308.95
509.38	217.67
509.55	227.03
509.73	262.14
509.90	255.12
510.08	262.14
510.25	203.63
510.42	266.82
510.60	294.91
510.77	266.82
510.95	269.16
511.12	255.12
511.30	341.72
511.47	255.12
511.64	273.84
511.82	257.46
511.99	301.93
512.17	248.10
512.34	215.33
512.51	304.27
512.69	285.55
512.86	285.55
513.04	231.71
513.21	203.63
513.38	266.82
513.56	262.14
513.73	248.10
513.90	215.33
514.08	273.84
514.25	266.82
514.43	269.16
514.60	241.08
514.77	259.80
514.95	273.84
515.12	278.52
515.29	280.86
515.47	229.37
515.64	262.14
515.81	250.44
515.99	236.39
516.16	255.12
516.33	248.10
516.51	248.10
516.68	283.20
516.85	273.84
517.03	205.97
517.20	238.73
517.37	208.31
517.54	196.60
517.72	257.46
517.89	257.46
518.06	271.50
518.24	292.57
518.41	304.27
518.58	311.29
518.75	283.20
518.93	269.16
519.10	217.67
519.27	224.69
519.45	210.65
519.62	262.14
519.79	255.12
519.96	212.99
520.14	266.82
520.31	285.55
520.48	283.20
520.65	198.95
520.83	238.73
521.00	266.82
521.17	334.70
521.34	325.33
521.52	250.44
521.69	313.63
521.86	243.42
522.03	271.50
522.20	330.02
522.38	276.18
522.55	341.72
522.72	236.39
522.89	290.23
523.07	341.72
523.24	297.25
523.41	280.86
523.58	287.89
523.75	184.90
523.92	212.99
524.10	205.97
524.27	210.65
524.44	297.25
524.61	327.68
524.78	283.20
524.96	231.71
525.13	241.08
525.30	351.08
525.47	266.82
525.64	231.71
525.81	252.78
525.98	346.40
526.16	259.80
526.33	215.33
526.50	234.05
526.67	229.37
526.84	224.69
527.01	257.46
527.18	271.50
527.36	262.14
527.53	322.99
527.70	273.84
527.87	332.36
528.04	330.02
528.21	280.86
528.38	285.55
528.55	308.95
528.72	287.89
528.89	306.61
529.07	341.72
529.24	313.63
529.41	294.91
529.58	304.27
529.75	210.65
529.92	292.57
530.09	278.52
530.26	299.59
530.43	255.12
530.60	306.61
530.77	220.01
530.94	283.20
531.11	322.99
531.28	283.20
531.46	198.95
531.63	245.76
531.80	266.82
531.97	264.48
532.14	252.78
532.31	346.40
532.48	308.95
532.65	365.12
532.82	344.06
532.99	358.10
533.16	339.38
533.33	297.25
533.50	355.76
533.67	327.68
533.84	388.53
534.01	383.85
534.18	330.02
534.35	346.40
534.52	299.59
534.69	362.78
534.86	262.14
535.03	348.74
535.20	276.18
535.37	383.85
535.54	327.68
535.71	283.20
535.88	287.89
536.05	297.25
536.22	339.38
536.38	308.95
536.55	292.57
536.72	372.15
536.89	318.31
537.06	341.72
537.23	217.67
537.40	292.57
537.57	271.50
537.74	283.20
537.91	325.33
538.08	299.59
538.25	315.97
538.42	390.87
538.59	301.93
538.75	262.14
538.92	351.08
539.09	238.73
539.26	304.27
539.43	538.32
539.60	933.87
539.77	1320.06
539.94	1240.48
540.11	884.72
540.28	720.88
540.44	592.16
540.61	440.02
540.78	395.55
540.95	543.00
541.12	566.41
541.29	512.58
541.46	589.82
541.62	589.82
541.79	491.51
541.96	533.64
542.13	423.64
542.30	435.34
542.47	512.58
542.63	465.77
542.80	442.36
542.97	465.77
543.14	437.68
543.31	526.62
543.48	543.00
543.64	543.00
543.81	547.69
543.98	500.87
544.15	463.43
544.32	519.60
544.48	510.24
544.65	512.58
544.82	435.34
544.99	503.22
545.16	489.17
545.32	491.51
545.49	674.07
545.66	926.85
545.83	847.27
546.00	816.85
546.16	655.35
546.33	568.75
546.50	528.96
546.67	440.02
546.83	486.83
547.00	430.66
547.17	386.19
547.34	381.51
547.50	428.32
547.67	407.25
547.84	379.17
548.00	390.87
548.17	400.23
548.34	376.83
548.51	454.06
548.67	353.42
548.84	397.89
549.01	423.64
549.18	360.44
549.34	318.31
549.51	386.19
549.68	393.21
549.84	322.99
550.01	390.87
550.18	456.40
550.34	372.15
550.51	337.04
550.68	346.40
550.84	299.59
551.01	341.72
551.18	367.46
551.34	327.68
551.51	280.86
551.68	388.53
551.84	332.36
552.01	285.55
552.18	269.16
552.34	344.06
552.51	285.55
552.68	353.42
552.84	294.91
553.01	311.29
553.18	224.69
553.34	252.78
553.51	266.82
553.67	318.31
553.84	353.42
554.01	290.23
554.17	330.02
554.34	222.35
554.51	271.50
554.67	313.63
554.84	322.99
555.00	285.55
555.17	285.55
555.33	297.25
555.50	283.20
555.67	346.40
555.83	308.95
556.00	318.31
556.16	440.02
556.33	297.25
556.50	280.86
556.66	327.68
556.83	273.84
556.99	297.25
557.16	283.20
557.32	337.04
557.49	278.52
557.65	250.44
557.82	187.24
557.98	320.65
558.15	322.99
558.32	264.48
558.48	252.78
558.65	187.24
558.81	238.73
558.98	269.16
559.14	250.44
559.31	201.29
559.47	337.04
559.64	238.73
559.80	287.89
559.97	269.16
560.13	201.29
560.30	227.03
560.46	290.23
560.63	287.89
560.79	278.52
560.96	229.37
561.12	264.48
561.29	264.48
561.45	238.73
561.61	294.91
561.78	320.65
561.94	250.44
562.11	184.90
562.27	276.18
562.44	217.67
562.60	222.35
562.77	294.91
562.93	379.17
563.10	313.63
563.26	285.55
563.42	285.55
563.59	290.23
563.75	217.67
563.92	325.33
564.08	315.97
564.24	283.20
564.41	320.65
564.57	173.20
564.74	248.10
564.90	234.05
565.07	306.61
565.23	315.97
565.39	287.89
565.56	280.86
565.72	255.12
565.88	234.05
566.05	285.55
566.21	273.84
566.38	259.80
566.54	299.59
566.70	245.76
566.87	234.05
567.03	285.55
567.19	222.35
567.36	210.65
567.52	248.10
567.68	278.52
567.85	280.86
568.01	292.57
568.17	210.65
568.34	264.48
568.50	198.95
568.66	210.65
568.83	290.23
568.99	227.03
569.15	276.18
569.32	276.18
569.48	283.20
569.64	287.89
569.81	248.10
569.97	252.78
570.13	234.05
570.30	184.90
570.46	266.82
570.62	173.20
570.78	215.33
570.95	234.05
571.11	234.05
571.27	222.35
571.43	250.44
571.60	327.68
571.76	271.50
571.92	287.89
572.09	212.99
572.25	266.82
572.41	332.36
572.57	264.48
572.74	264.48
572.90	262.14
573.06	287.89
573.22	241.08
573.38	315.97
573.55	334.70
573.71	287.89
573.87	337.04
574.03	273.84
574.20	257.46
574.36	273.84
574.52	297.25
574.68	285.55
574.84	369.80
575.01	278.52
575.17	271.50
575.33	365.12
575.49	271.50
575.65	358.10
575.82	418.96
575.98	545.34
576.14	594.50
576.30	573.43
576.46	566.41
576.62	454.06
576.79	503.22
576.95	433.00
577.11	367.46
577.27	264.48
577.43	381.51
577.59	358.10
577.75	262.14
577.92	299.59
578.08	269.16
578.24	243.42
578.40	325.33
578.56	374.49
578.72	423.64
578.88	402.57
579.04	372.15
579.21	313.63
579.37	341.72
579.53	334.70
579.69	369.80
579.85	304.27
580.01	374.49
580.17	397.89
580.33	402.57
580.49	390.87
580.65	407.25
580.82	283.20
580.98	327.68
581.14	313.63
581.30	454.06
581.46	376.83
581.62	496.19
581.78	566.41
581.94	486.83
582.10	489.17
582.26	425.98
582.42	440.02
582.58	447.04
582.74	400.23
582.90	479.81
583.06	402.57
583.22	409.59
583.38	482.15
583.54	512.58
583.70	524.28
583.86	559.39
584.02	636.63
584.18	812.17
584.34	959.62
584.50	2401.39
584.66	17406.56
584.82	43997.39
584.98	55091.53
585.14	50885.59
585.30	32786.22
585.46	19742.42
585.62	12290.15
585.78	5877.09
585.94	2429.48
586.10	1268.57
586.26	919.83
586.42	732.59
586.58	631.94
586.74	554.71
586.90	573.43
587.06	545.34
587.22	557.05
587.38	538.32
587.54	1048.56
587.70	2621.40
587.86	4046.79
588.02	4388.50
588.18	3117.59
588.34	2052.65
588.49	1432.41
588.65	898.77
588.81	547.69
588.97	414.27
589.13	365.12
589.29	280.86
589.45	325.33
589.61	339.38
589.77	430.66
589.93	416.62
590.08	500.87
590.24	472.79
590.40	465.77
590.56	362.78
590.72	346.40
590.88	390.87
591.04	332.36
591.20	334.70
591.35	411.93
591.51	292.57
591.67	330.02
591.83	360.44
591.99	337.04
592.15	355.76
592.31	365.12
592.46	344.06
592.62	318.31
592.78	346.40
592.94	358.10
593.10	299.59
593.26	372.15
593.41	365.12
593.57	456.40
593.73	575.77
593.89	2312.45
594.05	5214.71
594.20	7581.00
594.36	6979.48
594.52	4758.31
594.68	3045.04
594.84	2038.61
594.99	1203.04
595.15	653.01
595.31	477.47
595.47	374.49
595.62	325.33
595.78	318.31
595.94	339.38
596.10	360.44
596.25	447.04
596.41	388.53
596.57	301.93
596.73	397.89
596.88	545.34
597.04	1144.52
597.20	1703.91
597.36	1926.26
597.51	1488.58
597.67	1050.90
597.83	753.65
597.99	578.11
598.14	393.21
598.30	383.85
598.46	285.55
598.61	292.57
598.77	334.70
598.93	381.51
599.09	383.85
599.24	299.59
599.40	325.33
599.56	313.63
599.71	327.68
599.87	299.59
600.03	327.68
600.18	297.25
600.34	304.27
600.50	245.76
600.65	299.59
600.81	339.38
600.97	320.65
601.12	278.52
601.28	388.53
601.44	269.16
601.59	306.61
601.75	315.97
601.91	259.80
602.06	318.31
602.22	440.02
602.37	594.50
602.53	1343.47
602.69	1891.15
602.84	1937.96
603.00	1446.45
603.16	1137.50
603.31	739.61
603.47	554.71
603.62	348.74
603.78	360.44
603.94	322.99
604.09	252.78
604.25	250.44
604.40	306.61
604.56	259.80
604.71	369.80
604.87	250.44
605.03	341.72
605.18	283.20
605.34	297.25
605.49	266.82
605.65	304.27
605.80	351.08
605.96	334.70
606.12	428.32
606.27	294.91
606.43	367.46
606.58	454.06
606.74	753.65
606.89	2520.76
607.05	4924.49
607.20	6518.39
607.36	5252.16
607.51	3737.84
607.67	2345.22
607.82	1636.03
607.98	1083.67
608.13	664.71
608.29	461.09
608.44	468.11
608.60	526.62
608.75	482.15
608.91	959.62
609.06	4023.38
609.22	8360.39
609.37	10920.94
609.53	9420.66
609.68	6668.19
609.84	4430.63
609.99	2998.23
610.15	1678.16
610.30	1048.56
