SpectraSuite Data File
++++++++++++++++++++++++++++++++++++
Date: Fri Oct 04 11:34:10 GMT-05:00 2013
User: price-jones
Dark Spectrum Present: No
Reference Spectrum Present: No
Number of Sampled Component Spectra: 1
Spectrometers: USB2+H05261
Integration Time (usec): 100000 (USB2+H05261)
Spectra Averaged: 1 (USB2+H05261)
Boxcar Smoothing: 0 (USB2+H05261)
Correct for Electrical Dark: No (USB2+H05261)
Strobe/Lamp Enabled: No (USB2+H05261)
Correct for Detector Non-linearity: No (USB2+H05261)
Correct for Stray Light: No (USB2+H05261)
Number of Pixels in Processed Spectrum: 2048
>>>>>Begin Processed Spectral Data<<<<<
365.73	142.77
365.92	142.77
366.12	142.77
366.32	0.00
366.52	0.00
366.72	0.00
366.91	0.00
367.11	0.00
367.31	0.00
367.51	0.00
367.70	0.00
367.90	0.00
368.10	7.02
368.30	0.00
368.49	0.00
368.69	0.00
368.89	0.00
369.09	0.00
369.28	0.00
369.48	0.00
369.68	7.02
369.87	74.90
370.07	44.47
370.27	16.38
370.47	60.85
370.66	30.43
370.86	147.45
371.06	140.43
371.25	95.96
371.45	72.56
371.65	114.69
371.84	28.09
372.04	102.98
372.24	145.11
372.44	112.35
372.63	180.22
372.83	250.44
373.03	95.96
373.22	198.95
373.42	170.86
373.62	98.30
373.81	138.09
374.01	70.22
374.21	177.88
374.40	102.98
374.60	205.97
374.79	121.71
374.99	154.48
375.19	152.13
375.38	152.13
375.58	128.73
375.78	182.56
375.97	222.35
376.17	175.54
376.37	131.07
376.56	159.16
376.76	149.79
376.95	117.03
377.15	131.07
377.35	81.92
377.54	65.54
377.74	107.66
377.93	142.77
378.13	84.26
378.33	189.58
378.52	175.54
378.72	231.71
378.91	152.13
379.11	180.22
379.31	102.98
379.50	124.05
379.70	201.29
379.89	236.39
380.09	168.52
380.28	93.62
380.48	105.32
380.68	154.48
380.87	131.07
381.07	156.82
381.26	177.88
381.46	110.01
381.65	126.39
381.85	112.35
382.04	133.41
382.24	184.90
382.43	163.84
382.63	74.90
382.83	175.54
383.02	175.54
383.22	149.79
383.41	93.62
383.61	163.84
383.80	159.16
384.00	131.07
384.19	227.03
384.39	126.39
384.58	177.88
384.78	196.60
384.97	170.86
385.17	149.79
385.36	142.77
385.56	187.24
385.75	100.64
385.95	142.77
386.14	231.71
386.34	112.35
386.53	107.66
386.72	126.39
386.92	245.76
387.11	205.97
387.31	72.56
387.50	105.32
387.70	119.37
387.89	117.03
388.09	88.94
388.28	119.37
388.48	182.56
388.67	187.24
388.86	163.84
389.06	102.98
389.25	163.84
389.45	112.35
389.64	51.49
389.84	212.99
390.03	126.39
390.22	81.92
390.42	67.88
390.61	114.69
390.81	161.50
391.00	159.16
391.19	140.43
391.39	81.92
391.58	168.52
391.78	147.45
391.97	114.69
392.16	77.24
392.36	135.75
392.55	184.90
392.75	182.56
392.94	98.30
393.13	145.11
393.33	135.75
393.52	86.60
393.71	208.31
393.91	65.54
394.10	177.88
394.29	102.98
394.49	168.52
394.68	182.56
394.88	159.16
395.07	128.73
395.26	159.16
395.46	98.30
395.65	203.63
395.84	175.54
396.04	196.60
396.23	110.01
396.42	168.52
396.62	93.62
396.81	126.39
397.00	173.20
397.19	198.95
397.39	189.58
397.58	168.52
397.77	88.94
397.97	102.98
398.16	72.56
398.35	182.56
398.55	184.90
398.74	133.41
398.93	135.75
399.12	175.54
399.32	107.66
399.51	124.05
399.70	180.22
399.90	152.13
400.09	163.84
400.28	180.22
400.47	114.69
400.67	140.43
400.86	168.52
401.05	205.97
401.24	154.48
401.44	126.39
401.63	138.09
401.82	182.56
402.01	154.48
402.21	110.01
402.40	161.50
402.59	102.98
402.78	117.03
402.97	107.66
403.17	86.60
403.36	95.96
403.55	168.52
403.74	201.29
403.93	203.63
404.13	191.92
404.32	234.05
404.51	227.03
404.70	154.48
404.89	159.16
405.09	189.58
405.28	189.58
405.47	142.77
405.66	114.69
405.85	222.35
406.05	159.16
406.24	93.62
406.43	147.45
406.62	138.09
406.81	184.90
407.00	177.88
407.20	168.52
407.39	131.07
407.58	182.56
407.77	166.18
407.96	154.48
408.15	102.98
408.34	149.79
408.54	152.13
408.73	182.56
408.92	135.75
409.11	86.60
409.30	159.16
409.49	154.48
409.68	131.07
409.87	203.63
410.07	98.30
410.26	105.32
410.45	88.94
410.64	152.13
410.83	149.79
411.02	142.77
411.21	168.52
411.40	128.73
411.59	217.67
411.78	84.26
411.98	117.03
412.17	84.26
412.36	149.79
412.55	159.16
412.74	156.82
412.93	231.71
413.12	156.82
413.31	194.26
413.50	145.11
413.69	170.86
413.88	215.33
414.07	142.77
414.26	166.18
414.45	198.95
414.64	177.88
414.83	180.22
415.02	135.75
415.22	175.54
415.41	166.18
415.60	156.82
415.79	180.22
415.98	212.99
416.17	142.77
416.36	149.79
416.55	152.13
416.74	173.20
416.93	189.58
417.12	173.20
417.31	112.35
417.50	180.22
417.69	212.99
417.88	98.30
418.07	88.94
418.26	180.22
418.45	201.29
418.64	177.88
418.83	110.01
419.02	117.03
419.21	175.54
419.39	245.76
419.58	166.18
419.77	182.56
419.96	173.20
420.15	203.63
420.34	159.16
420.53	175.54
420.72	166.18
420.91	187.24
421.10	102.98
421.29	198.95
421.48	140.43
421.67	236.39
421.86	107.66
422.05	166.18
422.24	168.52
422.43	119.37
422.61	166.18
422.80	133.41
422.99	152.13
423.18	203.63
423.37	147.45
423.56	117.03
423.75	212.99
423.94	163.84
424.13	234.05
424.32	163.84
424.50	100.64
424.69	180.22
424.88	208.31
425.07	203.63
425.26	278.52
425.45	196.60
425.64	121.71
425.83	156.82
426.01	156.82
426.20	229.37
426.39	133.41
426.58	100.64
426.77	173.20
426.96	145.11
427.15	140.43
427.33	110.01
427.52	159.16
427.71	168.52
427.90	152.13
428.09	147.45
428.28	98.30
428.46	173.20
428.65	234.05
428.84	175.54
429.03	278.52
429.22	117.03
429.40	133.41
429.59	124.05
429.78	180.22
429.97	210.65
430.16	205.97
430.34	173.20
430.53	147.45
430.72	154.48
430.91	198.95
431.10	182.56
431.28	121.71
431.47	241.08
431.66	159.16
431.85	81.92
432.03	227.03
432.22	262.14
432.41	173.20
432.60	252.78
432.79	180.22
432.97	152.13
433.16	189.58
433.35	201.29
433.54	114.69
433.72	131.07
433.91	149.79
434.10	117.03
434.28	189.58
434.47	208.31
434.66	182.56
434.85	114.69
435.03	241.08
435.22	320.65
435.41	313.63
435.59	381.51
435.78	245.76
435.97	243.42
436.16	229.37
436.34	149.79
436.53	152.13
436.72	154.48
436.90	227.03
437.09	241.08
437.28	229.37
437.46	93.62
437.65	177.88
437.84	245.76
438.02	166.18
438.21	189.58
438.40	161.50
438.58	184.90
438.77	210.65
438.96	205.97
439.14	135.75
439.33	184.90
439.52	154.48
439.70	175.54
439.89	201.29
440.08	184.90
440.26	234.05
440.45	194.26
440.63	238.73
440.82	189.58
441.01	138.09
441.19	159.16
441.38	140.43
441.57	198.95
441.75	147.45
441.94	222.35
442.12	212.99
442.31	142.77
442.50	173.20
442.68	198.95
442.87	187.24
443.05	110.01
443.24	159.16
443.43	208.31
443.61	177.88
443.80	175.54
443.98	173.20
444.17	100.64
444.35	184.90
444.54	138.09
444.73	201.29
444.91	175.54
445.10	238.73
445.28	177.88
445.47	145.11
445.65	203.63
445.84	217.67
446.02	154.48
446.21	180.22
446.39	182.56
446.58	149.79
446.77	287.89
446.95	163.84
447.14	220.01
447.32	227.03
447.51	91.28
447.69	182.56
447.88	241.08
448.06	161.50
448.25	189.58
448.43	147.45
448.62	173.20
448.80	215.33
448.99	187.24
449.17	166.18
449.36	182.56
449.54	224.69
449.73	189.58
449.91	224.69
450.10	177.88
450.28	196.60
450.46	166.18
450.65	208.31
450.83	112.35
451.02	198.95
451.20	138.09
451.39	262.14
451.57	168.52
451.76	145.11
451.94	180.22
452.13	133.41
452.31	229.37
452.49	142.77
452.68	234.05
452.86	189.58
453.05	201.29
453.23	168.52
453.42	131.07
453.60	205.97
453.78	189.58
453.97	184.90
454.15	135.75
454.34	117.03
454.52	180.22
454.70	154.48
454.89	191.92
455.07	224.69
455.26	119.37
455.44	203.63
455.62	210.65
455.81	196.60
455.99	201.29
456.17	201.29
456.36	276.18
456.54	180.22
456.73	194.26
456.91	262.14
457.09	140.43
457.28	201.29
457.46	112.35
457.64	154.48
457.83	250.44
458.01	147.45
458.19	241.08
458.38	198.95
458.56	278.52
458.74	138.09
458.93	215.33
459.11	208.31
459.29	88.94
459.48	236.39
459.66	205.97
459.84	238.73
460.03	222.35
460.21	152.13
460.39	126.39
460.57	217.67
460.76	149.79
460.94	138.09
461.12	208.31
461.31	182.56
461.49	224.69
461.67	201.29
461.85	234.05
462.04	126.39
462.22	334.70
462.40	189.58
462.59	283.20
462.77	149.79
462.95	168.52
463.13	227.03
463.32	255.12
463.50	182.56
463.68	161.50
463.86	161.50
464.05	205.97
464.23	191.92
464.41	173.20
464.59	145.11
464.78	110.01
464.96	229.37
465.14	156.82
465.32	198.95
465.50	208.31
465.69	168.52
465.87	112.35
466.05	238.73
466.23	142.77
466.41	201.29
466.60	147.45
466.78	224.69
466.96	180.22
467.14	196.60
467.32	196.60
467.51	156.82
467.69	159.16
467.87	203.63
468.05	147.45
468.23	278.52
468.41	189.58
468.60	191.92
468.78	203.63
468.96	248.10
469.14	149.79
469.32	156.82
469.50	173.20
469.69	168.52
469.87	241.08
470.05	170.86
470.23	156.82
470.41	191.92
470.59	161.50
470.77	243.42
470.95	203.63
471.14	215.33
471.32	161.50
471.50	161.50
471.68	245.76
471.86	180.22
472.04	210.65
472.22	189.58
472.40	168.52
472.58	152.13
472.77	63.19
472.95	166.18
473.13	196.60
473.31	166.18
473.49	201.29
473.67	196.60
473.85	245.76
474.03	224.69
474.21	182.56
474.39	173.20
474.57	257.46
474.75	131.07
474.93	159.16
475.12	135.75
475.30	217.67
475.48	245.76
475.66	189.58
475.84	241.08
476.02	217.67
476.20	180.22
476.38	126.39
476.56	234.05
476.74	191.92
476.92	201.29
477.10	166.18
477.28	182.56
477.46	133.41
477.64	229.37
477.82	248.10
478.00	257.46
478.18	161.50
478.36	177.88
478.54	205.97
478.72	177.88
478.90	198.95
479.08	170.86
479.26	191.92
479.44	184.90
479.62	180.22
479.80	140.43
479.98	208.31
480.16	220.01
480.34	203.63
480.52	175.54
480.70	177.88
480.88	203.63
481.06	161.50
481.24	168.52
481.41	250.44
481.59	243.42
481.77	196.60
481.95	166.18
482.13	205.97
482.31	236.39
482.49	215.33
482.67	273.84
482.85	189.58
483.03	266.82
483.21	264.48
483.39	201.29
483.57	208.31
483.74	248.10
483.92	250.44
484.10	227.03
484.28	194.26
484.46	315.97
484.64	187.24
484.82	276.18
485.00	229.37
485.18	229.37
485.35	208.31
485.53	159.16
485.71	238.73
485.89	156.82
486.07	152.13
486.25	292.57
486.43	245.76
486.61	252.78
486.78	220.01
486.96	205.97
487.14	236.39
487.32	224.69
487.50	238.73
487.68	241.08
487.85	180.22
488.03	278.52
488.21	358.10
488.39	299.59
488.57	264.48
488.75	194.26
488.92	512.58
489.10	196.60
489.28	306.61
489.46	255.12
489.64	234.05
489.81	205.97
489.99	241.08
490.17	257.46
490.35	332.36
490.53	215.33
490.70	243.42
490.88	234.05
491.06	259.80
491.24	262.14
491.41	255.12
491.59	292.57
491.77	180.22
491.95	229.37
492.13	177.88
492.30	234.05
492.48	212.99
492.66	229.37
492.84	299.59
493.01	294.91
493.19	320.65
493.37	344.06
493.54	299.59
493.72	271.50
493.90	271.50
494.08	212.99
494.25	187.24
494.43	236.39
494.61	234.05
494.79	222.35
494.96	259.80
495.14	238.73
495.32	283.20
495.49	170.86
495.67	182.56
495.85	177.88
496.02	194.26
496.20	299.59
496.38	229.37
496.55	191.92
496.73	222.35
496.91	180.22
497.09	348.74
497.26	243.42
497.44	266.82
497.62	304.27
497.79	306.61
497.97	248.10
498.14	308.95
498.32	243.42
498.50	313.63
498.67	257.46
498.85	308.95
499.03	264.48
499.20	210.65
499.38	262.14
499.56	210.65
499.73	248.10
499.91	255.12
500.08	269.16
500.26	266.82
500.44	119.37
500.61	222.35
500.79	255.12
500.97	290.23
501.14	196.60
501.32	229.37
501.49	306.61
501.67	262.14
501.84	262.14
502.02	248.10
502.20	304.27
502.37	208.31
502.55	299.59
502.72	196.60
502.90	238.73
503.07	227.03
503.25	220.01
503.43	271.50
503.60	187.24
503.78	276.18
503.95	250.44
504.13	234.05
504.30	222.35
504.48	262.14
504.65	250.44
504.83	332.36
505.01	229.37
505.18	229.37
505.36	201.29
505.53	196.60
505.71	259.80
505.88	285.55
506.06	154.48
506.23	212.99
506.41	222.35
506.58	208.31
506.76	297.25
506.93	241.08
507.11	245.76
507.28	330.02
507.46	194.26
507.63	220.01
507.81	290.23
507.98	203.63
508.16	266.82
508.33	266.82
508.50	322.99
508.68	280.86
508.85	278.52
509.03	320.65
509.20	255.12
509.38	278.52
509.55	290.23
509.73	346.40
509.90	351.08
510.08	168.52
510.25	255.12
510.42	236.39
510.60	220.01
510.77	259.80
510.95	318.31
511.12	301.93
511.30	301.93
511.47	294.91
511.64	322.99
511.82	301.93
511.99	287.89
512.17	264.48
512.34	205.97
512.51	245.76
512.69	255.12
512.86	271.50
513.04	217.67
513.21	252.78
513.38	259.80
513.56	360.44
513.73	285.55
513.90	243.42
514.08	234.05
514.25	245.76
514.43	243.42
514.60	290.23
514.77	196.60
514.95	224.69
515.12	266.82
515.29	262.14
515.47	315.97
515.64	257.46
515.81	259.80
515.99	236.39
516.16	276.18
516.33	339.38
516.51	269.16
516.68	264.48
516.85	278.52
517.03	217.67
517.20	278.52
517.37	243.42
517.54	227.03
517.72	257.46
517.89	259.80
518.06	236.39
518.24	290.23
518.41	276.18
518.58	339.38
518.75	205.97
518.93	243.42
519.10	238.73
519.27	252.78
519.45	301.93
519.62	229.37
519.79	248.10
519.96	187.24
520.14	325.33
520.31	236.39
520.48	224.69
520.65	224.69
520.83	287.89
521.00	271.50
521.17	280.86
521.34	269.16
521.52	215.33
521.69	266.82
521.86	201.29
522.03	304.27
522.20	313.63
522.38	278.52
522.55	266.82
522.72	248.10
522.89	259.80
523.07	243.42
523.24	285.55
523.41	238.73
523.58	313.63
523.75	241.08
523.92	180.22
524.10	280.86
524.27	229.37
524.44	264.48
524.61	264.48
524.78	259.80
524.96	255.12
525.13	257.46
525.30	372.15
525.47	301.93
525.64	269.16
525.81	252.78
525.98	315.97
526.16	205.97
526.33	198.95
526.50	250.44
526.67	315.97
526.84	182.56
527.01	264.48
527.18	301.93
527.36	248.10
527.53	145.11
527.70	299.59
527.87	248.10
528.04	348.74
528.21	215.33
528.38	332.36
528.55	294.91
528.72	294.91
528.89	325.33
529.07	255.12
529.24	313.63
529.41	250.44
529.58	308.95
529.75	287.89
529.92	276.18
530.09	243.42
530.26	203.63
530.43	215.33
530.60	285.55
530.77	229.37
530.94	248.10
531.11	292.57
531.28	299.59
531.46	212.99
531.63	210.65
531.80	273.84
531.97	276.18
532.14	238.73
532.31	205.97
532.48	285.55
532.65	280.86
532.82	358.10
532.99	187.24
533.16	264.48
533.33	273.84
533.50	245.76
533.67	264.48
533.84	372.15
534.01	304.27
534.18	276.18
534.35	360.44
534.52	283.20
534.69	346.40
534.86	299.59
535.03	290.23
535.20	264.48
535.37	248.10
535.54	271.50
535.71	332.36
535.88	337.04
536.05	271.50
536.22	255.12
536.38	238.73
536.55	313.63
536.72	257.46
536.89	292.57
537.06	308.95
537.23	327.68
537.40	257.46
537.57	313.63
537.74	348.74
537.91	297.25
538.08	351.08
538.25	271.50
538.42	313.63
538.59	290.23
538.75	252.78
538.92	238.73
539.09	355.76
539.26	332.36
539.43	381.51
539.60	362.78
539.77	421.30
539.94	404.91
540.11	416.62
540.28	388.53
540.44	414.27
540.61	383.85
540.78	306.61
540.95	491.51
541.12	479.81
541.29	447.04
541.46	425.98
541.62	454.06
541.79	517.26
541.96	463.43
542.13	409.59
542.30	416.62
542.47	475.13
542.63	409.59
542.80	472.79
542.97	524.28
543.14	440.02
543.31	444.70
543.48	543.00
543.64	402.57
543.81	416.62
543.98	461.09
544.15	395.55
544.32	383.85
544.48	383.85
544.65	395.55
544.82	416.62
544.99	407.25
545.16	400.23
545.32	472.79
545.49	627.26
545.66	711.52
545.83	805.14
546.00	674.07
546.16	566.41
546.33	465.77
546.50	505.56
546.67	491.51
546.83	433.00
547.00	414.27
547.17	433.00
547.34	376.83
547.50	414.27
547.67	353.42
547.84	348.74
548.00	433.00
548.17	322.99
548.34	301.93
548.51	393.21
548.67	395.55
548.84	334.70
549.01	358.10
549.18	306.61
549.34	376.83
549.51	365.12
549.68	337.04
549.84	388.53
550.01	318.31
550.18	383.85
550.34	332.36
550.51	374.49
550.68	294.91
550.84	259.80
551.01	304.27
551.18	325.33
551.34	341.72
551.51	227.03
551.68	248.10
551.84	376.83
552.01	262.14
552.18	287.89
552.34	280.86
552.51	222.35
552.68	271.50
552.84	196.60
553.01	283.20
553.18	330.02
553.34	243.42
553.51	262.14
553.67	276.18
553.84	290.23
554.01	348.74
554.17	330.02
554.34	220.01
554.51	220.01
554.67	276.18
554.84	217.67
555.00	290.23
555.17	264.48
555.33	318.31
555.50	290.23
555.67	262.14
555.83	189.58
556.00	297.25
556.16	395.55
556.33	210.65
556.50	245.76
556.66	224.69
556.83	322.99
556.99	273.84
557.16	224.69
557.32	229.37
557.49	241.08
557.65	259.80
557.82	315.97
557.98	215.33
558.15	175.54
558.32	175.54
558.48	322.99
558.65	231.71
558.81	229.37
558.98	177.88
559.14	276.18
559.31	264.48
559.47	255.12
559.64	252.78
559.80	306.61
559.97	222.35
560.13	163.84
560.30	229.37
560.46	266.82
560.63	198.95
560.79	241.08
560.96	313.63
561.12	266.82
561.29	248.10
561.45	285.55
561.61	222.35
561.78	346.40
561.94	245.76
562.11	280.86
562.27	304.27
562.44	280.86
562.60	245.76
562.77	273.84
562.93	318.31
563.10	266.82
563.26	252.78
563.42	283.20
563.59	278.52
563.75	266.82
563.92	276.18
564.08	250.44
564.24	280.86
564.41	236.39
564.57	220.01
564.74	271.50
564.90	276.18
565.07	276.18
565.23	322.99
565.39	243.42
565.56	271.50
565.72	257.46
565.88	304.27
566.05	227.03
566.21	224.69
566.38	266.82
566.54	248.10
566.70	243.42
566.87	236.39
567.03	205.97
567.19	369.80
567.36	252.78
567.52	196.60
567.68	187.24
567.85	278.52
568.01	266.82
568.17	241.08
568.34	212.99
568.50	285.55
568.66	212.99
568.83	332.36
568.99	273.84
569.15	224.69
569.32	234.05
569.48	266.82
569.64	227.03
569.81	241.08
569.97	245.76
570.13	278.52
570.30	168.52
570.46	231.71
570.62	191.92
570.78	234.05
570.95	245.76
571.11	231.71
571.27	327.68
571.43	145.11
571.60	290.23
571.76	241.08
571.92	294.91
572.09	306.61
572.25	203.63
572.41	259.80
572.57	292.57
572.74	297.25
572.90	180.22
573.06	262.14
573.22	170.86
573.38	299.59
573.55	229.37
573.71	273.84
573.87	203.63
574.03	203.63
574.20	271.50
574.36	257.46
574.52	248.10
574.68	273.84
574.84	243.42
575.01	294.91
575.17	276.18
575.33	224.69
575.49	292.57
575.65	306.61
575.82	227.03
575.98	379.17
576.14	301.93
576.30	280.86
576.46	341.72
576.62	346.40
576.79	365.12
576.95	292.57
577.11	287.89
577.27	208.31
577.43	280.86
577.59	278.52
577.75	236.39
577.92	273.84
578.08	177.88
578.24	224.69
578.40	285.55
578.56	315.97
578.72	355.76
578.88	388.53
579.04	332.36
579.21	306.61
579.37	315.97
579.53	318.31
579.69	308.95
579.85	269.16
580.01	301.93
580.17	271.50
580.33	234.05
580.49	276.18
580.65	294.91
580.82	255.12
580.98	280.86
581.14	332.36
581.30	203.63
581.46	271.50
581.62	311.29
581.78	271.50
581.94	292.57
582.10	292.57
582.26	327.68
582.42	301.93
582.58	264.48
582.74	283.20
582.90	196.60
583.06	290.23
583.22	306.61
583.38	337.04
583.54	278.52
583.70	369.80
583.86	376.83
584.02	311.29
584.18	381.51
584.34	376.83
584.50	622.58
584.66	2342.88
584.82	4842.57
584.98	6289.02
585.14	5455.79
585.30	3545.91
585.46	2200.10
585.62	1504.96
585.78	858.98
585.94	482.15
586.10	360.44
586.26	355.76
586.42	322.99
586.58	320.65
586.74	376.83
586.90	283.20
587.06	341.72
587.22	393.21
587.38	367.46
587.54	308.95
587.70	634.29
587.86	751.31
588.02	779.40
588.18	613.22
588.34	451.72
588.49	379.17
588.65	308.95
588.81	292.57
588.97	252.78
589.13	191.92
589.29	283.20
589.45	278.52
589.61	177.88
589.77	203.63
589.93	187.24
590.08	238.73
590.24	217.67
590.40	257.46
590.56	306.61
590.72	283.20
590.88	299.59
591.04	259.80
591.20	255.12
591.35	290.23
591.51	269.16
591.67	196.60
591.83	210.65
591.99	306.61
592.15	280.86
592.31	280.86
592.46	191.92
592.62	320.65
592.78	306.61
592.94	311.29
593.10	264.48
593.26	273.84
593.41	248.10
593.57	325.33
593.73	278.52
593.89	503.22
594.05	866.00
594.20	912.81
594.36	985.37
594.52	692.80
594.68	561.73
594.84	440.02
594.99	355.76
595.15	273.84
595.31	280.86
595.47	248.10
595.62	250.44
595.78	238.73
595.94	266.82
596.10	330.02
596.25	348.74
596.41	231.71
596.57	252.78
596.73	273.84
596.88	330.02
597.04	351.08
597.20	430.66
597.36	411.93
597.51	374.49
597.67	320.65
597.83	325.33
597.99	327.68
598.14	236.39
598.30	290.23
598.46	250.44
598.61	278.52
598.77	259.80
598.93	234.05
599.09	360.44
599.24	266.82
599.40	257.46
599.56	238.73
599.71	278.52
599.87	287.89
600.03	236.39
600.18	248.10
600.34	285.55
600.50	241.08
600.65	252.78
600.81	238.73
600.97	269.16
601.12	308.95
601.28	290.23
601.44	266.82
601.59	273.84
601.75	280.86
601.91	229.37
602.06	315.97
602.22	355.76
602.37	278.52
602.53	325.33
602.69	418.96
602.84	334.70
603.00	418.96
603.16	376.83
603.31	294.91
603.47	259.80
603.62	327.68
603.78	220.01
603.94	238.73
604.09	255.12
604.25	292.57
604.40	287.89
604.56	231.71
604.71	301.93
604.87	198.95
605.03	222.35
605.18	278.52
605.34	311.29
605.49	255.12
605.65	315.97
605.80	224.69
605.96	231.71
606.12	236.39
606.27	294.91
606.43	278.52
606.58	306.61
606.74	397.89
606.89	538.32
607.05	753.65
607.20	919.83
607.36	781.74
607.51	617.90
607.67	496.19
607.82	367.46
607.98	376.83
608.13	290.23
608.29	341.72
608.44	325.33
608.60	236.39
608.75	266.82
608.91	456.40
609.06	774.72
609.22	1142.18
609.37	1301.34
609.53	1256.87
609.68	929.19
609.84	716.20
609.99	660.03
610.15	498.53
610.30	578.11
610.46	437.68
610.61	657.69
610.76	755.99
610.92	809.83
