SpectraSuite Data File
++++++++++++++++++++++++++++++++++++
Date: Fri Oct 04 11:33:59 GMT-05:00 2013
User: price-jones
Dark Spectrum Present: No
Reference Spectrum Present: No
Number of Sampled Component Spectra: 1
Spectrometers: USB2+H05261
Integration Time (usec): 100000 (USB2+H05261)
Spectra Averaged: 1 (USB2+H05261)
Boxcar Smoothing: 0 (USB2+H05261)
Correct for Electrical Dark: No (USB2+H05261)
Strobe/Lamp Enabled: No (USB2+H05261)
Correct for Detector Non-linearity: No (USB2+H05261)
Correct for Stray Light: No (USB2+H05261)
Number of Pixels in Processed Spectrum: 2048
>>>>>Begin Processed Spectral Data<<<<<
365.73	102.98
365.92	102.98
366.12	102.98
366.32	23.41
366.52	0.00
366.72	14.04
366.91	0.00
367.11	0.00
367.31	0.00
367.51	0.00
367.70	0.00
367.90	11.70
368.10	0.00
368.30	0.00
368.49	0.00
368.69	60.85
368.89	0.00
369.09	46.81
369.28	0.00
369.48	0.00
369.68	0.00
369.87	56.17
370.07	0.00
370.27	16.38
370.47	0.00
370.66	84.26
370.86	117.03
371.06	117.03
371.25	135.75
371.45	86.60
371.65	58.51
371.84	98.30
372.04	84.26
372.24	121.71
372.44	88.94
372.63	74.90
372.83	182.56
373.03	135.75
373.22	161.50
373.42	131.07
373.62	224.69
373.81	177.88
374.01	161.50
374.21	81.92
374.40	117.03
374.60	180.22
374.79	102.98
374.99	145.11
375.19	100.64
375.38	88.94
375.58	105.32
375.78	198.95
375.97	217.67
376.17	173.20
376.37	217.67
376.56	187.24
376.76	187.24
376.95	205.97
377.15	133.41
377.35	140.43
377.54	133.41
377.74	91.28
377.93	156.82
378.13	159.16
378.33	203.63
378.52	156.82
378.72	159.16
378.91	231.71
379.11	110.01
379.31	112.35
379.50	91.28
379.70	117.03
379.89	46.81
380.09	133.41
380.28	170.86
380.48	95.96
380.68	121.71
380.87	154.48
381.07	138.09
381.26	173.20
381.46	79.58
381.65	175.54
381.85	149.79
382.04	95.96
382.24	124.05
382.43	175.54
382.63	81.92
382.83	72.56
383.02	166.18
383.22	208.31
383.41	170.86
383.61	175.54
383.80	145.11
384.00	93.62
384.19	124.05
384.39	140.43
384.58	166.18
384.78	117.03
384.97	147.45
385.17	152.13
385.36	140.43
385.56	133.41
385.75	88.94
385.95	145.11
386.14	63.19
386.34	70.22
386.53	95.96
386.72	110.01
386.92	159.16
387.11	112.35
387.31	131.07
387.50	138.09
387.70	196.60
387.89	175.54
388.09	154.48
388.28	184.90
388.48	51.49
388.67	135.75
388.86	119.37
389.06	126.39
389.25	182.56
389.45	182.56
389.64	177.88
389.84	131.07
390.03	88.94
390.22	133.41
390.42	107.66
390.61	84.26
390.81	126.39
391.00	184.90
391.19	189.58
391.39	170.86
391.58	119.37
391.78	145.11
391.97	145.11
392.16	175.54
392.36	198.95
392.55	112.35
392.75	170.86
392.94	117.03
393.13	154.48
393.33	84.26
393.52	140.43
393.71	203.63
393.91	159.16
394.10	156.82
394.29	100.64
394.49	112.35
394.68	180.22
394.88	187.24
395.07	93.62
395.26	184.90
395.46	102.98
395.65	124.05
395.84	131.07
396.04	168.52
396.23	159.16
396.42	114.69
396.62	128.73
396.81	154.48
397.00	142.77
397.19	131.07
397.39	126.39
397.58	187.24
397.77	177.88
397.97	170.86
398.16	98.30
398.35	110.01
398.55	180.22
398.74	175.54
398.93	201.29
399.12	194.26
399.32	191.92
399.51	184.90
399.70	121.71
399.90	227.03
400.09	119.37
400.28	208.31
400.47	119.37
400.67	128.73
400.86	147.45
401.05	124.05
401.24	177.88
401.44	201.29
401.63	189.58
401.82	154.48
402.01	124.05
402.21	175.54
402.40	161.50
402.59	138.09
402.78	175.54
402.97	194.26
403.17	138.09
403.36	112.35
403.55	163.84
403.74	114.69
403.93	177.88
404.13	220.01
404.32	133.41
404.51	198.95
404.70	159.16
404.89	135.75
405.09	187.24
405.28	119.37
405.47	70.22
405.66	133.41
405.85	170.86
406.05	79.58
406.24	173.20
406.43	161.50
406.62	205.97
406.81	128.73
407.00	91.28
407.20	191.92
407.39	208.31
407.58	180.22
407.77	163.84
407.96	194.26
408.15	184.90
408.34	74.90
408.54	138.09
408.73	161.50
408.92	177.88
409.11	126.39
409.30	257.46
409.49	124.05
409.68	117.03
409.87	170.86
410.07	72.56
410.26	177.88
410.45	149.79
410.64	149.79
410.83	191.92
411.02	196.60
411.21	133.41
411.40	135.75
411.59	114.69
411.78	140.43
411.98	119.37
412.17	147.45
412.36	135.75
412.55	156.82
412.74	156.82
412.93	220.01
413.12	184.90
413.31	149.79
413.50	142.77
413.69	152.13
413.88	173.20
414.07	117.03
414.26	255.12
414.45	163.84
414.64	180.22
414.83	140.43
415.02	194.26
415.22	126.39
415.41	229.37
415.60	180.22
415.79	133.41
415.98	229.37
416.17	112.35
416.36	110.01
416.55	222.35
416.74	187.24
416.93	168.52
417.12	182.56
417.31	119.37
417.50	175.54
417.69	177.88
417.88	173.20
418.07	210.65
418.26	135.75
418.45	142.77
418.64	154.48
418.83	168.52
419.02	177.88
419.21	175.54
419.39	149.79
419.58	67.88
419.77	126.39
419.96	257.46
420.15	222.35
420.34	154.48
420.53	180.22
420.72	102.98
420.91	177.88
421.10	215.33
421.29	177.88
421.48	220.01
421.67	102.98
421.86	205.97
422.05	163.84
422.24	170.86
422.43	168.52
422.61	79.58
422.80	161.50
422.99	152.13
423.18	198.95
423.37	227.03
423.56	147.45
423.75	147.45
423.94	152.13
424.13	191.92
424.32	194.26
424.50	203.63
424.69	175.54
424.88	173.20
425.07	149.79
425.26	154.48
425.45	177.88
425.64	224.69
425.83	170.86
426.01	175.54
426.20	170.86
426.39	166.18
426.58	182.56
426.77	156.82
426.96	154.48
427.15	229.37
427.33	243.42
427.52	205.97
427.71	112.35
427.90	91.28
428.09	119.37
428.28	175.54
428.46	145.11
428.65	205.97
428.84	255.12
429.03	201.29
429.22	119.37
429.40	126.39
429.59	161.50
429.78	126.39
429.97	159.16
430.16	163.84
430.34	201.29
430.53	135.75
430.72	187.24
430.91	203.63
431.10	212.99
431.28	196.60
431.47	220.01
431.66	215.33
431.85	91.28
432.03	175.54
432.22	292.57
432.41	203.63
432.60	227.03
432.79	215.33
432.97	194.26
433.16	166.18
433.35	177.88
433.54	133.41
433.72	161.50
433.91	191.92
434.10	170.86
434.28	241.08
434.47	173.20
434.66	182.56
434.85	145.11
435.03	210.65
435.22	409.59
435.41	351.08
435.59	313.63
435.78	259.80
435.97	201.29
436.16	182.56
436.34	231.71
436.53	191.92
436.72	241.08
436.90	184.90
437.09	184.90
437.28	140.43
437.46	161.50
437.65	102.98
437.84	227.03
438.02	117.03
438.21	215.33
438.40	252.78
438.58	161.50
438.77	154.48
438.96	152.13
439.14	124.05
439.33	126.39
439.52	189.58
439.70	220.01
439.89	159.16
440.08	227.03
440.26	187.24
440.45	140.43
440.63	163.84
440.82	201.29
441.01	205.97
441.19	215.33
441.38	145.11
441.57	159.16
441.75	264.48
441.94	212.99
442.12	191.92
442.31	175.54
442.50	182.56
442.68	201.29
442.87	102.98
443.05	126.39
443.24	95.96
443.43	191.92
443.61	191.92
443.80	135.75
443.98	128.73
444.17	224.69
444.35	262.14
444.54	198.95
444.73	177.88
444.91	241.08
445.10	198.95
445.28	152.13
445.47	231.71
445.65	154.48
445.84	184.90
446.02	191.92
446.21	168.52
446.39	201.29
446.58	212.99
446.77	196.60
446.95	201.29
447.14	138.09
447.32	182.56
447.51	224.69
447.69	184.90
447.88	159.16
448.06	220.01
448.25	227.03
448.43	114.69
448.62	140.43
448.80	163.84
448.99	201.29
449.17	184.90
449.36	191.92
449.54	224.69
449.73	168.52
449.91	201.29
450.10	177.88
450.28	243.42
450.46	262.14
450.65	159.16
450.83	175.54
451.02	173.20
451.20	173.20
451.39	145.11
451.57	198.95
451.76	210.65
451.94	154.48
452.13	180.22
452.31	208.31
452.49	163.84
452.68	161.50
452.86	140.43
453.05	180.22
453.23	241.08
453.42	191.92
453.60	189.58
453.78	161.50
453.97	88.94
454.15	194.26
454.34	198.95
454.52	110.01
454.70	203.63
454.89	231.71
455.07	147.45
455.26	156.82
455.44	189.58
455.62	170.86
455.81	147.45
455.99	182.56
456.17	194.26
456.36	163.84
456.54	135.75
456.73	128.73
456.91	227.03
457.09	180.22
457.28	184.90
457.46	217.67
457.64	180.22
457.83	212.99
458.01	147.45
458.19	163.84
458.38	313.63
458.56	215.33
458.74	198.95
458.93	138.09
459.11	182.56
459.29	184.90
459.48	231.71
459.66	217.67
459.84	194.26
460.03	271.50
460.21	201.29
460.39	212.99
460.57	180.22
460.76	227.03
460.94	198.95
461.12	191.92
461.31	227.03
461.49	177.88
461.67	208.31
461.85	180.22
462.04	102.98
462.22	664.71
462.40	255.12
462.59	198.95
462.77	166.18
462.95	198.95
463.13	131.07
463.32	252.78
463.50	201.29
463.68	184.90
463.86	156.82
464.05	180.22
464.23	222.35
464.41	243.42
464.59	152.13
464.78	166.18
464.96	180.22
465.14	220.01
465.32	187.24
465.50	208.31
465.69	238.73
465.87	147.45
466.05	210.65
466.23	205.97
466.41	222.35
466.60	217.67
466.78	220.01
466.96	250.44
467.14	187.24
467.32	248.10
467.51	262.14
467.69	217.67
467.87	175.54
468.05	217.67
468.23	250.44
468.41	271.50
468.60	131.07
468.78	222.35
468.96	220.01
469.14	236.39
469.32	166.18
469.50	168.52
469.69	238.73
469.87	203.63
470.05	203.63
470.23	208.31
470.41	170.86
470.59	184.90
470.77	201.29
470.95	229.37
471.14	243.42
471.32	173.20
471.50	241.08
471.68	252.78
471.86	217.67
472.04	198.95
472.22	142.77
472.40	131.07
472.58	154.48
472.77	177.88
472.95	149.79
473.13	124.05
473.31	145.11
473.49	198.95
473.67	231.71
473.85	180.22
474.03	159.16
474.21	224.69
474.39	194.26
474.57	212.99
474.75	210.65
474.93	203.63
475.12	168.52
475.30	255.12
475.48	194.26
475.66	201.29
475.84	229.37
476.02	220.01
476.20	198.95
476.38	198.95
476.56	266.82
476.74	161.50
476.92	257.46
477.10	194.26
477.28	224.69
477.46	236.39
477.64	227.03
477.82	168.52
478.00	154.48
478.18	166.18
478.36	210.65
478.54	74.90
478.72	187.24
478.90	229.37
479.08	138.09
479.26	198.95
479.44	189.58
479.62	220.01
479.80	184.90
479.98	184.90
480.16	217.67
480.34	245.76
480.52	184.90
480.70	208.31
480.88	173.20
481.06	170.86
481.24	217.67
481.41	145.11
481.59	163.84
481.77	248.10
481.95	180.22
482.13	287.89
482.31	166.18
482.49	152.13
482.67	241.08
482.85	252.78
483.03	257.46
483.21	184.90
483.39	203.63
483.57	222.35
483.74	173.20
483.92	262.14
484.10	168.52
484.28	184.90
484.46	248.10
484.64	273.84
484.82	229.37
485.00	203.63
485.18	217.67
485.35	175.54
485.53	203.63
485.71	220.01
485.89	229.37
486.07	227.03
486.25	276.18
486.43	299.59
486.61	264.48
486.78	248.10
486.96	163.84
487.14	271.50
487.32	264.48
487.50	161.50
487.68	264.48
487.85	238.73
488.03	374.49
488.21	255.12
488.39	238.73
488.57	271.50
488.75	184.90
488.92	484.49
489.10	269.16
489.28	208.31
489.46	189.58
489.64	212.99
489.81	276.18
489.99	297.25
490.17	217.67
490.35	266.82
490.53	229.37
490.70	191.92
490.88	227.03
491.06	280.86
491.24	184.90
491.41	222.35
491.59	241.08
491.77	238.73
491.95	191.92
492.13	280.86
492.30	234.05
492.48	196.60
492.66	259.80
492.84	245.76
493.01	222.35
493.19	201.29
493.37	220.01
493.54	266.82
493.72	325.33
493.90	215.33
494.08	212.99
494.25	269.16
494.43	234.05
494.61	189.58
494.79	259.80
494.96	163.84
495.14	297.25
495.32	203.63
495.49	128.73
495.67	189.58
495.85	166.18
496.02	220.01
496.20	234.05
496.38	313.63
496.55	241.08
496.73	203.63
496.91	308.95
497.09	318.31
497.26	210.65
497.44	290.23
497.62	208.31
497.79	271.50
497.97	266.82
498.14	234.05
498.32	273.84
498.50	205.97
498.67	163.84
498.85	229.37
499.03	252.78
499.20	264.48
499.38	208.31
499.56	224.69
499.73	390.87
499.91	255.12
500.08	227.03
500.26	301.93
500.44	234.05
500.61	238.73
500.79	227.03
500.97	142.77
501.14	238.73
501.32	243.42
501.49	215.33
501.67	182.56
501.84	259.80
502.02	180.22
502.20	257.46
502.37	222.35
502.55	262.14
502.72	210.65
502.90	227.03
503.07	269.16
503.25	327.68
503.43	245.76
503.60	259.80
503.78	212.99
503.95	161.50
504.13	220.01
504.30	229.37
504.48	245.76
504.65	322.99
504.83	266.82
505.01	231.71
505.18	255.12
505.36	269.16
505.53	231.71
505.71	241.08
505.88	367.46
506.06	306.61
506.23	217.67
506.41	210.65
506.58	201.29
506.76	208.31
506.93	220.01
507.11	222.35
507.28	292.57
507.46	227.03
507.63	142.77
507.81	266.82
507.98	280.86
508.16	245.76
508.33	313.63
508.50	250.44
508.68	191.92
508.85	248.10
509.03	299.59
509.20	341.72
509.38	238.73
509.55	224.69
509.73	290.23
509.90	241.08
510.08	290.23
510.25	294.91
510.42	205.97
510.60	198.95
510.77	304.27
510.95	231.71
511.12	248.10
511.30	229.37
511.47	238.73
511.64	318.31
511.82	173.20
511.99	271.50
512.17	201.29
512.34	212.99
512.51	238.73
512.69	259.80
512.86	248.10
513.04	227.03
513.21	248.10
513.38	173.20
513.56	252.78
513.73	196.60
513.90	231.71
514.08	245.76
514.25	266.82
514.43	259.80
514.60	252.78
514.77	273.84
514.95	290.23
515.12	301.93
515.29	229.37
515.47	227.03
515.64	276.18
515.81	217.67
515.99	255.12
516.16	198.95
516.33	264.48
516.51	166.18
516.68	250.44
516.85	212.99
517.03	231.71
517.20	245.76
517.37	245.76
517.54	280.86
517.72	271.50
517.89	184.90
518.06	285.55
518.24	341.72
518.41	222.35
518.58	273.84
518.75	159.16
518.93	297.25
519.10	196.60
519.27	248.10
519.45	308.95
519.62	278.52
519.79	280.86
519.96	224.69
520.14	224.69
520.31	217.67
520.48	234.05
520.65	238.73
520.83	238.73
521.00	243.42
521.17	224.69
521.34	264.48
521.52	276.18
521.69	250.44
521.86	149.79
522.03	229.37
522.20	299.59
522.38	203.63
522.55	220.01
522.72	262.14
522.89	208.31
523.07	280.86
523.24	245.76
523.41	243.42
523.58	252.78
523.75	234.05
523.92	252.78
524.10	245.76
524.27	231.71
524.44	262.14
524.61	294.91
524.78	273.84
524.96	290.23
525.13	285.55
525.30	170.86
525.47	229.37
525.64	205.97
525.81	266.82
525.98	250.44
526.16	292.57
526.33	269.16
526.50	152.13
526.67	205.97
526.84	224.69
527.01	325.33
527.18	285.55
527.36	208.31
527.53	259.80
527.70	236.39
527.87	304.27
528.04	308.95
528.21	285.55
528.38	325.33
528.55	311.29
528.72	299.59
528.89	266.82
529.07	273.84
529.24	301.93
529.41	327.68
529.58	262.14
529.75	255.12
529.92	234.05
530.09	285.55
530.26	208.31
530.43	238.73
530.60	252.78
530.77	243.42
530.94	215.33
531.11	341.72
531.28	212.99
531.46	301.93
531.63	280.86
531.80	313.63
531.97	315.97
532.14	248.10
532.31	266.82
532.48	264.48
532.65	297.25
532.82	271.50
532.99	273.84
533.16	301.93
533.33	266.82
533.50	266.82
533.67	283.20
533.84	301.93
534.01	269.16
534.18	212.99
534.35	266.82
534.52	292.57
534.69	346.40
534.86	297.25
535.03	215.33
535.20	266.82
535.37	313.63
535.54	285.55
535.71	266.82
535.88	344.06
536.05	304.27
536.22	344.06
536.38	255.12
536.55	294.91
536.72	299.59
536.89	294.91
537.06	231.71
537.23	348.74
537.40	308.95
537.57	325.33
537.74	266.82
537.91	276.18
538.08	348.74
538.25	301.93
538.42	248.10
538.59	241.08
538.75	271.50
538.92	379.17
539.09	334.70
539.26	355.76
539.43	330.02
539.60	404.91
539.77	346.40
539.94	355.76
540.11	416.62
540.28	421.30
540.44	372.15
540.61	440.02
540.78	402.57
540.95	379.17
541.12	454.06
541.29	517.26
541.46	477.47
541.62	510.24
541.79	358.10
541.96	423.64
542.13	433.00
542.30	505.56
542.47	479.81
542.63	397.89
542.80	451.72
542.97	433.00
543.14	468.11
543.31	440.02
543.48	428.32
543.64	393.21
543.81	435.34
543.98	414.27
544.15	374.49
544.32	404.91
544.48	531.30
544.65	360.44
544.82	416.62
544.99	355.76
545.16	411.93
545.32	407.25
545.49	571.09
545.66	725.57
545.83	723.23
546.00	631.94
546.16	524.28
546.33	440.02
546.50	414.27
546.67	414.27
546.83	379.17
547.00	365.12
547.17	367.46
547.34	327.68
547.50	306.61
547.67	318.31
547.84	362.78
548.00	304.27
548.17	262.14
548.34	283.20
548.51	372.15
548.67	306.61
548.84	327.68
549.01	276.18
549.18	308.95
549.34	351.08
549.51	360.44
549.68	332.36
549.84	278.52
550.01	327.68
550.18	376.83
550.34	346.40
550.51	334.70
550.68	283.20
550.84	248.10
551.01	327.68
551.18	311.29
551.34	346.40
551.51	423.64
551.68	250.44
551.84	372.15
552.01	238.73
552.18	332.36
552.34	327.68
552.51	259.80
552.68	269.16
552.84	241.08
553.01	278.52
553.18	290.23
553.34	283.20
553.51	255.12
553.67	304.27
553.84	407.25
554.01	341.72
554.17	234.05
554.34	238.73
554.51	334.70
554.67	315.97
554.84	299.59
555.00	245.76
555.17	187.24
555.33	280.86
555.50	297.25
555.67	332.36
555.83	269.16
556.00	259.80
556.16	379.17
556.33	301.93
556.50	257.46
556.66	264.48
556.83	238.73
556.99	229.37
557.16	294.91
557.32	257.46
557.49	294.91
557.65	297.25
557.82	285.55
557.98	234.05
558.15	210.65
558.32	301.93
558.48	278.52
558.65	243.42
558.81	250.44
558.98	205.97
559.14	222.35
559.31	283.20
559.47	273.84
559.64	205.97
559.80	271.50
559.97	252.78
560.13	290.23
560.30	283.20
560.46	250.44
560.63	250.44
560.79	273.84
560.96	273.84
561.12	262.14
561.29	262.14
561.45	257.46
561.61	241.08
561.78	287.89
561.94	283.20
562.11	229.37
562.27	283.20
562.44	283.20
562.60	264.48
562.77	243.42
562.93	255.12
563.10	304.27
563.26	248.10
563.42	297.25
563.59	344.06
563.75	177.88
563.92	322.99
564.08	152.13
564.24	243.42
564.41	287.89
564.57	212.99
564.74	203.63
564.90	184.90
565.07	262.14
565.23	234.05
565.39	301.93
565.56	234.05
565.72	227.03
565.88	234.05
566.05	231.71
566.21	177.88
566.38	304.27
566.54	280.86
566.70	196.60
566.87	297.25
567.03	269.16
567.19	266.82
567.36	259.80
567.52	236.39
567.68	203.63
567.85	243.42
568.01	276.18
568.17	208.31
568.34	252.78
568.50	327.68
568.66	262.14
568.83	339.38
568.99	168.52
569.15	215.33
569.32	259.80
569.48	217.67
569.64	205.97
569.81	271.50
569.97	273.84
570.13	294.91
570.30	149.79
570.46	245.76
570.62	187.24
570.78	234.05
570.95	231.71
571.11	344.06
571.27	304.27
571.43	259.80
571.60	198.95
571.76	241.08
571.92	245.76
572.09	259.80
572.25	297.25
572.41	215.33
572.57	259.80
572.74	344.06
572.90	301.93
573.06	227.03
573.22	262.14
573.38	294.91
573.55	217.67
573.71	273.84
573.87	313.63
574.03	262.14
574.20	264.48
574.36	163.84
574.52	269.16
574.68	276.18
574.84	243.42
575.01	238.73
575.17	290.23
575.33	236.39
575.49	318.31
575.65	273.84
575.82	325.33
575.98	299.59
576.14	241.08
576.30	257.46
576.46	245.76
576.62	397.89
576.79	313.63
576.95	360.44
577.11	313.63
577.27	266.82
577.43	273.84
577.59	294.91
577.75	243.42
577.92	273.84
578.08	308.95
578.24	360.44
578.40	273.84
578.56	374.49
578.72	360.44
578.88	346.40
579.04	283.20
579.21	315.97
579.37	262.14
579.53	257.46
579.69	297.25
579.85	278.52
580.01	259.80
580.17	313.63
580.33	231.71
580.49	334.70
580.65	327.68
580.82	294.91
580.98	241.08
581.14	320.65
581.30	325.33
581.46	184.90
581.62	280.86
581.78	283.20
581.94	292.57
582.10	252.78
582.26	341.72
582.42	283.20
582.58	299.59
582.74	196.60
582.90	245.76
583.06	262.14
583.22	320.65
583.38	283.20
583.54	280.86
583.70	365.12
583.86	358.10
584.02	276.18
584.18	330.02
584.34	276.18
584.50	407.25
584.66	1004.09
584.82	1975.41
584.98	2656.51
585.14	2555.86
585.30	1638.38
585.46	1142.18
585.62	734.93
585.78	566.41
585.94	383.85
586.10	365.12
586.26	292.57
586.42	313.63
586.58	318.31
586.74	287.89
586.90	393.21
587.06	381.51
587.22	421.30
587.38	360.44
587.54	269.16
587.70	379.17
587.86	440.02
588.02	433.00
588.18	365.12
588.34	285.55
588.49	248.10
588.65	280.86
588.81	262.14
588.97	173.20
589.13	245.76
589.29	217.67
589.45	229.37
589.61	290.23
589.77	234.05
589.93	280.86
590.08	229.37
590.24	318.31
590.40	287.89
590.56	315.97
590.72	294.91
590.88	257.46
591.04	259.80
591.20	208.31
591.35	287.89
591.51	208.31
591.67	194.26
591.83	252.78
591.99	306.61
592.15	306.61
592.31	273.84
592.46	283.20
592.62	278.52
592.78	280.86
592.94	304.27
593.10	248.10
593.26	276.18
593.41	365.12
593.57	248.10
593.73	243.42
593.89	402.57
594.05	486.83
594.20	528.96
594.36	528.96
594.52	472.79
594.68	341.72
594.84	325.33
594.99	355.76
595.15	269.16
595.31	255.12
595.47	227.03
595.62	346.40
595.78	241.08
595.94	257.46
596.10	227.03
596.25	257.46
596.41	231.71
596.57	276.18
596.73	229.37
596.88	196.60
597.04	259.80
597.20	294.91
597.36	278.52
597.51	355.76
597.67	292.57
597.83	386.19
597.99	269.16
598.14	276.18
598.30	358.10
598.46	264.48
598.61	325.33
598.77	266.82
598.93	283.20
599.09	301.93
599.24	273.84
599.40	297.25
599.56	271.50
599.71	215.33
599.87	250.44
600.03	315.97
600.18	243.42
600.34	259.80
600.50	259.80
600.65	159.16
600.81	283.20
600.97	217.67
601.12	238.73
601.28	217.67
601.44	269.16
601.59	215.33
601.75	135.75
601.91	201.29
602.06	201.29
602.22	313.63
602.37	227.03
602.53	208.31
602.69	337.04
602.84	290.23
603.00	252.78
603.16	334.70
603.31	236.39
603.47	304.27
603.62	290.23
603.78	273.84
603.94	262.14
604.09	227.03
604.25	227.03
604.40	205.97
604.56	325.33
604.71	276.18
604.87	208.31
605.03	189.58
605.18	278.52
605.34	210.65
605.49	259.80
605.65	266.82
605.80	208.31
605.96	184.90
606.12	231.71
606.27	292.57
606.43	311.29
606.58	264.48
606.74	252.78
606.89	337.04
607.05	451.72
607.20	573.43
607.36	533.64
607.51	400.23
607.67	435.34
607.82	285.55
607.98	425.98
608.13	337.04
608.29	327.68
608.44	308.95
608.60	229.37
608.75	325.33
608.91	292.57
609.06	444.70
609.22	638.97
609.37	833.23
609.53	671.73
609.68	634.29
609.84	606.20
609.99	496.19
610.15	482.15
610.30	468.11
610.46	526.62
610.61	559.39
610.76	688.12
610.92	770.04
