SpectraSuite Data File
++++++++++++++++++++++++++++++++++++
Date: Fri Oct 04 11:33:59 GMT-05:00 2013
User: price-jones
Dark Spectrum Present: No
Reference Spectrum Present: No
Number of Sampled Component Spectra: 1
Spectrometers: USB2+H05261
Integration Time (usec): 100000 (USB2+H05261)
Spectra Averaged: 1 (USB2+H05261)
Boxcar Smoothing: 0 (USB2+H05261)
Correct for Electrical Dark: No (USB2+H05261)
Strobe/Lamp Enabled: No (USB2+H05261)
Correct for Detector Non-linearity: No (USB2+H05261)
Correct for Stray Light: No (USB2+H05261)
Number of Pixels in Processed Spectrum: 2048
>>>>>Begin Processed Spectral Data<<<<<
365.73	65.54
365.92	65.54
366.12	65.54
366.32	0.00
366.52	2.34
366.72	0.00
366.91	0.00
367.11	9.36
367.31	0.00
367.51	0.00
367.70	35.11
367.90	58.51
368.10	0.00
368.30	65.54
368.49	0.00
368.69	0.00
368.89	0.00
369.09	65.54
369.28	16.38
369.48	0.00
369.68	0.00
369.87	49.15
370.07	14.04
370.27	102.98
370.47	0.00
370.66	35.11
370.86	79.58
371.06	67.88
371.25	110.01
371.45	110.01
371.65	175.54
371.84	0.00
372.04	102.98
372.24	102.98
372.44	44.47
372.63	112.35
372.83	236.39
373.03	107.66
373.22	126.39
373.42	142.77
373.62	142.77
373.81	147.45
374.01	189.58
374.21	175.54
374.40	159.16
374.60	170.86
374.79	173.20
374.99	156.82
375.19	191.92
375.38	166.18
375.58	147.45
375.78	149.79
375.97	201.29
376.17	166.18
376.37	131.07
376.56	131.07
376.76	170.86
376.95	84.26
377.15	117.03
377.35	182.56
377.54	138.09
377.74	191.92
377.93	170.86
378.13	117.03
378.33	175.54
378.52	184.90
378.72	124.05
378.91	208.31
379.11	154.48
379.31	100.64
379.50	156.82
379.70	201.29
379.89	145.11
380.09	191.92
380.28	32.77
380.48	145.11
380.68	119.37
380.87	145.11
381.07	112.35
381.26	243.42
381.46	102.98
381.65	182.56
381.85	182.56
382.04	135.75
382.24	140.43
382.43	124.05
382.63	196.60
382.83	149.79
383.02	142.77
383.22	154.48
383.41	117.03
383.61	114.69
383.80	126.39
384.00	142.77
384.19	86.60
384.39	114.69
384.58	182.56
384.78	140.43
384.97	201.29
385.17	86.60
385.36	77.24
385.56	182.56
385.75	105.32
385.95	63.19
386.14	140.43
386.34	100.64
386.53	133.41
386.72	133.41
386.92	156.82
387.11	166.18
387.31	131.07
387.50	98.30
387.70	126.39
387.89	189.58
388.09	46.81
388.28	142.77
388.48	170.86
388.67	126.39
388.86	135.75
389.06	124.05
389.25	95.96
389.45	110.01
389.64	121.71
389.84	124.05
390.03	156.82
390.22	187.24
390.42	166.18
390.61	98.30
390.81	147.45
391.00	145.11
391.19	238.73
391.39	58.51
391.58	135.75
391.78	149.79
391.97	145.11
392.16	100.64
392.36	205.97
392.55	220.01
392.75	86.60
392.94	124.05
393.13	124.05
393.33	166.18
393.52	159.16
393.71	142.77
393.91	180.22
394.10	93.62
394.29	102.98
394.49	163.84
394.68	159.16
394.88	229.37
395.07	227.03
395.26	220.01
395.46	177.88
395.65	161.50
395.84	100.64
396.04	203.63
396.23	91.28
396.42	79.58
396.62	117.03
396.81	74.90
397.00	95.96
397.19	189.58
397.39	191.92
397.58	119.37
397.77	128.73
397.97	194.26
398.16	161.50
398.35	182.56
398.55	177.88
398.74	163.84
398.93	191.92
399.12	182.56
399.32	201.29
399.51	135.75
399.70	159.16
399.90	154.48
400.09	138.09
400.28	180.22
400.47	93.62
400.67	170.86
400.86	203.63
401.05	170.86
401.24	194.26
401.44	159.16
401.63	147.45
401.82	112.35
402.01	191.92
402.21	210.65
402.40	161.50
402.59	180.22
402.78	156.82
402.97	72.56
403.17	220.01
403.36	86.60
403.55	166.18
403.74	79.58
403.93	175.54
404.13	140.43
404.32	156.82
404.51	191.92
404.70	135.75
404.89	110.01
405.09	215.33
405.28	161.50
405.47	168.52
405.66	126.39
405.85	156.82
406.05	147.45
406.24	184.90
406.43	234.05
406.62	210.65
406.81	234.05
407.00	182.56
407.20	184.90
407.39	154.48
407.58	126.39
407.77	189.58
407.96	175.54
408.15	177.88
408.34	156.82
408.54	166.18
408.73	126.39
408.92	182.56
409.11	156.82
409.30	138.09
409.49	212.99
409.68	217.67
409.87	170.86
410.07	131.07
410.26	152.13
410.45	105.32
410.64	212.99
410.83	100.64
411.02	142.77
411.21	175.54
411.40	191.92
411.59	170.86
411.78	124.05
411.98	126.39
412.17	159.16
412.36	81.92
412.55	138.09
412.74	182.56
412.93	182.56
413.12	156.82
413.31	227.03
413.50	119.37
413.69	128.73
413.88	222.35
414.07	170.86
414.26	210.65
414.45	114.69
414.64	222.35
414.83	201.29
415.02	126.39
415.22	112.35
415.41	187.24
415.60	147.45
415.79	117.03
415.98	131.07
416.17	224.69
416.36	175.54
416.55	117.03
416.74	205.97
416.93	184.90
417.12	152.13
417.31	196.60
417.50	121.71
417.69	224.69
417.88	173.20
418.07	273.84
418.26	229.37
418.45	170.86
418.64	131.07
418.83	198.95
419.02	170.86
419.21	255.12
419.39	212.99
419.58	110.01
419.77	149.79
419.96	201.29
420.15	208.31
420.34	205.97
420.53	201.29
420.72	131.07
420.91	128.73
421.10	182.56
421.29	217.67
421.48	159.16
421.67	191.92
421.86	222.35
422.05	166.18
422.24	154.48
422.43	166.18
422.61	163.84
422.80	112.35
422.99	173.20
423.18	131.07
423.37	166.18
423.56	229.37
423.75	152.13
423.94	140.43
424.13	210.65
424.32	135.75
424.50	177.88
424.69	145.11
424.88	248.10
425.07	100.64
425.26	161.50
425.45	238.73
425.64	184.90
425.83	145.11
426.01	234.05
426.20	131.07
426.39	175.54
426.58	224.69
426.77	131.07
426.96	212.99
427.15	187.24
427.33	175.54
427.52	145.11
427.71	133.41
427.90	191.92
428.09	173.20
428.28	161.50
428.46	168.52
428.65	212.99
428.84	177.88
429.03	212.99
429.22	138.09
429.40	140.43
429.59	196.60
429.78	313.63
429.97	152.13
430.16	112.35
430.34	147.45
430.53	177.88
430.72	149.79
430.91	128.73
431.10	126.39
431.28	126.39
431.47	203.63
431.66	210.65
431.85	156.82
432.03	159.16
432.22	245.76
432.41	126.39
432.60	252.78
432.79	161.50
432.97	170.86
433.16	177.88
433.35	234.05
433.54	241.08
433.72	98.30
433.91	220.01
434.10	152.13
434.28	140.43
434.47	245.76
434.66	238.73
434.85	252.78
435.03	212.99
435.22	355.76
435.41	353.42
435.59	362.78
435.78	203.63
435.97	175.54
436.16	250.44
436.34	145.11
436.53	128.73
436.72	196.60
436.90	159.16
437.09	166.18
437.28	168.52
437.46	147.45
437.65	166.18
437.84	149.79
438.02	91.28
438.21	156.82
438.40	128.73
438.58	175.54
438.77	161.50
438.96	100.64
439.14	121.71
439.33	236.39
439.52	212.99
439.70	173.20
439.89	255.12
440.08	142.77
440.26	163.84
440.45	217.67
440.63	222.35
440.82	175.54
441.01	194.26
441.19	187.24
441.38	147.45
441.57	224.69
441.75	208.31
441.94	212.99
442.12	201.29
442.31	187.24
442.50	241.08
442.68	154.48
442.87	154.48
443.05	248.10
443.24	161.50
443.43	145.11
443.61	117.03
443.80	145.11
443.98	135.75
444.17	126.39
444.35	212.99
444.54	166.18
444.73	194.26
444.91	112.35
445.10	248.10
445.28	180.22
445.47	152.13
445.65	236.39
445.84	196.60
446.02	243.42
446.21	215.33
446.39	177.88
446.58	215.33
446.77	138.09
446.95	145.11
447.14	168.52
447.32	231.71
447.51	156.82
447.69	227.03
447.88	198.95
448.06	142.77
448.25	175.54
448.43	262.14
448.62	145.11
448.80	177.88
448.99	224.69
449.17	170.86
449.36	177.88
449.54	175.54
449.73	140.43
449.91	152.13
450.10	220.01
450.28	322.99
450.46	201.29
450.65	194.26
450.83	184.90
451.02	187.24
451.20	196.60
451.39	180.22
451.57	229.37
451.76	236.39
451.94	163.84
452.13	194.26
452.31	241.08
452.49	149.79
452.68	166.18
452.86	159.16
453.05	238.73
453.23	98.30
453.42	184.90
453.60	217.67
453.78	187.24
453.97	145.11
454.15	182.56
454.34	163.84
454.52	229.37
454.70	184.90
454.89	210.65
455.07	91.28
455.26	131.07
455.44	126.39
455.62	128.73
455.81	168.52
455.99	266.82
456.17	201.29
456.36	161.50
456.54	138.09
456.73	201.29
456.91	126.39
457.09	163.84
457.28	220.01
457.46	238.73
457.64	166.18
457.83	170.86
458.01	159.16
458.19	184.90
458.38	154.48
458.56	182.56
458.74	191.92
458.93	187.24
459.11	234.05
459.29	184.90
459.48	266.82
459.66	184.90
459.84	236.39
460.03	248.10
460.21	194.26
460.39	161.50
460.57	149.79
460.76	194.26
460.94	234.05
461.12	257.46
461.31	220.01
461.49	180.22
461.67	149.79
461.85	257.46
462.04	198.95
462.22	592.16
462.40	212.99
462.59	180.22
462.77	166.18
462.95	189.58
463.13	107.66
463.32	215.33
463.50	189.58
463.68	194.26
463.86	220.01
464.05	189.58
464.23	255.12
464.41	177.88
464.59	161.50
464.78	194.26
464.96	222.35
465.14	250.44
465.32	217.67
465.50	210.65
465.69	212.99
465.87	159.16
466.05	156.82
466.23	180.22
466.41	201.29
466.60	173.20
466.78	126.39
466.96	243.42
467.14	126.39
467.32	198.95
467.51	227.03
467.69	152.13
467.87	194.26
468.05	252.78
468.23	287.89
468.41	175.54
468.60	191.92
468.78	156.82
468.96	175.54
469.14	238.73
469.32	140.43
469.50	182.56
469.69	196.60
469.87	161.50
470.05	180.22
470.23	145.11
470.41	250.44
470.59	142.77
470.77	163.84
470.95	224.69
471.14	224.69
471.32	191.92
471.50	238.73
471.68	231.71
471.86	276.18
472.04	201.29
472.22	205.97
472.40	285.55
472.58	154.48
472.77	180.22
472.95	100.64
473.13	287.89
473.31	191.92
473.49	205.97
473.67	203.63
473.85	252.78
474.03	217.67
474.21	252.78
474.39	220.01
474.57	283.20
474.75	205.97
474.93	154.48
475.12	128.73
475.30	114.69
475.48	168.52
475.66	252.78
475.84	140.43
476.02	224.69
476.20	278.52
476.38	196.60
476.56	294.91
476.74	163.84
476.92	177.88
477.10	203.63
477.28	187.24
477.46	215.33
477.64	252.78
477.82	236.39
478.00	140.43
478.18	168.52
478.36	112.35
478.54	210.65
478.72	177.88
478.90	152.13
479.08	255.12
479.26	283.20
479.44	201.29
479.62	201.29
479.80	182.56
479.98	205.97
480.16	98.30
480.34	252.78
480.52	210.65
480.70	191.92
480.88	236.39
481.06	220.01
481.24	173.20
481.41	138.09
481.59	152.13
481.77	229.37
481.95	236.39
482.13	266.82
482.31	173.20
482.49	241.08
482.67	229.37
482.85	278.52
483.03	315.97
483.21	180.22
483.39	210.65
483.57	177.88
483.74	191.92
483.92	187.24
484.10	210.65
484.28	290.23
484.46	201.29
484.64	250.44
484.82	234.05
485.00	229.37
485.18	220.01
485.35	250.44
485.53	194.26
485.71	294.91
485.89	154.48
486.07	210.65
486.25	259.80
486.43	266.82
486.61	231.71
486.78	198.95
486.96	177.88
487.14	222.35
487.32	273.84
487.50	187.24
487.68	262.14
487.85	292.57
488.03	201.29
488.21	248.10
488.39	203.63
488.57	271.50
488.75	222.35
488.92	479.81
489.10	205.97
489.28	255.12
489.46	173.20
489.64	241.08
489.81	266.82
489.99	255.12
490.17	229.37
490.35	280.86
490.53	201.29
490.70	250.44
490.88	252.78
491.06	262.14
491.24	241.08
491.41	257.46
491.59	262.14
491.77	222.35
491.95	121.71
492.13	236.39
492.30	236.39
492.48	187.24
492.66	184.90
492.84	198.95
493.01	238.73
493.19	210.65
493.37	306.61
493.54	255.12
493.72	285.55
493.90	266.82
494.08	306.61
494.25	184.90
494.43	215.33
494.61	217.67
494.79	273.84
494.96	245.76
495.14	292.57
495.32	271.50
495.49	301.93
495.67	231.71
495.85	229.37
496.02	292.57
496.20	250.44
496.38	264.48
496.55	245.76
496.73	306.61
496.91	196.60
497.09	184.90
497.26	257.46
497.44	271.50
497.62	208.31
497.79	308.95
497.97	248.10
498.14	194.26
498.32	177.88
498.50	299.59
498.67	201.29
498.85	227.03
499.03	210.65
499.20	201.29
499.38	212.99
499.56	262.14
499.73	327.68
499.91	290.23
500.08	229.37
500.26	241.08
500.44	229.37
500.61	269.16
500.79	161.50
500.97	278.52
501.14	205.97
501.32	210.65
501.49	259.80
501.67	252.78
501.84	236.39
502.02	234.05
502.20	245.76
502.37	262.14
502.55	278.52
502.72	266.82
502.90	180.22
503.07	196.60
503.25	280.86
503.43	285.55
503.60	182.56
503.78	318.31
503.95	229.37
504.13	236.39
504.30	252.78
504.48	245.76
504.65	220.01
504.83	189.58
505.01	227.03
505.18	170.86
505.36	276.18
505.53	280.86
505.71	262.14
505.88	273.84
506.06	257.46
506.23	318.31
506.41	184.90
506.58	250.44
506.76	301.93
506.93	245.76
507.11	271.50
507.28	227.03
507.46	154.48
507.63	266.82
507.81	152.13
507.98	198.95
508.16	236.39
508.33	196.60
508.50	262.14
508.68	262.14
508.85	262.14
509.03	231.71
509.20	313.63
509.38	285.55
509.55	299.59
509.73	292.57
509.90	264.48
510.08	245.76
510.25	222.35
510.42	255.12
510.60	287.89
510.77	313.63
510.95	292.57
511.12	280.86
511.30	250.44
511.47	266.82
511.64	264.48
511.82	271.50
511.99	280.86
512.17	248.10
512.34	243.42
512.51	212.99
512.69	245.76
512.86	290.23
513.04	301.93
513.21	269.16
513.38	283.20
513.56	311.29
513.73	182.56
513.90	222.35
514.08	156.82
514.25	238.73
514.43	266.82
514.60	189.58
514.77	220.01
514.95	294.91
515.12	255.12
515.29	227.03
515.47	198.95
515.64	227.03
515.81	278.52
515.99	315.97
516.16	280.86
516.33	259.80
516.51	142.77
516.68	156.82
516.85	234.05
517.03	205.97
517.20	285.55
517.37	262.14
517.54	290.23
517.72	264.48
517.89	138.09
518.06	227.03
518.24	248.10
518.41	262.14
518.58	294.91
518.75	229.37
518.93	257.46
519.10	191.92
519.27	243.42
519.45	238.73
519.62	229.37
519.79	250.44
519.96	248.10
520.14	304.27
520.31	311.29
520.48	276.18
520.65	273.84
520.83	271.50
521.00	320.65
521.17	280.86
521.34	248.10
521.52	182.56
521.69	196.60
521.86	273.84
522.03	306.61
522.20	306.61
522.38	212.99
522.55	217.67
522.72	255.12
522.89	294.91
523.07	271.50
523.24	280.86
523.41	229.37
523.58	283.20
523.75	250.44
523.92	229.37
524.10	203.63
524.27	315.97
524.44	299.59
524.61	250.44
524.78	252.78
524.96	322.99
525.13	276.18
525.30	292.57
525.47	292.57
525.64	250.44
525.81	271.50
525.98	299.59
526.16	227.03
526.33	201.29
526.50	201.29
526.67	229.37
526.84	229.37
527.01	208.31
527.18	266.82
527.36	180.22
527.53	259.80
527.70	248.10
527.87	191.92
528.04	269.16
528.21	273.84
528.38	301.93
528.55	299.59
528.72	318.31
528.89	264.48
529.07	248.10
529.24	215.33
529.41	308.95
529.58	299.59
529.75	248.10
529.92	273.84
530.09	266.82
530.26	252.78
530.43	285.55
530.60	241.08
530.77	266.82
530.94	287.89
531.11	290.23
531.28	299.59
531.46	250.44
531.63	252.78
531.80	280.86
531.97	285.55
532.14	252.78
532.31	238.73
532.48	273.84
532.65	308.95
532.82	257.46
532.99	278.52
533.16	283.20
533.33	301.93
533.50	299.59
533.67	271.50
533.84	245.76
534.01	280.86
534.18	383.85
534.35	313.63
534.52	196.60
534.69	348.74
534.86	257.46
535.03	231.71
535.20	287.89
535.37	339.38
535.54	243.42
535.71	273.84
535.88	262.14
536.05	220.01
536.22	311.29
536.38	273.84
536.55	311.29
536.72	285.55
536.89	250.44
537.06	269.16
537.23	269.16
537.40	191.92
537.57	276.18
537.74	292.57
537.91	344.06
538.08	250.44
538.25	264.48
538.42	189.58
538.59	294.91
538.75	301.93
538.92	348.74
539.09	390.87
539.26	337.04
539.43	299.59
539.60	353.42
539.77	393.21
539.94	351.08
540.11	334.70
540.28	318.31
540.44	332.36
540.61	379.17
540.78	390.87
540.95	334.70
541.12	355.76
541.29	482.15
541.46	477.47
541.62	535.98
541.79	491.51
541.96	484.49
542.13	423.64
542.30	440.02
542.47	421.30
542.63	428.32
542.80	442.36
542.97	468.11
543.14	475.13
543.31	465.77
543.48	440.02
543.64	428.32
543.81	465.77
543.98	470.45
544.15	376.83
544.32	388.53
544.48	428.32
544.65	379.17
544.82	454.06
544.99	365.12
545.16	397.89
545.32	425.98
545.49	573.43
545.66	676.41
545.83	737.27
546.00	650.67
546.16	643.65
546.33	472.79
546.50	411.93
546.67	360.44
546.83	393.21
547.00	362.78
547.17	395.55
547.34	397.89
547.50	348.74
547.67	332.36
547.84	348.74
548.00	339.38
548.17	369.80
548.34	362.78
548.51	351.08
548.67	287.89
548.84	400.23
549.01	294.91
549.18	297.25
549.34	339.38
549.51	304.27
549.68	301.93
549.84	285.55
550.01	203.63
550.18	397.89
550.34	299.59
550.51	271.50
550.68	348.74
550.84	362.78
551.01	262.14
551.18	344.06
551.34	315.97
551.51	341.72
551.68	257.46
551.84	337.04
552.01	318.31
552.18	322.99
552.34	231.71
552.51	280.86
552.68	266.82
552.84	290.23
553.01	203.63
553.18	332.36
553.34	280.86
553.51	322.99
553.67	318.31
553.84	327.68
554.01	273.84
554.17	330.02
554.34	320.65
554.51	248.10
554.67	285.55
554.84	264.48
555.00	292.57
555.17	266.82
555.33	276.18
555.50	252.78
555.67	208.31
555.83	313.63
556.00	360.44
556.16	400.23
556.33	374.49
556.50	231.71
556.66	304.27
556.83	243.42
556.99	212.99
557.16	334.70
557.32	264.48
557.49	271.50
557.65	222.35
557.82	208.31
557.98	294.91
558.15	194.26
558.32	266.82
558.48	217.67
558.65	250.44
558.81	257.46
558.98	278.52
559.14	259.80
559.31	276.18
559.47	269.16
559.64	255.12
559.80	290.23
559.97	276.18
560.13	273.84
560.30	222.35
560.46	269.16
560.63	215.33
560.79	224.69
560.96	257.46
561.12	271.50
561.29	334.70
561.45	245.76
561.61	252.78
561.78	360.44
561.94	205.97
562.11	297.25
562.27	208.31
562.44	215.33
562.60	234.05
562.77	170.86
562.93	266.82
563.10	262.14
563.26	266.82
563.42	252.78
563.59	273.84
563.75	238.73
563.92	334.70
564.08	318.31
564.24	208.31
564.41	341.72
564.57	168.52
564.74	212.99
564.90	266.82
565.07	217.67
565.23	266.82
565.39	203.63
565.56	320.65
565.72	271.50
565.88	203.63
566.05	301.93
566.21	194.26
566.38	290.23
566.54	278.52
566.70	252.78
566.87	262.14
567.03	231.71
567.19	257.46
567.36	330.02
567.52	212.99
567.68	262.14
567.85	210.65
568.01	348.74
568.17	290.23
568.34	257.46
568.50	311.29
568.66	194.26
568.83	374.49
568.99	273.84
569.15	304.27
569.32	259.80
569.48	308.95
569.64	290.23
569.81	250.44
569.97	220.01
570.13	257.46
570.30	227.03
570.46	262.14
570.62	292.57
570.78	187.24
570.95	220.01
571.11	353.42
571.27	304.27
571.43	217.67
571.60	238.73
571.76	280.86
571.92	212.99
572.09	243.42
572.25	248.10
572.41	201.29
572.57	229.37
572.74	276.18
572.90	273.84
573.06	278.52
573.22	248.10
573.38	273.84
573.55	203.63
573.71	250.44
573.87	222.35
574.03	210.65
574.20	243.42
574.36	273.84
574.52	306.61
574.68	210.65
574.84	264.48
575.01	194.26
575.17	306.61
575.33	220.01
575.49	231.71
575.65	315.97
575.82	337.04
575.98	252.78
576.14	285.55
576.30	266.82
576.46	351.08
576.62	311.29
576.79	407.25
576.95	311.29
577.11	210.65
577.27	250.44
577.43	290.23
577.59	301.93
577.75	313.63
577.92	229.37
578.08	287.89
578.24	250.44
578.40	330.02
578.56	325.33
578.72	372.15
578.88	332.36
579.04	299.59
579.21	332.36
579.37	353.42
579.53	245.76
579.69	278.52
579.85	353.42
580.01	313.63
580.17	273.84
580.33	287.89
580.49	318.31
580.65	238.73
580.82	278.52
580.98	205.97
581.14	250.44
581.30	266.82
581.46	315.97
581.62	238.73
581.78	283.20
581.94	283.20
582.10	266.82
582.26	224.69
582.42	245.76
582.58	285.55
582.74	308.95
582.90	248.10
583.06	259.80
583.22	243.42
583.38	224.69
583.54	231.71
583.70	287.89
583.86	313.63
584.02	278.52
584.18	252.78
584.34	301.93
584.50	383.85
584.66	877.70
584.82	1834.98
584.98	2338.20
585.14	2310.11
585.30	1572.84
585.46	983.02
585.62	741.95
585.78	517.26
585.94	322.99
586.10	327.68
586.26	262.14
586.42	308.95
586.58	301.93
586.74	374.49
586.90	290.23
587.06	297.25
587.22	355.76
587.38	276.18
587.54	332.36
587.70	451.72
587.86	425.98
588.02	433.00
588.18	386.19
588.34	285.55
588.49	297.25
588.65	341.72
588.81	222.35
588.97	180.22
589.13	212.99
589.29	224.69
589.45	248.10
589.61	266.82
589.77	236.39
589.93	224.69
590.08	308.95
590.24	259.80
590.40	341.72
590.56	290.23
590.72	304.27
590.88	201.29
591.04	215.33
591.20	205.97
591.35	262.14
591.51	234.05
591.67	217.67
591.83	241.08
591.99	259.80
592.15	332.36
592.31	311.29
592.46	245.76
592.62	318.31
592.78	280.86
592.94	241.08
593.10	285.55
593.26	262.14
593.41	205.97
593.57	292.57
593.73	273.84
593.89	404.91
594.05	397.89
594.20	507.90
594.36	540.66
594.52	437.68
594.68	369.80
594.84	374.49
594.99	294.91
595.15	278.52
595.31	283.20
595.47	301.93
595.62	231.71
595.78	252.78
595.94	257.46
596.10	262.14
596.25	234.05
596.41	201.29
596.57	220.01
596.73	234.05
596.88	170.86
597.04	292.57
597.20	248.10
597.36	337.04
597.51	313.63
597.67	243.42
597.83	259.80
597.99	269.16
598.14	266.82
598.30	252.78
598.46	280.86
598.61	187.24
598.77	311.29
598.93	259.80
599.09	273.84
599.24	311.29
599.40	313.63
599.56	222.35
599.71	283.20
599.87	334.70
600.03	273.84
600.18	182.56
600.34	273.84
600.50	290.23
600.65	259.80
600.81	353.42
600.97	273.84
601.12	220.01
601.28	252.78
601.44	224.69
601.59	248.10
601.75	243.42
601.91	245.76
602.06	311.29
602.22	339.38
602.37	315.97
602.53	273.84
602.69	360.44
602.84	369.80
603.00	351.08
603.16	301.93
603.31	278.52
603.47	290.23
603.62	243.42
603.78	201.29
603.94	245.76
604.09	299.59
604.25	308.95
604.40	297.25
604.56	337.04
604.71	273.84
604.87	374.49
605.03	294.91
605.18	304.27
605.34	224.69
605.49	255.12
605.65	292.57
605.80	220.01
605.96	292.57
606.12	294.91
606.27	304.27
606.43	215.33
606.58	241.08
606.74	259.80
606.89	339.38
607.05	582.79
607.20	451.72
607.36	524.28
607.51	355.76
607.67	374.49
607.82	266.82
607.98	257.46
608.13	315.97
608.29	301.93
608.44	330.02
608.60	322.99
608.75	318.31
608.91	334.70
609.06	433.00
609.22	587.47
609.37	662.37
609.53	716.20
609.68	573.43
609.84	465.77
609.99	503.22
610.15	512.58
610.30	535.98
610.46	526.62
610.61	610.88
610.76	648.33
610.92	711.52
