SpectraSuite Data File
++++++++++++++++++++++++++++++++++++
Date: Fri Oct 04 11:33:46 GMT-05:00 2013
User: price-jones
Dark Spectrum Present: No
Reference Spectrum Present: No
Number of Sampled Component Spectra: 1
Spectrometers: USB2+H05261
Integration Time (usec): 100000 (USB2+H05261)
Spectra Averaged: 1 (USB2+H05261)
Boxcar Smoothing: 0 (USB2+H05261)
Correct for Electrical Dark: No (USB2+H05261)
Strobe/Lamp Enabled: No (USB2+H05261)
Correct for Detector Non-linearity: No (USB2+H05261)
Correct for Stray Light: No (USB2+H05261)
Number of Pixels in Processed Spectrum: 2048
>>>>>Begin Processed Spectral Data<<<<<
365.73	44.47
365.92	44.47
366.12	44.47
366.32	25.75
366.52	0.00
366.72	14.04
366.91	0.00
367.11	0.00
367.31	0.00
367.51	0.00
367.70	0.00
367.90	9.36
368.10	0.00
368.30	0.00
368.49	35.11
368.69	23.41
368.89	0.00
369.09	0.00
369.28	0.00
369.48	0.00
369.68	0.00
369.87	0.00
370.07	0.00
370.27	0.00
370.47	0.00
370.66	112.35
370.86	86.60
371.06	133.41
371.25	191.92
371.45	72.56
371.65	149.79
371.84	84.26
372.04	166.18
372.24	32.77
372.44	86.60
372.63	51.49
372.83	168.52
373.03	100.64
373.22	117.03
373.42	135.75
373.62	161.50
373.81	163.84
374.01	159.16
374.21	173.20
374.40	135.75
374.60	184.90
374.79	154.48
374.99	166.18
375.19	177.88
375.38	191.92
375.58	100.64
375.78	182.56
375.97	198.95
376.17	203.63
376.37	152.13
376.56	220.01
376.76	95.96
376.95	133.41
377.15	135.75
377.35	133.41
377.54	163.84
377.74	133.41
377.93	63.19
378.13	121.71
378.33	259.80
378.52	170.86
378.72	163.84
378.91	177.88
379.11	163.84
379.31	161.50
379.50	79.58
379.70	156.82
379.89	191.92
380.09	128.73
380.28	117.03
380.48	182.56
380.68	88.94
380.87	142.77
381.07	67.88
381.26	252.78
381.46	203.63
381.65	152.13
381.85	74.90
382.04	177.88
382.24	184.90
382.43	135.75
382.63	102.98
382.83	177.88
383.02	149.79
383.22	124.05
383.41	131.07
383.61	133.41
383.80	194.26
384.00	128.73
384.19	180.22
384.39	194.26
384.58	168.52
384.78	126.39
384.97	107.66
385.17	105.32
385.36	149.79
385.56	208.31
385.75	93.62
385.95	140.43
386.14	114.69
386.34	117.03
386.53	110.01
386.72	107.66
386.92	128.73
387.11	163.84
387.31	154.48
387.50	107.66
387.70	84.26
387.89	166.18
388.09	168.52
388.28	124.05
388.48	126.39
388.67	175.54
388.86	177.88
389.06	142.77
389.25	124.05
389.45	114.69
389.64	102.98
389.84	166.18
390.03	91.28
390.22	142.77
390.42	117.03
390.61	147.45
390.81	100.64
391.00	166.18
391.19	156.82
391.39	215.33
391.58	208.31
391.78	215.33
391.97	182.56
392.16	114.69
392.36	149.79
392.55	166.18
392.75	77.24
392.94	175.54
393.13	117.03
393.33	67.88
393.52	168.52
393.71	145.11
393.91	217.67
394.10	100.64
394.29	126.39
394.49	142.77
394.68	145.11
394.88	187.24
395.07	168.52
395.26	156.82
395.46	121.71
395.65	124.05
395.84	234.05
396.04	241.08
396.23	149.79
396.42	102.98
396.62	184.90
396.81	142.77
397.00	112.35
397.19	107.66
397.39	173.20
397.58	149.79
397.77	203.63
397.97	154.48
398.16	159.16
398.35	175.54
398.55	154.48
398.74	138.09
398.93	154.48
399.12	131.07
399.32	203.63
399.51	166.18
399.70	86.60
399.90	112.35
400.09	154.48
400.28	187.24
400.47	168.52
400.67	163.84
400.86	112.35
401.05	205.97
401.24	201.29
401.44	243.42
401.63	177.88
401.82	161.50
402.01	128.73
402.21	208.31
402.40	140.43
402.59	140.43
402.78	201.29
402.97	208.31
403.17	138.09
403.36	187.24
403.55	67.88
403.74	212.99
403.93	198.95
404.13	229.37
404.32	212.99
404.51	234.05
404.70	220.01
404.89	133.41
405.09	259.80
405.28	65.54
405.47	121.71
405.66	152.13
405.85	203.63
406.05	149.79
406.24	182.56
406.43	196.60
406.62	201.29
406.81	189.58
407.00	163.84
407.20	156.82
407.39	107.66
407.58	112.35
407.77	140.43
407.96	131.07
408.15	236.39
408.34	142.77
408.54	184.90
408.73	161.50
408.92	168.52
409.11	156.82
409.30	152.13
409.49	65.54
409.68	175.54
409.87	145.11
410.07	74.90
410.26	156.82
410.45	180.22
410.64	67.88
410.83	138.09
411.02	93.62
411.21	191.92
411.40	177.88
411.59	135.75
411.78	196.60
411.98	175.54
412.17	191.92
412.36	124.05
412.55	212.99
412.74	135.75
412.93	259.80
413.12	203.63
413.31	177.88
413.50	201.29
413.69	215.33
413.88	191.92
414.07	201.29
414.26	168.52
414.45	201.29
414.64	142.77
414.83	166.18
415.02	131.07
415.22	205.97
415.41	161.50
415.60	187.24
415.79	180.22
415.98	201.29
416.17	212.99
416.36	177.88
416.55	173.20
416.74	177.88
416.93	203.63
417.12	145.11
417.31	119.37
417.50	231.71
417.69	187.24
417.88	138.09
418.07	156.82
418.26	177.88
418.45	138.09
418.64	191.92
418.83	126.39
419.02	224.69
419.21	128.73
419.39	163.84
419.58	65.54
419.77	170.86
419.96	173.20
420.15	177.88
420.34	161.50
420.53	126.39
420.72	112.35
420.91	180.22
421.10	114.69
421.29	227.03
421.48	182.56
421.67	177.88
421.86	182.56
422.05	138.09
422.24	168.52
422.43	126.39
422.61	154.48
422.80	198.95
422.99	208.31
423.18	161.50
423.37	252.78
423.56	229.37
423.75	208.31
423.94	119.37
424.13	170.86
424.32	102.98
424.50	201.29
424.69	175.54
424.88	156.82
425.07	159.16
425.26	133.41
425.45	217.67
425.64	196.60
425.83	187.24
426.01	149.79
426.20	196.60
426.39	128.73
426.58	133.41
426.77	131.07
426.96	138.09
427.15	241.08
427.33	227.03
427.52	205.97
427.71	196.60
427.90	222.35
428.09	98.30
428.28	252.78
428.46	187.24
428.65	215.33
428.84	201.29
429.03	140.43
429.22	191.92
429.40	124.05
429.59	156.82
429.78	196.60
429.97	191.92
430.16	194.26
430.34	126.39
430.53	191.92
430.72	168.52
430.91	217.67
431.10	238.73
431.28	201.29
431.47	191.92
431.66	187.24
431.85	161.50
432.03	191.92
432.22	250.44
432.41	175.54
432.60	191.92
432.79	198.95
432.97	262.14
433.16	180.22
433.35	229.37
433.54	191.92
433.72	210.65
433.91	184.90
434.10	212.99
434.28	189.58
434.47	126.39
434.66	175.54
434.85	196.60
435.03	278.52
435.22	337.04
435.41	458.74
435.59	372.15
435.78	395.55
435.97	194.26
436.16	236.39
436.34	175.54
436.53	196.60
436.72	203.63
436.90	135.75
437.09	159.16
437.28	128.73
437.46	147.45
437.65	154.48
437.84	156.82
438.02	166.18
438.21	194.26
438.40	126.39
438.58	205.97
438.77	217.67
438.96	280.86
439.14	168.52
439.33	198.95
439.52	142.77
439.70	222.35
439.89	208.31
440.08	168.52
440.26	252.78
440.45	255.12
440.63	187.24
440.82	224.69
441.01	170.86
441.19	208.31
441.38	173.20
441.57	156.82
441.75	238.73
441.94	187.24
442.12	210.65
442.31	140.43
442.50	138.09
442.68	236.39
442.87	135.75
443.05	196.60
443.24	229.37
443.43	227.03
443.61	220.01
443.80	166.18
443.98	168.52
444.17	187.24
444.35	180.22
444.54	102.98
444.73	217.67
444.91	241.08
445.10	212.99
445.28	161.50
445.47	175.54
445.65	180.22
445.84	166.18
446.02	175.54
446.21	201.29
446.39	142.77
446.58	187.24
446.77	201.29
446.95	152.13
447.14	170.86
447.32	196.60
447.51	170.86
447.69	173.20
447.88	229.37
448.06	220.01
448.25	222.35
448.43	208.31
448.62	131.07
448.80	210.65
448.99	177.88
449.17	156.82
449.36	224.69
449.54	140.43
449.73	238.73
449.91	276.18
450.10	175.54
450.28	238.73
450.46	276.18
450.65	187.24
450.83	177.88
451.02	276.18
451.20	222.35
451.39	212.99
451.57	107.66
451.76	250.44
451.94	255.12
452.13	271.50
452.31	189.58
452.49	271.50
452.68	238.73
452.86	191.92
453.05	297.25
453.23	168.52
453.42	138.09
453.60	210.65
453.78	124.05
453.97	156.82
454.15	229.37
454.34	124.05
454.52	184.90
454.70	201.29
454.89	222.35
455.07	140.43
455.26	271.50
455.44	250.44
455.62	222.35
455.81	184.90
455.99	180.22
456.17	140.43
456.36	168.52
456.54	231.71
456.73	198.95
456.91	163.84
457.09	227.03
457.28	198.95
457.46	173.20
457.64	252.78
457.83	170.86
458.01	196.60
458.19	236.39
458.38	224.69
458.56	184.90
458.74	161.50
458.93	231.71
459.11	201.29
459.29	231.71
459.48	220.01
459.66	276.18
459.84	248.10
460.03	271.50
460.21	273.84
460.39	187.24
460.57	203.63
460.76	180.22
460.94	168.52
461.12	259.80
461.31	227.03
461.49	168.52
461.67	285.55
461.85	203.63
462.04	187.24
462.22	594.50
462.40	220.01
462.59	121.71
462.77	173.20
462.95	217.67
463.13	205.97
463.32	262.14
463.50	231.71
463.68	229.37
463.86	255.12
464.05	215.33
464.23	236.39
464.41	187.24
464.59	159.16
464.78	170.86
464.96	182.56
465.14	191.92
465.32	170.86
465.50	220.01
465.69	149.79
465.87	203.63
466.05	229.37
466.23	201.29
466.41	208.31
466.60	196.60
466.78	182.56
466.96	227.03
467.14	227.03
467.32	227.03
467.51	175.54
467.69	287.89
467.87	283.20
468.05	220.01
468.23	325.33
468.41	245.76
468.60	212.99
468.78	194.26
468.96	220.01
469.14	259.80
469.32	126.39
469.50	135.75
469.69	154.48
469.87	173.20
470.05	191.92
470.23	170.86
470.41	156.82
470.59	208.31
470.77	231.71
470.95	145.11
471.14	133.41
471.32	255.12
471.50	208.31
471.68	182.56
471.86	173.20
472.04	128.73
472.22	145.11
472.40	163.84
472.58	227.03
472.77	222.35
472.95	154.48
473.13	189.58
473.31	184.90
473.49	220.01
473.67	145.11
473.85	203.63
474.03	205.97
474.21	180.22
474.39	259.80
474.57	224.69
474.75	250.44
474.93	210.65
475.12	114.69
475.30	166.18
475.48	175.54
475.66	173.20
475.84	252.78
476.02	222.35
476.20	255.12
476.38	205.97
476.56	250.44
476.74	201.29
476.92	198.95
477.10	163.84
477.28	187.24
477.46	163.84
477.64	222.35
477.82	217.67
478.00	182.56
478.18	241.08
478.36	175.54
478.54	215.33
478.72	212.99
478.90	215.33
479.08	175.54
479.26	238.73
479.44	245.76
479.62	191.92
479.80	187.24
479.98	161.50
480.16	264.48
480.34	217.67
480.52	147.45
480.70	208.31
480.88	201.29
481.06	189.58
481.24	315.97
481.41	194.26
481.59	234.05
481.77	299.59
481.95	215.33
482.13	271.50
482.31	170.86
482.49	229.37
482.67	290.23
482.85	327.68
483.03	297.25
483.21	245.76
483.39	191.92
483.57	252.78
483.74	297.25
483.92	278.52
484.10	215.33
484.28	351.08
484.46	290.23
484.64	248.10
484.82	341.72
485.00	269.16
485.18	227.03
485.35	348.74
485.53	222.35
485.71	301.93
485.89	273.84
486.07	313.63
486.25	280.86
486.43	341.72
486.61	187.24
486.78	241.08
486.96	198.95
487.14	255.12
487.32	290.23
487.50	215.33
487.68	215.33
487.85	287.89
488.03	243.42
488.21	255.12
488.39	299.59
488.57	358.10
488.75	245.76
488.92	545.34
489.10	313.63
489.28	393.21
489.46	245.76
489.64	308.95
489.81	257.46
489.99	257.46
490.17	255.12
490.35	301.93
490.53	245.76
490.70	224.69
490.88	285.55
491.06	271.50
491.24	252.78
491.41	322.99
491.59	255.12
491.77	203.63
491.95	191.92
492.13	222.35
492.30	229.37
492.48	271.50
492.66	313.63
492.84	269.16
493.01	283.20
493.19	304.27
493.37	360.44
493.54	250.44
493.72	292.57
493.90	264.48
494.08	259.80
494.25	217.67
494.43	245.76
494.61	257.46
494.79	280.86
494.96	259.80
495.14	191.92
495.32	287.89
495.49	243.42
495.67	299.59
495.85	257.46
496.02	248.10
496.20	278.52
496.38	280.86
496.55	238.73
496.73	271.50
496.91	236.39
497.09	334.70
497.26	318.31
497.44	313.63
497.62	269.16
497.79	248.10
497.97	241.08
498.14	320.65
498.32	255.12
498.50	208.31
498.67	280.86
498.85	248.10
499.03	250.44
499.20	278.52
499.38	276.18
499.56	276.18
499.73	278.52
499.91	322.99
500.08	308.95
500.26	304.27
500.44	238.73
500.61	318.31
500.79	273.84
500.97	285.55
501.14	266.82
501.32	283.20
501.49	255.12
501.67	250.44
501.84	301.93
502.02	264.48
502.20	266.82
502.37	301.93
502.55	285.55
502.72	250.44
502.90	306.61
503.07	283.20
503.25	250.44
503.43	276.18
503.60	283.20
503.78	269.16
503.95	264.48
504.13	278.52
504.30	250.44
504.48	271.50
504.65	259.80
504.83	330.02
505.01	276.18
505.18	266.82
505.36	262.14
505.53	339.38
505.71	353.42
505.88	362.78
506.06	269.16
506.23	224.69
506.41	264.48
506.58	266.82
506.76	299.59
506.93	259.80
507.11	259.80
507.28	248.10
507.46	198.95
507.63	285.55
507.81	245.76
507.98	297.25
508.16	229.37
508.33	194.26
508.50	341.72
508.68	294.91
508.85	344.06
509.03	238.73
509.20	271.50
509.38	294.91
509.55	313.63
509.73	327.68
509.90	304.27
510.08	325.33
510.25	325.33
510.42	266.82
510.60	308.95
510.77	353.42
510.95	346.40
511.12	318.31
511.30	278.52
511.47	315.97
511.64	304.27
511.82	255.12
511.99	222.35
512.17	311.29
512.34	234.05
512.51	198.95
512.69	292.57
512.86	330.02
513.04	271.50
513.21	292.57
513.38	252.78
513.56	252.78
513.73	266.82
513.90	271.50
514.08	262.14
514.25	290.23
514.43	285.55
514.60	304.27
514.77	259.80
514.95	285.55
515.12	266.82
515.29	241.08
515.47	365.12
515.64	273.84
515.81	276.18
515.99	285.55
516.16	229.37
516.33	252.78
516.51	243.42
516.68	297.25
516.85	166.18
517.03	234.05
517.20	271.50
517.37	227.03
517.54	297.25
517.72	245.76
517.89	241.08
518.06	264.48
518.24	318.31
518.41	322.99
518.58	248.10
518.75	313.63
518.93	231.71
519.10	222.35
519.27	290.23
519.45	322.99
519.62	264.48
519.79	299.59
519.96	264.48
520.14	318.31
520.31	299.59
520.48	276.18
520.65	269.16
520.83	311.29
521.00	294.91
521.17	287.89
521.34	294.91
521.52	299.59
521.69	318.31
521.86	280.86
522.03	238.73
522.20	285.55
522.38	255.12
522.55	271.50
522.72	285.55
522.89	339.38
523.07	332.36
523.24	299.59
523.41	264.48
523.58	276.18
523.75	304.27
523.92	266.82
524.10	297.25
524.27	280.86
524.44	283.20
524.61	341.72
524.78	278.52
524.96	276.18
525.13	285.55
525.30	322.99
525.47	374.49
525.64	318.31
525.81	255.12
525.98	287.89
526.16	273.84
526.33	297.25
526.50	358.10
526.67	287.89
526.84	238.73
527.01	262.14
527.18	273.84
527.36	304.27
527.53	234.05
527.70	346.40
527.87	330.02
528.04	318.31
528.21	224.69
528.38	315.97
528.55	397.89
528.72	346.40
528.89	463.43
529.07	332.36
529.24	400.23
529.41	313.63
529.58	355.76
529.75	292.57
529.92	280.86
530.09	280.86
530.26	306.61
530.43	367.46
530.60	276.18
530.77	299.59
530.94	318.31
531.11	381.51
531.28	299.59
531.46	341.72
531.63	304.27
531.80	402.57
531.97	320.65
532.14	325.33
532.31	348.74
532.48	255.12
532.65	313.63
532.82	306.61
532.99	411.93
533.16	325.33
533.33	290.23
533.50	381.51
533.67	332.36
533.84	404.91
534.01	348.74
534.18	348.74
534.35	365.12
534.52	346.40
534.69	379.17
534.86	390.87
535.03	320.65
535.20	332.36
535.37	358.10
535.54	327.68
535.71	358.10
535.88	351.08
536.05	304.27
536.22	360.44
536.38	346.40
536.55	362.78
536.72	351.08
536.89	285.55
537.06	334.70
537.23	330.02
537.40	318.31
537.57	330.02
537.74	334.70
537.91	395.55
538.08	315.97
538.25	360.44
538.42	362.78
538.59	292.57
538.75	320.65
538.92	332.36
539.09	339.38
539.26	388.53
539.43	444.70
539.60	475.13
539.77	582.79
539.94	610.88
540.11	561.73
540.28	521.94
540.44	547.69
540.61	543.00
540.78	486.83
540.95	472.79
541.12	575.77
541.29	552.37
541.46	610.88
541.62	608.54
541.79	503.22
541.96	521.94
542.13	484.49
542.30	475.13
542.47	538.32
542.63	540.66
542.80	428.32
542.97	592.16
543.14	470.45
543.31	519.60
543.48	617.90
543.64	500.87
543.81	468.11
543.98	512.58
544.15	545.34
544.32	465.77
544.48	496.19
544.65	538.32
544.82	463.43
544.99	447.04
545.16	564.07
545.32	566.41
545.49	624.92
545.66	837.91
545.83	983.02
546.00	840.25
546.16	636.63
546.33	585.13
546.50	575.77
546.67	463.43
546.83	463.43
547.00	472.79
547.17	393.21
547.34	461.09
547.50	418.96
547.67	465.77
547.84	381.51
548.00	369.80
548.17	449.38
548.34	386.19
548.51	463.43
548.67	451.72
548.84	402.57
549.01	472.79
549.18	454.06
549.34	348.74
549.51	416.62
549.68	407.25
549.84	353.42
550.01	360.44
550.18	510.24
550.34	470.45
550.51	423.64
550.68	489.17
550.84	442.36
551.01	400.23
551.18	393.21
551.34	299.59
551.51	353.42
551.68	362.78
551.84	404.91
552.01	355.76
552.18	351.08
552.34	383.85
552.51	369.80
552.68	365.12
552.84	386.19
553.01	332.36
553.18	367.46
553.34	273.84
553.51	344.06
553.67	390.87
553.84	416.62
554.01	327.68
554.17	269.16
554.34	299.59
554.51	341.72
554.67	367.46
554.84	365.12
555.00	362.78
555.17	351.08
555.33	369.80
555.50	358.10
555.67	346.40
555.83	360.44
556.00	337.04
556.16	482.15
556.33	330.02
556.50	229.37
556.66	252.78
556.83	264.48
556.99	297.25
557.16	299.59
557.32	252.78
557.49	255.12
557.65	374.49
557.82	236.39
557.98	332.36
558.15	330.02
558.32	311.29
558.48	285.55
558.65	308.95
558.81	304.27
558.98	313.63
559.14	238.73
559.31	306.61
559.47	297.25
559.64	245.76
559.80	220.01
559.97	313.63
560.13	262.14
560.30	262.14
560.46	290.23
560.63	304.27
560.79	266.82
560.96	280.86
561.12	276.18
561.29	327.68
561.45	337.04
561.61	344.06
561.78	390.87
561.94	304.27
562.11	308.95
562.27	294.91
562.44	311.29
562.60	344.06
562.77	360.44
562.93	416.62
563.10	248.10
563.26	227.03
563.42	227.03
563.59	341.72
563.75	280.86
563.92	330.02
564.08	322.99
564.24	203.63
564.41	301.93
564.57	252.78
564.74	311.29
564.90	308.95
565.07	280.86
565.23	264.48
565.39	234.05
565.56	365.12
565.72	266.82
565.88	318.31
566.05	257.46
566.21	257.46
566.38	238.73
566.54	215.33
566.70	334.70
566.87	330.02
567.03	372.15
567.19	299.59
567.36	337.04
567.52	259.80
567.68	330.02
567.85	297.25
568.01	299.59
568.17	280.86
568.34	313.63
568.50	276.18
568.66	271.50
568.83	365.12
568.99	220.01
569.15	313.63
569.32	278.52
569.48	212.99
569.64	229.37
569.81	280.86
569.97	222.35
570.13	285.55
570.30	308.95
570.46	322.99
570.62	287.89
570.78	290.23
570.95	320.65
571.11	304.27
571.27	334.70
571.43	273.84
571.60	304.27
571.76	337.04
571.92	287.89
572.09	238.73
572.25	318.31
572.41	320.65
572.57	245.76
572.74	348.74
572.90	285.55
573.06	292.57
573.22	301.93
573.38	313.63
573.55	273.84
573.71	283.20
573.87	250.44
574.03	236.39
574.20	278.52
574.36	294.91
574.52	306.61
574.68	283.20
574.84	231.71
575.01	339.38
575.17	313.63
575.33	243.42
575.49	297.25
575.65	304.27
575.82	397.89
575.98	383.85
576.14	407.25
576.30	315.97
576.46	407.25
576.62	440.02
576.79	327.68
576.95	468.11
577.11	348.74
577.27	280.86
577.43	360.44
577.59	283.20
577.75	301.93
577.92	287.89
578.08	313.63
578.24	217.67
578.40	346.40
578.56	285.55
578.72	407.25
578.88	433.00
579.04	320.65
579.21	379.17
579.37	400.23
579.53	339.38
579.69	351.08
579.85	339.38
580.01	416.62
580.17	346.40
580.33	341.72
580.49	311.29
580.65	318.31
580.82	266.82
580.98	367.46
581.14	299.59
581.30	355.76
581.46	339.38
581.62	360.44
581.78	409.59
581.94	430.66
582.10	344.06
582.26	395.55
582.42	330.02
582.58	465.77
582.74	360.44
582.90	498.53
583.06	465.77
583.22	388.53
583.38	402.57
583.54	379.17
583.70	407.25
583.86	379.17
584.02	395.55
584.18	425.98
584.34	582.79
584.50	816.85
584.66	4086.58
584.82	10073.67
584.98	13294.24
585.14	11723.74
585.30	7290.77
585.46	4542.98
585.62	3056.74
585.78	1600.93
585.94	828.55
586.10	484.49
586.26	470.45
586.42	442.36
586.58	461.09
586.74	468.11
586.90	393.21
587.06	447.04
587.22	468.11
587.38	425.98
587.54	451.72
587.70	877.70
587.86	1128.14
588.02	1238.14
588.18	940.90
588.34	718.54
588.49	526.62
588.65	407.25
588.81	334.70
588.97	320.65
589.13	271.50
589.29	320.65
589.45	358.10
589.61	315.97
589.77	341.72
589.93	337.04
590.08	358.10
590.24	337.04
590.40	332.36
590.56	304.27
590.72	386.19
590.88	332.36
591.04	330.02
591.20	332.36
591.35	395.55
591.51	301.93
591.67	318.31
591.83	346.40
591.99	386.19
592.15	360.44
592.31	369.80
592.46	306.61
592.62	346.40
592.78	404.91
592.94	334.70
593.10	344.06
593.26	367.46
593.41	353.42
593.57	287.89
593.73	372.15
593.89	830.89
594.05	1521.35
594.20	1909.88
594.36	1790.51
594.52	1268.57
594.68	924.51
594.84	786.42
594.99	477.47
595.15	358.10
595.31	320.65
595.47	351.08
595.62	304.27
595.78	313.63
595.94	315.97
596.10	337.04
596.25	372.15
596.41	376.83
596.57	308.95
596.73	273.84
596.88	262.14
597.04	538.32
597.20	690.46
597.36	734.93
597.51	599.18
597.67	444.70
597.83	358.10
597.99	360.44
598.14	339.38
598.30	339.38
598.46	351.08
598.61	404.91
598.77	334.70
598.93	271.50
599.09	313.63
599.24	276.18
599.40	327.68
599.56	327.68
599.71	266.82
599.87	255.12
600.03	311.29
600.18	358.10
600.34	325.33
600.50	266.82
600.65	250.44
600.81	334.70
600.97	330.02
601.12	339.38
601.28	325.33
601.44	304.27
601.59	278.52
601.75	306.61
601.91	269.16
602.06	311.29
602.22	383.85
602.37	458.74
602.53	580.45
602.69	706.84
602.84	653.01
603.00	622.58
603.16	472.79
603.31	428.32
603.47	386.19
603.62	313.63
603.78	299.59
603.94	290.23
604.09	304.27
604.25	390.87
604.40	313.63
604.56	332.36
604.71	325.33
604.87	269.16
605.03	304.27
605.18	269.16
605.34	241.08
605.49	318.31
605.65	381.51
605.80	276.18
605.96	278.52
606.12	360.44
606.27	332.36
606.43	318.31
606.58	283.20
606.74	437.68
606.89	898.77
607.05	1409.00
607.20	1727.32
607.36	1479.22
607.51	1109.41
607.67	833.23
607.82	608.54
607.98	442.36
608.13	297.25
608.29	348.74
608.44	397.89
608.60	372.15
608.75	451.72
608.91	517.26
609.06	1186.65
609.22	2272.66
609.37	2630.76
609.53	2399.05
609.68	1755.40
609.84	1392.62
609.99	983.02
610.15	844.93
610.30	624.92
610.46	704.50
610.61	741.95
