SpectraSuite Data File
++++++++++++++++++++++++++++++++++++
Date: Fri Oct 04 12:14:09 GMT-05:00 2013
User: price-jones
Dark Spectrum Present: No
Reference Spectrum Present: No
Number of Sampled Component Spectra: 1
Spectrometers: USB2+H05261
Integration Time (usec): 1000000 (USB2+H05261)
Spectra Averaged: 1 (USB2+H05261)
Boxcar Smoothing: 0 (USB2+H05261)
Correct for Electrical Dark: No (USB2+H05261)
Strobe/Lamp Enabled: No (USB2+H05261)
Correct for Detector Non-linearity: No (USB2+H05261)
Correct for Stray Light: No (USB2+H05261)
Number of Pixels in Processed Spectrum: 2048
>>>>>Begin Processed Spectral Data<<<<<
365.73	35.11
365.92	35.11
366.12	35.11
366.32	0.00
366.52	0.00
366.72	304.27
366.91	77.24
367.11	248.10
367.31	173.20
367.51	346.40
367.70	344.06
367.90	552.37
368.10	280.86
368.30	325.33
368.49	128.73
368.69	442.36
368.89	273.84
369.09	177.88
369.28	334.70
369.48	152.13
369.68	285.55
369.87	334.70
370.07	229.37
370.27	660.03
370.47	437.68
370.66	355.76
370.86	454.06
371.06	711.52
371.25	905.79
371.45	423.64
371.65	702.16
371.84	320.65
372.04	266.82
372.24	524.28
372.44	433.00
372.63	468.11
372.83	816.85
373.03	489.17
373.22	362.78
373.42	365.12
373.62	386.19
373.81	517.26
374.01	608.54
374.21	615.56
374.40	433.00
374.60	737.27
374.79	496.19
374.99	451.72
375.19	592.16
375.38	587.47
375.58	580.45
375.78	643.65
375.97	622.58
376.17	1048.56
376.37	465.77
376.56	528.96
376.76	393.21
376.95	383.85
377.15	545.34
377.35	540.66
377.54	540.66
377.74	407.25
377.93	402.57
378.13	592.16
378.33	716.20
378.52	477.47
378.72	720.88
378.91	753.65
379.11	400.23
379.31	393.21
379.50	330.02
379.70	627.26
379.89	706.84
380.09	491.51
380.28	372.15
380.48	519.60
380.68	395.55
380.87	358.10
381.07	526.62
381.26	748.97
381.46	758.33
381.65	634.29
381.85	334.70
382.04	500.87
382.24	638.97
382.43	444.70
382.63	374.49
382.83	442.36
383.02	711.52
383.22	770.04
383.41	388.53
383.61	451.72
383.80	510.24
384.00	526.62
384.19	472.79
384.39	510.24
384.58	409.59
384.78	587.47
384.97	519.60
385.17	528.96
385.36	416.62
385.56	695.14
385.75	287.89
385.95	493.85
386.14	678.76
386.34	435.34
386.53	603.86
386.72	418.96
386.92	807.48
387.11	589.82
387.31	578.11
387.50	451.72
387.70	351.08
387.89	531.30
388.09	346.40
388.28	409.59
388.48	383.85
388.67	662.37
388.86	468.11
389.06	421.30
389.25	571.09
389.45	606.20
389.64	575.77
389.84	683.44
390.03	645.99
390.22	477.47
390.42	475.13
390.61	381.51
390.81	280.86
391.00	463.43
391.19	765.36
391.39	482.15
391.58	657.69
391.78	552.37
391.97	575.77
392.16	313.63
392.36	791.10
392.55	713.86
392.75	496.19
392.94	454.06
393.13	638.97
393.33	348.74
393.52	393.21
393.71	779.40
393.91	568.75
394.10	423.64
394.29	484.49
394.49	463.43
394.68	690.46
394.88	692.80
395.07	772.38
395.26	543.00
395.46	526.62
395.65	650.67
395.84	554.71
396.04	1238.14
396.23	489.17
396.42	367.46
396.62	580.45
396.81	550.03
397.00	479.81
397.19	592.16
397.39	493.85
397.58	702.16
397.77	470.45
397.97	535.98
398.16	463.43
398.35	662.37
398.55	433.00
398.74	571.09
398.93	765.36
399.12	528.96
399.32	641.31
399.51	566.41
399.70	683.44
399.90	643.65
400.09	676.41
400.28	711.52
400.47	456.40
400.67	676.41
400.86	582.79
401.05	697.48
401.24	734.93
401.44	660.03
401.63	758.33
401.82	748.97
402.01	444.70
402.21	631.94
402.40	575.77
402.59	547.69
402.78	512.58
402.97	517.26
403.17	636.63
403.36	631.94
403.55	493.85
403.74	561.73
403.93	545.34
404.13	854.30
404.32	538.32
404.51	484.49
404.70	739.61
404.89	491.51
405.09	919.83
405.28	627.26
405.47	402.57
405.66	695.14
405.85	826.21
406.05	608.54
406.24	671.73
406.43	692.80
406.62	744.29
406.81	1032.18
407.00	880.04
407.20	620.24
407.39	552.37
407.58	538.32
407.77	737.27
407.96	779.40
408.15	800.46
408.34	669.39
408.54	617.90
408.73	697.48
408.92	620.24
409.11	842.59
409.30	889.40
409.49	484.49
409.68	550.03
409.87	641.31
410.07	505.56
410.26	669.39
410.45	582.79
410.64	491.51
410.83	624.92
411.02	610.88
411.21	716.20
411.40	774.72
411.59	620.24
411.78	543.00
411.98	676.41
412.17	454.06
412.36	538.32
412.55	545.34
412.74	849.61
412.93	978.34
413.12	543.00
413.31	816.85
413.50	777.06
413.69	603.86
413.88	905.79
414.07	716.20
414.26	660.03
414.45	489.17
414.64	767.70
414.83	709.18
415.02	692.80
415.22	858.98
415.41	875.36
415.60	582.79
415.79	702.16
415.98	908.13
416.17	718.54
416.36	669.39
416.55	514.92
416.74	849.61
416.93	891.74
417.12	650.67
417.31	648.33
417.50	753.65
417.69	978.34
417.88	741.95
418.07	543.00
418.26	662.37
418.45	688.12
418.64	1078.99
418.83	786.42
419.02	844.93
419.21	814.51
419.39	709.18
419.58	641.31
419.77	657.69
419.96	894.08
420.15	994.73
420.34	624.92
420.53	755.99
420.72	880.04
420.91	727.91
421.10	690.46
421.29	746.63
421.48	763.01
421.67	908.13
421.86	606.20
422.05	610.88
422.24	636.63
422.43	706.84
422.61	594.50
422.80	688.12
422.99	697.48
423.18	578.11
423.37	1125.80
423.56	826.21
423.75	791.10
423.94	585.13
424.13	676.41
424.32	653.01
424.50	739.61
424.69	664.71
424.88	1008.77
425.07	613.22
425.26	812.17
425.45	919.83
425.64	704.50
425.83	795.78
426.01	1004.09
426.20	767.70
426.39	711.52
426.58	653.01
426.77	662.37
426.96	887.06
427.15	840.25
427.33	636.63
427.52	704.50
427.71	657.69
427.90	748.97
428.09	674.07
428.28	566.41
428.46	603.86
428.65	763.01
428.84	870.68
429.03	1057.92
429.22	599.18
429.40	524.28
429.59	512.58
429.78	1121.12
429.97	692.80
430.16	650.67
430.34	636.63
430.53	535.98
430.72	540.66
430.91	971.32
431.10	594.50
431.28	671.73
431.47	866.00
431.66	784.08
431.85	711.52
432.03	692.80
432.22	1228.78
432.41	753.65
432.60	985.37
432.79	603.86
432.97	863.66
433.16	849.61
433.35	737.27
433.54	678.76
433.72	791.10
433.91	915.15
434.10	667.05
434.28	739.61
434.47	772.38
434.66	823.87
434.85	603.86
435.03	669.39
435.22	978.34
435.41	1277.93
435.59	952.60
435.78	777.06
435.97	667.05
436.16	973.66
436.34	830.89
436.53	805.14
436.72	992.39
436.90	1015.79
437.09	882.38
437.28	664.71
437.46	741.95
437.65	851.96
437.84	828.55
438.02	840.25
438.21	861.32
438.40	704.50
438.58	603.86
438.77	812.17
438.96	823.87
439.14	662.37
439.33	919.83
439.52	751.31
439.70	816.85
439.89	889.40
440.08	795.78
440.26	770.04
440.45	1170.27
440.63	922.17
440.82	798.12
441.01	844.93
441.19	763.01
441.38	788.76
441.57	851.96
441.75	990.05
441.94	1111.75
442.12	894.08
442.31	779.40
442.50	931.53
442.68	812.17
442.87	828.55
443.05	816.85
443.24	868.34
443.43	1104.73
443.61	1156.22
443.80	908.13
443.98	800.46
444.17	791.10
444.35	1032.18
444.54	781.74
444.73	802.80
444.91	1067.28
445.10	763.01
445.28	648.33
445.47	837.91
445.65	809.83
445.84	744.29
446.02	866.00
446.21	884.72
446.39	833.23
446.58	954.94
446.77	725.57
446.95	823.87
447.14	936.21
447.32	1245.16
447.51	894.08
447.69	858.98
447.88	898.77
448.06	1174.95
448.25	922.17
448.43	788.76
448.62	690.46
448.80	898.77
448.99	985.37
449.17	823.87
449.36	760.67
449.54	985.37
449.73	720.88
449.91	1001.75
450.10	840.25
450.28	1420.71
450.46	1380.92
450.65	1111.75
450.83	1029.84
451.02	938.55
451.20	950.26
451.39	842.59
451.57	784.08
451.76	887.06
451.94	936.21
452.13	1057.92
452.31	1149.20
452.49	940.90
452.68	744.29
452.86	917.49
453.05	1270.91
453.23	910.47
453.42	706.84
453.60	842.59
453.78	954.94
453.97	702.16
454.15	683.44
454.34	793.44
454.52	734.93
454.70	1200.69
454.89	987.71
455.07	702.16
455.26	1039.20
455.44	1146.86
455.62	821.53
455.81	943.24
455.99	968.98
456.17	1041.54
456.36	847.27
456.54	819.19
456.73	849.61
456.91	866.00
457.09	1029.84
457.28	1210.06
457.46	933.87
457.64	1083.67
457.83	861.32
458.01	730.25
458.19	929.19
458.38	931.53
458.56	889.40
458.74	695.14
458.93	896.43
459.11	952.60
459.29	774.72
459.48	1027.50
459.66	1364.53
459.84	1095.37
460.03	1722.63
460.21	1114.10
460.39	950.26
460.57	1186.65
460.76	973.66
460.94	908.13
461.12	1331.76
461.31	1219.42
461.49	858.98
461.67	924.51
461.85	968.98
462.04	931.53
462.22	5729.63
462.40	1291.98
462.59	1238.14
462.77	905.79
462.95	945.58
463.13	805.14
463.32	1074.31
463.50	896.43
463.68	1078.99
463.86	1001.75
464.05	851.96
464.23	1196.01
464.41	1116.44
464.59	774.72
464.78	851.96
464.96	760.67
465.14	983.02
465.32	999.41
465.50	1088.35
465.69	1100.05
465.87	772.38
466.05	964.30
466.23	755.99
466.41	894.08
466.60	933.87
466.78	943.24
466.96	1198.35
467.14	1025.15
467.32	1137.50
467.51	992.39
467.69	1015.79
467.87	1362.19
468.05	966.64
468.23	1401.98
468.41	1224.10
468.60	898.77
468.78	1036.86
468.96	1287.29
469.14	1177.29
469.32	805.14
469.50	875.36
469.69	1179.63
469.87	1034.52
470.05	1008.77
470.23	854.30
470.41	840.25
470.59	866.00
470.77	959.62
470.95	938.55
471.14	1240.48
471.32	952.60
471.50	1221.76
471.68	954.94
471.86	1088.35
472.04	880.04
472.22	1060.26
472.40	863.66
472.58	943.24
472.77	798.12
472.95	943.24
473.13	1394.96
473.31	1263.89
473.49	753.65
473.67	819.19
473.85	1090.69
474.03	1076.65
474.21	966.64
474.39	1259.21
474.57	1275.59
474.75	1130.48
474.93	875.36
475.12	842.59
475.30	950.26
475.48	873.02
475.66	968.98
475.84	1043.88
476.02	961.96
476.20	1149.20
476.38	990.05
476.56	1664.12
476.74	1046.22
476.92	954.94
477.10	1027.50
477.28	1200.69
477.46	1013.45
477.64	1263.89
477.82	1034.52
478.00	1008.77
478.18	1095.37
478.36	1022.81
478.54	905.79
478.72	1018.13
478.90	947.92
479.08	1142.18
479.26	1090.69
479.44	1050.90
479.62	997.07
479.80	1041.54
479.98	889.40
480.16	1025.15
480.34	1263.89
480.52	952.60
480.70	1191.33
480.88	901.11
481.06	945.58
481.24	971.32
481.41	1142.18
481.59	1270.91
481.77	1104.73
481.95	1100.05
482.13	1416.02
482.31	1163.25
482.49	964.30
482.67	1242.82
482.85	1247.51
483.03	1306.02
483.21	1123.46
483.39	1025.15
483.57	1055.58
483.74	1462.83
483.92	1090.69
484.10	1095.37
484.28	1369.21
484.46	1708.59
484.64	1095.37
484.82	1057.92
485.00	1109.41
485.18	1179.63
485.35	1114.10
485.53	1020.47
485.71	1355.17
485.89	912.81
486.07	966.64
486.25	1547.09
486.43	1240.48
486.61	1324.74
486.78	1263.89
486.96	931.53
487.14	1179.63
487.32	1196.01
487.50	1116.44
487.68	1366.87
487.85	1102.39
488.03	1376.24
488.21	1554.12
488.39	1114.10
488.57	1275.59
488.75	1231.12
488.92	4044.45
489.10	1420.71
489.28	1584.54
489.46	1224.10
489.64	1291.98
489.81	1313.04
489.99	1331.76
490.17	1207.72
490.35	1898.17
490.53	1261.55
490.70	1088.35
490.88	1476.88
491.06	1198.35
491.24	1462.83
491.41	1584.54
491.59	1519.01
491.77	1184.31
491.95	1191.33
492.13	1193.67
492.30	1296.66
492.48	1369.21
492.66	1322.40
492.84	1240.48
493.01	1427.73
493.19	1188.99
493.37	1701.57
493.54	1514.33
493.72	1486.24
493.90	1366.87
494.08	1324.74
494.25	1441.77
494.43	1444.11
494.61	1373.89
494.79	1270.91
494.96	1226.44
495.14	1439.43
495.32	1390.28
495.49	1413.68
495.67	1554.12
495.85	1404.32
496.02	1320.06
496.20	1528.37
496.38	1558.80
496.55	1397.30
496.73	1521.35
496.91	1352.83
497.09	1577.52
497.26	1495.60
497.44	1416.02
497.62	1345.81
497.79	1366.87
497.97	1476.88
498.14	1497.94
498.32	1500.28
498.50	1507.30
498.67	1341.13
498.85	1533.05
499.03	1416.02
499.20	1523.69
499.38	1439.43
499.56	1380.92
499.73	1790.51
499.91	1654.76
500.08	1706.25
500.26	1409.00
500.44	1385.60
500.61	1509.65
500.79	1315.38
500.97	1565.82
501.14	1689.87
501.32	1476.88
501.49	1710.93
501.67	1404.32
501.84	1549.43
502.02	1334.11
502.20	1797.53
502.37	1600.93
502.55	1437.09
502.72	1537.73
502.90	1666.46
503.07	1497.94
503.25	1493.26
503.43	1289.64
503.60	1409.00
503.78	1570.50
503.95	1441.77
504.13	1406.66
504.30	1633.69
504.48	1781.15
504.65	1846.68
504.83	1659.44
505.01	1465.18
505.18	1591.56
505.36	1544.75
505.53	1554.12
505.71	1413.68
505.88	1792.85
506.06	1458.15
506.23	1357.51
506.41	1385.60
506.58	1589.22
506.76	1511.99
506.93	1432.41
507.11	1675.82
507.28	1448.79
507.46	1465.18
507.63	1584.54
507.81	1336.45
507.98	1474.54
508.16	1556.46
508.33	1575.18
508.50	1678.16
508.68	1507.30
508.85	1483.90
509.03	1502.62
509.20	1486.24
509.38	1640.72
509.55	1710.93
509.73	1809.23
509.90	1790.51
510.08	1486.24
510.25	1708.59
510.42	1500.28
510.60	1486.24
510.77	1673.48
510.95	1818.60
511.12	1591.56
511.30	1724.97
511.47	1778.81
511.64	1970.73
511.82	1497.94
511.99	1502.62
512.17	1427.73
512.34	1383.26
512.51	1369.21
512.69	1481.56
512.86	1832.64
513.04	1476.88
513.21	1633.69
513.38	1528.37
513.56	1465.18
513.73	1432.41
513.90	1380.92
514.08	1401.98
514.25	1605.61
514.43	1685.19
514.60	1401.98
514.77	1411.34
514.95	1591.56
515.12	1331.76
515.29	1598.59
515.47	1556.46
515.64	1605.61
515.81	1528.37
515.99	1748.38
516.16	1591.56
516.33	1640.72
516.51	1320.06
516.68	1235.80
516.85	1390.28
517.03	1359.85
517.20	1661.78
517.37	1689.87
517.54	1624.33
517.72	1495.60
517.89	1313.04
518.06	1284.95
518.24	1947.33
518.41	1900.52
518.58	1675.82
518.75	1476.88
518.93	1598.59
519.10	1643.06
519.27	1582.20
519.45	1647.74
519.62	1664.12
519.79	1727.32
519.96	1488.58
520.14	1689.87
520.31	1839.66
520.48	1558.80
520.65	1668.80
520.83	1802.21
521.00	1746.04
521.17	1682.85
521.34	1530.71
521.52	1732.00
521.69	1650.08
521.86	1535.39
522.03	1717.95
522.20	1937.96
522.38	1481.56
522.55	1638.38
522.72	1401.98
522.89	1820.94
523.07	2045.63
523.24	1600.93
523.41	1577.52
523.58	1603.27
523.75	1535.39
523.92	1533.05
524.10	1673.48
524.27	1598.59
524.44	1570.50
524.61	1898.17
524.78	1626.67
524.96	1788.17
525.13	1722.63
525.30	1778.81
525.47	1846.68
525.64	1678.16
525.81	1645.40
525.98	1645.40
526.16	1430.07
526.33	1350.49
526.50	1397.30
526.67	1306.02
526.84	1364.53
527.01	1413.68
527.18	1739.02
527.36	1612.63
527.53	1448.79
527.70	1781.15
527.87	1647.74
528.04	2017.54
528.21	1547.09
528.38	1809.23
528.55	1849.02
528.72	1912.22
528.89	2157.97
529.07	1713.27
529.24	1673.48
529.41	2038.61
529.58	1654.76
529.75	1563.48
529.92	1732.00
530.09	1785.83
530.26	1907.54
530.43	1914.56
530.60	1668.80
530.77	1671.14
530.94	1928.60
531.11	1764.76
531.28	1572.84
531.46	1636.03
531.63	1619.65
531.80	1776.47
531.97	1813.92
532.14	1671.14
532.31	1753.06
532.48	1687.53
532.65	1849.02
532.82	1736.68
532.99	1858.39
533.16	1769.44
533.33	1729.66
533.50	1626.67
533.67	1659.44
533.84	2017.54
534.01	1956.69
534.18	1757.74
534.35	1710.93
534.52	1774.13
534.69	2181.38
534.86	1605.61
535.03	1519.01
535.20	1626.67
535.37	1926.26
535.54	1825.62
535.71	1713.27
535.88	2003.50
536.05	1640.72
536.22	1827.96
536.38	1680.50
536.55	1708.59
536.72	1774.13
536.89	1474.54
537.06	1500.28
537.23	1654.76
537.40	1710.93
537.57	1554.12
537.74	1860.73
537.91	1832.64
538.08	1703.91
538.25	1764.76
538.42	1514.33
538.59	1696.89
538.75	1640.72
538.92	1715.61
539.09	1792.85
539.26	1643.06
539.43	2394.37
539.60	2871.84
539.77	3478.04
539.94	3323.56
540.11	2738.43
540.28	2476.29
540.44	2094.78
540.61	1643.06
540.78	1582.20
540.95	1423.05
541.12	1984.77
541.29	1526.03
541.46	1968.39
541.62	1743.70
541.79	1558.80
541.96	1465.18
542.13	1619.65
542.30	1514.33
542.47	1839.66
542.63	1624.33
542.80	1661.78
542.97	1949.67
543.14	1685.19
543.31	1708.59
543.48	1657.10
543.64	1757.74
543.81	1636.03
543.98	1549.43
544.15	1481.56
544.32	1504.96
544.48	1561.14
544.65	1600.93
544.82	1502.62
544.99	1657.10
545.16	1774.13
545.32	1603.27
545.49	1743.70
545.66	1760.08
545.83	1570.50
546.00	1352.83
546.16	1577.52
546.33	1563.48
546.50	1579.86
546.67	1867.75
546.83	1893.49
547.00	1640.72
547.17	1425.39
547.34	1423.05
547.50	1584.54
547.67	1694.55
547.84	1462.83
548.00	1734.34
548.17	1490.92
548.34	1542.41
548.51	1954.35
548.67	1781.15
548.84	1600.93
549.01	1657.10
549.18	1764.76
549.34	1666.46
549.51	1673.48
549.68	1703.91
549.84	1657.10
550.01	1418.36
550.18	2480.97
550.34	2197.76
550.51	1708.59
550.68	2008.18
550.84	1542.41
551.01	1689.87
551.18	1687.53
551.34	1619.65
551.51	1617.31
551.68	1607.95
551.84	1792.85
552.01	1474.54
552.18	1488.58
552.34	1589.22
552.51	1586.88
552.68	1776.47
552.84	1589.22
553.01	1596.25
553.18	1664.12
553.34	1631.35
553.51	1394.96
553.67	1734.34
553.84	2036.27
554.01	1743.70
554.17	1724.97
554.34	1451.13
554.51	1797.53
554.67	1825.62
554.84	1774.13
555.00	1708.59
555.17	1717.95
555.33	1809.23
555.50	1743.70
555.67	1722.63
555.83	1378.58
556.00	1713.27
556.16	3185.47
556.33	1678.16
556.50	1563.48
556.66	1514.33
556.83	1579.86
556.99	1523.69
557.16	1591.56
557.32	1446.45
557.49	1589.22
557.65	1516.67
557.82	1511.99
557.98	1650.08
558.15	1458.15
558.32	1596.25
558.48	1434.75
558.65	1401.98
558.81	1724.97
558.98	1469.86
559.14	1596.25
559.31	1661.78
559.47	1652.42
559.64	1446.45
559.80	1591.56
559.97	1376.24
560.13	1511.99
560.30	1406.66
560.46	1584.54
560.63	1509.65
560.79	1521.35
560.96	1582.20
561.12	1448.79
561.29	1575.18
561.45	1526.03
561.61	1579.86
561.78	2314.79
561.94	1446.45
562.11	1483.90
562.27	1673.48
562.44	1448.79
562.60	1519.01
562.77	1577.52
562.93	2242.23
563.10	1614.97
563.26	1474.54
563.42	1856.04
563.59	1540.07
563.75	1411.34
563.92	1811.57
564.08	1647.74
564.24	1898.17
564.41	2043.29
564.57	1401.98
564.74	1416.02
564.90	1633.69
565.07	1741.36
565.23	1619.65
565.39	1523.69
565.56	1741.36
565.72	1530.71
565.88	1523.69
566.05	1514.33
566.21	1540.07
566.38	1612.63
566.54	1584.54
566.70	1526.03
566.87	1490.92
567.03	1364.53
567.19	1425.39
567.36	1668.80
567.52	1467.52
567.68	1659.44
567.85	1600.93
568.01	1406.66
568.17	1310.70
568.34	1451.13
568.50	1839.66
568.66	1490.92
568.83	2200.10
568.99	1369.21
569.15	1811.57
569.32	1490.92
569.48	1446.45
569.64	1409.00
569.81	1526.03
569.97	1535.39
570.13	1593.90
570.30	1327.08
570.46	1441.77
570.62	1465.18
570.78	1472.20
570.95	1294.32
571.11	1902.86
571.27	1842.00
571.43	1282.61
571.60	1685.19
571.76	1472.20
571.92	1451.13
572.09	1467.52
572.25	1540.07
572.41	1526.03
572.57	1420.71
572.74	1884.13
572.90	1605.61
573.06	1654.76
573.22	1554.12
573.38	1743.70
573.55	1626.67
573.71	1671.14
573.87	1614.97
574.03	1317.72
574.20	1416.02
574.36	1795.19
574.52	1666.46
574.68	1636.03
574.84	1582.20
575.01	1397.30
575.17	1596.25
575.33	1437.09
575.49	1621.99
575.65	1713.27
575.82	1741.36
575.98	2312.45
576.14	2186.06
576.30	1994.14
576.46	1832.64
576.62	1785.83
576.79	1706.25
576.95	1842.00
577.11	1336.45
577.27	1296.66
577.43	1692.21
577.59	1806.89
577.75	1612.63
577.92	1462.83
578.08	1488.58
578.24	1343.47
578.40	1668.80
578.56	1797.53
578.72	1724.97
578.88	1750.72
579.04	1481.56
579.21	1500.28
579.37	1502.62
579.53	1568.16
579.69	1708.59
579.85	1416.02
580.01	1750.72
580.17	1575.18
580.33	1547.09
580.49	1652.42
580.65	1685.19
580.82	1565.82
580.98	1462.83
581.14	1558.80
581.30	1916.90
581.46	1776.47
581.62	2132.23
581.78	1844.34
581.94	2076.06
582.10	1626.67
582.26	1760.08
582.42	1643.06
582.58	1764.76
582.74	1734.34
582.90	1729.66
583.06	1893.49
583.22	1687.53
583.38	1797.53
583.54	1739.02
583.70	2218.83
583.86	2076.06
584.02	2155.63
584.18	2668.21
584.34	2932.69
584.50	6619.04
584.66	42139.00
584.82	65535.00
584.98	65535.00
585.14	65535.00
585.30	62656.14
585.46	41579.62
585.62	25827.81
585.78	12620.17
585.94	5832.62
586.10	3356.33
586.26	2516.08
586.42	2562.89
586.58	2296.07
586.74	1930.94
586.90	1874.77
587.06	2069.03
587.22	1930.94
587.38	1760.08
587.54	3021.63
587.70	7073.10
587.86	9745.99
588.02	9877.06
588.18	7276.73
588.34	5074.28
588.49	3358.67
588.65	2590.97
588.81	1748.38
588.97	1282.61
589.13	1366.87
589.29	1441.77
589.45	1619.65
589.61	1371.55
589.77	1767.10
589.93	1533.05
590.08	1610.29
590.24	1476.88
590.40	1596.25
590.56	1680.50
590.72	1535.39
590.88	1341.13
591.04	1523.69
591.20	1376.24
591.35	1837.32
591.51	1418.36
591.67	1299.00
591.83	1343.47
591.99	1598.59
592.15	1657.10
592.31	1511.99
592.46	1446.45
592.62	1572.84
592.78	1423.05
592.94	1385.60
593.10	1291.98
593.26	1369.21
593.41	1612.63
593.57	1603.27
593.73	1834.98
593.89	5916.87
594.05	12561.66
594.20	16655.25
594.36	15283.70
594.52	10064.30
594.68	6827.34
594.84	5043.85
594.99	3386.76
595.15	2113.50
595.31	1774.13
595.47	1952.01
595.62	1551.78
595.78	1434.75
595.94	1378.58
596.10	1687.53
596.25	1619.65
596.41	1685.19
596.57	1404.32
596.73	1425.39
596.88	1853.70
597.04	3283.77
597.20	4395.53
597.36	4727.88
597.51	3634.85
597.67	2750.13
597.83	2338.20
597.99	2083.08
598.14	1652.42
598.30	1771.79
598.46	1453.47
598.61	1694.55
598.77	1558.80
598.93	1348.15
599.09	1434.75
599.24	1465.18
599.40	1610.29
599.56	1355.17
599.71	1465.18
599.87	1327.08
600.03	1350.49
600.18	1432.41
600.34	1462.83
600.50	1313.04
600.65	1228.78
600.81	1582.20
600.97	1181.97
601.12	1362.19
