SpectraSuite Data File
++++++++++++++++++++++++++++++++++++
Date: Fri Oct 04 11:33:57 GMT-05:00 2013
User: price-jones
Dark Spectrum Present: No
Reference Spectrum Present: No
Number of Sampled Component Spectra: 1
Spectrometers: USB2+H05261
Integration Time (usec): 100000 (USB2+H05261)
Spectra Averaged: 1 (USB2+H05261)
Boxcar Smoothing: 0 (USB2+H05261)
Correct for Electrical Dark: No (USB2+H05261)
Strobe/Lamp Enabled: No (USB2+H05261)
Correct for Detector Non-linearity: No (USB2+H05261)
Correct for Stray Light: No (USB2+H05261)
Number of Pixels in Processed Spectrum: 2048
>>>>>Begin Processed Spectral Data<<<<<
365.73	39.79
365.92	39.79
366.12	39.79
366.32	28.09
366.52	0.00
366.72	0.00
366.91	0.00
367.11	0.00
367.31	4.68
367.51	0.00
367.70	4.68
367.90	4.68
368.10	0.00
368.30	0.00
368.49	0.00
368.69	0.00
368.89	0.00
369.09	32.77
369.28	25.75
369.48	30.43
369.68	37.45
369.87	0.00
370.07	28.09
370.27	0.00
370.47	4.68
370.66	18.72
370.86	53.83
371.06	140.43
371.25	117.03
371.45	63.19
371.65	93.62
371.84	117.03
372.04	100.64
372.24	105.32
372.44	44.47
372.63	100.64
372.83	138.09
373.03	42.13
373.22	222.35
373.42	163.84
373.62	168.52
373.81	140.43
374.01	152.13
374.21	168.52
374.40	180.22
374.60	248.10
374.79	191.92
374.99	145.11
375.19	126.39
375.38	201.29
375.58	149.79
375.78	189.58
375.97	138.09
376.17	276.18
376.37	145.11
376.56	203.63
376.76	112.35
376.95	102.98
377.15	147.45
377.35	163.84
377.54	196.60
377.74	241.08
377.93	98.30
378.13	98.30
378.33	203.63
378.52	93.62
378.72	212.99
378.91	182.56
379.11	163.84
379.31	138.09
379.50	121.71
379.70	180.22
379.89	147.45
380.09	140.43
380.28	126.39
380.48	133.41
380.68	170.86
380.87	152.13
381.07	208.31
381.26	149.79
381.46	147.45
381.65	196.60
381.85	117.03
382.04	177.88
382.24	124.05
382.43	91.28
382.63	182.56
382.83	86.60
383.02	187.24
383.22	112.35
383.41	72.56
383.61	91.28
383.80	149.79
384.00	166.18
384.19	170.86
384.39	145.11
384.58	84.26
384.78	173.20
384.97	42.13
385.17	128.73
385.36	149.79
385.56	198.95
385.75	88.94
385.95	182.56
386.14	152.13
386.34	126.39
386.53	133.41
386.72	159.16
386.92	210.65
387.11	142.77
387.31	156.82
387.50	152.13
387.70	173.20
387.89	170.86
388.09	107.66
388.28	107.66
388.48	121.71
388.67	212.99
388.86	128.73
389.06	131.07
389.25	142.77
389.45	168.52
389.64	138.09
389.84	119.37
390.03	175.54
390.22	201.29
390.42	191.92
390.61	159.16
390.81	142.77
391.00	112.35
391.19	220.01
391.39	140.43
391.58	170.86
391.78	184.90
391.97	156.82
392.16	102.98
392.36	140.43
392.55	208.31
392.75	168.52
392.94	105.32
393.13	131.07
393.33	173.20
393.52	152.13
393.71	140.43
393.91	145.11
394.10	177.88
394.29	210.65
394.49	98.30
394.68	159.16
394.88	203.63
395.07	187.24
395.26	182.56
395.46	184.90
395.65	168.52
395.84	156.82
396.04	215.33
396.23	161.50
396.42	102.98
396.62	126.39
396.81	198.95
397.00	84.26
397.19	119.37
397.39	187.24
397.58	119.37
397.77	114.69
397.97	70.22
398.16	126.39
398.35	147.45
398.55	170.86
398.74	173.20
398.93	156.82
399.12	205.97
399.32	159.16
399.51	163.84
399.70	194.26
399.90	88.94
400.09	173.20
400.28	126.39
400.47	102.98
400.67	100.64
400.86	121.71
401.05	238.73
401.24	168.52
401.44	152.13
401.63	168.52
401.82	203.63
402.01	102.98
402.21	131.07
402.40	168.52
402.59	166.18
402.78	154.48
402.97	110.01
403.17	142.77
403.36	189.58
403.55	180.22
403.74	159.16
403.93	198.95
404.13	290.23
404.32	231.71
404.51	313.63
404.70	131.07
404.89	196.60
405.09	212.99
405.28	210.65
405.47	191.92
405.66	196.60
405.85	210.65
406.05	126.39
406.24	191.92
406.43	205.97
406.62	166.18
406.81	189.58
407.00	234.05
407.20	138.09
407.39	140.43
407.58	187.24
407.77	208.31
407.96	168.52
408.15	196.60
408.34	198.95
408.54	205.97
408.73	248.10
408.92	124.05
409.11	121.71
409.30	220.01
409.49	140.43
409.68	140.43
409.87	166.18
410.07	189.58
410.26	100.64
410.45	135.75
410.64	156.82
410.83	210.65
411.02	131.07
411.21	126.39
411.40	250.44
411.59	154.48
411.78	170.86
411.98	128.73
412.17	180.22
412.36	128.73
412.55	152.13
412.74	128.73
412.93	222.35
413.12	138.09
413.31	191.92
413.50	168.52
413.69	227.03
413.88	208.31
414.07	142.77
414.26	149.79
414.45	133.41
414.64	222.35
414.83	210.65
415.02	163.84
415.22	168.52
415.41	203.63
415.60	243.42
415.79	229.37
415.98	163.84
416.17	102.98
416.36	25.75
416.55	145.11
416.74	159.16
416.93	140.43
417.12	114.69
417.31	170.86
417.50	243.42
417.69	250.44
417.88	290.23
418.07	215.33
418.26	194.26
418.45	187.24
418.64	191.92
418.83	184.90
419.02	252.78
419.21	189.58
419.39	180.22
419.58	182.56
419.77	205.97
419.96	276.18
420.15	163.84
420.34	210.65
420.53	217.67
420.72	142.77
420.91	161.50
421.10	159.16
421.29	222.35
421.48	173.20
421.67	175.54
421.86	215.33
422.05	142.77
422.24	194.26
422.43	205.97
422.61	166.18
422.80	180.22
422.99	138.09
423.18	170.86
423.37	238.73
423.56	191.92
423.75	173.20
423.94	187.24
424.13	191.92
424.32	180.22
424.50	147.45
424.69	163.84
424.88	215.33
425.07	147.45
425.26	234.05
425.45	266.82
425.64	283.20
425.83	266.82
426.01	266.82
426.20	231.71
426.39	166.18
426.58	159.16
426.77	184.90
426.96	194.26
427.15	201.29
427.33	227.03
427.52	138.09
427.71	159.16
427.90	241.08
428.09	175.54
428.28	166.18
428.46	257.46
428.65	126.39
428.84	201.29
429.03	145.11
429.22	105.32
429.40	147.45
429.59	205.97
429.78	222.35
429.97	154.48
430.16	184.90
430.34	112.35
430.53	138.09
430.72	156.82
430.91	159.16
431.10	175.54
431.28	149.79
431.47	147.45
431.66	180.22
431.85	180.22
432.03	189.58
432.22	259.80
432.41	187.24
432.60	173.20
432.79	156.82
432.97	257.46
433.16	330.02
433.35	243.42
433.54	194.26
433.72	290.23
433.91	227.03
434.10	243.42
434.28	191.92
434.47	210.65
434.66	231.71
434.85	168.52
435.03	231.71
435.22	414.27
435.41	423.64
435.59	421.30
435.78	395.55
435.97	238.73
436.16	243.42
436.34	180.22
436.53	140.43
436.72	121.71
436.90	187.24
437.09	177.88
437.28	196.60
437.46	184.90
437.65	203.63
437.84	131.07
438.02	163.84
438.21	105.32
438.40	145.11
438.58	168.52
438.77	175.54
438.96	196.60
439.14	210.65
439.33	201.29
439.52	147.45
439.70	135.75
439.89	182.56
440.08	189.58
440.26	170.86
440.45	259.80
440.63	163.84
440.82	215.33
441.01	191.92
441.19	198.95
441.38	173.20
441.57	177.88
441.75	187.24
441.94	257.46
442.12	175.54
442.31	210.65
442.50	163.84
442.68	224.69
442.87	119.37
443.05	227.03
443.24	215.33
443.43	198.95
443.61	163.84
443.80	217.67
443.98	156.82
444.17	163.84
444.35	187.24
444.54	220.01
444.73	255.12
444.91	205.97
445.10	203.63
445.28	184.90
445.47	180.22
445.65	180.22
445.84	138.09
446.02	182.56
446.21	145.11
446.39	152.13
446.58	142.77
446.77	187.24
446.95	196.60
447.14	205.97
447.32	203.63
447.51	117.03
447.69	208.31
447.88	198.95
448.06	187.24
448.25	168.52
448.43	152.13
448.62	241.08
448.80	259.80
448.99	163.84
449.17	201.29
449.36	252.78
449.54	170.86
449.73	152.13
449.91	201.29
450.10	229.37
450.28	280.86
450.46	241.08
450.65	133.41
450.83	180.22
451.02	227.03
451.20	133.41
451.39	182.56
451.57	152.13
451.76	245.76
451.94	175.54
452.13	187.24
452.31	170.86
452.49	203.63
452.68	166.18
452.86	128.73
453.05	189.58
453.23	131.07
453.42	147.45
453.60	201.29
453.78	222.35
453.97	173.20
454.15	154.48
454.34	159.16
454.52	187.24
454.70	203.63
454.89	173.20
455.07	255.12
455.26	276.18
455.44	163.84
455.62	114.69
455.81	227.03
455.99	175.54
456.17	205.97
456.36	220.01
456.54	131.07
456.73	135.75
456.91	231.71
457.09	131.07
457.28	205.97
457.46	182.56
457.64	217.67
457.83	177.88
458.01	112.35
458.19	266.82
458.38	168.52
458.56	222.35
458.74	238.73
458.93	257.46
459.11	189.58
459.29	187.24
459.48	227.03
459.66	227.03
459.84	248.10
460.03	259.80
460.21	184.90
460.39	163.84
460.57	184.90
460.76	224.69
460.94	210.65
461.12	313.63
461.31	259.80
461.49	243.42
461.67	88.94
461.85	210.65
462.04	241.08
462.22	713.86
462.40	161.50
462.59	187.24
462.77	234.05
462.95	173.20
463.13	98.30
463.32	234.05
463.50	220.01
463.68	217.67
463.86	245.76
464.05	205.97
464.23	257.46
464.41	231.71
464.59	184.90
464.78	131.07
464.96	184.90
465.14	252.78
465.32	145.11
465.50	222.35
465.69	220.01
465.87	161.50
466.05	154.48
466.23	229.37
466.41	177.88
466.60	252.78
466.78	208.31
466.96	236.39
467.14	159.16
467.32	222.35
467.51	241.08
467.69	257.46
467.87	234.05
468.05	173.20
468.23	161.50
468.41	215.33
468.60	154.48
468.78	154.48
468.96	222.35
469.14	154.48
469.32	222.35
469.50	156.82
469.69	283.20
469.87	238.73
470.05	201.29
470.23	212.99
470.41	308.95
470.59	173.20
470.77	126.39
470.95	229.37
471.14	248.10
471.32	212.99
471.50	330.02
471.68	245.76
471.86	187.24
472.04	163.84
472.22	203.63
472.40	128.73
472.58	252.78
472.77	198.95
472.95	152.13
473.13	236.39
473.31	283.20
473.49	131.07
473.67	156.82
473.85	245.76
474.03	201.29
474.21	217.67
474.39	269.16
474.57	262.14
474.75	152.13
474.93	212.99
475.12	189.58
475.30	184.90
475.48	133.41
475.66	114.69
475.84	191.92
476.02	166.18
476.20	205.97
476.38	264.48
476.56	234.05
476.74	121.71
476.92	128.73
477.10	147.45
477.28	224.69
477.46	187.24
477.64	269.16
477.82	245.76
478.00	180.22
478.18	250.44
478.36	161.50
478.54	180.22
478.72	159.16
478.90	182.56
479.08	173.20
479.26	241.08
479.44	220.01
479.62	266.82
479.80	234.05
479.98	208.31
480.16	159.16
480.34	180.22
480.52	182.56
480.70	224.69
480.88	250.44
481.06	166.18
481.24	212.99
481.41	252.78
481.59	266.82
481.77	276.18
481.95	241.08
482.13	234.05
482.31	231.71
482.49	264.48
482.67	229.37
482.85	236.39
483.03	248.10
483.21	241.08
483.39	215.33
483.57	163.84
483.74	257.46
483.92	322.99
484.10	227.03
484.28	208.31
484.46	264.48
484.64	290.23
484.82	229.37
485.00	241.08
485.18	210.65
485.35	215.33
485.53	238.73
485.71	292.57
485.89	231.71
486.07	287.89
486.25	299.59
486.43	201.29
486.61	250.44
486.78	276.18
486.96	229.37
487.14	320.65
487.32	220.01
487.50	212.99
487.68	313.63
487.85	280.86
488.03	341.72
488.21	301.93
488.39	189.58
488.57	278.52
488.75	220.01
488.92	582.79
489.10	257.46
489.28	315.97
489.46	210.65
489.64	287.89
489.81	175.54
489.99	313.63
490.17	210.65
490.35	358.10
490.53	217.67
490.70	215.33
490.88	313.63
491.06	262.14
491.24	243.42
491.41	292.57
491.59	210.65
491.77	196.60
491.95	222.35
492.13	241.08
492.30	236.39
492.48	166.18
492.66	191.92
492.84	292.57
493.01	241.08
493.19	245.76
493.37	205.97
493.54	264.48
493.72	217.67
493.90	243.42
494.08	203.63
494.25	322.99
494.43	248.10
494.61	287.89
494.79	191.92
494.96	273.84
495.14	243.42
495.32	238.73
495.49	353.42
495.67	304.27
495.85	266.82
496.02	241.08
496.20	227.03
496.38	271.50
496.55	276.18
496.73	255.12
496.91	222.35
497.09	313.63
497.26	229.37
497.44	238.73
497.62	236.39
497.79	215.33
497.97	243.42
498.14	276.18
498.32	262.14
498.50	290.23
498.67	271.50
498.85	283.20
499.03	205.97
499.20	271.50
499.38	285.55
499.56	215.33
499.73	315.97
499.91	313.63
500.08	250.44
500.26	273.84
500.44	241.08
500.61	269.16
500.79	273.84
500.97	308.95
501.14	243.42
501.32	243.42
501.49	273.84
501.67	271.50
501.84	287.89
502.02	191.92
502.20	222.35
502.37	269.16
502.55	215.33
502.72	245.76
502.90	220.01
503.07	306.61
503.25	229.37
503.43	257.46
503.60	308.95
503.78	332.36
503.95	292.57
504.13	269.16
504.30	252.78
504.48	257.46
504.65	273.84
504.83	304.27
505.01	255.12
505.18	210.65
505.36	280.86
505.53	311.29
505.71	245.76
505.88	299.59
506.06	287.89
506.23	227.03
506.41	248.10
506.58	259.80
506.76	276.18
506.93	273.84
507.11	287.89
507.28	278.52
507.46	224.69
507.63	259.80
507.81	175.54
507.98	271.50
508.16	198.95
508.33	259.80
508.50	264.48
508.68	269.16
508.85	255.12
509.03	152.13
509.20	262.14
509.38	318.31
509.55	280.86
509.73	311.29
509.90	320.65
510.08	196.60
510.25	264.48
510.42	266.82
510.60	245.76
510.77	215.33
510.95	299.59
511.12	318.31
511.30	334.70
511.47	269.16
511.64	330.02
511.82	280.86
511.99	259.80
512.17	227.03
512.34	280.86
512.51	273.84
512.69	337.04
512.86	248.10
513.04	290.23
513.21	220.01
513.38	203.63
513.56	292.57
513.73	205.97
513.90	168.52
514.08	215.33
514.25	189.58
514.43	234.05
514.60	208.31
514.77	271.50
514.95	278.52
515.12	290.23
515.29	229.37
515.47	308.95
515.64	308.95
515.81	250.44
515.99	315.97
516.16	287.89
516.33	234.05
516.51	306.61
516.68	236.39
516.85	177.88
517.03	262.14
517.20	255.12
517.37	290.23
517.54	266.82
517.72	290.23
517.89	229.37
518.06	266.82
518.24	339.38
518.41	271.50
518.58	236.39
518.75	292.57
518.93	269.16
519.10	266.82
519.27	332.36
519.45	236.39
519.62	264.48
519.79	234.05
519.96	252.78
520.14	292.57
520.31	224.69
520.48	238.73
520.65	287.89
520.83	259.80
521.00	266.82
521.17	208.31
521.34	362.78
521.52	273.84
521.69	262.14
521.86	248.10
522.03	318.31
522.20	248.10
522.38	292.57
522.55	334.70
522.72	294.91
522.89	369.80
523.07	287.89
523.24	266.82
523.41	238.73
523.58	222.35
523.75	271.50
523.92	203.63
524.10	257.46
524.27	262.14
524.44	290.23
524.61	301.93
524.78	227.03
524.96	205.97
525.13	238.73
525.30	222.35
525.47	273.84
525.64	276.18
525.81	278.52
525.98	276.18
526.16	313.63
526.33	215.33
526.50	222.35
526.67	154.48
526.84	276.18
527.01	248.10
527.18	266.82
527.36	271.50
527.53	248.10
527.70	299.59
527.87	194.26
528.04	273.84
528.21	255.12
528.38	217.67
528.55	198.95
528.72	318.31
528.89	278.52
529.07	351.08
529.24	248.10
529.41	358.10
529.58	327.68
529.75	318.31
529.92	299.59
530.09	315.97
530.26	271.50
530.43	287.89
530.60	198.95
530.77	304.27
530.94	255.12
531.11	266.82
531.28	332.36
531.46	318.31
531.63	259.80
531.80	292.57
531.97	189.58
532.14	259.80
532.31	278.52
532.48	285.55
532.65	414.27
532.82	425.98
532.99	416.62
533.16	243.42
533.33	341.72
533.50	334.70
533.67	470.45
533.84	409.59
534.01	440.02
534.18	374.49
534.35	386.19
534.52	360.44
534.69	395.55
534.86	308.95
535.03	259.80
535.20	255.12
535.37	344.06
535.54	278.52
535.71	344.06
535.88	395.55
536.05	315.97
536.22	318.31
536.38	257.46
536.55	344.06
536.72	241.08
536.89	344.06
537.06	332.36
537.23	238.73
537.40	271.50
537.57	299.59
537.74	313.63
537.91	423.64
538.08	360.44
538.25	351.08
538.42	325.33
538.59	341.72
538.75	346.40
538.92	344.06
539.09	353.42
539.26	372.15
539.43	620.24
539.60	1123.46
539.77	1577.52
539.94	1565.82
540.11	1078.99
540.28	784.08
540.44	641.31
540.61	449.38
540.78	503.22
540.95	470.45
541.12	568.75
541.29	449.38
541.46	594.50
541.62	573.43
541.79	557.05
541.96	528.96
542.13	543.00
542.30	496.19
542.47	507.90
542.63	524.28
542.80	486.83
542.97	463.43
543.14	552.37
543.31	573.43
543.48	421.30
543.64	482.15
543.81	566.41
543.98	486.83
544.15	578.11
544.32	477.47
544.48	510.24
544.65	510.24
544.82	512.58
544.99	517.26
545.16	482.15
545.32	543.00
545.49	753.65
545.66	931.53
545.83	1036.86
546.00	910.47
546.16	690.46
546.33	571.09
546.50	475.13
546.67	454.06
546.83	447.04
547.00	418.96
547.17	346.40
547.34	402.57
547.50	400.23
547.67	414.27
547.84	386.19
548.00	458.74
548.17	379.17
548.34	386.19
548.51	447.04
548.67	402.57
548.84	332.36
549.01	383.85
549.18	355.76
549.34	339.38
549.51	367.46
549.68	395.55
549.84	407.25
550.01	369.80
550.18	418.96
550.34	325.33
550.51	355.76
550.68	379.17
550.84	388.53
551.01	344.06
551.18	344.06
551.34	255.12
551.51	297.25
551.68	344.06
551.84	325.33
552.01	308.95
552.18	273.84
552.34	283.20
552.51	344.06
552.68	290.23
552.84	287.89
553.01	337.04
553.18	337.04
553.34	304.27
553.51	215.33
553.67	355.76
553.84	320.65
554.01	290.23
554.17	292.57
554.34	280.86
554.51	273.84
554.67	285.55
554.84	276.18
555.00	264.48
555.17	339.38
555.33	330.02
555.50	297.25
555.67	287.89
555.83	280.86
556.00	362.78
556.16	482.15
556.33	358.10
556.50	304.27
556.66	294.91
556.83	308.95
556.99	259.80
557.16	280.86
557.32	297.25
557.49	191.92
557.65	259.80
557.82	257.46
557.98	278.52
558.15	313.63
558.32	276.18
558.48	264.48
558.65	250.44
558.81	276.18
558.98	231.71
559.14	294.91
559.31	271.50
559.47	285.55
559.64	327.68
559.80	280.86
559.97	236.39
560.13	273.84
560.30	262.14
560.46	271.50
560.63	273.84
560.79	304.27
560.96	248.10
561.12	330.02
561.29	264.48
561.45	243.42
561.61	339.38
561.78	318.31
561.94	292.57
562.11	304.27
562.27	201.29
562.44	252.78
562.60	217.67
562.77	313.63
562.93	259.80
563.10	245.76
563.26	297.25
563.42	306.61
563.59	241.08
563.75	248.10
563.92	250.44
564.08	262.14
564.24	280.86
564.41	325.33
564.57	184.90
564.74	276.18
564.90	374.49
565.07	278.52
565.23	306.61
565.39	255.12
565.56	315.97
565.72	299.59
565.88	311.29
566.05	285.55
566.21	313.63
566.38	299.59
566.54	304.27
566.70	290.23
566.87	224.69
567.03	297.25
567.19	252.78
567.36	248.10
567.52	285.55
567.68	259.80
567.85	327.68
568.01	231.71
568.17	177.88
568.34	280.86
568.50	355.76
568.66	287.89
568.83	318.31
568.99	278.52
569.15	283.20
569.32	252.78
569.48	308.95
569.64	252.78
569.81	287.89
569.97	231.71
570.13	252.78
570.30	255.12
570.46	252.78
570.62	322.99
570.78	269.16
570.95	264.48
571.11	322.99
571.27	264.48
571.43	304.27
571.60	322.99
571.76	290.23
571.92	234.05
572.09	283.20
572.25	243.42
572.41	238.73
572.57	287.89
572.74	245.76
572.90	187.24
573.06	243.42
573.22	287.89
573.38	241.08
573.55	334.70
573.71	367.46
573.87	257.46
574.03	290.23
574.20	255.12
574.36	379.17
574.52	395.55
574.68	400.23
574.84	374.49
575.01	290.23
575.17	278.52
575.33	250.44
575.49	311.29
575.65	355.76
575.82	463.43
575.98	615.56
576.14	711.52
576.30	758.33
576.46	685.78
576.62	594.50
576.79	589.82
576.95	482.15
577.11	367.46
577.27	393.21
577.43	346.40
577.59	397.89
577.75	362.78
577.92	294.91
578.08	341.72
578.24	236.39
578.40	287.89
578.56	400.23
578.72	425.98
578.88	477.47
579.04	355.76
579.21	374.49
579.37	365.12
579.53	334.70
579.69	379.17
579.85	435.34
580.01	409.59
580.17	486.83
580.33	454.06
580.49	526.62
580.65	458.74
580.82	390.87
580.98	454.06
581.14	355.76
581.30	390.87
581.46	475.13
581.62	594.50
581.78	617.90
581.94	648.33
582.10	566.41
582.26	526.62
582.42	458.74
582.58	512.58
582.74	447.04
582.90	437.68
583.06	578.11
583.22	465.77
583.38	496.19
583.54	571.09
583.70	641.31
583.86	727.91
584.02	763.01
584.18	901.11
584.34	1280.27
584.50	2995.89
584.66	22005.72
584.82	53319.74
584.98	62155.27
585.14	59222.58
585.30	43201.61
585.46	25954.20
585.62	15840.75
585.78	7534.18
585.94	3075.46
586.10	1535.39
586.26	1053.24
586.42	830.89
586.58	716.20
586.74	760.67
586.90	711.52
587.06	753.65
587.22	589.82
587.38	664.71
587.54	1224.10
587.70	3251.00
587.86	5256.84
588.02	5659.42
588.18	4037.42
588.34	2609.70
588.49	1839.66
588.65	1069.62
588.81	599.18
588.97	442.36
589.13	365.12
589.29	355.76
589.45	386.19
589.61	301.93
589.77	393.21
589.93	397.89
590.08	505.56
590.24	503.22
590.40	447.04
590.56	458.74
590.72	489.17
590.88	393.21
591.04	458.74
591.20	423.64
591.35	451.72
591.51	381.51
591.67	351.08
591.83	283.20
591.99	348.74
592.15	404.91
592.31	388.53
592.46	379.17
592.62	402.57
592.78	383.85
592.94	407.25
593.10	358.10
593.26	390.87
593.41	390.87
593.57	418.96
593.73	620.24
593.89	2843.75
594.05	6759.47
594.20	9738.97
594.36	8950.21
594.52	6057.31
594.68	3955.51
594.84	2600.34
594.99	1519.01
595.15	758.33
595.31	557.05
595.47	411.93
595.62	416.62
595.78	348.74
595.94	346.40
596.10	404.91
596.25	374.49
596.41	313.63
596.57	337.04
596.73	374.49
596.88	538.32
597.04	1390.28
597.20	2115.84
597.36	2649.49
597.51	1975.41
597.67	1310.70
597.83	964.30
597.99	718.54
598.14	407.25
598.30	372.15
598.46	425.98
598.61	482.15
598.77	365.12
598.93	278.52
599.09	315.97
599.24	330.02
599.40	360.44
599.56	341.72
599.71	337.04
599.87	294.91
600.03	369.80
600.18	264.48
600.34	318.31
600.50	299.59
600.65	327.68
600.81	397.89
600.97	266.82
601.12	283.20
601.28	325.33
601.44	386.19
601.59	297.25
601.75	388.53
601.91	311.29
602.06	348.74
602.22	475.13
602.37	786.42
602.53	1647.74
602.69	2504.37
602.84	2495.01
603.00	1930.94
603.16	1291.98
603.31	1018.13
603.47	667.05
603.62	470.45
603.78	358.10
603.94	327.68
604.09	390.87
604.25	362.78
604.40	266.82
604.56	315.97
604.71	301.93
604.87	353.42
605.03	327.68
605.18	355.76
605.34	404.91
605.49	315.97
605.65	311.29
605.80	334.70
605.96	348.74
606.12	348.74
606.27	425.98
606.43	388.53
606.58	475.13
606.74	908.13
606.89	3129.30
607.05	6338.17
607.20	8182.51
607.36	6628.40
607.51	4681.07
607.67	3157.38
607.82	2139.25
607.98	1240.48
608.13	772.38
608.29	519.60
608.44	489.17
608.60	507.90
608.75	580.45
608.91	1193.67
609.06	5013.43
609.22	11115.20
609.37	14265.57
609.53	12582.72
609.68	8564.02
609.84	5577.50
609.99	3784.65
