SpectraSuite Data File
++++++++++++++++++++++++++++++++++++
Date: Fri Oct 04 12:13:33 GMT-05:00 2013
User: price-jones
Dark Spectrum Present: No
Reference Spectrum Present: No
Number of Sampled Component Spectra: 1
Spectrometers: USB2+H05261
Integration Time (usec): 10000 (USB2+H05261)
Spectra Averaged: 1 (USB2+H05261)
Boxcar Smoothing: 0 (USB2+H05261)
Correct for Electrical Dark: No (USB2+H05261)
Strobe/Lamp Enabled: No (USB2+H05261)
Correct for Detector Non-linearity: No (USB2+H05261)
Correct for Stray Light: No (USB2+H05261)
Number of Pixels in Processed Spectrum: 2048
>>>>>Begin Processed Spectral Data<<<<<
365.73	28.09
365.92	28.09
366.12	28.09
366.32	0.00
366.52	0.00
366.72	0.00
366.91	0.00
367.11	0.00
367.31	0.00
367.51	0.00
367.70	0.00
367.90	0.00
368.10	0.00
368.30	0.00
368.49	0.00
368.69	0.00
368.89	0.00
369.09	0.00
369.28	0.00
369.48	0.00
369.68	0.00
369.87	0.00
370.07	0.00
370.27	0.00
370.47	14.04
370.66	0.00
370.86	28.09
371.06	84.26
371.25	39.79
371.45	25.75
371.65	42.13
371.84	0.00
372.04	35.11
372.24	81.92
372.44	121.71
372.63	39.79
372.83	112.35
373.03	98.30
373.22	100.64
373.42	53.83
373.62	18.72
373.81	35.11
374.01	95.96
374.21	81.92
374.40	102.98
374.60	121.71
374.79	105.32
374.99	95.96
375.19	110.01
375.38	63.19
375.58	95.96
375.78	105.32
375.97	112.35
376.17	121.71
376.37	88.94
376.56	154.48
376.76	128.73
376.95	93.62
377.15	184.90
377.35	145.11
377.54	74.90
377.74	175.54
377.93	126.39
378.13	126.39
378.33	140.43
378.52	133.41
378.72	100.64
378.91	110.01
379.11	166.18
379.31	100.64
379.50	100.64
379.70	70.22
379.89	72.56
380.09	117.03
380.28	203.63
380.48	177.88
380.68	107.66
380.87	117.03
381.07	91.28
381.26	95.96
381.46	154.48
381.65	138.09
381.85	77.24
382.04	67.88
382.24	42.13
382.43	117.03
382.63	95.96
382.83	95.96
383.02	51.49
383.22	138.09
383.41	98.30
383.61	74.90
383.80	65.54
384.00	124.05
384.19	37.45
384.39	119.37
384.58	135.75
384.78	102.98
384.97	91.28
385.17	152.13
385.36	88.94
385.56	173.20
385.75	65.54
385.95	170.86
386.14	105.32
386.34	63.19
386.53	98.30
386.72	117.03
386.92	88.94
387.11	88.94
387.31	88.94
387.50	159.16
387.70	135.75
387.89	100.64
388.09	177.88
388.28	102.98
388.48	110.01
388.67	135.75
388.86	222.35
389.06	114.69
389.25	147.45
389.45	187.24
389.64	154.48
389.84	191.92
390.03	173.20
390.22	191.92
390.42	159.16
390.61	163.84
390.81	161.50
391.00	149.79
391.19	168.52
391.39	224.69
391.58	196.60
391.78	182.56
391.97	138.09
392.16	149.79
392.36	135.75
392.55	145.11
392.75	105.32
392.94	65.54
393.13	56.17
393.33	117.03
393.52	126.39
393.71	58.51
393.91	147.45
394.10	245.76
394.29	236.39
394.49	159.16
394.68	140.43
394.88	224.69
395.07	184.90
395.26	159.16
395.46	201.29
395.65	224.69
395.84	98.30
396.04	119.37
396.23	117.03
396.42	229.37
396.62	98.30
396.81	180.22
397.00	161.50
397.19	140.43
397.39	154.48
397.58	210.65
397.77	191.92
397.97	255.12
398.16	236.39
398.35	241.08
398.55	189.58
398.74	290.23
398.93	287.89
399.12	238.73
399.32	304.27
399.51	325.33
399.70	292.57
399.90	224.69
400.09	304.27
400.28	308.95
400.47	259.80
400.67	266.82
400.86	290.23
401.05	346.40
401.24	327.68
401.44	299.59
401.63	374.49
401.82	346.40
402.01	348.74
402.21	334.70
402.40	259.80
402.59	334.70
402.78	283.20
402.97	322.99
403.17	145.11
403.36	297.25
403.55	320.65
403.74	362.78
403.93	379.17
404.13	236.39
404.32	276.18
404.51	283.20
404.70	351.08
404.89	337.04
405.09	308.95
405.28	276.18
405.47	257.46
405.66	332.36
405.85	351.08
406.05	301.93
406.24	250.44
406.43	299.59
406.62	257.46
406.81	255.12
407.00	348.74
407.20	245.76
407.39	374.49
407.58	353.42
407.77	332.36
407.96	276.18
408.15	269.16
408.34	339.38
408.54	437.68
408.73	322.99
408.92	344.06
409.11	358.10
409.30	353.42
409.49	266.82
409.68	301.93
409.87	271.50
410.07	273.84
410.26	283.20
410.45	337.04
410.64	299.59
410.83	278.52
411.02	344.06
411.21	337.04
411.40	383.85
411.59	341.72
411.78	465.77
411.98	259.80
412.17	362.78
412.36	355.76
412.55	351.08
412.74	353.42
412.93	374.49
413.12	337.04
413.31	325.33
413.50	301.93
413.69	397.89
413.88	433.00
414.07	374.49
414.26	355.76
414.45	386.19
414.64	353.42
414.83	355.76
415.02	337.04
415.22	334.70
415.41	379.17
415.60	411.93
415.79	355.76
415.98	491.51
416.17	360.44
416.36	404.91
416.55	402.57
416.74	407.25
416.93	360.44
417.12	325.33
417.31	313.63
417.50	365.12
417.69	409.59
417.88	376.83
418.07	395.55
418.26	360.44
418.45	348.74
418.64	411.93
418.83	465.77
419.02	358.10
419.21	435.34
419.39	421.30
419.58	388.53
419.77	355.76
419.96	374.49
420.15	390.87
420.34	390.87
420.53	425.98
420.72	477.47
420.91	456.40
421.10	472.79
421.29	437.68
421.48	468.11
421.67	440.02
421.86	428.32
422.05	374.49
422.24	444.70
422.43	379.17
422.61	468.11
422.80	393.21
422.99	341.72
423.18	339.38
423.37	348.74
423.56	400.23
423.75	447.04
423.94	449.38
424.13	344.06
424.32	341.72
424.50	374.49
424.69	358.10
424.88	346.40
425.07	327.68
425.26	332.36
425.45	409.59
425.64	393.21
425.83	393.21
426.01	379.17
426.20	353.42
426.39	386.19
426.58	332.36
426.77	386.19
426.96	327.68
427.15	358.10
427.33	423.64
427.52	348.74
427.71	421.30
427.90	369.80
428.09	330.02
428.28	383.85
428.46	395.55
428.65	381.51
428.84	360.44
429.03	259.80
429.22	372.15
429.40	266.82
429.59	290.23
429.78	381.51
429.97	210.65
430.16	313.63
430.34	262.14
430.53	245.76
430.72	222.35
430.91	278.52
431.10	381.51
431.28	400.23
431.47	454.06
431.66	489.17
431.85	428.32
432.03	477.47
432.22	393.21
432.41	425.98
432.60	409.59
432.79	519.60
432.97	458.74
433.16	463.43
433.35	414.27
433.54	332.36
433.72	330.02
433.91	297.25
434.10	428.32
434.28	402.57
434.47	458.74
434.66	433.00
434.85	440.02
435.03	397.89
435.22	397.89
435.41	498.53
435.59	442.36
435.78	472.79
435.97	442.36
436.16	454.06
436.34	491.51
436.53	472.79
436.72	400.23
436.90	414.27
437.09	404.91
437.28	423.64
437.46	411.93
437.65	447.04
437.84	435.34
438.02	404.91
438.21	386.19
438.40	374.49
438.58	440.02
438.77	510.24
438.96	449.38
439.14	437.68
439.33	503.22
439.52	379.17
439.70	456.40
439.89	428.32
440.08	444.70
440.26	369.80
440.45	456.40
440.63	468.11
440.82	540.66
441.01	498.53
441.19	470.45
441.38	444.70
441.57	503.22
441.75	545.34
441.94	587.47
442.12	475.13
442.31	573.43
442.50	519.60
442.68	498.53
442.87	491.51
443.05	533.64
443.24	514.92
443.43	535.98
443.61	545.34
443.80	550.03
443.98	456.40
444.17	454.06
444.35	550.03
444.54	510.24
444.73	526.62
444.91	477.47
445.10	456.40
445.28	503.22
445.47	472.79
445.65	463.43
445.84	472.79
446.02	500.87
446.21	531.30
446.39	531.30
446.58	554.71
446.77	519.60
446.95	554.71
447.14	543.00
447.32	610.88
447.51	526.62
447.69	561.73
447.88	564.07
448.06	512.58
448.25	524.28
448.43	447.04
448.62	477.47
448.80	465.77
448.99	538.32
449.17	540.66
449.36	411.93
449.54	599.18
449.73	524.28
449.91	631.94
450.10	528.96
450.28	557.05
450.46	489.17
450.65	528.96
450.83	571.09
451.02	648.33
451.20	559.39
451.39	535.98
451.57	568.75
451.76	505.56
451.94	582.79
452.13	610.88
452.31	484.49
452.49	519.60
452.68	638.97
452.86	571.09
453.05	557.05
453.23	517.26
453.42	608.54
453.60	451.72
453.78	554.71
453.97	629.60
454.15	493.85
454.34	554.71
454.52	557.05
454.70	552.37
454.89	519.60
455.07	477.47
455.26	545.34
455.44	559.39
455.62	566.41
455.81	550.03
455.99	547.69
456.17	568.75
456.36	622.58
456.54	582.79
456.73	575.77
456.91	603.86
457.09	662.37
457.28	507.90
457.46	561.73
457.64	561.73
457.83	550.03
458.01	519.60
458.19	592.16
458.38	603.86
458.56	634.29
458.74	582.79
458.93	585.13
459.11	524.28
459.29	500.87
459.48	622.58
459.66	484.49
459.84	543.00
460.03	622.58
460.21	547.69
460.39	664.71
460.57	655.35
460.76	610.88
460.94	507.90
461.12	559.39
461.31	608.54
461.49	580.45
461.67	594.50
461.85	561.73
462.04	540.66
462.22	678.76
462.40	517.26
462.59	538.32
462.77	617.90
462.95	676.41
463.13	592.16
463.32	622.58
463.50	657.69
463.68	540.66
463.86	514.92
464.05	500.87
464.23	514.92
464.41	571.09
464.59	512.58
464.78	664.71
464.96	566.41
465.14	540.66
465.32	606.20
465.50	582.79
465.69	564.07
465.87	608.54
466.05	505.56
466.23	538.32
466.41	517.26
466.60	559.39
466.78	627.26
466.96	557.05
467.14	620.24
467.32	512.58
467.51	592.16
467.69	519.60
467.87	533.64
468.05	622.58
468.23	554.71
468.41	528.96
468.60	554.71
468.78	622.58
468.96	587.47
469.14	519.60
469.32	564.07
469.50	580.45
469.69	538.32
469.87	573.43
470.05	531.30
470.23	526.62
470.41	662.37
470.59	573.43
470.77	573.43
470.95	610.88
471.14	608.54
471.32	552.37
471.50	601.52
471.68	587.47
471.86	543.00
472.04	678.76
472.22	692.80
472.40	603.86
472.58	496.19
472.77	566.41
472.95	596.84
473.13	627.26
473.31	550.03
473.49	641.31
473.67	578.11
473.85	575.77
474.03	603.86
474.21	582.79
474.39	657.69
474.57	620.24
474.75	678.76
474.93	662.37
475.12	594.50
475.30	603.86
475.48	641.31
475.66	671.73
475.84	624.92
476.02	664.71
476.20	695.14
476.38	643.65
476.56	627.26
476.74	606.20
476.92	767.70
477.10	669.39
477.28	660.03
477.46	692.80
477.64	716.20
477.82	702.16
478.00	660.03
478.18	678.76
478.36	711.52
478.54	641.31
478.72	678.76
478.90	671.73
479.08	699.82
479.26	676.41
479.44	774.72
479.62	720.88
479.80	688.12
479.98	699.82
480.16	739.61
480.34	746.63
480.52	781.74
480.70	732.59
480.88	753.65
481.06	732.59
481.24	730.25
481.41	802.80
481.59	748.97
481.77	830.89
481.95	765.36
482.13	777.06
482.31	781.74
482.49	763.01
482.67	784.08
482.85	821.53
483.03	774.72
483.21	781.74
483.39	807.48
483.57	748.97
483.74	833.23
483.92	674.07
484.10	741.95
484.28	828.55
484.46	798.12
484.64	793.44
484.82	809.83
485.00	791.10
485.18	755.99
485.35	828.55
485.53	594.50
485.71	550.03
485.89	585.13
486.07	678.76
486.25	704.50
486.43	779.40
486.61	751.31
486.78	711.52
486.96	821.53
487.14	760.67
487.32	760.67
487.50	844.93
487.68	898.77
487.85	889.40
488.03	919.83
488.21	940.90
488.39	830.89
488.57	854.30
488.75	784.08
488.92	880.04
489.10	779.40
489.28	877.70
489.46	1008.77
489.64	978.34
489.81	976.00
489.99	954.94
490.17	875.36
490.35	912.81
490.53	980.68
490.70	973.66
490.88	968.98
491.06	912.81
491.24	910.47
491.41	926.85
491.59	905.79
491.77	847.27
491.95	936.21
492.13	854.30
492.30	943.24
492.48	1039.20
492.66	985.37
492.84	1004.09
493.01	1076.65
493.19	950.26
493.37	954.94
493.54	954.94
493.72	968.98
493.90	1100.05
494.08	1043.88
494.25	1020.47
494.43	1046.22
494.61	1015.79
494.79	1057.92
494.96	1027.50
495.14	1086.01
495.32	1060.26
495.49	950.26
495.67	992.39
495.85	1102.39
496.02	1146.86
496.20	1057.92
496.38	1057.92
496.55	1107.07
496.73	1078.99
496.91	1062.60
497.09	1149.20
497.26	1100.05
497.44	1081.33
497.62	1097.71
497.79	1046.22
497.97	1008.77
498.14	945.58
498.32	1022.81
498.50	1039.20
498.67	1067.28
498.85	1041.54
499.03	1109.41
499.20	1022.81
499.38	1111.75
499.56	1013.45
499.73	1069.62
499.91	1053.24
500.08	1053.24
500.26	976.00
500.44	1083.67
500.61	1015.79
500.79	1020.47
500.97	1011.11
501.14	1039.20
501.32	999.41
501.49	1043.88
501.67	971.32
501.84	1057.92
502.02	1022.81
502.20	1081.33
502.37	1055.58
502.55	1064.94
502.72	1109.41
502.90	1121.12
503.07	1083.67
503.25	964.30
503.43	1036.86
503.60	1064.94
503.78	936.21
503.95	891.74
504.13	1060.26
504.30	1076.65
504.48	1146.86
504.65	1083.67
504.83	1111.75
505.01	1111.75
505.18	1107.07
505.36	1165.59
505.53	1245.16
505.71	1167.93
505.88	1132.82
506.06	1142.18
506.23	1151.54
506.41	1076.65
506.58	1149.20
506.76	1090.69
506.93	1111.75
507.11	1100.05
507.28	1100.05
507.46	1100.05
507.63	1015.79
507.81	1018.13
507.98	1064.94
508.16	1170.27
508.33	1153.88
508.50	1029.84
508.68	1151.54
508.85	1205.38
509.03	1193.67
509.20	1167.93
509.38	1142.18
509.55	1149.20
509.73	1102.39
509.90	1097.71
510.08	1177.29
510.25	1137.50
510.42	1163.25
510.60	1196.01
510.77	1086.01
510.95	1156.22
511.12	1142.18
511.30	1217.08
511.47	1210.06
511.64	1165.59
511.82	1174.95
511.99	1224.10
512.17	1193.67
512.34	1165.59
512.51	1170.27
512.69	1074.31
512.86	1074.31
513.04	1053.24
513.21	1219.42
513.38	1135.16
513.56	1137.50
513.73	1109.41
513.90	1050.90
514.08	1076.65
514.25	1055.58
514.43	1177.29
514.60	1284.95
514.77	1093.03
514.95	1093.03
515.12	1067.28
515.29	1121.12
515.47	1193.67
515.64	1095.37
515.81	1188.99
515.99	1114.10
516.16	1062.60
516.33	1050.90
516.51	910.47
516.68	858.98
516.85	997.07
517.03	877.70
517.20	973.66
517.37	1137.50
517.54	1104.73
517.72	1177.29
517.89	1020.47
518.06	945.58
518.24	1011.11
518.41	990.05
518.58	1102.39
518.75	1062.60
518.93	1067.28
519.10	1086.01
519.27	1114.10
519.45	1123.46
519.62	1203.04
519.79	1100.05
519.96	1163.25
520.14	1226.44
520.31	1153.88
520.48	1188.99
520.65	1055.58
520.83	1170.27
521.00	1074.31
521.17	1165.59
521.34	1128.14
521.52	1139.84
521.69	1118.78
521.86	1266.23
522.03	1188.99
522.20	1053.24
522.38	1095.37
522.55	983.02
522.72	1135.16
522.89	1114.10
523.07	1076.65
523.24	1097.71
523.41	1179.63
523.58	1196.01
523.75	1210.06
523.92	1212.40
524.10	1193.67
524.27	1198.35
524.44	1249.85
524.61	1231.12
524.78	1268.57
524.96	1142.18
525.13	1207.72
525.30	1207.72
525.47	1135.16
525.64	1240.48
525.81	1149.20
525.98	1081.33
526.16	1074.31
526.33	964.30
526.50	1078.99
526.67	1013.45
526.84	1015.79
527.01	1048.56
527.18	1102.39
527.36	1275.59
527.53	1118.78
527.70	1097.71
527.87	1179.63
528.04	1128.14
528.21	1074.31
528.38	1266.23
528.55	1104.73
528.72	1170.27
528.89	1196.01
529.07	1200.69
529.24	1181.97
529.41	1179.63
529.58	1144.52
529.75	1137.50
529.92	1142.18
530.09	1135.16
530.26	1198.35
530.43	1259.21
530.60	1221.76
530.77	1179.63
530.94	1273.25
531.11	1198.35
531.28	1214.74
531.46	1235.80
531.63	1095.37
531.80	1151.54
531.97	1146.86
532.14	1193.67
532.31	1067.28
532.48	1020.47
532.65	1057.92
532.82	1039.20
532.99	1165.59
533.16	1235.80
533.33	1160.91
533.50	1170.27
533.67	1238.14
533.84	1125.80
534.01	1149.20
534.18	1076.65
534.35	1090.69
534.52	1167.93
534.69	1125.80
534.86	1247.51
535.03	1156.22
535.20	1165.59
535.37	1299.00
535.54	1205.38
535.71	1219.42
535.88	1191.33
536.05	1163.25
536.22	1123.46
536.38	1078.99
536.55	973.66
536.72	1043.88
536.89	1034.52
537.06	1097.71
537.23	1149.20
537.40	1186.65
537.57	1142.18
537.74	1184.31
537.91	1163.25
538.08	1212.40
538.25	1102.39
538.42	1186.65
538.59	1198.35
538.75	1039.20
538.92	1114.10
539.09	1121.12
539.26	1121.12
539.43	1174.95
539.60	1050.90
539.77	1093.03
539.94	1114.10
540.11	1125.80
540.28	1027.50
540.44	971.32
540.61	1060.26
540.78	1057.92
540.95	1114.10
541.12	1081.33
541.29	1071.97
541.46	1217.08
541.62	1149.20
541.79	1057.92
541.96	1123.46
542.13	1137.50
542.30	1102.39
542.47	1048.56
542.63	1053.24
542.80	1111.75
542.97	1027.50
543.14	1036.86
543.31	1064.94
543.48	1027.50
543.64	1149.20
543.81	1146.86
543.98	1149.20
544.15	1203.04
544.32	1055.58
544.48	1039.20
544.65	1032.18
544.82	1088.35
544.99	1025.15
545.16	1224.10
545.32	1125.80
545.49	1132.82
545.66	1142.18
545.83	1076.65
546.00	1128.14
546.16	1060.26
546.33	1071.97
546.50	1114.10
546.67	1041.54
546.83	1181.97
547.00	1081.33
547.17	1083.67
547.34	1123.46
547.50	1137.50
547.67	1104.73
547.84	1123.46
548.00	1039.20
548.17	1153.88
548.34	1114.10
548.51	1149.20
548.67	1078.99
548.84	1109.41
549.01	961.96
549.18	1144.52
549.34	1132.82
549.51	1118.78
549.68	1097.71
549.84	1100.05
550.01	1104.73
550.18	1004.09
550.34	1156.22
550.51	1102.39
550.68	1069.62
550.84	978.34
551.01	1057.92
551.18	1022.81
551.34	1034.52
551.51	1088.35
551.68	966.64
551.84	1200.69
552.01	1121.12
552.18	1093.03
552.34	1177.29
552.51	1055.58
552.68	952.60
552.84	966.64
553.01	1074.31
553.18	1160.91
553.34	1095.37
553.51	1107.07
553.67	1027.50
553.84	1125.80
554.01	1069.62
554.17	1086.01
554.34	1104.73
554.51	1142.18
554.67	1132.82
554.84	1149.20
555.00	1032.18
555.17	1172.61
555.33	1123.46
555.50	1093.03
555.67	1174.95
555.83	1118.78
556.00	1156.22
556.16	1083.67
556.33	1043.88
556.50	1083.67
556.66	1163.25
556.83	994.73
556.99	1006.43
557.16	1100.05
557.32	1064.94
557.49	1146.86
557.65	971.32
557.82	1142.18
557.98	1067.28
558.15	1062.60
558.32	1060.26
558.48	1013.45
558.65	1022.81
558.81	945.58
558.98	1074.31
559.14	992.39
559.31	1060.26
559.47	1046.22
559.64	1027.50
559.80	1046.22
559.97	1011.11
560.13	1032.18
560.30	1043.88
560.46	1076.65
560.63	1025.15
560.79	1142.18
560.96	1034.52
561.12	1090.69
561.29	1027.50
561.45	952.60
561.61	1057.92
561.78	1069.62
561.94	1022.81
562.11	994.73
562.27	1025.15
562.44	1001.75
562.60	1067.28
562.77	1137.50
562.93	1050.90
563.10	1029.84
563.26	1036.86
563.42	1004.09
563.59	1025.15
563.75	947.92
563.92	1020.47
564.08	1057.92
564.24	1041.54
564.41	1064.94
564.57	1001.75
564.74	1081.33
564.90	1018.13
565.07	1004.09
565.23	919.83
565.39	901.11
565.56	1020.47
565.72	961.96
565.88	936.21
566.05	961.96
566.21	952.60
566.38	1006.43
566.54	1011.11
566.70	1048.56
566.87	952.60
567.03	1081.33
567.19	940.90
567.36	1064.94
567.52	997.07
567.68	919.83
567.85	968.98
568.01	999.41
568.17	961.96
568.34	943.24
568.50	868.34
568.66	978.34
568.83	905.79
568.99	894.08
569.15	905.79
569.32	947.92
569.48	952.60
569.64	880.04
569.81	870.68
569.97	910.47
570.13	873.02
570.30	936.21
570.46	954.94
570.62	912.81
570.78	877.70
570.95	966.64
571.11	903.45
571.27	978.34
571.43	896.43
571.60	926.85
571.76	971.32
571.92	912.81
572.09	901.11
572.25	947.92
572.41	943.24
572.57	905.79
572.74	924.51
572.90	910.47
573.06	987.71
573.22	947.92
573.38	931.53
573.55	964.30
573.71	940.90
573.87	929.19
574.03	854.30
574.20	889.40
574.36	980.68
574.52	926.85
574.68	912.81
574.84	938.55
575.01	933.87
575.17	870.68
575.33	952.60
575.49	919.83
575.65	875.36
575.82	873.02
575.98	997.07
576.14	833.23
576.30	851.96
576.46	990.05
576.62	889.40
576.79	966.64
576.95	868.34
577.11	938.55
577.27	936.21
577.43	966.64
577.59	887.06
577.75	894.08
577.92	870.68
578.08	894.08
578.24	880.04
578.40	945.58
578.56	875.36
578.72	945.58
578.88	954.94
579.04	1043.88
579.21	866.00
579.37	959.62
579.53	976.00
579.69	870.68
579.85	1011.11
580.01	933.87
580.17	917.49
580.33	875.36
580.49	905.79
580.65	896.43
580.82	971.32
580.98	940.90
581.14	912.81
581.30	858.98
581.46	905.79
581.62	964.30
581.78	912.81
581.94	964.30
582.10	905.79
582.26	842.59
582.42	999.41
582.58	919.83
582.74	903.45
582.90	994.73
583.06	933.87
583.22	915.15
583.38	851.96
583.54	877.70
583.70	945.58
583.86	957.28
584.02	940.90
584.18	905.79
584.34	847.27
584.50	912.81
584.66	908.13
584.82	868.34
584.98	903.45
585.14	947.92
585.30	954.94
585.46	828.55
585.62	812.17
585.78	786.42
585.94	809.83
586.10	861.32
586.26	973.66
586.42	861.32
586.58	823.87
586.74	912.81
586.90	917.49
587.06	856.64
587.22	929.19
587.38	842.59
587.54	854.30
587.70	767.70
587.86	779.40
588.02	786.42
588.18	786.42
588.34	734.93
588.49	678.76
588.65	739.61
588.81	603.86
588.97	606.20
589.13	653.01
589.29	685.78
589.45	709.18
589.61	723.23
589.77	664.71
589.93	681.10
590.08	777.06
590.24	737.27
590.40	781.74
590.56	786.42
590.72	760.67
590.88	823.87
591.04	699.82
591.20	767.70
591.35	741.95
591.51	763.01
591.67	674.07
591.83	709.18
591.99	788.76
592.15	711.52
592.31	744.29
592.46	788.76
592.62	739.61
592.78	718.54
592.94	812.17
593.10	755.99
593.26	779.40
593.41	851.96
593.57	793.44
593.73	777.06
593.89	716.20
594.05	713.86
594.20	734.93
594.36	613.22
594.52	723.23
594.68	617.90
594.84	751.31
594.99	716.20
595.15	763.01
595.31	763.01
595.47	699.82
595.62	755.99
595.78	774.72
595.94	786.42
596.10	791.10
596.25	779.40
596.41	861.32
596.57	753.65
596.73	800.46
596.88	786.42
597.04	723.23
597.20	765.36
597.36	734.93
597.51	765.36
597.67	669.39
597.83	753.65
597.99	737.27
598.14	725.57
598.30	793.44
598.46	847.27
598.61	741.95
598.77	755.99
598.93	805.14
599.09	800.46
599.24	669.39
599.40	763.01
599.56	833.23
599.71	758.33
599.87	725.57
600.03	763.01
600.18	798.12
600.34	774.72
600.50	732.59
600.65	823.87
600.81	809.83
600.97	770.04
601.12	847.27
601.28	699.82
601.44	805.14
601.59	856.64
601.75	840.25
601.91	795.78
602.06	835.57
602.22	737.27
602.37	711.52
602.53	821.53
602.69	709.18
602.84	765.36
603.00	805.14
603.16	770.04
603.31	793.44
603.47	746.63
603.62	854.30
603.78	798.12
603.94	744.29
604.09	844.93
604.25	732.59
604.40	812.17
604.56	688.12
604.71	849.61
604.87	791.10
605.03	772.38
605.18	755.99
605.34	774.72
605.49	835.57
605.65	781.74
605.80	793.44
605.96	779.40
606.12	784.08
606.27	753.65
606.43	725.57
606.58	770.04
606.74	805.14
