SpectraSuite Data File
++++++++++++++++++++++++++++++++++++
Date: Fri Oct 04 11:34:08 GMT-05:00 2013
User: price-jones
Dark Spectrum Present: No
Reference Spectrum Present: No
Number of Sampled Component Spectra: 1
Spectrometers: USB2+H05261
Integration Time (usec): 100000 (USB2+H05261)
Spectra Averaged: 1 (USB2+H05261)
Boxcar Smoothing: 0 (USB2+H05261)
Correct for Electrical Dark: No (USB2+H05261)
Strobe/Lamp Enabled: No (USB2+H05261)
Correct for Detector Non-linearity: No (USB2+H05261)
Correct for Stray Light: No (USB2+H05261)
Number of Pixels in Processed Spectrum: 2048
>>>>>Begin Processed Spectral Data<<<<<
365.73	74.90
365.92	74.90
366.12	74.90
366.32	0.00
366.52	0.00
366.72	0.00
366.91	0.00
367.11	0.00
367.31	0.00
367.51	0.00
367.70	0.00
367.90	4.68
368.10	4.68
368.30	0.00
368.49	0.00
368.69	56.17
368.89	0.00
369.09	0.00
369.28	0.00
369.48	0.00
369.68	0.00
369.87	42.13
370.07	23.41
370.27	93.62
370.47	0.00
370.66	49.15
370.86	149.79
371.06	159.16
371.25	98.30
371.45	44.47
371.65	126.39
371.84	117.03
372.04	25.75
372.24	145.11
372.44	84.26
372.63	215.33
372.83	128.73
373.03	93.62
373.22	196.60
373.42	191.92
373.62	159.16
373.81	203.63
374.01	184.90
374.21	161.50
374.40	149.79
374.60	220.01
374.79	133.41
374.99	98.30
375.19	112.35
375.38	191.92
375.58	175.54
375.78	205.97
375.97	210.65
376.17	196.60
376.37	154.48
376.56	168.52
376.76	147.45
376.95	189.58
377.15	149.79
377.35	152.13
377.54	166.18
377.74	133.41
377.93	67.88
378.13	124.05
378.33	205.97
378.52	58.51
378.72	210.65
378.91	215.33
379.11	126.39
379.31	119.37
379.50	49.15
379.70	182.56
379.89	159.16
380.09	91.28
380.28	154.48
380.48	135.75
380.68	142.77
380.87	138.09
381.07	142.77
381.26	107.66
381.46	159.16
381.65	100.64
381.85	72.56
382.04	117.03
382.24	77.24
382.43	105.32
382.63	198.95
382.83	138.09
383.02	93.62
383.22	142.77
383.41	95.96
383.61	121.71
383.80	189.58
384.00	95.96
384.19	77.24
384.39	100.64
384.58	154.48
384.78	187.24
384.97	126.39
385.17	180.22
385.36	161.50
385.56	196.60
385.75	187.24
385.95	110.01
386.14	189.58
386.34	84.26
386.53	196.60
386.72	173.20
386.92	203.63
387.11	177.88
387.31	145.11
387.50	72.56
387.70	102.98
387.89	184.90
388.09	124.05
388.28	114.69
388.48	114.69
388.67	124.05
388.86	140.43
389.06	149.79
389.25	161.50
389.45	107.66
389.64	114.69
389.84	187.24
390.03	159.16
390.22	98.30
390.42	201.29
390.61	138.09
390.81	156.82
391.00	159.16
391.19	114.69
391.39	72.56
391.58	133.41
391.78	88.94
391.97	161.50
392.16	119.37
392.36	124.05
392.55	100.64
392.75	100.64
392.94	128.73
393.13	145.11
393.33	98.30
393.52	110.01
393.71	128.73
393.91	138.09
394.10	145.11
394.29	189.58
394.49	102.98
394.68	187.24
394.88	208.31
395.07	138.09
395.26	163.84
395.46	117.03
395.65	152.13
395.84	187.24
396.04	245.76
396.23	147.45
396.42	102.98
396.62	168.52
396.81	175.54
397.00	117.03
397.19	145.11
397.39	135.75
397.58	194.26
397.77	201.29
397.97	60.85
398.16	121.71
398.35	191.92
398.55	121.71
398.74	159.16
398.93	117.03
399.12	161.50
399.32	126.39
399.51	93.62
399.70	147.45
399.90	149.79
400.09	112.35
400.28	93.62
400.47	37.45
400.67	180.22
400.86	88.94
401.05	102.98
401.24	98.30
401.44	166.18
401.63	166.18
401.82	177.88
402.01	154.48
402.21	198.95
402.40	173.20
402.59	184.90
402.78	187.24
402.97	133.41
403.17	145.11
403.36	231.71
403.55	182.56
403.74	140.43
403.93	72.56
404.13	145.11
404.32	229.37
404.51	196.60
404.70	194.26
404.89	154.48
405.09	215.33
405.28	142.77
405.47	189.58
405.66	222.35
405.85	189.58
406.05	189.58
406.24	177.88
406.43	198.95
406.62	191.92
406.81	224.69
407.00	110.01
407.20	208.31
407.39	84.26
407.58	156.82
407.77	175.54
407.96	161.50
408.15	187.24
408.34	187.24
408.54	224.69
408.73	107.66
408.92	124.05
409.11	154.48
409.30	175.54
409.49	138.09
409.68	177.88
409.87	187.24
410.07	142.77
410.26	145.11
410.45	147.45
410.64	65.54
410.83	149.79
411.02	128.73
411.21	168.52
411.40	173.20
411.59	168.52
411.78	180.22
411.98	154.48
412.17	124.05
412.36	114.69
412.55	67.88
412.74	140.43
412.93	180.22
413.12	124.05
413.31	248.10
413.50	163.84
413.69	175.54
413.88	110.01
414.07	131.07
414.26	147.45
414.45	124.05
414.64	110.01
414.83	112.35
415.02	177.88
415.22	184.90
415.41	217.67
415.60	182.56
415.79	203.63
415.98	166.18
416.17	112.35
416.36	224.69
416.55	194.26
416.74	177.88
416.93	163.84
417.12	140.43
417.31	145.11
417.50	196.60
417.69	259.80
417.88	131.07
418.07	88.94
418.26	173.20
418.45	131.07
418.64	156.82
418.83	156.82
419.02	191.92
419.21	21.06
419.39	154.48
419.58	117.03
419.77	152.13
419.96	175.54
420.15	250.44
420.34	177.88
420.53	154.48
420.72	229.37
420.91	201.29
421.10	149.79
421.29	152.13
421.48	220.01
421.67	210.65
421.86	217.67
422.05	208.31
422.24	238.73
422.43	201.29
422.61	170.86
422.80	184.90
422.99	177.88
423.18	105.32
423.37	220.01
423.56	117.03
423.75	177.88
423.94	77.24
424.13	117.03
424.32	215.33
424.50	156.82
424.69	147.45
424.88	140.43
425.07	191.92
425.26	152.13
425.45	241.08
425.64	135.75
425.83	142.77
426.01	166.18
426.20	191.92
426.39	156.82
426.58	189.58
426.77	215.33
426.96	173.20
427.15	140.43
427.33	149.79
427.52	191.92
427.71	173.20
427.90	173.20
428.09	154.48
428.28	215.33
428.46	147.45
428.65	145.11
428.84	138.09
429.03	238.73
429.22	117.03
429.40	114.69
429.59	138.09
429.78	159.16
429.97	163.84
430.16	140.43
430.34	191.92
430.53	175.54
430.72	227.03
430.91	138.09
431.10	110.01
431.28	175.54
431.47	217.67
431.66	142.77
431.85	135.75
432.03	149.79
432.22	215.33
432.41	175.54
432.60	154.48
432.79	182.56
432.97	149.79
433.16	170.86
433.35	124.05
433.54	156.82
433.72	212.99
433.91	175.54
434.10	140.43
434.28	142.77
434.47	236.39
434.66	161.50
434.85	236.39
435.03	166.18
435.22	332.36
435.41	411.93
435.59	360.44
435.78	294.91
435.97	266.82
436.16	234.05
436.34	114.69
436.53	191.92
436.72	170.86
436.90	147.45
437.09	266.82
437.28	173.20
437.46	159.16
437.65	205.97
437.84	194.26
438.02	147.45
438.21	194.26
438.40	114.69
438.58	180.22
438.77	180.22
438.96	191.92
439.14	173.20
439.33	220.01
439.52	154.48
439.70	177.88
439.89	187.24
440.08	145.11
440.26	231.71
440.45	215.33
440.63	203.63
440.82	224.69
441.01	166.18
441.19	191.92
441.38	175.54
441.57	220.01
441.75	262.14
441.94	194.26
442.12	196.60
442.31	255.12
442.50	91.28
442.68	135.75
442.87	203.63
443.05	91.28
443.24	194.26
443.43	173.20
443.61	198.95
443.80	217.67
443.98	184.90
444.17	138.09
444.35	142.77
444.54	191.92
444.73	102.98
444.91	231.71
445.10	191.92
445.28	149.79
445.47	140.43
445.65	189.58
445.84	173.20
446.02	180.22
446.21	168.52
446.39	163.84
446.58	205.97
446.77	166.18
446.95	175.54
447.14	168.52
447.32	215.33
447.51	156.82
447.69	163.84
447.88	189.58
448.06	173.20
448.25	142.77
448.43	170.86
448.62	196.60
448.80	159.16
448.99	203.63
449.17	182.56
449.36	184.90
449.54	163.84
449.73	187.24
449.91	229.37
450.10	217.67
450.28	215.33
450.46	273.84
450.65	236.39
450.83	149.79
451.02	177.88
451.20	273.84
451.39	297.25
451.57	187.24
451.76	170.86
451.94	154.48
452.13	133.41
452.31	220.01
452.49	126.39
452.68	138.09
452.86	222.35
453.05	229.37
453.23	168.52
453.42	117.03
453.60	215.33
453.78	177.88
453.97	149.79
454.15	285.55
454.34	173.20
454.52	138.09
454.70	191.92
454.89	161.50
455.07	173.20
455.26	222.35
455.44	210.65
455.62	117.03
455.81	243.42
455.99	168.52
456.17	229.37
456.36	217.67
456.54	222.35
456.73	238.73
456.91	182.56
457.09	224.69
457.28	210.65
457.46	126.39
457.64	205.97
457.83	147.45
458.01	170.86
458.19	194.26
458.38	152.13
458.56	203.63
458.74	184.90
458.93	212.99
459.11	156.82
459.29	152.13
459.48	215.33
459.66	273.84
459.84	198.95
460.03	301.93
460.21	224.69
460.39	227.03
460.57	154.48
460.76	196.60
460.94	180.22
461.12	196.60
461.31	184.90
461.49	220.01
461.67	222.35
461.85	173.20
462.04	187.24
462.22	627.26
462.40	217.67
462.59	271.50
462.77	166.18
462.95	205.97
463.13	203.63
463.32	168.52
463.50	217.67
463.68	241.08
463.86	196.60
464.05	166.18
464.23	217.67
464.41	283.20
464.59	126.39
464.78	180.22
464.96	215.33
465.14	215.33
465.32	189.58
465.50	245.76
465.69	283.20
465.87	142.77
466.05	180.22
466.23	166.18
466.41	243.42
466.60	201.29
466.78	182.56
466.96	217.67
467.14	131.07
467.32	250.44
467.51	224.69
467.69	217.67
467.87	234.05
468.05	287.89
468.23	311.29
468.41	248.10
468.60	201.29
468.78	212.99
468.96	203.63
469.14	196.60
469.32	212.99
469.50	187.24
469.69	140.43
469.87	245.76
470.05	198.95
470.23	112.35
470.41	177.88
470.59	168.52
470.77	191.92
470.95	156.82
471.14	238.73
471.32	149.79
471.50	234.05
471.68	248.10
471.86	196.60
472.04	166.18
472.22	156.82
472.40	187.24
472.58	231.71
472.77	189.58
472.95	168.52
473.13	201.29
473.31	217.67
473.49	173.20
473.67	156.82
473.85	257.46
474.03	187.24
474.21	201.29
474.39	205.97
474.57	238.73
474.75	229.37
474.93	196.60
475.12	168.52
475.30	220.01
475.48	133.41
475.66	210.65
475.84	220.01
476.02	173.20
476.20	196.60
476.38	229.37
476.56	259.80
476.74	168.52
476.92	175.54
477.10	161.50
477.28	208.31
477.46	177.88
477.64	224.69
477.82	173.20
478.00	210.65
478.18	222.35
478.36	245.76
478.54	280.86
478.72	229.37
478.90	220.01
479.08	259.80
479.26	241.08
479.44	215.33
479.62	241.08
479.80	175.54
479.98	231.71
480.16	182.56
480.34	194.26
480.52	212.99
480.70	194.26
480.88	234.05
481.06	198.95
481.24	180.22
481.41	187.24
481.59	168.52
481.77	257.46
481.95	234.05
482.13	224.69
482.31	234.05
482.49	168.52
482.67	194.26
482.85	259.80
483.03	210.65
483.21	238.73
483.39	208.31
483.57	163.84
483.74	241.08
483.92	212.99
484.10	166.18
484.28	243.42
484.46	313.63
484.64	238.73
484.82	184.90
485.00	227.03
485.18	231.71
485.35	231.71
485.53	220.01
485.71	168.52
485.89	231.71
486.07	220.01
486.25	276.18
486.43	252.78
486.61	217.67
486.78	229.37
486.96	177.88
487.14	248.10
487.32	208.31
487.50	283.20
487.68	290.23
487.85	156.82
488.03	177.88
488.21	264.48
488.39	229.37
488.57	248.10
488.75	217.67
488.92	533.64
489.10	259.80
489.28	276.18
489.46	215.33
489.64	205.97
489.81	236.39
489.99	411.93
490.17	241.08
490.35	339.38
490.53	196.60
490.70	271.50
490.88	243.42
491.06	238.73
491.24	222.35
491.41	238.73
491.59	280.86
491.77	170.86
491.95	252.78
492.13	280.86
492.30	297.25
492.48	217.67
492.66	229.37
492.84	227.03
493.01	215.33
493.19	252.78
493.37	325.33
493.54	208.31
493.72	245.76
493.90	194.26
494.08	191.92
494.25	257.46
494.43	257.46
494.61	278.52
494.79	184.90
494.96	196.60
495.14	243.42
495.32	243.42
495.49	252.78
495.67	229.37
495.85	198.95
496.02	173.20
496.20	257.46
496.38	294.91
496.55	259.80
496.73	196.60
496.91	234.05
497.09	287.89
497.26	301.93
497.44	299.59
497.62	234.05
497.79	217.67
497.97	203.63
498.14	212.99
498.32	245.76
498.50	252.78
498.67	241.08
498.85	294.91
499.03	287.89
499.20	217.67
499.38	276.18
499.56	276.18
499.73	313.63
499.91	259.80
500.08	318.31
500.26	266.82
500.44	276.18
500.61	229.37
500.79	259.80
500.97	264.48
501.14	257.46
501.32	227.03
501.49	278.52
501.67	215.33
501.84	201.29
502.02	205.97
502.20	234.05
502.37	236.39
502.55	220.01
502.72	262.14
502.90	283.20
503.07	241.08
503.25	248.10
503.43	224.69
503.60	194.26
503.78	198.95
503.95	290.23
504.13	248.10
504.30	198.95
504.48	273.84
504.65	322.99
504.83	264.48
505.01	243.42
505.18	262.14
505.36	257.46
505.53	212.99
505.71	234.05
505.88	273.84
506.06	271.50
506.23	184.90
506.41	234.05
506.58	203.63
506.76	205.97
506.93	238.73
507.11	276.18
507.28	198.95
507.46	208.31
507.63	241.08
507.81	234.05
507.98	271.50
508.16	243.42
508.33	248.10
508.50	355.76
508.68	220.01
508.85	280.86
509.03	234.05
509.20	248.10
509.38	234.05
509.55	290.23
509.73	322.99
509.90	271.50
510.08	238.73
510.25	248.10
510.42	266.82
510.60	238.73
510.77	248.10
510.95	229.37
511.12	208.31
511.30	224.69
511.47	341.72
511.64	257.46
511.82	224.69
511.99	234.05
512.17	351.08
512.34	252.78
512.51	187.24
512.69	255.12
512.86	217.67
513.04	238.73
513.21	220.01
513.38	210.65
513.56	215.33
513.73	201.29
513.90	241.08
514.08	212.99
514.25	297.25
514.43	294.91
514.60	276.18
514.77	252.78
514.95	259.80
515.12	248.10
515.29	266.82
515.47	201.29
515.64	262.14
515.81	245.76
515.99	269.16
516.16	245.76
516.33	313.63
516.51	173.20
516.68	220.01
516.85	250.44
517.03	184.90
517.20	276.18
517.37	208.31
517.54	245.76
517.72	313.63
517.89	234.05
518.06	175.54
518.24	285.55
518.41	292.57
518.58	187.24
518.75	212.99
518.93	273.84
519.10	245.76
519.27	133.41
519.45	238.73
519.62	222.35
519.79	278.52
519.96	318.31
520.14	304.27
520.31	278.52
520.48	180.22
520.65	285.55
520.83	290.23
521.00	299.59
521.17	276.18
521.34	227.03
521.52	278.52
521.69	255.12
521.86	266.82
522.03	301.93
522.20	320.65
522.38	205.97
522.55	285.55
522.72	234.05
522.89	266.82
523.07	283.20
523.24	283.20
523.41	236.39
523.58	273.84
523.75	262.14
523.92	283.20
524.10	135.75
524.27	264.48
524.44	217.67
524.61	290.23
524.78	271.50
524.96	222.35
525.13	285.55
525.30	294.91
525.47	299.59
525.64	271.50
525.81	273.84
525.98	227.03
526.16	269.16
526.33	210.65
526.50	156.82
526.67	285.55
526.84	264.48
527.01	264.48
527.18	257.46
527.36	278.52
527.53	280.86
527.70	322.99
527.87	292.57
528.04	278.52
528.21	292.57
528.38	241.08
528.55	322.99
528.72	283.20
528.89	346.40
529.07	241.08
529.24	262.14
529.41	327.68
529.58	322.99
529.75	255.12
529.92	264.48
530.09	285.55
530.26	332.36
530.43	386.19
530.60	227.03
530.77	266.82
530.94	306.61
531.11	271.50
531.28	182.56
531.46	271.50
531.63	250.44
531.80	241.08
531.97	241.08
532.14	334.70
532.31	255.12
532.48	285.55
532.65	278.52
532.82	276.18
532.99	266.82
533.16	196.60
533.33	241.08
533.50	283.20
533.67	229.37
533.84	208.31
534.01	290.23
534.18	191.92
534.35	252.78
534.52	252.78
534.69	327.68
534.86	250.44
535.03	271.50
535.20	334.70
535.37	327.68
535.54	311.29
535.71	280.86
535.88	266.82
536.05	285.55
536.22	348.74
536.38	299.59
536.55	259.80
536.72	292.57
536.89	266.82
537.06	271.50
537.23	283.20
537.40	297.25
537.57	285.55
537.74	285.55
537.91	290.23
538.08	311.29
538.25	294.91
538.42	203.63
538.59	346.40
538.75	327.68
538.92	365.12
539.09	283.20
539.26	327.68
539.43	339.38
539.60	341.72
539.77	351.08
539.94	397.89
540.11	330.02
540.28	301.93
540.44	381.51
540.61	332.36
540.78	372.15
540.95	468.11
541.12	463.43
541.29	540.66
541.46	596.84
541.62	491.51
541.79	388.53
541.96	528.96
542.13	397.89
542.30	362.78
542.47	463.43
542.63	395.55
542.80	423.64
542.97	442.36
543.14	425.98
543.31	353.42
543.48	461.09
543.64	479.81
543.81	409.59
543.98	461.09
544.15	402.57
544.32	379.17
544.48	395.55
544.65	484.49
544.82	416.62
544.99	404.91
545.16	468.11
545.32	414.27
545.49	575.77
545.66	713.86
545.83	725.57
546.00	627.26
546.16	543.00
546.33	454.06
546.50	388.53
546.67	397.89
546.83	386.19
547.00	257.46
547.17	322.99
547.34	257.46
547.50	390.87
547.67	374.49
547.84	297.25
548.00	318.31
548.17	311.29
548.34	397.89
548.51	386.19
548.67	313.63
548.84	372.15
549.01	393.21
549.18	334.70
549.34	322.99
549.51	360.44
549.68	388.53
549.84	367.46
550.01	294.91
550.18	334.70
550.34	355.76
550.51	255.12
550.68	397.89
550.84	271.50
551.01	322.99
551.18	290.23
551.34	271.50
551.51	271.50
551.68	264.48
551.84	285.55
552.01	236.39
552.18	252.78
552.34	297.25
552.51	337.04
552.68	325.33
552.84	264.48
553.01	308.95
553.18	322.99
553.34	318.31
553.51	297.25
553.67	266.82
553.84	262.14
554.01	337.04
554.17	290.23
554.34	227.03
554.51	248.10
554.67	278.52
554.84	318.31
555.00	266.82
555.17	327.68
555.33	285.55
555.50	231.71
555.67	318.31
555.83	255.12
556.00	280.86
556.16	449.38
556.33	337.04
556.50	269.16
556.66	276.18
556.83	255.12
556.99	292.57
557.16	273.84
557.32	203.63
557.49	224.69
557.65	217.67
557.82	243.42
557.98	301.93
558.15	285.55
558.32	278.52
558.48	280.86
558.65	224.69
558.81	344.06
558.98	170.86
559.14	280.86
559.31	318.31
559.47	297.25
559.64	231.71
559.80	334.70
559.97	198.95
560.13	257.46
560.30	229.37
560.46	217.67
560.63	283.20
560.79	245.76
560.96	257.46
561.12	236.39
561.29	257.46
561.45	236.39
561.61	250.44
561.78	327.68
561.94	212.99
562.11	269.16
562.27	257.46
562.44	212.99
562.60	280.86
562.77	292.57
562.93	287.89
563.10	229.37
563.26	198.95
563.42	220.01
563.59	299.59
563.75	245.76
563.92	287.89
564.08	217.67
564.24	297.25
564.41	250.44
564.57	297.25
564.74	187.24
564.90	252.78
565.07	308.95
565.23	259.80
565.39	273.84
565.56	325.33
565.72	283.20
565.88	276.18
566.05	224.69
566.21	280.86
566.38	290.23
566.54	238.73
566.70	212.99
566.87	257.46
567.03	227.03
567.19	208.31
567.36	304.27
567.52	234.05
567.68	231.71
567.85	189.58
568.01	264.48
568.17	248.10
568.34	262.14
568.50	311.29
568.66	224.69
568.83	320.65
568.99	184.90
569.15	203.63
569.32	250.44
569.48	278.52
569.64	196.60
569.81	313.63
569.97	234.05
570.13	255.12
570.30	266.82
570.46	212.99
570.62	231.71
570.78	257.46
570.95	255.12
571.11	311.29
571.27	243.42
571.43	217.67
571.60	250.44
571.76	215.33
571.92	278.52
572.09	217.67
572.25	278.52
572.41	262.14
572.57	229.37
572.74	229.37
572.90	241.08
573.06	241.08
573.22	278.52
573.38	287.89
573.55	259.80
573.71	210.65
573.87	264.48
574.03	227.03
574.20	332.36
574.36	191.92
574.52	229.37
574.68	121.71
574.84	262.14
575.01	203.63
575.17	276.18
575.33	266.82
575.49	341.72
575.65	287.89
575.82	201.29
575.98	245.76
576.14	257.46
576.30	386.19
576.46	325.33
576.62	390.87
576.79	346.40
576.95	241.08
577.11	205.97
577.27	243.42
577.43	285.55
577.59	325.33
577.75	269.16
577.92	311.29
578.08	220.01
578.24	276.18
578.40	313.63
578.56	313.63
578.72	318.31
578.88	358.10
579.04	306.61
579.21	320.65
579.37	262.14
579.53	311.29
579.69	257.46
579.85	196.60
580.01	269.16
580.17	290.23
580.33	245.76
580.49	198.95
580.65	285.55
580.82	320.65
580.98	252.78
581.14	332.36
581.30	217.67
581.46	304.27
581.62	250.44
581.78	231.71
581.94	297.25
582.10	231.71
582.26	224.69
582.42	271.50
582.58	255.12
582.74	248.10
582.90	292.57
583.06	315.97
583.22	224.69
583.38	287.89
583.54	292.57
583.70	388.53
583.86	318.31
584.02	299.59
584.18	297.25
584.34	264.48
584.50	351.08
584.66	779.40
584.82	1404.32
584.98	1919.24
585.14	1788.17
585.30	1277.93
585.46	842.59
585.62	631.94
585.78	468.11
585.94	360.44
586.10	318.31
586.26	269.16
586.42	327.68
586.58	395.55
586.74	311.29
586.90	332.36
587.06	315.97
587.22	287.89
587.38	248.10
587.54	252.78
587.70	365.12
587.86	451.72
588.02	475.13
588.18	374.49
588.34	348.74
588.49	280.86
588.65	273.84
588.81	231.71
588.97	184.90
589.13	203.63
589.29	229.37
589.45	381.51
589.61	255.12
589.77	269.16
589.93	229.37
590.08	259.80
590.24	243.42
590.40	264.48
590.56	304.27
590.72	271.50
590.88	266.82
591.04	227.03
591.20	313.63
591.35	259.80
591.51	257.46
591.67	191.92
591.83	278.52
591.99	332.36
592.15	262.14
592.31	255.12
592.46	304.27
592.62	217.67
592.78	248.10
592.94	273.84
593.10	269.16
593.26	215.33
593.41	299.59
593.57	238.73
593.73	201.29
593.89	313.63
594.05	454.06
594.20	421.30
594.36	381.51
594.52	330.02
594.68	355.76
594.84	222.35
594.99	231.71
595.15	215.33
595.31	264.48
595.47	252.78
595.62	280.86
595.78	194.26
595.94	308.95
596.10	175.54
596.25	227.03
596.41	290.23
596.57	205.97
596.73	241.08
596.88	238.73
597.04	348.74
597.20	259.80
597.36	322.99
597.51	262.14
597.67	250.44
597.83	271.50
597.99	294.91
598.14	299.59
598.30	264.48
598.46	224.69
598.61	269.16
598.77	318.31
598.93	222.35
599.09	353.42
599.24	273.84
599.40	313.63
599.56	334.70
599.71	285.55
599.87	294.91
600.03	248.10
600.18	337.04
600.34	231.71
600.50	271.50
600.65	241.08
600.81	278.52
600.97	231.71
601.12	238.73
601.28	348.74
601.44	248.10
601.59	210.65
601.75	163.84
601.91	283.20
602.06	198.95
602.22	257.46
602.37	257.46
602.53	224.69
602.69	332.36
602.84	297.25
603.00	273.84
603.16	252.78
603.31	236.39
603.47	334.70
603.62	222.35
603.78	255.12
603.94	257.46
604.09	184.90
604.25	297.25
604.40	236.39
604.56	287.89
604.71	210.65
604.87	257.46
605.03	301.93
605.18	252.78
605.34	290.23
605.49	238.73
605.65	217.67
605.80	208.31
605.96	259.80
606.12	203.63
606.27	299.59
606.43	257.46
606.58	301.93
606.74	327.68
606.89	379.17
607.05	348.74
607.20	362.78
607.36	479.81
607.51	330.02
607.67	243.42
607.82	264.48
607.98	255.12
608.13	234.05
608.29	299.59
608.44	287.89
608.60	243.42
608.75	320.65
608.91	290.23
609.06	409.59
609.22	566.41
609.37	678.76
609.53	554.71
609.68	559.39
609.84	383.85
609.99	421.30
610.15	400.23
610.30	489.17
610.46	620.24
610.61	564.07
610.76	711.52
610.92	777.06
