SpectraSuite Data File
++++++++++++++++++++++++++++++++++++
Date: Fri Oct 04 11:33:53 GMT-05:00 2013
User: price-jones
Dark Spectrum Present: No
Reference Spectrum Present: No
Number of Sampled Component Spectra: 1
Spectrometers: USB2+H05261
Integration Time (usec): 100000 (USB2+H05261)
Spectra Averaged: 1 (USB2+H05261)
Boxcar Smoothing: 0 (USB2+H05261)
Correct for Electrical Dark: No (USB2+H05261)
Strobe/Lamp Enabled: No (USB2+H05261)
Correct for Detector Non-linearity: No (USB2+H05261)
Correct for Stray Light: No (USB2+H05261)
Number of Pixels in Processed Spectrum: 2048
>>>>>Begin Processed Spectral Data<<<<<
365.73	133.41
365.92	133.41
366.12	133.41
366.32	51.49
366.52	0.00
366.72	30.43
366.91	0.00
367.11	0.00
367.31	0.00
367.51	0.00
367.70	0.00
367.90	0.00
368.10	0.00
368.30	0.00
368.49	0.00
368.69	0.00
368.89	0.00
369.09	0.00
369.28	18.72
369.48	30.43
369.68	0.00
369.87	23.41
370.07	0.00
370.27	9.36
370.47	79.58
370.66	46.81
370.86	67.88
371.06	100.64
371.25	163.84
371.45	88.94
371.65	91.28
371.84	112.35
372.04	84.26
372.24	170.86
372.44	114.69
372.63	98.30
372.83	147.45
373.03	152.13
373.22	95.96
373.42	147.45
373.62	119.37
373.81	234.05
374.01	222.35
374.21	30.43
374.40	184.90
374.60	142.77
374.79	140.43
374.99	93.62
375.19	95.96
375.38	112.35
375.58	126.39
375.78	149.79
375.97	159.16
376.17	238.73
376.37	84.26
376.56	163.84
376.76	124.05
376.95	121.71
377.15	203.63
377.35	142.77
377.54	147.45
377.74	124.05
377.93	145.11
378.13	145.11
378.33	147.45
378.52	149.79
378.72	145.11
378.91	163.84
379.11	161.50
379.31	140.43
379.50	187.24
379.70	177.88
379.89	159.16
380.09	184.90
380.28	138.09
380.48	114.69
380.68	93.62
380.87	91.28
381.07	142.77
381.26	163.84
381.46	135.75
381.65	212.99
381.85	135.75
382.04	95.96
382.24	114.69
382.43	112.35
382.63	152.13
382.83	140.43
383.02	142.77
383.22	159.16
383.41	95.96
383.61	170.86
383.80	173.20
384.00	110.01
384.19	152.13
384.39	93.62
384.58	191.92
384.78	191.92
384.97	126.39
385.17	128.73
385.36	93.62
385.56	229.37
385.75	121.71
385.95	205.97
386.14	205.97
386.34	95.96
386.53	95.96
386.72	105.32
386.92	147.45
387.11	152.13
387.31	124.05
387.50	98.30
387.70	84.26
387.89	142.77
388.09	152.13
388.28	152.13
388.48	107.66
388.67	112.35
388.86	170.86
389.06	156.82
389.25	173.20
389.45	70.22
389.64	152.13
389.84	124.05
390.03	95.96
390.22	184.90
390.42	133.41
390.61	124.05
390.81	154.48
391.00	175.54
391.19	145.11
391.39	154.48
391.58	191.92
391.78	110.01
391.97	100.64
392.16	177.88
392.36	182.56
392.55	194.26
392.75	182.56
392.94	110.01
393.13	163.84
393.33	177.88
393.52	170.86
393.71	149.79
393.91	149.79
394.10	154.48
394.29	184.90
394.49	229.37
394.68	194.26
394.88	229.37
395.07	177.88
395.26	191.92
395.46	168.52
395.65	142.77
395.84	124.05
396.04	208.31
396.23	117.03
396.42	112.35
396.62	140.43
396.81	170.86
397.00	147.45
397.19	145.11
397.39	140.43
397.58	131.07
397.77	124.05
397.97	140.43
398.16	182.56
398.35	201.29
398.55	140.43
398.74	126.39
398.93	170.86
399.12	217.67
399.32	88.94
399.51	79.58
399.70	149.79
399.90	194.26
400.09	126.39
400.28	203.63
400.47	117.03
400.67	156.82
400.86	224.69
401.05	154.48
401.24	166.18
401.44	187.24
401.63	177.88
401.82	126.39
402.01	117.03
402.21	135.75
402.40	140.43
402.59	124.05
402.78	170.86
402.97	156.82
403.17	133.41
403.36	212.99
403.55	210.65
403.74	280.86
403.93	257.46
404.13	222.35
404.32	252.78
404.51	187.24
404.70	215.33
404.89	180.22
405.09	238.73
405.28	142.77
405.47	159.16
405.66	215.33
405.85	220.01
406.05	180.22
406.24	203.63
406.43	180.22
406.62	168.52
406.81	205.97
407.00	112.35
407.20	100.64
407.39	156.82
407.58	159.16
407.77	187.24
407.96	248.10
408.15	84.26
408.34	180.22
408.54	227.03
408.73	201.29
408.92	156.82
409.11	175.54
409.30	191.92
409.49	154.48
409.68	210.65
409.87	133.41
410.07	138.09
410.26	182.56
410.45	159.16
410.64	147.45
410.83	128.73
411.02	152.13
411.21	201.29
411.40	166.18
411.59	152.13
411.78	180.22
411.98	128.73
412.17	105.32
412.36	140.43
412.55	112.35
412.74	131.07
412.93	189.58
413.12	189.58
413.31	191.92
413.50	124.05
413.69	110.01
413.88	166.18
414.07	191.92
414.26	212.99
414.45	168.52
414.64	154.48
414.83	166.18
415.02	147.45
415.22	154.48
415.41	250.44
415.60	156.82
415.79	182.56
415.98	170.86
416.17	166.18
416.36	243.42
416.55	173.20
416.74	212.99
416.93	269.16
417.12	177.88
417.31	182.56
417.50	203.63
417.69	257.46
417.88	142.77
418.07	152.13
418.26	177.88
418.45	182.56
418.64	262.14
418.83	241.08
419.02	227.03
419.21	189.58
419.39	149.79
419.58	173.20
419.77	276.18
419.96	208.31
420.15	234.05
420.34	152.13
420.53	194.26
420.72	222.35
420.91	159.16
421.10	117.03
421.29	154.48
421.48	177.88
421.67	163.84
421.86	166.18
422.05	135.75
422.24	180.22
422.43	175.54
422.61	180.22
422.80	161.50
422.99	163.84
423.18	107.66
423.37	212.99
423.56	180.22
423.75	163.84
423.94	145.11
424.13	51.49
424.32	147.45
424.50	121.71
424.69	182.56
424.88	227.03
425.07	142.77
425.26	210.65
425.45	220.01
425.64	210.65
425.83	301.93
426.01	255.12
426.20	196.60
426.39	166.18
426.58	142.77
426.77	170.86
426.96	248.10
427.15	236.39
427.33	238.73
427.52	135.75
427.71	170.86
427.90	161.50
428.09	152.13
428.28	110.01
428.46	210.65
428.65	138.09
428.84	177.88
429.03	278.52
429.22	154.48
429.40	79.58
429.59	224.69
429.78	177.88
429.97	110.01
430.16	159.16
430.34	173.20
430.53	187.24
430.72	175.54
430.91	191.92
431.10	112.35
431.28	173.20
431.47	126.39
431.66	177.88
431.85	201.29
432.03	168.52
432.22	259.80
432.41	166.18
432.60	259.80
432.79	201.29
432.97	227.03
433.16	245.76
433.35	196.60
433.54	203.63
433.72	182.56
433.91	215.33
434.10	290.23
434.28	243.42
434.47	187.24
434.66	208.31
434.85	166.18
435.03	243.42
435.22	308.95
435.41	418.96
435.59	397.89
435.78	294.91
435.97	220.01
436.16	287.89
436.34	149.79
436.53	170.86
436.72	203.63
436.90	187.24
437.09	212.99
437.28	217.67
437.46	131.07
437.65	217.67
437.84	222.35
438.02	250.44
438.21	175.54
438.40	140.43
438.58	194.26
438.77	217.67
438.96	166.18
439.14	142.77
439.33	147.45
439.52	140.43
439.70	201.29
439.89	304.27
440.08	138.09
440.26	166.18
440.45	250.44
440.63	173.20
440.82	175.54
441.01	147.45
441.19	196.60
441.38	142.77
441.57	187.24
441.75	140.43
441.94	173.20
442.12	227.03
442.31	210.65
442.50	131.07
442.68	210.65
442.87	201.29
443.05	163.84
443.24	229.37
443.43	166.18
443.61	229.37
443.80	152.13
443.98	191.92
444.17	196.60
444.35	203.63
444.54	142.77
444.73	191.92
444.91	203.63
445.10	224.69
445.28	105.32
445.47	205.97
445.65	175.54
445.84	175.54
446.02	201.29
446.21	243.42
446.39	149.79
446.58	205.97
446.77	131.07
446.95	182.56
447.14	189.58
447.32	229.37
447.51	205.97
447.69	168.52
447.88	203.63
448.06	248.10
448.25	220.01
448.43	168.52
448.62	229.37
448.80	187.24
448.99	262.14
449.17	142.77
449.36	187.24
449.54	234.05
449.73	133.41
449.91	224.69
450.10	189.58
450.28	280.86
450.46	173.20
450.65	203.63
450.83	227.03
451.02	212.99
451.20	88.94
451.39	149.79
451.57	231.71
451.76	175.54
451.94	194.26
452.13	161.50
452.31	147.45
452.49	257.46
452.68	142.77
452.86	191.92
453.05	220.01
453.23	238.73
453.42	180.22
453.60	203.63
453.78	229.37
453.97	217.67
454.15	208.31
454.34	210.65
454.52	224.69
454.70	189.58
454.89	194.26
455.07	203.63
455.26	180.22
455.44	191.92
455.62	212.99
455.81	187.24
455.99	147.45
456.17	191.92
456.36	135.75
456.54	140.43
456.73	191.92
456.91	180.22
457.09	205.97
457.28	201.29
457.46	187.24
457.64	173.20
457.83	224.69
458.01	220.01
458.19	234.05
458.38	220.01
458.56	152.13
458.74	154.48
458.93	241.08
459.11	210.65
459.29	191.92
459.48	201.29
459.66	252.78
459.84	152.13
460.03	259.80
460.21	147.45
460.39	138.09
460.57	257.46
460.76	201.29
460.94	245.76
461.12	259.80
461.31	248.10
461.49	231.71
461.67	208.31
461.85	138.09
462.04	138.09
462.22	622.58
462.40	194.26
462.59	212.99
462.77	220.01
462.95	205.97
463.13	147.45
463.32	217.67
463.50	224.69
463.68	191.92
463.86	269.16
464.05	205.97
464.23	287.89
464.41	182.56
464.59	196.60
464.78	177.88
464.96	177.88
465.14	234.05
465.32	238.73
465.50	217.67
465.69	234.05
465.87	149.79
466.05	217.67
466.23	156.82
466.41	168.52
466.60	196.60
466.78	259.80
466.96	222.35
467.14	215.33
467.32	276.18
467.51	217.67
467.69	210.65
467.87	198.95
468.05	177.88
468.23	290.23
468.41	159.16
468.60	175.54
468.78	203.63
468.96	229.37
469.14	175.54
469.32	154.48
469.50	173.20
469.69	170.86
469.87	152.13
470.05	255.12
470.23	159.16
470.41	133.41
470.59	208.31
470.77	245.76
470.95	227.03
471.14	241.08
471.32	142.77
471.50	212.99
471.68	266.82
471.86	236.39
472.04	177.88
472.22	173.20
472.40	124.05
472.58	98.30
472.77	194.26
472.95	128.73
473.13	264.48
473.31	220.01
473.49	194.26
473.67	177.88
473.85	264.48
474.03	189.58
474.21	238.73
474.39	271.50
474.57	198.95
474.75	257.46
474.93	222.35
475.12	175.54
475.30	156.82
475.48	152.13
475.66	220.01
475.84	135.75
476.02	215.33
476.20	220.01
476.38	220.01
476.56	252.78
476.74	217.67
476.92	220.01
477.10	205.97
477.28	287.89
477.46	210.65
477.64	215.33
477.82	110.01
478.00	173.20
478.18	236.39
478.36	184.90
478.54	222.35
478.72	212.99
478.90	203.63
479.08	201.29
479.26	154.48
479.44	177.88
479.62	196.60
479.80	201.29
479.98	182.56
480.16	168.52
480.34	189.58
480.52	205.97
480.70	196.60
480.88	201.29
481.06	212.99
481.24	318.31
481.41	248.10
481.59	201.29
481.77	227.03
481.95	159.16
482.13	187.24
482.31	255.12
482.49	170.86
482.67	231.71
482.85	198.95
483.03	257.46
483.21	318.31
483.39	161.50
483.57	262.14
483.74	287.89
483.92	304.27
484.10	234.05
484.28	306.61
484.46	287.89
484.64	198.95
484.82	220.01
485.00	217.67
485.18	257.46
485.35	304.27
485.53	182.56
485.71	255.12
485.89	177.88
486.07	241.08
486.25	297.25
486.43	271.50
486.61	245.76
486.78	285.55
486.96	163.84
487.14	257.46
487.32	184.90
487.50	191.92
487.68	259.80
487.85	229.37
488.03	287.89
488.21	252.78
488.39	278.52
488.57	222.35
488.75	224.69
488.92	547.69
489.10	189.58
489.28	271.50
489.46	255.12
489.64	234.05
489.81	234.05
489.99	283.20
490.17	227.03
490.35	266.82
490.53	262.14
490.70	259.80
490.88	348.74
491.06	229.37
491.24	184.90
491.41	297.25
491.59	315.97
491.77	234.05
491.95	327.68
492.13	292.57
492.30	205.97
492.48	278.52
492.66	229.37
492.84	285.55
493.01	163.84
493.19	250.44
493.37	283.20
493.54	245.76
493.72	229.37
493.90	271.50
494.08	198.95
494.25	161.50
494.43	255.12
494.61	264.48
494.79	285.55
494.96	227.03
495.14	191.92
495.32	292.57
495.49	341.72
495.67	278.52
495.85	280.86
496.02	224.69
496.20	341.72
496.38	248.10
496.55	271.50
496.73	224.69
496.91	191.92
497.09	315.97
497.26	145.11
497.44	229.37
497.62	222.35
497.79	262.14
497.97	252.78
498.14	191.92
498.32	308.95
498.50	301.93
498.67	259.80
498.85	287.89
499.03	285.55
499.20	334.70
499.38	269.16
499.56	215.33
499.73	348.74
499.91	250.44
500.08	227.03
500.26	234.05
500.44	217.67
500.61	285.55
500.79	229.37
500.97	248.10
501.14	299.59
501.32	252.78
501.49	337.04
501.67	229.37
501.84	294.91
502.02	301.93
502.20	227.03
502.37	224.69
502.55	320.65
502.72	297.25
502.90	220.01
503.07	264.48
503.25	255.12
503.43	283.20
503.60	266.82
503.78	269.16
503.95	222.35
504.13	222.35
504.30	266.82
504.48	234.05
504.65	252.78
504.83	269.16
505.01	252.78
505.18	294.91
505.36	299.59
505.53	285.55
505.71	210.65
505.88	259.80
506.06	269.16
506.23	238.73
506.41	248.10
506.58	208.31
506.76	224.69
506.93	215.33
507.11	339.38
507.28	238.73
507.46	283.20
507.63	245.76
507.81	259.80
507.98	224.69
508.16	191.92
508.33	252.78
508.50	304.27
508.68	252.78
508.85	278.52
509.03	252.78
509.20	243.42
509.38	341.72
509.55	278.52
509.73	325.33
509.90	250.44
510.08	187.24
510.25	252.78
510.42	198.95
510.60	248.10
510.77	250.44
510.95	315.97
511.12	245.76
511.30	280.86
511.47	416.62
511.64	374.49
511.82	315.97
511.99	259.80
512.17	245.76
512.34	320.65
512.51	262.14
512.69	222.35
512.86	264.48
513.04	271.50
513.21	262.14
513.38	248.10
513.56	250.44
513.73	250.44
513.90	196.60
514.08	278.52
514.25	203.63
514.43	248.10
514.60	362.78
514.77	259.80
514.95	287.89
515.12	290.23
515.29	278.52
515.47	227.03
515.64	311.29
515.81	311.29
515.99	250.44
516.16	285.55
516.33	273.84
516.51	271.50
516.68	266.82
516.85	264.48
517.03	271.50
517.20	301.93
517.37	245.76
517.54	241.08
517.72	269.16
517.89	257.46
518.06	177.88
518.24	320.65
518.41	383.85
518.58	269.16
518.75	245.76
518.93	285.55
519.10	283.20
519.27	276.18
519.45	285.55
519.62	252.78
519.79	313.63
519.96	224.69
520.14	212.99
520.31	287.89
520.48	294.91
520.65	308.95
520.83	248.10
521.00	287.89
521.17	287.89
521.34	327.68
521.52	297.25
521.69	252.78
521.86	238.73
522.03	299.59
522.20	330.02
522.38	299.59
522.55	234.05
522.72	252.78
522.89	315.97
523.07	400.23
523.24	285.55
523.41	313.63
523.58	245.76
523.75	266.82
523.92	245.76
524.10	264.48
524.27	297.25
524.44	236.39
524.61	276.18
524.78	189.58
524.96	266.82
525.13	297.25
525.30	306.61
525.47	212.99
525.64	262.14
525.81	257.46
525.98	400.23
526.16	276.18
526.33	224.69
526.50	255.12
526.67	161.50
526.84	229.37
527.01	241.08
527.18	313.63
527.36	196.60
527.53	210.65
527.70	280.86
527.87	245.76
528.04	344.06
528.21	257.46
528.38	287.89
528.55	304.27
528.72	381.51
528.89	262.14
529.07	308.95
529.24	278.52
529.41	276.18
529.58	266.82
529.75	325.33
529.92	337.04
530.09	252.78
530.26	285.55
530.43	264.48
530.60	315.97
530.77	273.84
530.94	311.29
531.11	248.10
531.28	229.37
531.46	269.16
531.63	292.57
531.80	297.25
531.97	292.57
532.14	252.78
532.31	238.73
532.48	266.82
532.65	379.17
532.82	461.09
532.99	393.21
533.16	346.40
533.33	383.85
533.50	308.95
533.67	360.44
533.84	362.78
534.01	500.87
534.18	433.00
534.35	337.04
534.52	269.16
534.69	334.70
534.86	339.38
535.03	290.23
535.20	276.18
535.37	276.18
535.54	306.61
535.71	290.23
535.88	332.36
536.05	327.68
536.22	308.95
536.38	318.31
536.55	332.36
536.72	407.25
536.89	255.12
537.06	234.05
537.23	306.61
537.40	313.63
537.57	341.72
537.74	330.02
537.91	269.16
538.08	301.93
538.25	255.12
538.42	301.93
538.59	351.08
538.75	360.44
538.92	341.72
539.09	383.85
539.26	306.61
539.43	550.03
539.60	861.32
539.77	1486.24
539.94	1598.59
540.11	1114.10
540.28	739.61
540.44	662.37
540.61	489.17
540.78	428.32
540.95	442.36
541.12	533.64
541.29	484.49
541.46	500.87
541.62	524.28
541.79	580.45
541.96	470.45
542.13	547.69
542.30	547.69
542.47	468.11
542.63	447.04
542.80	397.89
542.97	381.51
543.14	430.66
543.31	472.79
543.48	468.11
543.64	463.43
543.81	482.15
543.98	442.36
544.15	393.21
544.32	404.91
544.48	421.30
544.65	489.17
544.82	479.81
544.99	369.80
545.16	433.00
545.32	543.00
545.49	692.80
545.66	858.98
545.83	779.40
546.00	800.46
546.16	592.16
546.33	514.92
546.50	461.09
546.67	407.25
546.83	437.68
547.00	400.23
547.17	351.08
547.34	318.31
547.50	360.44
547.67	337.04
547.84	395.55
548.00	372.15
548.17	390.87
548.34	372.15
548.51	447.04
548.67	442.36
548.84	353.42
549.01	318.31
549.18	348.74
549.34	355.76
549.51	327.68
549.68	334.70
549.84	231.71
550.01	386.19
550.18	442.36
550.34	435.34
550.51	407.25
550.68	383.85
550.84	306.61
551.01	301.93
551.18	348.74
551.34	292.57
551.51	299.59
551.68	318.31
551.84	266.82
552.01	243.42
552.18	264.48
552.34	269.16
552.51	290.23
552.68	257.46
552.84	327.68
553.01	245.76
553.18	365.12
553.34	280.86
553.51	315.97
553.67	280.86
553.84	327.68
554.01	301.93
554.17	304.27
554.34	287.89
554.51	301.93
554.67	315.97
554.84	280.86
555.00	299.59
555.17	355.76
555.33	290.23
555.50	308.95
555.67	292.57
555.83	325.33
556.00	250.44
556.16	428.32
556.33	320.65
556.50	297.25
556.66	327.68
556.83	276.18
556.99	365.12
557.16	304.27
557.32	257.46
557.49	234.05
557.65	306.61
557.82	248.10
557.98	311.29
558.15	241.08
558.32	292.57
558.48	264.48
558.65	236.39
558.81	255.12
558.98	262.14
559.14	355.76
559.31	255.12
559.47	266.82
559.64	269.16
559.80	224.69
559.97	264.48
560.13	243.42
560.30	217.67
560.46	236.39
560.63	287.89
560.79	273.84
560.96	220.01
561.12	259.80
561.29	292.57
561.45	294.91
561.61	292.57
561.78	330.02
561.94	290.23
562.11	266.82
562.27	234.05
562.44	283.20
562.60	227.03
562.77	257.46
562.93	447.04
563.10	276.18
563.26	259.80
563.42	238.73
563.59	245.76
563.75	276.18
563.92	229.37
564.08	330.02
564.24	248.10
564.41	222.35
564.57	313.63
564.74	318.31
564.90	339.38
565.07	283.20
565.23	313.63
565.39	287.89
565.56	257.46
565.72	241.08
565.88	283.20
566.05	297.25
566.21	292.57
566.38	280.86
566.54	280.86
566.70	297.25
566.87	271.50
567.03	248.10
567.19	294.91
567.36	299.59
567.52	217.67
567.68	320.65
567.85	266.82
568.01	238.73
568.17	294.91
568.34	241.08
568.50	243.42
568.66	234.05
568.83	320.65
568.99	227.03
569.15	294.91
569.32	280.86
569.48	231.71
569.64	269.16
569.81	304.27
569.97	224.69
570.13	311.29
570.30	315.97
570.46	262.14
570.62	292.57
570.78	266.82
570.95	248.10
571.11	341.72
571.27	290.23
571.43	189.58
571.60	369.80
571.76	325.33
571.92	269.16
572.09	257.46
572.25	280.86
572.41	283.20
572.57	238.73
572.74	313.63
572.90	250.44
573.06	311.29
573.22	198.95
573.38	311.29
573.55	264.48
573.71	355.76
573.87	276.18
574.03	271.50
574.20	224.69
574.36	355.76
574.52	430.66
574.68	367.46
574.84	292.57
575.01	252.78
575.17	322.99
575.33	264.48
575.49	327.68
575.65	388.53
575.82	358.10
575.98	580.45
576.14	664.71
576.30	751.31
576.46	648.33
576.62	601.52
576.79	468.11
576.95	456.40
577.11	339.38
577.27	360.44
577.43	322.99
577.59	374.49
577.75	308.95
577.92	330.02
578.08	320.65
578.24	301.93
578.40	381.51
578.56	423.64
578.72	397.89
578.88	423.64
579.04	379.17
579.21	334.70
579.37	299.59
579.53	294.91
579.69	372.15
579.85	397.89
580.01	393.21
580.17	465.77
580.33	428.32
580.49	402.57
580.65	447.04
580.82	315.97
580.98	362.78
581.14	390.87
581.30	449.38
581.46	451.72
581.62	547.69
581.78	578.11
581.94	559.39
582.10	479.81
582.26	461.09
582.42	484.49
582.58	491.51
582.74	444.70
582.90	507.90
583.06	482.15
583.22	517.26
583.38	479.81
583.54	561.73
583.70	594.50
583.86	627.26
584.02	828.55
584.18	840.25
584.34	1144.52
584.50	2324.15
584.66	15665.21
584.82	46981.57
584.98	63372.34
585.14	63192.12
585.30	47899.06
585.46	26850.63
585.62	16716.11
585.78	7899.31
585.94	3033.33
586.10	1579.86
586.26	1013.45
586.42	795.78
586.58	744.29
586.74	594.50
586.90	592.16
587.06	650.67
587.22	643.65
587.38	550.03
587.54	980.68
587.70	2590.97
587.86	4990.02
588.02	6544.14
588.18	4585.11
588.34	2801.62
588.49	1916.90
588.65	1057.92
588.81	660.03
588.97	554.71
589.13	435.34
589.29	369.80
589.45	388.53
589.61	355.76
589.77	440.02
589.93	489.17
590.08	547.69
590.24	505.56
590.40	517.26
590.56	393.21
590.72	428.32
590.88	369.80
591.04	437.68
591.20	334.70
591.35	470.45
591.51	269.16
591.67	407.25
591.83	395.55
591.99	386.19
592.15	395.55
592.31	334.70
592.46	372.15
592.62	411.93
592.78	299.59
592.94	388.53
593.10	514.92
593.26	428.32
593.41	344.06
593.57	400.23
593.73	566.41
593.89	2085.42
594.05	5575.16
594.20	9741.31
594.36	10293.68
594.52	6773.51
594.68	3988.27
594.84	2759.49
594.99	1523.69
595.15	851.96
595.31	510.24
595.47	463.43
595.62	360.44
595.78	348.74
595.94	374.49
596.10	404.91
596.25	358.10
596.41	390.87
596.57	402.57
596.73	334.70
596.88	557.05
597.04	1151.54
597.20	1937.96
597.36	2668.21
597.51	2132.23
597.67	1401.98
597.83	943.24
597.99	674.07
598.14	442.36
598.30	465.77
598.46	416.62
598.61	430.66
598.77	369.80
598.93	376.83
599.09	409.59
599.24	407.25
599.40	358.10
599.56	383.85
599.71	351.08
599.87	276.18
600.03	351.08
600.18	301.93
600.34	362.78
600.50	262.14
600.65	269.16
600.81	278.52
600.97	241.08
601.12	290.23
601.28	262.14
601.44	271.50
601.59	341.72
601.75	294.91
601.91	212.99
602.06	348.74
602.22	388.53
602.37	608.54
602.53	1327.08
602.69	2424.80
602.84	2979.50
603.00	2155.63
603.16	1514.33
603.31	968.98
603.47	741.95
603.62	512.58
603.78	367.46
603.94	341.72
604.09	299.59
604.25	320.65
604.40	292.57
604.56	360.44
604.71	421.30
604.87	365.12
605.03	294.91
605.18	428.32
605.34	353.42
605.49	283.20
605.65	411.93
605.80	313.63
605.96	301.93
606.12	367.46
606.27	332.36
606.43	416.62
606.58	374.49
606.74	763.01
606.89	2534.80
607.05	5727.29
607.20	8978.30
607.36	7583.34
607.51	5102.37
607.67	3124.62
607.82	2113.50
607.98	1341.13
608.13	760.67
608.29	519.60
608.44	550.03
608.60	526.62
608.75	594.50
608.91	922.17
609.06	3688.68
609.22	9324.69
609.37	15625.42
609.53	14050.24
609.68	9146.81
609.84	5645.37
609.99	3918.06
610.15	2258.62
