SpectraSuite Data File
++++++++++++++++++++++++++++++++++++
Date: Fri Oct 04 12:13:57 GMT-05:00 2013
User: price-jones
Dark Spectrum Present: No
Reference Spectrum Present: No
Number of Sampled Component Spectra: 1
Spectrometers: USB2+H05261
Integration Time (usec): 1000000 (USB2+H05261)
Spectra Averaged: 1 (USB2+H05261)
Boxcar Smoothing: 0 (USB2+H05261)
Correct for Electrical Dark: No (USB2+H05261)
Strobe/Lamp Enabled: No (USB2+H05261)
Correct for Detector Non-linearity: No (USB2+H05261)
Correct for Stray Light: No (USB2+H05261)
Number of Pixels in Processed Spectrum: 2048
>>>>>Begin Processed Spectral Data<<<<<
365.73	44.47
365.92	44.47
366.12	44.47
366.32	0.00
366.52	0.00
366.72	341.72
366.91	84.26
367.11	322.99
367.31	175.54
367.51	262.14
367.70	315.97
367.90	498.53
368.10	313.63
368.30	313.63
368.49	112.35
368.69	519.60
368.89	341.72
369.09	187.24
369.28	311.29
369.48	126.39
369.68	266.82
369.87	351.08
370.07	191.92
370.27	636.63
370.47	414.27
370.66	313.63
370.86	449.38
371.06	744.29
371.25	940.90
371.45	442.36
371.65	655.35
371.84	362.78
372.04	348.74
372.24	482.15
372.44	346.40
372.63	617.90
372.83	770.04
373.03	461.09
373.22	351.08
373.42	372.15
373.62	451.72
373.81	564.07
374.01	732.59
374.21	631.94
374.40	475.13
374.60	774.72
374.79	475.13
374.99	482.15
375.19	580.45
375.38	638.97
375.58	505.56
375.78	636.63
375.97	683.44
376.17	992.39
376.37	589.82
376.56	582.79
376.76	435.34
376.95	416.62
377.15	568.75
377.35	540.66
377.54	667.05
377.74	489.17
377.93	374.49
378.13	514.92
378.33	692.80
378.52	468.11
378.72	653.01
378.91	620.24
379.11	465.77
379.31	470.45
379.50	306.61
379.70	730.25
379.89	706.84
380.09	442.36
380.28	383.85
380.48	491.51
380.68	435.34
380.87	243.42
381.07	521.94
381.26	793.44
381.46	697.48
381.65	638.97
381.85	472.79
382.04	454.06
382.24	624.92
382.43	451.72
382.63	299.59
382.83	351.08
383.02	711.52
383.22	748.97
383.41	301.93
383.61	477.47
383.80	482.15
384.00	491.51
384.19	388.53
384.39	568.75
384.58	444.70
384.78	608.54
384.97	641.31
385.17	543.00
385.36	402.57
385.56	617.90
385.75	280.86
385.95	454.06
386.14	676.41
386.34	418.96
386.53	573.43
386.72	461.09
386.92	809.83
387.11	669.39
387.31	573.43
387.50	346.40
387.70	330.02
387.89	475.13
388.09	374.49
388.28	351.08
388.48	365.12
388.67	660.03
388.86	543.00
389.06	526.62
389.25	545.34
389.45	568.75
389.64	486.83
389.84	809.83
390.03	617.90
390.22	493.85
390.42	543.00
390.61	397.89
390.81	322.99
391.00	477.47
391.19	779.40
391.39	470.45
391.58	767.70
391.78	479.81
391.97	596.84
392.16	411.93
392.36	805.14
392.55	690.46
392.75	472.79
392.94	435.34
393.13	697.48
393.33	332.36
393.52	411.93
393.71	758.33
393.91	559.39
394.10	376.83
394.29	503.22
394.49	484.49
394.68	716.20
394.88	894.08
395.07	784.08
395.26	543.00
395.46	582.79
395.65	678.76
395.84	587.47
396.04	1212.40
396.23	521.94
396.42	381.51
396.62	578.11
396.81	664.71
397.00	475.13
397.19	643.65
397.39	463.43
397.58	814.51
397.77	524.28
397.97	561.73
398.16	580.45
398.35	617.90
398.55	409.59
398.74	505.56
398.93	767.70
399.12	493.85
399.32	723.23
399.51	503.22
399.70	711.52
399.90	653.01
400.09	573.43
400.28	798.12
400.47	482.15
400.67	753.65
400.86	557.05
401.05	725.57
401.24	704.50
401.44	650.67
401.63	748.97
401.82	788.76
402.01	550.03
402.21	676.41
402.40	599.18
402.59	496.19
402.78	587.47
402.97	500.87
403.17	643.65
403.36	634.29
403.55	608.54
403.74	645.99
403.93	676.41
404.13	1086.01
404.32	674.07
404.51	594.50
404.70	807.48
404.89	475.13
405.09	976.00
405.28	622.58
405.47	402.57
405.66	674.07
405.85	856.64
406.05	678.76
406.24	587.47
406.43	667.05
406.62	685.78
406.81	1053.24
407.00	847.27
407.20	606.20
407.39	636.63
407.58	568.75
407.77	791.10
407.96	842.59
408.15	816.85
408.34	730.25
408.54	732.59
408.73	676.41
408.92	676.41
409.11	746.63
409.30	835.57
409.49	489.17
409.68	613.22
409.87	624.92
410.07	535.98
410.26	592.16
410.45	463.43
410.64	472.79
410.83	606.20
411.02	627.26
411.21	758.33
411.40	830.89
411.59	596.84
411.78	620.24
411.98	631.94
412.17	575.77
412.36	596.84
412.55	514.92
412.74	713.86
412.93	1064.94
413.12	512.58
413.31	755.99
413.50	704.50
413.69	631.94
413.88	938.55
414.07	770.04
414.26	770.04
414.45	627.26
414.64	695.14
414.83	753.65
415.02	685.78
415.22	856.64
415.41	1053.24
415.60	648.33
415.79	702.16
415.98	990.05
416.17	657.69
416.36	667.05
416.55	578.11
416.74	851.96
416.93	882.38
417.12	624.92
417.31	688.12
417.50	741.95
417.69	1198.35
417.88	889.40
418.07	667.05
418.26	870.68
418.45	772.38
418.64	1203.04
418.83	1090.69
419.02	985.37
419.21	856.64
419.39	994.73
419.58	674.07
419.77	828.55
419.96	992.39
420.15	1100.05
420.34	734.93
420.53	788.76
420.72	861.32
420.91	781.74
421.10	601.52
421.29	779.40
421.48	847.27
421.67	875.36
421.86	725.57
422.05	629.60
422.24	753.65
422.43	763.01
422.61	568.75
422.80	592.16
422.99	727.91
423.18	613.22
423.37	1048.56
423.56	826.21
423.75	809.83
423.94	505.56
424.13	741.95
424.32	599.18
424.50	767.70
424.69	692.80
424.88	1043.88
425.07	660.03
425.26	910.47
425.45	1128.14
425.64	875.36
425.83	940.90
426.01	1046.22
426.20	868.34
426.39	692.80
426.58	648.33
426.77	706.84
426.96	980.68
427.15	842.59
427.33	688.12
427.52	702.16
427.71	732.59
427.90	821.53
428.09	608.54
428.28	538.32
428.46	718.54
428.65	772.38
428.84	954.94
429.03	1100.05
429.22	641.31
429.40	587.47
429.59	617.90
429.78	1146.86
429.97	681.10
430.16	507.90
430.34	671.73
430.53	603.86
430.72	596.84
430.91	873.02
431.10	613.22
431.28	690.46
431.47	880.04
431.66	833.23
431.85	711.52
432.03	737.27
432.22	1200.69
432.41	763.01
432.60	1034.52
432.79	772.38
432.97	1287.29
433.16	1184.31
433.35	968.98
433.54	847.27
433.72	1036.86
433.91	924.51
434.10	819.19
434.28	954.94
434.47	774.72
434.66	1004.09
434.85	730.25
435.03	809.83
435.22	1062.60
435.41	1095.37
435.59	954.94
435.78	866.00
435.97	641.31
436.16	1121.12
436.34	741.95
436.53	795.78
436.72	1015.79
436.90	889.40
437.09	821.53
437.28	781.74
437.46	746.63
437.65	973.66
437.84	957.28
438.02	863.66
438.21	919.83
438.40	727.91
438.58	690.46
438.77	842.59
438.96	784.08
439.14	753.65
439.33	983.02
439.52	711.52
439.70	830.89
439.89	931.53
440.08	884.72
440.26	791.10
440.45	1144.52
440.63	976.00
440.82	812.17
441.01	819.19
441.19	870.68
441.38	833.23
441.57	826.21
441.75	1027.50
441.94	1071.97
442.12	940.90
442.31	844.93
442.50	884.72
442.68	809.83
442.87	809.83
443.05	837.91
443.24	884.72
443.43	1158.57
443.61	1095.37
443.80	873.02
443.98	751.31
444.17	781.74
444.35	1078.99
444.54	947.92
444.73	828.55
444.91	1097.71
445.10	706.84
445.28	732.59
445.47	929.19
445.65	908.13
445.84	821.53
446.02	887.06
446.21	791.10
446.39	858.98
446.58	922.17
446.77	908.13
446.95	823.87
447.14	1041.54
447.32	1231.12
447.51	858.98
447.69	954.94
447.88	891.74
448.06	1224.10
448.25	943.24
448.43	699.82
448.62	704.50
448.80	992.39
448.99	1109.41
449.17	816.85
449.36	849.61
449.54	1097.71
449.73	896.43
449.91	1022.81
450.10	922.17
450.28	1451.13
450.46	1437.09
450.65	1198.35
450.83	1062.60
451.02	954.94
451.20	980.68
451.39	917.49
451.57	823.87
451.76	755.99
451.94	917.49
452.13	1039.20
452.31	1132.82
452.49	964.30
452.68	807.48
452.86	999.41
453.05	1385.60
453.23	931.53
453.42	793.44
453.60	858.98
453.78	976.00
453.97	779.40
454.15	716.20
454.34	830.89
454.52	830.89
454.70	1191.33
454.89	1121.12
455.07	802.80
455.26	1060.26
455.44	1114.10
455.62	912.81
455.81	910.47
455.99	1130.48
456.17	992.39
456.36	880.04
456.54	837.91
456.73	793.44
456.91	854.30
457.09	973.66
457.28	1188.99
457.46	858.98
457.64	1104.73
457.83	936.21
458.01	755.99
458.19	912.81
458.38	901.11
458.56	978.34
458.74	765.36
458.93	957.28
459.11	870.68
459.29	828.55
459.48	1118.78
459.66	1338.79
459.84	1151.54
460.03	1781.15
460.21	1172.61
460.39	917.49
460.57	1207.72
460.76	1018.13
460.94	957.28
461.12	1378.58
461.31	1334.11
461.49	940.90
461.67	973.66
461.85	1006.43
462.04	999.41
462.22	5776.44
462.40	1203.04
462.59	1280.27
462.77	966.64
462.95	1025.15
463.13	858.98
463.32	1128.14
463.50	1053.24
463.68	1055.58
463.86	994.73
464.05	837.91
464.23	1135.16
464.41	1093.03
464.59	882.38
464.78	884.72
464.96	847.27
465.14	1043.88
465.32	887.06
465.50	1036.86
465.69	1156.22
465.87	809.83
466.05	1027.50
466.23	805.14
466.41	952.60
466.60	957.28
466.78	873.02
466.96	1123.46
467.14	1095.37
467.32	1233.46
467.51	1076.65
467.69	1093.03
467.87	1348.15
468.05	999.41
468.23	1362.19
468.41	1135.16
468.60	964.30
468.78	1114.10
468.96	1172.61
469.14	1057.92
469.32	777.06
469.50	882.38
469.69	1036.86
469.87	1107.07
470.05	1078.99
470.23	936.21
470.41	812.17
470.59	889.40
470.77	1015.79
470.95	931.53
471.14	1355.17
471.32	938.55
471.50	1341.13
471.68	1020.47
471.86	1043.88
472.04	856.64
472.22	992.39
472.40	821.53
472.58	863.66
472.77	800.46
472.95	919.83
473.13	1345.81
473.31	1235.80
473.49	882.38
473.67	854.30
473.85	1116.44
474.03	1172.61
474.21	978.34
474.39	1242.82
474.57	1350.49
474.75	1095.37
474.93	978.34
475.12	894.08
475.30	931.53
475.48	1008.77
475.66	1071.97
475.84	1060.26
476.02	1064.94
476.20	1188.99
476.38	1036.86
476.56	1659.44
476.74	1001.75
476.92	919.83
477.10	992.39
477.28	1207.72
477.46	1006.43
477.64	1170.27
477.82	1057.92
478.00	1081.33
478.18	1100.05
478.36	1004.09
478.54	985.37
478.72	985.37
478.90	1144.52
479.08	1104.73
479.26	1100.05
479.44	1027.50
479.62	968.98
479.80	957.28
479.98	929.19
480.16	940.90
480.34	1357.51
480.52	1090.69
480.70	1254.53
480.88	1057.92
481.06	943.24
481.24	1050.90
481.41	1170.27
481.59	1310.70
481.77	1151.54
481.95	1036.86
482.13	1423.05
482.31	1156.22
482.49	1022.81
482.67	1228.78
482.85	1343.47
483.03	1324.74
483.21	1219.42
483.39	1158.57
483.57	1142.18
483.74	1500.28
483.92	1156.22
484.10	1100.05
484.28	1416.02
484.46	1783.49
484.64	1111.75
484.82	1160.91
485.00	1095.37
485.18	1121.12
485.35	1224.10
485.53	919.83
485.71	1301.34
485.89	791.10
486.07	1055.58
486.25	1689.87
486.43	1373.89
486.61	1238.14
486.78	1270.91
486.96	997.07
487.14	1196.01
487.32	1224.10
487.50	1184.31
487.68	1455.81
487.85	1151.54
488.03	1364.53
488.21	1533.05
488.39	1310.70
488.57	1376.24
488.75	1186.65
488.92	4009.34
489.10	1458.15
489.28	1668.80
489.46	1179.63
489.64	1317.72
489.81	1343.47
489.99	1486.24
490.17	1341.13
490.35	1930.94
490.53	1350.49
490.70	1188.99
490.88	1507.30
491.06	1270.91
491.24	1413.68
491.41	1591.56
491.59	1315.38
491.77	1097.71
491.95	1114.10
492.13	1219.42
492.30	1392.62
492.48	1373.89
492.66	1420.71
492.84	1299.00
493.01	1460.49
493.19	1247.51
493.37	1809.23
493.54	1530.71
493.72	1409.00
493.90	1336.45
494.08	1324.74
494.25	1533.05
494.43	1565.82
494.61	1446.45
494.79	1270.91
494.96	1385.60
495.14	1593.90
495.32	1345.81
495.49	1462.83
495.67	1476.88
495.85	1378.58
496.02	1383.26
496.20	1643.06
496.38	1645.40
496.55	1476.88
496.73	1579.86
496.91	1341.13
497.09	1619.65
497.26	1551.78
497.44	1416.02
497.62	1479.22
497.79	1366.87
497.97	1444.11
498.14	1530.71
498.32	1551.78
498.50	1514.33
498.67	1380.92
498.85	1584.54
499.03	1437.09
499.20	1549.43
499.38	1563.48
499.56	1376.24
499.73	1867.75
499.91	1631.35
500.08	1673.48
500.26	1488.58
500.44	1465.18
500.61	1556.46
500.79	1373.89
500.97	1572.84
501.14	1727.32
501.32	1570.50
501.49	1806.89
501.67	1570.50
501.84	1514.33
502.02	1310.70
502.20	1811.57
502.37	1547.09
502.55	1465.18
502.72	1561.14
502.90	1715.61
503.07	1549.43
503.25	1636.03
503.43	1437.09
503.60	1430.07
503.78	1516.67
503.95	1533.05
504.13	1444.11
504.30	1647.74
504.48	1654.76
504.65	1795.19
504.83	1715.61
505.01	1437.09
505.18	1586.88
505.36	1591.56
505.53	1486.24
505.71	1474.54
505.88	1788.17
506.06	1486.24
506.23	1500.28
506.41	1423.05
506.58	1593.90
506.76	1577.52
506.93	1528.37
507.11	1640.72
507.28	1509.65
507.46	1390.28
507.63	1603.27
507.81	1490.92
507.98	1589.22
508.16	1579.86
508.33	1652.42
508.50	1757.74
508.68	1547.09
508.85	1570.50
509.03	1437.09
509.20	1544.75
509.38	1563.48
509.55	1844.34
509.73	1708.59
509.90	1825.62
510.08	1380.92
510.25	1753.06
510.42	1432.41
510.60	1493.26
510.77	1755.40
510.95	1879.45
511.12	1732.00
511.30	1769.44
511.47	1973.07
511.64	2195.42
511.82	1671.14
511.99	1652.42
512.17	1652.42
512.34	1516.67
512.51	1462.83
512.69	1519.01
512.86	1790.51
513.04	1472.20
513.21	1556.46
513.38	1526.03
513.56	1455.81
513.73	1563.48
513.90	1399.64
514.08	1441.77
514.25	1717.95
514.43	1736.68
514.60	1441.77
514.77	1607.95
514.95	1633.69
515.12	1444.11
515.29	1671.14
515.47	1589.22
515.64	1682.85
515.81	1593.90
515.99	1942.64
516.16	1666.46
516.33	1701.57
516.51	1451.13
516.68	1324.74
516.85	1425.39
517.03	1348.15
517.20	1643.06
517.37	1722.63
517.54	1713.27
517.72	1575.18
517.89	1345.81
518.06	1493.26
518.24	1968.39
518.41	2024.56
518.58	1907.54
518.75	1481.56
518.93	1771.79
519.10	1668.80
519.27	1624.33
519.45	1650.08
519.62	1748.38
519.79	1795.19
519.96	1556.46
520.14	1760.08
520.31	1886.47
520.48	1701.57
520.65	1689.87
520.83	1865.41
521.00	1877.11
521.17	1783.49
521.34	1558.80
521.52	1689.87
521.69	1668.80
521.86	1661.78
522.03	1797.53
522.20	1898.17
522.38	1640.72
522.55	1724.97
522.72	1437.09
522.89	1818.60
523.07	2101.80
523.24	1720.29
523.41	1692.21
523.58	1579.86
523.75	1657.10
523.92	1502.62
524.10	1675.82
524.27	1675.82
524.44	1638.38
524.61	1888.81
524.78	1591.56
524.96	1811.57
525.13	1762.42
525.30	1937.96
525.47	1799.87
525.64	1797.53
525.81	1624.33
525.98	1692.21
526.16	1565.82
526.33	1413.68
526.50	1427.73
526.67	1432.41
526.84	1341.13
527.01	1481.56
527.18	1860.73
527.36	1619.65
527.53	1453.47
527.70	1984.77
527.87	1811.57
528.04	2033.93
528.21	1673.48
528.38	1940.30
528.55	1923.92
528.72	1942.64
528.89	2143.93
529.07	1804.55
529.24	1792.85
529.41	2052.65
529.58	1687.53
529.75	1626.67
529.92	1837.32
530.09	1755.40
530.26	1912.22
530.43	1802.21
530.60	1781.15
530.77	1703.91
530.94	1895.83
531.11	1977.75
531.28	1685.19
531.46	1643.06
531.63	1722.63
531.80	1891.15
531.97	1694.55
532.14	1783.49
532.31	1832.64
532.48	1921.58
532.65	2097.12
532.82	2165.00
532.99	2253.94
533.16	2038.61
533.33	1884.13
533.50	1928.60
533.67	2017.54
533.84	2415.43
534.01	2506.71
534.18	2331.17
534.35	2064.35
534.52	1818.60
534.69	2256.28
534.86	1818.60
535.03	1664.12
535.20	1706.25
535.37	1970.73
535.54	1799.87
535.71	1724.97
535.88	2001.16
536.05	1607.95
536.22	1748.38
536.38	1727.32
536.55	1746.04
536.72	1963.71
536.89	1636.03
537.06	1661.78
537.23	1701.57
537.40	1638.38
537.57	1617.31
537.74	1893.49
537.91	1816.26
538.08	1804.55
538.25	1921.58
538.42	1612.63
538.59	1863.07
538.75	1682.85
538.92	1767.10
539.09	1895.83
539.26	1694.55
539.43	2822.69
539.60	4706.82
539.77	7260.34
539.94	7522.48
540.11	5128.11
540.28	3779.97
540.44	2906.95
540.61	2036.27
540.78	1767.10
540.95	1533.05
541.12	2036.27
541.29	1678.16
541.46	2033.93
541.62	1790.51
541.79	1535.39
541.96	1502.62
542.13	1675.82
542.30	1526.03
542.47	1886.47
542.63	1568.16
542.80	1781.15
542.97	1923.92
543.14	1717.95
543.31	1802.21
543.48	1792.85
543.64	1858.39
543.81	1799.87
543.98	1603.27
544.15	1523.69
544.32	1621.99
544.48	1643.06
544.65	1619.65
544.82	1629.01
544.99	1617.31
545.16	2026.90
545.32	1521.35
545.49	1687.53
545.66	1696.89
545.83	1640.72
546.00	1488.58
546.16	1586.88
546.33	1586.88
546.50	1668.80
546.67	1947.33
546.83	1851.36
547.00	1769.44
547.17	1507.30
547.34	1481.56
547.50	1582.20
547.67	1666.46
547.84	1591.56
548.00	1837.32
548.17	1596.25
548.34	1577.52
548.51	1952.01
548.67	1940.30
548.84	1680.50
549.01	1748.38
549.18	1757.74
549.34	1849.02
549.51	1795.19
549.68	1708.59
549.84	1652.42
550.01	1495.60
550.18	2738.43
550.34	2370.96
550.51	1722.63
550.68	2083.08
550.84	1654.76
551.01	1727.32
551.18	1788.17
551.34	1530.71
551.51	1598.59
551.68	1708.59
551.84	1853.70
552.01	1633.69
552.18	1631.35
552.34	1570.50
552.51	1680.50
552.68	1830.30
552.84	1673.48
553.01	1687.53
553.18	1916.90
553.34	1558.80
553.51	1540.07
553.67	1748.38
553.84	2087.76
554.01	1813.92
554.17	1762.42
554.34	1528.37
554.51	1898.17
554.67	1771.79
554.84	1830.30
555.00	1769.44
555.17	1720.29
555.33	1877.11
555.50	1778.81
555.67	1743.70
555.83	1500.28
556.00	1706.25
556.16	3375.05
556.33	1809.23
556.50	1736.68
556.66	1694.55
556.83	1469.86
556.99	1596.25
557.16	1736.68
557.32	1579.86
557.49	1486.24
557.65	1596.25
557.82	1568.16
557.98	1607.95
558.15	1535.39
558.32	1638.38
558.48	1495.60
558.65	1568.16
558.81	1767.10
558.98	1514.33
559.14	1781.15
559.31	1685.19
559.47	1699.23
559.64	1504.96
559.80	1844.34
559.97	1469.86
560.13	1455.81
560.30	1446.45
560.46	1572.84
560.63	1671.14
560.79	1605.61
560.96	1575.18
561.12	1497.94
561.29	1748.38
561.45	1523.69
561.61	1612.63
561.78	2392.03
561.94	1530.71
562.11	1556.46
562.27	1624.33
562.44	1469.86
562.60	1586.88
562.77	1598.59
562.93	2141.59
563.10	1631.35
563.26	1682.85
563.42	1827.96
563.59	1652.42
563.75	1521.35
563.92	1884.13
564.08	1710.93
564.24	1820.94
564.41	2031.58
564.57	1497.94
564.74	1589.22
564.90	1713.27
565.07	1717.95
565.23	1888.81
565.39	1734.34
565.56	1825.62
565.72	1645.40
565.88	1692.21
566.05	1504.96
566.21	1661.78
566.38	1732.00
566.54	1689.87
566.70	1643.06
566.87	1493.26
567.03	1324.74
567.19	1575.18
567.36	1591.56
567.52	1542.41
567.68	1701.57
567.85	1764.76
568.01	1521.35
568.17	1397.30
568.34	1425.39
568.50	1853.70
568.66	1556.46
568.83	2312.45
568.99	1458.15
569.15	1919.24
569.32	1521.35
569.48	1589.22
569.64	1439.43
569.81	1605.61
569.97	1563.48
570.13	1591.56
570.30	1446.45
570.46	1462.83
570.62	1497.94
570.78	1551.78
570.95	1327.08
571.11	1844.34
571.27	1893.49
571.43	1458.15
571.60	1860.73
571.76	1551.78
571.92	1591.56
572.09	1481.56
572.25	1526.03
572.41	1540.07
572.57	1476.88
572.74	1968.39
572.90	1689.87
573.06	1629.01
573.22	1706.25
573.38	1853.70
573.55	1825.62
573.71	1825.62
573.87	1837.32
574.03	1469.86
574.20	1607.95
574.36	1907.54
574.52	1902.86
574.68	1909.88
574.84	2001.16
575.01	1696.89
575.17	1827.96
575.33	1540.07
575.49	1753.06
575.65	1921.58
575.82	2050.31
575.98	3087.17
576.14	3709.75
576.30	3789.33
576.46	2972.48
576.62	2502.03
576.79	2321.81
576.95	2162.66
577.11	1769.44
577.27	1516.67
577.43	1963.71
577.59	2012.86
577.75	1757.74
577.92	1680.50
578.08	1598.59
578.24	1497.94
578.40	1912.22
578.56	2024.56
578.72	2012.86
578.88	1849.02
579.04	1727.32
579.21	1813.92
579.37	1694.55
579.53	1764.76
579.69	1994.14
579.85	1713.27
580.01	2113.50
580.17	2108.82
580.33	2085.42
580.49	2099.46
580.65	2085.42
580.82	1912.22
580.98	1884.13
581.14	1764.76
581.30	2239.89
581.46	2363.94
581.62	3054.40
581.78	3138.66
581.94	3159.72
582.10	2509.05
582.26	2380.32
582.42	2359.26
582.58	2455.22
582.74	2172.02
582.90	2319.47
583.06	2473.95
583.22	2375.64
583.38	2616.72
583.54	2562.89
583.70	3358.67
583.86	3407.82
584.02	3829.12
584.18	4617.88
584.34	5526.00
584.50	13640.64
584.66	65535.00
584.82	65535.00
584.98	65535.00
585.14	65535.00
585.30	65535.00
585.46	65535.00
585.62	65535.00
585.78	37654.54
585.94	14583.88
586.10	7389.07
586.26	5085.98
586.42	4372.12
586.58	3583.36
586.74	3108.23
586.90	2981.84
587.06	3038.02
587.22	2768.85
587.38	2537.14
587.54	5188.97
587.70	15611.37
587.86	26909.14
588.02	30483.14
588.18	21205.25
588.34	13249.77
588.49	8627.21
588.65	5556.43
588.81	3112.91
588.97	1996.48
589.13	1863.07
589.29	1820.94
589.45	2017.54
589.61	1774.13
589.77	2267.98
589.93	2307.77
590.08	2452.88
590.24	2267.98
590.40	2267.98
590.56	2380.32
590.72	1937.96
590.88	1753.06
591.04	1996.48
591.20	1797.53
591.35	2202.44
591.51	1739.02
591.67	1603.27
591.83	1722.63
591.99	1760.08
592.15	1844.34
592.31	1706.25
592.46	1537.73
592.62	1813.92
592.78	1549.43
592.94	1750.72
593.10	1696.89
593.26	1722.63
593.41	1888.81
593.57	2012.86
593.73	2810.98
593.89	12131.00
594.05	33752.87
594.20	49584.25
594.36	47688.42
594.52	31519.99
594.68	19700.29
594.84	13282.54
594.99	7669.94
595.15	3784.65
595.31	2609.70
595.47	2368.62
595.62	1912.22
595.78	1820.94
595.94	1842.00
596.10	2125.21
596.25	1954.35
596.41	2083.08
596.57	1781.15
596.73	1732.00
596.88	2726.72
597.04	6480.94
597.20	10693.91
597.36	12884.65
597.51	9628.96
597.67	6473.92
597.83	4643.62
597.99	3524.85
598.14	2443.52
598.30	2267.98
598.46	1860.73
598.61	1947.33
598.77	1907.54
598.93	1659.44
599.09	1671.14
599.24	1760.08
599.40	1811.57
599.56	1614.97
599.71	1544.75
599.87	1479.22
600.03	1607.95
600.18	1500.28
600.34	1455.81
600.50	1434.75
600.65	1406.66
