SpectraSuite Data File
++++++++++++++++++++++++++++++++++++
Date: Fri Oct 04 11:33:54 GMT-05:00 2013
User: price-jones
Dark Spectrum Present: No
Reference Spectrum Present: No
Number of Sampled Component Spectra: 1
Spectrometers: USB2+H05261
Integration Time (usec): 100000 (USB2+H05261)
Spectra Averaged: 1 (USB2+H05261)
Boxcar Smoothing: 0 (USB2+H05261)
Correct for Electrical Dark: No (USB2+H05261)
Strobe/Lamp Enabled: No (USB2+H05261)
Correct for Detector Non-linearity: No (USB2+H05261)
Correct for Stray Light: No (USB2+H05261)
Number of Pixels in Processed Spectrum: 2048
>>>>>Begin Processed Spectral Data<<<<<
365.73	53.83
365.92	53.83
366.12	53.83
366.32	11.70
366.52	0.00
366.72	0.00
366.91	0.00
367.11	0.00
367.31	0.00
367.51	0.00
367.70	0.00
367.90	0.00
368.10	0.00
368.30	0.00
368.49	0.00
368.69	0.00
368.89	9.36
369.09	0.00
369.28	0.00
369.48	0.00
369.68	37.45
369.87	37.45
370.07	0.00
370.27	105.32
370.47	95.96
370.66	16.38
370.86	88.94
371.06	131.07
371.25	126.39
371.45	196.60
371.65	86.60
371.84	60.85
372.04	51.49
372.24	128.73
372.44	102.98
372.63	177.88
372.83	147.45
373.03	173.20
373.22	124.05
373.42	161.50
373.62	100.64
373.81	163.84
374.01	205.97
374.21	177.88
374.40	208.31
374.60	224.69
374.79	175.54
374.99	149.79
375.19	145.11
375.38	177.88
375.58	163.84
375.78	147.45
375.97	168.52
376.17	224.69
376.37	128.73
376.56	191.92
376.76	39.79
376.95	140.43
377.15	119.37
377.35	119.37
377.54	124.05
377.74	72.56
377.93	126.39
378.13	131.07
378.33	131.07
378.52	79.58
378.72	177.88
378.91	175.54
379.11	142.77
379.31	175.54
379.50	220.01
379.70	177.88
379.89	163.84
380.09	119.37
380.28	187.24
380.48	159.16
380.68	131.07
380.87	77.24
381.07	145.11
381.26	163.84
381.46	177.88
381.65	198.95
381.85	117.03
382.04	166.18
382.24	163.84
382.43	203.63
382.63	114.69
382.83	140.43
383.02	79.58
383.22	220.01
383.41	110.01
383.61	91.28
383.80	119.37
384.00	112.35
384.19	142.77
384.39	131.07
384.58	159.16
384.78	140.43
384.97	105.32
385.17	168.52
385.36	114.69
385.56	163.84
385.75	72.56
385.95	135.75
386.14	191.92
386.34	147.45
386.53	166.18
386.72	145.11
386.92	168.52
387.11	140.43
387.31	173.20
387.50	133.41
387.70	124.05
387.89	135.75
388.09	98.30
388.28	77.24
388.48	154.48
388.67	194.26
388.86	98.30
389.06	131.07
389.25	194.26
389.45	147.45
389.64	140.43
389.84	212.99
390.03	184.90
390.22	147.45
390.42	86.60
390.61	161.50
390.81	107.66
391.00	145.11
391.19	173.20
391.39	121.71
391.58	119.37
391.78	98.30
391.97	177.88
392.16	117.03
392.36	175.54
392.55	119.37
392.75	131.07
392.94	56.17
393.13	147.45
393.33	191.92
393.52	98.30
393.71	196.60
393.91	149.79
394.10	177.88
394.29	149.79
394.49	250.44
394.68	194.26
394.88	152.13
395.07	147.45
395.26	161.50
395.46	147.45
395.65	201.29
395.84	238.73
396.04	255.12
396.23	184.90
396.42	128.73
396.62	175.54
396.81	159.16
397.00	121.71
397.19	112.35
397.39	145.11
397.58	135.75
397.77	126.39
397.97	112.35
398.16	100.64
398.35	72.56
398.55	133.41
398.74	142.77
398.93	119.37
399.12	145.11
399.32	124.05
399.51	196.60
399.70	166.18
399.90	133.41
400.09	86.60
400.28	182.56
400.47	154.48
400.67	149.79
400.86	140.43
401.05	168.52
401.24	182.56
401.44	205.97
401.63	187.24
401.82	177.88
402.01	72.56
402.21	175.54
402.40	175.54
402.59	217.67
402.78	131.07
402.97	177.88
403.17	234.05
403.36	140.43
403.55	117.03
403.74	145.11
403.93	191.92
404.13	243.42
404.32	234.05
404.51	266.82
404.70	205.97
404.89	159.16
405.09	156.82
405.28	161.50
405.47	156.82
405.66	135.75
405.85	124.05
406.05	135.75
406.24	147.45
406.43	154.48
406.62	208.31
406.81	177.88
407.00	152.13
407.20	187.24
407.39	114.69
407.58	149.79
407.77	133.41
407.96	182.56
408.15	220.01
408.34	170.86
408.54	189.58
408.73	210.65
408.92	107.66
409.11	95.96
409.30	128.73
409.49	156.82
409.68	88.94
409.87	117.03
410.07	79.58
410.26	154.48
410.45	135.75
410.64	149.79
410.83	182.56
411.02	135.75
411.21	187.24
411.40	184.90
411.59	145.11
411.78	128.73
411.98	182.56
412.17	168.52
412.36	166.18
412.55	133.41
412.74	161.50
412.93	198.95
413.12	142.77
413.31	170.86
413.50	173.20
413.69	142.77
413.88	133.41
414.07	198.95
414.26	100.64
414.45	105.32
414.64	117.03
414.83	203.63
415.02	152.13
415.22	210.65
415.41	173.20
415.60	175.54
415.79	238.73
415.98	287.89
416.17	180.22
416.36	222.35
416.55	194.26
416.74	159.16
416.93	184.90
417.12	191.92
417.31	212.99
417.50	133.41
417.69	276.18
417.88	259.80
418.07	255.12
418.26	173.20
418.45	212.99
418.64	269.16
418.83	271.50
419.02	196.60
419.21	243.42
419.39	238.73
419.58	163.84
419.77	224.69
419.96	250.44
420.15	208.31
420.34	184.90
420.53	163.84
420.72	166.18
420.91	177.88
421.10	191.92
421.29	168.52
421.48	208.31
421.67	229.37
421.86	145.11
422.05	182.56
422.24	107.66
422.43	168.52
422.61	131.07
422.80	170.86
422.99	112.35
423.18	180.22
423.37	173.20
423.56	159.16
423.75	208.31
423.94	121.71
424.13	187.24
424.32	100.64
424.50	114.69
424.69	126.39
424.88	159.16
425.07	262.14
425.26	222.35
425.45	262.14
425.64	322.99
425.83	269.16
426.01	191.92
426.20	126.39
426.39	168.52
426.58	161.50
426.77	173.20
426.96	189.58
427.15	187.24
427.33	182.56
427.52	147.45
427.71	147.45
427.90	208.31
428.09	177.88
428.28	205.97
428.46	196.60
428.65	147.45
428.84	215.33
429.03	196.60
429.22	131.07
429.40	184.90
429.59	189.58
429.78	245.76
429.97	117.03
430.16	93.62
430.34	152.13
430.53	163.84
430.72	161.50
430.91	255.12
431.10	152.13
431.28	175.54
431.47	126.39
431.66	180.22
431.85	142.77
432.03	138.09
432.22	210.65
432.41	156.82
432.60	290.23
432.79	257.46
432.97	301.93
433.16	320.65
433.35	238.73
433.54	198.95
433.72	168.52
433.91	205.97
434.10	203.63
434.28	205.97
434.47	201.29
434.66	201.29
434.85	161.50
435.03	166.18
435.22	330.02
435.41	294.91
435.59	304.27
435.78	372.15
435.97	159.16
436.16	212.99
436.34	208.31
436.53	217.67
436.72	243.42
436.90	154.48
437.09	187.24
437.28	250.44
437.46	227.03
437.65	180.22
437.84	191.92
438.02	234.05
438.21	168.52
438.40	88.94
438.58	191.92
438.77	231.71
438.96	191.92
439.14	170.86
439.33	152.13
439.52	133.41
439.70	198.95
439.89	149.79
440.08	194.26
440.26	259.80
440.45	243.42
440.63	187.24
440.82	152.13
441.01	152.13
441.19	189.58
441.38	180.22
441.57	140.43
441.75	194.26
441.94	191.92
442.12	229.37
442.31	205.97
442.50	208.31
442.68	110.01
442.87	131.07
443.05	156.82
443.24	203.63
443.43	224.69
443.61	163.84
443.80	168.52
443.98	156.82
444.17	180.22
444.35	292.57
444.54	250.44
444.73	161.50
444.91	208.31
445.10	126.39
445.28	128.73
445.47	126.39
445.65	180.22
445.84	156.82
446.02	198.95
446.21	131.07
446.39	187.24
446.58	175.54
446.77	154.48
446.95	170.86
447.14	255.12
447.32	201.29
447.51	173.20
447.69	252.78
447.88	163.84
448.06	145.11
448.25	138.09
448.43	224.69
448.62	156.82
448.80	224.69
448.99	201.29
449.17	173.20
449.36	163.84
449.54	250.44
449.73	168.52
449.91	173.20
450.10	180.22
450.28	147.45
450.46	273.84
450.65	107.66
450.83	205.97
451.02	161.50
451.20	241.08
451.39	191.92
451.57	215.33
451.76	196.60
451.94	107.66
452.13	222.35
452.31	131.07
452.49	175.54
452.68	187.24
452.86	217.67
453.05	264.48
453.23	245.76
453.42	128.73
453.60	168.52
453.78	154.48
453.97	187.24
454.15	163.84
454.34	231.71
454.52	110.01
454.70	217.67
454.89	217.67
455.07	234.05
455.26	187.24
455.44	187.24
455.62	161.50
455.81	117.03
455.99	224.69
456.17	166.18
456.36	201.29
456.54	168.52
456.73	142.77
456.91	203.63
457.09	217.67
457.28	175.54
457.46	187.24
457.64	131.07
457.83	149.79
458.01	222.35
458.19	182.56
458.38	156.82
458.56	177.88
458.74	189.58
458.93	180.22
459.11	177.88
459.29	154.48
459.48	234.05
459.66	194.26
459.84	163.84
460.03	276.18
460.21	234.05
460.39	231.71
460.57	191.92
460.76	126.39
460.94	187.24
461.12	191.92
461.31	245.76
461.49	114.69
461.67	170.86
461.85	203.63
462.04	220.01
462.22	744.29
462.40	234.05
462.59	175.54
462.77	217.67
462.95	175.54
463.13	138.09
463.32	245.76
463.50	156.82
463.68	154.48
463.86	231.71
464.05	170.86
464.23	212.99
464.41	238.73
464.59	173.20
464.78	140.43
464.96	170.86
465.14	241.08
465.32	112.35
465.50	196.60
465.69	252.78
465.87	102.98
466.05	203.63
466.23	208.31
466.41	184.90
466.60	229.37
466.78	187.24
466.96	198.95
467.14	201.29
467.32	241.08
467.51	180.22
467.69	201.29
467.87	224.69
468.05	196.60
468.23	311.29
468.41	180.22
468.60	182.56
468.78	231.71
468.96	241.08
469.14	236.39
469.32	163.84
469.50	163.84
469.69	234.05
469.87	208.31
470.05	229.37
470.23	236.39
470.41	215.33
470.59	191.92
470.77	287.89
470.95	191.92
471.14	205.97
471.32	212.99
471.50	210.65
471.68	177.88
471.86	205.97
472.04	182.56
472.22	266.82
472.40	147.45
472.58	194.26
472.77	182.56
472.95	215.33
473.13	222.35
473.31	184.90
473.49	227.03
473.67	156.82
473.85	210.65
474.03	236.39
474.21	220.01
474.39	229.37
474.57	264.48
474.75	149.79
474.93	161.50
475.12	121.71
475.30	205.97
475.48	177.88
475.66	177.88
475.84	184.90
476.02	180.22
476.20	180.22
476.38	231.71
476.56	285.55
476.74	187.24
476.92	220.01
477.10	189.58
477.28	187.24
477.46	170.86
477.64	194.26
477.82	222.35
478.00	168.52
478.18	196.60
478.36	210.65
478.54	184.90
478.72	184.90
478.90	243.42
479.08	203.63
479.26	220.01
479.44	191.92
479.62	224.69
479.80	201.29
479.98	196.60
480.16	152.13
480.34	215.33
480.52	182.56
480.70	140.43
480.88	168.52
481.06	203.63
481.24	234.05
481.41	187.24
481.59	301.93
481.77	238.73
481.95	142.77
482.13	215.33
482.31	145.11
482.49	222.35
482.67	210.65
482.85	220.01
483.03	220.01
483.21	290.23
483.39	227.03
483.57	241.08
483.74	210.65
483.92	224.69
484.10	212.99
484.28	262.14
484.46	376.83
484.64	180.22
484.82	194.26
485.00	259.80
485.18	224.69
485.35	203.63
485.53	229.37
485.71	311.29
485.89	229.37
486.07	287.89
486.25	266.82
486.43	250.44
486.61	222.35
486.78	255.12
486.96	318.31
487.14	262.14
487.32	222.35
487.50	201.29
487.68	173.20
487.85	271.50
488.03	236.39
488.21	320.65
488.39	337.04
488.57	290.23
488.75	262.14
488.92	512.58
489.10	248.10
489.28	285.55
489.46	205.97
489.64	266.82
489.81	290.23
489.99	245.76
490.17	280.86
490.35	283.20
490.53	283.20
490.70	313.63
490.88	252.78
491.06	224.69
491.24	201.29
491.41	278.52
491.59	229.37
491.77	285.55
491.95	215.33
492.13	220.01
492.30	264.48
492.48	194.26
492.66	131.07
492.84	287.89
493.01	287.89
493.19	252.78
493.37	212.99
493.54	238.73
493.72	241.08
493.90	266.82
494.08	306.61
494.25	297.25
494.43	280.86
494.61	224.69
494.79	231.71
494.96	222.35
495.14	273.84
495.32	348.74
495.49	215.33
495.67	278.52
495.85	215.33
496.02	215.33
496.20	252.78
496.38	266.82
496.55	227.03
496.73	252.78
496.91	238.73
497.09	285.55
497.26	283.20
497.44	234.05
497.62	313.63
497.79	255.12
497.97	220.01
498.14	306.61
498.32	210.65
498.50	250.44
498.67	276.18
498.85	224.69
499.03	191.92
499.20	215.33
499.38	241.08
499.56	255.12
499.73	273.84
499.91	259.80
500.08	337.04
500.26	264.48
500.44	180.22
500.61	229.37
500.79	259.80
500.97	325.33
501.14	255.12
501.32	238.73
501.49	308.95
501.67	168.52
501.84	229.37
502.02	208.31
502.20	264.48
502.37	266.82
502.55	177.88
502.72	257.46
502.90	262.14
503.07	297.25
503.25	311.29
503.43	215.33
503.60	264.48
503.78	285.55
503.95	243.42
504.13	224.69
504.30	297.25
504.48	224.69
504.65	313.63
504.83	332.36
505.01	278.52
505.18	212.99
505.36	210.65
505.53	234.05
505.71	280.86
505.88	311.29
506.06	325.33
506.23	320.65
506.41	234.05
506.58	231.71
506.76	264.48
506.93	285.55
507.11	262.14
507.28	248.10
507.46	238.73
507.63	325.33
507.81	205.97
507.98	285.55
508.16	306.61
508.33	367.46
508.50	252.78
508.68	278.52
508.85	238.73
509.03	194.26
509.20	264.48
509.38	201.29
509.55	283.20
509.73	332.36
509.90	292.57
510.08	241.08
510.25	234.05
510.42	290.23
510.60	311.29
510.77	294.91
510.95	285.55
511.12	210.65
511.30	346.40
511.47	313.63
511.64	369.80
511.82	234.05
511.99	299.59
512.17	325.33
512.34	266.82
512.51	177.88
512.69	276.18
512.86	243.42
513.04	278.52
513.21	248.10
513.38	250.44
513.56	339.38
513.73	252.78
513.90	248.10
514.08	322.99
514.25	308.95
514.43	311.29
514.60	266.82
514.77	238.73
514.95	287.89
515.12	217.67
515.29	222.35
515.47	299.59
515.64	294.91
515.81	212.99
515.99	269.16
516.16	278.52
516.33	220.01
516.51	259.80
516.68	271.50
516.85	212.99
517.03	241.08
517.20	299.59
517.37	271.50
517.54	269.16
517.72	308.95
517.89	276.18
518.06	135.75
518.24	276.18
518.41	374.49
518.58	313.63
518.75	276.18
518.93	353.42
519.10	227.03
519.27	280.86
519.45	287.89
519.62	257.46
519.79	243.42
519.96	236.39
520.14	299.59
520.31	276.18
520.48	280.86
520.65	273.84
520.83	276.18
521.00	290.23
521.17	264.48
521.34	220.01
521.52	290.23
521.69	229.37
521.86	327.68
522.03	294.91
522.20	322.99
522.38	234.05
522.55	184.90
522.72	224.69
522.89	341.72
523.07	271.50
523.24	175.54
523.41	306.61
523.58	290.23
523.75	299.59
523.92	189.58
524.10	238.73
524.27	271.50
524.44	243.42
524.61	292.57
524.78	297.25
524.96	250.44
525.13	294.91
525.30	271.50
525.47	292.57
525.64	313.63
525.81	234.05
525.98	220.01
526.16	294.91
526.33	264.48
526.50	147.45
526.67	198.95
526.84	243.42
527.01	269.16
527.18	299.59
527.36	276.18
527.53	229.37
527.70	332.36
527.87	259.80
528.04	294.91
528.21	241.08
528.38	259.80
528.55	304.27
528.72	325.33
528.89	360.44
529.07	264.48
529.24	229.37
529.41	322.99
529.58	255.12
529.75	259.80
529.92	243.42
530.09	210.65
530.26	222.35
530.43	313.63
530.60	231.71
530.77	264.48
530.94	292.57
531.11	299.59
531.28	250.44
531.46	236.39
531.63	266.82
531.80	283.20
531.97	292.57
532.14	280.86
532.31	252.78
532.48	308.95
532.65	269.16
532.82	367.46
532.99	440.02
533.16	330.02
533.33	236.39
533.50	358.10
533.67	339.38
533.84	493.85
534.01	430.66
534.18	402.57
534.35	271.50
534.52	294.91
534.69	334.70
534.86	330.02
535.03	325.33
535.20	276.18
535.37	299.59
535.54	257.46
535.71	259.80
535.88	264.48
536.05	292.57
536.22	271.50
536.38	320.65
536.55	283.20
536.72	301.93
536.89	344.06
537.06	355.76
537.23	280.86
537.40	315.97
537.57	308.95
537.74	353.42
537.91	344.06
538.08	287.89
538.25	362.78
538.42	287.89
538.59	290.23
538.75	351.08
538.92	322.99
539.09	358.10
539.26	400.23
539.43	557.05
539.60	1001.75
539.77	1556.46
539.94	1717.95
540.11	1172.61
540.28	793.44
540.44	695.14
540.61	477.47
540.78	423.64
540.95	482.15
541.12	521.94
541.29	472.79
541.46	519.60
541.62	479.81
541.79	524.28
541.96	554.71
542.13	468.11
542.30	470.45
542.47	547.69
542.63	477.47
542.80	416.62
542.97	491.51
543.14	489.17
543.31	465.77
543.48	435.34
543.64	388.53
543.81	535.98
543.98	503.22
544.15	461.09
544.32	538.32
544.48	383.85
544.65	458.74
544.82	505.56
544.99	456.40
545.16	482.15
545.32	547.69
545.49	692.80
545.66	901.11
545.83	833.23
546.00	781.74
546.16	678.76
546.33	531.30
546.50	465.77
546.67	468.11
546.83	435.34
547.00	402.57
547.17	435.34
547.34	360.44
547.50	367.46
547.67	472.79
547.84	437.68
548.00	362.78
548.17	444.70
548.34	393.21
548.51	454.06
548.67	386.19
548.84	362.78
549.01	269.16
549.18	423.64
549.34	365.12
549.51	402.57
549.68	374.49
549.84	372.15
550.01	325.33
550.18	341.72
550.34	360.44
550.51	339.38
550.68	451.72
550.84	266.82
551.01	325.33
551.18	346.40
551.34	255.12
551.51	365.12
551.68	330.02
551.84	337.04
552.01	306.61
552.18	311.29
552.34	322.99
552.51	351.08
552.68	339.38
552.84	259.80
553.01	339.38
553.18	337.04
553.34	339.38
553.51	271.50
553.67	313.63
553.84	339.38
554.01	252.78
554.17	313.63
554.34	234.05
554.51	311.29
554.67	299.59
554.84	330.02
555.00	198.95
555.17	299.59
555.33	229.37
555.50	297.25
555.67	337.04
555.83	262.14
556.00	287.89
556.16	486.83
556.33	318.31
556.50	315.97
556.66	308.95
556.83	276.18
556.99	234.05
557.16	248.10
557.32	243.42
557.49	322.99
557.65	266.82
557.82	290.23
557.98	294.91
558.15	229.37
558.32	250.44
558.48	208.31
558.65	210.65
558.81	224.69
558.98	259.80
559.14	248.10
559.31	273.84
559.47	299.59
559.64	255.12
559.80	287.89
559.97	198.95
560.13	332.36
560.30	238.73
560.46	369.80
560.63	299.59
560.79	292.57
560.96	294.91
561.12	229.37
561.29	278.52
561.45	353.42
561.61	276.18
561.78	353.42
561.94	208.31
562.11	220.01
562.27	285.55
562.44	227.03
562.60	266.82
562.77	327.68
562.93	334.70
563.10	304.27
563.26	332.36
563.42	271.50
563.59	224.69
563.75	170.86
563.92	299.59
564.08	276.18
564.24	287.89
564.41	332.36
564.57	184.90
564.74	259.80
564.90	290.23
565.07	276.18
565.23	255.12
565.39	325.33
565.56	383.85
565.72	318.31
565.88	234.05
566.05	313.63
566.21	238.73
566.38	264.48
566.54	351.08
566.70	250.44
566.87	245.76
567.03	264.48
567.19	327.68
567.36	205.97
567.52	248.10
567.68	229.37
567.85	220.01
568.01	175.54
568.17	205.97
568.34	285.55
568.50	353.42
568.66	269.16
568.83	337.04
568.99	194.26
569.15	344.06
569.32	271.50
569.48	294.91
569.64	173.20
569.81	271.50
569.97	266.82
570.13	283.20
570.30	271.50
570.46	276.18
570.62	306.61
570.78	248.10
570.95	248.10
571.11	301.93
571.27	327.68
571.43	245.76
571.60	255.12
571.76	198.95
571.92	304.27
572.09	313.63
572.25	252.78
572.41	362.78
572.57	297.25
572.74	301.93
572.90	243.42
573.06	330.02
573.22	283.20
573.38	264.48
573.55	252.78
573.71	236.39
573.87	234.05
574.03	222.35
574.20	271.50
574.36	318.31
574.52	248.10
574.68	362.78
574.84	376.83
575.01	271.50
575.17	337.04
575.33	255.12
575.49	313.63
575.65	320.65
575.82	416.62
575.98	667.05
576.14	683.44
576.30	704.50
576.46	667.05
576.62	613.22
576.79	528.96
576.95	482.15
577.11	421.30
577.27	234.05
577.43	292.57
577.59	301.93
577.75	355.76
577.92	360.44
578.08	365.12
578.24	348.74
578.40	360.44
578.56	458.74
578.72	411.93
578.88	404.91
579.04	367.46
579.21	374.49
579.37	376.83
579.53	341.72
579.69	416.62
579.85	381.51
580.01	435.34
580.17	463.43
580.33	411.93
580.49	472.79
580.65	433.00
580.82	381.51
580.98	330.02
581.14	416.62
581.30	379.17
581.46	435.34
581.62	599.18
581.78	674.07
581.94	699.82
582.10	566.41
582.26	512.58
582.42	470.45
582.58	486.83
582.74	517.26
582.90	521.94
583.06	573.43
583.22	521.94
583.38	491.51
583.54	531.30
583.70	660.03
583.86	753.65
584.02	786.42
584.18	943.24
584.34	1238.14
584.50	2661.19
584.66	17717.86
584.82	51250.71
584.98	65535.00
585.14	65364.14
585.30	51318.59
585.46	30024.39
585.62	18637.69
585.78	8711.47
585.94	3391.44
586.10	1736.68
586.26	1144.52
586.42	922.17
586.58	805.14
586.74	711.52
586.90	730.25
587.06	657.69
587.22	695.14
587.38	667.05
587.54	1020.47
587.70	2906.95
587.86	5643.03
588.02	7178.42
588.18	4887.04
588.34	2937.37
588.49	2001.16
588.65	1310.70
588.81	631.94
588.97	505.56
589.13	411.93
589.29	433.00
589.45	381.51
589.61	383.85
589.77	404.91
589.93	407.25
590.08	599.18
590.24	449.38
590.40	447.04
590.56	496.19
590.72	433.00
590.88	440.02
591.04	458.74
591.20	367.46
591.35	472.79
591.51	341.72
591.67	416.62
591.83	383.85
591.99	386.19
592.15	348.74
592.31	433.00
592.46	421.30
592.62	456.40
592.78	395.55
592.94	402.57
593.10	395.55
593.26	411.93
593.41	407.25
593.57	447.04
593.73	554.71
593.89	2312.45
594.05	6342.85
594.20	10890.51
594.36	11435.86
594.52	7466.31
594.68	4440.00
594.84	3030.99
594.99	1666.46
595.15	828.55
595.31	519.60
595.47	458.74
595.62	421.30
595.78	337.04
595.94	383.85
596.10	416.62
596.25	484.49
596.41	437.68
596.57	367.46
596.73	315.97
596.88	585.13
597.04	1284.95
597.20	2221.17
597.36	3063.76
597.51	2270.32
597.67	1561.14
597.83	1032.18
597.99	716.20
598.14	489.17
598.30	379.17
598.46	341.72
598.61	484.49
598.77	461.09
598.93	388.53
599.09	421.30
599.24	299.59
599.40	423.64
599.56	322.99
599.71	330.02
599.87	255.12
600.03	318.31
600.18	341.72
600.34	313.63
600.50	241.08
600.65	266.82
600.81	346.40
600.97	327.68
601.12	330.02
601.28	250.44
601.44	280.86
601.59	311.29
601.75	365.12
601.91	311.29
602.06	322.99
602.22	365.12
602.37	664.71
602.53	1483.90
602.69	2726.72
602.84	3077.80
603.00	2230.53
603.16	1589.22
603.31	994.73
603.47	812.17
603.62	519.60
603.78	404.91
603.94	367.46
604.09	315.97
604.25	318.31
604.40	313.63
604.56	360.44
604.71	283.20
604.87	271.50
605.03	238.73
605.18	383.85
605.34	327.68
605.49	395.55
605.65	358.10
605.80	341.72
605.96	322.99
606.12	418.96
606.27	454.06
606.43	339.38
606.58	475.13
606.74	779.40
606.89	2806.30
607.05	6506.69
607.20	10218.78
607.36	8772.33
607.51	5626.65
607.67	3712.09
607.82	2410.75
607.98	1317.72
608.13	746.63
608.29	526.62
608.44	566.41
608.60	498.53
608.75	547.69
608.91	992.39
609.06	4245.73
609.22	10897.53
609.37	17376.14
609.53	15756.49
609.68	10293.68
609.84	6342.85
609.99	4425.95
