SpectraSuite Data File
++++++++++++++++++++++++++++++++++++
Date: Fri Oct 04 11:33:43 GMT-05:00 2013
User: price-jones
Dark Spectrum Present: No
Reference Spectrum Present: No
Number of Sampled Component Spectra: 1
Spectrometers: USB2+H05261
Integration Time (usec): 100000 (USB2+H05261)
Spectra Averaged: 1 (USB2+H05261)
Boxcar Smoothing: 0 (USB2+H05261)
Correct for Electrical Dark: No (USB2+H05261)
Strobe/Lamp Enabled: No (USB2+H05261)
Correct for Detector Non-linearity: No (USB2+H05261)
Correct for Stray Light: No (USB2+H05261)
Number of Pixels in Processed Spectrum: 2048
>>>>>Begin Processed Spectral Data<<<<<
365.73	72.56
365.92	72.56
366.12	72.56
366.32	0.00
366.52	0.00
366.72	0.00
366.91	0.00
367.11	0.00
367.31	0.00
367.51	21.06
367.70	0.00
367.90	28.09
368.10	70.22
368.30	23.41
368.49	0.00
368.69	0.00
368.89	0.00
369.09	0.00
369.28	0.00
369.48	0.00
369.68	0.00
369.87	25.75
370.07	18.72
370.27	67.88
370.47	37.45
370.66	72.56
370.86	70.22
371.06	67.88
371.25	128.73
371.45	81.92
371.65	100.64
371.84	58.51
372.04	18.72
372.24	100.64
372.44	42.13
372.63	191.92
372.83	121.71
373.03	149.79
373.22	168.52
373.42	63.19
373.62	102.98
373.81	100.64
374.01	217.67
374.21	168.52
374.40	161.50
374.60	198.95
374.79	191.92
374.99	88.94
375.19	168.52
375.38	126.39
375.58	177.88
375.78	201.29
375.97	163.84
376.17	241.08
376.37	191.92
376.56	102.98
376.76	126.39
376.95	175.54
377.15	140.43
377.35	117.03
377.54	205.97
377.74	140.43
377.93	159.16
378.13	32.77
378.33	121.71
378.52	154.48
378.72	201.29
378.91	156.82
379.11	145.11
379.31	142.77
379.50	140.43
379.70	191.92
379.89	177.88
380.09	93.62
380.28	112.35
380.48	152.13
380.68	194.26
380.87	152.13
381.07	166.18
381.26	147.45
381.46	163.84
381.65	163.84
381.85	100.64
382.04	117.03
382.24	98.30
382.43	114.69
382.63	105.32
382.83	79.58
383.02	187.24
383.22	147.45
383.41	95.96
383.61	126.39
383.80	121.71
384.00	124.05
384.19	133.41
384.39	131.07
384.58	156.82
384.78	121.71
384.97	212.99
385.17	177.88
385.36	131.07
385.56	177.88
385.75	154.48
385.95	163.84
386.14	124.05
386.34	119.37
386.53	117.03
386.72	142.77
386.92	161.50
387.11	184.90
387.31	248.10
387.50	119.37
387.70	95.96
387.89	175.54
388.09	49.15
388.28	72.56
388.48	173.20
388.67	142.77
388.86	154.48
389.06	156.82
389.25	184.90
389.45	107.66
389.64	98.30
389.84	145.11
390.03	205.97
390.22	110.01
390.42	121.71
390.61	138.09
390.81	95.96
391.00	210.65
391.19	117.03
391.39	159.16
391.58	128.73
391.78	163.84
391.97	133.41
392.16	112.35
392.36	163.84
392.55	182.56
392.75	131.07
392.94	173.20
393.13	161.50
393.33	133.41
393.52	166.18
393.71	191.92
393.91	98.30
394.10	133.41
394.29	105.32
394.49	147.45
394.68	166.18
394.88	184.90
395.07	124.05
395.26	126.39
395.46	93.62
395.65	140.43
395.84	138.09
396.04	177.88
396.23	79.58
396.42	173.20
396.62	124.05
396.81	147.45
397.00	110.01
397.19	131.07
397.39	140.43
397.58	170.86
397.77	161.50
397.97	102.98
398.16	147.45
398.35	86.60
398.55	70.22
398.74	180.22
398.93	189.58
399.12	154.48
399.32	175.54
399.51	131.07
399.70	166.18
399.90	140.43
400.09	163.84
400.28	222.35
400.47	175.54
400.67	112.35
400.86	145.11
401.05	159.16
401.24	163.84
401.44	154.48
401.63	215.33
401.82	121.71
402.01	159.16
402.21	140.43
402.40	187.24
402.59	161.50
402.78	173.20
402.97	138.09
403.17	112.35
403.36	110.01
403.55	191.92
403.74	196.60
403.93	198.95
404.13	215.33
404.32	168.52
404.51	154.48
404.70	250.44
404.89	128.73
405.09	156.82
405.28	147.45
405.47	168.52
405.66	124.05
405.85	175.54
406.05	128.73
406.24	177.88
406.43	191.92
406.62	100.64
406.81	203.63
407.00	201.29
407.20	95.96
407.39	138.09
407.58	182.56
407.77	131.07
407.96	159.16
408.15	149.79
408.34	124.05
408.54	159.16
408.73	86.60
408.92	145.11
409.11	205.97
409.30	208.31
409.49	170.86
409.68	161.50
409.87	126.39
410.07	117.03
410.26	133.41
410.45	138.09
410.64	124.05
410.83	198.95
411.02	128.73
411.21	154.48
411.40	168.52
411.59	170.86
411.78	182.56
411.98	98.30
412.17	159.16
412.36	156.82
412.55	152.13
412.74	105.32
412.93	128.73
413.12	161.50
413.31	191.92
413.50	168.52
413.69	173.20
413.88	243.42
414.07	117.03
414.26	224.69
414.45	126.39
414.64	191.92
414.83	173.20
415.02	203.63
415.22	147.45
415.41	231.71
415.60	180.22
415.79	119.37
415.98	170.86
416.17	208.31
416.36	131.07
416.55	126.39
416.74	131.07
416.93	152.13
417.12	156.82
417.31	131.07
417.50	117.03
417.69	175.54
417.88	170.86
418.07	285.55
418.26	191.92
418.45	182.56
418.64	243.42
418.83	245.76
419.02	236.39
419.21	119.37
419.39	145.11
419.58	187.24
419.77	208.31
419.96	170.86
420.15	196.60
420.34	180.22
420.53	142.77
420.72	149.79
420.91	149.79
421.10	121.71
421.29	191.92
421.48	182.56
421.67	222.35
421.86	124.05
422.05	161.50
422.24	147.45
422.43	105.32
422.61	159.16
422.80	159.16
422.99	166.18
423.18	182.56
423.37	173.20
423.56	184.90
423.75	184.90
423.94	119.37
424.13	124.05
424.32	124.05
424.50	170.86
424.69	180.22
424.88	201.29
425.07	133.41
425.26	184.90
425.45	236.39
425.64	264.48
425.83	238.73
426.01	170.86
426.20	203.63
426.39	154.48
426.58	114.69
426.77	138.09
426.96	145.11
427.15	210.65
427.33	156.82
427.52	220.01
427.71	175.54
427.90	198.95
428.09	170.86
428.28	102.98
428.46	220.01
428.65	133.41
428.84	175.54
429.03	222.35
429.22	147.45
429.40	114.69
429.59	121.71
429.78	166.18
429.97	121.71
430.16	177.88
430.34	166.18
430.53	198.95
430.72	138.09
430.91	205.97
431.10	28.09
431.28	81.92
431.47	215.33
431.66	210.65
431.85	121.71
432.03	194.26
432.22	257.46
432.41	152.13
432.60	180.22
432.79	189.58
432.97	252.78
433.16	175.54
433.35	301.93
433.54	224.69
433.72	173.20
433.91	166.18
434.10	224.69
434.28	215.33
434.47	203.63
434.66	149.79
434.85	156.82
435.03	250.44
435.22	304.27
435.41	404.91
435.59	379.17
435.78	304.27
435.97	280.86
436.16	231.71
436.34	205.97
436.53	234.05
436.72	236.39
436.90	161.50
437.09	182.56
437.28	182.56
437.46	220.01
437.65	175.54
437.84	166.18
438.02	142.77
438.21	145.11
438.40	128.73
438.58	180.22
438.77	173.20
438.96	142.77
439.14	182.56
439.33	140.43
439.52	149.79
439.70	229.37
439.89	184.90
440.08	149.79
440.26	149.79
440.45	224.69
440.63	201.29
440.82	241.08
441.01	168.52
441.19	147.45
441.38	145.11
441.57	189.58
441.75	264.48
441.94	142.77
442.12	224.69
442.31	203.63
442.50	175.54
442.68	191.92
442.87	187.24
443.05	168.52
443.24	227.03
443.43	205.97
443.61	173.20
443.80	168.52
443.98	126.39
444.17	187.24
444.35	215.33
444.54	138.09
444.73	95.96
444.91	231.71
445.10	131.07
445.28	173.20
445.47	121.71
445.65	173.20
445.84	159.16
446.02	163.84
446.21	147.45
446.39	88.94
446.58	147.45
446.77	210.65
446.95	131.07
447.14	182.56
447.32	212.99
447.51	119.37
447.69	145.11
447.88	245.76
448.06	271.50
448.25	212.99
448.43	234.05
448.62	147.45
448.80	217.67
448.99	215.33
449.17	152.13
449.36	191.92
449.54	238.73
449.73	182.56
449.91	212.99
450.10	147.45
450.28	245.76
450.46	238.73
450.65	276.18
450.83	269.16
451.02	236.39
451.20	229.37
451.39	145.11
451.57	189.58
451.76	140.43
451.94	227.03
452.13	208.31
452.31	224.69
452.49	180.22
452.68	119.37
452.86	177.88
453.05	163.84
453.23	107.66
453.42	149.79
453.60	236.39
453.78	166.18
453.97	210.65
454.15	208.31
454.34	229.37
454.52	135.75
454.70	159.16
454.89	166.18
455.07	184.90
455.26	215.33
455.44	177.88
455.62	198.95
455.81	198.95
455.99	163.84
456.17	215.33
456.36	145.11
456.54	102.98
456.73	175.54
456.91	224.69
457.09	187.24
457.28	238.73
457.46	51.49
457.64	196.60
457.83	241.08
458.01	119.37
458.19	229.37
458.38	175.54
458.56	201.29
458.74	175.54
458.93	198.95
459.11	152.13
459.29	110.01
459.48	166.18
459.66	208.31
459.84	156.82
460.03	222.35
460.21	189.58
460.39	180.22
460.57	180.22
460.76	208.31
460.94	227.03
461.12	301.93
461.31	294.91
461.49	224.69
461.67	217.67
461.85	152.13
462.04	222.35
462.22	613.22
462.40	222.35
462.59	152.13
462.77	250.44
462.95	252.78
463.13	255.12
463.32	182.56
463.50	142.77
463.68	231.71
463.86	175.54
464.05	149.79
464.23	238.73
464.41	264.48
464.59	175.54
464.78	215.33
464.96	102.98
465.14	182.56
465.32	187.24
465.50	222.35
465.69	220.01
465.87	135.75
466.05	187.24
466.23	182.56
466.41	168.52
466.60	224.69
466.78	205.97
466.96	159.16
467.14	241.08
467.32	283.20
467.51	177.88
467.69	222.35
467.87	220.01
468.05	180.22
468.23	210.65
468.41	194.26
468.60	138.09
468.78	243.42
468.96	208.31
469.14	212.99
469.32	196.60
469.50	220.01
469.69	205.97
469.87	255.12
470.05	170.86
470.23	227.03
470.41	177.88
470.59	198.95
470.77	198.95
470.95	245.76
471.14	147.45
471.32	203.63
471.50	292.57
471.68	203.63
471.86	166.18
472.04	177.88
472.22	266.82
472.40	135.75
472.58	215.33
472.77	198.95
472.95	220.01
473.13	187.24
473.31	227.03
473.49	163.84
473.67	194.26
473.85	184.90
474.03	210.65
474.21	248.10
474.39	224.69
474.57	264.48
474.75	191.92
474.93	229.37
475.12	161.50
475.30	119.37
475.48	187.24
475.66	182.56
475.84	227.03
476.02	266.82
476.20	224.69
476.38	234.05
476.56	231.71
476.74	243.42
476.92	205.97
477.10	212.99
477.28	180.22
477.46	142.77
477.64	191.92
477.82	138.09
478.00	196.60
478.18	215.33
478.36	243.42
478.54	187.24
478.72	236.39
478.90	208.31
479.08	170.86
479.26	220.01
479.44	198.95
479.62	231.71
479.80	248.10
479.98	140.43
480.16	170.86
480.34	210.65
480.52	231.71
480.70	236.39
480.88	241.08
481.06	170.86
481.24	156.82
481.41	208.31
481.59	229.37
481.77	297.25
481.95	187.24
482.13	285.55
482.31	266.82
482.49	194.26
482.67	236.39
482.85	203.63
483.03	222.35
483.21	250.44
483.39	229.37
483.57	243.42
483.74	222.35
483.92	238.73
484.10	238.73
484.28	273.84
484.46	248.10
484.64	264.48
484.82	229.37
485.00	304.27
485.18	196.60
485.35	229.37
485.53	177.88
485.71	257.46
485.89	170.86
486.07	278.52
486.25	355.76
486.43	243.42
486.61	187.24
486.78	245.76
486.96	210.65
487.14	285.55
487.32	243.42
487.50	184.90
487.68	259.80
487.85	220.01
488.03	306.61
488.21	273.84
488.39	301.93
488.57	332.36
488.75	224.69
488.92	461.09
489.10	257.46
489.28	255.12
489.46	196.60
489.64	194.26
489.81	243.42
489.99	227.03
490.17	257.46
490.35	346.40
490.53	243.42
490.70	280.86
490.88	241.08
491.06	220.01
491.24	320.65
491.41	330.02
491.59	227.03
491.77	255.12
491.95	184.90
492.13	220.01
492.30	208.31
492.48	290.23
492.66	217.67
492.84	224.69
493.01	234.05
493.19	262.14
493.37	257.46
493.54	227.03
493.72	222.35
493.90	283.20
494.08	264.48
494.25	299.59
494.43	212.99
494.61	227.03
494.79	271.50
494.96	231.71
495.14	360.44
495.32	215.33
495.49	243.42
495.67	248.10
495.85	217.67
496.02	255.12
496.20	238.73
496.38	315.97
496.55	241.08
496.73	255.12
496.91	301.93
497.09	194.26
497.26	198.95
497.44	299.59
497.62	210.65
497.79	243.42
497.97	269.16
498.14	245.76
498.32	243.42
498.50	283.20
498.67	187.24
498.85	231.71
499.03	224.69
499.20	339.38
499.38	248.10
499.56	222.35
499.73	248.10
499.91	297.25
500.08	397.89
500.26	217.67
500.44	264.48
500.61	212.99
500.79	276.18
500.97	241.08
501.14	269.16
501.32	187.24
501.49	215.33
501.67	252.78
501.84	234.05
502.02	159.16
502.20	220.01
502.37	222.35
502.55	224.69
502.72	243.42
502.90	322.99
503.07	241.08
503.25	234.05
503.43	208.31
503.60	297.25
503.78	257.46
503.95	248.10
504.13	241.08
504.30	208.31
504.48	264.48
504.65	266.82
504.83	285.55
505.01	217.67
505.18	248.10
505.36	276.18
505.53	205.97
505.71	175.54
505.88	168.52
506.06	257.46
506.23	257.46
506.41	205.97
506.58	229.37
506.76	194.26
506.93	297.25
507.11	264.48
507.28	262.14
507.46	231.71
507.63	294.91
507.81	325.33
507.98	271.50
508.16	227.03
508.33	287.89
508.50	273.84
508.68	215.33
508.85	276.18
509.03	201.29
509.20	238.73
509.38	241.08
509.55	304.27
509.73	311.29
509.90	220.01
510.08	259.80
510.25	269.16
510.42	224.69
510.60	210.65
510.77	290.23
510.95	276.18
511.12	215.33
511.30	297.25
511.47	313.63
511.64	337.04
511.82	299.59
511.99	250.44
512.17	217.67
512.34	224.69
512.51	248.10
512.69	248.10
512.86	285.55
513.04	173.20
513.21	191.92
513.38	245.76
513.56	215.33
513.73	196.60
513.90	229.37
514.08	229.37
514.25	212.99
514.43	308.95
514.60	229.37
514.77	173.20
514.95	327.68
515.12	304.27
515.29	182.56
515.47	220.01
515.64	227.03
515.81	217.67
515.99	224.69
516.16	271.50
516.33	266.82
516.51	262.14
516.68	180.22
516.85	257.46
517.03	198.95
517.20	187.24
517.37	297.25
517.54	280.86
517.72	252.78
517.89	238.73
518.06	257.46
518.24	327.68
518.41	308.95
518.58	287.89
518.75	276.18
518.93	294.91
519.10	299.59
519.27	283.20
519.45	248.10
519.62	306.61
519.79	313.63
519.96	217.67
520.14	243.42
520.31	301.93
520.48	259.80
520.65	238.73
520.83	238.73
521.00	266.82
521.17	264.48
521.34	269.16
521.52	231.71
521.69	243.42
521.86	255.12
522.03	227.03
522.20	273.84
522.38	215.33
522.55	294.91
522.72	262.14
522.89	250.44
523.07	318.31
523.24	287.89
523.41	243.42
523.58	238.73
523.75	285.55
523.92	257.46
524.10	327.68
524.27	229.37
524.44	250.44
524.61	229.37
524.78	257.46
524.96	252.78
525.13	262.14
525.30	238.73
525.47	313.63
525.64	259.80
525.81	266.82
525.98	191.92
526.16	262.14
526.33	243.42
526.50	259.80
526.67	196.60
526.84	250.44
527.01	269.16
527.18	287.89
527.36	255.12
527.53	227.03
527.70	191.92
527.87	297.25
528.04	287.89
528.21	294.91
528.38	203.63
528.55	262.14
528.72	344.06
528.89	285.55
529.07	301.93
529.24	241.08
529.41	348.74
529.58	241.08
529.75	283.20
529.92	264.48
530.09	280.86
530.26	269.16
530.43	337.04
530.60	220.01
530.77	252.78
530.94	325.33
531.11	304.27
531.28	271.50
531.46	264.48
531.63	330.02
531.80	245.76
531.97	262.14
532.14	280.86
532.31	325.33
532.48	287.89
532.65	348.74
532.82	425.98
532.99	393.21
533.16	322.99
533.33	327.68
533.50	353.42
533.67	344.06
533.84	330.02
534.01	524.28
534.18	313.63
534.35	320.65
534.52	308.95
534.69	376.83
534.86	266.82
535.03	297.25
535.20	337.04
535.37	301.93
535.54	234.05
535.71	311.29
535.88	308.95
536.05	266.82
536.22	325.33
536.38	313.63
536.55	297.25
536.72	266.82
536.89	287.89
537.06	243.42
537.23	264.48
537.40	358.10
537.57	308.95
537.74	322.99
537.91	313.63
538.08	287.89
538.25	351.08
538.42	341.72
538.59	339.38
538.75	266.82
538.92	318.31
539.09	376.83
539.26	313.63
539.43	517.26
539.60	1025.15
539.77	1486.24
539.94	1411.34
540.11	964.30
540.28	702.16
540.44	547.69
540.61	489.17
540.78	454.06
540.95	435.34
541.12	486.83
541.29	535.98
541.46	521.94
541.62	451.72
541.79	507.90
541.96	425.98
542.13	484.49
542.30	428.32
542.47	463.43
542.63	461.09
542.80	379.17
542.97	461.09
543.14	388.53
543.31	395.55
543.48	475.13
543.64	409.59
543.81	543.00
543.98	451.72
544.15	393.21
544.32	381.51
544.48	423.64
544.65	365.12
544.82	390.87
544.99	496.19
545.16	465.77
545.32	550.03
545.49	599.18
545.66	830.89
545.83	819.19
546.00	662.37
546.16	613.22
546.33	533.64
546.50	507.90
546.67	496.19
546.83	353.42
547.00	442.36
547.17	315.97
547.34	358.10
547.50	379.17
547.67	390.87
547.84	308.95
548.00	379.17
548.17	440.02
548.34	297.25
548.51	386.19
548.67	447.04
548.84	362.78
549.01	388.53
549.18	379.17
549.34	376.83
549.51	383.85
549.68	407.25
549.84	355.76
550.01	318.31
550.18	390.87
550.34	337.04
550.51	334.70
550.68	376.83
550.84	287.89
551.01	304.27
551.18	400.23
551.34	299.59
551.51	285.55
551.68	304.27
551.84	301.93
552.01	294.91
552.18	187.24
552.34	339.38
552.51	325.33
552.68	393.21
552.84	269.16
553.01	292.57
553.18	250.44
553.34	301.93
553.51	266.82
553.67	276.18
553.84	348.74
554.01	353.42
554.17	409.59
554.34	257.46
554.51	339.38
554.67	280.86
554.84	304.27
555.00	255.12
555.17	334.70
555.33	287.89
555.50	229.37
555.67	278.52
555.83	290.23
556.00	376.83
556.16	510.24
556.33	252.78
556.50	304.27
556.66	250.44
556.83	311.29
556.99	360.44
557.16	276.18
557.32	297.25
557.49	231.71
557.65	229.37
557.82	290.23
557.98	315.97
558.15	252.78
558.32	245.76
558.48	231.71
558.65	255.12
558.81	313.63
558.98	198.95
559.14	266.82
559.31	231.71
559.47	250.44
559.64	280.86
559.80	278.52
559.97	250.44
560.13	308.95
560.30	255.12
560.46	271.50
560.63	280.86
560.79	217.67
560.96	318.31
561.12	290.23
561.29	297.25
561.45	269.16
561.61	283.20
561.78	348.74
561.94	308.95
562.11	210.65
562.27	196.60
562.44	166.18
562.60	234.05
562.77	280.86
562.93	341.72
563.10	252.78
563.26	297.25
563.42	266.82
563.59	189.58
563.75	248.10
563.92	234.05
564.08	236.39
564.24	224.69
564.41	278.52
564.57	252.78
564.74	273.84
564.90	301.93
565.07	322.99
565.23	332.36
565.39	248.10
565.56	292.57
565.72	287.89
565.88	262.14
566.05	304.27
566.21	311.29
566.38	294.91
566.54	287.89
566.70	308.95
566.87	264.48
567.03	346.40
567.19	294.91
567.36	217.67
567.52	229.37
567.68	243.42
567.85	224.69
568.01	299.59
568.17	266.82
568.34	311.29
568.50	271.50
568.66	297.25
568.83	386.19
568.99	227.03
569.15	294.91
569.32	271.50
569.48	217.67
569.64	224.69
569.81	203.63
569.97	250.44
570.13	280.86
570.30	217.67
570.46	229.37
570.62	236.39
570.78	208.31
570.95	217.67
571.11	339.38
571.27	215.33
571.43	163.84
571.60	294.91
571.76	271.50
571.92	220.01
572.09	238.73
572.25	182.56
572.41	269.16
572.57	308.95
572.74	290.23
572.90	287.89
573.06	369.80
573.22	322.99
573.38	236.39
573.55	315.97
573.71	236.39
573.87	318.31
574.03	273.84
574.20	257.46
574.36	355.76
574.52	381.51
574.68	306.61
574.84	308.95
575.01	334.70
575.17	280.86
575.33	297.25
575.49	322.99
575.65	292.57
575.82	360.44
575.98	587.47
576.14	587.47
576.30	688.12
576.46	645.99
576.62	470.45
576.79	423.64
576.95	437.68
577.11	376.83
577.27	285.55
577.43	283.20
577.59	301.93
577.75	355.76
577.92	290.23
578.08	311.29
578.24	266.82
578.40	372.15
578.56	386.19
578.72	468.11
578.88	383.85
579.04	334.70
579.21	404.91
579.37	306.61
579.53	330.02
579.69	322.99
579.85	294.91
580.01	337.04
580.17	491.51
580.33	430.66
580.49	503.22
580.65	313.63
580.82	351.08
580.98	376.83
581.14	395.55
581.30	456.40
581.46	461.09
581.62	606.20
581.78	645.99
581.94	671.73
582.10	475.13
582.26	414.27
582.42	454.06
582.58	454.06
582.74	512.58
582.90	500.87
583.06	484.49
583.22	447.04
583.38	538.32
583.54	489.17
583.70	631.94
583.86	653.01
584.02	645.99
584.18	837.91
584.34	1153.88
584.50	2743.11
584.66	20418.83
584.82	52095.64
584.98	62431.45
585.14	59704.73
585.30	44016.11
585.46	26221.02
585.62	16240.98
585.78	7545.89
585.94	3021.63
586.10	1516.67
586.26	1097.71
586.42	887.06
586.58	631.94
586.74	601.52
586.90	711.52
587.06	716.20
587.22	615.56
587.38	681.10
587.54	1008.77
587.70	3040.36
587.86	5156.20
588.02	5692.18
588.18	3967.21
588.34	2586.29
588.49	1837.32
588.65	1095.37
588.81	578.11
588.97	367.46
589.13	346.40
589.29	381.51
589.45	374.49
589.61	437.68
589.77	409.59
589.93	437.68
590.08	521.94
590.24	479.81
590.40	416.62
590.56	451.72
590.72	374.49
590.88	365.12
591.04	358.10
591.20	374.49
591.35	337.04
591.51	372.15
591.67	367.46
591.83	360.44
591.99	400.23
592.15	388.53
592.31	379.17
592.46	402.57
592.62	404.91
592.78	360.44
592.94	390.87
593.10	320.65
593.26	365.12
593.41	447.04
593.57	395.55
593.73	573.43
593.89	2331.17
594.05	6394.34
594.20	9446.40
594.36	9085.96
594.52	6228.17
594.68	3733.15
594.84	2558.21
594.99	1458.15
595.15	753.65
595.31	442.36
595.47	421.30
595.62	454.06
595.78	334.70
595.94	318.31
596.10	325.33
596.25	381.51
596.41	372.15
596.57	369.80
596.73	388.53
596.88	503.22
597.04	1320.06
597.20	2026.90
597.36	2319.47
597.51	1804.55
597.67	1256.87
597.83	863.66
597.99	758.33
598.14	461.09
598.30	409.59
598.46	400.23
598.61	437.68
598.77	414.27
598.93	344.06
599.09	320.65
599.24	320.65
599.40	332.36
599.56	346.40
599.71	283.20
599.87	255.12
600.03	299.59
600.18	330.02
600.34	320.65
600.50	301.93
600.65	297.25
600.81	313.63
600.97	271.50
601.12	273.84
601.28	346.40
601.44	273.84
601.59	245.76
601.75	381.51
601.91	299.59
602.06	351.08
602.22	404.91
602.37	795.78
602.53	1582.20
602.69	2310.11
602.84	2459.90
603.00	1956.69
603.16	1376.24
603.31	940.90
603.47	650.67
603.62	393.21
603.78	409.59
603.94	325.33
604.09	313.63
604.25	346.40
604.40	367.46
604.56	299.59
604.71	278.52
604.87	290.23
605.03	327.68
605.18	330.02
605.34	248.10
605.49	341.72
605.65	365.12
605.80	280.86
605.96	320.65
606.12	355.76
606.27	383.85
606.43	353.42
606.58	414.27
606.74	760.67
606.89	2904.60
607.05	6134.54
607.20	8053.78
607.36	6747.76
607.51	4418.93
607.67	2995.89
607.82	2160.31
607.98	1242.82
608.13	744.29
608.29	575.77
608.44	482.15
608.60	512.58
608.75	524.28
608.91	1064.94
609.06	4650.64
609.22	10010.47
609.37	14335.78
609.53	12458.67
609.68	8358.05
609.84	5411.32
609.99	3676.98
610.15	2038.61
