SpectraSuite Data File
++++++++++++++++++++++++++++++++++++
Date: Fri Oct 04 12:14:14 GMT-05:00 2013
User: price-jones
Dark Spectrum Present: No
Reference Spectrum Present: No
Number of Sampled Component Spectra: 1
Spectrometers: USB2+H05261
Integration Time (usec): 1000000 (USB2+H05261)
Spectra Averaged: 1 (USB2+H05261)
Boxcar Smoothing: 0 (USB2+H05261)
Correct for Electrical Dark: No (USB2+H05261)
Strobe/Lamp Enabled: No (USB2+H05261)
Correct for Detector Non-linearity: No (USB2+H05261)
Correct for Stray Light: No (USB2+H05261)
Number of Pixels in Processed Spectrum: 2048
>>>>>Begin Processed Spectral Data<<<<<
365.73	35.11
365.92	35.11
366.12	35.11
366.32	0.00
366.52	0.00
366.72	306.61
366.91	159.16
367.11	215.33
367.31	208.31
367.51	252.78
367.70	344.06
367.90	585.13
368.10	383.85
368.30	360.44
368.49	35.11
368.69	535.98
368.89	341.72
369.09	163.84
369.28	306.61
369.48	173.20
369.68	255.12
369.87	339.38
370.07	175.54
370.27	580.45
370.47	360.44
370.66	330.02
370.86	484.49
371.06	683.44
371.25	880.04
371.45	327.68
371.65	678.76
371.84	306.61
372.04	332.36
372.24	566.41
372.44	440.02
372.63	552.37
372.83	837.91
373.03	486.83
373.22	341.72
373.42	414.27
373.62	416.62
373.81	641.31
374.01	688.12
374.21	660.03
374.40	428.32
374.60	697.48
374.79	566.41
374.99	517.26
375.19	524.28
375.38	620.24
375.58	470.45
375.78	643.65
375.97	629.60
376.17	1020.47
376.37	514.92
376.56	543.00
376.76	369.80
376.95	376.83
377.15	657.69
377.35	622.58
377.54	615.56
377.74	395.55
377.93	402.57
378.13	571.09
378.33	664.71
378.52	498.53
378.72	706.84
378.91	732.59
379.11	454.06
379.31	374.49
379.50	294.91
379.70	688.12
379.89	746.63
380.09	311.29
380.28	313.63
380.48	535.98
380.68	451.72
380.87	287.89
381.07	592.16
381.26	816.85
381.46	697.48
381.65	564.07
381.85	369.80
382.04	435.34
382.24	629.60
382.43	514.92
382.63	369.80
382.83	437.68
383.02	662.37
383.22	711.52
383.41	454.06
383.61	500.87
383.80	489.17
384.00	470.45
384.19	440.02
384.39	528.96
384.58	517.26
384.78	578.11
384.97	475.13
385.17	535.98
385.36	454.06
385.56	678.76
385.75	285.55
385.95	425.98
386.14	657.69
386.34	456.40
386.53	528.96
386.72	414.27
386.92	873.02
387.11	683.44
387.31	645.99
387.50	379.17
387.70	402.57
387.89	514.92
388.09	397.89
388.28	322.99
388.48	449.38
388.67	690.46
388.86	479.81
389.06	465.77
389.25	589.82
389.45	559.39
389.64	447.04
389.84	664.71
390.03	720.88
390.22	470.45
390.42	484.49
390.61	334.70
390.81	299.59
391.00	559.39
391.19	690.46
391.39	571.09
391.58	610.88
391.78	507.90
391.97	568.75
392.16	440.02
392.36	842.59
392.55	767.70
392.75	500.87
392.94	472.79
393.13	608.54
393.33	262.14
393.52	468.11
393.71	816.85
393.91	557.05
394.10	313.63
394.29	362.78
394.49	477.47
394.68	489.17
394.88	812.17
395.07	748.97
395.26	610.88
395.46	486.83
395.65	734.93
395.84	592.16
396.04	1153.88
396.23	547.69
396.42	435.34
396.62	634.29
396.81	557.05
397.00	454.06
397.19	561.73
397.39	482.15
397.58	847.27
397.77	477.47
397.97	538.32
398.16	486.83
398.35	634.29
398.55	440.02
398.74	615.56
398.93	741.95
399.12	477.47
399.32	643.65
399.51	526.62
399.70	685.78
399.90	657.69
400.09	575.77
400.28	676.41
400.47	447.04
400.67	741.95
400.86	613.22
401.05	582.79
401.24	755.99
401.44	690.46
401.63	739.61
401.82	763.01
402.01	397.89
402.21	648.33
402.40	653.01
402.59	547.69
402.78	496.19
402.97	573.43
403.17	636.63
403.36	704.50
403.55	465.77
403.74	559.39
403.93	521.94
404.13	828.55
404.32	500.87
404.51	491.51
404.70	753.65
404.89	505.56
405.09	917.49
405.28	566.41
405.47	461.09
405.66	678.76
405.85	828.55
406.05	566.41
406.24	594.50
406.43	653.01
406.62	732.59
406.81	997.07
407.00	788.76
407.20	552.37
407.39	489.17
407.58	554.71
407.77	669.39
407.96	868.34
408.15	727.91
408.34	692.80
408.54	737.27
408.73	582.79
408.92	655.35
409.11	814.51
409.30	880.04
409.49	421.30
409.68	592.16
409.87	561.73
410.07	451.72
410.26	643.65
410.45	571.09
410.64	610.88
410.83	650.67
411.02	578.11
411.21	631.94
411.40	739.61
411.59	650.67
411.78	538.32
411.98	634.29
412.17	493.85
412.36	547.69
412.55	589.82
412.74	779.40
412.93	1008.77
413.12	545.34
413.31	791.10
413.50	648.33
413.69	653.01
413.88	882.38
414.07	688.12
414.26	653.01
414.45	587.47
414.64	725.57
414.83	751.31
415.02	758.33
415.22	772.38
415.41	910.47
415.60	660.03
415.79	669.39
415.98	1004.09
416.17	713.86
416.36	758.33
416.55	552.37
416.74	739.61
416.93	896.43
417.12	629.60
417.31	596.84
417.50	573.43
417.69	1064.94
417.88	720.88
418.07	601.52
418.26	660.03
418.45	641.31
418.64	1006.43
418.83	840.25
419.02	814.51
419.21	746.63
419.39	657.69
419.58	528.96
419.77	676.41
419.96	877.70
420.15	1011.11
420.34	629.60
420.53	711.52
420.72	908.13
420.91	744.29
421.10	685.78
421.29	765.36
421.48	851.96
421.67	889.40
421.86	468.11
422.05	627.26
422.24	643.65
422.43	699.82
422.61	491.51
422.80	645.99
422.99	695.14
423.18	603.86
423.37	1057.92
423.56	854.30
423.75	847.27
423.94	589.82
424.13	575.77
424.32	638.97
424.50	748.97
424.69	681.10
424.88	959.62
425.07	650.67
425.26	765.36
425.45	910.47
425.64	643.65
425.83	681.10
426.01	954.94
426.20	800.46
426.39	681.10
426.58	660.03
426.77	765.36
426.96	898.77
427.15	814.51
427.33	615.56
427.52	711.52
427.71	805.14
427.90	755.99
428.09	695.14
428.28	578.11
428.46	692.80
428.65	819.19
428.84	978.34
429.03	1078.99
429.22	697.48
429.40	524.28
429.59	500.87
429.78	1064.94
429.97	667.05
430.16	552.37
430.34	660.03
430.53	603.86
430.72	629.60
430.91	905.79
431.10	514.92
431.28	720.88
431.47	880.04
431.66	856.64
431.85	683.44
432.03	627.26
432.22	1275.59
432.41	793.44
432.60	1032.18
432.79	617.90
432.97	765.36
433.16	784.08
433.35	575.77
433.54	681.10
433.72	751.31
433.91	873.02
434.10	627.26
434.28	709.18
434.47	702.16
434.66	887.06
434.85	596.84
435.03	702.16
435.22	1076.65
435.41	1156.22
435.59	938.55
435.78	814.51
435.97	702.16
436.16	894.08
436.34	709.18
436.53	819.19
436.72	1008.77
436.90	910.47
437.09	826.21
437.28	739.61
437.46	657.69
437.65	877.70
437.84	781.74
438.02	798.12
438.21	798.12
438.40	676.41
438.58	634.29
438.77	809.83
438.96	734.93
439.14	720.88
439.33	1008.77
439.52	667.05
439.70	777.06
439.89	954.94
440.08	849.61
440.26	844.93
440.45	1123.46
440.63	814.51
440.82	828.55
441.01	849.61
441.19	753.65
441.38	788.76
441.57	802.80
441.75	1128.14
441.94	1048.56
442.12	929.19
442.31	781.74
442.50	779.40
442.68	716.20
442.87	814.51
443.05	774.72
443.24	823.87
443.43	1041.54
443.61	1076.65
443.80	812.17
443.98	833.23
444.17	763.01
444.35	992.39
444.54	798.12
444.73	802.80
444.91	1090.69
445.10	704.50
445.28	723.23
445.47	767.70
445.65	734.93
445.84	727.91
446.02	814.51
446.21	828.55
446.39	718.54
446.58	926.85
446.77	760.67
446.95	826.21
447.14	1015.79
447.32	1252.19
447.51	912.81
447.69	938.55
447.88	903.45
448.06	1235.80
448.25	905.79
448.43	767.70
448.62	748.97
448.80	966.64
448.99	990.05
449.17	723.23
449.36	751.31
449.54	1046.22
449.73	748.97
449.91	950.26
450.10	842.59
450.28	1397.30
450.46	1296.66
450.65	1137.50
450.83	990.05
451.02	842.59
451.20	842.59
451.39	807.48
451.57	868.34
451.76	730.25
451.94	826.21
452.13	950.26
452.31	1086.01
452.49	1011.11
452.68	755.99
452.86	945.58
453.05	1362.19
453.23	856.64
453.42	711.52
453.60	826.21
453.78	929.19
453.97	786.42
454.15	706.84
454.34	826.21
454.52	791.10
454.70	1188.99
454.89	1074.31
455.07	784.08
455.26	992.39
455.44	1053.24
455.62	802.80
455.81	961.96
455.99	1043.88
456.17	1100.05
456.36	990.05
456.54	873.02
456.73	917.49
456.91	828.55
457.09	1020.47
457.28	1174.95
457.46	922.17
457.64	1074.31
457.83	816.85
458.01	847.27
458.19	922.17
458.38	828.55
458.56	990.05
458.74	711.52
458.93	973.66
459.11	894.08
459.29	777.06
459.48	1036.86
459.66	1261.55
459.84	1004.09
460.03	1776.47
460.21	1135.16
460.39	943.24
460.57	1210.06
460.76	1025.15
460.94	987.71
461.12	1336.45
461.31	1245.16
461.49	877.70
461.67	851.96
461.85	1008.77
462.04	882.38
462.22	5844.32
462.40	1259.21
462.59	1224.10
462.77	903.45
462.95	994.73
463.13	854.30
463.32	1107.07
463.50	938.55
463.68	990.05
463.86	1015.79
464.05	840.25
464.23	1116.44
464.41	1128.14
464.59	774.72
464.78	875.36
464.96	826.21
465.14	945.58
465.32	816.85
465.50	1029.84
465.69	1095.37
465.87	758.33
466.05	976.00
466.23	725.57
466.41	882.38
466.60	919.83
466.78	943.24
466.96	1191.33
467.14	971.32
467.32	1102.39
467.51	1081.33
467.69	1006.43
467.87	1242.82
468.05	973.66
468.23	1324.74
468.41	1193.67
468.60	1015.79
468.78	1020.47
468.96	1078.99
469.14	1036.86
469.32	784.08
469.50	767.70
469.69	1032.18
469.87	971.32
470.05	945.58
470.23	950.26
470.41	842.59
470.59	734.93
470.77	990.05
470.95	987.71
471.14	1275.59
471.32	943.24
471.50	1331.76
471.68	1001.75
471.86	1118.78
472.04	863.66
472.22	884.72
472.40	819.19
472.58	912.81
472.77	854.30
472.95	887.06
473.13	1411.34
473.31	1163.25
473.49	828.55
473.67	868.34
473.85	1029.84
474.03	1163.25
474.21	1025.15
474.39	1205.38
474.57	1453.47
474.75	1062.60
474.93	847.27
475.12	805.14
475.30	873.02
475.48	943.24
475.66	990.05
475.84	992.39
476.02	966.64
476.20	1100.05
476.38	990.05
476.56	1565.82
476.74	1015.79
476.92	912.81
477.10	1011.11
477.28	1135.16
477.46	964.30
477.64	1149.20
477.82	997.07
478.00	1043.88
478.18	1041.54
478.36	990.05
478.54	903.45
478.72	931.53
478.90	1001.75
479.08	1179.63
479.26	1067.28
479.44	924.51
479.62	844.93
479.80	933.87
479.98	896.43
480.16	894.08
480.34	1263.89
480.52	966.64
480.70	1188.99
480.88	950.26
481.06	910.47
481.24	1025.15
481.41	959.62
481.59	1233.46
481.77	1050.90
481.95	1041.54
482.13	1411.34
482.31	1158.57
482.49	1034.52
482.67	1191.33
482.85	1235.80
483.03	1196.01
483.21	1109.41
483.39	1128.14
483.57	1050.90
483.74	1467.52
483.92	1053.24
484.10	1114.10
484.28	1369.21
484.46	1682.85
484.64	1086.01
484.82	1207.72
485.00	1022.81
485.18	1214.74
485.35	1266.23
485.53	898.77
485.71	1338.79
485.89	840.25
486.07	985.37
486.25	1514.33
486.43	1219.42
486.61	1376.24
486.78	1228.78
486.96	1004.09
487.14	1128.14
487.32	1083.67
487.50	1156.22
487.68	1270.91
487.85	1104.73
488.03	1315.38
488.21	1451.13
488.39	1179.63
488.57	1350.49
488.75	1137.50
488.92	3948.48
489.10	1294.32
489.28	1710.93
489.46	1160.91
489.64	1273.25
489.81	1313.04
489.99	1387.94
490.17	1287.29
490.35	1893.49
490.53	1268.57
490.70	1156.22
490.88	1448.79
491.06	1172.61
491.24	1397.30
491.41	1563.48
491.59	1427.73
491.77	1181.97
491.95	1144.52
492.13	1053.24
492.30	1329.42
492.48	1315.38
492.66	1362.19
492.84	1249.85
493.01	1317.72
493.19	1221.76
493.37	1778.81
493.54	1507.30
493.72	1406.66
493.90	1324.74
494.08	1270.91
494.25	1528.37
494.43	1451.13
494.61	1362.19
494.79	1308.36
494.96	1263.89
495.14	1504.96
495.32	1409.00
495.49	1488.58
495.67	1301.34
495.85	1334.11
496.02	1324.74
496.20	1523.69
496.38	1621.99
496.55	1404.32
496.73	1549.43
496.91	1355.17
497.09	1556.46
497.26	1401.98
497.44	1502.62
497.62	1446.45
497.79	1455.81
497.97	1495.60
498.14	1500.28
498.32	1530.71
498.50	1554.12
498.67	1383.26
498.85	1528.37
499.03	1369.21
499.20	1430.07
499.38	1465.18
499.56	1418.36
499.73	1799.87
499.91	1593.90
500.08	1610.29
500.26	1425.39
500.44	1343.47
500.61	1568.16
500.79	1324.74
500.97	1547.09
501.14	1724.97
501.32	1427.73
501.49	1682.85
501.67	1507.30
501.84	1600.93
502.02	1212.40
502.20	1874.77
502.37	1479.22
502.55	1345.81
502.72	1394.96
502.90	1685.19
503.07	1523.69
503.25	1423.05
503.43	1416.02
503.60	1430.07
503.78	1483.90
503.95	1338.79
504.13	1411.34
504.30	1596.25
504.48	1696.89
504.65	1764.76
504.83	1629.01
505.01	1453.47
505.18	1509.65
505.36	1481.56
505.53	1416.02
505.71	1455.81
505.88	1776.47
506.06	1425.39
506.23	1423.05
506.41	1418.36
506.58	1647.74
506.76	1497.94
506.93	1399.64
507.11	1479.22
507.28	1357.51
507.46	1324.74
507.63	1568.16
507.81	1299.00
507.98	1486.24
508.16	1533.05
508.33	1551.78
508.50	1631.35
508.68	1523.69
508.85	1549.43
509.03	1416.02
509.20	1458.15
509.38	1629.01
509.55	1722.63
509.73	1792.85
509.90	1767.10
510.08	1371.55
510.25	1732.00
510.42	1301.34
510.60	1497.94
510.77	1610.29
510.95	1720.29
511.12	1530.71
511.30	1710.93
511.47	1776.47
511.64	1952.01
511.82	1568.16
511.99	1535.39
512.17	1483.90
512.34	1502.62
512.51	1425.39
512.69	1469.86
512.86	1732.00
513.04	1357.51
513.21	1603.27
513.38	1465.18
513.56	1427.73
513.73	1437.09
513.90	1315.38
514.08	1371.55
514.25	1764.76
514.43	1572.84
514.60	1399.64
514.77	1500.28
514.95	1624.33
515.12	1406.66
515.29	1502.62
515.47	1657.10
515.64	1579.86
515.81	1600.93
515.99	1788.17
516.16	1643.06
516.33	1682.85
516.51	1338.79
516.68	1179.63
516.85	1308.36
517.03	1357.51
517.20	1519.01
517.37	1570.50
517.54	1633.69
517.72	1533.05
517.89	1235.80
518.06	1289.64
518.24	1858.39
518.41	1991.80
518.58	1678.16
518.75	1444.11
518.93	1586.88
519.10	1640.72
519.27	1458.15
519.45	1610.29
519.62	1708.59
519.79	1710.93
519.96	1420.71
520.14	1631.35
520.31	1790.51
520.48	1495.60
520.65	1614.97
520.83	1783.49
521.00	1680.50
521.17	1645.40
521.34	1493.26
521.52	1724.97
521.69	1568.16
521.86	1563.48
522.03	1743.70
522.20	1982.43
522.38	1507.30
522.55	1664.12
522.72	1425.39
522.89	1746.04
523.07	1956.69
523.24	1533.05
523.41	1521.35
523.58	1497.94
523.75	1479.22
523.92	1458.15
524.10	1643.06
524.27	1589.22
524.44	1537.73
524.61	1853.70
524.78	1542.41
524.96	1764.76
525.13	1668.80
525.30	1853.70
525.47	1769.44
525.64	1614.97
525.81	1708.59
525.98	1729.66
526.16	1504.96
526.33	1359.85
526.50	1343.47
526.67	1303.68
526.84	1404.32
527.01	1299.00
527.18	1645.40
527.36	1621.99
527.53	1462.83
527.70	1827.96
527.87	1593.90
528.04	2108.82
528.21	1561.14
528.38	1837.32
528.55	1863.07
528.72	1963.71
528.89	2080.74
529.07	1668.80
529.24	1668.80
529.41	2062.01
529.58	1788.17
529.75	1610.29
529.92	1778.81
530.09	1715.61
530.26	1867.75
530.43	1753.06
530.60	1678.16
530.77	1710.93
530.94	1746.04
531.11	1757.74
531.28	1624.33
531.46	1554.12
531.63	1621.99
531.80	1699.23
531.97	1699.23
532.14	1717.95
532.31	1591.56
532.48	1710.93
532.65	1746.04
532.82	1537.73
532.99	1703.91
533.16	1640.72
533.33	1533.05
533.50	1645.40
533.67	1666.46
533.84	1856.04
534.01	1774.13
534.18	1736.68
534.35	1673.48
534.52	1708.59
534.69	2167.34
534.86	1657.10
535.03	1614.97
535.20	1542.41
535.37	1895.83
535.54	1755.40
535.71	1666.46
535.88	1963.71
536.05	1650.08
536.22	1750.72
536.38	1530.71
536.55	1755.40
536.72	1863.07
536.89	1458.15
537.06	1425.39
537.23	1537.73
537.40	1624.33
537.57	1575.18
537.74	1867.75
537.91	1839.66
538.08	1647.74
538.25	1689.87
538.42	1563.48
538.59	1671.14
538.75	1687.53
538.92	1558.80
539.09	1853.70
539.26	1689.87
539.43	2162.66
539.60	2443.52
539.77	2874.18
539.94	2700.98
540.11	2251.60
540.28	2314.79
540.44	2033.93
540.61	1612.63
540.78	1469.86
540.95	1441.77
541.12	1952.01
541.29	1551.78
541.46	1954.35
541.62	1643.06
541.79	1603.27
541.96	1502.62
542.13	1540.07
542.30	1439.43
542.47	1825.62
542.63	1579.86
542.80	1668.80
542.97	1839.66
543.14	1526.03
543.31	1792.85
543.48	1671.14
543.64	1640.72
543.81	1584.54
543.98	1507.30
544.15	1373.89
544.32	1540.07
544.48	1572.84
544.65	1540.07
544.82	1530.71
544.99	1605.61
545.16	1755.40
545.32	1526.03
545.49	1687.53
545.66	1626.67
545.83	1495.60
546.00	1418.36
546.16	1586.88
546.33	1533.05
546.50	1610.29
546.67	1867.75
546.83	1827.96
547.00	1661.78
547.17	1427.73
547.34	1495.60
547.50	1558.80
547.67	1612.63
547.84	1533.05
548.00	1717.95
548.17	1446.45
548.34	1537.73
548.51	1970.73
548.67	1729.66
548.84	1486.24
549.01	1685.19
549.18	1659.44
549.34	1696.89
549.51	1687.53
549.68	1600.93
549.84	1607.95
550.01	1425.39
550.18	2534.80
550.34	2181.38
550.51	1652.42
550.68	2015.20
550.84	1600.93
551.01	1647.74
551.18	1717.95
551.34	1636.03
551.51	1486.24
551.68	1657.10
551.84	1727.32
552.01	1460.49
552.18	1401.98
552.34	1528.37
552.51	1696.89
552.68	1778.81
552.84	1556.46
553.01	1650.08
553.18	1750.72
553.34	1511.99
553.51	1479.22
553.67	1645.40
553.84	1982.43
554.01	1732.00
554.17	1715.61
554.34	1416.02
554.51	1673.48
554.67	1816.26
554.84	1788.17
555.00	1605.61
555.17	1593.90
555.33	1806.89
555.50	1708.59
555.67	1720.29
555.83	1462.83
556.00	1561.14
556.16	3194.83
556.33	1568.16
556.50	1500.28
556.66	1556.46
556.83	1418.36
556.99	1437.09
557.16	1430.07
557.32	1362.19
557.49	1521.35
557.65	1547.09
557.82	1462.83
557.98	1561.14
558.15	1465.18
558.32	1540.07
558.48	1413.68
558.65	1420.71
558.81	1612.63
558.98	1394.96
559.14	1708.59
559.31	1577.52
559.47	1626.67
559.64	1423.05
559.80	1701.57
559.97	1430.07
560.13	1521.35
560.30	1425.39
560.46	1570.50
560.63	1528.37
560.79	1465.18
560.96	1603.27
561.12	1439.43
561.29	1661.78
561.45	1437.09
561.61	1565.82
561.78	2368.62
561.94	1523.69
562.11	1437.09
562.27	1565.82
562.44	1362.19
562.60	1481.56
562.77	1420.71
562.93	2136.91
563.10	1610.29
563.26	1519.01
563.42	1790.51
563.59	1563.48
563.75	1437.09
563.92	1724.97
564.08	1568.16
564.24	1657.10
564.41	1973.07
564.57	1413.68
564.74	1514.33
564.90	1502.62
565.07	1743.70
565.23	1724.97
565.39	1427.73
565.56	1687.53
565.72	1409.00
565.88	1378.58
566.05	1378.58
566.21	1406.66
566.38	1549.43
566.54	1535.39
566.70	1462.83
566.87	1516.67
567.03	1275.59
567.19	1509.65
567.36	1654.76
567.52	1423.05
567.68	1596.25
567.85	1645.40
568.01	1376.24
568.17	1266.23
568.34	1458.15
568.50	1767.10
568.66	1327.08
568.83	2080.74
568.99	1366.87
569.15	1771.79
569.32	1446.45
569.48	1378.58
569.64	1296.66
569.81	1409.00
569.97	1458.15
570.13	1619.65
570.30	1357.51
570.46	1245.16
570.62	1345.81
570.78	1497.94
570.95	1320.06
571.11	1853.70
571.27	1783.49
571.43	1282.61
571.60	1631.35
571.76	1488.58
571.92	1420.71
572.09	1409.00
572.25	1432.41
572.41	1535.39
572.57	1479.22
572.74	1987.11
572.90	1682.85
573.06	1657.10
573.22	1624.33
573.38	1650.08
573.55	1577.52
573.71	1626.67
573.87	1554.12
574.03	1299.00
574.20	1420.71
574.36	1633.69
574.52	1467.52
574.68	1462.83
574.84	1589.22
575.01	1432.41
575.17	1549.43
575.33	1341.13
575.49	1736.68
575.65	1652.42
575.82	1830.30
575.98	2216.49
576.14	1966.05
576.30	1830.30
576.46	1678.16
576.62	1675.82
576.79	1687.53
576.95	1856.04
577.11	1519.01
577.27	1324.74
577.43	1788.17
577.59	1806.89
577.75	1626.67
577.92	1425.39
578.08	1352.83
578.24	1336.45
578.40	1696.89
578.56	1689.87
578.72	1715.61
578.88	1692.21
579.04	1441.77
579.21	1509.65
579.37	1493.26
579.53	1397.30
579.69	1678.16
579.85	1385.60
580.01	1687.53
580.17	1507.30
580.33	1547.09
580.49	1572.84
580.65	1645.40
580.82	1526.03
580.98	1497.94
581.14	1486.24
581.30	1799.87
581.46	1643.06
581.62	1923.92
581.78	1776.47
581.94	1858.39
582.10	1406.66
582.26	1659.44
582.42	1586.88
582.58	1675.82
582.74	1479.22
582.90	1776.47
583.06	1778.81
583.22	1591.56
583.38	1558.80
583.54	1530.71
583.70	2045.63
583.86	1923.92
584.02	1928.60
584.18	2340.54
584.34	2298.41
584.50	4863.63
584.66	29427.56
584.82	55622.83
584.98	62085.05
585.14	57551.43
585.30	41940.06
585.46	26321.66
585.62	16137.99
585.78	8124.00
585.94	4280.84
586.10	2551.18
586.26	2190.74
586.42	2279.68
586.58	1970.73
586.74	1701.57
586.90	1654.76
587.06	1797.53
587.22	1650.08
587.38	1643.06
587.54	2541.82
587.70	5146.84
587.86	6754.79
588.02	6476.26
588.18	4884.70
588.34	3653.58
588.49	2424.80
588.65	1996.48
588.81	1549.43
588.97	1095.37
589.13	1228.78
589.29	1301.34
589.45	1486.24
589.61	1331.76
589.77	1680.50
589.93	1355.17
590.08	1338.79
590.24	1341.13
590.40	1476.88
590.56	1614.97
590.72	1287.29
590.88	1104.73
591.04	1502.62
591.20	1355.17
591.35	1682.85
591.51	1373.89
591.67	1181.97
591.83	1308.36
591.99	1444.11
592.15	1479.22
592.31	1547.09
592.46	1345.81
592.62	1610.29
592.78	1341.13
592.94	1231.12
593.10	1287.29
593.26	1263.89
593.41	1437.09
593.57	1446.45
593.73	1575.18
593.89	4620.22
594.05	8341.67
594.20	10593.26
594.36	9724.93
594.52	6686.91
594.68	4723.20
594.84	3585.70
594.99	2745.45
595.15	1734.34
595.31	1694.55
595.47	1863.07
595.62	1341.13
595.78	1359.85
595.94	1336.45
596.10	1743.70
596.25	1357.51
596.41	1549.43
596.57	1294.32
596.73	1322.40
596.88	1657.10
597.04	2693.96
597.20	3243.98
597.36	3463.99
597.51	2789.92
597.67	2202.44
597.83	1870.09
597.99	1865.41
598.14	1507.30
598.30	1685.19
598.46	1338.79
598.61	1528.37
598.77	1479.22
598.93	1291.98
599.09	1371.55
599.24	1394.96
599.40	1598.59
599.56	1313.04
599.71	1355.17
599.87	1343.47
600.03	1301.34
600.18	1273.25
600.34	1416.02
600.50	1256.87
600.65	1137.50
600.81	1500.28
600.97	1214.74
601.12	1317.72
