SpectraSuite Data File
++++++++++++++++++++++++++++++++++++
Date: Fri Oct 04 12:14:10 GMT-05:00 2013
User: price-jones
Dark Spectrum Present: No
Reference Spectrum Present: No
Number of Sampled Component Spectra: 1
Spectrometers: USB2+H05261
Integration Time (usec): 1000000 (USB2+H05261)
Spectra Averaged: 1 (USB2+H05261)
Boxcar Smoothing: 0 (USB2+H05261)
Correct for Electrical Dark: No (USB2+H05261)
Strobe/Lamp Enabled: No (USB2+H05261)
Correct for Detector Non-linearity: No (USB2+H05261)
Correct for Stray Light: No (USB2+H05261)
Number of Pixels in Processed Spectrum: 2048
>>>>>Begin Processed Spectral Data<<<<<
365.73	35.11
365.92	35.11
366.12	35.11
366.32	0.00
366.52	0.00
366.72	348.74
366.91	91.28
367.11	308.95
367.31	299.59
367.51	271.50
367.70	313.63
367.90	535.98
368.10	379.17
368.30	334.70
368.49	196.60
368.69	484.49
368.89	285.55
369.09	154.48
369.28	341.72
369.48	131.07
369.68	292.57
369.87	440.02
370.07	177.88
370.27	554.71
370.47	379.17
370.66	259.80
370.86	503.22
371.06	727.91
371.25	978.34
371.45	400.23
371.65	550.03
371.84	318.31
372.04	299.59
372.24	458.74
372.44	372.15
372.63	472.79
372.83	849.61
373.03	456.40
373.22	376.83
373.42	409.59
373.62	475.13
373.81	561.73
374.01	765.36
374.21	641.31
374.40	456.40
374.60	664.71
374.79	468.11
374.99	458.74
375.19	660.03
375.38	629.60
375.58	503.22
375.78	617.90
375.97	660.03
376.17	964.30
376.37	540.66
376.56	596.84
376.76	325.33
376.95	376.83
377.15	690.46
377.35	575.77
377.54	545.34
377.74	362.78
377.93	411.93
378.13	554.71
378.33	671.73
378.52	498.53
378.72	702.16
378.91	653.01
379.11	416.62
379.31	451.72
379.50	315.97
379.70	685.78
379.89	681.10
380.09	416.62
380.28	308.95
380.48	449.38
380.68	339.38
380.87	266.82
381.07	552.37
381.26	755.99
381.46	634.29
381.65	655.35
381.85	402.57
382.04	477.47
382.24	552.37
382.43	512.58
382.63	409.59
382.83	454.06
383.02	706.84
383.22	812.17
383.41	290.23
383.61	475.13
383.80	390.87
384.00	510.24
384.19	414.27
384.39	470.45
384.58	322.99
384.78	592.16
384.97	484.49
385.17	500.87
385.36	442.36
385.56	704.50
385.75	444.70
385.95	510.24
386.14	727.91
386.34	390.87
386.53	606.20
386.72	440.02
386.92	772.38
387.11	617.90
387.31	641.31
387.50	404.91
387.70	381.51
387.89	517.26
388.09	360.44
388.28	344.06
388.48	285.55
388.67	699.82
388.86	470.45
389.06	437.68
389.25	613.22
389.45	594.50
389.64	498.53
389.84	737.27
390.03	664.71
390.22	461.09
390.42	456.40
390.61	358.10
390.81	315.97
391.00	573.43
391.19	622.58
391.39	538.32
391.58	575.77
391.78	528.96
391.97	594.50
392.16	381.51
392.36	844.93
392.55	725.57
392.75	559.39
392.94	500.87
393.13	601.52
393.33	365.12
393.52	404.91
393.71	791.10
393.91	543.00
394.10	397.89
394.29	486.83
394.49	465.77
394.68	582.79
394.88	760.67
395.07	770.04
395.26	512.58
395.46	475.13
395.65	774.72
395.84	620.24
396.04	1043.88
396.23	571.09
396.42	395.55
396.62	554.71
396.81	594.50
397.00	554.71
397.19	599.18
397.39	397.89
397.58	779.40
397.77	500.87
397.97	580.45
398.16	599.18
398.35	706.84
398.55	447.04
398.74	557.05
398.93	753.65
399.12	531.30
399.32	669.39
399.51	571.09
399.70	636.63
399.90	631.94
400.09	638.97
400.28	788.76
400.47	507.90
400.67	751.31
400.86	608.54
401.05	683.44
401.24	758.33
401.44	688.12
401.63	711.52
401.82	767.70
402.01	493.85
402.21	620.24
402.40	664.71
402.59	482.15
402.78	517.26
402.97	580.45
403.17	603.86
403.36	575.77
403.55	552.37
403.74	444.70
403.93	564.07
404.13	894.08
404.32	491.51
404.51	519.60
404.70	763.01
404.89	559.39
405.09	1057.92
405.28	557.05
405.47	407.25
405.66	695.14
405.85	837.91
406.05	634.29
406.24	564.07
406.43	603.86
406.62	631.94
406.81	1008.77
407.00	910.47
407.20	653.01
407.39	606.20
407.58	512.58
407.77	671.73
407.96	840.25
408.15	732.59
408.34	709.18
408.54	653.01
408.73	655.35
408.92	601.52
409.11	723.23
409.30	849.61
409.49	475.13
409.68	573.43
409.87	641.31
410.07	493.85
410.26	631.94
410.45	550.03
410.64	528.96
410.83	587.47
411.02	610.88
411.21	720.88
411.40	774.72
411.59	622.58
411.78	617.90
411.98	547.69
412.17	465.77
412.36	678.76
412.55	580.45
412.74	805.14
412.93	976.00
413.12	535.98
413.31	812.17
413.50	767.70
413.69	585.13
413.88	910.47
414.07	608.54
414.26	685.78
414.45	645.99
414.64	786.42
414.83	711.52
415.02	664.71
415.22	683.44
415.41	1027.50
415.60	512.58
415.79	638.97
415.98	894.08
416.17	678.76
416.36	653.01
416.55	554.71
416.74	751.31
416.93	894.08
417.12	660.03
417.31	554.71
417.50	730.25
417.69	1135.16
417.88	723.23
418.07	620.24
418.26	711.52
418.45	720.88
418.64	1039.20
418.83	805.14
419.02	847.27
419.21	685.78
419.39	779.40
419.58	667.05
419.77	634.29
419.96	999.41
420.15	980.68
420.34	746.63
420.53	692.80
420.72	896.43
420.91	660.03
421.10	727.91
421.29	840.25
421.48	828.55
421.67	800.46
421.86	580.45
422.05	671.73
422.24	622.58
422.43	751.31
422.61	550.03
422.80	608.54
422.99	748.97
423.18	589.82
423.37	1013.45
423.56	770.04
423.75	800.46
423.94	557.05
424.13	730.25
424.32	624.92
424.50	709.18
424.69	692.80
424.88	896.43
425.07	592.16
425.26	802.80
425.45	959.62
425.64	718.54
425.83	767.70
426.01	1076.65
426.20	767.70
426.39	685.78
426.58	655.35
426.77	730.25
426.96	908.13
427.15	765.36
427.33	664.71
427.52	823.87
427.71	730.25
427.90	610.88
428.09	678.76
428.28	564.07
428.46	624.92
428.65	840.25
428.84	959.62
429.03	1071.97
429.22	667.05
429.40	566.41
429.59	566.41
429.78	1109.41
429.97	690.46
430.16	538.32
430.34	627.26
430.53	571.09
430.72	582.79
430.91	903.45
431.10	585.13
431.28	660.03
431.47	954.94
431.66	908.13
431.85	702.16
432.03	704.50
432.22	1200.69
432.41	788.76
432.60	950.26
432.79	784.08
432.97	844.93
433.16	828.55
433.35	774.72
433.54	615.56
433.72	791.10
433.91	957.28
434.10	650.67
434.28	861.32
434.47	660.03
434.66	964.30
434.85	648.33
435.03	770.04
435.22	1160.91
435.41	1144.52
435.59	844.93
435.78	851.96
435.97	718.54
436.16	1011.11
436.34	763.01
436.53	854.30
436.72	978.34
436.90	915.15
437.09	931.53
437.28	793.44
437.46	692.80
437.65	926.85
437.84	821.53
438.02	809.83
438.21	861.32
438.40	683.44
438.58	559.39
438.77	751.31
438.96	898.77
439.14	704.50
439.33	1001.75
439.52	711.52
439.70	765.36
439.89	968.98
440.08	936.21
440.26	870.68
440.45	1060.26
440.63	882.38
440.82	908.13
441.01	828.55
441.19	798.12
441.38	807.48
441.57	826.21
441.75	1027.50
441.94	1041.54
442.12	922.17
442.31	739.61
442.50	795.78
442.68	809.83
442.87	870.68
443.05	781.74
443.24	866.00
443.43	1076.65
443.61	1111.75
443.80	931.53
443.98	786.42
444.17	763.01
444.35	1004.09
444.54	835.57
444.73	770.04
444.91	1095.37
445.10	760.67
445.28	697.48
445.47	875.36
445.65	823.87
445.84	699.82
446.02	858.98
446.21	835.57
446.39	800.46
446.58	924.51
446.77	723.23
446.95	882.38
447.14	999.41
447.32	1123.46
447.51	842.59
447.69	924.51
447.88	894.08
448.06	1217.08
448.25	922.17
448.43	716.20
448.62	739.61
448.80	978.34
448.99	1074.31
449.17	816.85
449.36	798.12
449.54	1029.84
449.73	830.89
449.91	973.66
450.10	833.23
450.28	1448.79
450.46	1476.88
450.65	1083.67
450.83	1053.24
451.02	748.97
451.20	915.15
451.39	833.23
451.57	781.74
451.76	903.45
451.94	835.57
452.13	1011.11
452.31	1036.86
452.49	976.00
452.68	688.12
452.86	887.06
453.05	1231.12
453.23	830.89
453.42	734.93
453.60	880.04
453.78	959.62
453.97	758.33
454.15	709.18
454.34	779.40
454.52	720.88
454.70	1167.93
454.89	1008.77
455.07	828.55
455.26	997.07
455.44	1097.71
455.62	814.51
455.81	919.83
455.99	901.11
456.17	1053.24
456.36	877.70
456.54	837.91
456.73	851.96
456.91	774.72
457.09	912.81
457.28	1078.99
457.46	978.34
457.64	1128.14
457.83	851.96
458.01	730.25
458.19	926.85
458.38	844.93
458.56	1001.75
458.74	779.40
458.93	1041.54
459.11	910.47
459.29	861.32
459.48	1064.94
459.66	1184.31
459.84	1018.13
460.03	1778.81
460.21	1097.71
460.39	858.98
460.57	1188.99
460.76	997.07
460.94	887.06
461.12	1320.06
461.31	1191.33
461.49	905.79
461.67	898.77
461.85	980.68
462.04	854.30
462.22	5959.00
462.40	1245.16
462.59	1268.57
462.77	908.13
462.95	945.58
463.13	788.76
463.32	1142.18
463.50	938.55
463.68	1048.56
463.86	933.87
464.05	894.08
464.23	1235.80
464.41	999.41
464.59	777.06
464.78	758.33
464.96	919.83
465.14	938.55
465.32	957.28
465.50	1032.18
465.69	1062.60
465.87	772.38
466.05	992.39
466.23	809.83
466.41	854.30
466.60	976.00
466.78	950.26
466.96	1146.86
467.14	1015.79
467.32	1163.25
467.51	1039.20
467.69	1039.20
467.87	1240.48
468.05	903.45
468.23	1308.36
468.41	1095.37
468.60	844.93
468.78	968.98
468.96	1193.67
469.14	1146.86
469.32	819.19
469.50	770.04
469.69	1048.56
469.87	945.58
470.05	891.74
470.23	912.81
470.41	770.04
470.59	805.14
470.77	999.41
470.95	936.21
471.14	1167.93
471.32	945.58
471.50	1352.83
471.68	1027.50
471.86	1090.69
472.04	926.85
472.22	1064.94
472.40	730.25
472.58	866.00
472.77	798.12
472.95	966.64
473.13	1430.07
473.31	1224.10
473.49	725.57
473.67	837.91
473.85	1034.52
474.03	1090.69
474.21	1025.15
474.39	1219.42
474.57	1380.92
474.75	1041.54
474.93	844.93
475.12	837.91
475.30	940.90
475.48	947.92
475.66	1006.43
475.84	980.68
476.02	1062.60
476.20	1163.25
476.38	1041.54
476.56	1558.80
476.74	1025.15
476.92	873.02
477.10	922.17
477.28	1181.97
477.46	898.77
477.64	1231.12
477.82	931.53
478.00	1062.60
478.18	1093.03
478.36	1029.84
478.54	929.19
478.72	976.00
478.90	1078.99
479.08	1013.45
479.26	1050.90
479.44	1069.62
479.62	898.77
479.80	1006.43
479.98	933.87
480.16	952.60
480.34	1181.97
480.52	1057.92
480.70	1200.69
480.88	947.92
481.06	901.11
481.24	971.32
481.41	1090.69
481.59	1303.68
481.77	1086.01
481.95	1057.92
482.13	1444.11
482.31	1041.54
482.49	1081.33
482.67	1231.12
482.85	1217.08
483.03	1135.16
483.21	1167.93
483.39	1048.56
483.57	1142.18
483.74	1378.58
483.92	1125.80
484.10	971.32
484.28	1404.32
484.46	1673.48
484.64	1090.69
484.82	1249.85
485.00	1036.86
485.18	1181.97
485.35	1238.14
485.53	936.21
485.71	1315.38
485.89	828.55
486.07	961.96
486.25	1600.93
486.43	1252.19
486.61	1371.55
486.78	1247.51
486.96	1062.60
487.14	1144.52
487.32	1060.26
487.50	1090.69
487.68	1345.81
487.85	1125.80
488.03	1287.29
488.21	1490.92
488.39	1196.01
488.57	1334.11
488.75	1095.37
488.92	3875.93
489.10	1413.68
489.28	1682.85
489.46	1179.63
489.64	1224.10
489.81	1268.57
489.99	1432.41
490.17	1306.02
490.35	1907.54
490.53	1212.40
490.70	1203.04
490.88	1497.94
491.06	1214.74
491.24	1481.56
491.41	1556.46
491.59	1376.24
491.77	1210.06
491.95	1111.75
492.13	1203.04
492.30	1291.98
492.48	1289.64
492.66	1409.00
492.84	1170.27
493.01	1437.09
493.19	1247.51
493.37	1659.44
493.54	1516.67
493.72	1430.07
493.90	1306.02
494.08	1277.93
494.25	1462.83
494.43	1434.75
494.61	1364.53
494.79	1364.53
494.96	1238.14
495.14	1511.99
495.32	1327.08
495.49	1439.43
495.67	1399.64
495.85	1359.85
496.02	1219.42
496.20	1607.95
496.38	1619.65
496.55	1394.96
496.73	1423.05
496.91	1277.93
497.09	1497.94
497.26	1409.00
497.44	1394.96
497.62	1451.13
497.79	1432.41
497.97	1565.82
498.14	1643.06
498.32	1469.86
498.50	1540.07
498.67	1334.11
498.85	1572.84
499.03	1352.83
499.20	1409.00
499.38	1392.62
499.56	1397.30
499.73	1888.81
499.91	1614.97
500.08	1624.33
500.26	1460.49
500.44	1348.15
500.61	1511.99
500.79	1306.02
500.97	1420.71
501.14	1734.34
501.32	1479.22
501.49	1755.40
501.67	1423.05
501.84	1575.18
502.02	1322.40
502.20	1865.41
502.37	1488.58
502.55	1469.86
502.72	1507.30
502.90	1687.53
503.07	1495.60
503.25	1544.75
503.43	1329.42
503.60	1273.25
503.78	1570.50
503.95	1397.30
504.13	1308.36
504.30	1591.56
504.48	1631.35
504.65	1837.32
504.83	1605.61
505.01	1465.18
505.18	1554.12
505.36	1514.33
505.53	1472.20
505.71	1502.62
505.88	1750.72
506.06	1380.92
506.23	1399.64
506.41	1434.75
506.58	1582.20
506.76	1486.24
506.93	1446.45
507.11	1565.82
507.28	1441.77
507.46	1425.39
507.63	1631.35
507.81	1369.21
507.98	1516.67
508.16	1507.30
508.33	1633.69
508.50	1631.35
508.68	1586.88
508.85	1533.05
509.03	1558.80
509.20	1392.62
509.38	1579.86
509.55	1811.57
509.73	1724.97
509.90	1774.13
510.08	1448.79
510.25	1654.76
510.42	1380.92
510.60	1511.99
510.77	1624.33
510.95	1797.53
511.12	1575.18
511.30	1732.00
511.47	1774.13
511.64	1963.71
511.82	1563.48
511.99	1577.52
512.17	1495.60
512.34	1441.77
512.51	1446.45
512.69	1521.35
512.86	1872.43
513.04	1521.35
513.21	1647.74
513.38	1516.67
513.56	1430.07
513.73	1577.52
513.90	1357.51
514.08	1420.71
514.25	1652.42
514.43	1706.25
514.60	1458.15
514.77	1455.81
514.95	1626.67
515.12	1392.62
515.29	1565.82
515.47	1694.55
515.64	1675.82
515.81	1582.20
515.99	1804.55
516.16	1607.95
516.33	1748.38
516.51	1341.13
516.68	1249.85
516.85	1364.53
517.03	1329.42
517.20	1671.14
517.37	1659.44
517.54	1624.33
517.72	1598.59
517.89	1263.89
518.06	1371.55
518.24	1956.69
518.41	1872.43
518.58	1713.27
518.75	1357.51
518.93	1549.43
519.10	1575.18
519.27	1554.12
519.45	1584.54
519.62	1654.76
519.79	1643.06
519.96	1322.40
520.14	1652.42
520.31	1853.70
520.48	1568.16
520.65	1624.33
520.83	1706.25
521.00	1799.87
521.17	1715.61
521.34	1519.01
521.52	1706.25
521.69	1678.16
521.86	1724.97
522.03	1764.76
522.20	1926.26
522.38	1582.20
522.55	1593.90
522.72	1376.24
522.89	1839.66
523.07	2090.10
523.24	1668.80
523.41	1495.60
523.58	1586.88
523.75	1572.84
523.92	1514.33
524.10	1668.80
524.27	1643.06
524.44	1610.29
524.61	1839.66
524.78	1579.86
524.96	1811.57
525.13	1668.80
525.30	1825.62
525.47	1856.04
525.64	1696.89
525.81	1572.84
525.98	1607.95
526.16	1467.52
526.33	1568.16
526.50	1350.49
526.67	1308.36
526.84	1446.45
527.01	1378.58
527.18	1689.87
527.36	1603.27
527.53	1530.71
527.70	1795.19
527.87	1542.41
528.04	2045.63
528.21	1582.20
528.38	1872.43
528.55	1851.36
528.72	2001.16
528.89	2092.44
529.07	1710.93
529.24	1650.08
529.41	1926.26
529.58	1661.78
529.75	1530.71
529.92	1750.72
530.09	1717.95
530.26	1886.47
530.43	1696.89
530.60	1584.54
530.77	1661.78
530.94	1914.56
531.11	1823.28
531.28	1610.29
531.46	1549.43
531.63	1767.10
531.80	1724.97
531.97	1818.60
532.14	1610.29
532.31	1614.97
532.48	1678.16
532.65	1806.89
532.82	1710.93
532.99	1748.38
533.16	1813.92
533.33	1776.47
533.50	1732.00
533.67	1717.95
533.84	2026.90
534.01	1994.14
534.18	1842.00
534.35	1767.10
534.52	1724.97
534.69	2179.04
534.86	1629.01
535.03	1568.16
535.20	1645.40
535.37	1844.34
535.54	1827.96
535.71	1619.65
535.88	1966.05
536.05	1509.65
536.22	1844.34
536.38	1689.87
536.55	1612.63
536.72	1895.83
536.89	1448.79
537.06	1593.90
537.23	1549.43
537.40	1600.93
537.57	1551.78
537.74	1839.66
537.91	1715.61
538.08	1696.89
538.25	1783.49
538.42	1542.41
538.59	1717.95
538.75	1710.93
538.92	1699.23
539.09	1813.92
539.26	1554.12
539.43	2218.83
539.60	2993.55
539.77	3599.74
539.94	3344.63
540.11	2700.98
540.28	2518.42
540.44	2204.78
540.61	1727.32
540.78	1643.06
540.95	1441.77
541.12	1863.07
541.29	1507.30
541.46	1914.56
541.62	1696.89
541.79	1603.27
541.96	1383.26
542.13	1533.05
542.30	1558.80
542.47	1804.55
542.63	1540.07
542.80	1713.27
542.97	1921.58
543.14	1629.01
543.31	1694.55
543.48	1579.86
543.64	1769.44
543.81	1687.53
543.98	1488.58
544.15	1432.41
544.32	1458.15
544.48	1544.75
544.65	1535.39
544.82	1486.24
544.99	1614.97
545.16	1928.60
545.32	1521.35
545.49	1643.06
545.66	1596.25
545.83	1516.67
546.00	1434.75
546.16	1523.69
546.33	1575.18
546.50	1589.22
546.67	1858.39
546.83	1849.02
547.00	1631.35
547.17	1392.62
547.34	1439.43
547.50	1547.09
547.67	1572.84
547.84	1416.02
548.00	1687.53
548.17	1467.52
548.34	1523.69
548.51	1919.24
548.67	1729.66
548.84	1612.63
549.01	1664.12
549.18	1696.89
549.34	1729.66
549.51	1727.32
549.68	1762.42
549.84	1579.86
550.01	1420.71
550.18	2527.78
550.34	2244.57
550.51	1717.95
550.68	2033.93
550.84	1617.31
551.01	1612.63
551.18	1746.04
551.34	1717.95
551.51	1603.27
551.68	1675.82
551.84	1778.81
552.01	1584.54
552.18	1479.22
552.34	1696.89
552.51	1621.99
552.68	1739.02
552.84	1584.54
553.01	1657.10
553.18	1818.60
553.34	1556.46
553.51	1401.98
553.67	1720.29
553.84	2073.71
554.01	1806.89
554.17	1750.72
554.34	1561.14
554.51	1743.70
554.67	1839.66
554.84	1795.19
555.00	1706.25
555.17	1624.33
555.33	1823.28
555.50	1668.80
555.67	1727.32
555.83	1514.33
556.00	1605.61
556.16	3276.75
556.33	1785.83
556.50	1633.69
556.66	1544.75
556.83	1472.20
556.99	1540.07
557.16	1561.14
557.32	1444.11
557.49	1516.67
557.65	1507.30
557.82	1420.71
557.98	1596.25
558.15	1542.41
558.32	1521.35
558.48	1521.35
558.65	1502.62
558.81	1687.53
558.98	1500.28
559.14	1643.06
559.31	1554.12
559.47	1732.00
559.64	1362.19
559.80	1612.63
559.97	1453.47
560.13	1479.22
560.30	1423.05
560.46	1455.81
560.63	1544.75
560.79	1661.78
560.96	1521.35
561.12	1425.39
561.29	1664.12
561.45	1399.64
561.61	1610.29
561.78	2354.58
561.94	1493.26
562.11	1416.02
562.27	1547.09
562.44	1406.66
562.60	1434.75
562.77	1537.73
562.93	2150.95
563.10	1647.74
563.26	1612.63
563.42	1858.39
563.59	1490.92
563.75	1441.77
563.92	1715.61
564.08	1701.57
564.24	1696.89
564.41	2015.20
564.57	1474.54
564.74	1413.68
564.90	1664.12
565.07	1626.67
565.23	1746.04
565.39	1455.81
565.56	1652.42
565.72	1451.13
565.88	1563.48
566.05	1406.66
566.21	1502.62
566.38	1687.53
566.54	1617.31
566.70	1441.77
566.87	1420.71
567.03	1296.66
567.19	1579.86
567.36	1617.31
567.52	1490.92
567.68	1621.99
567.85	1713.27
568.01	1476.88
568.17	1362.19
568.34	1420.71
568.50	1762.42
568.66	1444.11
568.83	2165.00
568.99	1453.47
569.15	1874.77
569.32	1479.22
569.48	1474.54
569.64	1371.55
569.81	1418.36
569.97	1425.39
570.13	1558.80
570.30	1380.92
570.46	1362.19
570.62	1394.96
570.78	1432.41
570.95	1221.76
571.11	1881.79
571.27	1785.83
571.43	1341.13
571.60	1600.93
571.76	1523.69
571.92	1390.28
572.09	1441.77
572.25	1551.78
572.41	1561.14
572.57	1432.41
572.74	1944.99
572.90	1540.07
573.06	1664.12
573.22	1619.65
573.38	1722.63
573.55	1692.21
573.71	1682.85
573.87	1554.12
574.03	1324.74
574.20	1479.22
574.36	1849.02
574.52	1542.41
574.68	1547.09
574.84	1694.55
575.01	1493.26
575.17	1685.19
575.33	1441.77
575.49	1771.79
575.65	1650.08
575.82	1724.97
575.98	2452.88
576.14	2239.89
576.30	2099.46
576.46	1806.89
576.62	1809.23
576.79	1820.94
576.95	1827.96
577.11	1462.83
577.27	1287.29
577.43	1724.97
577.59	1739.02
577.75	1614.97
577.92	1411.34
578.08	1434.75
578.24	1359.85
578.40	1708.59
578.56	1856.04
578.72	1790.51
578.88	1647.74
579.04	1460.49
579.21	1614.97
579.37	1556.46
579.53	1458.15
579.69	1715.61
579.85	1441.77
580.01	1767.10
580.17	1441.77
580.33	1528.37
580.49	1739.02
580.65	1673.48
580.82	1624.33
580.98	1591.56
581.14	1511.99
581.30	1790.51
581.46	1762.42
581.62	2183.72
581.78	1937.96
581.94	2097.12
582.10	1626.67
582.26	1748.38
582.42	1671.14
582.58	1874.77
582.74	1685.19
582.90	1834.98
583.06	1870.09
583.22	1572.84
583.38	1699.23
583.54	1736.68
583.70	2389.69
583.86	2111.16
584.02	2216.49
584.18	2818.00
584.34	2815.66
584.50	6525.41
584.66	41783.24
584.82	65535.00
584.98	65535.00
585.14	65535.00
585.30	62857.43
585.46	42216.24
585.62	25972.92
585.78	12528.89
585.94	5666.44
586.10	3424.20
586.26	2513.74
586.42	2621.40
586.58	2181.38
586.74	2054.99
586.90	1949.67
587.06	2029.24
587.22	1849.02
587.38	1820.94
587.54	2960.78
587.70	6958.41
587.86	9886.42
588.02	10106.43
588.18	7243.96
588.34	5039.17
588.49	3344.63
588.65	2422.45
588.81	1699.23
588.97	1282.61
589.13	1446.45
589.29	1301.34
589.45	1612.63
589.61	1383.26
589.77	1788.17
589.93	1500.28
590.08	1535.39
590.24	1516.67
590.40	1612.63
590.56	1710.93
590.72	1469.86
590.88	1359.85
591.04	1511.99
591.20	1446.45
591.35	1776.47
591.51	1383.26
591.67	1259.21
591.83	1369.21
591.99	1579.86
592.15	1621.99
592.31	1437.09
592.46	1448.79
592.62	1612.63
592.78	1289.64
592.94	1233.46
593.10	1348.15
593.26	1207.72
593.41	1645.40
593.57	1582.20
593.73	1771.79
593.89	5966.03
594.05	12566.34
594.20	17001.65
594.36	15487.32
594.52	10399.00
594.68	6768.83
594.84	5013.43
594.99	3541.23
595.15	2099.46
595.31	1727.32
595.47	1797.53
595.62	1528.37
595.78	1462.83
595.94	1406.66
596.10	1823.28
596.25	1640.72
596.41	1661.78
596.57	1451.13
596.73	1348.15
596.88	1956.69
597.04	3386.76
597.20	4365.10
597.36	4697.46
597.51	3655.92
597.67	2668.21
597.83	2335.85
597.99	2125.21
598.14	1617.31
598.30	1736.68
598.46	1430.07
598.61	1703.91
598.77	1444.11
598.93	1378.58
599.09	1376.24
599.24	1483.90
599.40	1554.12
599.56	1387.94
599.71	1378.58
599.87	1341.13
600.03	1364.53
600.18	1359.85
600.34	1432.41
600.50	1313.04
600.65	1214.74
600.81	1544.75
600.97	1256.87
601.12	1430.07
