SpectraSuite Data File
++++++++++++++++++++++++++++++++++++
Date: Fri Oct 04 11:33:50 GMT-05:00 2013
User: price-jones
Dark Spectrum Present: No
Reference Spectrum Present: No
Number of Sampled Component Spectra: 1
Spectrometers: USB2+H05261
Integration Time (usec): 100000 (USB2+H05261)
Spectra Averaged: 1 (USB2+H05261)
Boxcar Smoothing: 0 (USB2+H05261)
Correct for Electrical Dark: No (USB2+H05261)
Strobe/Lamp Enabled: No (USB2+H05261)
Correct for Detector Non-linearity: No (USB2+H05261)
Correct for Stray Light: No (USB2+H05261)
Number of Pixels in Processed Spectrum: 2048
>>>>>Begin Processed Spectral Data<<<<<
365.73	124.05
365.92	124.05
366.12	124.05
366.32	49.15
366.52	0.00
366.72	0.00
366.91	0.00
367.11	56.17
367.31	0.00
367.51	0.00
367.70	0.00
367.90	0.00
368.10	16.38
368.30	0.00
368.49	0.00
368.69	0.00
368.89	0.00
369.09	0.00
369.28	0.00
369.48	16.38
369.68	35.11
369.87	0.00
370.07	0.00
370.27	4.68
370.47	72.56
370.66	32.77
370.86	74.90
371.06	117.03
371.25	156.82
371.45	95.96
371.65	2.34
371.84	121.71
372.04	121.71
372.24	63.19
372.44	168.52
372.63	98.30
372.83	147.45
373.03	119.37
373.22	79.58
373.42	166.18
373.62	107.66
373.81	105.32
374.01	198.95
374.21	182.56
374.40	110.01
374.60	58.51
374.79	131.07
374.99	98.30
375.19	175.54
375.38	168.52
375.58	161.50
375.78	156.82
375.97	173.20
376.17	177.88
376.37	198.95
376.56	119.37
376.76	191.92
376.95	145.11
377.15	194.26
377.35	231.71
377.54	196.60
377.74	133.41
377.93	173.20
378.13	163.84
378.33	110.01
378.52	138.09
378.72	168.52
378.91	166.18
379.11	147.45
379.31	131.07
379.50	74.90
379.70	112.35
379.89	154.48
380.09	100.64
380.28	138.09
380.48	72.56
380.68	112.35
380.87	67.88
381.07	196.60
381.26	163.84
381.46	161.50
381.65	91.28
381.85	191.92
382.04	77.24
382.24	84.26
382.43	184.90
382.63	121.71
382.83	121.71
383.02	159.16
383.22	138.09
383.41	95.96
383.61	42.13
383.80	131.07
384.00	114.69
384.19	138.09
384.39	177.88
384.58	142.77
384.78	98.30
384.97	175.54
385.17	133.41
385.36	121.71
385.56	145.11
385.75	154.48
385.95	175.54
386.14	142.77
386.34	105.32
386.53	170.86
386.72	154.48
386.92	154.48
387.11	180.22
387.31	191.92
387.50	91.28
387.70	117.03
387.89	166.18
388.09	135.75
388.28	63.19
388.48	126.39
388.67	208.31
388.86	229.37
389.06	161.50
389.25	140.43
389.45	159.16
389.64	152.13
389.84	145.11
390.03	102.98
390.22	180.22
390.42	163.84
390.61	142.77
390.81	140.43
391.00	110.01
391.19	168.52
391.39	180.22
391.58	177.88
391.78	93.62
391.97	170.86
392.16	138.09
392.36	93.62
392.55	180.22
392.75	161.50
392.94	177.88
393.13	184.90
393.33	180.22
393.52	67.88
393.71	117.03
393.91	117.03
394.10	159.16
394.29	119.37
394.49	180.22
394.68	184.90
394.88	189.58
395.07	149.79
395.26	140.43
395.46	124.05
395.65	161.50
395.84	161.50
396.04	194.26
396.23	222.35
396.42	121.71
396.62	154.48
396.81	170.86
397.00	142.77
397.19	208.31
397.39	175.54
397.58	177.88
397.77	126.39
397.97	100.64
398.16	212.99
398.35	145.11
398.55	149.79
398.74	114.69
398.93	121.71
399.12	124.05
399.32	159.16
399.51	145.11
399.70	105.32
399.90	163.84
400.09	175.54
400.28	205.97
400.47	156.82
400.67	248.10
400.86	152.13
401.05	117.03
401.24	175.54
401.44	191.92
401.63	131.07
401.82	152.13
402.01	140.43
402.21	142.77
402.40	112.35
402.59	170.86
402.78	154.48
402.97	126.39
403.17	133.41
403.36	170.86
403.55	124.05
403.74	163.84
403.93	224.69
404.13	301.93
404.32	210.65
404.51	184.90
404.70	224.69
404.89	145.11
405.09	194.26
405.28	212.99
405.47	175.54
405.66	145.11
405.85	168.52
406.05	147.45
406.24	131.07
406.43	147.45
406.62	170.86
406.81	173.20
407.00	222.35
407.20	203.63
407.39	145.11
407.58	182.56
407.77	147.45
407.96	159.16
408.15	227.03
408.34	191.92
408.54	189.58
408.73	170.86
408.92	142.77
409.11	168.52
409.30	102.98
409.49	210.65
409.68	217.67
409.87	98.30
410.07	145.11
410.26	173.20
410.45	149.79
410.64	184.90
410.83	184.90
411.02	142.77
411.21	201.29
411.40	112.35
411.59	81.92
411.78	201.29
411.98	189.58
412.17	119.37
412.36	135.75
412.55	180.22
412.74	105.32
412.93	182.56
413.12	93.62
413.31	170.86
413.50	208.31
413.69	114.69
413.88	229.37
414.07	170.86
414.26	154.48
414.45	98.30
414.64	114.69
414.83	238.73
415.02	166.18
415.22	187.24
415.41	189.58
415.60	142.77
415.79	187.24
415.98	196.60
416.17	205.97
416.36	184.90
416.55	163.84
416.74	152.13
416.93	142.77
417.12	161.50
417.31	222.35
417.50	147.45
417.69	215.33
417.88	166.18
418.07	198.95
418.26	133.41
418.45	191.92
418.64	257.46
418.83	301.93
419.02	210.65
419.21	220.01
419.39	208.31
419.58	250.44
419.77	208.31
419.96	189.58
420.15	243.42
420.34	215.33
420.53	145.11
420.72	117.03
420.91	187.24
421.10	152.13
421.29	117.03
421.48	215.33
421.67	142.77
421.86	215.33
422.05	238.73
422.24	93.62
422.43	208.31
422.61	91.28
422.80	163.84
422.99	74.90
423.18	91.28
423.37	264.48
423.56	166.18
423.75	222.35
423.94	145.11
424.13	128.73
424.32	241.08
424.50	117.03
424.69	203.63
424.88	168.52
425.07	203.63
425.26	203.63
425.45	257.46
425.64	262.14
425.83	248.10
426.01	168.52
426.20	161.50
426.39	114.69
426.58	121.71
426.77	180.22
426.96	269.16
427.15	184.90
427.33	212.99
427.52	126.39
427.71	145.11
427.90	140.43
428.09	152.13
428.28	161.50
428.46	121.71
428.65	196.60
428.84	173.20
429.03	203.63
429.22	133.41
429.40	194.26
429.59	145.11
429.78	257.46
429.97	138.09
430.16	229.37
430.34	147.45
430.53	114.69
430.72	112.35
430.91	191.92
431.10	241.08
431.28	145.11
431.47	184.90
431.66	227.03
431.85	95.96
432.03	159.16
432.22	234.05
432.41	135.75
432.60	278.52
432.79	238.73
432.97	280.86
433.16	320.65
433.35	280.86
433.54	227.03
433.72	170.86
433.91	238.73
434.10	205.97
434.28	264.48
434.47	241.08
434.66	227.03
434.85	191.92
435.03	257.46
435.22	358.10
435.41	346.40
435.59	266.82
435.78	292.57
435.97	152.13
436.16	196.60
436.34	154.48
436.53	177.88
436.72	180.22
436.90	215.33
437.09	170.86
437.28	147.45
437.46	187.24
437.65	222.35
437.84	161.50
438.02	182.56
438.21	170.86
438.40	184.90
438.58	147.45
438.77	159.16
438.96	203.63
439.14	170.86
439.33	198.95
439.52	189.58
439.70	196.60
439.89	173.20
440.08	156.82
440.26	191.92
440.45	208.31
440.63	231.71
440.82	191.92
441.01	205.97
441.19	168.52
441.38	191.92
441.57	126.39
441.75	245.76
441.94	238.73
442.12	210.65
442.31	220.01
442.50	264.48
442.68	105.32
442.87	196.60
443.05	117.03
443.24	201.29
443.43	212.99
443.61	182.56
443.80	133.41
443.98	229.37
444.17	198.95
444.35	224.69
444.54	112.35
444.73	175.54
444.91	142.77
445.10	203.63
445.28	152.13
445.47	191.92
445.65	133.41
445.84	184.90
446.02	189.58
446.21	196.60
446.39	196.60
446.58	201.29
446.77	128.73
446.95	182.56
447.14	243.42
447.32	205.97
447.51	191.92
447.69	159.16
447.88	170.86
448.06	173.20
448.25	196.60
448.43	133.41
448.62	147.45
448.80	163.84
448.99	184.90
449.17	203.63
449.36	180.22
449.54	159.16
449.73	184.90
449.91	208.31
450.10	133.41
450.28	229.37
450.46	182.56
450.65	177.88
450.83	196.60
451.02	205.97
451.20	182.56
451.39	215.33
451.57	194.26
451.76	175.54
451.94	203.63
452.13	177.88
452.31	215.33
452.49	222.35
452.68	173.20
452.86	205.97
453.05	177.88
453.23	220.01
453.42	217.67
453.60	196.60
453.78	159.16
453.97	154.48
454.15	95.96
454.34	182.56
454.52	166.18
454.70	220.01
454.89	255.12
455.07	159.16
455.26	182.56
455.44	278.52
455.62	170.86
455.81	227.03
455.99	182.56
456.17	215.33
456.36	145.11
456.54	187.24
456.73	184.90
456.91	110.01
457.09	149.79
457.28	173.20
457.46	201.29
457.64	271.50
457.83	234.05
458.01	196.60
458.19	203.63
458.38	278.52
458.56	170.86
458.74	159.16
458.93	135.75
459.11	110.01
459.29	212.99
459.48	191.92
459.66	243.42
459.84	205.97
460.03	241.08
460.21	238.73
460.39	166.18
460.57	170.86
460.76	161.50
460.94	224.69
461.12	170.86
461.31	180.22
461.49	145.11
461.67	184.90
461.85	220.01
462.04	142.77
462.22	674.07
462.40	198.95
462.59	173.20
462.77	189.58
462.95	208.31
463.13	236.39
463.32	217.67
463.50	287.89
463.68	145.11
463.86	154.48
464.05	252.78
464.23	184.90
464.41	257.46
464.59	194.26
464.78	212.99
464.96	220.01
465.14	229.37
465.32	145.11
465.50	259.80
465.69	212.99
465.87	147.45
466.05	220.01
466.23	203.63
466.41	124.05
466.60	191.92
466.78	191.92
466.96	201.29
467.14	182.56
467.32	131.07
467.51	205.97
467.69	166.18
467.87	220.01
468.05	163.84
468.23	198.95
468.41	238.73
468.60	194.26
468.78	203.63
468.96	152.13
469.14	330.02
469.32	198.95
469.50	149.79
469.69	255.12
469.87	215.33
470.05	241.08
470.23	135.75
470.41	138.09
470.59	196.60
470.77	187.24
470.95	177.88
471.14	210.65
471.32	194.26
471.50	166.18
471.68	257.46
471.86	198.95
472.04	117.03
472.22	180.22
472.40	152.13
472.58	227.03
472.77	208.31
472.95	147.45
473.13	266.82
473.31	187.24
473.49	170.86
473.67	175.54
473.85	227.03
474.03	259.80
474.21	194.26
474.39	283.20
474.57	271.50
474.75	208.31
474.93	196.60
475.12	224.69
475.30	88.94
475.48	196.60
475.66	194.26
475.84	224.69
476.02	208.31
476.20	224.69
476.38	159.16
476.56	269.16
476.74	248.10
476.92	161.50
477.10	191.92
477.28	173.20
477.46	168.52
477.64	208.31
477.82	124.05
478.00	238.73
478.18	308.95
478.36	163.84
478.54	241.08
478.72	241.08
478.90	215.33
479.08	191.92
479.26	184.90
479.44	220.01
479.62	191.92
479.80	133.41
479.98	100.64
480.16	140.43
480.34	198.95
480.52	205.97
480.70	182.56
480.88	264.48
481.06	173.20
481.24	234.05
481.41	271.50
481.59	287.89
481.77	187.24
481.95	184.90
482.13	250.44
482.31	180.22
482.49	208.31
482.67	273.84
482.85	245.76
483.03	231.71
483.21	229.37
483.39	198.95
483.57	175.54
483.74	227.03
483.92	205.97
484.10	210.65
484.28	175.54
484.46	271.50
484.64	217.67
484.82	222.35
485.00	149.79
485.18	163.84
485.35	250.44
485.53	212.99
485.71	236.39
485.89	203.63
486.07	224.69
486.25	257.46
486.43	248.10
486.61	149.79
486.78	236.39
486.96	217.67
487.14	180.22
487.32	287.89
487.50	241.08
487.68	234.05
487.85	198.95
488.03	212.99
488.21	252.78
488.39	320.65
488.57	322.99
488.75	198.95
488.92	433.00
489.10	287.89
489.28	243.42
489.46	177.88
489.64	220.01
489.81	297.25
489.99	255.12
490.17	161.50
490.35	255.12
490.53	238.73
490.70	229.37
490.88	318.31
491.06	163.84
491.24	276.18
491.41	264.48
491.59	273.84
491.77	304.27
491.95	140.43
492.13	269.16
492.30	304.27
492.48	241.08
492.66	264.48
492.84	278.52
493.01	229.37
493.19	191.92
493.37	220.01
493.54	292.57
493.72	229.37
493.90	276.18
494.08	175.54
494.25	273.84
494.43	229.37
494.61	241.08
494.79	217.67
494.96	243.42
495.14	222.35
495.32	238.73
495.49	276.18
495.67	285.55
495.85	229.37
496.02	241.08
496.20	292.57
496.38	290.23
496.55	264.48
496.73	217.67
496.91	259.80
497.09	194.26
497.26	229.37
497.44	257.46
497.62	227.03
497.79	196.60
497.97	283.20
498.14	276.18
498.32	234.05
498.50	231.71
498.67	210.65
498.85	252.78
499.03	184.90
499.20	222.35
499.38	238.73
499.56	229.37
499.73	308.95
499.91	238.73
500.08	269.16
500.26	208.31
500.44	212.99
500.61	243.42
500.79	220.01
500.97	212.99
501.14	250.44
501.32	339.38
501.49	259.80
501.67	278.52
501.84	294.91
502.02	252.78
502.20	287.89
502.37	269.16
502.55	290.23
502.72	241.08
502.90	292.57
503.07	315.97
503.25	220.01
503.43	222.35
503.60	287.89
503.78	271.50
503.95	262.14
504.13	238.73
504.30	280.86
504.48	318.31
504.65	266.82
504.83	311.29
505.01	182.56
505.18	250.44
505.36	266.82
505.53	262.14
505.71	227.03
505.88	210.65
506.06	283.20
506.23	283.20
506.41	184.90
506.58	283.20
506.76	259.80
506.93	287.89
507.11	297.25
507.28	203.63
507.46	241.08
507.63	238.73
507.81	271.50
507.98	220.01
508.16	271.50
508.33	278.52
508.50	318.31
508.68	259.80
508.85	227.03
509.03	241.08
509.20	297.25
509.38	236.39
509.55	257.46
509.73	255.12
509.90	259.80
510.08	257.46
510.25	325.33
510.42	255.12
510.60	222.35
510.77	252.78
510.95	320.65
511.12	271.50
511.30	341.72
511.47	264.48
511.64	337.04
511.82	283.20
511.99	292.57
512.17	308.95
512.34	313.63
512.51	166.18
512.69	238.73
512.86	276.18
513.04	180.22
513.21	332.36
513.38	208.31
513.56	290.23
513.73	196.60
513.90	264.48
514.08	194.26
514.25	327.68
514.43	276.18
514.60	243.42
514.77	191.92
514.95	322.99
515.12	308.95
515.29	287.89
515.47	271.50
515.64	294.91
515.81	271.50
515.99	203.63
516.16	283.20
516.33	344.06
516.51	271.50
516.68	208.31
516.85	250.44
517.03	236.39
517.20	236.39
517.37	311.29
517.54	327.68
517.72	224.69
517.89	257.46
518.06	152.13
518.24	234.05
518.41	351.08
518.58	301.93
518.75	168.52
518.93	196.60
519.10	344.06
519.27	318.31
519.45	292.57
519.62	269.16
519.79	264.48
519.96	301.93
520.14	248.10
520.31	285.55
520.48	250.44
520.65	222.35
520.83	299.59
521.00	234.05
521.17	287.89
521.34	304.27
521.52	332.36
521.69	257.46
521.86	308.95
522.03	311.29
522.20	337.04
522.38	227.03
522.55	304.27
522.72	236.39
522.89	220.01
523.07	269.16
523.24	290.23
523.41	238.73
523.58	297.25
523.75	257.46
523.92	222.35
524.10	287.89
524.27	299.59
524.44	196.60
524.61	376.83
524.78	248.10
524.96	287.89
525.13	259.80
525.30	320.65
525.47	271.50
525.64	215.33
525.81	278.52
525.98	257.46
526.16	322.99
526.33	264.48
526.50	205.97
526.67	243.42
526.84	212.99
527.01	299.59
527.18	194.26
527.36	278.52
527.53	191.92
527.70	292.57
527.87	278.52
528.04	358.10
528.21	292.57
528.38	351.08
528.55	313.63
528.72	287.89
528.89	287.89
529.07	313.63
529.24	285.55
529.41	234.05
529.58	283.20
529.75	220.01
529.92	234.05
530.09	250.44
530.26	255.12
530.43	285.55
530.60	227.03
530.77	376.83
530.94	334.70
531.11	245.76
531.28	351.08
531.46	278.52
531.63	287.89
531.80	264.48
531.97	287.89
532.14	283.20
532.31	278.52
532.48	334.70
532.65	374.49
532.82	437.68
532.99	451.72
533.16	411.93
533.33	332.36
533.50	407.25
533.67	386.19
533.84	498.53
534.01	496.19
534.18	402.57
534.35	360.44
534.52	311.29
534.69	369.80
534.86	290.23
535.03	264.48
535.20	248.10
535.37	276.18
535.54	292.57
535.71	292.57
535.88	360.44
536.05	320.65
536.22	255.12
536.38	285.55
536.55	308.95
536.72	362.78
536.89	327.68
537.06	294.91
537.23	334.70
537.40	358.10
537.57	283.20
537.74	301.93
537.91	322.99
538.08	304.27
538.25	299.59
538.42	381.51
538.59	306.61
538.75	264.48
538.92	294.91
539.09	339.38
539.26	306.61
539.43	526.62
539.60	1196.01
539.77	1900.52
539.94	2078.40
540.11	1315.38
540.28	952.60
540.44	709.18
540.61	514.92
540.78	524.28
540.95	414.27
541.12	477.47
541.29	456.40
541.46	533.64
541.62	533.64
541.79	451.72
541.96	397.89
542.13	510.24
542.30	454.06
542.47	416.62
542.63	416.62
542.80	442.36
542.97	524.28
543.14	444.70
543.31	489.17
543.48	442.36
543.64	418.96
543.81	409.59
543.98	526.62
544.15	454.06
544.32	461.09
544.48	355.76
544.65	381.51
544.82	421.30
544.99	540.66
545.16	547.69
545.32	498.53
545.49	653.01
545.66	720.88
545.83	772.38
546.00	638.97
546.16	585.13
546.33	505.56
546.50	491.51
546.67	423.64
546.83	393.21
547.00	402.57
547.17	372.15
547.34	337.04
547.50	402.57
547.67	355.76
547.84	369.80
548.00	414.27
548.17	388.53
548.34	330.02
548.51	341.72
548.67	390.87
548.84	383.85
549.01	395.55
549.18	362.78
549.34	360.44
549.51	334.70
549.68	351.08
549.84	280.86
550.01	381.51
550.18	418.96
550.34	374.49
550.51	320.65
550.68	393.21
550.84	327.68
551.01	355.76
551.18	287.89
551.34	266.82
551.51	311.29
551.68	294.91
551.84	308.95
552.01	313.63
552.18	212.99
552.34	252.78
552.51	252.78
552.68	250.44
552.84	271.50
553.01	311.29
553.18	346.40
553.34	383.85
553.51	236.39
553.67	308.95
553.84	351.08
554.01	327.68
554.17	276.18
554.34	367.46
554.51	299.59
554.67	330.02
554.84	301.93
555.00	220.01
555.17	269.16
555.33	231.71
555.50	360.44
555.67	353.42
555.83	339.38
556.00	341.72
556.16	372.15
556.33	306.61
556.50	330.02
556.66	285.55
556.83	250.44
556.99	271.50
557.16	238.73
557.32	287.89
557.49	201.29
557.65	271.50
557.82	318.31
557.98	159.16
558.15	236.39
558.32	234.05
558.48	241.08
558.65	212.99
558.81	250.44
558.98	220.01
559.14	257.46
559.31	332.36
559.47	271.50
559.64	161.50
559.80	257.46
559.97	224.69
560.13	259.80
560.30	217.67
560.46	311.29
560.63	292.57
560.79	283.20
560.96	292.57
561.12	294.91
561.29	374.49
561.45	257.46
561.61	325.33
561.78	367.46
561.94	273.84
562.11	250.44
562.27	339.38
562.44	205.97
562.60	243.42
562.77	280.86
562.93	311.29
563.10	297.25
563.26	280.86
563.42	177.88
563.59	301.93
563.75	278.52
563.92	273.84
564.08	271.50
564.24	294.91
564.41	273.84
564.57	294.91
564.74	287.89
564.90	238.73
565.07	278.52
565.23	355.76
565.39	280.86
565.56	287.89
565.72	250.44
565.88	292.57
566.05	252.78
566.21	222.35
566.38	203.63
566.54	266.82
566.70	203.63
566.87	264.48
567.03	255.12
567.19	252.78
567.36	276.18
567.52	250.44
567.68	346.40
567.85	231.71
568.01	322.99
568.17	297.25
568.34	301.93
568.50	327.68
568.66	229.37
568.83	334.70
568.99	290.23
569.15	255.12
569.32	259.80
569.48	276.18
569.64	252.78
569.81	278.52
569.97	294.91
570.13	271.50
570.30	231.71
570.46	285.55
570.62	241.08
570.78	220.01
570.95	273.84
571.11	327.68
571.27	313.63
571.43	259.80
571.60	313.63
571.76	299.59
571.92	280.86
572.09	241.08
572.25	271.50
572.41	271.50
572.57	236.39
572.74	271.50
572.90	220.01
573.06	346.40
573.22	238.73
573.38	346.40
573.55	241.08
573.71	367.46
573.87	297.25
574.03	280.86
574.20	163.84
574.36	327.68
574.52	369.80
574.68	388.53
574.84	358.10
575.01	315.97
575.17	330.02
575.33	304.27
575.49	287.89
575.65	325.33
575.82	388.53
575.98	613.22
576.14	816.85
576.30	952.60
576.46	706.84
576.62	594.50
576.79	578.11
576.95	430.66
577.11	423.64
577.27	325.33
577.43	327.68
577.59	266.82
577.75	348.74
577.92	332.36
578.08	320.65
578.24	330.02
578.40	334.70
578.56	449.38
578.72	416.62
578.88	477.47
579.04	421.30
579.21	355.76
579.37	386.19
579.53	311.29
579.69	390.87
579.85	330.02
580.01	411.93
580.17	418.96
580.33	454.06
580.49	416.62
580.65	444.70
580.82	435.34
580.98	362.78
581.14	358.10
581.30	430.66
581.46	517.26
581.62	674.07
581.78	795.78
581.94	777.06
582.10	610.88
582.26	463.43
582.42	472.79
582.58	472.79
582.74	592.16
582.90	465.77
583.06	568.75
583.22	585.13
583.38	561.73
583.54	610.88
583.70	807.48
583.86	873.02
584.02	889.40
584.18	1156.22
584.34	1589.22
584.50	3569.32
584.66	25348.00
584.82	60331.99
584.98	65535.00
585.14	65535.00
585.30	61949.30
585.46	38352.02
585.62	23580.90
585.78	10771.15
585.94	4241.05
586.10	2101.80
586.26	1320.06
586.42	1123.46
586.58	887.06
586.74	833.23
586.90	765.36
587.06	767.70
587.22	781.74
587.38	615.56
587.54	1249.85
587.70	3843.16
587.86	7157.36
588.02	8491.46
588.18	6022.20
588.34	3562.30
588.49	2492.67
588.65	1444.11
588.81	861.32
588.97	517.26
589.13	451.72
589.29	421.30
589.45	430.66
589.61	332.36
589.77	486.83
589.93	517.26
590.08	538.32
590.24	486.83
590.40	500.87
590.56	503.22
590.72	430.66
590.88	442.36
591.04	437.68
591.20	351.08
591.35	440.02
591.51	465.77
591.67	362.78
591.83	425.98
591.99	400.23
592.15	407.25
592.31	404.91
592.46	360.44
592.62	409.59
592.78	430.66
592.94	348.74
593.10	358.10
593.26	421.30
593.41	526.62
593.57	510.24
593.73	645.99
593.89	3014.61
594.05	8369.76
594.20	13921.51
594.36	13682.77
594.52	8793.39
594.68	5408.98
594.84	3618.47
594.99	1954.35
595.15	961.96
595.31	578.11
595.47	458.74
595.62	367.46
595.78	313.63
595.94	353.42
596.10	433.00
596.25	437.68
596.41	444.70
596.57	423.64
596.73	397.89
596.88	589.82
597.04	1507.30
597.20	2841.41
597.36	3473.36
597.51	2525.44
597.67	1755.40
597.83	1207.72
597.99	884.72
598.14	603.86
598.30	390.87
598.46	428.32
598.61	454.06
598.77	402.57
598.93	355.76
599.09	411.93
599.24	351.08
599.40	339.38
599.56	327.68
599.71	334.70
599.87	299.59
600.03	311.29
600.18	346.40
600.34	362.78
600.50	297.25
600.65	299.59
600.81	341.72
600.97	271.50
601.12	294.91
601.28	334.70
601.44	252.78
601.59	294.91
601.75	301.93
601.91	318.31
602.06	332.36
602.22	397.89
602.37	786.42
602.53	1942.64
602.69	3138.66
602.84	3559.95
603.00	2815.66
603.16	1891.15
603.31	1235.80
603.47	784.08
603.62	505.56
603.78	367.46
603.94	334.70
604.09	276.18
604.25	362.78
604.40	390.87
604.56	313.63
604.71	355.76
604.87	337.04
605.03	353.42
605.18	250.44
605.34	353.42
605.49	360.44
605.65	339.38
605.80	393.21
605.96	360.44
606.12	365.12
606.27	416.62
606.43	351.08
606.58	482.15
606.74	945.58
606.89	3700.39
607.05	8329.97
607.20	11978.86
607.36	9909.83
607.51	6754.79
607.67	4306.59
607.82	2787.58
607.98	1570.50
608.13	819.19
608.29	575.77
608.44	531.30
608.60	550.03
608.75	676.41
608.91	1308.36
609.06	5813.89
609.22	14019.81
609.37	21076.52
609.53	18649.39
609.68	12173.13
609.84	7590.36
609.99	5252.16
