SpectraSuite Data File
++++++++++++++++++++++++++++++++++++
Date: Fri Oct 04 11:33:48 GMT-05:00 2013
User: price-jones
Dark Spectrum Present: No
Reference Spectrum Present: No
Number of Sampled Component Spectra: 1
Spectrometers: USB2+H05261
Integration Time (usec): 100000 (USB2+H05261)
Spectra Averaged: 1 (USB2+H05261)
Boxcar Smoothing: 0 (USB2+H05261)
Correct for Electrical Dark: No (USB2+H05261)
Strobe/Lamp Enabled: No (USB2+H05261)
Correct for Detector Non-linearity: No (USB2+H05261)
Correct for Stray Light: No (USB2+H05261)
Number of Pixels in Processed Spectrum: 2048
>>>>>Begin Processed Spectral Data<<<<<
365.73	44.47
365.92	44.47
366.12	44.47
366.32	0.00
366.52	0.00
366.72	32.77
366.91	0.00
367.11	0.00
367.31	0.00
367.51	30.43
367.70	0.00
367.90	0.00
368.10	0.00
368.30	0.00
368.49	0.00
368.69	0.00
368.89	0.00
369.09	0.00
369.28	0.00
369.48	9.36
369.68	0.00
369.87	0.00
370.07	0.00
370.27	70.22
370.47	124.05
370.66	4.68
370.86	53.83
371.06	93.62
371.25	166.18
371.45	91.28
371.65	135.75
371.84	46.81
372.04	77.24
372.24	166.18
372.44	93.62
372.63	135.75
372.83	191.92
373.03	194.26
373.22	93.62
373.42	117.03
373.62	86.60
373.81	159.16
374.01	212.99
374.21	154.48
374.40	124.05
374.60	234.05
374.79	79.58
374.99	152.13
375.19	159.16
375.38	133.41
375.58	102.98
375.78	173.20
375.97	194.26
376.17	180.22
376.37	184.90
376.56	182.56
376.76	203.63
376.95	35.11
377.15	222.35
377.35	215.33
377.54	138.09
377.74	215.33
377.93	149.79
378.13	154.48
378.33	74.90
378.52	117.03
378.72	138.09
378.91	117.03
379.11	159.16
379.31	72.56
379.50	173.20
379.70	102.98
379.89	191.92
380.09	170.86
380.28	182.56
380.48	203.63
380.68	98.30
380.87	147.45
381.07	100.64
381.26	168.52
381.46	119.37
381.65	124.05
381.85	177.88
382.04	177.88
382.24	119.37
382.43	173.20
382.63	65.54
382.83	140.43
383.02	138.09
383.22	107.66
383.41	184.90
383.61	217.67
383.80	105.32
384.00	156.82
384.19	140.43
384.39	126.39
384.58	154.48
384.78	152.13
384.97	105.32
385.17	182.56
385.36	159.16
385.56	126.39
385.75	128.73
385.95	112.35
386.14	100.64
386.34	91.28
386.53	168.52
386.72	131.07
386.92	145.11
387.11	170.86
387.31	100.64
387.50	196.60
387.70	128.73
387.89	140.43
388.09	138.09
388.28	196.60
388.48	191.92
388.67	198.95
388.86	140.43
389.06	152.13
389.25	163.84
389.45	166.18
389.64	112.35
389.84	170.86
390.03	145.11
390.22	135.75
390.42	86.60
390.61	173.20
390.81	170.86
391.00	145.11
391.19	173.20
391.39	173.20
391.58	184.90
391.78	149.79
391.97	159.16
392.16	128.73
392.36	194.26
392.55	135.75
392.75	142.77
392.94	182.56
393.13	142.77
393.33	86.60
393.52	149.79
393.71	142.77
393.91	198.95
394.10	119.37
394.29	184.90
394.49	128.73
394.68	175.54
394.88	187.24
395.07	163.84
395.26	140.43
395.46	138.09
395.65	166.18
395.84	140.43
396.04	212.99
396.23	121.71
396.42	175.54
396.62	161.50
396.81	189.58
397.00	124.05
397.19	67.88
397.39	196.60
397.58	187.24
397.77	180.22
397.97	161.50
398.16	156.82
398.35	65.54
398.55	81.92
398.74	100.64
398.93	205.97
399.12	98.30
399.32	173.20
399.51	138.09
399.70	159.16
399.90	166.18
400.09	182.56
400.28	189.58
400.47	117.03
400.67	124.05
400.86	187.24
401.05	205.97
401.24	189.58
401.44	191.92
401.63	163.84
401.82	128.73
402.01	88.94
402.21	198.95
402.40	77.24
402.59	166.18
402.78	138.09
402.97	168.52
403.17	93.62
403.36	159.16
403.55	133.41
403.74	121.71
403.93	142.77
404.13	175.54
404.32	184.90
404.51	257.46
404.70	180.22
404.89	110.01
405.09	175.54
405.28	177.88
405.47	177.88
405.66	161.50
405.85	203.63
406.05	163.84
406.24	147.45
406.43	163.84
406.62	205.97
406.81	177.88
407.00	231.71
407.20	194.26
407.39	236.39
407.58	152.13
407.77	140.43
407.96	147.45
408.15	224.69
408.34	210.65
408.54	180.22
408.73	194.26
408.92	114.69
409.11	159.16
409.30	168.52
409.49	126.39
409.68	189.58
409.87	163.84
410.07	173.20
410.26	189.58
410.45	149.79
410.64	187.24
410.83	135.75
411.02	191.92
411.21	166.18
411.40	166.18
411.59	112.35
411.78	168.52
411.98	142.77
412.17	95.96
412.36	187.24
412.55	173.20
412.74	145.11
412.93	241.08
413.12	88.94
413.31	191.92
413.50	163.84
413.69	98.30
413.88	220.01
414.07	201.29
414.26	212.99
414.45	102.98
414.64	184.90
414.83	227.03
415.02	241.08
415.22	194.26
415.41	170.86
415.60	252.78
415.79	117.03
415.98	184.90
416.17	173.20
416.36	243.42
416.55	154.48
416.74	227.03
416.93	194.26
417.12	147.45
417.31	154.48
417.50	238.73
417.69	264.48
417.88	184.90
418.07	147.45
418.26	196.60
418.45	145.11
418.64	212.99
418.83	222.35
419.02	243.42
419.21	110.01
419.39	142.77
419.58	191.92
419.77	147.45
419.96	191.92
420.15	196.60
420.34	128.73
420.53	187.24
420.72	194.26
420.91	180.22
421.10	173.20
421.29	147.45
421.48	234.05
421.67	161.50
421.86	259.80
422.05	236.39
422.24	107.66
422.43	180.22
422.61	168.52
422.80	156.82
422.99	145.11
423.18	140.43
423.37	182.56
423.56	140.43
423.75	238.73
423.94	198.95
424.13	262.14
424.32	227.03
424.50	152.13
424.69	154.48
424.88	224.69
425.07	187.24
425.26	161.50
425.45	231.71
425.64	201.29
425.83	163.84
426.01	257.46
426.20	187.24
426.39	142.77
426.58	166.18
426.77	234.05
426.96	156.82
427.15	70.22
427.33	161.50
427.52	102.98
427.71	184.90
427.90	191.92
428.09	159.16
428.28	177.88
428.46	145.11
428.65	184.90
428.84	283.20
429.03	215.33
429.22	266.82
429.40	149.79
429.59	147.45
429.78	154.48
429.97	220.01
430.16	154.48
430.34	93.62
430.53	189.58
430.72	86.60
430.91	210.65
431.10	100.64
431.28	126.39
431.47	187.24
431.66	166.18
431.85	187.24
432.03	159.16
432.22	229.37
432.41	166.18
432.60	196.60
432.79	252.78
432.97	212.99
433.16	220.01
433.35	227.03
433.54	210.65
433.72	133.41
433.91	161.50
434.10	159.16
434.28	234.05
434.47	210.65
434.66	138.09
434.85	201.29
435.03	182.56
435.22	308.95
435.41	372.15
435.59	346.40
435.78	203.63
435.97	184.90
436.16	229.37
436.34	208.31
436.53	145.11
436.72	215.33
436.90	194.26
437.09	255.12
437.28	168.52
437.46	152.13
437.65	166.18
437.84	234.05
438.02	201.29
438.21	152.13
438.40	180.22
438.58	166.18
438.77	156.82
438.96	182.56
439.14	180.22
439.33	191.92
439.52	156.82
439.70	191.92
439.89	177.88
440.08	292.57
440.26	159.16
440.45	224.69
440.63	173.20
440.82	166.18
441.01	184.90
441.19	124.05
441.38	145.11
441.57	142.77
441.75	189.58
441.94	241.08
442.12	201.29
442.31	142.77
442.50	128.73
442.68	227.03
442.87	152.13
443.05	196.60
443.24	175.54
443.43	217.67
443.61	187.24
443.80	220.01
443.98	173.20
444.17	212.99
444.35	208.31
444.54	147.45
444.73	161.50
444.91	208.31
445.10	163.84
445.28	107.66
445.47	152.13
445.65	161.50
445.84	194.26
446.02	224.69
446.21	203.63
446.39	177.88
446.58	152.13
446.77	191.92
446.95	175.54
447.14	203.63
447.32	248.10
447.51	189.58
447.69	252.78
447.88	166.18
448.06	266.82
448.25	168.52
448.43	184.90
448.62	112.35
448.80	184.90
448.99	269.16
449.17	196.60
449.36	114.69
449.54	177.88
449.73	149.79
449.91	182.56
450.10	187.24
450.28	128.73
450.46	203.63
450.65	231.71
450.83	217.67
451.02	212.99
451.20	140.43
451.39	238.73
451.57	194.26
451.76	156.82
451.94	271.50
452.13	229.37
452.31	182.56
452.49	217.67
452.68	152.13
452.86	128.73
453.05	222.35
453.23	173.20
453.42	161.50
453.60	168.52
453.78	201.29
453.97	224.69
454.15	187.24
454.34	252.78
454.52	112.35
454.70	217.67
454.89	238.73
455.07	220.01
455.26	220.01
455.44	217.67
455.62	194.26
455.81	236.39
455.99	222.35
456.17	220.01
456.36	117.03
456.54	187.24
456.73	180.22
456.91	189.58
457.09	227.03
457.28	315.97
457.46	177.88
457.64	189.58
457.83	191.92
458.01	168.52
458.19	241.08
458.38	124.05
458.56	264.48
458.74	170.86
458.93	142.77
459.11	201.29
459.29	140.43
459.48	208.31
459.66	255.12
459.84	145.11
460.03	311.29
460.21	205.97
460.39	196.60
460.57	177.88
460.76	105.32
460.94	168.52
461.12	229.37
461.31	212.99
461.49	114.69
461.67	196.60
461.85	156.82
462.04	187.24
462.22	559.39
462.40	250.44
462.59	243.42
462.77	156.82
462.95	201.29
463.13	210.65
463.32	201.29
463.50	196.60
463.68	227.03
463.86	205.97
464.05	154.48
464.23	224.69
464.41	196.60
464.59	166.18
464.78	248.10
464.96	142.77
465.14	180.22
465.32	161.50
465.50	201.29
465.69	234.05
465.87	210.65
466.05	194.26
466.23	175.54
466.41	191.92
466.60	215.33
466.78	170.86
466.96	198.95
467.14	187.24
467.32	229.37
467.51	212.99
467.69	135.75
467.87	278.52
468.05	208.31
468.23	243.42
468.41	133.41
468.60	194.26
468.78	191.92
468.96	238.73
469.14	177.88
469.32	135.75
469.50	112.35
469.69	175.54
469.87	210.65
470.05	138.09
470.23	201.29
470.41	198.95
470.59	159.16
470.77	205.97
470.95	196.60
471.14	196.60
471.32	166.18
471.50	301.93
471.68	201.29
471.86	166.18
472.04	220.01
472.22	163.84
472.40	227.03
472.58	187.24
472.77	205.97
472.95	133.41
473.13	264.48
473.31	220.01
473.49	187.24
473.67	222.35
473.85	159.16
474.03	161.50
474.21	184.90
474.39	250.44
474.57	224.69
474.75	231.71
474.93	154.48
475.12	203.63
475.30	201.29
475.48	191.92
475.66	163.84
475.84	135.75
476.02	255.12
476.20	208.31
476.38	159.16
476.56	259.80
476.74	159.16
476.92	175.54
477.10	187.24
477.28	259.80
477.46	187.24
477.64	177.88
477.82	203.63
478.00	266.82
478.18	194.26
478.36	196.60
478.54	184.90
478.72	276.18
478.90	248.10
479.08	175.54
479.26	194.26
479.44	252.78
479.62	255.12
479.80	266.82
479.98	140.43
480.16	208.31
480.34	257.46
480.52	201.29
480.70	266.82
480.88	217.67
481.06	198.95
481.24	203.63
481.41	156.82
481.59	168.52
481.77	152.13
481.95	166.18
482.13	224.69
482.31	203.63
482.49	212.99
482.67	271.50
482.85	243.42
483.03	156.82
483.21	182.56
483.39	131.07
483.57	175.54
483.74	252.78
483.92	241.08
484.10	182.56
484.28	217.67
484.46	292.57
484.64	231.71
484.82	208.31
485.00	229.37
485.18	227.03
485.35	234.05
485.53	177.88
485.71	238.73
485.89	189.58
486.07	170.86
486.25	273.84
486.43	234.05
486.61	217.67
486.78	273.84
486.96	198.95
487.14	252.78
487.32	119.37
487.50	210.65
487.68	238.73
487.85	287.89
488.03	290.23
488.21	264.48
488.39	255.12
488.57	203.63
488.75	243.42
488.92	507.90
489.10	243.42
489.28	365.12
489.46	252.78
489.64	241.08
489.81	238.73
489.99	194.26
490.17	180.22
490.35	220.01
490.53	266.82
490.70	229.37
490.88	252.78
491.06	217.67
491.24	243.42
491.41	241.08
491.59	222.35
491.77	212.99
491.95	220.01
492.13	248.10
492.30	180.22
492.48	212.99
492.66	238.73
492.84	203.63
493.01	313.63
493.19	259.80
493.37	231.71
493.54	248.10
493.72	198.95
493.90	238.73
494.08	285.55
494.25	283.20
494.43	262.14
494.61	201.29
494.79	222.35
494.96	177.88
495.14	227.03
495.32	227.03
495.49	252.78
495.67	243.42
495.85	222.35
496.02	220.01
496.20	315.97
496.38	229.37
496.55	313.63
496.73	238.73
496.91	259.80
497.09	276.18
497.26	217.67
497.44	217.67
497.62	224.69
497.79	234.05
497.97	243.42
498.14	241.08
498.32	264.48
498.50	299.59
498.67	203.63
498.85	215.33
499.03	194.26
499.20	290.23
499.38	236.39
499.56	217.67
499.73	255.12
499.91	292.57
500.08	234.05
500.26	283.20
500.44	248.10
500.61	222.35
500.79	189.58
500.97	304.27
501.14	292.57
501.32	194.26
501.49	297.25
501.67	187.24
501.84	191.92
502.02	182.56
502.20	327.68
502.37	191.92
502.55	241.08
502.72	243.42
502.90	245.76
503.07	280.86
503.25	217.67
503.43	292.57
503.60	191.92
503.78	257.46
503.95	220.01
504.13	287.89
504.30	159.16
504.48	264.48
504.65	294.91
504.83	236.39
505.01	187.24
505.18	220.01
505.36	318.31
505.53	215.33
505.71	217.67
505.88	292.57
506.06	180.22
506.23	278.52
506.41	208.31
506.58	311.29
506.76	208.31
506.93	173.20
507.11	205.97
507.28	231.71
507.46	224.69
507.63	222.35
507.81	255.12
507.98	210.65
508.16	287.89
508.33	252.78
508.50	297.25
508.68	280.86
508.85	325.33
509.03	285.55
509.20	234.05
509.38	229.37
509.55	257.46
509.73	304.27
509.90	255.12
510.08	243.42
510.25	318.31
510.42	276.18
510.60	201.29
510.77	353.42
510.95	264.48
511.12	259.80
511.30	327.68
511.47	290.23
511.64	236.39
511.82	236.39
511.99	271.50
512.17	269.16
512.34	227.03
512.51	252.78
512.69	248.10
512.86	313.63
513.04	191.92
513.21	224.69
513.38	255.12
513.56	252.78
513.73	306.61
513.90	173.20
514.08	205.97
514.25	313.63
514.43	241.08
514.60	182.56
514.77	290.23
514.95	238.73
515.12	271.50
515.29	187.24
515.47	276.18
515.64	182.56
515.81	276.18
515.99	273.84
516.16	304.27
516.33	264.48
516.51	182.56
516.68	222.35
516.85	278.52
517.03	266.82
517.20	198.95
517.37	231.71
517.54	201.29
517.72	229.37
517.89	161.50
518.06	210.65
518.24	248.10
518.41	276.18
518.58	297.25
518.75	287.89
518.93	266.82
519.10	287.89
519.27	168.52
519.45	238.73
519.62	294.91
519.79	271.50
519.96	273.84
520.14	311.29
520.31	271.50
520.48	292.57
520.65	273.84
520.83	297.25
521.00	297.25
521.17	252.78
521.34	166.18
521.52	273.84
521.69	264.48
521.86	201.29
522.03	304.27
522.20	318.31
522.38	229.37
522.55	299.59
522.72	278.52
522.89	313.63
523.07	341.72
523.24	266.82
523.41	217.67
523.58	184.90
523.75	259.80
523.92	229.37
524.10	243.42
524.27	255.12
524.44	208.31
524.61	271.50
524.78	229.37
524.96	262.14
525.13	273.84
525.30	308.95
525.47	287.89
525.64	222.35
525.81	273.84
525.98	252.78
526.16	255.12
526.33	229.37
526.50	231.71
526.67	212.99
526.84	278.52
527.01	327.68
527.18	278.52
527.36	299.59
527.53	283.20
527.70	231.71
527.87	248.10
528.04	381.51
528.21	273.84
528.38	255.12
528.55	318.31
528.72	330.02
528.89	301.93
529.07	271.50
529.24	248.10
529.41	266.82
529.58	250.44
529.75	278.52
529.92	332.36
530.09	243.42
530.26	290.23
530.43	341.72
530.60	189.58
530.77	234.05
530.94	252.78
531.11	297.25
531.28	266.82
531.46	278.52
531.63	351.08
531.80	224.69
531.97	313.63
532.14	266.82
532.31	290.23
532.48	269.16
532.65	395.55
532.82	315.97
532.99	353.42
533.16	383.85
533.33	290.23
533.50	292.57
533.67	243.42
533.84	337.04
534.01	362.78
534.18	360.44
534.35	308.95
534.52	365.12
534.69	332.36
534.86	327.68
535.03	262.14
535.20	259.80
535.37	294.91
535.54	390.87
535.71	283.20
535.88	341.72
536.05	292.57
536.22	327.68
536.38	287.89
536.55	306.61
536.72	311.29
536.89	292.57
537.06	299.59
537.23	201.29
537.40	360.44
537.57	234.05
537.74	313.63
537.91	372.15
538.08	245.76
538.25	278.52
538.42	339.38
538.59	304.27
538.75	308.95
538.92	315.97
539.09	388.53
539.26	290.23
539.43	404.91
539.60	819.19
539.77	1088.35
539.94	1151.54
540.11	784.08
540.28	596.84
540.44	615.56
540.61	390.87
540.78	395.55
540.95	369.80
541.12	491.51
541.29	440.02
541.46	550.03
541.62	489.17
541.79	458.74
541.96	470.45
542.13	416.62
542.30	421.30
542.47	407.25
542.63	442.36
542.80	435.34
542.97	493.85
543.14	386.19
543.31	374.49
543.48	360.44
543.64	402.57
543.81	475.13
543.98	386.19
544.15	435.34
544.32	414.27
544.48	425.98
544.65	447.04
544.82	498.53
544.99	454.06
545.16	447.04
545.32	433.00
545.49	716.20
545.66	746.63
545.83	823.87
546.00	751.31
546.16	638.97
546.33	477.47
546.50	435.34
546.67	395.55
546.83	428.32
547.00	437.68
547.17	318.31
547.34	327.68
547.50	320.65
547.67	369.80
547.84	365.12
548.00	393.21
548.17	273.84
548.34	334.70
548.51	360.44
548.67	325.33
548.84	369.80
549.01	339.38
549.18	367.46
549.34	334.70
549.51	339.38
549.68	278.52
549.84	301.93
550.01	243.42
550.18	456.40
550.34	444.70
550.51	325.33
550.68	353.42
550.84	339.38
551.01	248.10
551.18	322.99
551.34	271.50
551.51	304.27
551.68	273.84
551.84	322.99
552.01	262.14
552.18	308.95
552.34	318.31
552.51	308.95
552.68	266.82
552.84	234.05
553.01	297.25
553.18	294.91
553.34	273.84
553.51	238.73
553.67	266.82
553.84	379.17
554.01	257.46
554.17	283.20
554.34	304.27
554.51	315.97
554.67	308.95
554.84	330.02
555.00	262.14
555.17	238.73
555.33	283.20
555.50	308.95
555.67	252.78
555.83	255.12
556.00	318.31
556.16	416.62
556.33	325.33
556.50	259.80
556.66	318.31
556.83	294.91
556.99	259.80
557.16	276.18
557.32	292.57
557.49	210.65
557.65	266.82
557.82	220.01
557.98	257.46
558.15	231.71
558.32	234.05
558.48	220.01
558.65	227.03
558.81	283.20
558.98	311.29
559.14	290.23
559.31	299.59
559.47	308.95
559.64	236.39
559.80	311.29
559.97	238.73
560.13	311.29
560.30	287.89
560.46	330.02
560.63	311.29
560.79	322.99
560.96	238.73
561.12	236.39
561.29	187.24
561.45	278.52
561.61	238.73
561.78	367.46
561.94	315.97
562.11	273.84
562.27	255.12
562.44	271.50
562.60	243.42
562.77	250.44
562.93	325.33
563.10	257.46
563.26	269.16
563.42	313.63
563.59	269.16
563.75	294.91
563.92	241.08
564.08	243.42
564.24	243.42
564.41	287.89
564.57	238.73
564.74	234.05
564.90	229.37
565.07	222.35
565.23	332.36
565.39	278.52
565.56	285.55
565.72	287.89
565.88	292.57
566.05	283.20
566.21	292.57
566.38	212.99
566.54	306.61
566.70	224.69
566.87	217.67
567.03	205.97
567.19	220.01
567.36	248.10
567.52	187.24
567.68	287.89
567.85	332.36
568.01	252.78
568.17	255.12
568.34	264.48
568.50	248.10
568.66	248.10
568.83	304.27
568.99	234.05
569.15	241.08
569.32	280.86
569.48	255.12
569.64	191.92
569.81	299.59
569.97	250.44
570.13	241.08
570.30	259.80
570.46	271.50
570.62	264.48
570.78	252.78
570.95	278.52
571.11	241.08
571.27	259.80
571.43	210.65
571.60	245.76
571.76	255.12
571.92	278.52
572.09	294.91
572.25	227.03
572.41	189.58
572.57	280.86
572.74	276.18
572.90	241.08
573.06	306.61
573.22	294.91
573.38	227.03
573.55	248.10
573.71	231.71
573.87	297.25
574.03	325.33
574.20	238.73
574.36	353.42
574.52	332.36
574.68	339.38
574.84	351.08
575.01	325.33
575.17	264.48
575.33	264.48
575.49	269.16
575.65	327.68
575.82	297.25
575.98	500.87
576.14	510.24
576.30	603.86
576.46	472.79
576.62	465.77
576.79	421.30
576.95	360.44
577.11	393.21
577.27	383.85
577.43	320.65
577.59	353.42
577.75	308.95
577.92	320.65
578.08	262.14
578.24	255.12
578.40	367.46
578.56	388.53
578.72	409.59
578.88	330.02
579.04	376.83
579.21	386.19
579.37	365.12
579.53	337.04
579.69	351.08
579.85	365.12
580.01	367.46
580.17	334.70
580.33	470.45
580.49	339.38
580.65	280.86
580.82	355.76
580.98	372.15
581.14	318.31
581.30	383.85
581.46	372.15
581.62	514.92
581.78	552.37
581.94	561.73
582.10	397.89
582.26	444.70
582.42	500.87
582.58	477.47
582.74	421.30
582.90	390.87
583.06	423.64
583.22	430.66
583.38	395.55
583.54	458.74
583.70	580.45
583.86	554.71
584.02	683.44
584.18	751.31
584.34	753.65
584.50	2008.18
584.66	12959.55
584.82	35793.81
584.98	52243.10
585.14	48081.63
585.30	30232.70
585.46	17928.50
585.62	10991.16
585.78	5137.48
585.94	2122.87
586.10	1107.07
586.26	758.33
586.42	678.76
586.58	613.22
586.74	566.41
586.90	477.47
587.06	603.86
587.22	519.60
587.38	416.62
587.54	889.40
587.70	2181.38
587.86	3524.85
588.02	3904.01
588.18	2857.79
588.34	1977.75
588.49	1238.14
588.65	777.06
588.81	578.11
588.97	346.40
589.13	360.44
589.29	348.74
589.45	355.76
589.61	379.17
589.77	318.31
589.93	421.30
590.08	477.47
590.24	351.08
590.40	414.27
590.56	341.72
590.72	318.31
590.88	243.42
591.04	311.29
591.20	353.42
591.35	386.19
591.51	299.59
591.67	287.89
591.83	346.40
591.99	306.61
592.15	290.23
592.31	367.46
592.46	287.89
592.62	393.21
592.78	351.08
592.94	318.31
593.10	362.78
593.26	337.04
593.41	365.12
593.57	374.49
593.73	472.79
593.89	1647.74
594.05	4208.28
594.20	6394.34
594.36	6296.04
594.52	4264.46
594.68	2768.85
594.84	1806.89
594.99	1198.35
595.15	613.22
595.31	407.25
595.47	437.68
595.62	297.25
595.78	322.99
595.94	301.93
596.10	264.48
596.25	407.25
596.41	294.91
596.57	379.17
596.73	294.91
596.88	500.87
597.04	959.62
597.20	1537.73
597.36	1783.49
597.51	1455.81
597.67	1004.09
597.83	755.99
597.99	589.82
598.14	493.85
598.30	322.99
598.46	271.50
598.61	346.40
598.77	339.38
598.93	374.49
599.09	292.57
599.24	353.42
599.40	280.86
599.56	294.91
599.71	313.63
599.87	311.29
600.03	276.18
600.18	290.23
600.34	269.16
600.50	227.03
600.65	285.55
600.81	308.95
600.97	262.14
601.12	269.16
601.28	360.44
601.44	308.95
601.59	149.79
601.75	234.05
601.91	294.91
602.06	229.37
602.22	287.89
602.37	575.77
602.53	1270.91
602.69	1802.21
602.84	1832.64
603.00	1383.26
603.16	980.68
603.31	791.10
603.47	451.72
603.62	360.44
603.78	348.74
603.94	339.38
604.09	280.86
604.25	313.63
604.40	285.55
604.56	271.50
604.71	248.10
604.87	224.69
605.03	332.36
605.18	271.50
605.34	318.31
605.49	297.25
605.65	243.42
605.80	208.31
605.96	301.93
606.12	337.04
606.27	330.02
606.43	369.80
606.58	332.36
606.74	587.47
606.89	2036.27
607.05	4243.39
607.20	5465.15
607.36	4692.77
607.51	3234.62
607.67	2167.34
607.82	1509.65
607.98	940.90
608.13	564.07
608.29	456.40
608.44	472.79
608.60	437.68
608.75	440.02
608.91	849.61
609.06	3187.81
609.22	7063.74
609.37	9415.98
609.53	8444.65
609.68	5853.68
609.84	3843.16
609.99	2668.21
610.15	1605.61
610.30	912.81
