SpectraSuite Data File
++++++++++++++++++++++++++++++++++++
Date: Fri Oct 04 11:34:04 GMT-05:00 2013
User: price-jones
Dark Spectrum Present: No
Reference Spectrum Present: No
Number of Sampled Component Spectra: 1
Spectrometers: USB2+H05261
Integration Time (usec): 100000 (USB2+H05261)
Spectra Averaged: 1 (USB2+H05261)
Boxcar Smoothing: 0 (USB2+H05261)
Correct for Electrical Dark: No (USB2+H05261)
Strobe/Lamp Enabled: No (USB2+H05261)
Correct for Detector Non-linearity: No (USB2+H05261)
Correct for Stray Light: No (USB2+H05261)
Number of Pixels in Processed Spectrum: 2048
>>>>>Begin Processed Spectral Data<<<<<
365.73	131.07
365.92	131.07
366.12	131.07
366.32	9.36
366.52	0.00
366.72	37.45
366.91	25.75
367.11	0.00
367.31	0.00
367.51	0.00
367.70	0.00
367.90	0.00
368.10	0.00
368.30	0.00
368.49	0.00
368.69	0.00
368.89	0.00
369.09	25.75
369.28	0.00
369.48	0.00
369.68	0.00
369.87	23.41
370.07	39.79
370.27	44.47
370.47	74.90
370.66	0.00
370.86	63.19
371.06	84.26
371.25	180.22
371.45	58.51
371.65	95.96
371.84	112.35
372.04	65.54
372.24	142.77
372.44	88.94
372.63	79.58
372.83	203.63
373.03	131.07
373.22	173.20
373.42	110.01
373.62	142.77
373.81	93.62
374.01	259.80
374.21	177.88
374.40	114.69
374.60	180.22
374.79	121.71
374.99	154.48
375.19	180.22
375.38	152.13
375.58	133.41
375.78	191.92
375.97	163.84
376.17	161.50
376.37	114.69
376.56	149.79
376.76	124.05
376.95	128.73
377.15	124.05
377.35	70.22
377.54	145.11
377.74	210.65
377.93	168.52
378.13	81.92
378.33	208.31
378.52	79.58
378.72	198.95
378.91	74.90
379.11	156.82
379.31	177.88
379.50	163.84
379.70	147.45
379.89	255.12
380.09	177.88
380.28	95.96
380.48	133.41
380.68	100.64
380.87	180.22
381.07	173.20
381.26	126.39
381.46	133.41
381.65	184.90
381.85	135.75
382.04	77.24
382.24	182.56
382.43	135.75
382.63	149.79
382.83	124.05
383.02	128.73
383.22	266.82
383.41	91.28
383.61	102.98
383.80	100.64
384.00	133.41
384.19	140.43
384.39	149.79
384.58	112.35
384.78	119.37
384.97	142.77
385.17	177.88
385.36	138.09
385.56	187.24
385.75	175.54
385.95	74.90
386.14	180.22
386.34	131.07
386.53	168.52
386.72	133.41
386.92	189.58
387.11	117.03
387.31	163.84
387.50	102.98
387.70	93.62
387.89	182.56
388.09	236.39
388.28	98.30
388.48	114.69
388.67	220.01
388.86	112.35
389.06	81.92
389.25	177.88
389.45	182.56
389.64	140.43
389.84	196.60
390.03	208.31
390.22	159.16
390.42	79.58
390.61	159.16
390.81	126.39
391.00	107.66
391.19	173.20
391.39	121.71
391.58	105.32
391.78	152.13
391.97	124.05
392.16	170.86
392.36	210.65
392.55	161.50
392.75	112.35
392.94	88.94
393.13	156.82
393.33	72.56
393.52	128.73
393.71	156.82
393.91	74.90
394.10	121.71
394.29	93.62
394.49	131.07
394.68	133.41
394.88	173.20
395.07	152.13
395.26	154.48
395.46	126.39
395.65	126.39
395.84	159.16
396.04	159.16
396.23	84.26
396.42	142.77
396.62	100.64
396.81	180.22
397.00	161.50
397.19	173.20
397.39	184.90
397.58	112.35
397.77	95.96
397.97	60.85
398.16	152.13
398.35	173.20
398.55	140.43
398.74	212.99
398.93	191.92
399.12	133.41
399.32	159.16
399.51	102.98
399.70	159.16
399.90	124.05
400.09	189.58
400.28	180.22
400.47	212.99
400.67	187.24
400.86	168.52
401.05	147.45
401.24	182.56
401.44	166.18
401.63	100.64
401.82	133.41
402.01	152.13
402.21	180.22
402.40	142.77
402.59	196.60
402.78	170.86
402.97	215.33
403.17	126.39
403.36	152.13
403.55	189.58
403.74	77.24
403.93	100.64
404.13	234.05
404.32	182.56
404.51	152.13
404.70	142.77
404.89	131.07
405.09	229.37
405.28	138.09
405.47	145.11
405.66	159.16
405.85	191.92
406.05	189.58
406.24	140.43
406.43	184.90
406.62	173.20
406.81	205.97
407.00	166.18
407.20	156.82
407.39	110.01
407.58	182.56
407.77	154.48
407.96	133.41
408.15	180.22
408.34	177.88
408.54	159.16
408.73	140.43
408.92	161.50
409.11	182.56
409.30	135.75
409.49	140.43
409.68	182.56
409.87	147.45
410.07	220.01
410.26	142.77
410.45	105.32
410.64	170.86
410.83	205.97
411.02	138.09
411.21	170.86
411.40	215.33
411.59	159.16
411.78	175.54
411.98	147.45
412.17	173.20
412.36	184.90
412.55	126.39
412.74	177.88
412.93	156.82
413.12	229.37
413.31	205.97
413.50	126.39
413.69	161.50
413.88	210.65
414.07	238.73
414.26	131.07
414.45	154.48
414.64	177.88
414.83	215.33
415.02	128.73
415.22	152.13
415.41	166.18
415.60	121.71
415.79	168.52
415.98	217.67
416.17	189.58
416.36	184.90
416.55	227.03
416.74	177.88
416.93	168.52
417.12	159.16
417.31	53.83
417.50	215.33
417.69	215.33
417.88	128.73
418.07	147.45
418.26	168.52
418.45	142.77
418.64	168.52
418.83	147.45
419.02	184.90
419.21	189.58
419.39	194.26
419.58	210.65
419.77	166.18
419.96	110.01
420.15	252.78
420.34	222.35
420.53	163.84
420.72	133.41
420.91	170.86
421.10	255.12
421.29	142.77
421.48	231.71
421.67	243.42
421.86	124.05
422.05	88.94
422.24	117.03
422.43	102.98
422.61	145.11
422.80	187.24
422.99	117.03
423.18	138.09
423.37	198.95
423.56	227.03
423.75	147.45
423.94	154.48
424.13	191.92
424.32	173.20
424.50	191.92
424.69	126.39
424.88	224.69
425.07	145.11
425.26	194.26
425.45	224.69
425.64	198.95
425.83	156.82
426.01	198.95
426.20	107.66
426.39	114.69
426.58	184.90
426.77	72.56
426.96	210.65
427.15	194.26
427.33	128.73
427.52	201.29
427.71	217.67
427.90	189.58
428.09	180.22
428.28	142.77
428.46	79.58
428.65	142.77
428.84	133.41
429.03	227.03
429.22	154.48
429.40	212.99
429.59	131.07
429.78	245.76
429.97	166.18
430.16	177.88
430.34	196.60
430.53	203.63
430.72	170.86
430.91	168.52
431.10	159.16
431.28	189.58
431.47	168.52
431.66	203.63
431.85	201.29
432.03	161.50
432.22	180.22
432.41	175.54
432.60	203.63
432.79	161.50
432.97	252.78
433.16	243.42
433.35	215.33
433.54	184.90
433.72	210.65
433.91	182.56
434.10	215.33
434.28	205.97
434.47	205.97
434.66	236.39
434.85	149.79
435.03	184.90
435.22	386.19
435.41	449.38
435.59	339.38
435.78	365.12
435.97	236.39
436.16	290.23
436.34	161.50
436.53	173.20
436.72	245.76
436.90	117.03
437.09	198.95
437.28	194.26
437.46	191.92
437.65	170.86
437.84	210.65
438.02	201.29
438.21	234.05
438.40	184.90
438.58	126.39
438.77	194.26
438.96	212.99
439.14	159.16
439.33	201.29
439.52	149.79
439.70	159.16
439.89	187.24
440.08	212.99
440.26	189.58
440.45	222.35
440.63	180.22
440.82	245.76
441.01	292.57
441.19	154.48
441.38	149.79
441.57	112.35
441.75	175.54
441.94	166.18
442.12	168.52
442.31	93.62
442.50	163.84
442.68	88.94
442.87	163.84
443.05	182.56
443.24	161.50
443.43	182.56
443.61	189.58
443.80	110.01
443.98	107.66
444.17	215.33
444.35	220.01
444.54	121.71
444.73	126.39
444.91	177.88
445.10	220.01
445.28	163.84
445.47	159.16
445.65	145.11
445.84	194.26
446.02	138.09
446.21	217.67
446.39	215.33
446.58	201.29
446.77	184.90
446.95	110.01
447.14	187.24
447.32	212.99
447.51	180.22
447.69	177.88
447.88	119.37
448.06	231.71
448.25	126.39
448.43	135.75
448.62	117.03
448.80	194.26
448.99	252.78
449.17	231.71
449.36	182.56
449.54	236.39
449.73	266.82
449.91	184.90
450.10	205.97
450.28	273.84
450.46	173.20
450.65	245.76
450.83	196.60
451.02	205.97
451.20	227.03
451.39	210.65
451.57	194.26
451.76	245.76
451.94	212.99
452.13	248.10
452.31	243.42
452.49	180.22
452.68	140.43
452.86	273.84
453.05	224.69
453.23	168.52
453.42	182.56
453.60	168.52
453.78	163.84
453.97	210.65
454.15	208.31
454.34	196.60
454.52	170.86
454.70	166.18
454.89	299.59
455.07	175.54
455.26	269.16
455.44	168.52
455.62	161.50
455.81	238.73
455.99	255.12
456.17	145.11
456.36	156.82
456.54	173.20
456.73	222.35
456.91	163.84
457.09	203.63
457.28	203.63
457.46	142.77
457.64	198.95
457.83	156.82
458.01	110.01
458.19	217.67
458.38	191.92
458.56	184.90
458.74	196.60
458.93	142.77
459.11	166.18
459.29	140.43
459.48	215.33
459.66	262.14
459.84	217.67
460.03	280.86
460.21	276.18
460.39	184.90
460.57	215.33
460.76	177.88
460.94	224.69
461.12	227.03
461.31	124.05
461.49	159.16
461.67	182.56
461.85	210.65
462.04	133.41
462.22	648.33
462.40	243.42
462.59	149.79
462.77	140.43
462.95	201.29
463.13	170.86
463.32	224.69
463.50	220.01
463.68	224.69
463.86	245.76
464.05	198.95
464.23	222.35
464.41	196.60
464.59	180.22
464.78	163.84
464.96	175.54
465.14	231.71
465.32	182.56
465.50	149.79
465.69	248.10
465.87	184.90
466.05	154.48
466.23	105.32
466.41	198.95
466.60	98.30
466.78	212.99
466.96	227.03
467.14	133.41
467.32	180.22
467.51	126.39
467.69	229.37
467.87	187.24
468.05	145.11
468.23	231.71
468.41	236.39
468.60	203.63
468.78	203.63
468.96	220.01
469.14	124.05
469.32	156.82
469.50	285.55
469.69	210.65
469.87	210.65
470.05	191.92
470.23	201.29
470.41	217.67
470.59	177.88
470.77	208.31
470.95	236.39
471.14	224.69
471.32	191.92
471.50	227.03
471.68	156.82
471.86	205.97
472.04	236.39
472.22	135.75
472.40	203.63
472.58	138.09
472.77	79.58
472.95	163.84
473.13	180.22
473.31	217.67
473.49	170.86
473.67	142.77
473.85	173.20
474.03	215.33
474.21	166.18
474.39	287.89
474.57	229.37
474.75	227.03
474.93	166.18
475.12	182.56
475.30	194.26
475.48	217.67
475.66	234.05
475.84	166.18
476.02	145.11
476.20	173.20
476.38	215.33
476.56	257.46
476.74	229.37
476.92	252.78
477.10	243.42
477.28	259.80
477.46	248.10
477.64	198.95
477.82	227.03
478.00	227.03
478.18	222.35
478.36	208.31
478.54	147.45
478.72	210.65
478.90	161.50
479.08	182.56
479.26	220.01
479.44	173.20
479.62	234.05
479.80	142.77
479.98	152.13
480.16	154.48
480.34	180.22
480.52	168.52
480.70	262.14
480.88	212.99
481.06	177.88
481.24	245.76
481.41	234.05
481.59	212.99
481.77	285.55
481.95	198.95
482.13	257.46
482.31	201.29
482.49	266.82
482.67	229.37
482.85	229.37
483.03	196.60
483.21	248.10
483.39	266.82
483.57	234.05
483.74	278.52
483.92	276.18
484.10	217.67
484.28	227.03
484.46	229.37
484.64	208.31
484.82	259.80
485.00	292.57
485.18	222.35
485.35	189.58
485.53	217.67
485.71	292.57
485.89	149.79
486.07	252.78
486.25	299.59
486.43	332.36
486.61	173.20
486.78	276.18
486.96	212.99
487.14	241.08
487.32	257.46
487.50	217.67
487.68	271.50
487.85	229.37
488.03	208.31
488.21	283.20
488.39	234.05
488.57	194.26
488.75	175.54
488.92	440.02
489.10	234.05
489.28	238.73
489.46	212.99
489.64	227.03
489.81	262.14
489.99	294.91
490.17	250.44
490.35	332.36
490.53	234.05
490.70	196.60
490.88	250.44
491.06	243.42
491.24	210.65
491.41	212.99
491.59	269.16
491.77	220.01
491.95	315.97
492.13	180.22
492.30	212.99
492.48	231.71
492.66	224.69
492.84	236.39
493.01	271.50
493.19	180.22
493.37	290.23
493.54	250.44
493.72	250.44
493.90	217.67
494.08	210.65
494.25	210.65
494.43	257.46
494.61	187.24
494.79	255.12
494.96	262.14
495.14	318.31
495.32	177.88
495.49	208.31
495.67	238.73
495.85	238.73
496.02	191.92
496.20	283.20
496.38	241.08
496.55	271.50
496.73	238.73
496.91	259.80
497.09	278.52
497.26	236.39
497.44	243.42
497.62	145.11
497.79	222.35
497.97	236.39
498.14	269.16
498.32	257.46
498.50	250.44
498.67	276.18
498.85	301.93
499.03	269.16
499.20	191.92
499.38	203.63
499.56	220.01
499.73	325.33
499.91	285.55
500.08	280.86
500.26	308.95
500.44	250.44
500.61	236.39
500.79	264.48
500.97	248.10
501.14	285.55
501.32	259.80
501.49	229.37
501.67	241.08
501.84	266.82
502.02	166.18
502.20	257.46
502.37	224.69
502.55	292.57
502.72	220.01
502.90	266.82
503.07	236.39
503.25	290.23
503.43	311.29
503.60	215.33
503.78	212.99
503.95	287.89
504.13	280.86
504.30	236.39
504.48	290.23
504.65	332.36
504.83	210.65
505.01	198.95
505.18	227.03
505.36	184.90
505.53	222.35
505.71	292.57
505.88	269.16
506.06	273.84
506.23	248.10
506.41	220.01
506.58	252.78
506.76	241.08
506.93	222.35
507.11	182.56
507.28	266.82
507.46	175.54
507.63	262.14
507.81	187.24
507.98	203.63
508.16	248.10
508.33	362.78
508.50	180.22
508.68	248.10
508.85	278.52
509.03	231.71
509.20	320.65
509.38	353.42
509.55	262.14
509.73	301.93
509.90	299.59
510.08	236.39
510.25	252.78
510.42	205.97
510.60	187.24
510.77	327.68
510.95	255.12
511.12	334.70
511.30	294.91
511.47	224.69
511.64	318.31
511.82	231.71
511.99	234.05
512.17	222.35
512.34	255.12
512.51	184.90
512.69	266.82
512.86	241.08
513.04	173.20
513.21	299.59
513.38	201.29
513.56	252.78
513.73	191.92
513.90	248.10
514.08	264.48
514.25	322.99
514.43	224.69
514.60	271.50
514.77	304.27
514.95	325.33
515.12	315.97
515.29	297.25
515.47	264.48
515.64	177.88
515.81	229.37
515.99	332.36
516.16	273.84
516.33	327.68
516.51	212.99
516.68	217.67
516.85	217.67
517.03	278.52
517.20	304.27
517.37	262.14
517.54	236.39
517.72	208.31
517.89	224.69
518.06	227.03
518.24	234.05
518.41	276.18
518.58	332.36
518.75	262.14
518.93	257.46
519.10	245.76
519.27	166.18
519.45	273.84
519.62	243.42
519.79	194.26
519.96	189.58
520.14	315.97
520.31	283.20
520.48	292.57
520.65	327.68
520.83	330.02
521.00	238.73
521.17	208.31
521.34	217.67
521.52	234.05
521.69	264.48
521.86	243.42
522.03	292.57
522.20	248.10
522.38	290.23
522.55	304.27
522.72	196.60
522.89	318.31
523.07	299.59
523.24	215.33
523.41	283.20
523.58	236.39
523.75	222.35
523.92	248.10
524.10	306.61
524.27	271.50
524.44	294.91
524.61	320.65
524.78	201.29
524.96	264.48
525.13	255.12
525.30	271.50
525.47	276.18
525.64	294.91
525.81	322.99
525.98	248.10
526.16	280.86
526.33	315.97
526.50	227.03
526.67	292.57
526.84	177.88
527.01	248.10
527.18	294.91
527.36	313.63
527.53	301.93
527.70	224.69
527.87	299.59
528.04	318.31
528.21	271.50
528.38	372.15
528.55	318.31
528.72	339.38
528.89	322.99
529.07	287.89
529.24	229.37
529.41	287.89
529.58	311.29
529.75	255.12
529.92	278.52
530.09	273.84
530.26	196.60
530.43	238.73
530.60	241.08
530.77	224.69
530.94	245.76
531.11	358.10
531.28	255.12
531.46	266.82
531.63	266.82
531.80	257.46
531.97	311.29
532.14	306.61
532.31	255.12
532.48	376.83
532.65	283.20
532.82	285.55
532.99	322.99
533.16	278.52
533.33	290.23
533.50	344.06
533.67	292.57
533.84	334.70
534.01	355.76
534.18	271.50
534.35	276.18
534.52	315.97
534.69	299.59
534.86	304.27
535.03	257.46
535.20	252.78
535.37	252.78
535.54	222.35
535.71	250.44
535.88	264.48
536.05	287.89
536.22	224.69
536.38	337.04
536.55	262.14
536.72	280.86
536.89	315.97
537.06	287.89
537.23	259.80
537.40	362.78
537.57	355.76
537.74	318.31
537.91	315.97
538.08	262.14
538.25	278.52
538.42	264.48
538.59	330.02
538.75	313.63
538.92	278.52
539.09	386.19
539.26	250.44
539.43	390.87
539.60	531.30
539.77	713.86
539.94	638.97
540.11	575.77
540.28	461.09
540.44	376.83
540.61	358.10
540.78	402.57
540.95	479.81
541.12	538.32
541.29	524.28
541.46	573.43
541.62	521.94
541.79	486.83
541.96	475.13
542.13	416.62
542.30	468.11
542.47	503.22
542.63	517.26
542.80	393.21
542.97	386.19
543.14	400.23
543.31	447.04
543.48	482.15
543.64	498.53
543.81	430.66
543.98	402.57
544.15	437.68
544.32	390.87
544.48	500.87
544.65	416.62
544.82	386.19
544.99	367.46
545.16	489.17
545.32	409.59
545.49	648.33
545.66	889.40
545.83	954.94
546.00	685.78
546.16	650.67
546.33	500.87
546.50	496.19
546.67	397.89
546.83	390.87
547.00	425.98
547.17	402.57
547.34	393.21
547.50	369.80
547.67	388.53
547.84	311.29
548.00	337.04
548.17	341.72
548.34	351.08
548.51	379.17
548.67	409.59
548.84	318.31
549.01	383.85
549.18	367.46
549.34	360.44
549.51	358.10
549.68	325.33
549.84	311.29
550.01	337.04
550.18	360.44
550.34	372.15
550.51	348.74
550.68	383.85
550.84	287.89
551.01	299.59
551.18	381.51
551.34	362.78
551.51	311.29
551.68	306.61
551.84	320.65
552.01	374.49
552.18	330.02
552.34	259.80
552.51	318.31
552.68	337.04
552.84	320.65
553.01	294.91
553.18	259.80
553.34	222.35
553.51	290.23
553.67	255.12
553.84	332.36
554.01	287.89
554.17	224.69
554.34	276.18
554.51	294.91
554.67	327.68
554.84	210.65
555.00	238.73
555.17	257.46
555.33	285.55
555.50	353.42
555.67	264.48
555.83	292.57
556.00	248.10
556.16	437.68
556.33	315.97
556.50	238.73
556.66	315.97
556.83	201.29
556.99	248.10
557.16	241.08
557.32	208.31
557.49	269.16
557.65	297.25
557.82	264.48
557.98	255.12
558.15	287.89
558.32	285.55
558.48	161.50
558.65	287.89
558.81	280.86
558.98	266.82
559.14	229.37
559.31	304.27
559.47	217.67
559.64	208.31
559.80	301.93
559.97	294.91
560.13	294.91
560.30	264.48
560.46	266.82
560.63	276.18
560.79	259.80
560.96	283.20
561.12	203.63
561.29	276.18
561.45	243.42
561.61	271.50
561.78	318.31
561.94	231.71
562.11	250.44
562.27	285.55
562.44	198.95
562.60	234.05
562.77	243.42
562.93	327.68
563.10	334.70
563.26	234.05
563.42	273.84
563.59	234.05
563.75	222.35
563.92	269.16
564.08	283.20
564.24	278.52
564.41	337.04
564.57	320.65
564.74	308.95
564.90	306.61
565.07	248.10
565.23	304.27
565.39	177.88
565.56	292.57
565.72	245.76
565.88	297.25
566.05	292.57
566.21	201.29
566.38	187.24
566.54	250.44
566.70	203.63
566.87	210.65
567.03	245.76
567.19	229.37
567.36	241.08
567.52	266.82
567.68	315.97
567.85	231.71
568.01	210.65
568.17	231.71
568.34	290.23
568.50	306.61
568.66	255.12
568.83	285.55
568.99	271.50
569.15	306.61
569.32	264.48
569.48	290.23
569.64	266.82
569.81	344.06
569.97	276.18
570.13	241.08
570.30	224.69
570.46	271.50
570.62	205.97
570.78	238.73
570.95	205.97
571.11	376.83
571.27	294.91
571.43	266.82
571.60	318.31
571.76	283.20
571.92	227.03
572.09	266.82
572.25	269.16
572.41	189.58
572.57	297.25
572.74	285.55
572.90	236.39
573.06	255.12
573.22	330.02
573.38	241.08
573.55	292.57
573.71	255.12
573.87	222.35
574.03	184.90
574.20	236.39
574.36	271.50
574.52	287.89
574.68	262.14
574.84	276.18
575.01	287.89
575.17	245.76
575.33	187.24
575.49	252.78
575.65	292.57
575.82	308.95
575.98	369.80
576.14	407.25
576.30	423.64
576.46	383.85
576.62	423.64
576.79	409.59
576.95	386.19
577.11	315.97
577.27	315.97
577.43	294.91
577.59	287.89
577.75	372.15
577.92	215.33
578.08	273.84
578.24	252.78
578.40	271.50
578.56	383.85
578.72	449.38
578.88	322.99
579.04	348.74
579.21	330.02
579.37	276.18
579.53	320.65
579.69	339.38
579.85	262.14
580.01	423.64
580.17	372.15
580.33	306.61
580.49	271.50
580.65	259.80
580.82	318.31
580.98	266.82
581.14	313.63
581.30	334.70
581.46	308.95
581.62	411.93
581.78	334.70
581.94	472.79
582.10	341.72
582.26	348.74
582.42	276.18
582.58	393.21
582.74	332.36
582.90	341.72
583.06	393.21
583.22	346.40
583.38	409.59
583.54	393.21
583.70	428.32
583.86	428.32
584.02	437.68
584.18	552.37
584.34	568.75
584.50	1177.29
584.66	7803.35
584.82	18141.49
584.98	23494.30
585.14	19838.38
585.30	12446.97
585.46	7627.81
585.62	4830.87
585.78	2420.11
585.94	1123.46
586.10	692.80
586.26	601.52
586.42	463.43
586.58	355.76
586.74	425.98
586.90	454.06
587.06	482.15
587.22	409.59
587.38	409.59
587.54	615.56
587.70	1231.12
587.86	1806.89
588.02	1830.30
588.18	1413.68
588.34	950.26
588.49	692.80
588.65	472.79
588.81	376.83
588.97	318.31
589.13	308.95
589.29	330.02
589.45	318.31
589.61	283.20
589.77	322.99
589.93	348.74
590.08	365.12
590.24	264.48
590.40	283.20
590.56	257.46
590.72	315.97
590.88	285.55
591.04	304.27
591.20	318.31
591.35	273.84
591.51	287.89
591.67	285.55
591.83	313.63
591.99	301.93
592.15	355.76
592.31	344.06
592.46	292.57
592.62	344.06
592.78	332.36
592.94	353.42
593.10	301.93
593.26	330.02
593.41	264.48
593.57	395.55
593.73	374.49
593.89	1144.52
594.05	2317.13
594.20	2970.14
594.36	2810.98
594.52	1909.88
594.68	1362.19
594.84	987.71
594.99	566.41
595.15	468.11
595.31	358.10
595.47	332.36
595.62	348.74
595.78	243.42
595.94	301.93
596.10	327.68
596.25	320.65
596.41	299.59
596.57	220.01
596.73	290.23
596.88	346.40
597.04	615.56
597.20	826.21
597.36	805.14
597.51	690.46
597.67	510.24
597.83	559.39
597.99	409.59
598.14	355.76
598.30	278.52
598.46	285.55
598.61	311.29
598.77	313.63
598.93	266.82
599.09	318.31
599.24	292.57
599.40	264.48
599.56	276.18
599.71	297.25
599.87	264.48
600.03	252.78
600.18	315.97
600.34	325.33
600.50	264.48
600.65	315.97
600.81	222.35
600.97	276.18
601.12	344.06
601.28	280.86
601.44	301.93
601.59	294.91
601.75	322.99
601.91	315.97
602.06	259.80
602.22	367.46
602.37	388.53
602.53	755.99
602.69	945.58
602.84	983.02
603.00	713.86
603.16	634.29
603.31	451.72
603.47	435.34
603.62	266.82
603.78	196.60
603.94	264.48
604.09	276.18
604.25	234.05
604.40	273.84
604.56	280.86
604.71	255.12
604.87	198.95
605.03	348.74
605.18	245.76
605.34	337.04
605.49	290.23
605.65	297.25
605.80	262.14
605.96	320.65
606.12	276.18
606.27	353.42
606.43	311.29
606.58	346.40
606.74	484.49
606.89	1256.87
607.05	2155.63
607.20	2569.91
607.36	2108.82
607.51	1427.73
607.67	1165.59
607.82	800.46
607.98	561.73
608.13	351.08
608.29	379.17
608.44	325.33
608.60	369.80
608.75	425.98
608.91	631.94
609.06	1863.07
609.22	3611.45
609.37	4447.02
609.53	3672.30
609.68	2726.72
609.84	1753.06
609.99	1441.77
610.15	905.79
610.30	706.84
610.46	732.59
610.61	648.33
