SpectraSuite Data File
++++++++++++++++++++++++++++++++++++
Date: Fri Oct 04 12:13:59 GMT-05:00 2013
User: price-jones
Dark Spectrum Present: No
Reference Spectrum Present: No
Number of Sampled Component Spectra: 1
Spectrometers: USB2+H05261
Integration Time (usec): 1000000 (USB2+H05261)
Spectra Averaged: 1 (USB2+H05261)
Boxcar Smoothing: 0 (USB2+H05261)
Correct for Electrical Dark: No (USB2+H05261)
Strobe/Lamp Enabled: No (USB2+H05261)
Correct for Detector Non-linearity: No (USB2+H05261)
Correct for Stray Light: No (USB2+H05261)
Number of Pixels in Processed Spectrum: 2048
>>>>>Begin Processed Spectral Data<<<<<
365.73	44.47
365.92	44.47
366.12	44.47
366.32	0.00
366.52	0.00
366.72	297.25
366.91	124.05
367.11	231.71
367.31	170.86
367.51	290.23
367.70	353.42
367.90	528.96
368.10	313.63
368.30	444.70
368.49	140.43
368.69	505.56
368.89	271.50
369.09	166.18
369.28	259.80
369.48	107.66
369.68	243.42
369.87	348.74
370.07	184.90
370.27	629.60
370.47	437.68
370.66	322.99
370.86	507.90
371.06	723.23
371.25	945.58
371.45	397.89
371.65	641.31
371.84	428.32
372.04	262.14
372.24	411.93
372.44	465.77
372.63	524.28
372.83	781.74
373.03	472.79
373.22	367.46
373.42	332.36
373.62	472.79
373.81	603.86
374.01	702.16
374.21	657.69
374.40	491.51
374.60	781.74
374.79	498.53
374.99	493.85
375.19	606.20
375.38	603.86
375.58	528.96
375.78	746.63
375.97	655.35
376.17	1064.94
376.37	557.05
376.56	603.86
376.76	372.15
376.95	294.91
377.15	706.84
377.35	660.03
377.54	587.47
377.74	383.85
377.93	440.02
378.13	533.64
378.33	678.76
378.52	461.09
378.72	676.41
378.91	702.16
379.11	416.62
379.31	390.87
379.50	318.31
379.70	634.29
379.89	727.91
380.09	507.90
380.28	418.96
380.48	531.30
380.68	449.38
380.87	341.72
381.07	528.96
381.26	725.57
381.46	643.65
381.65	627.26
381.85	402.57
382.04	449.38
382.24	634.29
382.43	482.15
382.63	416.62
382.83	458.74
383.02	746.63
383.22	720.88
383.41	318.31
383.61	496.19
383.80	470.45
384.00	451.72
384.19	475.13
384.39	477.47
384.58	493.85
384.78	636.63
384.97	503.22
385.17	447.04
385.36	444.70
385.56	720.88
385.75	381.51
385.95	447.04
386.14	603.86
386.34	376.83
386.53	521.94
386.72	461.09
386.92	774.72
387.11	631.94
387.31	627.26
387.50	374.49
387.70	353.42
387.89	496.19
388.09	334.70
388.28	330.02
388.48	360.44
388.67	571.09
388.86	454.06
389.06	521.94
389.25	650.67
389.45	554.71
389.64	456.40
389.84	624.92
390.03	676.41
390.22	514.92
390.42	411.93
390.61	355.76
390.81	332.36
391.00	507.90
391.19	727.91
391.39	573.43
391.58	645.99
391.78	535.98
391.97	557.05
392.16	430.66
392.36	868.34
392.55	692.80
392.75	517.26
392.94	423.64
393.13	655.35
393.33	362.78
393.52	461.09
393.71	814.51
393.91	606.20
394.10	348.74
394.29	533.64
394.49	624.92
394.68	784.08
394.88	910.47
395.07	748.97
395.26	580.45
395.46	486.83
395.65	753.65
395.84	634.29
396.04	1144.52
396.23	526.62
396.42	407.25
396.62	557.05
396.81	631.94
397.00	610.88
397.19	575.77
397.39	503.22
397.58	809.83
397.77	514.92
397.97	559.39
398.16	566.41
398.35	690.46
398.55	348.74
398.74	585.13
398.93	716.20
399.12	489.17
399.32	664.71
399.51	507.90
399.70	657.69
399.90	690.46
400.09	711.52
400.28	793.44
400.47	484.49
400.67	692.80
400.86	589.82
401.05	711.52
401.24	779.40
401.44	744.29
401.63	732.59
401.82	739.61
402.01	442.36
402.21	613.22
402.40	561.73
402.59	564.07
402.78	554.71
402.97	524.28
403.17	631.94
403.36	592.16
403.55	589.82
403.74	660.03
403.93	760.67
404.13	1011.11
404.32	763.01
404.51	624.92
404.70	856.64
404.89	554.71
405.09	1081.33
405.28	641.31
405.47	458.74
405.66	718.54
405.85	833.23
406.05	664.71
406.24	571.09
406.43	650.67
406.62	678.76
406.81	1095.37
407.00	772.38
407.20	550.03
407.39	599.18
407.58	568.75
407.77	781.74
407.96	891.74
408.15	854.30
408.34	688.12
408.54	669.39
408.73	695.14
408.92	631.94
409.11	753.65
409.30	952.60
409.49	512.58
409.68	566.41
409.87	580.45
410.07	573.43
410.26	662.37
410.45	564.07
410.64	505.56
410.83	596.84
411.02	568.75
411.21	767.70
411.40	751.31
411.59	573.43
411.78	535.98
411.98	559.39
412.17	585.13
412.36	568.75
412.55	578.11
412.74	791.10
412.93	1041.54
413.12	559.39
413.31	781.74
413.50	772.38
413.69	641.31
413.88	915.15
414.07	669.39
414.26	678.76
414.45	557.05
414.64	777.06
414.83	760.67
415.02	723.23
415.22	835.57
415.41	1067.28
415.60	667.05
415.79	861.32
415.98	1011.11
416.17	702.16
416.36	636.63
416.55	580.45
416.74	774.72
416.93	863.66
417.12	713.86
417.31	760.67
417.50	690.46
417.69	1259.21
417.88	1043.88
418.07	851.96
418.26	880.04
418.45	798.12
418.64	1366.87
418.83	1233.46
419.02	1086.01
419.21	809.83
419.39	950.26
419.58	807.48
419.77	851.96
419.96	1062.60
420.15	1057.92
420.34	751.31
420.53	840.25
420.72	875.36
420.91	758.33
421.10	723.23
421.29	648.33
421.48	823.87
421.67	940.90
421.86	704.50
422.05	688.12
422.24	753.65
422.43	744.29
422.61	524.28
422.80	615.56
422.99	793.44
423.18	664.71
423.37	968.98
423.56	863.66
423.75	837.91
423.94	559.39
424.13	653.01
424.32	524.28
424.50	674.07
424.69	779.40
424.88	1025.15
425.07	725.57
425.26	950.26
425.45	1104.73
425.64	1174.95
425.83	1156.22
426.01	1207.72
426.20	851.96
426.39	713.86
426.58	720.88
426.77	723.23
426.96	936.21
427.15	887.06
427.33	603.86
427.52	709.18
427.71	734.93
427.90	788.76
428.09	599.18
428.28	624.92
428.46	697.48
428.65	786.42
428.84	882.38
429.03	938.55
429.22	716.20
429.40	564.07
429.59	486.83
429.78	1167.93
429.97	772.38
430.16	613.22
430.34	624.92
430.53	641.31
430.72	723.23
430.91	823.87
431.10	498.53
431.28	723.23
431.47	933.87
431.66	812.17
431.85	690.46
432.03	784.08
432.22	1214.74
432.41	716.20
432.60	1057.92
432.79	868.34
432.97	1268.57
433.16	1404.32
433.35	1207.72
433.54	1001.75
433.72	957.28
433.91	947.92
434.10	880.04
434.28	1067.28
434.47	882.38
434.66	940.90
434.85	699.82
435.03	777.06
435.22	1060.26
435.41	1196.01
435.59	952.60
435.78	940.90
435.97	800.46
436.16	968.98
436.34	702.16
436.53	840.25
436.72	1050.90
436.90	1006.43
437.09	828.55
437.28	746.63
437.46	699.82
437.65	894.08
437.84	891.74
438.02	847.27
438.21	816.85
438.40	634.29
438.58	645.99
438.77	788.76
438.96	760.67
439.14	690.46
439.33	1006.43
439.52	767.70
439.70	777.06
439.89	915.15
440.08	842.59
440.26	842.59
440.45	1174.95
440.63	868.34
440.82	840.25
441.01	873.02
441.19	812.17
441.38	814.51
441.57	788.76
441.75	1013.45
441.94	1188.99
442.12	849.61
442.31	814.51
442.50	744.29
442.68	826.21
442.87	866.00
443.05	784.08
443.24	983.02
443.43	1097.71
443.61	1249.85
443.80	947.92
443.98	713.86
444.17	760.67
444.35	1083.67
444.54	779.40
444.73	870.68
444.91	1130.48
445.10	774.72
445.28	709.18
445.47	875.36
445.65	851.96
445.84	786.42
446.02	971.32
446.21	772.38
446.39	823.87
446.58	999.41
446.77	777.06
446.95	812.17
447.14	997.07
447.32	1097.71
447.51	903.45
447.69	919.83
447.88	961.96
448.06	1207.72
448.25	929.19
448.43	802.80
448.62	781.74
448.80	1095.37
448.99	1100.05
449.17	774.72
449.36	826.21
449.54	1043.88
449.73	781.74
449.91	1015.79
450.10	891.74
450.28	1334.11
450.46	1284.95
450.65	1186.65
450.83	1025.15
451.02	971.32
451.20	926.85
451.39	952.60
451.57	812.17
451.76	896.43
451.94	940.90
452.13	1130.48
452.31	1165.59
452.49	931.53
452.68	772.38
452.86	959.62
453.05	1315.38
453.23	915.15
453.42	809.83
453.60	809.83
453.78	950.26
453.97	727.91
454.15	805.14
454.34	812.17
454.52	821.53
454.70	1188.99
454.89	1083.67
455.07	854.30
455.26	1053.24
455.44	1093.03
455.62	823.87
455.81	990.05
455.99	1083.67
456.17	1062.60
456.36	894.08
456.54	873.02
456.73	821.53
456.91	896.43
457.09	1020.47
457.28	1114.10
457.46	947.92
457.64	1116.44
457.83	901.11
458.01	819.19
458.19	1041.54
458.38	952.60
458.56	1004.09
458.74	854.30
458.93	1083.67
459.11	1015.79
459.29	830.89
459.48	1132.82
459.66	1254.53
459.84	1050.90
460.03	1675.82
460.21	1095.37
460.39	917.49
460.57	1205.38
460.76	1036.86
460.94	873.02
461.12	1362.19
461.31	1226.44
461.49	926.85
461.67	1006.43
461.85	1055.58
462.04	856.64
462.22	5844.32
462.40	1233.46
462.59	1205.38
462.77	840.25
462.95	990.05
463.13	889.40
463.32	1095.37
463.50	910.47
463.68	968.98
463.86	880.04
464.05	861.32
464.23	1184.31
464.41	1015.79
464.59	837.91
464.78	840.25
464.96	730.25
465.14	978.34
465.32	877.70
465.50	1074.31
465.69	1146.86
465.87	791.10
466.05	1088.35
466.23	770.04
466.41	959.62
466.60	938.55
466.78	1043.88
466.96	1247.51
467.14	1053.24
467.32	1191.33
467.51	1034.52
467.69	1062.60
467.87	1277.93
468.05	929.19
468.23	1303.68
468.41	1086.01
468.60	936.21
468.78	1069.62
468.96	1214.74
469.14	1095.37
469.32	763.01
469.50	880.04
469.69	1076.65
469.87	1046.22
470.05	1093.03
470.23	978.34
470.41	898.77
470.59	954.94
470.77	1095.37
470.95	985.37
471.14	1217.08
471.32	1022.81
471.50	1371.55
471.68	1132.82
471.86	1015.79
472.04	933.87
472.22	1102.39
472.40	882.38
472.58	971.32
472.77	973.66
472.95	997.07
473.13	1465.18
473.31	1263.89
473.49	917.49
473.67	856.64
473.85	1135.16
474.03	1100.05
474.21	1151.54
474.39	1294.32
474.57	1446.45
474.75	1062.60
474.93	866.00
475.12	870.68
475.30	1004.09
475.48	1088.35
475.66	1008.77
475.84	1069.62
476.02	1074.31
476.20	1174.95
476.38	1090.69
476.56	1659.44
476.74	1018.13
476.92	1074.31
477.10	1055.58
477.28	1217.08
477.46	1008.77
477.64	1219.42
477.82	1121.12
478.00	884.72
478.18	1132.82
478.36	1025.15
478.54	943.24
478.72	966.64
478.90	1076.65
479.08	1170.27
479.26	1118.78
479.44	1050.90
479.62	919.83
479.80	1067.28
479.98	971.32
480.16	1020.47
480.34	1306.02
480.52	1071.97
480.70	1198.35
480.88	994.73
481.06	1011.11
481.24	1100.05
481.41	1163.25
481.59	1301.34
481.77	1249.85
481.95	1097.71
482.13	1453.47
482.31	1179.63
482.49	1025.15
482.67	1256.87
482.85	1331.76
483.03	1181.97
483.21	1174.95
483.39	1057.92
483.57	1160.91
483.74	1509.65
483.92	1111.75
484.10	1076.65
484.28	1394.96
484.46	1732.00
484.64	1128.14
484.82	1191.33
485.00	1097.71
485.18	1139.84
485.35	1214.74
485.53	952.60
485.71	1394.96
485.89	819.19
486.07	1001.75
486.25	1619.65
486.43	1214.74
486.61	1315.38
486.78	1205.38
486.96	997.07
487.14	1170.27
487.32	1198.35
487.50	1160.91
487.68	1385.60
487.85	1144.52
488.03	1385.60
488.21	1614.97
488.39	1224.10
488.57	1380.92
488.75	1142.18
488.92	3906.35
489.10	1441.77
489.28	1703.91
489.46	1156.22
489.64	1310.70
489.81	1289.64
489.99	1460.49
490.17	1369.21
490.35	1907.54
490.53	1352.83
490.70	1261.55
490.88	1540.07
491.06	1338.79
491.24	1383.26
491.41	1661.78
491.59	1397.30
491.77	1109.41
491.95	1186.65
492.13	1135.16
492.30	1383.26
492.48	1268.57
492.66	1280.27
492.84	1224.10
493.01	1511.99
493.19	1357.51
493.37	1746.04
493.54	1596.25
493.72	1544.75
493.90	1366.87
494.08	1277.93
494.25	1584.54
494.43	1526.03
494.61	1455.81
494.79	1371.55
494.96	1359.85
495.14	1551.78
495.32	1350.49
495.49	1549.43
495.67	1481.56
495.85	1474.54
496.02	1287.29
496.20	1596.25
496.38	1593.90
496.55	1423.05
496.73	1551.78
496.91	1423.05
497.09	1626.67
497.26	1584.54
497.44	1509.65
497.62	1411.34
497.79	1549.43
497.97	1476.88
498.14	1533.05
498.32	1533.05
498.50	1558.80
498.67	1483.90
498.85	1551.78
499.03	1420.71
499.20	1530.71
499.38	1488.58
499.56	1514.33
499.73	1914.56
499.91	1647.74
500.08	1729.66
500.26	1526.03
500.44	1357.51
500.61	1521.35
500.79	1390.28
500.97	1600.93
501.14	1717.95
501.32	1495.60
501.49	1732.00
501.67	1383.26
501.84	1607.95
502.02	1369.21
502.20	1842.00
502.37	1617.31
502.55	1460.49
502.72	1502.62
502.90	1720.29
503.07	1526.03
503.25	1619.65
503.43	1439.43
503.60	1682.85
503.78	1696.89
503.95	1586.88
504.13	1394.96
504.30	1535.39
504.48	1825.62
504.65	1900.52
504.83	1680.50
505.01	1444.11
505.18	1589.22
505.36	1549.43
505.53	1535.39
505.71	1526.03
505.88	1902.86
506.06	1476.88
506.23	1589.22
506.41	1514.33
506.58	1579.86
506.76	1528.37
506.93	1483.90
507.11	1687.53
507.28	1469.86
507.46	1453.47
507.63	1746.04
507.81	1593.90
507.98	1621.99
508.16	1586.88
508.33	1610.29
508.50	1703.91
508.68	1551.78
508.85	1603.27
509.03	1451.13
509.20	1523.69
509.38	1614.97
509.55	1830.30
509.73	1825.62
509.90	1944.99
510.08	1474.54
510.25	1736.68
510.42	1476.88
510.60	1584.54
510.77	1785.83
510.95	1837.32
511.12	1734.34
511.30	2047.97
511.47	2118.18
511.64	2251.60
511.82	1614.97
511.99	1701.57
512.17	1652.42
512.34	1544.75
512.51	1586.88
512.69	1561.14
512.86	1895.83
513.04	1502.62
513.21	1624.33
513.38	1537.73
513.56	1509.65
513.73	1621.99
513.90	1465.18
514.08	1451.13
514.25	1811.57
514.43	1727.32
514.60	1577.52
514.77	1650.08
514.95	1755.40
515.12	1603.27
515.29	1825.62
515.47	1720.29
515.64	1645.40
515.81	1612.63
515.99	1888.81
516.16	1736.68
516.33	1713.27
516.51	1495.60
516.68	1320.06
516.85	1399.64
517.03	1434.75
517.20	1654.76
517.37	1565.82
517.54	1586.88
517.72	1570.50
517.89	1263.89
518.06	1416.02
518.24	2036.27
518.41	1968.39
518.58	1834.98
518.75	1582.20
518.93	1687.53
519.10	1750.72
519.27	1614.97
519.45	1678.16
519.62	1741.36
519.79	1774.13
519.96	1537.73
520.14	1760.08
520.31	1991.80
520.48	1692.21
520.65	1692.21
520.83	1944.99
521.00	1830.30
521.17	1715.61
521.34	1657.10
521.52	1668.80
521.69	1755.40
521.86	1748.38
522.03	1879.45
522.20	1996.48
522.38	1533.05
522.55	1715.61
522.72	1434.75
522.89	1952.01
523.07	2071.37
523.24	1633.69
523.41	1619.65
523.58	1586.88
523.75	1586.88
523.92	1600.93
524.10	1748.38
524.27	1636.03
524.44	1612.63
524.61	1987.11
524.78	1647.74
524.96	1860.73
525.13	1717.95
525.30	1921.58
525.47	2010.52
525.64	1792.85
525.81	1748.38
525.98	1575.18
526.16	1603.27
526.33	1446.45
526.50	1432.41
526.67	1327.08
526.84	1446.45
527.01	1497.94
527.18	1696.89
527.36	1619.65
527.53	1666.46
527.70	1870.09
527.87	1720.29
528.04	2176.70
528.21	1570.50
528.38	2022.22
528.55	1998.82
528.72	2038.61
528.89	2190.74
529.07	1685.19
529.24	1678.16
529.41	2132.23
529.58	1788.17
529.75	1675.82
529.92	1820.94
530.09	1720.29
530.26	1994.14
530.43	1905.20
530.60	1790.51
530.77	1846.68
530.94	1891.15
531.11	1827.96
531.28	1636.03
531.46	1598.59
531.63	1778.81
531.80	1713.27
531.97	1846.68
532.14	1685.19
532.31	1788.17
532.48	1820.94
532.65	2193.08
532.82	2314.79
532.99	2464.58
533.16	2190.74
533.33	2090.10
533.50	1916.90
533.67	2012.86
533.84	2656.51
534.01	2848.43
534.18	2511.39
534.35	2122.87
534.52	2118.18
534.69	2335.85
534.86	1753.06
535.03	1666.46
535.20	1795.19
535.37	2015.20
535.54	1870.09
535.71	1717.95
535.88	2092.44
536.05	1710.93
536.22	1830.30
536.38	1673.48
536.55	1778.81
536.72	1856.04
536.89	1600.93
537.06	1645.40
537.23	1640.72
537.40	1689.87
537.57	1647.74
537.74	2003.50
537.91	1914.56
538.08	1767.10
538.25	1757.74
538.42	1636.03
538.59	1792.85
538.75	1703.91
538.92	1792.85
539.09	2019.88
539.26	1790.51
539.43	2818.00
539.60	5666.44
539.77	9673.43
539.94	10565.18
540.11	6808.62
540.28	4599.15
540.44	3361.01
540.61	2146.27
540.78	1729.66
540.95	1600.93
541.12	2143.93
541.29	1750.72
541.46	2024.56
541.62	1877.11
541.79	1633.69
541.96	1533.05
542.13	1647.74
542.30	1614.97
542.47	1825.62
542.63	1619.65
542.80	1743.70
542.97	2001.16
543.14	1743.70
543.31	1839.66
543.48	1699.23
543.64	1849.02
543.81	1657.10
543.98	1643.06
544.15	1568.16
544.32	1727.32
544.48	1610.29
544.65	1703.91
544.82	1603.27
544.99	1600.93
545.16	1912.22
545.32	1748.38
545.49	1846.68
545.66	1743.70
545.83	1612.63
546.00	1488.58
546.16	1645.40
546.33	1598.59
546.50	1657.10
546.67	1952.01
546.83	1790.51
547.00	1727.32
547.17	1481.56
547.34	1434.75
547.50	1671.14
547.67	1640.72
547.84	1568.16
548.00	1820.94
548.17	1638.38
548.34	1605.61
548.51	2059.67
548.67	1989.46
548.84	1624.33
549.01	1776.47
549.18	1802.21
549.34	1891.15
549.51	1837.32
549.68	1912.22
549.84	1598.59
550.01	1427.73
550.18	2534.80
550.34	2368.62
550.51	1753.06
550.68	2146.27
550.84	1586.88
551.01	1647.74
551.18	1926.26
551.34	1703.91
551.51	1636.03
551.68	1666.46
551.84	1884.13
552.01	1643.06
552.18	1694.55
552.34	1699.23
552.51	1687.53
552.68	1797.53
552.84	1659.44
553.01	1774.13
553.18	1914.56
553.34	1619.65
553.51	1596.25
553.67	1746.04
553.84	2104.14
554.01	1844.34
554.17	1795.19
554.34	1465.18
554.51	1755.40
554.67	1851.36
554.84	1856.04
555.00	1724.97
555.17	1685.19
555.33	1860.73
555.50	1706.25
555.67	1940.30
555.83	1741.36
556.00	1785.83
556.16	3335.26
556.33	1846.68
556.50	1809.23
556.66	1750.72
556.83	1675.82
556.99	1579.86
557.16	1722.63
557.32	1556.46
557.49	1614.97
557.65	1526.03
557.82	1511.99
557.98	1685.19
558.15	1511.99
558.32	1682.85
558.48	1542.41
558.65	1542.41
558.81	1776.47
558.98	1551.78
559.14	1797.53
559.31	1612.63
559.47	1753.06
559.64	1509.65
559.80	1802.21
559.97	1511.99
560.13	1661.78
560.30	1523.69
560.46	1619.65
560.63	1626.67
560.79	1706.25
560.96	1708.59
561.12	1516.67
561.29	1694.55
561.45	1621.99
561.61	1591.56
561.78	2420.11
561.94	1577.52
562.11	1469.86
562.27	1582.20
562.44	1387.94
562.60	1579.86
562.77	1650.08
562.93	2298.41
563.10	1692.21
563.26	1654.76
563.42	1881.79
563.59	1673.48
563.75	1406.66
563.92	1909.88
564.08	1675.82
564.24	1722.63
564.41	2139.25
564.57	1476.88
564.74	1621.99
564.90	1689.87
565.07	1842.00
565.23	1851.36
565.39	1748.38
565.56	1959.03
565.72	1706.25
565.88	1626.67
566.05	1533.05
566.21	1692.21
566.38	1722.63
566.54	1673.48
566.70	1603.27
566.87	1476.88
567.03	1418.36
567.19	1638.38
567.36	1668.80
567.52	1600.93
567.68	1636.03
567.85	1687.53
568.01	1481.56
568.17	1371.55
568.34	1570.50
568.50	1968.39
568.66	1551.78
568.83	2452.88
568.99	1572.84
569.15	2022.22
569.32	1486.24
569.48	1511.99
569.64	1441.77
569.81	1516.67
569.97	1533.05
570.13	1701.57
570.30	1514.33
570.46	1540.07
570.62	1549.43
570.78	1540.07
570.95	1345.81
571.11	1877.11
571.27	1956.69
571.43	1434.75
571.60	1820.94
571.76	1575.18
571.92	1703.91
572.09	1523.69
572.25	1556.46
572.41	1605.61
572.57	1533.05
572.74	1884.13
572.90	1781.15
573.06	1781.15
573.22	1666.46
573.38	1827.96
573.55	1813.92
573.71	1874.77
573.87	1792.85
574.03	1572.84
574.20	1596.25
574.36	2003.50
574.52	2036.27
574.68	2143.93
574.84	2139.25
575.01	1750.72
575.17	2005.84
575.33	1624.33
575.49	1795.19
575.65	1977.75
575.82	2267.98
575.98	3583.36
576.14	4400.21
576.30	4844.91
576.46	3641.87
576.62	2745.45
576.79	2434.16
576.95	2415.43
577.11	1795.19
577.27	1626.67
577.43	2047.97
577.59	2059.67
577.75	1849.02
577.92	1713.27
578.08	1727.32
578.24	1671.14
578.40	1987.11
578.56	2106.48
578.72	2087.76
578.88	1930.94
579.04	1757.74
579.21	1959.03
579.37	1839.66
579.53	1818.60
579.69	2162.66
579.85	1891.15
580.01	2277.34
580.17	2359.26
580.33	2291.38
580.49	2279.68
580.65	2377.98
580.82	2190.74
580.98	2127.55
581.14	2139.25
581.30	2499.69
581.46	2792.26
581.62	3679.32
581.78	4086.58
581.94	4079.55
582.10	2937.37
582.26	2888.22
582.42	2630.76
582.58	2703.32
582.74	2689.28
582.90	2803.96
583.06	2965.46
583.22	2897.58
583.38	2906.95
583.54	3014.61
583.70	3906.35
583.86	4128.70
584.02	4784.06
584.18	5919.21
584.34	7152.68
584.50	17965.95
584.66	65535.00
584.82	65535.00
584.98	65535.00
585.14	65535.00
585.30	65535.00
585.46	65535.00
585.62	65535.00
585.78	58108.48
585.94	20091.16
586.10	9778.76
586.26	6771.17
586.42	5446.43
586.58	4418.93
586.74	3847.84
586.90	3740.18
587.06	3681.66
587.22	3426.54
587.38	3201.85
587.54	6303.06
587.70	19494.32
587.86	36093.40
588.02	45357.24
588.18	31491.91
588.34	18829.61
588.49	11908.65
588.65	7407.80
588.81	4053.81
588.97	2340.54
589.13	2036.27
589.29	2005.84
589.45	2235.21
589.61	1987.11
589.77	2572.25
589.93	2724.38
590.08	2897.58
590.24	2799.28
590.40	2874.18
590.56	2715.02
590.72	2305.43
590.88	1949.67
591.04	2242.23
591.20	2129.89
591.35	2450.54
591.51	1919.24
591.67	1750.72
591.83	1837.32
591.99	2010.52
592.15	2062.01
592.31	1905.20
592.46	1703.91
592.62	2043.29
592.78	1717.95
592.94	1797.53
593.10	1781.15
593.26	1886.47
593.41	2176.70
593.57	2251.60
593.73	3435.91
593.89	15274.34
594.05	42850.53
594.20	60104.96
594.36	59959.84
594.52	46265.37
594.68	27475.55
594.84	18621.30
594.99	10431.77
595.15	4842.57
595.31	2935.03
595.47	2583.95
595.62	2040.95
595.78	1989.46
595.94	1973.07
596.10	2218.83
596.25	2263.30
596.41	2499.69
596.57	1961.37
596.73	1872.43
596.88	3038.02
597.04	7705.04
597.20	14277.27
597.36	18927.91
597.51	13827.88
597.67	8755.94
597.83	6052.63
597.99	4468.08
598.14	2836.73
598.30	2478.63
598.46	2045.63
598.61	2363.94
598.77	2167.34
598.93	1858.39
599.09	1799.87
599.24	1769.44
599.40	1902.86
599.56	1664.12
599.71	1762.42
599.87	1607.95
600.03	1654.76
600.18	1577.52
600.34	1769.44
600.50	1514.33
