SpectraSuite Data File
++++++++++++++++++++++++++++++++++++
Date: Fri Oct 04 11:33:58 GMT-05:00 2013
User: price-jones
Dark Spectrum Present: No
Reference Spectrum Present: No
Number of Sampled Component Spectra: 1
Spectrometers: USB2+H05261
Integration Time (usec): 100000 (USB2+H05261)
Spectra Averaged: 1 (USB2+H05261)
Boxcar Smoothing: 0 (USB2+H05261)
Correct for Electrical Dark: No (USB2+H05261)
Strobe/Lamp Enabled: No (USB2+H05261)
Correct for Detector Non-linearity: No (USB2+H05261)
Correct for Stray Light: No (USB2+H05261)
Number of Pixels in Processed Spectrum: 2048
>>>>>Begin Processed Spectral Data<<<<<
365.73	100.64
365.92	100.64
366.12	100.64
366.32	0.00
366.52	0.00
366.72	0.00
366.91	0.00
367.11	0.00
367.31	32.77
367.51	23.41
367.70	0.00
367.90	14.04
368.10	23.41
368.30	14.04
368.49	0.00
368.69	0.00
368.89	0.00
369.09	16.38
369.28	49.15
369.48	2.34
369.68	0.00
369.87	46.81
370.07	63.19
370.27	25.75
370.47	72.56
370.66	147.45
370.86	0.00
371.06	145.11
371.25	159.16
371.45	117.03
371.65	81.92
371.84	84.26
372.04	81.92
372.24	114.69
372.44	56.17
372.63	163.84
372.83	180.22
373.03	119.37
373.22	70.22
373.42	166.18
373.62	182.56
373.81	194.26
374.01	166.18
374.21	152.13
374.40	79.58
374.60	126.39
374.79	135.75
374.99	163.84
375.19	110.01
375.38	173.20
375.58	149.79
375.78	154.48
375.97	212.99
376.17	248.10
376.37	170.86
376.56	205.97
376.76	79.58
376.95	135.75
377.15	140.43
377.35	128.73
377.54	142.77
377.74	189.58
377.93	163.84
378.13	114.69
378.33	100.64
378.52	77.24
378.72	191.92
378.91	138.09
379.11	88.94
379.31	135.75
379.50	110.01
379.70	131.07
379.89	149.79
380.09	67.88
380.28	149.79
380.48	100.64
380.68	112.35
380.87	79.58
381.07	133.41
381.26	128.73
381.46	67.88
381.65	168.52
381.85	163.84
382.04	149.79
382.24	126.39
382.43	114.69
382.63	121.71
382.83	166.18
383.02	142.77
383.22	231.71
383.41	147.45
383.61	140.43
383.80	74.90
384.00	205.97
384.19	208.31
384.39	93.62
384.58	121.71
384.78	203.63
384.97	124.05
385.17	84.26
385.36	133.41
385.56	173.20
385.75	124.05
385.95	93.62
386.14	145.11
386.34	154.48
386.53	138.09
386.72	149.79
386.92	138.09
387.11	131.07
387.31	107.66
387.50	128.73
387.70	152.13
387.89	88.94
388.09	177.88
388.28	145.11
388.48	119.37
388.67	184.90
388.86	166.18
389.06	84.26
389.25	177.88
389.45	98.30
389.64	121.71
389.84	205.97
390.03	126.39
390.22	142.77
390.42	112.35
390.61	72.56
390.81	131.07
391.00	131.07
391.19	224.69
391.39	117.03
391.58	149.79
391.78	184.90
391.97	170.86
392.16	25.75
392.36	217.67
392.55	142.77
392.75	100.64
392.94	121.71
393.13	194.26
393.33	145.11
393.52	126.39
393.71	159.16
393.91	159.16
394.10	140.43
394.29	152.13
394.49	168.52
394.68	121.71
394.88	203.63
395.07	170.86
395.26	140.43
395.46	142.77
395.65	180.22
395.84	112.35
396.04	227.03
396.23	131.07
396.42	133.41
396.62	133.41
396.81	124.05
397.00	93.62
397.19	88.94
397.39	152.13
397.58	166.18
397.77	95.96
397.97	95.96
398.16	187.24
398.35	215.33
398.55	269.16
398.74	107.66
398.93	154.48
399.12	98.30
399.32	149.79
399.51	95.96
399.70	163.84
399.90	149.79
400.09	154.48
400.28	222.35
400.47	170.86
400.67	234.05
400.86	163.84
401.05	135.75
401.24	166.18
401.44	194.26
401.63	168.52
401.82	210.65
402.01	208.31
402.21	152.13
402.40	126.39
402.59	163.84
402.78	156.82
402.97	159.16
403.17	138.09
403.36	126.39
403.55	133.41
403.74	159.16
403.93	250.44
404.13	189.58
404.32	210.65
404.51	187.24
404.70	184.90
404.89	194.26
405.09	271.50
405.28	126.39
405.47	110.01
405.66	175.54
405.85	110.01
406.05	159.16
406.24	187.24
406.43	166.18
406.62	147.45
406.81	147.45
407.00	156.82
407.20	168.52
407.39	79.58
407.58	170.86
407.77	112.35
407.96	203.63
408.15	205.97
408.34	133.41
408.54	212.99
408.73	238.73
408.92	154.48
409.11	149.79
409.30	161.50
409.49	93.62
409.68	177.88
409.87	184.90
410.07	121.71
410.26	175.54
410.45	173.20
410.64	177.88
410.83	126.39
411.02	131.07
411.21	191.92
411.40	121.71
411.59	138.09
411.78	212.99
411.98	175.54
412.17	201.29
412.36	119.37
412.55	79.58
412.74	191.92
412.93	133.41
413.12	194.26
413.31	220.01
413.50	227.03
413.69	124.05
413.88	229.37
414.07	168.52
414.26	212.99
414.45	194.26
414.64	189.58
414.83	175.54
415.02	110.01
415.22	184.90
415.41	184.90
415.60	222.35
415.79	196.60
415.98	290.23
416.17	147.45
416.36	203.63
416.55	152.13
416.74	173.20
416.93	159.16
417.12	177.88
417.31	112.35
417.50	86.60
417.69	210.65
417.88	243.42
418.07	149.79
418.26	79.58
418.45	210.65
418.64	212.99
418.83	250.44
419.02	217.67
419.21	198.95
419.39	198.95
419.58	205.97
419.77	154.48
419.96	250.44
420.15	187.24
420.34	175.54
420.53	145.11
420.72	138.09
420.91	152.13
421.10	91.28
421.29	245.76
421.48	168.52
421.67	147.45
421.86	140.43
422.05	170.86
422.24	173.20
422.43	152.13
422.61	133.41
422.80	161.50
422.99	145.11
423.18	170.86
423.37	220.01
423.56	173.20
423.75	187.24
423.94	182.56
424.13	175.54
424.32	175.54
424.50	156.82
424.69	173.20
424.88	175.54
425.07	229.37
425.26	189.58
425.45	196.60
425.64	238.73
425.83	259.80
426.01	191.92
426.20	182.56
426.39	210.65
426.58	191.92
426.77	145.11
426.96	166.18
427.15	138.09
427.33	93.62
427.52	156.82
427.71	102.98
427.90	102.98
428.09	114.69
428.28	156.82
428.46	175.54
428.65	173.20
428.84	152.13
429.03	168.52
429.22	117.03
429.40	159.16
429.59	140.43
429.78	177.88
429.97	145.11
430.16	163.84
430.34	173.20
430.53	119.37
430.72	152.13
430.91	212.99
431.10	156.82
431.28	145.11
431.47	173.20
431.66	255.12
431.85	128.73
432.03	161.50
432.22	196.60
432.41	152.13
432.60	222.35
432.79	259.80
432.97	278.52
433.16	266.82
433.35	187.24
433.54	217.67
433.72	217.67
433.91	210.65
434.10	152.13
434.28	189.58
434.47	140.43
434.66	187.24
434.85	163.84
435.03	203.63
435.22	365.12
435.41	444.70
435.59	486.83
435.78	308.95
435.97	227.03
436.16	208.31
436.34	140.43
436.53	208.31
436.72	147.45
436.90	271.50
437.09	210.65
437.28	236.39
437.46	166.18
437.65	154.48
437.84	142.77
438.02	234.05
438.21	145.11
438.40	198.95
438.58	67.88
438.77	224.69
438.96	194.26
439.14	138.09
439.33	166.18
439.52	126.39
439.70	208.31
439.89	212.99
440.08	149.79
440.26	177.88
440.45	156.82
440.63	196.60
440.82	95.96
441.01	191.92
441.19	117.03
441.38	203.63
441.57	163.84
441.75	203.63
441.94	205.97
442.12	210.65
442.31	198.95
442.50	142.77
442.68	250.44
442.87	177.88
443.05	222.35
443.24	177.88
443.43	238.73
443.61	227.03
443.80	156.82
443.98	234.05
444.17	159.16
444.35	280.86
444.54	229.37
444.73	168.52
444.91	210.65
445.10	128.73
445.28	142.77
445.47	217.67
445.65	250.44
445.84	138.09
446.02	173.20
446.21	67.88
446.39	280.86
446.58	229.37
446.77	117.03
446.95	131.07
447.14	180.22
447.32	184.90
447.51	140.43
447.69	149.79
447.88	177.88
448.06	175.54
448.25	208.31
448.43	166.18
448.62	142.77
448.80	229.37
448.99	273.84
449.17	145.11
449.36	154.48
449.54	173.20
449.73	175.54
449.91	159.16
450.10	166.18
450.28	264.48
450.46	227.03
450.65	257.46
450.83	191.92
451.02	175.54
451.20	196.60
451.39	201.29
451.57	152.13
451.76	163.84
451.94	159.16
452.13	196.60
452.31	224.69
452.49	191.92
452.68	177.88
452.86	180.22
453.05	248.10
453.23	140.43
453.42	227.03
453.60	189.58
453.78	196.60
453.97	180.22
454.15	191.92
454.34	177.88
454.52	222.35
454.70	203.63
454.89	266.82
455.07	173.20
455.26	163.84
455.44	196.60
455.62	182.56
455.81	210.65
455.99	224.69
456.17	205.97
456.36	245.76
456.54	262.14
456.73	180.22
456.91	159.16
457.09	222.35
457.28	161.50
457.46	187.24
457.64	166.18
457.83	217.67
458.01	205.97
458.19	229.37
458.38	173.20
458.56	187.24
458.74	201.29
458.93	161.50
459.11	229.37
459.29	175.54
459.48	224.69
459.66	173.20
459.84	189.58
460.03	252.78
460.21	252.78
460.39	187.24
460.57	217.67
460.76	187.24
460.94	163.84
461.12	231.71
461.31	276.18
461.49	252.78
461.67	205.97
461.85	119.37
462.04	161.50
462.22	610.88
462.40	220.01
462.59	170.86
462.77	187.24
462.95	210.65
463.13	133.41
463.32	259.80
463.50	177.88
463.68	131.07
463.86	175.54
464.05	156.82
464.23	255.12
464.41	187.24
464.59	138.09
464.78	182.56
464.96	227.03
465.14	205.97
465.32	161.50
465.50	245.76
465.69	163.84
465.87	142.77
466.05	173.20
466.23	105.32
466.41	161.50
466.60	266.82
466.78	173.20
466.96	238.73
467.14	180.22
467.32	187.24
467.51	224.69
467.69	187.24
467.87	210.65
468.05	212.99
468.23	196.60
468.41	238.73
468.60	182.56
468.78	205.97
468.96	259.80
469.14	194.26
469.32	217.67
469.50	180.22
469.69	210.65
469.87	163.84
470.05	224.69
470.23	170.86
470.41	147.45
470.59	224.69
470.77	201.29
470.95	152.13
471.14	210.65
471.32	159.16
471.50	234.05
471.68	212.99
471.86	177.88
472.04	177.88
472.22	208.31
472.40	170.86
472.58	184.90
472.77	205.97
472.95	152.13
473.13	250.44
473.31	269.16
473.49	128.73
473.67	215.33
473.85	203.63
474.03	201.29
474.21	257.46
474.39	220.01
474.57	205.97
474.75	152.13
474.93	236.39
475.12	173.20
475.30	100.64
475.48	168.52
475.66	224.69
475.84	245.76
476.02	175.54
476.20	177.88
476.38	159.16
476.56	252.78
476.74	182.56
476.92	201.29
477.10	236.39
477.28	238.73
477.46	182.56
477.64	203.63
477.82	215.33
478.00	147.45
478.18	238.73
478.36	140.43
478.54	180.22
478.72	248.10
478.90	238.73
479.08	210.65
479.26	243.42
479.44	175.54
479.62	107.66
479.80	105.32
479.98	194.26
480.16	191.92
480.34	224.69
480.52	236.39
480.70	236.39
480.88	227.03
481.06	203.63
481.24	194.26
481.41	203.63
481.59	243.42
481.77	259.80
481.95	227.03
482.13	217.67
482.31	245.76
482.49	231.71
482.67	212.99
482.85	287.89
483.03	287.89
483.21	224.69
483.39	191.92
483.57	217.67
483.74	285.55
483.92	229.37
484.10	229.37
484.28	210.65
484.46	250.44
484.64	196.60
484.82	220.01
485.00	229.37
485.18	292.57
485.35	191.92
485.53	278.52
485.71	297.25
485.89	147.45
486.07	198.95
486.25	243.42
486.43	250.44
486.61	315.97
486.78	255.12
486.96	191.92
487.14	292.57
487.32	191.92
487.50	220.01
487.68	224.69
487.85	189.58
488.03	227.03
488.21	308.95
488.39	205.97
488.57	149.79
488.75	212.99
488.92	477.47
489.10	198.95
489.28	248.10
489.46	248.10
489.64	163.84
489.81	262.14
489.99	234.05
490.17	224.69
490.35	299.59
490.53	191.92
490.70	269.16
490.88	191.92
491.06	182.56
491.24	297.25
491.41	276.18
491.59	276.18
491.77	262.14
491.95	229.37
492.13	278.52
492.30	182.56
492.48	163.84
492.66	280.86
492.84	215.33
493.01	168.52
493.19	241.08
493.37	231.71
493.54	294.91
493.72	241.08
493.90	210.65
494.08	276.18
494.25	308.95
494.43	191.92
494.61	259.80
494.79	238.73
494.96	236.39
495.14	276.18
495.32	189.58
495.49	248.10
495.67	271.50
495.85	227.03
496.02	205.97
496.20	234.05
496.38	229.37
496.55	161.50
496.73	322.99
496.91	238.73
497.09	248.10
497.26	215.33
497.44	285.55
497.62	238.73
497.79	266.82
497.97	290.23
498.14	306.61
498.32	287.89
498.50	269.16
498.67	255.12
498.85	259.80
499.03	201.29
499.20	262.14
499.38	236.39
499.56	271.50
499.73	243.42
499.91	283.20
500.08	194.26
500.26	215.33
500.44	227.03
500.61	227.03
500.79	292.57
500.97	255.12
501.14	257.46
501.32	184.90
501.49	294.91
501.67	236.39
501.84	259.80
502.02	243.42
502.20	271.50
502.37	227.03
502.55	287.89
502.72	266.82
502.90	262.14
503.07	285.55
503.25	229.37
503.43	245.76
503.60	234.05
503.78	273.84
503.95	173.20
504.13	250.44
504.30	245.76
504.48	220.01
504.65	208.31
504.83	297.25
505.01	257.46
505.18	149.79
505.36	257.46
505.53	243.42
505.71	231.71
505.88	292.57
506.06	194.26
506.23	269.16
506.41	255.12
506.58	269.16
506.76	269.16
506.93	208.31
507.11	313.63
507.28	257.46
507.46	264.48
507.63	189.58
507.81	227.03
507.98	271.50
508.16	301.93
508.33	234.05
508.50	201.29
508.68	276.18
508.85	304.27
509.03	241.08
509.20	187.24
509.38	252.78
509.55	287.89
509.73	299.59
509.90	252.78
510.08	264.48
510.25	325.33
510.42	224.69
510.60	217.67
510.77	259.80
510.95	290.23
511.12	308.95
511.30	222.35
511.47	276.18
511.64	243.42
511.82	191.92
511.99	273.84
512.17	308.95
512.34	264.48
512.51	142.77
512.69	276.18
512.86	299.59
513.04	227.03
513.21	332.36
513.38	238.73
513.56	255.12
513.73	241.08
513.90	255.12
514.08	308.95
514.25	294.91
514.43	269.16
514.60	245.76
514.77	264.48
514.95	290.23
515.12	238.73
515.29	217.67
515.47	231.71
515.64	334.70
515.81	308.95
515.99	273.84
516.16	238.73
516.33	220.01
516.51	163.84
516.68	231.71
516.85	184.90
517.03	245.76
517.20	245.76
517.37	278.52
517.54	245.76
517.72	283.20
517.89	245.76
518.06	191.92
518.24	308.95
518.41	322.99
518.58	271.50
518.75	290.23
518.93	229.37
519.10	273.84
519.27	259.80
519.45	255.12
519.62	308.95
519.79	241.08
519.96	227.03
520.14	259.80
520.31	341.72
520.48	292.57
520.65	276.18
520.83	278.52
521.00	273.84
521.17	222.35
521.34	262.14
521.52	294.91
521.69	220.01
521.86	273.84
522.03	278.52
522.20	330.02
522.38	184.90
522.55	231.71
522.72	238.73
522.89	231.71
523.07	299.59
523.24	255.12
523.41	241.08
523.58	262.14
523.75	315.97
523.92	201.29
524.10	297.25
524.27	325.33
524.44	243.42
524.61	313.63
524.78	294.91
524.96	332.36
525.13	280.86
525.30	283.20
525.47	250.44
525.64	266.82
525.81	287.89
525.98	252.78
526.16	294.91
526.33	294.91
526.50	294.91
526.67	224.69
526.84	229.37
527.01	208.31
527.18	341.72
527.36	241.08
527.53	325.33
527.70	346.40
527.87	248.10
528.04	327.68
528.21	234.05
528.38	346.40
528.55	259.80
528.72	322.99
528.89	292.57
529.07	280.86
529.24	407.25
529.41	273.84
529.58	259.80
529.75	231.71
529.92	327.68
530.09	227.03
530.26	301.93
530.43	320.65
530.60	320.65
530.77	285.55
530.94	285.55
531.11	266.82
531.28	243.42
531.46	210.65
531.63	290.23
531.80	297.25
531.97	264.48
532.14	290.23
532.31	337.04
532.48	283.20
532.65	325.33
532.82	322.99
532.99	327.68
533.16	278.52
533.33	285.55
533.50	292.57
533.67	344.06
533.84	404.91
534.01	351.08
534.18	355.76
534.35	297.25
534.52	327.68
534.69	365.12
534.86	327.68
535.03	262.14
535.20	280.86
535.37	351.08
535.54	248.10
535.71	257.46
535.88	351.08
536.05	264.48
536.22	278.52
536.38	322.99
536.55	238.73
536.72	313.63
536.89	348.74
537.06	241.08
537.23	252.78
537.40	287.89
537.57	292.57
537.74	234.05
537.91	334.70
538.08	278.52
538.25	330.02
538.42	294.91
538.59	297.25
538.75	271.50
538.92	358.10
539.09	395.55
539.26	297.25
539.43	498.53
539.60	699.82
539.77	1006.43
539.94	1060.26
540.11	784.08
540.28	592.16
540.44	500.87
540.61	451.72
540.78	409.59
540.95	456.40
541.12	519.60
541.29	454.06
541.46	484.49
541.62	566.41
541.79	484.49
541.96	491.51
542.13	444.70
542.30	458.74
542.47	458.74
542.63	407.25
542.80	423.64
542.97	468.11
543.14	411.93
543.31	543.00
543.48	407.25
543.64	442.36
543.81	442.36
543.98	414.27
544.15	526.62
544.32	433.00
544.48	421.30
544.65	489.17
544.82	524.28
544.99	430.66
545.16	498.53
545.32	449.38
545.49	688.12
545.66	842.59
545.83	926.85
546.00	713.86
546.16	678.76
546.33	517.26
546.50	442.36
546.67	411.93
546.83	395.55
547.00	433.00
547.17	332.36
547.34	327.68
547.50	299.59
547.67	447.04
547.84	390.87
548.00	397.89
548.17	411.93
548.34	365.12
548.51	437.68
548.67	395.55
548.84	374.49
549.01	411.93
549.18	264.48
549.34	262.14
549.51	374.49
549.68	386.19
549.84	339.38
550.01	344.06
550.18	299.59
550.34	374.49
550.51	386.19
550.68	416.62
550.84	325.33
551.01	369.80
551.18	308.95
551.34	299.59
551.51	238.73
551.68	231.71
551.84	297.25
552.01	332.36
552.18	322.99
552.34	327.68
552.51	330.02
552.68	266.82
552.84	346.40
553.01	313.63
553.18	276.18
553.34	271.50
553.51	266.82
553.67	301.93
553.84	259.80
554.01	257.46
554.17	308.95
554.34	189.58
554.51	292.57
554.67	308.95
554.84	304.27
555.00	304.27
555.17	271.50
555.33	315.97
555.50	278.52
555.67	283.20
555.83	229.37
556.00	205.97
556.16	425.98
556.33	285.55
556.50	283.20
556.66	224.69
556.83	250.44
556.99	273.84
557.16	222.35
557.32	217.67
557.49	264.48
557.65	369.80
557.82	191.92
557.98	318.31
558.15	173.20
558.32	259.80
558.48	259.80
558.65	299.59
558.81	299.59
558.98	313.63
559.14	306.61
559.31	266.82
559.47	212.99
559.64	224.69
559.80	238.73
559.97	234.05
560.13	257.46
560.30	278.52
560.46	201.29
560.63	271.50
560.79	330.02
560.96	290.23
561.12	262.14
561.29	294.91
561.45	287.89
561.61	290.23
561.78	330.02
561.94	318.31
562.11	266.82
562.27	297.25
562.44	189.58
562.60	271.50
562.77	262.14
562.93	327.68
563.10	285.55
563.26	236.39
563.42	351.08
563.59	294.91
563.75	203.63
563.92	255.12
564.08	257.46
564.24	257.46
564.41	315.97
564.57	189.58
564.74	252.78
564.90	276.18
565.07	287.89
565.23	299.59
565.39	283.20
565.56	250.44
565.72	245.76
565.88	341.72
566.05	292.57
566.21	266.82
566.38	346.40
566.54	276.18
566.70	224.69
566.87	234.05
567.03	266.82
567.19	220.01
567.36	245.76
567.52	255.12
567.68	304.27
567.85	285.55
568.01	203.63
568.17	257.46
568.34	304.27
568.50	308.95
568.66	241.08
568.83	313.63
568.99	231.71
569.15	313.63
569.32	304.27
569.48	276.18
569.64	203.63
569.81	285.55
569.97	243.42
570.13	203.63
570.30	304.27
570.46	276.18
570.62	217.67
570.78	259.80
570.95	203.63
571.11	278.52
571.27	379.17
571.43	170.86
571.60	241.08
571.76	346.40
571.92	278.52
572.09	301.93
572.25	248.10
572.41	147.45
572.57	252.78
572.74	198.95
572.90	271.50
573.06	304.27
573.22	308.95
573.38	285.55
573.55	245.76
573.71	231.71
573.87	238.73
574.03	250.44
574.20	234.05
574.36	306.61
574.52	313.63
574.68	285.55
574.84	311.29
575.01	280.86
575.17	285.55
575.33	264.48
575.49	283.20
575.65	383.85
575.82	395.55
575.98	482.15
576.14	575.77
576.30	535.98
576.46	468.11
576.62	449.38
576.79	465.77
576.95	449.38
577.11	332.36
577.27	280.86
577.43	313.63
577.59	351.08
577.75	348.74
577.92	252.78
578.08	344.06
578.24	236.39
578.40	285.55
578.56	381.51
578.72	374.49
578.88	470.45
579.04	397.89
579.21	339.38
579.37	388.53
579.53	334.70
579.69	311.29
579.85	301.93
580.01	383.85
580.17	362.78
580.33	400.23
580.49	330.02
580.65	339.38
580.82	292.57
580.98	283.20
581.14	327.68
581.30	395.55
581.46	376.83
581.62	521.94
581.78	484.49
581.94	458.74
582.10	451.72
582.26	475.13
582.42	278.52
582.58	390.87
582.74	383.85
582.90	341.72
583.06	454.06
583.22	433.00
583.38	388.53
583.54	519.60
583.70	475.13
583.86	484.49
584.02	608.54
584.18	704.50
584.34	896.43
584.50	2129.89
584.66	14216.41
584.82	35234.42
584.98	47253.08
585.14	41890.91
585.30	26527.63
585.46	15545.84
585.62	9757.69
585.78	4760.65
585.94	1898.17
586.10	1055.58
586.26	770.04
586.42	678.76
586.58	564.07
586.74	564.07
586.90	524.28
587.06	608.54
587.22	512.58
587.38	512.58
587.54	924.51
587.70	2174.36
587.86	3447.61
588.02	3487.40
588.18	2532.46
588.34	1689.87
588.49	1179.63
588.65	795.78
588.81	491.51
588.97	315.97
589.13	322.99
589.29	285.55
589.45	388.53
589.61	297.25
589.77	395.55
589.93	348.74
590.08	416.62
590.24	400.23
590.40	397.89
590.56	308.95
590.72	355.76
590.88	271.50
591.04	327.68
591.20	285.55
591.35	379.17
591.51	320.65
591.67	374.49
591.83	376.83
591.99	351.08
592.15	322.99
592.31	346.40
592.46	372.15
592.62	341.72
592.78	355.76
592.94	334.70
593.10	306.61
593.26	353.42
593.41	407.25
593.57	376.83
593.73	526.62
593.89	1975.41
594.05	4393.19
594.20	5940.28
594.36	5790.49
594.52	3815.07
594.68	2401.39
594.84	1739.02
594.99	1020.47
595.15	622.58
595.31	369.80
595.47	430.66
595.62	400.23
595.78	266.82
595.94	322.99
596.10	315.97
596.25	351.08
596.41	327.68
596.57	304.27
596.73	339.38
596.88	458.74
597.04	976.00
597.20	1453.47
597.36	1624.33
597.51	1266.23
597.67	898.77
597.83	648.33
597.99	543.00
598.14	397.89
598.30	355.76
598.46	294.91
598.61	383.85
598.77	423.64
598.93	339.38
599.09	306.61
599.24	311.29
599.40	322.99
599.56	322.99
599.71	372.15
599.87	285.55
600.03	348.74
600.18	297.25
600.34	355.76
600.50	236.39
600.65	280.86
600.81	292.57
600.97	306.61
601.12	334.70
601.28	299.59
601.44	285.55
601.59	212.99
601.75	318.31
601.91	257.46
602.06	332.36
602.22	360.44
602.37	580.45
602.53	1137.50
602.69	1589.22
602.84	1598.59
603.00	1277.93
603.16	840.25
603.31	688.12
603.47	531.30
603.62	390.87
603.78	327.68
603.94	325.33
604.09	264.48
604.25	369.80
604.40	330.02
604.56	306.61
604.71	292.57
604.87	280.86
605.03	339.38
605.18	304.27
605.34	269.16
605.49	322.99
605.65	404.91
605.80	292.57
605.96	252.78
606.12	348.74
606.27	362.78
606.43	423.64
606.58	339.38
606.74	674.07
606.89	2132.23
607.05	4100.62
607.20	5034.49
607.36	4119.34
607.51	2956.10
607.67	1923.92
607.82	1483.90
607.98	858.98
608.13	580.45
608.29	442.36
608.44	475.13
608.60	388.53
608.75	414.27
608.91	851.96
609.06	3229.94
609.22	6768.83
609.37	8699.77
609.53	7623.12
609.68	5123.43
609.84	3538.89
609.99	2445.86
610.15	1521.35
610.30	793.44
