SpectraSuite Data File
++++++++++++++++++++++++++++++++++++
Date: Fri Oct 04 11:34:07 GMT-05:00 2013
User: price-jones
Dark Spectrum Present: No
Reference Spectrum Present: No
Number of Sampled Component Spectra: 1
Spectrometers: USB2+H05261
Integration Time (usec): 100000 (USB2+H05261)
Spectra Averaged: 1 (USB2+H05261)
Boxcar Smoothing: 0 (USB2+H05261)
Correct for Electrical Dark: No (USB2+H05261)
Strobe/Lamp Enabled: No (USB2+H05261)
Correct for Detector Non-linearity: No (USB2+H05261)
Correct for Stray Light: No (USB2+H05261)
Number of Pixels in Processed Spectrum: 2048
>>>>>Begin Processed Spectral Data<<<<<
365.73	93.62
365.92	93.62
366.12	93.62
366.32	0.00
366.52	16.38
366.72	21.06
366.91	0.00
367.11	0.00
367.31	0.00
367.51	9.36
367.70	0.00
367.90	0.00
368.10	0.00
368.30	0.00
368.49	0.00
368.69	0.00
368.89	67.88
369.09	0.00
369.28	0.00
369.48	0.00
369.68	11.70
369.87	58.51
370.07	44.47
370.27	79.58
370.47	32.77
370.66	28.09
370.86	98.30
371.06	135.75
371.25	110.01
371.45	21.06
371.65	128.73
371.84	46.81
372.04	107.66
372.24	86.60
372.44	114.69
372.63	121.71
372.83	138.09
373.03	93.62
373.22	140.43
373.42	65.54
373.62	131.07
373.81	91.28
374.01	107.66
374.21	168.52
374.40	112.35
374.60	187.24
374.79	145.11
374.99	175.54
375.19	177.88
375.38	135.75
375.58	135.75
375.78	220.01
375.97	124.05
376.17	166.18
376.37	154.48
376.56	135.75
376.76	170.86
376.95	184.90
377.15	140.43
377.35	168.52
377.54	163.84
377.74	166.18
377.93	168.52
378.13	229.37
378.33	212.99
378.52	117.03
378.72	191.92
378.91	119.37
379.11	107.66
379.31	180.22
379.50	107.66
379.70	145.11
379.89	117.03
380.09	0.00
380.28	149.79
380.48	107.66
380.68	128.73
380.87	166.18
381.07	147.45
381.26	187.24
381.46	72.56
381.65	128.73
381.85	126.39
382.04	107.66
382.24	180.22
382.43	138.09
382.63	60.85
382.83	149.79
383.02	126.39
383.22	98.30
383.41	124.05
383.61	112.35
383.80	81.92
384.00	156.82
384.19	133.41
384.39	208.31
384.58	154.48
384.78	184.90
384.97	102.98
385.17	238.73
385.36	159.16
385.56	224.69
385.75	44.47
385.95	124.05
386.14	168.52
386.34	105.32
386.53	138.09
386.72	177.88
386.92	159.16
387.11	161.50
387.31	145.11
387.50	156.82
387.70	140.43
387.89	88.94
388.09	177.88
388.28	131.07
388.48	131.07
388.67	124.05
388.86	77.24
389.06	58.51
389.25	175.54
389.45	173.20
389.64	124.05
389.84	201.29
390.03	131.07
390.22	159.16
390.42	128.73
390.61	133.41
390.81	39.79
391.00	163.84
391.19	58.51
391.39	110.01
391.58	86.60
391.78	156.82
391.97	175.54
392.16	79.58
392.36	117.03
392.55	93.62
392.75	131.07
392.94	168.52
393.13	187.24
393.33	112.35
393.52	117.03
393.71	117.03
393.91	180.22
394.10	84.26
394.29	107.66
394.49	110.01
394.68	159.16
394.88	215.33
395.07	95.96
395.26	194.26
395.46	110.01
395.65	182.56
395.84	149.79
396.04	161.50
396.23	159.16
396.42	58.51
396.62	98.30
396.81	140.43
397.00	147.45
397.19	159.16
397.39	112.35
397.58	170.86
397.77	196.60
397.97	161.50
398.16	149.79
398.35	126.39
398.55	191.92
398.74	163.84
398.93	173.20
399.12	117.03
399.32	180.22
399.51	126.39
399.70	163.84
399.90	166.18
400.09	126.39
400.28	79.58
400.47	88.94
400.67	170.86
400.86	166.18
401.05	170.86
401.24	133.41
401.44	140.43
401.63	128.73
401.82	205.97
402.01	126.39
402.21	163.84
402.40	175.54
402.59	163.84
402.78	86.60
402.97	72.56
403.17	84.26
403.36	191.92
403.55	91.28
403.74	119.37
403.93	140.43
404.13	231.71
404.32	196.60
404.51	163.84
404.70	177.88
404.89	159.16
405.09	184.90
405.28	145.11
405.47	121.71
405.66	124.05
405.85	203.63
406.05	128.73
406.24	112.35
406.43	152.13
406.62	175.54
406.81	184.90
407.00	205.97
407.20	142.77
407.39	112.35
407.58	107.66
407.77	145.11
407.96	177.88
408.15	243.42
408.34	198.95
408.54	180.22
408.73	187.24
408.92	208.31
409.11	224.69
409.30	201.29
409.49	102.98
409.68	121.71
409.87	140.43
410.07	149.79
410.26	131.07
410.45	198.95
410.64	98.30
410.83	173.20
411.02	107.66
411.21	189.58
411.40	128.73
411.59	67.88
411.78	102.98
411.98	212.99
412.17	182.56
412.36	182.56
412.55	166.18
412.74	112.35
412.93	149.79
413.12	112.35
413.31	170.86
413.50	203.63
413.69	184.90
413.88	138.09
414.07	135.75
414.26	138.09
414.45	138.09
414.64	168.52
414.83	203.63
415.02	194.26
415.22	229.37
415.41	180.22
415.60	196.60
415.79	152.13
415.98	189.58
416.17	135.75
416.36	168.52
416.55	154.48
416.74	166.18
416.93	175.54
417.12	243.42
417.31	145.11
417.50	175.54
417.69	187.24
417.88	177.88
418.07	205.97
418.26	201.29
418.45	182.56
418.64	168.52
418.83	154.48
419.02	180.22
419.21	163.84
419.39	117.03
419.58	135.75
419.77	168.52
419.96	166.18
420.15	147.45
420.34	145.11
420.53	142.77
420.72	182.56
420.91	184.90
421.10	135.75
421.29	131.07
421.48	184.90
421.67	231.71
421.86	217.67
422.05	135.75
422.24	189.58
422.43	147.45
422.61	147.45
422.80	152.13
422.99	163.84
423.18	170.86
423.37	187.24
423.56	196.60
423.75	191.92
423.94	203.63
424.13	98.30
424.32	182.56
424.50	166.18
424.69	121.71
424.88	133.41
425.07	131.07
425.26	234.05
425.45	147.45
425.64	140.43
425.83	159.16
426.01	124.05
426.20	124.05
426.39	177.88
426.58	152.13
426.77	138.09
426.96	182.56
427.15	145.11
427.33	126.39
427.52	126.39
427.71	173.20
427.90	126.39
428.09	184.90
428.28	159.16
428.46	177.88
428.65	208.31
428.84	110.01
429.03	163.84
429.22	152.13
429.40	149.79
429.59	217.67
429.78	184.90
429.97	114.69
430.16	102.98
430.34	187.24
430.53	163.84
430.72	124.05
430.91	198.95
431.10	140.43
431.28	194.26
431.47	180.22
431.66	140.43
431.85	173.20
432.03	145.11
432.22	198.95
432.41	182.56
432.60	156.82
432.79	184.90
432.97	182.56
433.16	138.09
433.35	210.65
433.54	121.71
433.72	147.45
433.91	156.82
434.10	161.50
434.28	196.60
434.47	124.05
434.66	229.37
434.85	145.11
435.03	224.69
435.22	362.78
435.41	358.10
435.59	381.51
435.78	271.50
435.97	212.99
436.16	145.11
436.34	156.82
436.53	212.99
436.72	173.20
436.90	135.75
437.09	147.45
437.28	231.71
437.46	154.48
437.65	212.99
437.84	187.24
438.02	210.65
438.21	170.86
438.40	166.18
438.58	212.99
438.77	147.45
438.96	145.11
439.14	149.79
439.33	255.12
439.52	152.13
439.70	117.03
439.89	173.20
440.08	145.11
440.26	128.73
440.45	243.42
440.63	177.88
440.82	250.44
441.01	182.56
441.19	210.65
441.38	187.24
441.57	131.07
441.75	194.26
441.94	198.95
442.12	201.29
442.31	191.92
442.50	114.69
442.68	145.11
442.87	159.16
443.05	161.50
443.24	187.24
443.43	257.46
443.61	262.14
443.80	196.60
443.98	208.31
444.17	227.03
444.35	198.95
444.54	194.26
444.73	140.43
444.91	229.37
445.10	166.18
445.28	168.52
445.47	163.84
445.65	187.24
445.84	201.29
446.02	203.63
446.21	198.95
446.39	126.39
446.58	227.03
446.77	159.16
446.95	145.11
447.14	156.82
447.32	203.63
447.51	163.84
447.69	159.16
447.88	201.29
448.06	187.24
448.25	194.26
448.43	135.75
448.62	257.46
448.80	152.13
448.99	152.13
449.17	243.42
449.36	217.67
449.54	229.37
449.73	217.67
449.91	229.37
450.10	180.22
450.28	264.48
450.46	339.38
450.65	205.97
450.83	182.56
451.02	182.56
451.20	175.54
451.39	152.13
451.57	175.54
451.76	105.32
451.94	201.29
452.13	182.56
452.31	191.92
452.49	173.20
452.68	140.43
452.86	184.90
453.05	322.99
453.23	189.58
453.42	175.54
453.60	210.65
453.78	215.33
453.97	210.65
454.15	124.05
454.34	147.45
454.52	241.08
454.70	220.01
454.89	131.07
455.07	161.50
455.26	217.67
455.44	154.48
455.62	131.07
455.81	131.07
455.99	149.79
456.17	220.01
456.36	121.71
456.54	128.73
456.73	175.54
456.91	266.82
457.09	191.92
457.28	215.33
457.46	166.18
457.64	196.60
457.83	234.05
458.01	170.86
458.19	128.73
458.38	140.43
458.56	229.37
458.74	168.52
458.93	128.73
459.11	212.99
459.29	177.88
459.48	222.35
459.66	264.48
459.84	243.42
460.03	301.93
460.21	184.90
460.39	238.73
460.57	262.14
460.76	175.54
460.94	205.97
461.12	238.73
461.31	255.12
461.49	140.43
461.67	135.75
461.85	215.33
462.04	168.52
462.22	657.69
462.40	236.39
462.59	208.31
462.77	121.71
462.95	119.37
463.13	166.18
463.32	245.76
463.50	173.20
463.68	180.22
463.86	205.97
464.05	154.48
464.23	203.63
464.41	119.37
464.59	220.01
464.78	156.82
464.96	241.08
465.14	201.29
465.32	159.16
465.50	278.52
465.69	229.37
465.87	140.43
466.05	201.29
466.23	224.69
466.41	198.95
466.60	177.88
466.78	238.73
466.96	154.48
467.14	159.16
467.32	201.29
467.51	131.07
467.69	238.73
467.87	266.82
468.05	184.90
468.23	227.03
468.41	142.77
468.60	177.88
468.78	110.01
468.96	187.24
469.14	191.92
469.32	217.67
469.50	198.95
469.69	182.56
469.87	255.12
470.05	198.95
470.23	168.52
470.41	119.37
470.59	114.69
470.77	163.84
470.95	208.31
471.14	177.88
471.32	208.31
471.50	205.97
471.68	248.10
471.86	191.92
472.04	170.86
472.22	177.88
472.40	222.35
472.58	168.52
472.77	182.56
472.95	231.71
473.13	177.88
473.31	180.22
473.49	182.56
473.67	180.22
473.85	173.20
474.03	208.31
474.21	210.65
474.39	189.58
474.57	215.33
474.75	224.69
474.93	194.26
475.12	182.56
475.30	163.84
475.48	161.50
475.66	180.22
475.84	224.69
476.02	229.37
476.20	198.95
476.38	241.08
476.56	285.55
476.74	266.82
476.92	231.71
477.10	187.24
477.28	180.22
477.46	231.71
477.64	135.75
477.82	196.60
478.00	149.79
478.18	194.26
478.36	163.84
478.54	205.97
478.72	189.58
478.90	159.16
479.08	168.52
479.26	212.99
479.44	140.43
479.62	166.18
479.80	234.05
479.98	201.29
480.16	175.54
480.34	166.18
480.52	210.65
480.70	264.48
480.88	182.56
481.06	203.63
481.24	201.29
481.41	189.58
481.59	250.44
481.77	147.45
481.95	285.55
482.13	189.58
482.31	220.01
482.49	231.71
482.67	177.88
482.85	182.56
483.03	236.39
483.21	266.82
483.39	168.52
483.57	266.82
483.74	238.73
483.92	243.42
484.10	236.39
484.28	255.12
484.46	248.10
484.64	245.76
484.82	229.37
485.00	196.60
485.18	168.52
485.35	252.78
485.53	210.65
485.71	234.05
485.89	138.09
486.07	257.46
486.25	250.44
486.43	245.76
486.61	276.18
486.78	154.48
486.96	156.82
487.14	262.14
487.32	215.33
487.50	224.69
487.68	189.58
487.85	245.76
488.03	273.84
488.21	236.39
488.39	215.33
488.57	294.91
488.75	255.12
488.92	557.05
489.10	236.39
489.28	238.73
489.46	222.35
489.64	180.22
489.81	266.82
489.99	264.48
490.17	229.37
490.35	285.55
490.53	236.39
490.70	304.27
490.88	210.65
491.06	208.31
491.24	301.93
491.41	315.97
491.59	184.90
491.77	196.60
491.95	234.05
492.13	243.42
492.30	203.63
492.48	264.48
492.66	217.67
492.84	187.24
493.01	259.80
493.19	210.65
493.37	229.37
493.54	241.08
493.72	236.39
493.90	102.98
494.08	222.35
494.25	205.97
494.43	184.90
494.61	203.63
494.79	262.14
494.96	259.80
495.14	234.05
495.32	262.14
495.49	152.13
495.67	138.09
495.85	222.35
496.02	236.39
496.20	217.67
496.38	241.08
496.55	187.24
496.73	276.18
496.91	184.90
497.09	334.70
497.26	292.57
497.44	224.69
497.62	217.67
497.79	220.01
497.97	217.67
498.14	196.60
498.32	194.26
498.50	222.35
498.67	266.82
498.85	269.16
499.03	203.63
499.20	227.03
499.38	205.97
499.56	201.29
499.73	273.84
499.91	283.20
500.08	215.33
500.26	290.23
500.44	283.20
500.61	264.48
500.79	187.24
500.97	283.20
501.14	231.71
501.32	198.95
501.49	308.95
501.67	255.12
501.84	229.37
502.02	245.76
502.20	355.76
502.37	264.48
502.55	301.93
502.72	231.71
502.90	220.01
503.07	238.73
503.25	294.91
503.43	236.39
503.60	217.67
503.78	276.18
503.95	203.63
504.13	173.20
504.30	234.05
504.48	280.86
504.65	290.23
504.83	273.84
505.01	278.52
505.18	220.01
505.36	210.65
505.53	198.95
505.71	292.57
505.88	278.52
506.06	276.18
506.23	227.03
506.41	283.20
506.58	259.80
506.76	220.01
506.93	262.14
507.11	177.88
507.28	278.52
507.46	189.58
507.63	234.05
507.81	222.35
507.98	231.71
508.16	241.08
508.33	231.71
508.50	250.44
508.68	243.42
508.85	208.31
509.03	243.42
509.20	205.97
509.38	264.48
509.55	285.55
509.73	234.05
509.90	180.22
510.08	220.01
510.25	276.18
510.42	245.76
510.60	280.86
510.77	198.95
510.95	299.59
511.12	252.78
511.30	262.14
511.47	243.42
511.64	346.40
511.82	182.56
511.99	140.43
512.17	297.25
512.34	271.50
512.51	285.55
512.69	220.01
512.86	297.25
513.04	271.50
513.21	215.33
513.38	224.69
513.56	252.78
513.73	262.14
513.90	177.88
514.08	182.56
514.25	203.63
514.43	196.60
514.60	220.01
514.77	236.39
514.95	243.42
515.12	308.95
515.29	311.29
515.47	257.46
515.64	334.70
515.81	297.25
515.99	306.61
516.16	250.44
516.33	231.71
516.51	177.88
516.68	203.63
516.85	191.92
517.03	220.01
517.20	257.46
517.37	259.80
517.54	334.70
517.72	285.55
517.89	257.46
518.06	215.33
518.24	369.80
518.41	245.76
518.58	264.48
518.75	236.39
518.93	208.31
519.10	315.97
519.27	259.80
519.45	189.58
519.62	217.67
519.79	243.42
519.96	241.08
520.14	266.82
520.31	241.08
520.48	222.35
520.65	241.08
520.83	208.31
521.00	231.71
521.17	299.59
521.34	227.03
521.52	234.05
521.69	238.73
521.86	215.33
522.03	318.31
522.20	301.93
522.38	231.71
522.55	198.95
522.72	255.12
522.89	250.44
523.07	313.63
523.24	222.35
523.41	276.18
523.58	269.16
523.75	248.10
523.92	234.05
524.10	234.05
524.27	259.80
524.44	271.50
524.61	322.99
524.78	217.67
524.96	351.08
525.13	262.14
525.30	222.35
525.47	311.29
525.64	276.18
525.81	304.27
525.98	290.23
526.16	278.52
526.33	210.65
526.50	269.16
526.67	198.95
526.84	252.78
527.01	294.91
527.18	266.82
527.36	245.76
527.53	217.67
527.70	255.12
527.87	173.20
528.04	330.02
528.21	241.08
528.38	245.76
528.55	341.72
528.72	315.97
528.89	255.12
529.07	273.84
529.24	325.33
529.41	243.42
529.58	318.31
529.75	285.55
529.92	276.18
530.09	346.40
530.26	311.29
530.43	313.63
530.60	259.80
530.77	252.78
530.94	294.91
531.11	245.76
531.28	266.82
531.46	273.84
531.63	304.27
531.80	318.31
531.97	248.10
532.14	290.23
532.31	210.65
532.48	252.78
532.65	306.61
532.82	273.84
532.99	262.14
533.16	220.01
533.33	259.80
533.50	236.39
533.67	273.84
533.84	276.18
534.01	264.48
534.18	269.16
534.35	271.50
534.52	250.44
534.69	238.73
534.86	306.61
535.03	292.57
535.20	285.55
535.37	241.08
535.54	327.68
535.71	248.10
535.88	266.82
536.05	332.36
536.22	269.16
536.38	227.03
536.55	297.25
536.72	262.14
536.89	285.55
537.06	299.59
537.23	372.15
537.40	271.50
537.57	203.63
537.74	238.73
537.91	306.61
538.08	238.73
538.25	301.93
538.42	322.99
538.59	252.78
538.75	280.86
538.92	276.18
539.09	280.86
539.26	292.57
539.43	390.87
539.60	409.59
539.77	374.49
539.94	458.74
540.11	404.91
540.28	388.53
540.44	440.02
540.61	346.40
540.78	372.15
540.95	294.91
541.12	512.58
541.29	505.56
541.46	425.98
541.62	440.02
541.79	435.34
541.96	400.23
542.13	416.62
542.30	444.70
542.47	479.81
542.63	500.87
542.80	414.27
542.97	472.79
543.14	433.00
543.31	437.68
543.48	407.25
543.64	449.38
543.81	397.89
543.98	465.77
544.15	369.80
544.32	397.89
544.48	369.80
544.65	365.12
544.82	433.00
544.99	404.91
545.16	465.77
545.32	409.59
545.49	620.24
545.66	727.91
545.83	648.33
546.00	655.35
546.16	475.13
546.33	517.26
546.50	440.02
546.67	397.89
546.83	374.49
547.00	341.72
547.17	327.68
547.34	355.76
547.50	390.87
547.67	416.62
547.84	351.08
548.00	313.63
548.17	313.63
548.34	301.93
548.51	318.31
548.67	372.15
548.84	290.23
549.01	318.31
549.18	388.53
549.34	348.74
549.51	299.59
549.68	355.76
549.84	358.10
550.01	348.74
550.18	369.80
550.34	376.83
550.51	212.99
550.68	351.08
550.84	306.61
551.01	234.05
551.18	264.48
551.34	299.59
551.51	264.48
551.68	208.31
551.84	297.25
552.01	266.82
552.18	191.92
552.34	311.29
552.51	264.48
552.68	255.12
552.84	304.27
553.01	257.46
553.18	285.55
553.34	287.89
553.51	252.78
553.67	285.55
553.84	383.85
554.01	241.08
554.17	320.65
554.34	220.01
554.51	311.29
554.67	311.29
554.84	273.84
555.00	250.44
555.17	320.65
555.33	252.78
555.50	245.76
555.67	250.44
555.83	236.39
556.00	243.42
556.16	402.57
556.33	299.59
556.50	301.93
556.66	330.02
556.83	287.89
556.99	170.86
557.16	285.55
557.32	248.10
557.49	191.92
557.65	262.14
557.82	248.10
557.98	280.86
558.15	198.95
558.32	252.78
558.48	170.86
558.65	273.84
558.81	210.65
558.98	241.08
559.14	278.52
559.31	189.58
559.47	243.42
559.64	220.01
559.80	259.80
559.97	262.14
560.13	147.45
560.30	238.73
560.46	222.35
560.63	224.69
560.79	257.46
560.96	257.46
561.12	278.52
561.29	266.82
561.45	224.69
561.61	304.27
561.78	304.27
561.94	301.93
562.11	248.10
562.27	280.86
562.44	292.57
562.60	231.71
562.77	203.63
562.93	273.84
563.10	266.82
563.26	262.14
563.42	269.16
563.59	257.46
563.75	243.42
563.92	243.42
564.08	250.44
564.24	306.61
564.41	245.76
564.57	205.97
564.74	299.59
564.90	234.05
565.07	215.33
565.23	313.63
565.39	220.01
565.56	224.69
565.72	283.20
565.88	269.16
566.05	259.80
566.21	173.20
566.38	285.55
566.54	222.35
566.70	215.33
566.87	210.65
567.03	304.27
567.19	285.55
567.36	278.52
567.52	285.55
567.68	229.37
567.85	283.20
568.01	220.01
568.17	271.50
568.34	271.50
568.50	262.14
568.66	154.48
568.83	358.10
568.99	297.25
569.15	250.44
569.32	269.16
569.48	220.01
569.64	189.58
569.81	212.99
569.97	191.92
570.13	294.91
570.30	283.20
570.46	313.63
570.62	264.48
570.78	182.56
570.95	163.84
571.11	306.61
571.27	243.42
571.43	166.18
571.60	255.12
571.76	227.03
571.92	330.02
572.09	255.12
572.25	236.39
572.41	236.39
572.57	203.63
572.74	304.27
572.90	177.88
573.06	262.14
573.22	266.82
573.38	234.05
573.55	245.76
573.71	339.38
573.87	252.78
574.03	198.95
574.20	264.48
574.36	315.97
574.52	294.91
574.68	271.50
574.84	231.71
575.01	257.46
575.17	229.37
575.33	229.37
575.49	301.93
575.65	322.99
575.82	271.50
575.98	292.57
576.14	285.55
576.30	301.93
576.46	334.70
576.62	362.78
576.79	393.21
576.95	280.86
577.11	236.39
577.27	252.78
577.43	262.14
577.59	245.76
577.75	297.25
577.92	208.31
578.08	292.57
578.24	337.04
578.40	330.02
578.56	325.33
578.72	381.51
578.88	374.49
579.04	325.33
579.21	313.63
579.37	231.71
579.53	301.93
579.69	304.27
579.85	297.25
580.01	280.86
580.17	330.02
580.33	276.18
580.49	301.93
580.65	280.86
580.82	257.46
580.98	273.84
581.14	236.39
581.30	238.73
581.46	236.39
581.62	362.78
581.78	259.80
581.94	280.86
582.10	266.82
582.26	287.89
582.42	210.65
582.58	327.68
582.74	297.25
582.90	339.38
583.06	257.46
583.22	330.02
583.38	259.80
583.54	257.46
583.70	271.50
583.86	320.65
584.02	351.08
584.18	425.98
584.34	327.68
584.50	645.99
584.66	2864.82
584.82	5886.45
584.98	7494.40
585.14	6548.82
585.30	4184.88
585.46	2679.91
585.62	1626.67
585.78	940.90
585.94	552.37
586.10	414.27
586.26	454.06
586.42	334.70
586.58	322.99
586.74	355.76
586.90	407.25
587.06	358.10
587.22	369.80
587.38	313.63
587.54	416.62
587.70	706.84
587.86	760.67
588.02	720.88
588.18	643.65
588.34	437.68
588.49	344.06
588.65	196.60
588.81	292.57
588.97	227.03
589.13	243.42
589.29	280.86
589.45	245.76
589.61	327.68
589.77	308.95
589.93	306.61
590.08	304.27
590.24	229.37
590.40	241.08
590.56	252.78
590.72	287.89
590.88	257.46
591.04	273.84
591.20	224.69
591.35	278.52
591.51	238.73
591.67	196.60
591.83	245.76
591.99	308.95
592.15	269.16
592.31	278.52
592.46	301.93
592.62	299.59
592.78	236.39
592.94	285.55
593.10	238.73
593.26	229.37
593.41	248.10
593.57	269.16
593.73	290.23
593.89	538.32
594.05	943.24
594.20	1198.35
594.36	968.98
594.52	727.91
594.68	531.30
594.84	538.32
594.99	393.21
595.15	299.59
595.31	334.70
595.47	313.63
595.62	322.99
595.78	236.39
595.94	290.23
596.10	285.55
596.25	287.89
596.41	315.97
596.57	280.86
596.73	285.55
596.88	224.69
597.04	365.12
597.20	470.45
597.36	510.24
597.51	379.17
597.67	407.25
597.83	276.18
597.99	332.36
598.14	266.82
598.30	189.58
598.46	266.82
598.61	294.91
598.77	250.44
598.93	238.73
599.09	229.37
599.24	280.86
599.40	301.93
599.56	269.16
599.71	236.39
599.87	287.89
600.03	257.46
600.18	250.44
600.34	308.95
600.50	252.78
600.65	227.03
600.81	292.57
600.97	299.59
601.12	241.08
601.28	248.10
601.44	294.91
601.59	241.08
601.75	285.55
601.91	287.89
602.06	245.76
602.22	334.70
602.37	334.70
602.53	477.47
602.69	489.17
602.84	498.53
603.00	393.21
603.16	395.55
603.31	262.14
603.47	332.36
603.62	222.35
603.78	243.42
603.94	191.92
604.09	248.10
604.25	264.48
604.40	222.35
604.56	271.50
604.71	243.42
604.87	379.17
605.03	322.99
605.18	278.52
605.34	280.86
605.49	208.31
605.65	250.44
605.80	238.73
605.96	262.14
606.12	330.02
606.27	248.10
606.43	217.67
606.58	236.39
606.74	304.27
606.89	564.07
607.05	873.02
607.20	957.28
607.36	875.36
607.51	622.58
607.67	484.49
607.82	491.51
607.98	381.51
608.13	294.91
608.29	294.91
608.44	301.93
608.60	339.38
608.75	311.29
608.91	421.30
609.06	919.83
609.22	1334.11
609.37	1500.28
609.53	1343.47
609.68	994.73
609.84	851.96
609.99	617.90
610.15	559.39
610.30	526.62
610.46	587.47
610.61	545.34
610.76	681.10
