SpectraSuite Data File
++++++++++++++++++++++++++++++++++++
Date: Fri Oct 04 11:34:08 GMT-05:00 2013
User: price-jones
Dark Spectrum Present: No
Reference Spectrum Present: No
Number of Sampled Component Spectra: 1
Spectrometers: USB2+H05261
Integration Time (usec): 100000 (USB2+H05261)
Spectra Averaged: 1 (USB2+H05261)
Boxcar Smoothing: 0 (USB2+H05261)
Correct for Electrical Dark: No (USB2+H05261)
Strobe/Lamp Enabled: No (USB2+H05261)
Correct for Detector Non-linearity: No (USB2+H05261)
Correct for Stray Light: No (USB2+H05261)
Number of Pixels in Processed Spectrum: 2048
>>>>>Begin Processed Spectral Data<<<<<
365.73	110.01
365.92	110.01
366.12	110.01
366.32	0.00
366.52	0.00
366.72	32.77
366.91	49.15
367.11	0.00
367.31	0.00
367.51	0.00
367.70	0.00
367.90	11.70
368.10	0.00
368.30	0.00
368.49	0.00
368.69	0.00
368.89	0.00
369.09	0.00
369.28	0.00
369.48	0.00
369.68	16.38
369.87	74.90
370.07	0.00
370.27	81.92
370.47	21.06
370.66	81.92
370.86	39.79
371.06	110.01
371.25	95.96
371.45	51.49
371.65	187.24
371.84	124.05
372.04	81.92
372.24	72.56
372.44	133.41
372.63	124.05
372.83	184.90
373.03	105.32
373.22	145.11
373.42	119.37
373.62	95.96
373.81	147.45
374.01	112.35
374.21	159.16
374.40	124.05
374.60	271.50
374.79	100.64
374.99	140.43
375.19	187.24
375.38	121.71
375.58	142.77
375.78	194.26
375.97	194.26
376.17	180.22
376.37	140.43
376.56	222.35
376.76	175.54
376.95	156.82
377.15	212.99
377.35	142.77
377.54	140.43
377.74	98.30
377.93	138.09
378.13	196.60
378.33	147.45
378.52	107.66
378.72	191.92
378.91	128.73
379.11	110.01
379.31	142.77
379.50	138.09
379.70	175.54
379.89	231.71
380.09	51.49
380.28	81.92
380.48	217.67
380.68	9.36
380.87	180.22
381.07	215.33
381.26	145.11
381.46	182.56
381.65	88.94
381.85	107.66
382.04	149.79
382.24	163.84
382.43	84.26
382.63	84.26
382.83	110.01
383.02	128.73
383.22	152.13
383.41	184.90
383.61	154.48
383.80	121.71
384.00	119.37
384.19	154.48
384.39	58.51
384.58	93.62
384.78	166.18
384.97	102.98
385.17	168.52
385.36	124.05
385.56	175.54
385.75	168.52
385.95	114.69
386.14	95.96
386.34	60.85
386.53	175.54
386.72	159.16
386.92	138.09
387.11	102.98
387.31	182.56
387.50	166.18
387.70	100.64
387.89	177.88
388.09	135.75
388.28	142.77
388.48	98.30
388.67	93.62
388.86	124.05
389.06	168.52
389.25	149.79
389.45	117.03
389.64	154.48
389.84	271.50
390.03	119.37
390.22	102.98
390.42	166.18
390.61	133.41
390.81	140.43
391.00	44.47
391.19	203.63
391.39	191.92
391.58	191.92
391.78	208.31
391.97	177.88
392.16	166.18
392.36	194.26
392.55	180.22
392.75	74.90
392.94	117.03
393.13	110.01
393.33	133.41
393.52	95.96
393.71	105.32
393.91	131.07
394.10	86.60
394.29	163.84
394.49	131.07
394.68	236.39
394.88	161.50
395.07	133.41
395.26	98.30
395.46	119.37
395.65	135.75
395.84	184.90
396.04	159.16
396.23	149.79
396.42	117.03
396.62	114.69
396.81	175.54
397.00	107.66
397.19	177.88
397.39	191.92
397.58	191.92
397.77	159.16
397.97	215.33
398.16	110.01
398.35	205.97
398.55	142.77
398.74	184.90
398.93	135.75
399.12	163.84
399.32	166.18
399.51	208.31
399.70	170.86
399.90	156.82
400.09	147.45
400.28	222.35
400.47	159.16
400.67	210.65
400.86	201.29
401.05	198.95
401.24	208.31
401.44	208.31
401.63	135.75
401.82	198.95
402.01	128.73
402.21	147.45
402.40	194.26
402.59	119.37
402.78	168.52
402.97	51.49
403.17	175.54
403.36	191.92
403.55	105.32
403.74	170.86
403.93	140.43
404.13	243.42
404.32	154.48
404.51	159.16
404.70	133.41
404.89	168.52
405.09	212.99
405.28	138.09
405.47	161.50
405.66	196.60
405.85	145.11
406.05	161.50
406.24	156.82
406.43	187.24
406.62	67.88
406.81	220.01
407.00	117.03
407.20	166.18
407.39	138.09
407.58	65.54
407.77	138.09
407.96	147.45
408.15	135.75
408.34	117.03
408.54	177.88
408.73	194.26
408.92	184.90
409.11	140.43
409.30	217.67
409.49	145.11
409.68	201.29
409.87	166.18
410.07	93.62
410.26	102.98
410.45	170.86
410.64	100.64
410.83	161.50
411.02	189.58
411.21	220.01
411.40	128.73
411.59	112.35
411.78	138.09
411.98	98.30
412.17	177.88
412.36	184.90
412.55	208.31
412.74	252.78
412.93	222.35
413.12	175.54
413.31	145.11
413.50	203.63
413.69	189.58
413.88	168.52
414.07	198.95
414.26	124.05
414.45	131.07
414.64	187.24
414.83	205.97
415.02	152.13
415.22	154.48
415.41	154.48
415.60	110.01
415.79	149.79
415.98	175.54
416.17	86.60
416.36	135.75
416.55	131.07
416.74	187.24
416.93	170.86
417.12	161.50
417.31	124.05
417.50	84.26
417.69	210.65
417.88	194.26
418.07	194.26
418.26	154.48
418.45	161.50
418.64	149.79
418.83	159.16
419.02	191.92
419.21	191.92
419.39	149.79
419.58	159.16
419.77	184.90
419.96	135.75
420.15	250.44
420.34	154.48
420.53	159.16
420.72	161.50
420.91	149.79
421.10	177.88
421.29	203.63
421.48	184.90
421.67	217.67
421.86	154.48
422.05	140.43
422.24	124.05
422.43	117.03
422.61	112.35
422.80	70.22
422.99	105.32
423.18	102.98
423.37	177.88
423.56	215.33
423.75	131.07
423.94	147.45
424.13	121.71
424.32	205.97
424.50	184.90
424.69	163.84
424.88	121.71
425.07	168.52
425.26	203.63
425.45	142.77
425.64	182.56
425.83	114.69
426.01	159.16
426.20	220.01
426.39	119.37
426.58	126.39
426.77	168.52
426.96	170.86
427.15	149.79
427.33	166.18
427.52	205.97
427.71	100.64
427.90	236.39
428.09	149.79
428.28	210.65
428.46	133.41
428.65	159.16
428.84	173.20
429.03	231.71
429.22	121.71
429.40	112.35
429.59	147.45
429.78	187.24
429.97	215.33
430.16	161.50
430.34	227.03
430.53	147.45
430.72	112.35
430.91	100.64
431.10	81.92
431.28	156.82
431.47	175.54
431.66	161.50
431.85	91.28
432.03	166.18
432.22	250.44
432.41	182.56
432.60	215.33
432.79	166.18
432.97	170.86
433.16	180.22
433.35	138.09
433.54	159.16
433.72	177.88
433.91	121.71
434.10	203.63
434.28	224.69
434.47	156.82
434.66	140.43
434.85	205.97
435.03	248.10
435.22	327.68
435.41	414.27
435.59	332.36
435.78	287.89
435.97	234.05
436.16	173.20
436.34	131.07
436.53	133.41
436.72	224.69
436.90	107.66
437.09	182.56
437.28	138.09
437.46	152.13
437.65	140.43
437.84	159.16
438.02	264.48
438.21	147.45
438.40	147.45
438.58	142.77
438.77	159.16
438.96	135.75
439.14	147.45
439.33	220.01
439.52	180.22
439.70	156.82
439.89	170.86
440.08	119.37
440.26	220.01
440.45	145.11
440.63	198.95
440.82	212.99
441.01	152.13
441.19	128.73
441.38	201.29
441.57	201.29
441.75	234.05
441.94	229.37
442.12	175.54
442.31	102.98
442.50	114.69
442.68	161.50
442.87	154.48
443.05	175.54
443.24	194.26
443.43	173.20
443.61	224.69
443.80	215.33
443.98	161.50
444.17	163.84
444.35	140.43
444.54	145.11
444.73	243.42
444.91	259.80
445.10	102.98
445.28	147.45
445.47	170.86
445.65	196.60
445.84	163.84
446.02	203.63
446.21	170.86
446.39	163.84
446.58	198.95
446.77	159.16
446.95	182.56
447.14	131.07
447.32	292.57
447.51	194.26
447.69	152.13
447.88	184.90
448.06	154.48
448.25	170.86
448.43	203.63
448.62	119.37
448.80	173.20
448.99	196.60
449.17	184.90
449.36	119.37
449.54	205.97
449.73	147.45
449.91	248.10
450.10	203.63
450.28	201.29
450.46	166.18
450.65	248.10
450.83	149.79
451.02	189.58
451.20	196.60
451.39	220.01
451.57	173.20
451.76	201.29
451.94	252.78
452.13	159.16
452.31	175.54
452.49	229.37
452.68	198.95
452.86	170.86
453.05	177.88
453.23	149.79
453.42	175.54
453.60	215.33
453.78	220.01
453.97	227.03
454.15	273.84
454.34	184.90
454.52	175.54
454.70	205.97
454.89	180.22
455.07	159.16
455.26	184.90
455.44	170.86
455.62	154.48
455.81	196.60
455.99	191.92
456.17	184.90
456.36	222.35
456.54	149.79
456.73	198.95
456.91	117.03
457.09	121.71
457.28	147.45
457.46	187.24
457.64	210.65
457.83	173.20
458.01	245.76
458.19	128.73
458.38	182.56
458.56	203.63
458.74	119.37
458.93	177.88
459.11	133.41
459.29	194.26
459.48	154.48
459.66	259.80
459.84	229.37
460.03	212.99
460.21	187.24
460.39	215.33
460.57	220.01
460.76	196.60
460.94	124.05
461.12	182.56
461.31	161.50
461.49	170.86
461.67	187.24
461.85	224.69
462.04	224.69
462.22	580.45
462.40	194.26
462.59	217.67
462.77	215.33
462.95	248.10
463.13	140.43
463.32	184.90
463.50	222.35
463.68	138.09
463.86	140.43
464.05	163.84
464.23	159.16
464.41	191.92
464.59	203.63
464.78	173.20
464.96	182.56
465.14	205.97
465.32	217.67
465.50	212.99
465.69	180.22
465.87	187.24
466.05	283.20
466.23	133.41
466.41	124.05
466.60	273.84
466.78	201.29
466.96	264.48
467.14	231.71
467.32	222.35
467.51	266.82
467.69	138.09
467.87	196.60
468.05	152.13
468.23	208.31
468.41	177.88
468.60	196.60
468.78	198.95
468.96	217.67
469.14	189.58
469.32	135.75
469.50	210.65
469.69	220.01
469.87	182.56
470.05	234.05
470.23	224.69
470.41	128.73
470.59	149.79
470.77	222.35
470.95	168.52
471.14	168.52
471.32	262.14
471.50	234.05
471.68	217.67
471.86	194.26
472.04	161.50
472.22	191.92
472.40	173.20
472.58	210.65
472.77	177.88
472.95	117.03
473.13	238.73
473.31	194.26
473.49	175.54
473.67	177.88
473.85	229.37
474.03	245.76
474.21	161.50
474.39	189.58
474.57	215.33
474.75	194.26
474.93	217.67
475.12	182.56
475.30	184.90
475.48	217.67
475.66	156.82
475.84	102.98
476.02	196.60
476.20	205.97
476.38	234.05
476.56	236.39
476.74	184.90
476.92	159.16
477.10	201.29
477.28	159.16
477.46	210.65
477.64	131.07
477.82	189.58
478.00	114.69
478.18	222.35
478.36	194.26
478.54	168.52
478.72	227.03
478.90	250.44
479.08	182.56
479.26	184.90
479.44	161.50
479.62	198.95
479.80	201.29
479.98	196.60
480.16	196.60
480.34	222.35
480.52	152.13
480.70	175.54
480.88	269.16
481.06	154.48
481.24	191.92
481.41	187.24
481.59	252.78
481.77	203.63
481.95	161.50
482.13	196.60
482.31	159.16
482.49	170.86
482.67	182.56
482.85	194.26
483.03	252.78
483.21	243.42
483.39	142.77
483.57	142.77
483.74	229.37
483.92	140.43
484.10	173.20
484.28	198.95
484.46	196.60
484.64	243.42
484.82	212.99
485.00	163.84
485.18	196.60
485.35	234.05
485.53	224.69
485.71	250.44
485.89	133.41
486.07	236.39
486.25	241.08
486.43	234.05
486.61	241.08
486.78	252.78
486.96	180.22
487.14	194.26
487.32	280.86
487.50	276.18
487.68	241.08
487.85	269.16
488.03	177.88
488.21	248.10
488.39	299.59
488.57	222.35
488.75	222.35
488.92	475.13
489.10	217.67
489.28	208.31
489.46	180.22
489.64	236.39
489.81	194.26
489.99	194.26
490.17	283.20
490.35	194.26
490.53	227.03
490.70	255.12
490.88	217.67
491.06	245.76
491.24	205.97
491.41	283.20
491.59	243.42
491.77	180.22
491.95	222.35
492.13	189.58
492.30	259.80
492.48	276.18
492.66	234.05
492.84	212.99
493.01	215.33
493.19	159.16
493.37	252.78
493.54	238.73
493.72	290.23
493.90	248.10
494.08	231.71
494.25	278.52
494.43	161.50
494.61	166.18
494.79	189.58
494.96	259.80
495.14	248.10
495.32	227.03
495.49	238.73
495.67	271.50
495.85	273.84
496.02	201.29
496.20	205.97
496.38	241.08
496.55	285.55
496.73	241.08
496.91	238.73
497.09	191.92
497.26	238.73
497.44	215.33
497.62	236.39
497.79	210.65
497.97	294.91
498.14	264.48
498.32	259.80
498.50	273.84
498.67	318.31
498.85	308.95
499.03	257.46
499.20	220.01
499.38	266.82
499.56	173.20
499.73	234.05
499.91	198.95
500.08	271.50
500.26	241.08
500.44	191.92
500.61	248.10
500.79	255.12
500.97	241.08
501.14	292.57
501.32	184.90
501.49	208.31
501.67	217.67
501.84	222.35
502.02	210.65
502.20	280.86
502.37	238.73
502.55	222.35
502.72	189.58
502.90	262.14
503.07	236.39
503.25	182.56
503.43	168.52
503.60	252.78
503.78	250.44
503.95	203.63
504.13	168.52
504.30	189.58
504.48	334.70
504.65	259.80
504.83	259.80
505.01	173.20
505.18	330.02
505.36	236.39
505.53	278.52
505.71	238.73
505.88	248.10
506.06	287.89
506.23	140.43
506.41	222.35
506.58	182.56
506.76	285.55
506.93	304.27
507.11	241.08
507.28	243.42
507.46	234.05
507.63	248.10
507.81	203.63
507.98	245.76
508.16	191.92
508.33	182.56
508.50	198.95
508.68	241.08
508.85	245.76
509.03	278.52
509.20	278.52
509.38	205.97
509.55	229.37
509.73	252.78
509.90	266.82
510.08	238.73
510.25	205.97
510.42	227.03
510.60	255.12
510.77	259.80
510.95	180.22
511.12	222.35
511.30	217.67
511.47	285.55
511.64	294.91
511.82	262.14
511.99	252.78
512.17	224.69
512.34	238.73
512.51	248.10
512.69	229.37
512.86	334.70
513.04	208.31
513.21	198.95
513.38	234.05
513.56	231.71
513.73	322.99
513.90	133.41
514.08	215.33
514.25	194.26
514.43	248.10
514.60	243.42
514.77	273.84
514.95	252.78
515.12	234.05
515.29	255.12
515.47	315.97
515.64	285.55
515.81	280.86
515.99	285.55
516.16	208.31
516.33	236.39
516.51	182.56
516.68	250.44
516.85	173.20
517.03	205.97
517.20	262.14
517.37	327.68
517.54	248.10
517.72	278.52
517.89	154.48
518.06	257.46
518.24	276.18
518.41	287.89
518.58	255.12
518.75	269.16
518.93	264.48
519.10	255.12
519.27	243.42
519.45	229.37
519.62	269.16
519.79	315.97
519.96	273.84
520.14	205.97
520.31	313.63
520.48	245.76
520.65	198.95
520.83	245.76
521.00	290.23
521.17	154.48
521.34	180.22
521.52	175.54
521.69	205.97
521.86	269.16
522.03	255.12
522.20	280.86
522.38	220.01
522.55	236.39
522.72	250.44
522.89	304.27
523.07	313.63
523.24	315.97
523.41	248.10
523.58	266.82
523.75	264.48
523.92	248.10
524.10	311.29
524.27	241.08
524.44	201.29
524.61	229.37
524.78	243.42
524.96	285.55
525.13	283.20
525.30	264.48
525.47	271.50
525.64	234.05
525.81	229.37
525.98	283.20
526.16	311.29
526.33	217.67
526.50	264.48
526.67	238.73
526.84	248.10
527.01	243.42
527.18	238.73
527.36	252.78
527.53	264.48
527.70	280.86
527.87	287.89
528.04	318.31
528.21	252.78
528.38	290.23
528.55	292.57
528.72	273.84
528.89	306.61
529.07	262.14
529.24	276.18
529.41	271.50
529.58	262.14
529.75	294.91
529.92	252.78
530.09	264.48
530.26	283.20
530.43	229.37
530.60	290.23
530.77	210.65
530.94	280.86
531.11	252.78
531.28	208.31
531.46	238.73
531.63	198.95
531.80	271.50
531.97	327.68
532.14	332.36
532.31	287.89
532.48	297.25
532.65	287.89
532.82	227.03
532.99	212.99
533.16	231.71
533.33	294.91
533.50	234.05
533.67	313.63
533.84	259.80
534.01	229.37
534.18	234.05
534.35	262.14
534.52	205.97
534.69	362.78
534.86	290.23
535.03	285.55
535.20	220.01
535.37	212.99
535.54	280.86
535.71	194.26
535.88	292.57
536.05	280.86
536.22	215.33
536.38	273.84
536.55	201.29
536.72	280.86
536.89	266.82
537.06	308.95
537.23	238.73
537.40	224.69
537.57	250.44
537.74	306.61
537.91	266.82
538.08	334.70
538.25	322.99
538.42	276.18
538.59	353.42
538.75	304.27
538.92	320.65
539.09	332.36
539.26	299.59
539.43	315.97
539.60	276.18
539.77	374.49
539.94	320.65
540.11	325.33
540.28	383.85
540.44	358.10
540.61	308.95
540.78	348.74
540.95	428.32
541.12	496.19
541.29	409.59
541.46	528.96
541.62	444.70
541.79	442.36
541.96	383.85
542.13	360.44
542.30	505.56
542.47	393.21
542.63	318.31
542.80	437.68
542.97	395.55
543.14	416.62
543.31	351.08
543.48	407.25
543.64	468.11
543.81	447.04
543.98	397.89
544.15	397.89
544.32	425.98
544.48	442.36
544.65	348.74
544.82	344.06
544.99	320.65
545.16	400.23
545.32	428.32
545.49	603.86
545.66	699.82
545.83	699.82
546.00	653.01
546.16	531.30
546.33	498.53
546.50	351.08
546.67	402.57
546.83	369.80
547.00	367.46
547.17	369.80
547.34	327.68
547.50	318.31
547.67	400.23
547.84	395.55
548.00	283.20
548.17	299.59
548.34	278.52
548.51	304.27
548.67	304.27
548.84	334.70
549.01	308.95
549.18	327.68
549.34	341.72
549.51	318.31
549.68	330.02
549.84	301.93
550.01	355.76
550.18	397.89
550.34	407.25
550.51	304.27
550.68	297.25
550.84	203.63
551.01	322.99
551.18	325.33
551.34	379.17
551.51	290.23
551.68	294.91
551.84	259.80
552.01	304.27
552.18	229.37
552.34	290.23
552.51	325.33
552.68	292.57
552.84	215.33
553.01	243.42
553.18	229.37
553.34	308.95
553.51	238.73
553.67	259.80
553.84	273.84
554.01	248.10
554.17	304.27
554.34	184.90
554.51	348.74
554.67	287.89
554.84	315.97
555.00	257.46
555.17	285.55
555.33	266.82
555.50	292.57
555.67	269.16
555.83	217.67
556.00	304.27
556.16	437.68
556.33	301.93
556.50	255.12
556.66	287.89
556.83	292.57
556.99	280.86
557.16	280.86
557.32	234.05
557.49	147.45
557.65	262.14
557.82	257.46
557.98	337.04
558.15	292.57
558.32	311.29
558.48	222.35
558.65	189.58
558.81	297.25
558.98	264.48
559.14	353.42
559.31	320.65
559.47	224.69
559.64	273.84
559.80	264.48
559.97	250.44
560.13	238.73
560.30	229.37
560.46	276.18
560.63	229.37
560.79	271.50
560.96	229.37
561.12	238.73
561.29	182.56
561.45	299.59
561.61	234.05
561.78	245.76
561.94	287.89
562.11	234.05
562.27	231.71
562.44	212.99
562.60	187.24
562.77	238.73
562.93	337.04
563.10	262.14
563.26	255.12
563.42	299.59
563.59	259.80
563.75	241.08
563.92	346.40
564.08	290.23
564.24	243.42
564.41	264.48
564.57	264.48
564.74	304.27
564.90	229.37
565.07	222.35
565.23	285.55
565.39	290.23
565.56	189.58
565.72	203.63
565.88	264.48
566.05	145.11
566.21	255.12
566.38	217.67
566.54	262.14
566.70	292.57
566.87	264.48
567.03	234.05
567.19	182.56
567.36	283.20
567.52	175.54
567.68	334.70
567.85	330.02
568.01	227.03
568.17	222.35
568.34	283.20
568.50	285.55
568.66	243.42
568.83	180.22
568.99	299.59
569.15	318.31
569.32	238.73
569.48	177.88
569.64	220.01
569.81	299.59
569.97	222.35
570.13	234.05
570.30	229.37
570.46	276.18
570.62	227.03
570.78	180.22
570.95	208.31
571.11	229.37
571.27	322.99
571.43	229.37
571.60	243.42
571.76	241.08
571.92	290.23
572.09	243.42
572.25	210.65
572.41	280.86
572.57	276.18
572.74	264.48
572.90	264.48
573.06	236.39
573.22	227.03
573.38	245.76
573.55	205.97
573.71	170.86
573.87	238.73
574.03	250.44
574.20	250.44
574.36	187.24
574.52	208.31
574.68	257.46
574.84	245.76
575.01	243.42
575.17	259.80
575.33	210.65
575.49	337.04
575.65	257.46
575.82	315.97
575.98	297.25
576.14	229.37
576.30	269.16
576.46	259.80
576.62	327.68
576.79	348.74
576.95	273.84
577.11	245.76
577.27	269.16
577.43	241.08
577.59	297.25
577.75	241.08
577.92	241.08
578.08	245.76
578.24	248.10
578.40	311.29
578.56	320.65
578.72	437.68
578.88	358.10
579.04	283.20
579.21	280.86
579.37	327.68
579.53	215.33
579.69	191.92
579.85	262.14
580.01	234.05
580.17	248.10
580.33	238.73
580.49	224.69
580.65	339.38
580.82	245.76
580.98	231.71
581.14	250.44
581.30	353.42
581.46	236.39
581.62	297.25
581.78	280.86
581.94	262.14
582.10	280.86
582.26	308.95
582.42	215.33
582.58	327.68
582.74	238.73
582.90	266.82
583.06	259.80
583.22	287.89
583.38	273.84
583.54	271.50
583.70	374.49
583.86	276.18
584.02	241.08
584.18	264.48
584.34	264.48
584.50	355.76
584.66	503.22
584.82	990.05
584.98	1188.99
585.14	1062.60
585.30	880.04
585.46	620.24
585.62	451.72
585.78	402.57
585.94	278.52
586.10	334.70
586.26	337.04
586.42	360.44
586.58	304.27
586.74	238.73
586.90	313.63
587.06	395.55
587.22	285.55
587.38	287.89
587.54	395.55
587.70	332.36
587.86	367.46
588.02	278.52
588.18	332.36
588.34	332.36
588.49	266.82
588.65	273.84
588.81	215.33
588.97	173.20
589.13	177.88
589.29	248.10
589.45	234.05
589.61	250.44
589.77	315.97
589.93	156.82
590.08	243.42
590.24	243.42
590.40	161.50
590.56	320.65
590.72	236.39
590.88	231.71
591.04	304.27
591.20	189.58
591.35	313.63
591.51	194.26
591.67	294.91
591.83	220.01
591.99	271.50
592.15	229.37
592.31	229.37
592.46	325.33
592.62	290.23
592.78	212.99
592.94	257.46
593.10	280.86
593.26	163.84
593.41	308.95
593.57	264.48
593.73	231.71
593.89	320.65
594.05	348.74
594.20	381.51
594.36	388.53
594.52	222.35
594.68	266.82
594.84	266.82
594.99	222.35
595.15	290.23
595.31	306.61
595.47	276.18
595.62	208.31
595.78	238.73
595.94	248.10
596.10	234.05
596.25	301.93
596.41	252.78
596.57	264.48
596.73	252.78
596.88	262.14
597.04	229.37
597.20	283.20
597.36	250.44
597.51	278.52
597.67	227.03
597.83	208.31
597.99	327.68
598.14	285.55
598.30	231.71
598.46	252.78
598.61	259.80
598.77	245.76
598.93	241.08
599.09	248.10
599.24	248.10
599.40	327.68
599.56	234.05
599.71	294.91
599.87	149.79
600.03	304.27
600.18	210.65
600.34	283.20
600.50	220.01
600.65	205.97
600.81	255.12
600.97	198.95
601.12	224.69
601.28	259.80
601.44	201.29
601.59	189.58
601.75	229.37
601.91	273.84
602.06	262.14
602.22	311.29
602.37	217.67
602.53	294.91
602.69	273.84
602.84	234.05
603.00	187.24
603.16	264.48
603.31	234.05
603.47	292.57
603.62	238.73
603.78	208.31
603.94	259.80
604.09	173.20
604.25	238.73
604.40	299.59
604.56	283.20
604.71	212.99
604.87	252.78
605.03	276.18
605.18	203.63
605.34	241.08
605.49	271.50
605.65	299.59
605.80	241.08
605.96	280.86
606.12	227.03
606.27	259.80
606.43	283.20
606.58	236.39
606.74	229.37
606.89	269.16
607.05	372.15
607.20	365.12
607.36	341.72
607.51	250.44
607.67	311.29
607.82	367.46
607.98	325.33
608.13	337.04
608.29	250.44
608.44	355.76
608.60	283.20
608.75	332.36
608.91	301.93
609.06	374.49
609.22	395.55
609.37	484.49
609.53	468.11
609.68	381.51
609.84	362.78
609.99	461.09
610.15	454.06
610.30	444.70
610.46	524.28
610.61	587.47
610.76	662.37
610.92	706.84
