SpectraSuite Data File
++++++++++++++++++++++++++++++++++++
Date: Fri Oct 04 11:34:04 GMT-05:00 2013
User: price-jones
Dark Spectrum Present: No
Reference Spectrum Present: No
Number of Sampled Component Spectra: 1
Spectrometers: USB2+H05261
Integration Time (usec): 100000 (USB2+H05261)
Spectra Averaged: 1 (USB2+H05261)
Boxcar Smoothing: 0 (USB2+H05261)
Correct for Electrical Dark: No (USB2+H05261)
Strobe/Lamp Enabled: No (USB2+H05261)
Correct for Detector Non-linearity: No (USB2+H05261)
Correct for Stray Light: No (USB2+H05261)
Number of Pixels in Processed Spectrum: 2048
>>>>>Begin Processed Spectral Data<<<<<
365.73	49.15
365.92	49.15
366.12	49.15
366.32	23.41
366.52	0.00
366.72	0.00
366.91	9.36
367.11	0.00
367.31	7.02
367.51	0.00
367.70	25.75
367.90	0.00
368.10	0.00
368.30	0.00
368.49	0.00
368.69	0.00
368.89	0.00
369.09	0.00
369.28	4.68
369.48	0.00
369.68	70.22
369.87	0.00
370.07	11.70
370.27	81.92
370.47	60.85
370.66	46.81
370.86	32.77
371.06	119.37
371.25	93.62
371.45	100.64
371.65	145.11
371.84	70.22
372.04	56.17
372.24	112.35
372.44	107.66
372.63	191.92
372.83	110.01
373.03	152.13
373.22	119.37
373.42	114.69
373.62	117.03
373.81	128.73
374.01	170.86
374.21	110.01
374.40	105.32
374.60	203.63
374.79	182.56
374.99	159.16
375.19	121.71
375.38	114.69
375.58	131.07
375.78	201.29
375.97	180.22
376.17	201.29
376.37	245.76
376.56	210.65
376.76	175.54
376.95	86.60
377.15	107.66
377.35	135.75
377.54	161.50
377.74	117.03
377.93	140.43
378.13	114.69
378.33	205.97
378.52	114.69
378.72	189.58
378.91	271.50
379.11	163.84
379.31	56.17
379.50	124.05
379.70	198.95
379.89	100.64
380.09	170.86
380.28	156.82
380.48	128.73
380.68	72.56
380.87	79.58
381.07	168.52
381.26	255.12
381.46	121.71
381.65	142.77
381.85	149.79
382.04	142.77
382.24	147.45
382.43	161.50
382.63	91.28
382.83	135.75
383.02	105.32
383.22	234.05
383.41	180.22
383.61	105.32
383.80	126.39
384.00	222.35
384.19	187.24
384.39	128.73
384.58	100.64
384.78	126.39
384.97	112.35
385.17	140.43
385.36	107.66
385.56	168.52
385.75	117.03
385.95	145.11
386.14	121.71
386.34	91.28
386.53	170.86
386.72	98.30
386.92	198.95
387.11	114.69
387.31	53.83
387.50	168.52
387.70	110.01
387.89	138.09
388.09	126.39
388.28	131.07
388.48	53.83
388.67	222.35
388.86	133.41
389.06	37.45
389.25	110.01
389.45	187.24
389.64	107.66
389.84	102.98
390.03	107.66
390.22	140.43
390.42	173.20
390.61	126.39
390.81	194.26
391.00	189.58
391.19	140.43
391.39	93.62
391.58	201.29
391.78	166.18
391.97	161.50
392.16	117.03
392.36	163.84
392.55	124.05
392.75	18.72
392.94	124.05
393.13	133.41
393.33	105.32
393.52	107.66
393.71	161.50
393.91	145.11
394.10	187.24
394.29	156.82
394.49	149.79
394.68	170.86
394.88	173.20
395.07	205.97
395.26	161.50
395.46	131.07
395.65	114.69
395.84	147.45
396.04	184.90
396.23	182.56
396.42	117.03
396.62	117.03
396.81	212.99
397.00	159.16
397.19	156.82
397.39	117.03
397.58	135.75
397.77	100.64
397.97	32.77
398.16	119.37
398.35	196.60
398.55	95.96
398.74	243.42
398.93	114.69
399.12	117.03
399.32	215.33
399.51	124.05
399.70	145.11
399.90	145.11
400.09	135.75
400.28	163.84
400.47	102.98
400.67	191.92
400.86	166.18
401.05	208.31
401.24	124.05
401.44	126.39
401.63	147.45
401.82	152.13
402.01	117.03
402.21	161.50
402.40	119.37
402.59	135.75
402.78	154.48
402.97	112.35
403.17	147.45
403.36	159.16
403.55	205.97
403.74	156.82
403.93	180.22
404.13	175.54
404.32	217.67
404.51	208.31
404.70	140.43
404.89	138.09
405.09	191.92
405.28	152.13
405.47	70.22
405.66	205.97
405.85	191.92
406.05	128.73
406.24	152.13
406.43	128.73
406.62	184.90
406.81	196.60
407.00	156.82
407.20	105.32
407.39	198.95
407.58	119.37
407.77	142.77
407.96	220.01
408.15	166.18
408.34	163.84
408.54	98.30
408.73	163.84
408.92	140.43
409.11	102.98
409.30	215.33
409.49	152.13
409.68	142.77
409.87	112.35
410.07	93.62
410.26	133.41
410.45	121.71
410.64	156.82
410.83	126.39
411.02	173.20
411.21	245.76
411.40	241.08
411.59	163.84
411.78	142.77
411.98	133.41
412.17	145.11
412.36	196.60
412.55	161.50
412.74	217.67
412.93	177.88
413.12	173.20
413.31	198.95
413.50	159.16
413.69	133.41
413.88	191.92
414.07	168.52
414.26	140.43
414.45	65.54
414.64	222.35
414.83	152.13
415.02	117.03
415.22	124.05
415.41	163.84
415.60	145.11
415.79	142.77
415.98	194.26
416.17	161.50
416.36	145.11
416.55	142.77
416.74	273.84
416.93	133.41
417.12	191.92
417.31	241.08
417.50	133.41
417.69	145.11
417.88	140.43
418.07	187.24
418.26	154.48
418.45	124.05
418.64	248.10
418.83	196.60
419.02	227.03
419.21	217.67
419.39	166.18
419.58	191.92
419.77	166.18
419.96	220.01
420.15	283.20
420.34	102.98
420.53	227.03
420.72	152.13
420.91	191.92
421.10	149.79
421.29	229.37
421.48	156.82
421.67	138.09
421.86	135.75
422.05	117.03
422.24	187.24
422.43	170.86
422.61	105.32
422.80	110.01
422.99	180.22
423.18	149.79
423.37	182.56
423.56	124.05
423.75	234.05
423.94	198.95
424.13	119.37
424.32	145.11
424.50	145.11
424.69	145.11
424.88	191.92
425.07	159.16
425.26	91.28
425.45	119.37
425.64	191.92
425.83	168.52
426.01	175.54
426.20	180.22
426.39	180.22
426.58	173.20
426.77	166.18
426.96	170.86
427.15	236.39
427.33	124.05
427.52	117.03
427.71	159.16
427.90	121.71
428.09	217.67
428.28	166.18
428.46	138.09
428.65	161.50
428.84	124.05
429.03	161.50
429.22	149.79
429.40	152.13
429.59	119.37
429.78	170.86
429.97	93.62
430.16	205.97
430.34	126.39
430.53	224.69
430.72	177.88
430.91	184.90
431.10	138.09
431.28	124.05
431.47	117.03
431.66	126.39
431.85	173.20
432.03	208.31
432.22	236.39
432.41	135.75
432.60	163.84
432.79	236.39
432.97	126.39
433.16	189.58
433.35	149.79
433.54	222.35
433.72	154.48
433.91	194.26
434.10	189.58
434.28	212.99
434.47	159.16
434.66	229.37
434.85	189.58
435.03	276.18
435.22	301.93
435.41	437.68
435.59	337.04
435.78	318.31
435.97	266.82
436.16	173.20
436.34	124.05
436.53	187.24
436.72	217.67
436.90	210.65
437.09	238.73
437.28	259.80
437.46	241.08
437.65	208.31
437.84	152.13
438.02	222.35
438.21	189.58
438.40	163.84
438.58	102.98
438.77	180.22
438.96	152.13
439.14	114.69
439.33	201.29
439.52	163.84
439.70	121.71
439.89	264.48
440.08	229.37
440.26	212.99
440.45	215.33
440.63	161.50
440.82	203.63
441.01	180.22
441.19	126.39
441.38	182.56
441.57	147.45
441.75	196.60
441.94	234.05
442.12	175.54
442.31	224.69
442.50	182.56
442.68	114.69
442.87	262.14
443.05	177.88
443.24	238.73
443.43	166.18
443.61	154.48
443.80	234.05
443.98	152.13
444.17	229.37
444.35	194.26
444.54	145.11
444.73	212.99
444.91	201.29
445.10	112.35
445.28	182.56
445.47	205.97
445.65	105.32
445.84	135.75
446.02	147.45
446.21	170.86
446.39	198.95
446.58	229.37
446.77	217.67
446.95	180.22
447.14	124.05
447.32	180.22
447.51	182.56
447.69	159.16
447.88	175.54
448.06	217.67
448.25	187.24
448.43	119.37
448.62	168.52
448.80	173.20
448.99	156.82
449.17	142.77
449.36	149.79
449.54	227.03
449.73	173.20
449.91	163.84
450.10	121.71
450.28	229.37
450.46	231.71
450.65	273.84
450.83	215.33
451.02	220.01
451.20	154.48
451.39	194.26
451.57	227.03
451.76	133.41
451.94	177.88
452.13	182.56
452.31	248.10
452.49	238.73
452.68	163.84
452.86	210.65
453.05	201.29
453.23	187.24
453.42	234.05
453.60	189.58
453.78	238.73
453.97	170.86
454.15	161.50
454.34	149.79
454.52	203.63
454.70	222.35
454.89	212.99
455.07	182.56
455.26	170.86
455.44	236.39
455.62	189.58
455.81	187.24
455.99	241.08
456.17	227.03
456.36	173.20
456.54	166.18
456.73	156.82
456.91	159.16
457.09	212.99
457.28	241.08
457.46	241.08
457.64	229.37
457.83	184.90
458.01	212.99
458.19	154.48
458.38	189.58
458.56	124.05
458.74	156.82
458.93	250.44
459.11	180.22
459.29	154.48
459.48	222.35
459.66	196.60
459.84	135.75
460.03	252.78
460.21	163.84
460.39	152.13
460.57	182.56
460.76	168.52
460.94	168.52
461.12	154.48
461.31	217.67
461.49	250.44
461.67	287.89
461.85	227.03
462.04	170.86
462.22	599.18
462.40	227.03
462.59	156.82
462.77	156.82
462.95	227.03
463.13	201.29
463.32	299.59
463.50	180.22
463.68	217.67
463.86	180.22
464.05	198.95
464.23	224.69
464.41	262.14
464.59	142.77
464.78	173.20
464.96	191.92
465.14	220.01
465.32	173.20
465.50	215.33
465.69	147.45
465.87	166.18
466.05	112.35
466.23	220.01
466.41	194.26
466.60	187.24
466.78	170.86
466.96	231.71
467.14	102.98
467.32	184.90
467.51	147.45
467.69	166.18
467.87	212.99
468.05	173.20
468.23	243.42
468.41	245.76
468.60	196.60
468.78	248.10
468.96	196.60
469.14	142.77
469.32	278.52
469.50	222.35
469.69	236.39
469.87	140.43
470.05	205.97
470.23	145.11
470.41	217.67
470.59	220.01
470.77	159.16
470.95	194.26
471.14	264.48
471.32	145.11
471.50	194.26
471.68	208.31
471.86	229.37
472.04	210.65
472.22	180.22
472.40	189.58
472.58	131.07
472.77	159.16
472.95	189.58
473.13	198.95
473.31	287.89
473.49	189.58
473.67	177.88
473.85	205.97
474.03	205.97
474.21	210.65
474.39	184.90
474.57	205.97
474.75	222.35
474.93	180.22
475.12	191.92
475.30	154.48
475.48	215.33
475.66	173.20
475.84	255.12
476.02	250.44
476.20	248.10
476.38	189.58
476.56	271.50
476.74	227.03
476.92	149.79
477.10	194.26
477.28	203.63
477.46	138.09
477.64	241.08
477.82	255.12
478.00	201.29
478.18	152.13
478.36	170.86
478.54	152.13
478.72	180.22
478.90	128.73
479.08	248.10
479.26	191.92
479.44	220.01
479.62	212.99
479.80	205.97
479.98	177.88
480.16	140.43
480.34	243.42
480.52	201.29
480.70	290.23
480.88	194.26
481.06	238.73
481.24	184.90
481.41	180.22
481.59	194.26
481.77	191.92
481.95	248.10
482.13	248.10
482.31	198.95
482.49	217.67
482.67	215.33
482.85	198.95
483.03	229.37
483.21	259.80
483.39	210.65
483.57	182.56
483.74	196.60
483.92	196.60
484.10	220.01
484.28	248.10
484.46	283.20
484.64	236.39
484.82	189.58
485.00	196.60
485.18	222.35
485.35	149.79
485.53	238.73
485.71	215.33
485.89	138.09
486.07	189.58
486.25	280.86
486.43	243.42
486.61	285.55
486.78	248.10
486.96	159.16
487.14	145.11
487.32	196.60
487.50	107.66
487.68	259.80
487.85	273.84
488.03	217.67
488.21	280.86
488.39	212.99
488.57	255.12
488.75	238.73
488.92	524.28
489.10	224.69
489.28	215.33
489.46	210.65
489.64	257.46
489.81	234.05
489.99	243.42
490.17	325.33
490.35	306.61
490.53	278.52
490.70	180.22
490.88	262.14
491.06	238.73
491.24	212.99
491.41	238.73
491.59	238.73
491.77	280.86
491.95	191.92
492.13	245.76
492.30	276.18
492.48	236.39
492.66	318.31
492.84	212.99
493.01	276.18
493.19	266.82
493.37	236.39
493.54	271.50
493.72	313.63
493.90	285.55
494.08	294.91
494.25	191.92
494.43	304.27
494.61	170.86
494.79	222.35
494.96	191.92
495.14	224.69
495.32	252.78
495.49	287.89
495.67	210.65
495.85	262.14
496.02	210.65
496.20	278.52
496.38	205.97
496.55	208.31
496.73	229.37
496.91	205.97
497.09	234.05
497.26	348.74
497.44	276.18
497.62	238.73
497.79	189.58
497.97	224.69
498.14	203.63
498.32	191.92
498.50	292.57
498.67	203.63
498.85	241.08
499.03	224.69
499.20	205.97
499.38	236.39
499.56	257.46
499.73	320.65
499.91	337.04
500.08	264.48
500.26	215.33
500.44	280.86
500.61	210.65
500.79	248.10
500.97	222.35
501.14	292.57
501.32	269.16
501.49	255.12
501.67	173.20
501.84	229.37
502.02	212.99
502.20	299.59
502.37	304.27
502.55	318.31
502.72	297.25
502.90	236.39
503.07	215.33
503.25	245.76
503.43	224.69
503.60	248.10
503.78	248.10
503.95	264.48
504.13	278.52
504.30	203.63
504.48	271.50
504.65	334.70
504.83	198.95
505.01	196.60
505.18	229.37
505.36	205.97
505.53	212.99
505.71	236.39
505.88	294.91
506.06	287.89
506.23	201.29
506.41	273.84
506.58	224.69
506.76	269.16
506.93	229.37
507.11	215.33
507.28	229.37
507.46	182.56
507.63	182.56
507.81	217.67
507.98	252.78
508.16	308.95
508.33	229.37
508.50	248.10
508.68	257.46
508.85	220.01
509.03	301.93
509.20	264.48
509.38	264.48
509.55	262.14
509.73	252.78
509.90	262.14
510.08	264.48
510.25	264.48
510.42	313.63
510.60	203.63
510.77	339.38
510.95	337.04
511.12	271.50
511.30	304.27
511.47	278.52
511.64	255.12
511.82	308.95
511.99	191.92
512.17	212.99
512.34	189.58
512.51	224.69
512.69	287.89
512.86	330.02
513.04	212.99
513.21	196.60
513.38	271.50
513.56	264.48
513.73	294.91
513.90	114.69
514.08	201.29
514.25	215.33
514.43	301.93
514.60	327.68
514.77	231.71
514.95	273.84
515.12	278.52
515.29	203.63
515.47	311.29
515.64	196.60
515.81	311.29
515.99	205.97
516.16	252.78
516.33	250.44
516.51	301.93
516.68	248.10
516.85	184.90
517.03	257.46
517.20	257.46
517.37	269.16
517.54	262.14
517.72	217.67
517.89	170.86
518.06	184.90
518.24	290.23
518.41	276.18
518.58	243.42
518.75	198.95
518.93	241.08
519.10	266.82
519.27	173.20
519.45	276.18
519.62	229.37
519.79	252.78
519.96	229.37
520.14	320.65
520.31	318.31
520.48	243.42
520.65	236.39
520.83	222.35
521.00	262.14
521.17	266.82
521.34	236.39
521.52	241.08
521.69	271.50
521.86	287.89
522.03	250.44
522.20	287.89
522.38	266.82
522.55	191.92
522.72	201.29
522.89	238.73
523.07	259.80
523.24	248.10
523.41	234.05
523.58	238.73
523.75	301.93
523.92	184.90
524.10	236.39
524.27	257.46
524.44	269.16
524.61	285.55
524.78	276.18
524.96	259.80
525.13	243.42
525.30	257.46
525.47	229.37
525.64	262.14
525.81	276.18
525.98	170.86
526.16	252.78
526.33	201.29
526.50	229.37
526.67	299.59
526.84	224.69
527.01	257.46
527.18	212.99
527.36	208.31
527.53	210.65
527.70	292.57
527.87	318.31
528.04	299.59
528.21	241.08
528.38	304.27
528.55	257.46
528.72	301.93
528.89	262.14
529.07	285.55
529.24	236.39
529.41	297.25
529.58	255.12
529.75	262.14
529.92	290.23
530.09	287.89
530.26	259.80
530.43	250.44
530.60	252.78
530.77	269.16
530.94	264.48
531.11	241.08
531.28	285.55
531.46	273.84
531.63	271.50
531.80	287.89
531.97	325.33
532.14	290.23
532.31	313.63
532.48	255.12
532.65	262.14
532.82	252.78
532.99	315.97
533.16	184.90
533.33	299.59
533.50	313.63
533.67	318.31
533.84	325.33
534.01	322.99
534.18	231.71
534.35	271.50
534.52	241.08
534.69	341.72
534.86	306.61
535.03	301.93
535.20	243.42
535.37	276.18
535.54	318.31
535.71	212.99
535.88	344.06
536.05	212.99
536.22	262.14
536.38	273.84
536.55	194.26
536.72	360.44
536.89	212.99
537.06	276.18
537.23	250.44
537.40	227.03
537.57	248.10
537.74	292.57
537.91	325.33
538.08	325.33
538.25	348.74
538.42	320.65
538.59	248.10
538.75	351.08
538.92	308.95
539.09	248.10
539.26	304.27
539.43	442.36
539.60	383.85
539.77	409.59
539.94	500.87
540.11	374.49
540.28	353.42
540.44	386.19
540.61	299.59
540.78	339.38
540.95	444.70
541.12	507.90
541.29	428.32
541.46	571.09
541.62	477.47
541.79	442.36
541.96	451.72
542.13	463.43
542.30	477.47
542.47	514.92
542.63	465.77
542.80	409.59
542.97	531.30
543.14	388.53
543.31	498.53
543.48	425.98
543.64	449.38
543.81	376.83
543.98	353.42
544.15	444.70
544.32	449.38
544.48	437.68
544.65	416.62
544.82	435.34
544.99	362.78
545.16	388.53
545.32	402.57
545.49	634.29
545.66	720.88
545.83	870.68
546.00	720.88
546.16	606.20
546.33	472.79
546.50	428.32
546.67	400.23
546.83	388.53
547.00	264.48
547.17	339.38
547.34	348.74
547.50	383.85
547.67	362.78
547.84	397.89
548.00	365.12
548.17	311.29
548.34	334.70
548.51	433.00
548.67	367.46
548.84	320.65
549.01	320.65
549.18	346.40
549.34	337.04
549.51	388.53
549.68	339.38
549.84	313.63
550.01	229.37
550.18	379.17
550.34	367.46
550.51	287.89
550.68	362.78
550.84	327.68
551.01	222.35
551.18	252.78
551.34	271.50
551.51	341.72
551.68	269.16
551.84	292.57
552.01	304.27
552.18	259.80
552.34	294.91
552.51	294.91
552.68	313.63
552.84	234.05
553.01	304.27
553.18	313.63
553.34	294.91
553.51	245.76
553.67	332.36
553.84	320.65
554.01	320.65
554.17	245.76
554.34	292.57
554.51	294.91
554.67	332.36
554.84	252.78
555.00	276.18
555.17	355.76
555.33	234.05
555.50	259.80
555.67	294.91
555.83	266.82
556.00	229.37
556.16	498.53
556.33	280.86
556.50	306.61
556.66	241.08
556.83	243.42
556.99	196.60
557.16	252.78
557.32	297.25
557.49	231.71
557.65	215.33
557.82	255.12
557.98	236.39
558.15	215.33
558.32	236.39
558.48	327.68
558.65	285.55
558.81	301.93
558.98	262.14
559.14	229.37
559.31	257.46
559.47	276.18
559.64	222.35
559.80	212.99
559.97	236.39
560.13	222.35
560.30	262.14
560.46	266.82
560.63	294.91
560.79	224.69
560.96	287.89
561.12	290.23
561.29	250.44
561.45	166.18
561.61	220.01
561.78	395.55
561.94	315.97
562.11	177.88
562.27	304.27
562.44	236.39
562.60	276.18
562.77	280.86
562.93	287.89
563.10	259.80
563.26	271.50
563.42	271.50
563.59	280.86
563.75	229.37
563.92	271.50
564.08	154.48
564.24	236.39
564.41	257.46
564.57	278.52
564.74	234.05
564.90	241.08
565.07	283.20
565.23	278.52
565.39	156.82
565.56	278.52
565.72	238.73
565.88	194.26
566.05	262.14
566.21	285.55
566.38	252.78
566.54	241.08
566.70	241.08
566.87	257.46
567.03	215.33
567.19	299.59
567.36	290.23
567.52	215.33
567.68	299.59
567.85	262.14
568.01	189.58
568.17	248.10
568.34	203.63
568.50	252.78
568.66	262.14
568.83	339.38
568.99	217.67
569.15	259.80
569.32	290.23
569.48	198.95
569.64	334.70
569.81	290.23
569.97	250.44
570.13	196.60
570.30	184.90
570.46	294.91
570.62	264.48
570.78	168.52
570.95	238.73
571.11	283.20
571.27	287.89
571.43	285.55
571.60	304.27
571.76	217.67
571.92	220.01
572.09	280.86
572.25	212.99
572.41	187.24
572.57	238.73
572.74	269.16
572.90	313.63
573.06	283.20
573.22	280.86
573.38	215.33
573.55	215.33
573.71	285.55
573.87	290.23
574.03	339.38
574.20	220.01
574.36	248.10
574.52	287.89
574.68	196.60
574.84	266.82
575.01	220.01
575.17	245.76
575.33	313.63
575.49	201.29
575.65	315.97
575.82	241.08
575.98	416.62
576.14	287.89
576.30	355.76
576.46	327.68
576.62	365.12
576.79	376.83
576.95	360.44
577.11	278.52
577.27	234.05
577.43	325.33
577.59	222.35
577.75	264.48
577.92	262.14
578.08	250.44
578.24	212.99
578.40	290.23
578.56	379.17
578.72	301.93
578.88	435.34
579.04	339.38
579.21	280.86
579.37	313.63
579.53	257.46
579.69	280.86
579.85	285.55
580.01	264.48
580.17	292.57
580.33	290.23
580.49	264.48
580.65	257.46
580.82	299.59
580.98	348.74
581.14	290.23
581.30	372.15
581.46	320.65
581.62	313.63
581.78	269.16
581.94	259.80
582.10	299.59
582.26	355.76
582.42	306.61
582.58	306.61
582.74	322.99
582.90	325.33
583.06	259.80
583.22	346.40
583.38	269.16
583.54	299.59
583.70	322.99
583.86	358.10
584.02	332.36
584.18	360.44
584.34	376.83
584.50	643.65
584.66	2644.81
584.82	5598.56
584.98	7384.39
585.14	6368.60
585.30	4154.45
585.46	2637.78
585.62	1619.65
585.78	950.26
585.94	589.82
586.10	374.49
586.26	355.76
586.42	320.65
586.58	355.76
586.74	402.57
586.90	411.93
587.06	393.21
587.22	351.08
587.38	313.63
587.54	411.93
587.70	622.58
587.86	821.53
588.02	784.08
588.18	603.86
588.34	425.98
588.49	362.78
588.65	337.04
588.81	250.44
588.97	210.65
589.13	238.73
589.29	250.44
589.45	351.08
589.61	271.50
589.77	292.57
589.93	287.89
590.08	304.27
590.24	285.55
590.40	299.59
590.56	262.14
590.72	257.46
590.88	259.80
591.04	229.37
591.20	369.80
591.35	313.63
591.51	245.76
591.67	262.14
591.83	252.78
591.99	285.55
592.15	322.99
592.31	374.49
592.46	306.61
592.62	266.82
592.78	290.23
592.94	266.82
593.10	250.44
593.26	320.65
593.41	280.86
593.57	236.39
593.73	306.61
593.89	575.77
594.05	922.17
594.20	1057.92
594.36	971.32
594.52	786.42
594.68	552.37
594.84	493.85
594.99	280.86
595.15	294.91
595.31	276.18
595.47	304.27
595.62	299.59
595.78	238.73
595.94	170.86
596.10	320.65
596.25	269.16
596.41	231.71
596.57	229.37
596.73	280.86
596.88	245.76
597.04	402.57
597.20	407.25
597.36	454.06
597.51	390.87
597.67	315.97
597.83	355.76
597.99	339.38
598.14	250.44
598.30	332.36
598.46	252.78
598.61	266.82
598.77	290.23
598.93	306.61
599.09	304.27
599.24	264.48
599.40	269.16
599.56	250.44
599.71	276.18
599.87	257.46
600.03	243.42
600.18	327.68
600.34	243.42
600.50	208.31
600.65	184.90
600.81	264.48
600.97	308.95
601.12	205.97
601.28	241.08
601.44	182.56
601.59	285.55
601.75	161.50
601.91	208.31
602.06	278.52
602.22	337.04
602.37	294.91
602.53	362.78
602.69	521.94
602.84	421.30
603.00	409.59
603.16	407.25
603.31	294.91
603.47	311.29
603.62	203.63
603.78	346.40
603.94	236.39
604.09	304.27
604.25	252.78
604.40	285.55
604.56	250.44
604.71	311.29
604.87	245.76
605.03	318.31
605.18	266.82
605.34	372.15
605.49	212.99
605.65	234.05
605.80	234.05
605.96	194.26
606.12	203.63
606.27	332.36
606.43	278.52
606.58	334.70
606.74	306.61
606.89	578.11
607.05	821.53
607.20	1050.90
607.36	915.15
607.51	657.69
607.67	475.13
607.82	416.62
607.98	325.33
608.13	358.10
608.29	320.65
608.44	257.46
608.60	241.08
608.75	266.82
608.91	409.59
609.06	842.59
609.22	1350.49
609.37	1619.65
609.53	1401.98
609.68	1071.97
609.84	837.91
609.99	674.07
610.15	573.43
610.30	447.04
610.46	512.58
610.61	638.97
610.76	723.23
