SpectraSuite Data File
++++++++++++++++++++++++++++++++++++
Date: Fri Oct 04 11:34:07 GMT-05:00 2013
User: price-jones
Dark Spectrum Present: No
Reference Spectrum Present: No
Number of Sampled Component Spectra: 1
Spectrometers: USB2+H05261
Integration Time (usec): 100000 (USB2+H05261)
Spectra Averaged: 1 (USB2+H05261)
Boxcar Smoothing: 0 (USB2+H05261)
Correct for Electrical Dark: No (USB2+H05261)
Strobe/Lamp Enabled: No (USB2+H05261)
Correct for Detector Non-linearity: No (USB2+H05261)
Correct for Stray Light: No (USB2+H05261)
Number of Pixels in Processed Spectrum: 2048
>>>>>Begin Processed Spectral Data<<<<<
365.73	49.15
365.92	49.15
366.12	49.15
366.32	0.00
366.52	4.68
366.72	112.35
366.91	30.43
367.11	0.00
367.31	0.00
367.51	0.00
367.70	0.00
367.90	0.00
368.10	0.00
368.30	32.77
368.49	23.41
368.69	11.70
368.89	0.00
369.09	0.00
369.28	2.34
369.48	0.00
369.68	16.38
369.87	9.36
370.07	16.38
370.27	25.75
370.47	72.56
370.66	63.19
370.86	156.82
371.06	105.32
371.25	53.83
371.45	119.37
371.65	138.09
371.84	138.09
372.04	74.90
372.24	70.22
372.44	110.01
372.63	124.05
372.83	198.95
373.03	100.64
373.22	140.43
373.42	170.86
373.62	95.96
373.81	205.97
374.01	168.52
374.21	152.13
374.40	156.82
374.60	152.13
374.79	159.16
374.99	124.05
375.19	133.41
375.38	81.92
375.58	142.77
375.78	152.13
375.97	140.43
376.17	262.14
376.37	210.65
376.56	175.54
376.76	88.94
376.95	114.69
377.15	163.84
377.35	149.79
377.54	161.50
377.74	77.24
377.93	107.66
378.13	124.05
378.33	212.99
378.52	161.50
378.72	88.94
378.91	42.13
379.11	79.58
379.31	138.09
379.50	79.58
379.70	161.50
379.89	191.92
380.09	147.45
380.28	98.30
380.48	79.58
380.68	154.48
380.87	60.85
381.07	77.24
381.26	217.67
381.46	79.58
381.65	131.07
381.85	152.13
382.04	142.77
382.24	145.11
382.43	91.28
382.63	91.28
382.83	138.09
383.02	112.35
383.22	128.73
383.41	128.73
383.61	177.88
383.80	154.48
384.00	86.60
384.19	107.66
384.39	191.92
384.58	131.07
384.78	154.48
384.97	138.09
385.17	147.45
385.36	95.96
385.56	156.82
385.75	142.77
385.95	154.48
386.14	93.62
386.34	156.82
386.53	126.39
386.72	140.43
386.92	161.50
387.11	217.67
387.31	133.41
387.50	105.32
387.70	65.54
387.89	121.71
388.09	208.31
388.28	170.86
388.48	98.30
388.67	175.54
388.86	93.62
389.06	142.77
389.25	140.43
389.45	95.96
389.64	173.20
389.84	170.86
390.03	189.58
390.22	119.37
390.42	161.50
390.61	138.09
390.81	156.82
391.00	159.16
391.19	161.50
391.39	114.69
391.58	114.69
391.78	182.56
391.97	147.45
392.16	131.07
392.36	133.41
392.55	175.54
392.75	131.07
392.94	119.37
393.13	189.58
393.33	63.19
393.52	131.07
393.71	184.90
393.91	128.73
394.10	91.28
394.29	126.39
394.49	117.03
394.68	180.22
394.88	196.60
395.07	161.50
395.26	138.09
395.46	203.63
395.65	212.99
395.84	105.32
396.04	229.37
396.23	126.39
396.42	60.85
396.62	131.07
396.81	142.77
397.00	156.82
397.19	175.54
397.39	128.73
397.58	259.80
397.77	140.43
397.97	149.79
398.16	184.90
398.35	147.45
398.55	93.62
398.74	124.05
398.93	126.39
399.12	140.43
399.32	173.20
399.51	184.90
399.70	149.79
399.90	166.18
400.09	156.82
400.28	187.24
400.47	147.45
400.67	203.63
400.86	220.01
401.05	163.84
401.24	222.35
401.44	138.09
401.63	100.64
401.82	163.84
402.01	112.35
402.21	135.75
402.40	182.56
402.59	196.60
402.78	121.71
402.97	154.48
403.17	100.64
403.36	131.07
403.55	126.39
403.74	191.92
403.93	159.16
404.13	273.84
404.32	173.20
404.51	145.11
404.70	184.90
404.89	182.56
405.09	229.37
405.28	145.11
405.47	124.05
405.66	124.05
405.85	161.50
406.05	149.79
406.24	170.86
406.43	56.17
406.62	215.33
406.81	236.39
407.00	210.65
407.20	114.69
407.39	163.84
407.58	149.79
407.77	170.86
407.96	133.41
408.15	180.22
408.34	203.63
408.54	264.48
408.73	142.77
408.92	70.22
409.11	184.90
409.30	159.16
409.49	196.60
409.68	182.56
409.87	187.24
410.07	257.46
410.26	175.54
410.45	156.82
410.64	161.50
410.83	102.98
411.02	142.77
411.21	121.71
411.40	147.45
411.59	142.77
411.78	147.45
411.98	177.88
412.17	121.71
412.36	119.37
412.55	184.90
412.74	161.50
412.93	248.10
413.12	105.32
413.31	208.31
413.50	182.56
413.69	77.24
413.88	133.41
414.07	212.99
414.26	212.99
414.45	42.13
414.64	201.29
414.83	156.82
415.02	142.77
415.22	112.35
415.41	180.22
415.60	159.16
415.79	189.58
415.98	100.64
416.17	189.58
416.36	149.79
416.55	173.20
416.74	203.63
416.93	184.90
417.12	212.99
417.31	205.97
417.50	88.94
417.69	208.31
417.88	203.63
418.07	126.39
418.26	154.48
418.45	177.88
418.64	184.90
418.83	170.86
419.02	187.24
419.21	98.30
419.39	227.03
419.58	187.24
419.77	156.82
419.96	203.63
420.15	145.11
420.34	149.79
420.53	163.84
420.72	175.54
420.91	161.50
421.10	126.39
421.29	95.96
421.48	269.16
421.67	245.76
421.86	140.43
422.05	161.50
422.24	163.84
422.43	175.54
422.61	117.03
422.80	177.88
422.99	175.54
423.18	241.08
423.37	231.71
423.56	175.54
423.75	95.96
423.94	138.09
424.13	182.56
424.32	119.37
424.50	227.03
424.69	250.44
424.88	105.32
425.07	215.33
425.26	271.50
425.45	177.88
425.64	184.90
425.83	175.54
426.01	152.13
426.20	182.56
426.39	215.33
426.58	131.07
426.77	180.22
426.96	205.97
427.15	177.88
427.33	145.11
427.52	175.54
427.71	161.50
427.90	166.18
428.09	182.56
428.28	149.79
428.46	152.13
428.65	154.48
428.84	198.95
429.03	217.67
429.22	91.28
429.40	142.77
429.59	180.22
429.78	175.54
429.97	177.88
430.16	152.13
430.34	128.73
430.53	196.60
430.72	170.86
430.91	154.48
431.10	163.84
431.28	163.84
431.47	147.45
431.66	175.54
431.85	105.32
432.03	114.69
432.22	147.45
432.41	121.71
432.60	168.52
432.79	201.29
432.97	189.58
433.16	117.03
433.35	173.20
433.54	142.77
433.72	194.26
433.91	173.20
434.10	121.71
434.28	210.65
434.47	189.58
434.66	198.95
434.85	159.16
435.03	189.58
435.22	320.65
435.41	358.10
435.59	327.68
435.78	351.08
435.97	212.99
436.16	126.39
436.34	135.75
436.53	201.29
436.72	177.88
436.90	163.84
437.09	177.88
437.28	147.45
437.46	124.05
437.65	203.63
437.84	163.84
438.02	184.90
438.21	241.08
438.40	170.86
438.58	203.63
438.77	105.32
438.96	147.45
439.14	173.20
439.33	114.69
439.52	182.56
439.70	128.73
439.89	177.88
440.08	145.11
440.26	173.20
440.45	175.54
440.63	121.71
440.82	142.77
441.01	238.73
441.19	205.97
441.38	140.43
441.57	187.24
441.75	217.67
441.94	175.54
442.12	102.98
442.31	170.86
442.50	145.11
442.68	170.86
442.87	210.65
443.05	201.29
443.24	173.20
443.43	222.35
443.61	163.84
443.80	285.55
443.98	138.09
444.17	124.05
444.35	173.20
444.54	128.73
444.73	236.39
444.91	212.99
445.10	159.16
445.28	102.98
445.47	154.48
445.65	184.90
445.84	173.20
446.02	191.92
446.21	147.45
446.39	203.63
446.58	149.79
446.77	248.10
446.95	257.46
447.14	170.86
447.32	236.39
447.51	194.26
447.69	133.41
447.88	257.46
448.06	280.86
448.25	222.35
448.43	81.92
448.62	149.79
448.80	182.56
448.99	212.99
449.17	220.01
449.36	198.95
449.54	212.99
449.73	102.98
449.91	255.12
450.10	161.50
450.28	217.67
450.46	173.20
450.65	170.86
450.83	166.18
451.02	238.73
451.20	243.42
451.39	128.73
451.57	196.60
451.76	215.33
451.94	184.90
452.13	196.60
452.31	210.65
452.49	196.60
452.68	131.07
452.86	124.05
453.05	238.73
453.23	173.20
453.42	117.03
453.60	147.45
453.78	182.56
453.97	161.50
454.15	168.52
454.34	187.24
454.52	212.99
454.70	187.24
454.89	215.33
455.07	187.24
455.26	210.65
455.44	222.35
455.62	182.56
455.81	105.32
455.99	135.75
456.17	210.65
456.36	224.69
456.54	140.43
456.73	198.95
456.91	187.24
457.09	205.97
457.28	266.82
457.46	152.13
457.64	236.39
457.83	166.18
458.01	173.20
458.19	168.52
458.38	252.78
458.56	196.60
458.74	168.52
458.93	234.05
459.11	215.33
459.29	128.73
459.48	224.69
459.66	266.82
459.84	208.31
460.03	266.82
460.21	191.92
460.39	189.58
460.57	191.92
460.76	229.37
460.94	166.18
461.12	231.71
461.31	159.16
461.49	208.31
461.67	180.22
461.85	177.88
462.04	149.79
462.22	660.03
462.40	255.12
462.59	259.80
462.77	159.16
462.95	227.03
463.13	156.82
463.32	229.37
463.50	147.45
463.68	220.01
463.86	152.13
464.05	201.29
464.23	236.39
464.41	245.76
464.59	198.95
464.78	128.73
464.96	163.84
465.14	184.90
465.32	210.65
465.50	170.86
465.69	196.60
465.87	156.82
466.05	149.79
466.23	140.43
466.41	187.24
466.60	159.16
466.78	220.01
466.96	212.99
467.14	93.62
467.32	119.37
467.51	229.37
467.69	198.95
467.87	194.26
468.05	182.56
468.23	243.42
468.41	147.45
468.60	194.26
468.78	175.54
468.96	159.16
469.14	236.39
469.32	177.88
469.50	238.73
469.69	182.56
469.87	224.69
470.05	161.50
470.23	220.01
470.41	145.11
470.59	177.88
470.77	224.69
470.95	131.07
471.14	159.16
471.32	194.26
471.50	198.95
471.68	166.18
471.86	210.65
472.04	145.11
472.22	198.95
472.40	140.43
472.58	156.82
472.77	74.90
472.95	220.01
473.13	276.18
473.31	238.73
473.49	166.18
473.67	189.58
473.85	180.22
474.03	234.05
474.21	168.52
474.39	285.55
474.57	159.16
474.75	243.42
474.93	131.07
475.12	283.20
475.30	220.01
475.48	189.58
475.66	215.33
475.84	222.35
476.02	248.10
476.20	236.39
476.38	245.76
476.56	290.23
476.74	215.33
476.92	177.88
477.10	177.88
477.28	245.76
477.46	142.77
477.64	135.75
477.82	154.48
478.00	163.84
478.18	196.60
478.36	238.73
478.54	154.48
478.72	170.86
478.90	257.46
479.08	241.08
479.26	243.42
479.44	121.71
479.62	114.69
479.80	149.79
479.98	140.43
480.16	201.29
480.34	191.92
480.52	128.73
480.70	224.69
480.88	180.22
481.06	234.05
481.24	245.76
481.41	212.99
481.59	203.63
481.77	222.35
481.95	184.90
482.13	196.60
482.31	215.33
482.49	208.31
482.67	234.05
482.85	229.37
483.03	196.60
483.21	283.20
483.39	227.03
483.57	180.22
483.74	255.12
483.92	229.37
484.10	187.24
484.28	255.12
484.46	322.99
484.64	224.69
484.82	184.90
485.00	177.88
485.18	210.65
485.35	189.58
485.53	266.82
485.71	229.37
485.89	175.54
486.07	231.71
486.25	283.20
486.43	208.31
486.61	259.80
486.78	280.86
486.96	227.03
487.14	217.67
487.32	220.01
487.50	189.58
487.68	203.63
487.85	187.24
488.03	322.99
488.21	273.84
488.39	215.33
488.57	252.78
488.75	196.60
488.92	589.82
489.10	227.03
489.28	283.20
489.46	266.82
489.64	259.80
489.81	297.25
489.99	304.27
490.17	177.88
490.35	271.50
490.53	175.54
490.70	238.73
490.88	299.59
491.06	341.72
491.24	250.44
491.41	266.82
491.59	243.42
491.77	250.44
491.95	215.33
492.13	234.05
492.30	212.99
492.48	236.39
492.66	278.52
492.84	203.63
493.01	208.31
493.19	187.24
493.37	266.82
493.54	351.08
493.72	264.48
493.90	163.84
494.08	243.42
494.25	262.14
494.43	301.93
494.61	301.93
494.79	177.88
494.96	236.39
495.14	308.95
495.32	138.09
495.49	294.91
495.67	220.01
495.85	259.80
496.02	248.10
496.20	220.01
496.38	229.37
496.55	227.03
496.73	234.05
496.91	210.65
497.09	292.57
497.26	227.03
497.44	161.50
497.62	201.29
497.79	266.82
497.97	243.42
498.14	238.73
498.32	250.44
498.50	231.71
498.67	161.50
498.85	262.14
499.03	217.67
499.20	280.86
499.38	262.14
499.56	304.27
499.73	229.37
499.91	248.10
500.08	262.14
500.26	203.63
500.44	224.69
500.61	210.65
500.79	231.71
500.97	264.48
501.14	280.86
501.32	234.05
501.49	252.78
501.67	255.12
501.84	257.46
502.02	198.95
502.20	238.73
502.37	278.52
502.55	231.71
502.72	198.95
502.90	285.55
503.07	201.29
503.25	229.37
503.43	276.18
503.60	257.46
503.78	205.97
503.95	283.20
504.13	215.33
504.30	269.16
504.48	297.25
504.65	236.39
504.83	241.08
505.01	271.50
505.18	245.76
505.36	245.76
505.53	224.69
505.71	290.23
505.88	308.95
506.06	264.48
506.23	215.33
506.41	266.82
506.58	220.01
506.76	273.84
506.93	173.20
507.11	297.25
507.28	276.18
507.46	248.10
507.63	227.03
507.81	227.03
507.98	234.05
508.16	234.05
508.33	234.05
508.50	273.84
508.68	241.08
508.85	299.59
509.03	308.95
509.20	224.69
509.38	222.35
509.55	285.55
509.73	290.23
509.90	269.16
510.08	194.26
510.25	334.70
510.42	236.39
510.60	285.55
510.77	304.27
510.95	311.29
511.12	243.42
511.30	180.22
511.47	250.44
511.64	341.72
511.82	255.12
511.99	290.23
512.17	215.33
512.34	241.08
512.51	229.37
512.69	250.44
512.86	259.80
513.04	227.03
513.21	203.63
513.38	187.24
513.56	245.76
513.73	250.44
513.90	227.03
514.08	220.01
514.25	264.48
514.43	290.23
514.60	231.71
514.77	234.05
514.95	159.16
515.12	262.14
515.29	264.48
515.47	276.18
515.64	236.39
515.81	290.23
515.99	245.76
516.16	220.01
516.33	243.42
516.51	280.86
516.68	245.76
516.85	227.03
517.03	248.10
517.20	311.29
517.37	252.78
517.54	327.68
517.72	205.97
517.89	203.63
518.06	243.42
518.24	266.82
518.41	297.25
518.58	243.42
518.75	166.18
518.93	191.92
519.10	245.76
519.27	203.63
519.45	248.10
519.62	283.20
519.79	191.92
519.96	327.68
520.14	276.18
520.31	229.37
520.48	234.05
520.65	299.59
520.83	234.05
521.00	266.82
521.17	248.10
521.34	231.71
521.52	262.14
521.69	297.25
521.86	248.10
522.03	264.48
522.20	294.91
522.38	238.73
522.55	278.52
522.72	156.82
522.89	285.55
523.07	365.12
523.24	243.42
523.41	262.14
523.58	304.27
523.75	287.89
523.92	292.57
524.10	285.55
524.27	224.69
524.44	320.65
524.61	287.89
524.78	227.03
524.96	259.80
525.13	231.71
525.30	294.91
525.47	362.78
525.64	231.71
525.81	196.60
525.98	252.78
526.16	276.18
526.33	205.97
526.50	250.44
526.67	208.31
526.84	290.23
527.01	210.65
527.18	229.37
527.36	255.12
527.53	194.26
527.70	201.29
527.87	236.39
528.04	243.42
528.21	245.76
528.38	276.18
528.55	271.50
528.72	294.91
528.89	311.29
529.07	231.71
529.24	224.69
529.41	262.14
529.58	245.76
529.75	180.22
529.92	280.86
530.09	236.39
530.26	285.55
530.43	259.80
530.60	280.86
530.77	271.50
530.94	313.63
531.11	271.50
531.28	285.55
531.46	229.37
531.63	301.93
531.80	301.93
531.97	311.29
532.14	287.89
532.31	180.22
532.48	262.14
532.65	327.68
532.82	205.97
532.99	308.95
533.16	304.27
533.33	248.10
533.50	283.20
533.67	283.20
533.84	224.69
534.01	231.71
534.18	248.10
534.35	234.05
534.52	250.44
534.69	308.95
534.86	294.91
535.03	285.55
535.20	259.80
535.37	224.69
535.54	264.48
535.71	320.65
535.88	227.03
536.05	290.23
536.22	194.26
536.38	236.39
536.55	217.67
536.72	315.97
536.89	271.50
537.06	255.12
537.23	311.29
537.40	318.31
537.57	248.10
537.74	339.38
537.91	351.08
538.08	283.20
538.25	327.68
538.42	259.80
538.59	285.55
538.75	383.85
538.92	369.80
539.09	397.89
539.26	299.59
539.43	353.42
539.60	367.46
539.77	369.80
539.94	379.17
540.11	250.44
540.28	360.44
540.44	414.27
540.61	411.93
540.78	395.55
540.95	423.64
541.12	456.40
541.29	428.32
541.46	475.13
541.62	524.28
541.79	465.77
541.96	425.98
542.13	456.40
542.30	386.19
542.47	395.55
542.63	407.25
542.80	528.96
542.97	458.74
543.14	404.91
543.31	505.56
543.48	482.15
543.64	372.15
543.81	416.62
543.98	332.36
544.15	477.47
544.32	440.02
544.48	393.21
544.65	381.51
544.82	360.44
544.99	437.68
545.16	479.81
545.32	493.85
545.49	671.73
545.66	674.07
545.83	748.97
546.00	706.84
546.16	526.62
546.33	486.83
546.50	435.34
546.67	437.68
546.83	400.23
547.00	360.44
547.17	381.51
547.34	351.08
547.50	381.51
547.67	365.12
547.84	304.27
548.00	318.31
548.17	402.57
548.34	320.65
548.51	435.34
548.67	348.74
548.84	327.68
549.01	348.74
549.18	393.21
549.34	355.76
549.51	320.65
549.68	386.19
549.84	374.49
550.01	287.89
550.18	411.93
550.34	418.96
550.51	369.80
550.68	376.83
550.84	243.42
551.01	224.69
551.18	264.48
551.34	369.80
551.51	220.01
551.68	194.26
551.84	292.57
552.01	248.10
552.18	299.59
552.34	252.78
552.51	320.65
552.68	344.06
552.84	341.72
553.01	269.16
553.18	381.51
553.34	255.12
553.51	278.52
553.67	224.69
553.84	306.61
554.01	325.33
554.17	332.36
554.34	208.31
554.51	276.18
554.67	252.78
554.84	278.52
555.00	266.82
555.17	290.23
555.33	266.82
555.50	285.55
555.67	252.78
555.83	245.76
556.00	290.23
556.16	400.23
556.33	229.37
556.50	175.54
556.66	212.99
556.83	231.71
556.99	236.39
557.16	266.82
557.32	311.29
557.49	290.23
557.65	227.03
557.82	217.67
557.98	149.79
558.15	243.42
558.32	231.71
558.48	138.09
558.65	222.35
558.81	266.82
558.98	173.20
559.14	189.58
559.31	271.50
559.47	229.37
559.64	175.54
559.80	238.73
559.97	231.71
560.13	271.50
560.30	210.65
560.46	311.29
560.63	320.65
560.79	266.82
560.96	273.84
561.12	266.82
561.29	294.91
561.45	205.97
561.61	301.93
561.78	283.20
561.94	273.84
562.11	203.63
562.27	306.61
562.44	283.20
562.60	259.80
562.77	187.24
562.93	353.42
563.10	320.65
563.26	278.52
563.42	236.39
563.59	264.48
563.75	238.73
563.92	248.10
564.08	252.78
564.24	210.65
564.41	187.24
564.57	173.20
564.74	273.84
564.90	285.55
565.07	271.50
565.23	315.97
565.39	264.48
565.56	269.16
565.72	234.05
565.88	276.18
566.05	276.18
566.21	236.39
566.38	220.01
566.54	227.03
566.70	236.39
566.87	299.59
567.03	243.42
567.19	283.20
567.36	201.29
567.52	236.39
567.68	248.10
567.85	273.84
568.01	269.16
568.17	290.23
568.34	170.86
568.50	264.48
568.66	224.69
568.83	348.74
568.99	198.95
569.15	283.20
569.32	212.99
569.48	243.42
569.64	201.29
569.81	273.84
569.97	238.73
570.13	278.52
570.30	229.37
570.46	285.55
570.62	220.01
570.78	269.16
570.95	243.42
571.11	243.42
571.27	306.61
571.43	245.76
571.60	283.20
571.76	229.37
571.92	252.78
572.09	203.63
572.25	154.48
572.41	311.29
572.57	264.48
572.74	257.46
572.90	205.97
573.06	332.36
573.22	259.80
573.38	276.18
573.55	257.46
573.71	210.65
573.87	259.80
574.03	182.56
574.20	250.44
574.36	283.20
574.52	255.12
574.68	259.80
574.84	355.76
575.01	236.39
575.17	255.12
575.33	245.76
575.49	250.44
575.65	318.31
575.82	294.91
575.98	395.55
576.14	322.99
576.30	332.36
576.46	313.63
576.62	355.76
576.79	325.33
576.95	409.59
577.11	308.95
577.27	250.44
577.43	301.93
577.59	294.91
577.75	304.27
577.92	217.67
578.08	182.56
578.24	227.03
578.40	297.25
578.56	332.36
578.72	337.04
578.88	353.42
579.04	306.61
579.21	322.99
579.37	262.14
579.53	290.23
579.69	301.93
579.85	299.59
580.01	283.20
580.17	243.42
580.33	215.33
580.49	283.20
580.65	224.69
580.82	285.55
580.98	290.23
581.14	229.37
581.30	285.55
581.46	308.95
581.62	313.63
581.78	341.72
581.94	341.72
582.10	252.78
582.26	259.80
582.42	262.14
582.58	269.16
582.74	320.65
582.90	297.25
583.06	306.61
583.22	264.48
583.38	334.70
583.54	318.31
583.70	337.04
583.86	379.17
584.02	358.10
584.18	330.02
584.34	332.36
584.50	369.80
584.66	1018.13
584.82	2050.31
584.98	3087.17
585.14	2951.42
585.30	2045.63
585.46	1348.15
585.62	856.64
585.78	554.71
585.94	353.42
586.10	245.76
586.26	248.10
586.42	290.23
586.58	290.23
586.74	222.35
586.90	386.19
587.06	348.74
587.22	294.91
587.38	313.63
587.54	330.02
587.70	353.42
587.86	414.27
588.02	521.94
588.18	388.53
588.34	311.29
588.49	269.16
588.65	304.27
588.81	257.46
588.97	227.03
589.13	238.73
589.29	217.67
589.45	224.69
589.61	264.48
589.77	306.61
589.93	264.48
590.08	273.84
590.24	229.37
590.40	264.48
590.56	231.71
590.72	306.61
590.88	259.80
591.04	262.14
591.20	283.20
591.35	313.63
591.51	280.86
591.67	257.46
591.83	257.46
591.99	229.37
592.15	294.91
592.31	346.40
592.46	386.19
592.62	308.95
592.78	318.31
592.94	255.12
593.10	379.17
593.26	255.12
593.41	308.95
593.57	278.52
593.73	243.42
593.89	358.10
594.05	463.43
594.20	603.86
594.36	629.60
594.52	435.34
594.68	374.49
594.84	325.33
594.99	276.18
595.15	238.73
595.31	327.68
595.47	276.18
595.62	243.42
595.78	248.10
595.94	194.26
596.10	308.95
596.25	238.73
596.41	201.29
596.57	255.12
596.73	229.37
596.88	306.61
597.04	257.46
597.20	257.46
597.36	348.74
597.51	238.73
597.67	262.14
597.83	290.23
597.99	259.80
598.14	243.42
598.30	262.14
598.46	292.57
598.61	353.42
598.77	264.48
598.93	175.54
599.09	271.50
599.24	306.61
599.40	224.69
599.56	290.23
599.71	248.10
599.87	271.50
600.03	283.20
600.18	259.80
600.34	332.36
600.50	311.29
600.65	245.76
600.81	245.76
600.97	280.86
601.12	285.55
601.28	332.36
601.44	299.59
601.59	245.76
601.75	283.20
601.91	278.52
602.06	189.58
602.22	386.19
602.37	308.95
602.53	404.91
602.69	400.23
602.84	294.91
603.00	271.50
603.16	255.12
603.31	234.05
603.47	276.18
603.62	184.90
603.78	285.55
603.94	294.91
604.09	315.97
604.25	236.39
604.40	266.82
604.56	189.58
604.71	187.24
604.87	262.14
605.03	292.57
605.18	332.36
605.34	252.78
605.49	259.80
605.65	311.29
605.80	250.44
605.96	245.76
606.12	231.71
606.27	280.86
606.43	290.23
606.58	308.95
606.74	280.86
606.89	367.46
607.05	592.16
607.20	636.63
607.36	512.58
607.51	435.34
607.67	409.59
607.82	339.38
607.98	348.74
608.13	292.57
608.29	285.55
608.44	283.20
608.60	264.48
608.75	217.67
608.91	379.17
609.06	437.68
609.22	746.63
609.37	870.68
609.53	748.97
609.68	601.52
609.84	610.88
609.99	475.13
610.15	561.73
610.30	479.81
610.46	573.43
610.61	596.84
610.76	655.35
610.92	767.70
