SpectraSuite Data File
++++++++++++++++++++++++++++++++++++
Date: Fri Oct 04 11:33:45 GMT-05:00 2013
User: price-jones
Dark Spectrum Present: No
Reference Spectrum Present: No
Number of Sampled Component Spectra: 1
Spectrometers: USB2+H05261
Integration Time (usec): 100000 (USB2+H05261)
Spectra Averaged: 1 (USB2+H05261)
Boxcar Smoothing: 0 (USB2+H05261)
Correct for Electrical Dark: No (USB2+H05261)
Strobe/Lamp Enabled: No (USB2+H05261)
Correct for Detector Non-linearity: No (USB2+H05261)
Correct for Stray Light: No (USB2+H05261)
Number of Pixels in Processed Spectrum: 2048
>>>>>Begin Processed Spectral Data<<<<<
365.73	98.30
365.92	98.30
366.12	98.30
366.32	44.47
366.52	0.00
366.72	21.06
366.91	0.00
367.11	0.00
367.31	0.00
367.51	14.04
367.70	0.00
367.90	16.38
368.10	0.00
368.30	0.00
368.49	0.00
368.69	0.00
368.89	53.83
369.09	0.00
369.28	0.00
369.48	9.36
369.68	28.09
369.87	77.24
370.07	0.00
370.27	0.00
370.47	56.17
370.66	74.90
370.86	28.09
371.06	168.52
371.25	142.77
371.45	100.64
371.65	117.03
371.84	93.62
372.04	67.88
372.24	119.37
372.44	140.43
372.63	67.88
372.83	220.01
373.03	182.56
373.22	117.03
373.42	72.56
373.62	156.82
373.81	229.37
374.01	173.20
374.21	201.29
374.40	166.18
374.60	224.69
374.79	147.45
374.99	133.41
375.19	135.75
375.38	107.66
375.58	126.39
375.78	163.84
375.97	112.35
376.17	184.90
376.37	168.52
376.56	163.84
376.76	180.22
376.95	168.52
377.15	180.22
377.35	203.63
377.54	187.24
377.74	191.92
377.93	147.45
378.13	126.39
378.33	140.43
378.52	147.45
378.72	189.58
378.91	156.82
379.11	156.82
379.31	102.98
379.50	30.43
379.70	147.45
379.89	95.96
380.09	126.39
380.28	63.19
380.48	159.16
380.68	156.82
380.87	156.82
381.07	63.19
381.26	142.77
381.46	117.03
381.65	60.85
381.85	142.77
382.04	84.26
382.24	173.20
382.43	149.79
382.63	147.45
382.83	154.48
383.02	124.05
383.22	231.71
383.41	98.30
383.61	121.71
383.80	128.73
384.00	175.54
384.19	100.64
384.39	145.11
384.58	72.56
384.78	149.79
384.97	114.69
385.17	152.13
385.36	142.77
385.56	56.17
385.75	145.11
385.95	128.73
386.14	142.77
386.34	168.52
386.53	86.60
386.72	98.30
386.92	91.28
387.11	124.05
387.31	112.35
387.50	163.84
387.70	135.75
387.89	177.88
388.09	184.90
388.28	135.75
388.48	119.37
388.67	93.62
388.86	142.77
389.06	142.77
389.25	166.18
389.45	107.66
389.64	159.16
389.84	177.88
390.03	166.18
390.22	149.79
390.42	163.84
390.61	128.73
390.81	126.39
391.00	168.52
391.19	276.18
391.39	180.22
391.58	166.18
391.78	142.77
391.97	138.09
392.16	140.43
392.36	70.22
392.55	229.37
392.75	266.82
392.94	133.41
393.13	154.48
393.33	98.30
393.52	161.50
393.71	198.95
393.91	126.39
394.10	128.73
394.29	203.63
394.49	161.50
394.68	152.13
394.88	175.54
395.07	149.79
395.26	133.41
395.46	259.80
395.65	187.24
395.84	152.13
396.04	257.46
396.23	152.13
396.42	79.58
396.62	168.52
396.81	93.62
397.00	231.71
397.19	135.75
397.39	131.07
397.58	173.20
397.77	128.73
397.97	131.07
398.16	117.03
398.35	79.58
398.55	133.41
398.74	95.96
398.93	135.75
399.12	145.11
399.32	156.82
399.51	191.92
399.70	124.05
399.90	124.05
400.09	149.79
400.28	119.37
400.47	138.09
400.67	140.43
400.86	168.52
401.05	91.28
401.24	196.60
401.44	128.73
401.63	72.56
401.82	166.18
402.01	173.20
402.21	124.05
402.40	208.31
402.59	163.84
402.78	140.43
402.97	119.37
403.17	184.90
403.36	187.24
403.55	114.69
403.74	147.45
403.93	203.63
404.13	252.78
404.32	224.69
404.51	126.39
404.70	203.63
404.89	128.73
405.09	168.52
405.28	182.56
405.47	135.75
405.66	126.39
405.85	128.73
406.05	98.30
406.24	236.39
406.43	159.16
406.62	166.18
406.81	163.84
407.00	159.16
407.20	145.11
407.39	102.98
407.58	191.92
407.77	243.42
407.96	168.52
408.15	173.20
408.34	175.54
408.54	175.54
408.73	119.37
408.92	147.45
409.11	114.69
409.30	194.26
409.49	152.13
409.68	149.79
409.87	173.20
410.07	175.54
410.26	149.79
410.45	91.28
410.64	131.07
410.83	147.45
411.02	159.16
411.21	140.43
411.40	70.22
411.59	114.69
411.78	133.41
411.98	217.67
412.17	25.75
412.36	114.69
412.55	159.16
412.74	131.07
412.93	234.05
413.12	166.18
413.31	182.56
413.50	177.88
413.69	163.84
413.88	201.29
414.07	191.92
414.26	278.52
414.45	119.37
414.64	121.71
414.83	175.54
415.02	191.92
415.22	220.01
415.41	161.50
415.60	198.95
415.79	166.18
415.98	166.18
416.17	187.24
416.36	177.88
416.55	198.95
416.74	131.07
416.93	224.69
417.12	196.60
417.31	170.86
417.50	191.92
417.69	299.59
417.88	250.44
418.07	227.03
418.26	220.01
418.45	210.65
418.64	313.63
418.83	241.08
419.02	220.01
419.21	297.25
419.39	208.31
419.58	252.78
419.77	184.90
419.96	201.29
420.15	184.90
420.34	135.75
420.53	145.11
420.72	177.88
420.91	161.50
421.10	173.20
421.29	170.86
421.48	149.79
421.67	196.60
421.86	184.90
422.05	184.90
422.24	175.54
422.43	166.18
422.61	131.07
422.80	126.39
422.99	63.19
423.18	154.48
423.37	161.50
423.56	201.29
423.75	220.01
423.94	187.24
424.13	112.35
424.32	117.03
424.50	102.98
424.69	182.56
424.88	241.08
425.07	222.35
425.26	208.31
425.45	259.80
425.64	285.55
425.83	313.63
426.01	215.33
426.20	203.63
426.39	229.37
426.58	191.92
426.77	220.01
426.96	166.18
427.15	241.08
427.33	191.92
427.52	210.65
427.71	149.79
427.90	161.50
428.09	95.96
428.28	107.66
428.46	149.79
428.65	152.13
428.84	133.41
429.03	140.43
429.22	163.84
429.40	133.41
429.59	131.07
429.78	280.86
429.97	173.20
430.16	173.20
430.34	166.18
430.53	205.97
430.72	170.86
430.91	163.84
431.10	91.28
431.28	210.65
431.47	203.63
431.66	229.37
431.85	128.73
432.03	236.39
432.22	184.90
432.41	220.01
432.60	229.37
432.79	292.57
432.97	372.15
433.16	444.70
433.35	327.68
433.54	301.93
433.72	205.97
433.91	255.12
434.10	255.12
434.28	217.67
434.47	208.31
434.66	205.97
434.85	191.92
435.03	175.54
435.22	339.38
435.41	358.10
435.59	409.59
435.78	250.44
435.97	191.92
436.16	184.90
436.34	187.24
436.53	163.84
436.72	245.76
436.90	187.24
437.09	145.11
437.28	194.26
437.46	196.60
437.65	145.11
437.84	175.54
438.02	173.20
438.21	154.48
438.40	145.11
438.58	191.92
438.77	147.45
438.96	180.22
439.14	166.18
439.33	173.20
439.52	210.65
439.70	152.13
439.89	234.05
440.08	255.12
440.26	241.08
440.45	266.82
440.63	140.43
440.82	294.91
441.01	196.60
441.19	212.99
441.38	159.16
441.57	189.58
441.75	184.90
441.94	161.50
442.12	159.16
442.31	255.12
442.50	187.24
442.68	241.08
442.87	147.45
443.05	177.88
443.24	224.69
443.43	147.45
443.61	215.33
443.80	234.05
443.98	152.13
444.17	191.92
444.35	168.52
444.54	173.20
444.73	119.37
444.91	212.99
445.10	149.79
445.28	194.26
445.47	212.99
445.65	142.77
445.84	189.58
446.02	156.82
446.21	145.11
446.39	222.35
446.58	215.33
446.77	182.56
446.95	208.31
447.14	250.44
447.32	273.84
447.51	255.12
447.69	138.09
447.88	238.73
448.06	189.58
448.25	191.92
448.43	175.54
448.62	215.33
448.80	184.90
448.99	205.97
449.17	196.60
449.36	166.18
449.54	238.73
449.73	170.86
449.91	269.16
450.10	126.39
450.28	287.89
450.46	159.16
450.65	184.90
450.83	175.54
451.02	220.01
451.20	196.60
451.39	224.69
451.57	170.86
451.76	262.14
451.94	241.08
452.13	227.03
452.31	212.99
452.49	205.97
452.68	140.43
452.86	173.20
453.05	229.37
453.23	224.69
453.42	194.26
453.60	152.13
453.78	208.31
453.97	220.01
454.15	222.35
454.34	131.07
454.52	156.82
454.70	210.65
454.89	201.29
455.07	220.01
455.26	224.69
455.44	189.58
455.62	88.94
455.81	154.48
455.99	180.22
456.17	184.90
456.36	212.99
456.54	231.71
456.73	180.22
456.91	180.22
457.09	229.37
457.28	126.39
457.46	149.79
457.64	187.24
457.83	161.50
458.01	236.39
458.19	168.52
458.38	147.45
458.56	189.58
458.74	191.92
458.93	215.33
459.11	187.24
459.29	72.56
459.48	201.29
459.66	170.86
459.84	180.22
460.03	287.89
460.21	163.84
460.39	149.79
460.57	210.65
460.76	201.29
460.94	180.22
461.12	196.60
461.31	283.20
461.49	180.22
461.67	102.98
461.85	168.52
462.04	114.69
462.22	617.90
462.40	203.63
462.59	205.97
462.77	154.48
462.95	215.33
463.13	215.33
463.32	236.39
463.50	212.99
463.68	220.01
463.86	198.95
464.05	145.11
464.23	220.01
464.41	248.10
464.59	173.20
464.78	119.37
464.96	177.88
465.14	224.69
465.32	208.31
465.50	243.42
465.69	189.58
465.87	159.16
466.05	248.10
466.23	140.43
466.41	163.84
466.60	299.59
466.78	205.97
466.96	220.01
467.14	241.08
467.32	243.42
467.51	203.63
467.69	189.58
467.87	138.09
468.05	217.67
468.23	173.20
468.41	180.22
468.60	182.56
468.78	227.03
468.96	259.80
469.14	250.44
469.32	170.86
469.50	201.29
469.69	271.50
469.87	196.60
470.05	210.65
470.23	201.29
470.41	229.37
470.59	198.95
470.77	194.26
470.95	252.78
471.14	250.44
471.32	212.99
471.50	245.76
471.68	255.12
471.86	245.76
472.04	201.29
472.22	203.63
472.40	135.75
472.58	227.03
472.77	156.82
472.95	184.90
473.13	351.08
473.31	128.73
473.49	227.03
473.67	236.39
473.85	203.63
474.03	210.65
474.21	205.97
474.39	234.05
474.57	220.01
474.75	166.18
474.93	245.76
475.12	220.01
475.30	184.90
475.48	208.31
475.66	180.22
475.84	203.63
476.02	285.55
476.20	224.69
476.38	152.13
476.56	203.63
476.74	159.16
476.92	173.20
477.10	266.82
477.28	189.58
477.46	138.09
477.64	241.08
477.82	252.78
478.00	208.31
478.18	203.63
478.36	194.26
478.54	241.08
478.72	210.65
478.90	145.11
479.08	205.97
479.26	203.63
479.44	224.69
479.62	205.97
479.80	187.24
479.98	217.67
480.16	191.92
480.34	271.50
480.52	250.44
480.70	201.29
480.88	205.97
481.06	189.58
481.24	81.92
481.41	222.35
481.59	236.39
481.77	156.82
481.95	271.50
482.13	184.90
482.31	205.97
482.49	234.05
482.67	224.69
482.85	166.18
483.03	201.29
483.21	252.78
483.39	222.35
483.57	187.24
483.74	306.61
483.92	205.97
484.10	278.52
484.28	161.50
484.46	320.65
484.64	252.78
484.82	182.56
485.00	227.03
485.18	248.10
485.35	203.63
485.53	238.73
485.71	294.91
485.89	159.16
486.07	224.69
486.25	224.69
486.43	257.46
486.61	241.08
486.78	163.84
486.96	285.55
487.14	238.73
487.32	264.48
487.50	269.16
487.68	252.78
487.85	236.39
488.03	229.37
488.21	269.16
488.39	248.10
488.57	301.93
488.75	227.03
488.92	409.59
489.10	184.90
489.28	285.55
489.46	264.48
489.64	322.99
489.81	248.10
489.99	234.05
490.17	255.12
490.35	269.16
490.53	259.80
490.70	290.23
490.88	217.67
491.06	250.44
491.24	322.99
491.41	266.82
491.59	222.35
491.77	280.86
491.95	191.92
492.13	159.16
492.30	294.91
492.48	255.12
492.66	278.52
492.84	196.60
493.01	301.93
493.19	278.52
493.37	311.29
493.54	311.29
493.72	262.14
493.90	205.97
494.08	205.97
494.25	212.99
494.43	243.42
494.61	259.80
494.79	243.42
494.96	269.16
495.14	262.14
495.32	269.16
495.49	212.99
495.67	306.61
495.85	187.24
496.02	276.18
496.20	280.86
496.38	299.59
496.55	255.12
496.73	231.71
496.91	255.12
497.09	304.27
497.26	318.31
497.44	273.84
497.62	217.67
497.79	255.12
497.97	257.46
498.14	278.52
498.32	269.16
498.50	173.20
498.67	227.03
498.85	234.05
499.03	210.65
499.20	229.37
499.38	257.46
499.56	217.67
499.73	285.55
499.91	311.29
500.08	245.76
500.26	222.35
500.44	250.44
500.61	299.59
500.79	285.55
500.97	304.27
501.14	234.05
501.32	220.01
501.49	355.76
501.67	201.29
501.84	271.50
502.02	294.91
502.20	276.18
502.37	236.39
502.55	187.24
502.72	238.73
502.90	318.31
503.07	271.50
503.25	365.12
503.43	304.27
503.60	257.46
503.78	290.23
503.95	236.39
504.13	227.03
504.30	287.89
504.48	250.44
504.65	290.23
504.83	243.42
505.01	222.35
505.18	245.76
505.36	262.14
505.53	243.42
505.71	243.42
505.88	264.48
506.06	273.84
506.23	236.39
506.41	161.50
506.58	278.52
506.76	259.80
506.93	285.55
507.11	318.31
507.28	238.73
507.46	168.52
507.63	250.44
507.81	266.82
507.98	304.27
508.16	269.16
508.33	280.86
508.50	231.71
508.68	299.59
508.85	252.78
509.03	294.91
509.20	238.73
509.38	238.73
509.55	297.25
509.73	252.78
509.90	346.40
510.08	189.58
510.25	196.60
510.42	241.08
510.60	308.95
510.77	262.14
510.95	308.95
511.12	255.12
511.30	308.95
511.47	388.53
511.64	313.63
511.82	278.52
511.99	245.76
512.17	187.24
512.34	217.67
512.51	306.61
512.69	318.31
512.86	322.99
513.04	227.03
513.21	205.97
513.38	297.25
513.56	271.50
513.73	210.65
513.90	252.78
514.08	215.33
514.25	215.33
514.43	273.84
514.60	290.23
514.77	266.82
514.95	280.86
515.12	306.61
515.29	301.93
515.47	283.20
515.64	269.16
515.81	297.25
515.99	234.05
516.16	320.65
516.33	255.12
516.51	278.52
516.68	180.22
516.85	212.99
517.03	287.89
517.20	290.23
517.37	264.48
517.54	294.91
517.72	341.72
517.89	194.26
518.06	194.26
518.24	301.93
518.41	301.93
518.58	264.48
518.75	234.05
518.93	301.93
519.10	266.82
519.27	259.80
519.45	311.29
519.62	339.38
519.79	297.25
519.96	257.46
520.14	327.68
520.31	292.57
520.48	271.50
520.65	318.31
520.83	311.29
521.00	255.12
521.17	285.55
521.34	283.20
521.52	294.91
521.69	243.42
521.86	252.78
522.03	308.95
522.20	273.84
522.38	290.23
522.55	264.48
522.72	250.44
522.89	248.10
523.07	322.99
523.24	255.12
523.41	346.40
523.58	276.18
523.75	269.16
523.92	208.31
524.10	238.73
524.27	212.99
524.44	271.50
524.61	236.39
524.78	262.14
524.96	301.93
525.13	245.76
525.30	341.72
525.47	327.68
525.64	285.55
525.81	292.57
525.98	255.12
526.16	227.03
526.33	205.97
526.50	294.91
526.67	259.80
526.84	257.46
527.01	189.58
527.18	205.97
527.36	290.23
527.53	304.27
527.70	250.44
527.87	262.14
528.04	236.39
528.21	243.42
528.38	362.78
528.55	299.59
528.72	330.02
528.89	304.27
529.07	241.08
529.24	308.95
529.41	334.70
529.58	278.52
529.75	292.57
529.92	290.23
530.09	259.80
530.26	227.03
530.43	278.52
530.60	264.48
530.77	271.50
530.94	301.93
531.11	262.14
531.28	212.99
531.46	273.84
531.63	301.93
531.80	269.16
531.97	271.50
532.14	283.20
532.31	301.93
532.48	381.51
532.65	430.66
532.82	496.19
532.99	514.92
533.16	390.87
533.33	337.04
533.50	353.42
533.67	390.87
533.84	505.56
534.01	589.82
534.18	482.15
534.35	400.23
534.52	402.57
534.69	367.46
534.86	262.14
535.03	276.18
535.20	262.14
535.37	292.57
535.54	262.14
535.71	341.72
535.88	301.93
536.05	299.59
536.22	234.05
536.38	311.29
536.55	285.55
536.72	259.80
536.89	175.54
537.06	264.48
537.23	273.84
537.40	294.91
537.57	292.57
537.74	346.40
537.91	290.23
538.08	243.42
538.25	322.99
538.42	299.59
538.59	276.18
538.75	297.25
538.92	330.02
539.09	360.44
539.26	320.65
539.43	561.73
539.60	1406.66
539.77	2466.92
539.94	2581.61
540.11	1640.72
540.28	1118.78
540.44	814.51
540.61	491.51
540.78	430.66
540.95	447.04
541.12	482.15
541.29	449.38
541.46	566.41
541.62	489.17
541.79	479.81
541.96	510.24
542.13	463.43
542.30	421.30
542.47	484.49
542.63	496.19
542.80	512.58
542.97	512.58
543.14	437.68
543.31	512.58
543.48	423.64
543.64	493.85
543.81	449.38
543.98	484.49
544.15	393.21
544.32	449.38
544.48	454.06
544.65	454.06
544.82	440.02
544.99	489.17
545.16	416.62
545.32	449.38
545.49	716.20
545.66	943.24
545.83	828.55
546.00	772.38
546.16	524.28
546.33	458.74
546.50	500.87
546.67	484.49
546.83	402.57
547.00	440.02
547.17	388.53
547.34	358.10
547.50	339.38
547.67	428.32
547.84	332.36
548.00	360.44
548.17	402.57
548.34	369.80
548.51	372.15
548.67	381.51
548.84	383.85
549.01	348.74
549.18	416.62
549.34	397.89
549.51	355.76
549.68	351.08
549.84	304.27
550.01	325.33
550.18	407.25
550.34	484.49
550.51	280.86
550.68	325.33
550.84	301.93
551.01	318.31
551.18	379.17
551.34	297.25
551.51	365.12
551.68	304.27
551.84	348.74
552.01	276.18
552.18	276.18
552.34	280.86
552.51	297.25
552.68	292.57
552.84	301.93
553.01	304.27
553.18	348.74
553.34	280.86
553.51	353.42
553.67	304.27
553.84	348.74
554.01	287.89
554.17	322.99
554.34	372.15
554.51	346.40
554.67	337.04
554.84	369.80
555.00	304.27
555.17	386.19
555.33	297.25
555.50	390.87
555.67	376.83
555.83	362.78
556.00	294.91
556.16	552.37
556.33	313.63
556.50	325.33
556.66	238.73
556.83	243.42
556.99	245.76
557.16	168.52
557.32	259.80
557.49	255.12
557.65	273.84
557.82	306.61
557.98	266.82
558.15	259.80
558.32	280.86
558.48	276.18
558.65	248.10
558.81	266.82
558.98	262.14
559.14	395.55
559.31	259.80
559.47	278.52
559.64	332.36
559.80	311.29
559.97	257.46
560.13	287.89
560.30	262.14
560.46	280.86
560.63	332.36
560.79	290.23
560.96	255.12
561.12	245.76
561.29	290.23
561.45	262.14
561.61	259.80
561.78	383.85
561.94	252.78
562.11	313.63
562.27	241.08
562.44	287.89
562.60	234.05
562.77	252.78
562.93	248.10
563.10	313.63
563.26	264.48
563.42	294.91
563.59	250.44
563.75	337.04
563.92	339.38
564.08	337.04
564.24	325.33
564.41	313.63
564.57	224.69
564.74	257.46
564.90	308.95
565.07	313.63
565.23	320.65
565.39	348.74
565.56	395.55
565.72	325.33
565.88	262.14
566.05	285.55
566.21	311.29
566.38	262.14
566.54	203.63
566.70	236.39
566.87	250.44
567.03	255.12
567.19	187.24
567.36	285.55
567.52	231.71
567.68	315.97
567.85	325.33
568.01	278.52
568.17	222.35
568.34	168.52
568.50	299.59
568.66	278.52
568.83	360.44
568.99	346.40
569.15	367.46
569.32	266.82
569.48	299.59
569.64	255.12
569.81	278.52
569.97	257.46
570.13	290.23
570.30	276.18
570.46	201.29
570.62	257.46
570.78	262.14
570.95	252.78
571.11	250.44
571.27	285.55
571.43	330.02
571.60	287.89
571.76	369.80
571.92	308.95
572.09	271.50
572.25	297.25
572.41	304.27
572.57	262.14
572.74	245.76
572.90	299.59
573.06	379.17
573.22	255.12
573.38	299.59
573.55	311.29
573.71	243.42
573.87	297.25
574.03	266.82
574.20	271.50
574.36	383.85
574.52	367.46
574.68	540.66
574.84	414.27
575.01	358.10
575.17	337.04
575.33	411.93
575.49	355.76
575.65	388.53
575.82	456.40
575.98	772.38
576.14	1043.88
576.30	1102.39
576.46	938.55
576.62	706.84
576.79	695.14
576.95	479.81
577.11	355.76
577.27	344.06
577.43	320.65
577.59	402.57
577.75	311.29
577.92	297.25
578.08	388.53
578.24	215.33
578.40	381.51
578.56	369.80
578.72	489.17
578.88	521.94
579.04	486.83
579.21	454.06
579.37	400.23
579.53	416.62
579.69	442.36
579.85	409.59
580.01	550.03
580.17	528.96
580.33	521.94
580.49	538.32
580.65	491.51
580.82	493.85
580.98	430.66
581.14	451.72
581.30	470.45
581.46	596.84
581.62	828.55
581.78	943.24
581.94	966.64
582.10	758.33
582.26	751.31
582.42	678.76
582.58	648.33
582.74	587.47
582.90	741.95
583.06	744.29
583.22	662.37
583.38	603.86
583.54	758.33
583.70	950.26
583.86	1008.77
584.02	1165.59
584.18	1401.98
584.34	1820.94
584.50	4278.50
584.66	31201.68
584.82	65436.70
584.98	65535.00
585.14	65535.00
585.30	65535.00
585.46	50574.30
585.62	31023.80
585.78	14174.28
585.94	5348.12
586.10	2614.38
586.26	1666.46
586.42	1210.06
586.58	1039.20
586.74	1036.86
586.90	936.21
587.06	849.61
587.22	835.57
587.38	765.36
587.54	1614.97
587.70	4781.71
587.86	9011.06
588.02	11187.76
588.18	7854.84
588.34	4816.82
588.49	3094.19
588.65	1893.49
588.81	924.51
588.97	484.49
589.13	540.66
589.29	456.40
589.45	472.79
589.61	411.93
589.77	557.05
589.93	685.78
590.08	720.88
590.24	645.99
590.40	638.97
590.56	631.94
590.72	528.96
590.88	454.06
591.04	533.64
591.20	430.66
591.35	486.83
591.51	496.19
591.67	360.44
591.83	475.13
591.99	475.13
592.15	454.06
592.31	341.72
592.46	416.62
592.62	400.23
592.78	430.66
592.94	468.11
593.10	507.90
593.26	482.15
593.41	491.51
593.57	557.05
593.73	723.23
593.89	3616.13
594.05	10471.56
594.20	18333.42
594.36	18771.10
594.52	11695.66
594.68	7040.33
594.84	4636.60
594.99	2633.10
595.15	1231.12
595.31	716.20
595.47	519.60
595.62	479.81
595.78	379.17
595.94	449.38
596.10	454.06
596.25	557.05
596.41	528.96
596.57	430.66
596.73	437.68
596.88	734.93
597.04	1942.64
597.20	3606.77
597.36	4657.67
597.51	3644.21
597.67	2333.51
597.83	1540.07
597.99	1125.80
598.14	664.71
598.30	578.11
598.46	510.24
598.61	507.90
598.77	468.11
598.93	435.34
599.09	423.64
599.24	461.09
599.40	301.93
599.56	369.80
599.71	341.72
599.87	376.83
600.03	430.66
600.18	290.23
600.34	322.99
600.50	292.57
600.65	273.84
600.81	339.38
600.97	315.97
601.12	287.89
601.28	362.78
601.44	365.12
601.59	301.93
601.75	290.23
601.91	360.44
602.06	430.66
602.22	484.49
602.37	990.05
602.53	2410.75
602.69	4257.43
602.84	5034.49
603.00	3550.59
603.16	2314.79
603.31	1626.67
603.47	1025.15
603.62	582.79
603.78	355.76
603.94	355.76
604.09	337.04
604.25	397.89
604.40	451.72
604.56	367.46
604.71	339.38
604.87	299.59
605.03	280.86
605.18	400.23
605.34	425.98
605.49	308.95
605.65	461.09
605.80	409.59
605.96	458.74
606.12	433.00
606.27	447.04
606.43	535.98
606.58	589.82
606.74	1034.52
606.89	4697.46
607.05	10869.45
607.20	16212.89
607.36	13530.64
607.51	8919.78
607.67	5565.79
607.82	3822.09
607.98	2111.16
608.13	1081.33
608.29	695.14
608.44	645.99
608.60	617.90
608.75	674.07
608.91	1474.54
609.06	7215.87
609.22	17916.80
609.37	27707.26
609.53	24907.98
609.68	16114.59
609.84	9966.00
