SpectraSuite Data File
++++++++++++++++++++++++++++++++++++
Date: Fri Oct 04 11:34:00 GMT-05:00 2013
User: price-jones
Dark Spectrum Present: No
Reference Spectrum Present: No
Number of Sampled Component Spectra: 1
Spectrometers: USB2+H05261
Integration Time (usec): 100000 (USB2+H05261)
Spectra Averaged: 1 (USB2+H05261)
Boxcar Smoothing: 0 (USB2+H05261)
Correct for Electrical Dark: No (USB2+H05261)
Strobe/Lamp Enabled: No (USB2+H05261)
Correct for Detector Non-linearity: No (USB2+H05261)
Correct for Stray Light: No (USB2+H05261)
Number of Pixels in Processed Spectrum: 2048
>>>>>Begin Processed Spectral Data<<<<<
365.73	32.77
365.92	32.77
366.12	32.77
366.32	0.00
366.52	4.68
366.72	7.02
366.91	0.00
367.11	0.00
367.31	0.00
367.51	0.00
367.70	0.00
367.90	32.77
368.10	0.00
368.30	0.00
368.49	0.00
368.69	0.00
368.89	0.00
369.09	0.00
369.28	0.00
369.48	0.00
369.68	0.00
369.87	0.00
370.07	0.00
370.27	30.43
370.47	74.90
370.66	67.88
370.86	56.17
371.06	112.35
371.25	65.54
371.45	51.49
371.65	105.32
371.84	124.05
372.04	114.69
372.24	110.01
372.44	119.37
372.63	72.56
372.83	184.90
373.03	126.39
373.22	93.62
373.42	156.82
373.62	177.88
373.81	187.24
374.01	201.29
374.21	133.41
374.40	149.79
374.60	135.75
374.79	159.16
374.99	126.39
375.19	119.37
375.38	133.41
375.58	173.20
375.78	182.56
375.97	229.37
376.17	189.58
376.37	138.09
376.56	191.92
376.76	86.60
376.95	124.05
377.15	227.03
377.35	177.88
377.54	196.60
377.74	110.01
377.93	166.18
378.13	112.35
378.33	252.78
378.52	154.48
378.72	135.75
378.91	196.60
379.11	191.92
379.31	105.32
379.50	124.05
379.70	182.56
379.89	135.75
380.09	126.39
380.28	88.94
380.48	180.22
380.68	119.37
380.87	107.66
381.07	102.98
381.26	170.86
381.46	180.22
381.65	156.82
381.85	166.18
382.04	77.24
382.24	117.03
382.43	154.48
382.63	124.05
382.83	128.73
383.02	177.88
383.22	227.03
383.41	105.32
383.61	224.69
383.80	163.84
384.00	166.18
384.19	128.73
384.39	156.82
384.58	170.86
384.78	163.84
384.97	170.86
385.17	154.48
385.36	180.22
385.56	154.48
385.75	105.32
385.95	149.79
386.14	159.16
386.34	189.58
386.53	112.35
386.72	154.48
386.92	215.33
387.11	245.76
387.31	152.13
387.50	121.71
387.70	154.48
387.89	84.26
388.09	121.71
388.28	86.60
388.48	74.90
388.67	112.35
388.86	88.94
389.06	154.48
389.25	145.11
389.45	138.09
389.64	203.63
389.84	119.37
390.03	175.54
390.22	154.48
390.42	156.82
390.61	117.03
390.81	100.64
391.00	140.43
391.19	177.88
391.39	198.95
391.58	142.77
391.78	168.52
391.97	203.63
392.16	105.32
392.36	187.24
392.55	145.11
392.75	159.16
392.94	152.13
393.13	173.20
393.33	114.69
393.52	67.88
393.71	140.43
393.91	112.35
394.10	119.37
394.29	187.24
394.49	124.05
394.68	147.45
394.88	173.20
395.07	133.41
395.26	212.99
395.46	77.24
395.65	191.92
395.84	105.32
396.04	196.60
396.23	140.43
396.42	121.71
396.62	70.22
396.81	168.52
397.00	135.75
397.19	140.43
397.39	81.92
397.58	255.12
397.77	154.48
397.97	166.18
398.16	131.07
398.35	173.20
398.55	53.83
398.74	98.30
398.93	156.82
399.12	149.79
399.32	156.82
399.51	138.09
399.70	182.56
399.90	182.56
400.09	182.56
400.28	152.13
400.47	133.41
400.67	98.30
400.86	77.24
401.05	140.43
401.24	133.41
401.44	156.82
401.63	222.35
401.82	152.13
402.01	135.75
402.21	243.42
402.40	119.37
402.59	194.26
402.78	215.33
402.97	112.35
403.17	117.03
403.36	154.48
403.55	166.18
403.74	168.52
403.93	152.13
404.13	243.42
404.32	138.09
404.51	168.52
404.70	170.86
404.89	159.16
405.09	187.24
405.28	105.32
405.47	100.64
405.66	154.48
405.85	231.71
406.05	84.26
406.24	147.45
406.43	168.52
406.62	128.73
406.81	201.29
407.00	189.58
407.20	119.37
407.39	173.20
407.58	156.82
407.77	154.48
407.96	224.69
408.15	168.52
408.34	208.31
408.54	145.11
408.73	205.97
408.92	163.84
409.11	140.43
409.30	147.45
409.49	182.56
409.68	175.54
409.87	121.71
410.07	117.03
410.26	135.75
410.45	135.75
410.64	149.79
410.83	168.52
411.02	170.86
411.21	138.09
411.40	182.56
411.59	149.79
411.78	168.52
411.98	166.18
412.17	105.32
412.36	95.96
412.55	117.03
412.74	217.67
412.93	217.67
413.12	177.88
413.31	126.39
413.50	119.37
413.69	156.82
413.88	238.73
414.07	138.09
414.26	159.16
414.45	152.13
414.64	140.43
414.83	152.13
415.02	184.90
415.22	117.03
415.41	220.01
415.60	159.16
415.79	156.82
415.98	133.41
416.17	145.11
416.36	189.58
416.55	112.35
416.74	147.45
416.93	184.90
417.12	161.50
417.31	177.88
417.50	196.60
417.69	224.69
417.88	191.92
418.07	67.88
418.26	79.58
418.45	107.66
418.64	191.92
418.83	217.67
419.02	175.54
419.21	168.52
419.39	168.52
419.58	102.98
419.77	147.45
419.96	147.45
420.15	135.75
420.34	184.90
420.53	236.39
420.72	173.20
420.91	110.01
421.10	175.54
421.29	241.08
421.48	156.82
421.67	187.24
421.86	135.75
422.05	170.86
422.24	180.22
422.43	201.29
422.61	149.79
422.80	112.35
422.99	133.41
423.18	149.79
423.37	163.84
423.56	189.58
423.75	180.22
423.94	119.37
424.13	133.41
424.32	138.09
424.50	121.71
424.69	198.95
424.88	191.92
425.07	131.07
425.26	93.62
425.45	166.18
425.64	208.31
425.83	238.73
426.01	180.22
426.20	224.69
426.39	107.66
426.58	177.88
426.77	93.62
426.96	166.18
427.15	229.37
427.33	72.56
427.52	117.03
427.71	189.58
427.90	142.77
428.09	161.50
428.28	173.20
428.46	84.26
428.65	156.82
428.84	135.75
429.03	184.90
429.22	154.48
429.40	140.43
429.59	140.43
429.78	196.60
429.97	142.77
430.16	194.26
430.34	84.26
430.53	131.07
430.72	189.58
430.91	166.18
431.10	135.75
431.28	196.60
431.47	196.60
431.66	180.22
431.85	126.39
432.03	145.11
432.22	163.84
432.41	140.43
432.60	175.54
432.79	222.35
432.97	187.24
433.16	142.77
433.35	145.11
433.54	149.79
433.72	189.58
433.91	189.58
434.10	161.50
434.28	203.63
434.47	189.58
434.66	135.75
434.85	98.30
435.03	248.10
435.22	320.65
435.41	402.57
435.59	344.06
435.78	330.02
435.97	189.58
436.16	245.76
436.34	184.90
436.53	201.29
436.72	177.88
436.90	229.37
437.09	273.84
437.28	236.39
437.46	173.20
437.65	182.56
437.84	128.73
438.02	168.52
438.21	194.26
438.40	217.67
438.58	161.50
438.77	191.92
438.96	184.90
439.14	212.99
439.33	210.65
439.52	105.32
439.70	168.52
439.89	198.95
440.08	196.60
440.26	166.18
440.45	222.35
440.63	191.92
440.82	198.95
441.01	205.97
441.19	257.46
441.38	210.65
441.57	168.52
441.75	248.10
441.94	266.82
442.12	175.54
442.31	273.84
442.50	147.45
442.68	212.99
442.87	161.50
443.05	205.97
443.24	140.43
443.43	184.90
443.61	142.77
443.80	215.33
443.98	121.71
444.17	215.33
444.35	236.39
444.54	208.31
444.73	224.69
444.91	245.76
445.10	140.43
445.28	93.62
445.47	201.29
445.65	138.09
445.84	243.42
446.02	110.01
446.21	170.86
446.39	184.90
446.58	234.05
446.77	191.92
446.95	152.13
447.14	257.46
447.32	189.58
447.51	114.69
447.69	128.73
447.88	262.14
448.06	131.07
448.25	205.97
448.43	189.58
448.62	177.88
448.80	215.33
448.99	168.52
449.17	234.05
449.36	161.50
449.54	210.65
449.73	212.99
449.91	196.60
450.10	212.99
450.28	259.80
450.46	278.52
450.65	241.08
450.83	173.20
451.02	175.54
451.20	205.97
451.39	210.65
451.57	145.11
451.76	220.01
451.94	163.84
452.13	201.29
452.31	252.78
452.49	229.37
452.68	196.60
452.86	203.63
453.05	264.48
453.23	257.46
453.42	210.65
453.60	180.22
453.78	231.71
453.97	173.20
454.15	159.16
454.34	168.52
454.52	203.63
454.70	294.91
454.89	248.10
455.07	222.35
455.26	149.79
455.44	224.69
455.62	194.26
455.81	203.63
455.99	201.29
456.17	259.80
456.36	203.63
456.54	163.84
456.73	149.79
456.91	212.99
457.09	187.24
457.28	245.76
457.46	154.48
457.64	168.52
457.83	170.86
458.01	184.90
458.19	177.88
458.38	175.54
458.56	208.31
458.74	182.56
458.93	168.52
459.11	231.71
459.29	217.67
459.48	271.50
459.66	229.37
459.84	173.20
460.03	177.88
460.21	147.45
460.39	210.65
460.57	264.48
460.76	152.13
460.94	203.63
461.12	266.82
461.31	191.92
461.49	191.92
461.67	177.88
461.85	163.84
462.04	227.03
462.22	636.63
462.40	191.92
462.59	205.97
462.77	191.92
462.95	135.75
463.13	182.56
463.32	191.92
463.50	259.80
463.68	212.99
463.86	182.56
464.05	163.84
464.23	149.79
464.41	238.73
464.59	161.50
464.78	117.03
464.96	220.01
465.14	154.48
465.32	217.67
465.50	163.84
465.69	229.37
465.87	147.45
466.05	126.39
466.23	182.56
466.41	145.11
466.60	191.92
466.78	187.24
466.96	271.50
467.14	250.44
467.32	222.35
467.51	147.45
467.69	238.73
467.87	250.44
468.05	224.69
468.23	283.20
468.41	203.63
468.60	126.39
468.78	168.52
468.96	182.56
469.14	196.60
469.32	205.97
469.50	138.09
469.69	184.90
469.87	147.45
470.05	220.01
470.23	140.43
470.41	149.79
470.59	161.50
470.77	194.26
470.95	189.58
471.14	191.92
471.32	229.37
471.50	194.26
471.68	245.76
471.86	196.60
472.04	198.95
472.22	212.99
472.40	110.01
472.58	147.45
472.77	124.05
472.95	215.33
473.13	145.11
473.31	234.05
473.49	187.24
473.67	269.16
473.85	196.60
474.03	241.08
474.21	184.90
474.39	224.69
474.57	250.44
474.75	250.44
474.93	194.26
475.12	187.24
475.30	194.26
475.48	121.71
475.66	224.69
475.84	161.50
476.02	238.73
476.20	259.80
476.38	191.92
476.56	231.71
476.74	159.16
476.92	201.29
477.10	264.48
477.28	222.35
477.46	159.16
477.64	170.86
477.82	184.90
478.00	147.45
478.18	224.69
478.36	208.31
478.54	203.63
478.72	131.07
478.90	205.97
479.08	257.46
479.26	243.42
479.44	248.10
479.62	220.01
479.80	194.26
479.98	196.60
480.16	215.33
480.34	124.05
480.52	231.71
480.70	154.48
480.88	187.24
481.06	152.13
481.24	198.95
481.41	201.29
481.59	278.52
481.77	229.37
481.95	231.71
482.13	271.50
482.31	224.69
482.49	217.67
482.67	205.97
482.85	234.05
483.03	163.84
483.21	189.58
483.39	217.67
483.57	243.42
483.74	271.50
483.92	163.84
484.10	182.56
484.28	184.90
484.46	318.31
484.64	243.42
484.82	245.76
485.00	191.92
485.18	248.10
485.35	184.90
485.53	248.10
485.71	222.35
485.89	224.69
486.07	203.63
486.25	234.05
486.43	266.82
486.61	252.78
486.78	205.97
486.96	252.78
487.14	175.54
487.32	189.58
487.50	224.69
487.68	236.39
487.85	175.54
488.03	227.03
488.21	276.18
488.39	229.37
488.57	243.42
488.75	311.29
488.92	402.57
489.10	220.01
489.28	351.08
489.46	234.05
489.64	271.50
489.81	222.35
489.99	269.16
490.17	250.44
490.35	332.36
490.53	238.73
490.70	238.73
490.88	198.95
491.06	259.80
491.24	325.33
491.41	266.82
491.59	224.69
491.77	131.07
491.95	243.42
492.13	229.37
492.30	294.91
492.48	255.12
492.66	294.91
492.84	262.14
493.01	266.82
493.19	227.03
493.37	255.12
493.54	276.18
493.72	266.82
493.90	264.48
494.08	236.39
494.25	215.33
494.43	156.82
494.61	201.29
494.79	264.48
494.96	212.99
495.14	241.08
495.32	189.58
495.49	203.63
495.67	264.48
495.85	180.22
496.02	250.44
496.20	266.82
496.38	271.50
496.55	271.50
496.73	334.70
496.91	299.59
497.09	285.55
497.26	198.95
497.44	269.16
497.62	224.69
497.79	266.82
497.97	234.05
498.14	205.97
498.32	318.31
498.50	266.82
498.67	224.69
498.85	236.39
499.03	245.76
499.20	238.73
499.38	194.26
499.56	234.05
499.73	278.52
499.91	198.95
500.08	191.92
500.26	250.44
500.44	168.52
500.61	196.60
500.79	187.24
500.97	271.50
501.14	276.18
501.32	264.48
501.49	173.20
501.67	191.92
501.84	283.20
502.02	205.97
502.20	255.12
502.37	266.82
502.55	227.03
502.72	173.20
502.90	311.29
503.07	269.16
503.25	234.05
503.43	210.65
503.60	222.35
503.78	245.76
503.95	299.59
504.13	208.31
504.30	262.14
504.48	266.82
504.65	299.59
504.83	348.74
505.01	245.76
505.18	271.50
505.36	271.50
505.53	210.65
505.71	159.16
505.88	208.31
506.06	166.18
506.23	236.39
506.41	304.27
506.58	231.71
506.76	189.58
506.93	191.92
507.11	198.95
507.28	252.78
507.46	241.08
507.63	231.71
507.81	273.84
507.98	255.12
508.16	161.50
508.33	248.10
508.50	276.18
508.68	220.01
508.85	299.59
509.03	234.05
509.20	205.97
509.38	231.71
509.55	243.42
509.73	255.12
509.90	311.29
510.08	156.82
510.25	276.18
510.42	250.44
510.60	250.44
510.77	196.60
510.95	322.99
511.12	245.76
511.30	217.67
511.47	278.52
511.64	252.78
511.82	196.60
511.99	168.52
512.17	259.80
512.34	257.46
512.51	308.95
512.69	220.01
512.86	294.91
513.04	294.91
513.21	238.73
513.38	175.54
513.56	224.69
513.73	212.99
513.90	266.82
514.08	283.20
514.25	208.31
514.43	327.68
514.60	227.03
514.77	264.48
514.95	210.65
515.12	252.78
515.29	259.80
515.47	215.33
515.64	222.35
515.81	175.54
515.99	220.01
516.16	215.33
516.33	280.86
516.51	203.63
516.68	255.12
516.85	241.08
517.03	280.86
517.20	299.59
517.37	308.95
517.54	241.08
517.72	203.63
517.89	191.92
518.06	236.39
518.24	227.03
518.41	278.52
518.58	234.05
518.75	229.37
518.93	266.82
519.10	285.55
519.27	229.37
519.45	257.46
519.62	304.27
519.79	224.69
519.96	182.56
520.14	269.16
520.31	222.35
520.48	320.65
520.65	177.88
520.83	278.52
521.00	266.82
521.17	287.89
521.34	222.35
521.52	177.88
521.69	271.50
521.86	308.95
522.03	271.50
522.20	262.14
522.38	175.54
522.55	177.88
522.72	212.99
522.89	287.89
523.07	301.93
523.24	255.12
523.41	245.76
523.58	290.23
523.75	224.69
523.92	182.56
524.10	306.61
524.27	280.86
524.44	299.59
524.61	292.57
524.78	262.14
524.96	259.80
525.13	273.84
525.30	322.99
525.47	262.14
525.64	334.70
525.81	266.82
525.98	341.72
526.16	294.91
526.33	243.42
526.50	189.58
526.67	154.48
526.84	238.73
527.01	166.18
527.18	297.25
527.36	306.61
527.53	208.31
527.70	222.35
527.87	306.61
528.04	311.29
528.21	259.80
528.38	283.20
528.55	245.76
528.72	245.76
528.89	344.06
529.07	217.67
529.24	271.50
529.41	243.42
529.58	290.23
529.75	259.80
529.92	238.73
530.09	299.59
530.26	252.78
530.43	276.18
530.60	287.89
530.77	346.40
530.94	304.27
531.11	241.08
531.28	175.54
531.46	212.99
531.63	198.95
531.80	280.86
531.97	271.50
532.14	271.50
532.31	297.25
532.48	259.80
532.65	227.03
532.82	255.12
532.99	255.12
533.16	294.91
533.33	322.99
533.50	212.99
533.67	248.10
533.84	269.16
534.01	290.23
534.18	255.12
534.35	287.89
534.52	304.27
534.69	365.12
534.86	243.42
535.03	266.82
535.20	308.95
535.37	236.39
535.54	294.91
535.71	224.69
535.88	278.52
536.05	308.95
536.22	315.97
536.38	273.84
536.55	278.52
536.72	241.08
536.89	287.89
537.06	278.52
537.23	236.39
537.40	278.52
537.57	273.84
537.74	308.95
537.91	315.97
538.08	266.82
538.25	285.55
538.42	257.46
538.59	330.02
538.75	294.91
538.92	271.50
539.09	318.31
539.26	259.80
539.43	334.70
539.60	348.74
539.77	325.33
539.94	353.42
540.11	397.89
540.28	468.11
540.44	376.83
540.61	376.83
540.78	362.78
540.95	351.08
541.12	454.06
541.29	454.06
541.46	514.92
541.62	482.15
541.79	444.70
541.96	423.64
542.13	414.27
542.30	418.96
542.47	456.40
542.63	339.38
542.80	386.19
542.97	421.30
543.14	484.49
543.31	440.02
543.48	404.91
543.64	442.36
543.81	393.21
543.98	482.15
544.15	414.27
544.32	423.64
544.48	430.66
544.65	449.38
544.82	402.57
544.99	449.38
545.16	447.04
545.32	454.06
545.49	587.47
545.66	699.82
545.83	837.91
546.00	650.67
546.16	573.43
546.33	535.98
546.50	418.96
546.67	456.40
546.83	348.74
547.00	383.85
547.17	308.95
547.34	313.63
547.50	400.23
547.67	421.30
547.84	337.04
548.00	386.19
548.17	367.46
548.34	299.59
548.51	367.46
548.67	404.91
548.84	379.17
549.01	379.17
549.18	367.46
549.34	308.95
549.51	278.52
549.68	318.31
549.84	325.33
550.01	266.82
550.18	383.85
550.34	449.38
550.51	262.14
550.68	287.89
550.84	229.37
551.01	301.93
551.18	351.08
551.34	311.29
551.51	252.78
551.68	257.46
551.84	351.08
552.01	313.63
552.18	264.48
552.34	292.57
552.51	266.82
552.68	227.03
552.84	238.73
553.01	259.80
553.18	304.27
553.34	271.50
553.51	241.08
553.67	285.55
553.84	330.02
554.01	325.33
554.17	241.08
554.34	238.73
554.51	280.86
554.67	313.63
554.84	283.20
555.00	243.42
555.17	360.44
555.33	367.46
555.50	325.33
555.67	264.48
555.83	184.90
556.00	311.29
556.16	442.36
556.33	264.48
556.50	306.61
556.66	173.20
556.83	222.35
556.99	257.46
557.16	297.25
557.32	269.16
557.49	304.27
557.65	215.33
557.82	238.73
557.98	236.39
558.15	278.52
558.32	248.10
558.48	184.90
558.65	252.78
558.81	311.29
558.98	351.08
559.14	269.16
559.31	243.42
559.47	241.08
559.64	159.16
559.80	255.12
559.97	287.89
560.13	229.37
560.30	264.48
560.46	217.67
560.63	245.76
560.79	234.05
560.96	236.39
561.12	294.91
561.29	259.80
561.45	189.58
561.61	313.63
561.78	278.52
561.94	294.91
562.11	264.48
562.27	222.35
562.44	266.82
562.60	320.65
562.77	280.86
562.93	315.97
563.10	262.14
563.26	273.84
563.42	327.68
563.59	257.46
563.75	280.86
563.92	234.05
564.08	297.25
564.24	222.35
564.41	271.50
564.57	217.67
564.74	191.92
564.90	215.33
565.07	189.58
565.23	280.86
565.39	306.61
565.56	262.14
565.72	330.02
565.88	231.71
566.05	191.92
566.21	229.37
566.38	276.18
566.54	212.99
566.70	308.95
566.87	224.69
567.03	175.54
567.19	273.84
567.36	259.80
567.52	257.46
567.68	245.76
567.85	311.29
568.01	180.22
568.17	269.16
568.34	203.63
568.50	285.55
568.66	334.70
568.83	304.27
568.99	266.82
569.15	280.86
569.32	227.03
569.48	138.09
569.64	266.82
569.81	257.46
569.97	271.50
570.13	252.78
570.30	243.42
570.46	227.03
570.62	292.57
570.78	210.65
570.95	210.65
571.11	330.02
571.27	297.25
571.43	280.86
571.60	325.33
571.76	236.39
571.92	241.08
572.09	217.67
572.25	248.10
572.41	276.18
572.57	308.95
572.74	318.31
572.90	227.03
573.06	198.95
573.22	290.23
573.38	299.59
573.55	238.73
573.71	250.44
573.87	203.63
574.03	313.63
574.20	245.76
574.36	255.12
574.52	283.20
574.68	212.99
574.84	248.10
575.01	285.55
575.17	259.80
575.33	285.55
575.49	339.38
575.65	297.25
575.82	297.25
575.98	393.21
576.14	304.27
576.30	297.25
576.46	372.15
576.62	435.34
576.79	297.25
576.95	334.70
577.11	341.72
577.27	301.93
577.43	264.48
577.59	283.20
577.75	201.29
577.92	269.16
578.08	273.84
578.24	173.20
578.40	346.40
578.56	264.48
578.72	332.36
578.88	334.70
579.04	344.06
579.21	339.38
579.37	339.38
579.53	238.73
579.69	264.48
579.85	255.12
580.01	278.52
580.17	292.57
580.33	280.86
580.49	297.25
580.65	266.82
580.82	283.20
580.98	280.86
581.14	269.16
581.30	308.95
581.46	262.14
581.62	311.29
581.78	290.23
581.94	266.82
582.10	294.91
582.26	297.25
582.42	301.93
582.58	353.42
582.74	203.63
582.90	287.89
583.06	369.80
583.22	271.50
583.38	308.95
583.54	332.36
583.70	292.57
583.86	292.57
584.02	273.84
584.18	332.36
584.34	280.86
584.50	348.74
584.66	1376.24
584.82	2696.30
584.98	3688.68
585.14	3342.28
585.30	2335.85
585.46	1390.28
585.62	966.64
585.78	559.39
585.94	362.78
586.10	360.44
586.26	299.59
586.42	341.72
586.58	325.33
586.74	273.84
586.90	388.53
587.06	360.44
587.22	297.25
587.38	217.67
587.54	395.55
587.70	433.00
587.86	433.00
588.02	449.38
588.18	367.46
588.34	348.74
588.49	306.61
588.65	292.57
588.81	320.65
588.97	264.48
589.13	271.50
589.29	280.86
589.45	243.42
589.61	285.55
589.77	266.82
589.93	245.76
590.08	278.52
590.24	255.12
590.40	238.73
590.56	320.65
590.72	191.92
590.88	290.23
591.04	273.84
591.20	229.37
591.35	259.80
591.51	243.42
591.67	290.23
591.83	269.16
591.99	318.31
592.15	266.82
592.31	327.68
592.46	360.44
592.62	355.76
592.78	285.55
592.94	285.55
593.10	294.91
593.26	367.46
593.41	276.18
593.57	285.55
593.73	194.26
593.89	489.17
594.05	608.54
594.20	638.97
594.36	685.78
594.52	461.09
594.68	486.83
594.84	362.78
594.99	322.99
595.15	285.55
595.31	313.63
595.47	320.65
595.62	248.10
595.78	297.25
595.94	238.73
596.10	255.12
596.25	299.59
596.41	334.70
596.57	175.54
596.73	322.99
596.88	269.16
597.04	325.33
597.20	304.27
597.36	425.98
597.51	351.08
597.67	273.84
597.83	313.63
597.99	287.89
598.14	292.57
598.30	332.36
598.46	222.35
598.61	297.25
598.77	243.42
598.93	301.93
599.09	315.97
599.24	264.48
599.40	241.08
599.56	299.59
599.71	292.57
599.87	236.39
600.03	238.73
600.18	287.89
600.34	224.69
600.50	196.60
600.65	264.48
600.81	182.56
600.97	227.03
601.12	159.16
601.28	248.10
601.44	320.65
601.59	245.76
601.75	287.89
601.91	273.84
602.06	276.18
602.22	351.08
602.37	283.20
602.53	266.82
602.69	360.44
602.84	285.55
603.00	266.82
603.16	330.02
603.31	325.33
603.47	269.16
603.62	177.88
603.78	276.18
603.94	245.76
604.09	205.97
604.25	252.78
604.40	290.23
604.56	283.20
604.71	276.18
604.87	222.35
605.03	264.48
605.18	362.78
605.34	208.31
605.49	278.52
605.65	320.65
605.80	215.33
605.96	259.80
606.12	173.20
606.27	262.14
606.43	243.42
606.58	269.16
606.74	259.80
606.89	430.66
607.05	491.51
607.20	669.39
607.36	580.45
607.51	489.17
607.67	416.62
607.82	308.95
607.98	355.76
608.13	313.63
608.29	262.14
608.44	353.42
608.60	304.27
608.75	341.72
608.91	374.49
609.06	587.47
609.22	791.10
609.37	896.43
609.53	833.23
609.68	671.73
609.84	575.77
609.99	580.45
610.15	440.02
610.30	479.81
610.46	519.60
610.61	510.24
610.76	643.65
610.92	688.12
