SpectraSuite Data File
++++++++++++++++++++++++++++++++++++
Date: Fri Oct 04 11:33:46 GMT-05:00 2013
User: price-jones
Dark Spectrum Present: No
Reference Spectrum Present: No
Number of Sampled Component Spectra: 1
Spectrometers: USB2+H05261
Integration Time (usec): 100000 (USB2+H05261)
Spectra Averaged: 1 (USB2+H05261)
Boxcar Smoothing: 0 (USB2+H05261)
Correct for Electrical Dark: No (USB2+H05261)
Strobe/Lamp Enabled: No (USB2+H05261)
Correct for Detector Non-linearity: No (USB2+H05261)
Correct for Stray Light: No (USB2+H05261)
Number of Pixels in Processed Spectrum: 2048
>>>>>Begin Processed Spectral Data<<<<<
365.73	18.72
365.92	18.72
366.12	18.72
366.32	21.06
366.52	32.77
366.72	46.81
366.91	9.36
367.11	0.00
367.31	0.00
367.51	0.00
367.70	0.00
367.90	37.45
368.10	0.00
368.30	0.00
368.49	0.00
368.69	7.02
368.89	0.00
369.09	0.00
369.28	16.38
369.48	28.09
369.68	0.00
369.87	9.36
370.07	14.04
370.27	88.94
370.47	107.66
370.66	98.30
370.86	79.58
371.06	98.30
371.25	98.30
371.45	56.17
371.65	105.32
371.84	88.94
372.04	37.45
372.24	138.09
372.44	147.45
372.63	124.05
372.83	128.73
373.03	105.32
373.22	98.30
373.42	198.95
373.62	133.41
373.81	126.39
374.01	173.20
374.21	145.11
374.40	168.52
374.60	135.75
374.79	191.92
374.99	138.09
375.19	187.24
375.38	196.60
375.58	217.67
375.78	138.09
375.97	161.50
376.17	177.88
376.37	152.13
376.56	154.48
376.76	142.77
376.95	175.54
377.15	133.41
377.35	100.64
377.54	182.56
377.74	135.75
377.93	208.31
378.13	88.94
378.33	72.56
378.52	135.75
378.72	135.75
378.91	177.88
379.11	131.07
379.31	121.71
379.50	112.35
379.70	187.24
379.89	180.22
380.09	67.88
380.28	124.05
380.48	163.84
380.68	107.66
380.87	180.22
381.07	112.35
381.26	156.82
381.46	238.73
381.65	110.01
381.85	140.43
382.04	124.05
382.24	180.22
382.43	124.05
382.63	138.09
382.83	168.52
383.02	124.05
383.22	117.03
383.41	51.49
383.61	163.84
383.80	126.39
384.00	88.94
384.19	58.51
384.39	81.92
384.58	124.05
384.78	131.07
384.97	163.84
385.17	121.71
385.36	140.43
385.56	133.41
385.75	88.94
385.95	175.54
386.14	175.54
386.34	74.90
386.53	131.07
386.72	102.98
386.92	196.60
387.11	135.75
387.31	112.35
387.50	121.71
387.70	198.95
387.89	161.50
388.09	107.66
388.28	98.30
388.48	91.28
388.67	100.64
388.86	149.79
389.06	138.09
389.25	128.73
389.45	161.50
389.64	168.52
389.84	163.84
390.03	177.88
390.22	117.03
390.42	119.37
390.61	142.77
390.81	65.54
391.00	135.75
391.19	205.97
391.39	114.69
391.58	182.56
391.78	152.13
391.97	135.75
392.16	84.26
392.36	184.90
392.55	180.22
392.75	187.24
392.94	156.82
393.13	98.30
393.33	170.86
393.52	173.20
393.71	175.54
393.91	177.88
394.10	114.69
394.29	152.13
394.49	170.86
394.68	168.52
394.88	224.69
395.07	168.52
395.26	112.35
395.46	189.58
395.65	182.56
395.84	117.03
396.04	166.18
396.23	86.60
396.42	88.94
396.62	156.82
396.81	166.18
397.00	84.26
397.19	149.79
397.39	168.52
397.58	187.24
397.77	173.20
397.97	145.11
398.16	224.69
398.35	175.54
398.55	145.11
398.74	128.73
398.93	152.13
399.12	194.26
399.32	180.22
399.51	107.66
399.70	140.43
399.90	126.39
400.09	212.99
400.28	173.20
400.47	194.26
400.67	168.52
400.86	189.58
401.05	194.26
401.24	161.50
401.44	142.77
401.63	100.64
401.82	177.88
402.01	100.64
402.21	84.26
402.40	117.03
402.59	131.07
402.78	166.18
402.97	74.90
403.17	163.84
403.36	166.18
403.55	163.84
403.74	100.64
403.93	156.82
404.13	189.58
404.32	131.07
404.51	182.56
404.70	180.22
404.89	124.05
405.09	173.20
405.28	201.29
405.47	126.39
405.66	212.99
405.85	182.56
406.05	149.79
406.24	222.35
406.43	135.75
406.62	135.75
406.81	166.18
407.00	217.67
407.20	184.90
407.39	180.22
407.58	248.10
407.77	117.03
407.96	145.11
408.15	88.94
408.34	159.16
408.54	117.03
408.73	191.92
408.92	105.32
409.11	182.56
409.30	175.54
409.49	117.03
409.68	180.22
409.87	198.95
410.07	142.77
410.26	154.48
410.45	177.88
410.64	112.35
410.83	166.18
411.02	161.50
411.21	238.73
411.40	189.58
411.59	124.05
411.78	182.56
411.98	131.07
412.17	147.45
412.36	152.13
412.55	208.31
412.74	180.22
412.93	205.97
413.12	168.52
413.31	243.42
413.50	170.86
413.69	147.45
413.88	140.43
414.07	163.84
414.26	161.50
414.45	124.05
414.64	163.84
414.83	110.01
415.02	100.64
415.22	187.24
415.41	147.45
415.60	107.66
415.79	107.66
415.98	276.18
416.17	203.63
416.36	170.86
416.55	229.37
416.74	227.03
416.93	170.86
417.12	196.60
417.31	208.31
417.50	121.71
417.69	222.35
417.88	177.88
418.07	149.79
418.26	133.41
418.45	170.86
418.64	159.16
418.83	119.37
419.02	241.08
419.21	180.22
419.39	266.82
419.58	194.26
419.77	182.56
419.96	191.92
420.15	203.63
420.34	231.71
420.53	175.54
420.72	168.52
420.91	175.54
421.10	180.22
421.29	196.60
421.48	168.52
421.67	210.65
421.86	156.82
422.05	110.01
422.24	119.37
422.43	231.71
422.61	105.32
422.80	147.45
422.99	149.79
423.18	170.86
423.37	187.24
423.56	234.05
423.75	205.97
423.94	173.20
424.13	177.88
424.32	194.26
424.50	93.62
424.69	159.16
424.88	168.52
425.07	152.13
425.26	166.18
425.45	187.24
425.64	166.18
425.83	191.92
426.01	138.09
426.20	161.50
426.39	182.56
426.58	203.63
426.77	112.35
426.96	255.12
427.15	220.01
427.33	203.63
427.52	182.56
427.71	117.03
427.90	220.01
428.09	154.48
428.28	182.56
428.46	191.92
428.65	135.75
428.84	187.24
429.03	245.76
429.22	196.60
429.40	201.29
429.59	168.52
429.78	173.20
429.97	187.24
430.16	187.24
430.34	243.42
430.53	114.69
430.72	187.24
430.91	184.90
431.10	187.24
431.28	220.01
431.47	180.22
431.66	145.11
431.85	175.54
432.03	173.20
432.22	245.76
432.41	194.26
432.60	166.18
432.79	175.54
432.97	227.03
433.16	220.01
433.35	152.13
433.54	154.48
433.72	205.97
433.91	182.56
434.10	138.09
434.28	201.29
434.47	180.22
434.66	320.65
434.85	121.71
435.03	212.99
435.22	362.78
435.41	461.09
435.59	416.62
435.78	341.72
435.97	292.57
436.16	212.99
436.34	201.29
436.53	243.42
436.72	189.58
436.90	170.86
437.09	119.37
437.28	147.45
437.46	163.84
437.65	189.58
437.84	163.84
438.02	203.63
438.21	201.29
438.40	168.52
438.58	170.86
438.77	163.84
438.96	196.60
439.14	168.52
439.33	161.50
439.52	173.20
439.70	189.58
439.89	156.82
440.08	227.03
440.26	156.82
440.45	201.29
440.63	220.01
440.82	241.08
441.01	217.67
441.19	182.56
441.38	147.45
441.57	149.79
441.75	222.35
441.94	135.75
442.12	212.99
442.31	154.48
442.50	124.05
442.68	201.29
442.87	166.18
443.05	152.13
443.24	177.88
443.43	234.05
443.61	255.12
443.80	187.24
443.98	86.60
444.17	250.44
444.35	170.86
444.54	220.01
444.73	149.79
444.91	245.76
445.10	180.22
445.28	189.58
445.47	238.73
445.65	250.44
445.84	187.24
446.02	156.82
446.21	196.60
446.39	168.52
446.58	198.95
446.77	152.13
446.95	187.24
447.14	220.01
447.32	278.52
447.51	173.20
447.69	217.67
447.88	138.09
448.06	262.14
448.25	205.97
448.43	187.24
448.62	145.11
448.80	170.86
448.99	259.80
449.17	177.88
449.36	159.16
449.54	180.22
449.73	236.39
449.91	194.26
450.10	170.86
450.28	201.29
450.46	250.44
450.65	217.67
450.83	285.55
451.02	168.52
451.20	255.12
451.39	201.29
451.57	159.16
451.76	271.50
451.94	243.42
452.13	135.75
452.31	285.55
452.49	250.44
452.68	187.24
452.86	220.01
453.05	220.01
453.23	175.54
453.42	208.31
453.60	170.86
453.78	250.44
453.97	248.10
454.15	198.95
454.34	177.88
454.52	140.43
454.70	198.95
454.89	220.01
455.07	170.86
455.26	229.37
455.44	196.60
455.62	161.50
455.81	212.99
455.99	212.99
456.17	208.31
456.36	248.10
456.54	170.86
456.73	203.63
456.91	142.77
457.09	203.63
457.28	140.43
457.46	119.37
457.64	259.80
457.83	248.10
458.01	149.79
458.19	189.58
458.38	184.90
458.56	140.43
458.74	215.33
458.93	198.95
459.11	154.48
459.29	163.84
459.48	187.24
459.66	182.56
459.84	187.24
460.03	243.42
460.21	245.76
460.39	271.50
460.57	243.42
460.76	220.01
460.94	212.99
461.12	229.37
461.31	191.92
461.49	255.12
461.67	161.50
461.85	187.24
462.04	217.67
462.22	568.75
462.40	184.90
462.59	252.78
462.77	208.31
462.95	238.73
463.13	229.37
463.32	187.24
463.50	187.24
463.68	234.05
463.86	224.69
464.05	243.42
464.23	299.59
464.41	173.20
464.59	292.57
464.78	170.86
464.96	203.63
465.14	156.82
465.32	189.58
465.50	222.35
465.69	234.05
465.87	191.92
466.05	212.99
466.23	166.18
466.41	170.86
466.60	133.41
466.78	208.31
466.96	205.97
467.14	191.92
467.32	191.92
467.51	252.78
467.69	327.68
467.87	231.71
468.05	191.92
468.23	212.99
468.41	248.10
468.60	191.92
468.78	196.60
468.96	184.90
469.14	245.76
469.32	133.41
469.50	114.69
469.69	201.29
469.87	205.97
470.05	189.58
470.23	189.58
470.41	177.88
470.59	212.99
470.77	248.10
470.95	182.56
471.14	297.25
471.32	212.99
471.50	250.44
471.68	250.44
471.86	245.76
472.04	180.22
472.22	224.69
472.40	180.22
472.58	229.37
472.77	133.41
472.95	257.46
473.13	180.22
473.31	229.37
473.49	189.58
473.67	159.16
473.85	166.18
474.03	238.73
474.21	227.03
474.39	224.69
474.57	187.24
474.75	252.78
474.93	255.12
475.12	128.73
475.30	184.90
475.48	194.26
475.66	177.88
475.84	187.24
476.02	220.01
476.20	203.63
476.38	222.35
476.56	252.78
476.74	241.08
476.92	142.77
477.10	175.54
477.28	217.67
477.46	273.84
477.64	161.50
477.82	208.31
478.00	215.33
478.18	229.37
478.36	243.42
478.54	208.31
478.72	163.84
478.90	191.92
479.08	276.18
479.26	175.54
479.44	205.97
479.62	187.24
479.80	156.82
479.98	208.31
480.16	262.14
480.34	248.10
480.52	187.24
480.70	241.08
480.88	266.82
481.06	229.37
481.24	276.18
481.41	259.80
481.59	229.37
481.77	182.56
481.95	245.76
482.13	236.39
482.31	227.03
482.49	161.50
482.67	241.08
482.85	231.71
483.03	196.60
483.21	252.78
483.39	184.90
483.57	227.03
483.74	238.73
483.92	229.37
484.10	306.61
484.28	224.69
484.46	273.84
484.64	252.78
484.82	259.80
485.00	238.73
485.18	238.73
485.35	227.03
485.53	194.26
485.71	245.76
485.89	159.16
486.07	236.39
486.25	318.31
486.43	402.57
486.61	334.70
486.78	304.27
486.96	241.08
487.14	252.78
487.32	245.76
487.50	259.80
487.68	222.35
487.85	203.63
488.03	327.68
488.21	297.25
488.39	276.18
488.57	297.25
488.75	255.12
488.92	503.22
489.10	245.76
489.28	325.33
489.46	243.42
489.64	234.05
489.81	344.06
489.99	222.35
490.17	271.50
490.35	297.25
490.53	234.05
490.70	322.99
490.88	294.91
491.06	208.31
491.24	294.91
491.41	322.99
491.59	325.33
491.77	285.55
491.95	283.20
492.13	222.35
492.30	346.40
492.48	243.42
492.66	177.88
492.84	208.31
493.01	236.39
493.19	318.31
493.37	365.12
493.54	271.50
493.72	348.74
493.90	262.14
494.08	266.82
494.25	311.29
494.43	276.18
494.61	245.76
494.79	238.73
494.96	271.50
495.14	234.05
495.32	222.35
495.49	255.12
495.67	227.03
495.85	212.99
496.02	315.97
496.20	337.04
496.38	245.76
496.55	325.33
496.73	344.06
496.91	245.76
497.09	264.48
497.26	266.82
497.44	276.18
497.62	234.05
497.79	245.76
497.97	318.31
498.14	400.23
498.32	271.50
498.50	320.65
498.67	283.20
498.85	229.37
499.03	245.76
499.20	322.99
499.38	341.72
499.56	294.91
499.73	294.91
499.91	245.76
500.08	325.33
500.26	255.12
500.44	241.08
500.61	285.55
500.79	308.95
500.97	292.57
501.14	306.61
501.32	234.05
501.49	325.33
501.67	264.48
501.84	238.73
502.02	234.05
502.20	308.95
502.37	259.80
502.55	138.09
502.72	276.18
502.90	243.42
503.07	241.08
503.25	222.35
503.43	198.95
503.60	220.01
503.78	189.58
503.95	346.40
504.13	276.18
504.30	252.78
504.48	238.73
504.65	259.80
504.83	271.50
505.01	290.23
505.18	320.65
505.36	250.44
505.53	248.10
505.71	229.37
505.88	248.10
506.06	273.84
506.23	271.50
506.41	201.29
506.58	367.46
506.76	208.31
506.93	257.46
507.11	269.16
507.28	292.57
507.46	250.44
507.63	315.97
507.81	299.59
507.98	271.50
508.16	168.52
508.33	269.16
508.50	234.05
508.68	234.05
508.85	205.97
509.03	287.89
509.20	280.86
509.38	252.78
509.55	276.18
509.73	315.97
509.90	327.68
510.08	238.73
510.25	287.89
510.42	283.20
510.60	327.68
510.77	306.61
510.95	308.95
511.12	224.69
511.30	301.93
511.47	292.57
511.64	294.91
511.82	236.39
511.99	280.86
512.17	346.40
512.34	259.80
512.51	231.71
512.69	264.48
512.86	339.38
513.04	308.95
513.21	334.70
513.38	220.01
513.56	264.48
513.73	203.63
513.90	280.86
514.08	262.14
514.25	297.25
514.43	252.78
514.60	311.29
514.77	266.82
514.95	236.39
515.12	283.20
515.29	308.95
515.47	266.82
515.64	271.50
515.81	308.95
515.99	362.78
516.16	304.27
516.33	292.57
516.51	297.25
516.68	262.14
516.85	262.14
517.03	301.93
517.20	308.95
517.37	248.10
517.54	222.35
517.72	271.50
517.89	250.44
518.06	208.31
518.24	337.04
518.41	313.63
518.58	301.93
518.75	304.27
518.93	264.48
519.10	337.04
519.27	280.86
519.45	252.78
519.62	266.82
519.79	292.57
519.96	290.23
520.14	273.84
520.31	355.76
520.48	292.57
520.65	276.18
520.83	339.38
521.00	315.97
521.17	236.39
521.34	327.68
521.52	245.76
521.69	283.20
521.86	269.16
522.03	301.93
522.20	355.76
522.38	257.46
522.55	250.44
522.72	320.65
522.89	269.16
523.07	325.33
523.24	231.71
523.41	304.27
523.58	248.10
523.75	243.42
523.92	271.50
524.10	320.65
524.27	278.52
524.44	259.80
524.61	351.08
524.78	287.89
524.96	266.82
525.13	231.71
525.30	292.57
525.47	327.68
525.64	294.91
525.81	344.06
525.98	325.33
526.16	257.46
526.33	287.89
526.50	259.80
526.67	224.69
526.84	229.37
527.01	264.48
527.18	264.48
527.36	318.31
527.53	285.55
527.70	308.95
527.87	330.02
528.04	351.08
528.21	271.50
528.38	339.38
528.55	339.38
528.72	292.57
528.89	311.29
529.07	346.40
529.24	234.05
529.41	376.83
529.58	276.18
529.75	264.48
529.92	313.63
530.09	351.08
530.26	365.12
530.43	330.02
530.60	313.63
530.77	276.18
530.94	308.95
531.11	299.59
531.28	297.25
531.46	280.86
531.63	294.91
531.80	285.55
531.97	341.72
532.14	238.73
532.31	325.33
532.48	355.76
532.65	311.29
532.82	330.02
532.99	241.08
533.16	339.38
533.33	280.86
533.50	351.08
533.67	322.99
533.84	322.99
534.01	327.68
534.18	306.61
534.35	313.63
534.52	311.29
534.69	318.31
534.86	376.83
535.03	306.61
535.20	257.46
535.37	290.23
535.54	330.02
535.71	337.04
535.88	320.65
536.05	397.89
536.22	318.31
536.38	315.97
536.55	327.68
536.72	339.38
536.89	255.12
537.06	290.23
537.23	355.76
537.40	332.36
537.57	383.85
537.74	320.65
537.91	376.83
538.08	379.17
538.25	318.31
538.42	325.33
538.59	393.21
538.75	346.40
538.92	355.76
539.09	327.68
539.26	351.08
539.43	433.00
539.60	465.77
539.77	463.43
539.94	437.68
540.11	491.51
540.28	440.02
540.44	458.74
540.61	454.06
540.78	533.64
540.95	496.19
541.12	575.77
541.29	496.19
541.46	634.29
541.62	629.60
541.79	697.48
541.96	620.24
542.13	594.50
542.30	540.66
542.47	500.87
542.63	552.37
542.80	486.83
542.97	592.16
543.14	521.94
543.31	477.47
543.48	531.30
543.64	554.71
543.81	557.05
543.98	559.39
544.15	557.05
544.32	493.85
544.48	543.00
544.65	535.98
544.82	517.26
544.99	491.51
545.16	589.82
545.32	594.50
545.49	809.83
545.66	961.96
545.83	1125.80
546.00	868.34
546.16	765.36
546.33	636.63
546.50	585.13
546.67	517.26
546.83	475.13
547.00	383.85
547.17	489.17
547.34	491.51
547.50	447.04
547.67	463.43
547.84	421.30
548.00	433.00
548.17	388.53
548.34	376.83
548.51	423.64
548.67	442.36
548.84	376.83
549.01	400.23
549.18	407.25
549.34	348.74
549.51	365.12
549.68	344.06
549.84	372.15
550.01	299.59
550.18	456.40
550.34	397.89
550.51	379.17
550.68	351.08
550.84	320.65
551.01	416.62
551.18	337.04
551.34	315.97
551.51	397.89
551.68	346.40
551.84	353.42
552.01	341.72
552.18	299.59
552.34	397.89
552.51	339.38
552.68	339.38
552.84	315.97
553.01	280.86
553.18	379.17
553.34	362.78
553.51	271.50
553.67	346.40
553.84	334.70
554.01	290.23
554.17	304.27
554.34	330.02
554.51	369.80
554.67	346.40
554.84	238.73
555.00	297.25
555.17	318.31
555.33	330.02
555.50	278.52
555.67	332.36
555.83	313.63
556.00	325.33
556.16	404.91
556.33	322.99
556.50	248.10
556.66	283.20
556.83	222.35
556.99	327.68
557.16	341.72
557.32	311.29
557.49	311.29
557.65	327.68
557.82	236.39
557.98	243.42
558.15	248.10
558.32	301.93
558.48	252.78
558.65	285.55
558.81	341.72
558.98	283.20
559.14	355.76
559.31	306.61
559.47	320.65
559.64	325.33
559.80	245.76
559.97	304.27
560.13	278.52
560.30	304.27
560.46	252.78
560.63	266.82
560.79	311.29
560.96	313.63
561.12	220.01
561.29	285.55
561.45	332.36
561.61	320.65
561.78	351.08
561.94	308.95
562.11	243.42
562.27	290.23
562.44	271.50
562.60	238.73
562.77	320.65
562.93	372.15
563.10	313.63
563.26	217.67
563.42	264.48
563.59	283.20
563.75	315.97
563.92	332.36
564.08	285.55
564.24	278.52
564.41	337.04
564.57	241.08
564.74	353.42
564.90	315.97
565.07	269.16
565.23	337.04
565.39	287.89
565.56	283.20
565.72	320.65
565.88	234.05
566.05	273.84
566.21	229.37
566.38	234.05
566.54	259.80
566.70	231.71
566.87	224.69
567.03	203.63
567.19	299.59
567.36	351.08
567.52	283.20
567.68	264.48
567.85	308.95
568.01	276.18
568.17	245.76
568.34	273.84
568.50	285.55
568.66	255.12
568.83	315.97
568.99	294.91
569.15	318.31
569.32	201.29
569.48	250.44
569.64	229.37
569.81	255.12
569.97	301.93
570.13	332.36
570.30	259.80
570.46	257.46
570.62	208.31
570.78	271.50
570.95	264.48
571.11	308.95
571.27	358.10
571.43	269.16
571.60	273.84
571.76	238.73
571.92	287.89
572.09	252.78
572.25	306.61
572.41	248.10
572.57	255.12
572.74	283.20
572.90	351.08
573.06	306.61
573.22	234.05
573.38	297.25
573.55	337.04
573.71	266.82
573.87	290.23
574.03	294.91
574.20	278.52
574.36	280.86
574.52	290.23
574.68	299.59
574.84	299.59
575.01	308.95
575.17	278.52
575.33	290.23
575.49	320.65
575.65	332.36
575.82	234.05
575.98	351.08
576.14	299.59
576.30	374.49
576.46	461.09
576.62	454.06
576.79	463.43
576.95	353.42
577.11	430.66
577.27	339.38
577.43	262.14
577.59	313.63
577.75	320.65
577.92	250.44
578.08	285.55
578.24	243.42
578.40	388.53
578.56	433.00
578.72	491.51
578.88	465.77
579.04	400.23
579.21	400.23
579.37	332.36
579.53	315.97
579.69	351.08
579.85	337.04
580.01	372.15
580.17	374.49
580.33	372.15
580.49	299.59
580.65	285.55
580.82	299.59
580.98	315.97
581.14	311.29
581.30	344.06
581.46	313.63
581.62	299.59
581.78	348.74
581.94	365.12
582.10	278.52
582.26	362.78
582.42	355.76
582.58	421.30
582.74	395.55
582.90	330.02
583.06	365.12
583.22	365.12
583.38	358.10
583.54	290.23
583.70	463.43
583.86	360.44
584.02	425.98
584.18	404.91
584.34	416.62
584.50	554.71
584.66	2153.29
584.82	4788.74
584.98	6689.25
585.14	6038.58
585.30	4128.70
585.46	2516.08
585.62	1652.42
585.78	994.73
585.94	608.54
586.10	421.30
586.26	463.43
586.42	407.25
586.58	393.21
586.74	381.51
586.90	395.55
587.06	421.30
587.22	456.40
587.38	365.12
587.54	437.68
587.70	627.26
587.86	758.33
588.02	774.72
588.18	660.03
588.34	571.09
588.49	358.10
588.65	348.74
588.81	320.65
588.97	166.18
589.13	334.70
589.29	290.23
589.45	395.55
589.61	220.01
589.77	318.31
589.93	304.27
590.08	292.57
590.24	255.12
590.40	320.65
590.56	252.78
590.72	311.29
590.88	255.12
591.04	325.33
591.20	252.78
591.35	325.33
591.51	315.97
591.67	217.67
591.83	358.10
591.99	278.52
592.15	353.42
592.31	311.29
592.46	341.72
592.62	388.53
592.78	311.29
592.94	358.10
593.10	418.96
593.26	351.08
593.41	355.76
593.57	362.78
593.73	259.80
593.89	486.83
594.05	854.30
594.20	1064.94
594.36	1114.10
594.52	856.64
594.68	550.03
594.84	477.47
594.99	397.89
595.15	355.76
595.31	369.80
595.47	379.17
595.62	294.91
595.78	301.93
595.94	271.50
596.10	358.10
596.25	365.12
596.41	330.02
596.57	266.82
596.73	248.10
596.88	332.36
597.04	367.46
597.20	470.45
597.36	561.73
597.51	458.74
597.67	395.55
597.83	362.78
597.99	320.65
598.14	351.08
598.30	374.49
598.46	250.44
598.61	325.33
598.77	318.31
598.93	355.76
599.09	311.29
599.24	271.50
599.40	227.03
599.56	266.82
599.71	339.38
599.87	365.12
600.03	376.83
600.18	351.08
600.34	285.55
600.50	308.95
600.65	292.57
600.81	346.40
600.97	299.59
601.12	297.25
601.28	271.50
601.44	334.70
601.59	304.27
601.75	397.89
601.91	269.16
602.06	234.05
602.22	355.76
602.37	346.40
602.53	367.46
602.69	535.98
602.84	514.92
603.00	470.45
603.16	334.70
603.31	327.68
603.47	393.21
603.62	334.70
603.78	278.52
603.94	271.50
604.09	191.92
604.25	311.29
604.40	301.93
604.56	315.97
604.71	290.23
604.87	238.73
605.03	341.72
605.18	322.99
605.34	327.68
605.49	248.10
605.65	294.91
605.80	266.82
605.96	294.91
606.12	299.59
606.27	285.55
606.43	280.86
606.58	287.89
606.74	425.98
606.89	571.09
607.05	751.31
607.20	1004.09
607.36	1011.11
607.51	662.37
607.67	631.94
607.82	477.47
607.98	444.70
608.13	414.27
608.29	379.17
608.44	376.83
608.60	367.46
608.75	388.53
608.91	451.72
609.06	779.40
609.22	1247.51
609.37	1568.16
609.53	1514.33
609.68	1100.05
609.84	905.79
609.99	702.16
610.15	697.48
610.30	727.91
610.46	723.23
610.61	866.00
