SpectraSuite Data File
++++++++++++++++++++++++++++++++++++
Date: Fri Oct 04 11:34:03 GMT-05:00 2013
User: price-jones
Dark Spectrum Present: No
Reference Spectrum Present: No
Number of Sampled Component Spectra: 1
Spectrometers: USB2+H05261
Integration Time (usec): 100000 (USB2+H05261)
Spectra Averaged: 1 (USB2+H05261)
Boxcar Smoothing: 0 (USB2+H05261)
Correct for Electrical Dark: No (USB2+H05261)
Strobe/Lamp Enabled: No (USB2+H05261)
Correct for Detector Non-linearity: No (USB2+H05261)
Correct for Stray Light: No (USB2+H05261)
Number of Pixels in Processed Spectrum: 2048
>>>>>Begin Processed Spectral Data<<<<<
365.73	86.60
365.92	86.60
366.12	86.60
366.32	0.00
366.52	0.00
366.72	0.00
366.91	0.00
367.11	0.00
367.31	0.00
367.51	18.72
367.70	0.00
367.90	0.00
368.10	0.00
368.30	0.00
368.49	0.00
368.69	25.75
368.89	0.00
369.09	0.00
369.28	30.43
369.48	21.06
369.68	4.68
369.87	0.00
370.07	2.34
370.27	21.06
370.47	21.06
370.66	86.60
370.86	102.98
371.06	74.90
371.25	93.62
371.45	126.39
371.65	77.24
371.84	102.98
372.04	74.90
372.24	110.01
372.44	100.64
372.63	79.58
372.83	212.99
373.03	131.07
373.22	135.75
373.42	67.88
373.62	77.24
373.81	142.77
374.01	180.22
374.21	133.41
374.40	102.98
374.60	166.18
374.79	163.84
374.99	102.98
375.19	149.79
375.38	138.09
375.58	112.35
375.78	180.22
375.97	110.01
376.17	182.56
376.37	156.82
376.56	173.20
376.76	95.96
376.95	112.35
377.15	156.82
377.35	138.09
377.54	152.13
377.74	114.69
377.93	170.86
378.13	159.16
378.33	210.65
378.52	135.75
378.72	236.39
378.91	147.45
379.11	119.37
379.31	149.79
379.50	140.43
379.70	201.29
379.89	217.67
380.09	149.79
380.28	105.32
380.48	88.94
380.68	159.16
380.87	67.88
381.07	58.51
381.26	58.51
381.46	170.86
381.65	91.28
381.85	154.48
382.04	140.43
382.24	124.05
382.43	110.01
382.63	100.64
382.83	170.86
383.02	114.69
383.22	227.03
383.41	110.01
383.61	51.49
383.80	117.03
384.00	77.24
384.19	194.26
384.39	208.31
384.58	149.79
384.78	110.01
384.97	138.09
385.17	161.50
385.36	166.18
385.56	128.73
385.75	121.71
385.95	189.58
386.14	189.58
386.34	184.90
386.53	117.03
386.72	138.09
386.92	229.37
387.11	187.24
387.31	140.43
387.50	133.41
387.70	133.41
387.89	138.09
388.09	156.82
388.28	191.92
388.48	142.77
388.67	105.32
388.86	149.79
389.06	110.01
389.25	177.88
389.45	177.88
389.64	220.01
389.84	175.54
390.03	126.39
390.22	170.86
390.42	74.90
390.61	142.77
390.81	72.56
391.00	220.01
391.19	133.41
391.39	117.03
391.58	191.92
391.78	126.39
391.97	147.45
392.16	126.39
392.36	91.28
392.55	126.39
392.75	145.11
392.94	60.85
393.13	180.22
393.33	105.32
393.52	128.73
393.71	173.20
393.91	138.09
394.10	131.07
394.29	152.13
394.49	210.65
394.68	114.69
394.88	243.42
395.07	203.63
395.26	168.52
395.46	159.16
395.65	168.52
395.84	182.56
396.04	177.88
396.23	135.75
396.42	161.50
396.62	217.67
396.81	107.66
397.00	131.07
397.19	156.82
397.39	147.45
397.58	128.73
397.77	131.07
397.97	131.07
398.16	156.82
398.35	189.58
398.55	133.41
398.74	154.48
398.93	147.45
399.12	124.05
399.32	168.52
399.51	175.54
399.70	198.95
399.90	95.96
400.09	187.24
400.28	145.11
400.47	147.45
400.67	187.24
400.86	189.58
401.05	234.05
401.24	222.35
401.44	161.50
401.63	138.09
401.82	175.54
402.01	152.13
402.21	114.69
402.40	210.65
402.59	161.50
402.78	191.92
402.97	252.78
403.17	220.01
403.36	154.48
403.55	102.98
403.74	145.11
403.93	196.60
404.13	301.93
404.32	266.82
404.51	285.55
404.70	201.29
404.89	145.11
405.09	198.95
405.28	114.69
405.47	100.64
405.66	184.90
405.85	121.71
406.05	135.75
406.24	77.24
406.43	114.69
406.62	138.09
406.81	224.69
407.00	210.65
407.20	128.73
407.39	159.16
407.58	124.05
407.77	135.75
407.96	184.90
408.15	205.97
408.34	135.75
408.54	189.58
408.73	124.05
408.92	147.45
409.11	166.18
409.30	250.44
409.49	124.05
409.68	161.50
409.87	173.20
410.07	170.86
410.26	126.39
410.45	135.75
410.64	168.52
410.83	149.79
411.02	215.33
411.21	217.67
411.40	154.48
411.59	142.77
411.78	110.01
411.98	154.48
412.17	187.24
412.36	142.77
412.55	191.92
412.74	79.58
412.93	168.52
413.12	238.73
413.31	198.95
413.50	170.86
413.69	133.41
413.88	220.01
414.07	184.90
414.26	142.77
414.45	135.75
414.64	128.73
414.83	194.26
415.02	147.45
415.22	170.86
415.41	124.05
415.60	147.45
415.79	152.13
415.98	175.54
416.17	131.07
416.36	194.26
416.55	163.84
416.74	156.82
416.93	180.22
417.12	135.75
417.31	124.05
417.50	121.71
417.69	234.05
417.88	191.92
418.07	229.37
418.26	252.78
418.45	177.88
418.64	184.90
418.83	191.92
419.02	266.82
419.21	194.26
419.39	215.33
419.58	119.37
419.77	191.92
419.96	205.97
420.15	236.39
420.34	156.82
420.53	173.20
420.72	112.35
420.91	189.58
421.10	152.13
421.29	161.50
421.48	196.60
421.67	170.86
421.86	166.18
422.05	154.48
422.24	168.52
422.43	147.45
422.61	196.60
422.80	126.39
422.99	191.92
423.18	203.63
423.37	152.13
423.56	177.88
423.75	191.92
423.94	112.35
424.13	98.30
424.32	182.56
424.50	170.86
424.69	102.98
424.88	184.90
425.07	220.01
425.26	173.20
425.45	278.52
425.64	224.69
425.83	189.58
426.01	220.01
426.20	173.20
426.39	212.99
426.58	187.24
426.77	166.18
426.96	208.31
427.15	156.82
427.33	102.98
427.52	194.26
427.71	173.20
427.90	135.75
428.09	102.98
428.28	121.71
428.46	102.98
428.65	152.13
428.84	175.54
429.03	168.52
429.22	142.77
429.40	133.41
429.59	131.07
429.78	196.60
429.97	105.32
430.16	138.09
430.34	210.65
430.53	131.07
430.72	126.39
430.91	147.45
431.10	187.24
431.28	152.13
431.47	231.71
431.66	243.42
431.85	177.88
432.03	149.79
432.22	163.84
432.41	191.92
432.60	236.39
432.79	222.35
432.97	294.91
433.16	315.97
433.35	243.42
433.54	175.54
433.72	224.69
433.91	184.90
434.10	241.08
434.28	313.63
434.47	205.97
434.66	243.42
434.85	86.60
435.03	215.33
435.22	400.23
435.41	550.03
435.59	519.60
435.78	327.68
435.97	243.42
436.16	238.73
436.34	152.13
436.53	234.05
436.72	215.33
436.90	182.56
437.09	180.22
437.28	184.90
437.46	142.77
437.65	191.92
437.84	131.07
438.02	285.55
438.21	175.54
438.40	124.05
438.58	180.22
438.77	196.60
438.96	117.03
439.14	210.65
439.33	189.58
439.52	135.75
439.70	198.95
439.89	173.20
440.08	248.10
440.26	177.88
440.45	175.54
440.63	217.67
440.82	234.05
441.01	138.09
441.19	184.90
441.38	217.67
441.57	170.86
441.75	163.84
441.94	266.82
442.12	191.92
442.31	142.77
442.50	159.16
442.68	126.39
442.87	241.08
443.05	187.24
443.24	198.95
443.43	156.82
443.61	220.01
443.80	170.86
443.98	227.03
444.17	182.56
444.35	159.16
444.54	147.45
444.73	208.31
444.91	147.45
445.10	133.41
445.28	145.11
445.47	110.01
445.65	205.97
445.84	98.30
446.02	166.18
446.21	128.73
446.39	220.01
446.58	149.79
446.77	196.60
446.95	231.71
447.14	224.69
447.32	217.67
447.51	196.60
447.69	217.67
447.88	154.48
448.06	145.11
448.25	208.31
448.43	152.13
448.62	138.09
448.80	191.92
448.99	184.90
449.17	138.09
449.36	142.77
449.54	173.20
449.73	126.39
449.91	177.88
450.10	119.37
450.28	227.03
450.46	220.01
450.65	224.69
450.83	231.71
451.02	168.52
451.20	191.92
451.39	215.33
451.57	205.97
451.76	201.29
451.94	142.77
452.13	124.05
452.31	163.84
452.49	189.58
452.68	208.31
452.86	231.71
453.05	220.01
453.23	217.67
453.42	175.54
453.60	229.37
453.78	145.11
453.97	243.42
454.15	201.29
454.34	170.86
454.52	215.33
454.70	250.44
454.89	210.65
455.07	156.82
455.26	222.35
455.44	191.92
455.62	212.99
455.81	273.84
455.99	196.60
456.17	243.42
456.36	145.11
456.54	166.18
456.73	238.73
456.91	257.46
457.09	147.45
457.28	189.58
457.46	196.60
457.64	245.76
457.83	175.54
458.01	121.71
458.19	168.52
458.38	238.73
458.56	149.79
458.74	180.22
458.93	138.09
459.11	224.69
459.29	173.20
459.48	224.69
459.66	166.18
459.84	255.12
460.03	205.97
460.21	205.97
460.39	147.45
460.57	215.33
460.76	248.10
460.94	201.29
461.12	205.97
461.31	205.97
461.49	227.03
461.67	201.29
461.85	138.09
462.04	191.92
462.22	660.03
462.40	234.05
462.59	196.60
462.77	149.79
462.95	133.41
463.13	205.97
463.32	215.33
463.50	278.52
463.68	234.05
463.86	198.95
464.05	135.75
464.23	255.12
464.41	222.35
464.59	227.03
464.78	241.08
464.96	182.56
465.14	187.24
465.32	182.56
465.50	163.84
465.69	245.76
465.87	74.90
466.05	168.52
466.23	187.24
466.41	142.77
466.60	220.01
466.78	189.58
466.96	215.33
467.14	154.48
467.32	189.58
467.51	203.63
467.69	205.97
467.87	168.52
468.05	156.82
468.23	283.20
468.41	152.13
468.60	184.90
468.78	173.20
468.96	278.52
469.14	170.86
469.32	208.31
469.50	187.24
469.69	168.52
469.87	224.69
470.05	257.46
470.23	229.37
470.41	175.54
470.59	191.92
470.77	234.05
470.95	201.29
471.14	269.16
471.32	159.16
471.50	152.13
471.68	154.48
471.86	196.60
472.04	231.71
472.22	203.63
472.40	133.41
472.58	215.33
472.77	184.90
472.95	110.01
473.13	229.37
473.31	259.80
473.49	170.86
473.67	159.16
473.85	241.08
474.03	191.92
474.21	173.20
474.39	212.99
474.57	170.86
474.75	205.97
474.93	159.16
475.12	215.33
475.30	299.59
475.48	187.24
475.66	203.63
475.84	173.20
476.02	227.03
476.20	217.67
476.38	145.11
476.56	257.46
476.74	208.31
476.92	212.99
477.10	222.35
477.28	210.65
477.46	177.88
477.64	215.33
477.82	145.11
478.00	182.56
478.18	231.71
478.36	175.54
478.54	152.13
478.72	168.52
478.90	238.73
479.08	191.92
479.26	133.41
479.44	292.57
479.62	241.08
479.80	198.95
479.98	168.52
480.16	243.42
480.34	182.56
480.52	227.03
480.70	271.50
480.88	229.37
481.06	187.24
481.24	149.79
481.41	156.82
481.59	313.63
481.77	229.37
481.95	266.82
482.13	196.60
482.31	196.60
482.49	229.37
482.67	156.82
482.85	198.95
483.03	252.78
483.21	191.92
483.39	201.29
483.57	236.39
483.74	273.84
483.92	234.05
484.10	259.80
484.28	297.25
484.46	196.60
484.64	198.95
484.82	287.89
485.00	231.71
485.18	238.73
485.35	248.10
485.53	196.60
485.71	252.78
485.89	210.65
486.07	224.69
486.25	290.23
486.43	271.50
486.61	290.23
486.78	243.42
486.96	292.57
487.14	224.69
487.32	278.52
487.50	271.50
487.68	269.16
487.85	229.37
488.03	283.20
488.21	224.69
488.39	259.80
488.57	290.23
488.75	187.24
488.92	491.51
489.10	299.59
489.28	297.25
489.46	236.39
489.64	255.12
489.81	266.82
489.99	250.44
490.17	315.97
490.35	320.65
490.53	262.14
490.70	299.59
490.88	276.18
491.06	236.39
491.24	255.12
491.41	245.76
491.59	290.23
491.77	234.05
491.95	278.52
492.13	273.84
492.30	187.24
492.48	227.03
492.66	248.10
492.84	201.29
493.01	273.84
493.19	222.35
493.37	278.52
493.54	252.78
493.72	245.76
493.90	198.95
494.08	252.78
494.25	241.08
494.43	372.15
494.61	234.05
494.79	269.16
494.96	248.10
495.14	311.29
495.32	259.80
495.49	311.29
495.67	334.70
495.85	238.73
496.02	257.46
496.20	285.55
496.38	301.93
496.55	306.61
496.73	292.57
496.91	245.76
497.09	313.63
497.26	276.18
497.44	243.42
497.62	294.91
497.79	236.39
497.97	203.63
498.14	231.71
498.32	182.56
498.50	290.23
498.67	273.84
498.85	241.08
499.03	306.61
499.20	278.52
499.38	234.05
499.56	215.33
499.73	196.60
499.91	259.80
500.08	273.84
500.26	196.60
500.44	327.68
500.61	212.99
500.79	294.91
500.97	278.52
501.14	294.91
501.32	283.20
501.49	236.39
501.67	212.99
501.84	236.39
502.02	266.82
502.20	362.78
502.37	273.84
502.55	182.56
502.72	231.71
502.90	294.91
503.07	283.20
503.25	269.16
503.43	273.84
503.60	229.37
503.78	245.76
503.95	224.69
504.13	280.86
504.30	236.39
504.48	308.95
504.65	241.08
504.83	259.80
505.01	278.52
505.18	255.12
505.36	250.44
505.53	245.76
505.71	231.71
505.88	201.29
506.06	315.97
506.23	304.27
506.41	250.44
506.58	255.12
506.76	285.55
506.93	205.97
507.11	311.29
507.28	224.69
507.46	252.78
507.63	325.33
507.81	285.55
507.98	304.27
508.16	203.63
508.33	308.95
508.50	255.12
508.68	201.29
508.85	224.69
509.03	191.92
509.20	269.16
509.38	292.57
509.55	297.25
509.73	276.18
509.90	278.52
510.08	212.99
510.25	294.91
510.42	212.99
510.60	191.92
510.77	311.29
510.95	290.23
511.12	273.84
511.30	301.93
511.47	287.89
511.64	348.74
511.82	222.35
511.99	252.78
512.17	266.82
512.34	238.73
512.51	273.84
512.69	255.12
512.86	248.10
513.04	241.08
513.21	257.46
513.38	290.23
513.56	250.44
513.73	227.03
513.90	285.55
514.08	262.14
514.25	234.05
514.43	313.63
514.60	273.84
514.77	294.91
514.95	243.42
515.12	311.29
515.29	236.39
515.47	222.35
515.64	313.63
515.81	243.42
515.99	269.16
516.16	234.05
516.33	313.63
516.51	243.42
516.68	248.10
516.85	191.92
517.03	201.29
517.20	276.18
517.37	241.08
517.54	248.10
517.72	212.99
517.89	196.60
518.06	191.92
518.24	320.65
518.41	327.68
518.58	322.99
518.75	276.18
518.93	252.78
519.10	287.89
519.27	294.91
519.45	252.78
519.62	301.93
519.79	217.67
519.96	276.18
520.14	255.12
520.31	355.76
520.48	280.86
520.65	201.29
520.83	241.08
521.00	311.29
521.17	297.25
521.34	229.37
521.52	294.91
521.69	269.16
521.86	257.46
522.03	285.55
522.20	287.89
522.38	299.59
522.55	264.48
522.72	264.48
522.89	322.99
523.07	269.16
523.24	248.10
523.41	304.27
523.58	196.60
523.75	250.44
523.92	234.05
524.10	182.56
524.27	255.12
524.44	208.31
524.61	276.18
524.78	308.95
524.96	285.55
525.13	313.63
525.30	266.82
525.47	273.84
525.64	250.44
525.81	241.08
525.98	299.59
526.16	205.97
526.33	234.05
526.50	250.44
526.67	217.67
526.84	208.31
527.01	198.95
527.18	318.31
527.36	294.91
527.53	126.39
527.70	332.36
527.87	299.59
528.04	287.89
528.21	311.29
528.38	276.18
528.55	322.99
528.72	278.52
528.89	290.23
529.07	252.78
529.24	285.55
529.41	320.65
529.58	327.68
529.75	379.17
529.92	252.78
530.09	297.25
530.26	308.95
530.43	367.46
530.60	367.46
530.77	259.80
530.94	297.25
531.11	280.86
531.28	283.20
531.46	327.68
531.63	287.89
531.80	222.35
531.97	287.89
532.14	231.71
532.31	201.29
532.48	322.99
532.65	388.53
532.82	449.38
532.99	425.98
533.16	379.17
533.33	381.51
533.50	358.10
533.67	287.89
533.84	407.25
534.01	458.74
534.18	362.78
534.35	297.25
534.52	306.61
534.69	365.12
534.86	262.14
535.03	306.61
535.20	315.97
535.37	348.74
535.54	236.39
535.71	243.42
535.88	304.27
536.05	262.14
536.22	313.63
536.38	322.99
536.55	285.55
536.72	297.25
536.89	320.65
537.06	299.59
537.23	297.25
537.40	292.57
537.57	243.42
537.74	318.31
537.91	297.25
538.08	325.33
538.25	372.15
538.42	257.46
538.59	299.59
538.75	332.36
538.92	308.95
539.09	358.10
539.26	346.40
539.43	521.94
539.60	1090.69
539.77	1551.78
539.94	1467.52
540.11	1100.05
540.28	870.68
540.44	641.31
540.61	498.53
540.78	514.92
540.95	512.58
541.12	550.03
541.29	554.71
541.46	599.18
541.62	587.47
541.79	601.52
541.96	561.73
542.13	514.92
542.30	564.07
542.47	500.87
542.63	559.39
542.80	500.87
542.97	540.66
543.14	482.15
543.31	538.32
543.48	451.72
543.64	489.17
543.81	582.79
543.98	550.03
544.15	465.77
544.32	514.92
544.48	507.90
544.65	472.79
544.82	444.70
544.99	543.00
545.16	477.47
545.32	514.92
545.49	704.50
545.66	957.28
545.83	1088.35
546.00	898.77
546.16	702.16
546.33	571.09
546.50	557.05
546.67	514.92
546.83	428.32
547.00	367.46
547.17	444.70
547.34	437.68
547.50	425.98
547.67	433.00
547.84	465.77
548.00	411.93
548.17	397.89
548.34	418.96
548.51	428.32
548.67	454.06
548.84	353.42
549.01	397.89
549.18	451.72
549.34	407.25
549.51	386.19
549.68	388.53
549.84	379.17
550.01	348.74
550.18	449.38
550.34	421.30
550.51	351.08
550.68	376.83
550.84	362.78
551.01	297.25
551.18	325.33
551.34	269.16
551.51	301.93
551.68	341.72
551.84	332.36
552.01	348.74
552.18	353.42
552.34	285.55
552.51	327.68
552.68	341.72
552.84	381.51
553.01	292.57
553.18	346.40
553.34	252.78
553.51	245.76
553.67	318.31
553.84	292.57
554.01	280.86
554.17	299.59
554.34	301.93
554.51	299.59
554.67	280.86
554.84	327.68
555.00	304.27
555.17	294.91
555.33	304.27
555.50	327.68
555.67	339.38
555.83	276.18
556.00	341.72
556.16	461.09
556.33	252.78
556.50	285.55
556.66	325.33
556.83	255.12
556.99	283.20
557.16	358.10
557.32	241.08
557.49	339.38
557.65	280.86
557.82	264.48
557.98	271.50
558.15	245.76
558.32	243.42
558.48	231.71
558.65	217.67
558.81	299.59
558.98	297.25
559.14	166.18
559.31	278.52
559.47	290.23
559.64	248.10
559.80	266.82
559.97	189.58
560.13	217.67
560.30	276.18
560.46	255.12
560.63	231.71
560.79	304.27
560.96	198.95
561.12	212.99
561.29	318.31
561.45	285.55
561.61	341.72
561.78	388.53
561.94	280.86
562.11	276.18
562.27	229.37
562.44	313.63
562.60	315.97
562.77	257.46
562.93	330.02
563.10	252.78
563.26	301.93
563.42	266.82
563.59	248.10
563.75	271.50
563.92	330.02
564.08	264.48
564.24	337.04
564.41	308.95
564.57	250.44
564.74	264.48
564.90	262.14
565.07	266.82
565.23	299.59
565.39	348.74
565.56	210.65
565.72	304.27
565.88	330.02
566.05	280.86
566.21	367.46
566.38	234.05
566.54	297.25
566.70	227.03
566.87	243.42
567.03	297.25
567.19	276.18
567.36	271.50
567.52	196.60
567.68	297.25
567.85	229.37
568.01	257.46
568.17	266.82
568.34	297.25
568.50	231.71
568.66	259.80
568.83	311.29
568.99	306.61
569.15	177.88
569.32	250.44
569.48	245.76
569.64	285.55
569.81	252.78
569.97	273.84
570.13	224.69
570.30	210.65
570.46	259.80
570.62	327.68
570.78	229.37
570.95	229.37
571.11	262.14
571.27	395.55
571.43	252.78
571.60	248.10
571.76	250.44
571.92	301.93
572.09	210.65
572.25	271.50
572.41	262.14
572.57	299.59
572.74	351.08
572.90	236.39
573.06	257.46
573.22	241.08
573.38	276.18
573.55	191.92
573.71	346.40
573.87	212.99
574.03	215.33
574.20	299.59
574.36	304.27
574.52	264.48
574.68	388.53
574.84	308.95
575.01	273.84
575.17	325.33
575.33	234.05
575.49	306.61
575.65	313.63
575.82	365.12
575.98	545.34
576.14	697.48
576.30	786.42
576.46	561.73
576.62	538.32
576.79	477.47
576.95	421.30
577.11	304.27
577.27	330.02
577.43	346.40
577.59	313.63
577.75	348.74
577.92	327.68
578.08	259.80
578.24	241.08
578.40	367.46
578.56	437.68
578.72	414.27
578.88	472.79
579.04	411.93
579.21	376.83
579.37	332.36
579.53	351.08
579.69	304.27
579.85	369.80
580.01	444.70
580.17	404.91
580.33	461.09
580.49	493.85
580.65	435.34
580.82	381.51
580.98	402.57
581.14	383.85
581.30	386.19
581.46	477.47
581.62	566.41
581.78	613.22
581.94	660.03
582.10	592.16
582.26	524.28
582.42	475.13
582.58	472.79
582.74	547.69
582.90	500.87
583.06	533.64
583.22	449.38
583.38	510.24
583.54	552.37
583.70	678.76
583.86	683.44
584.02	699.82
584.18	875.36
584.34	1100.05
584.50	2757.15
584.66	18909.19
584.82	52051.17
584.98	62700.61
585.14	60369.44
585.30	44797.85
585.46	26691.47
585.62	16741.85
585.78	7686.32
585.94	3089.51
586.10	1533.05
586.26	1062.60
586.42	891.74
586.58	725.57
586.74	725.57
586.90	763.01
587.06	781.74
587.22	603.86
587.38	641.31
587.54	1083.67
587.70	3176.11
587.86	5266.21
588.02	6120.50
588.18	4201.26
588.34	2656.51
588.49	1839.66
588.65	1167.93
588.81	678.76
588.97	444.70
589.13	339.38
589.29	341.72
589.45	407.25
589.61	477.47
589.77	390.87
589.93	475.13
590.08	559.39
590.24	540.66
590.40	533.64
590.56	425.98
590.72	425.98
590.88	374.49
591.04	444.70
591.20	355.76
591.35	430.66
591.51	344.06
591.67	337.04
591.83	369.80
591.99	381.51
592.15	390.87
592.31	353.42
592.46	416.62
592.62	414.27
592.78	388.53
592.94	416.62
593.10	423.64
593.26	449.38
593.41	393.21
593.57	486.83
593.73	638.97
593.89	2431.82
594.05	6408.39
594.20	9774.08
594.36	9425.34
594.52	6310.08
594.68	4074.87
594.84	2703.32
594.99	1614.97
595.15	842.59
595.31	512.58
595.47	451.72
595.62	435.34
595.78	346.40
595.94	397.89
596.10	449.38
596.25	301.93
596.41	400.23
596.57	386.19
596.73	381.51
596.88	521.94
597.04	1238.14
597.20	2118.18
597.36	2572.25
597.51	1872.43
597.67	1306.02
597.83	889.40
597.99	725.57
598.14	514.92
598.30	325.33
598.46	332.36
598.61	402.57
598.77	482.15
598.93	369.80
599.09	421.30
599.24	402.57
599.40	348.74
599.56	341.72
599.71	334.70
599.87	245.76
600.03	355.76
600.18	276.18
600.34	308.95
600.50	280.86
600.65	297.25
600.81	346.40
600.97	322.99
601.12	299.59
601.28	299.59
601.44	250.44
601.59	325.33
601.75	339.38
601.91	327.68
602.06	304.27
602.22	393.21
602.37	702.16
602.53	1516.67
602.69	2534.80
602.84	2642.46
603.00	1942.64
603.16	1341.13
603.31	1039.20
603.47	718.54
603.62	489.17
603.78	308.95
603.94	332.36
604.09	430.66
604.25	358.10
604.40	372.15
604.56	318.31
604.71	269.16
604.87	259.80
605.03	290.23
605.18	337.04
605.34	346.40
605.49	322.99
605.65	395.55
605.80	397.89
605.96	386.19
606.12	344.06
606.27	407.25
606.43	393.21
606.58	411.93
606.74	833.23
606.89	2906.95
607.05	6143.91
607.20	8552.32
607.36	7117.57
607.51	4791.08
607.67	3016.95
607.82	2260.96
607.98	1303.68
608.13	711.52
608.29	521.94
608.44	456.40
608.60	475.13
608.75	596.84
608.91	1158.57
609.06	4507.87
609.22	10647.10
609.37	14693.88
609.53	13057.85
609.68	8889.35
609.84	5853.68
609.99	3974.23
610.15	2345.22
