SpectraSuite Data File
++++++++++++++++++++++++++++++++++++
Date: Fri Oct 04 11:34:00 GMT-05:00 2013
User: price-jones
Dark Spectrum Present: No
Reference Spectrum Present: No
Number of Sampled Component Spectra: 1
Spectrometers: USB2+H05261
Integration Time (usec): 100000 (USB2+H05261)
Spectra Averaged: 1 (USB2+H05261)
Boxcar Smoothing: 0 (USB2+H05261)
Correct for Electrical Dark: No (USB2+H05261)
Strobe/Lamp Enabled: No (USB2+H05261)
Correct for Detector Non-linearity: No (USB2+H05261)
Correct for Stray Light: No (USB2+H05261)
Number of Pixels in Processed Spectrum: 2048
>>>>>Begin Processed Spectral Data<<<<<
365.73	121.71
365.92	121.71
366.12	121.71
366.32	4.68
366.52	0.00
366.72	11.70
366.91	0.00
367.11	0.00
367.31	0.00
367.51	0.00
367.70	0.00
367.90	0.00
368.10	0.00
368.30	0.00
368.49	0.00
368.69	0.00
368.89	21.06
369.09	0.00
369.28	0.00
369.48	11.70
369.68	30.43
369.87	44.47
370.07	0.00
370.27	21.06
370.47	28.09
370.66	58.51
370.86	100.64
371.06	81.92
371.25	117.03
371.45	58.51
371.65	84.26
371.84	81.92
372.04	117.03
372.24	124.05
372.44	189.58
372.63	177.88
372.83	217.67
373.03	208.31
373.22	81.92
373.42	112.35
373.62	79.58
373.81	142.77
374.01	210.65
374.21	189.58
374.40	156.82
374.60	201.29
374.79	156.82
374.99	173.20
375.19	124.05
375.38	88.94
375.58	189.58
375.78	217.67
375.97	180.22
376.17	205.97
376.37	156.82
376.56	128.73
376.76	95.96
376.95	121.71
377.15	241.08
377.35	189.58
377.54	201.29
377.74	138.09
377.93	138.09
378.13	128.73
378.33	124.05
378.52	98.30
378.72	138.09
378.91	175.54
379.11	145.11
379.31	147.45
379.50	107.66
379.70	170.86
379.89	194.26
380.09	152.13
380.28	100.64
380.48	138.09
380.68	149.79
380.87	86.60
381.07	88.94
381.26	161.50
381.46	170.86
381.65	170.86
381.85	42.13
382.04	126.39
382.24	124.05
382.43	184.90
382.63	135.75
382.83	51.49
383.02	149.79
383.22	166.18
383.41	126.39
383.61	166.18
383.80	159.16
384.00	154.48
384.19	114.69
384.39	149.79
384.58	114.69
384.78	84.26
384.97	248.10
385.17	112.35
385.36	147.45
385.56	135.75
385.75	114.69
385.95	135.75
386.14	168.52
386.34	163.84
386.53	124.05
386.72	187.24
386.92	154.48
387.11	191.92
387.31	184.90
387.50	180.22
387.70	65.54
387.89	159.16
388.09	124.05
388.28	84.26
388.48	149.79
388.67	84.26
388.86	102.98
389.06	98.30
389.25	135.75
389.45	74.90
389.64	215.33
389.84	138.09
390.03	152.13
390.22	112.35
390.42	102.98
390.61	102.98
390.81	98.30
391.00	117.03
391.19	166.18
391.39	86.60
391.58	166.18
391.78	149.79
391.97	142.77
392.16	131.07
392.36	124.05
392.55	142.77
392.75	126.39
392.94	138.09
393.13	107.66
393.33	154.48
393.52	77.24
393.71	175.54
393.91	107.66
394.10	93.62
394.29	117.03
394.49	105.32
394.68	107.66
394.88	107.66
395.07	152.13
395.26	191.92
395.46	140.43
395.65	163.84
395.84	119.37
396.04	215.33
396.23	182.56
396.42	79.58
396.62	196.60
396.81	161.50
397.00	133.41
397.19	117.03
397.39	145.11
397.58	168.52
397.77	152.13
397.97	102.98
398.16	175.54
398.35	102.98
398.55	140.43
398.74	100.64
398.93	124.05
399.12	161.50
399.32	126.39
399.51	152.13
399.70	117.03
399.90	88.94
400.09	135.75
400.28	135.75
400.47	173.20
400.67	86.60
400.86	166.18
401.05	133.41
401.24	128.73
401.44	173.20
401.63	205.97
401.82	149.79
402.01	203.63
402.21	201.29
402.40	140.43
402.59	166.18
402.78	145.11
402.97	126.39
403.17	107.66
403.36	149.79
403.55	203.63
403.74	93.62
403.93	114.69
404.13	227.03
404.32	175.54
404.51	133.41
404.70	182.56
404.89	145.11
405.09	182.56
405.28	124.05
405.47	175.54
405.66	131.07
405.85	194.26
406.05	149.79
406.24	175.54
406.43	198.95
406.62	138.09
406.81	222.35
407.00	159.16
407.20	166.18
407.39	126.39
407.58	222.35
407.77	91.28
407.96	175.54
408.15	173.20
408.34	203.63
408.54	93.62
408.73	152.13
408.92	154.48
409.11	187.24
409.30	112.35
409.49	145.11
409.68	105.32
409.87	145.11
410.07	112.35
410.26	166.18
410.45	77.24
410.64	201.29
410.83	140.43
411.02	121.71
411.21	168.52
411.40	159.16
411.59	210.65
411.78	217.67
411.98	128.73
412.17	152.13
412.36	156.82
412.55	210.65
412.74	201.29
412.93	105.32
413.12	163.84
413.31	126.39
413.50	163.84
413.69	229.37
413.88	95.96
414.07	163.84
414.26	170.86
414.45	126.39
414.64	112.35
414.83	152.13
415.02	173.20
415.22	203.63
415.41	131.07
415.60	184.90
415.79	131.07
415.98	215.33
416.17	184.90
416.36	201.29
416.55	173.20
416.74	189.58
416.93	196.60
417.12	194.26
417.31	135.75
417.50	175.54
417.69	250.44
417.88	180.22
418.07	217.67
418.26	147.45
418.45	189.58
418.64	259.80
418.83	191.92
419.02	168.52
419.21	114.69
419.39	245.76
419.58	133.41
419.77	154.48
419.96	168.52
420.15	217.67
420.34	257.46
420.53	194.26
420.72	170.86
420.91	140.43
421.10	126.39
421.29	135.75
421.48	175.54
421.67	131.07
421.86	220.01
422.05	201.29
422.24	180.22
422.43	135.75
422.61	95.96
422.80	184.90
422.99	77.24
423.18	107.66
423.37	250.44
423.56	138.09
423.75	173.20
423.94	145.11
424.13	198.95
424.32	220.01
424.50	203.63
424.69	135.75
424.88	173.20
425.07	168.52
425.26	212.99
425.45	222.35
425.64	175.54
425.83	203.63
426.01	201.29
426.20	212.99
426.39	189.58
426.58	177.88
426.77	180.22
426.96	131.07
427.15	114.69
427.33	220.01
427.52	159.16
427.71	224.69
427.90	194.26
428.09	152.13
428.28	128.73
428.46	161.50
428.65	159.16
428.84	175.54
429.03	229.37
429.22	215.33
429.40	217.67
429.59	145.11
429.78	170.86
429.97	131.07
430.16	107.66
430.34	215.33
430.53	145.11
430.72	70.22
430.91	238.73
431.10	173.20
431.28	191.92
431.47	163.84
431.66	152.13
431.85	231.71
432.03	149.79
432.22	266.82
432.41	215.33
432.60	166.18
432.79	147.45
432.97	215.33
433.16	205.97
433.35	156.82
433.54	227.03
433.72	182.56
433.91	173.20
434.10	196.60
434.28	201.29
434.47	196.60
434.66	196.60
434.85	81.92
435.03	245.76
435.22	358.10
435.41	376.83
435.59	451.72
435.78	241.08
435.97	227.03
436.16	217.67
436.34	196.60
436.53	184.90
436.72	196.60
436.90	201.29
437.09	175.54
437.28	208.31
437.46	182.56
437.65	191.92
437.84	229.37
438.02	205.97
438.21	168.52
438.40	168.52
438.58	166.18
438.77	184.90
438.96	184.90
439.14	180.22
439.33	95.96
439.52	154.48
439.70	102.98
439.89	170.86
440.08	147.45
440.26	189.58
440.45	187.24
440.63	180.22
440.82	173.20
441.01	266.82
441.19	163.84
441.38	149.79
441.57	119.37
441.75	215.33
441.94	198.95
442.12	180.22
442.31	180.22
442.50	177.88
442.68	180.22
442.87	133.41
443.05	184.90
443.24	194.26
443.43	98.30
443.61	241.08
443.80	180.22
443.98	182.56
444.17	170.86
444.35	196.60
444.54	217.67
444.73	205.97
444.91	259.80
445.10	138.09
445.28	250.44
445.47	194.26
445.65	107.66
445.84	194.26
446.02	177.88
446.21	161.50
446.39	184.90
446.58	208.31
446.77	170.86
446.95	140.43
447.14	140.43
447.32	124.05
447.51	191.92
447.69	175.54
447.88	229.37
448.06	201.29
448.25	205.97
448.43	194.26
448.62	170.86
448.80	161.50
448.99	163.84
449.17	180.22
449.36	140.43
449.54	217.67
449.73	170.86
449.91	227.03
450.10	119.37
450.28	227.03
450.46	152.13
450.65	194.26
450.83	177.88
451.02	170.86
451.20	163.84
451.39	163.84
451.57	135.75
451.76	147.45
451.94	163.84
452.13	255.12
452.31	175.54
452.49	203.63
452.68	145.11
452.86	187.24
453.05	203.63
453.23	264.48
453.42	138.09
453.60	124.05
453.78	133.41
453.97	212.99
454.15	135.75
454.34	135.75
454.52	145.11
454.70	210.65
454.89	203.63
455.07	173.20
455.26	250.44
455.44	184.90
455.62	217.67
455.81	180.22
455.99	187.24
456.17	299.59
456.36	208.31
456.54	173.20
456.73	180.22
456.91	191.92
457.09	184.90
457.28	215.33
457.46	201.29
457.64	128.73
457.83	194.26
458.01	205.97
458.19	187.24
458.38	189.58
458.56	227.03
458.74	166.18
458.93	114.69
459.11	149.79
459.29	175.54
459.48	198.95
459.66	236.39
459.84	220.01
460.03	245.76
460.21	201.29
460.39	184.90
460.57	182.56
460.76	201.29
460.94	145.11
461.12	194.26
461.31	196.60
461.49	180.22
461.67	149.79
461.85	161.50
462.04	208.31
462.22	674.07
462.40	259.80
462.59	177.88
462.77	163.84
462.95	194.26
463.13	196.60
463.32	212.99
463.50	194.26
463.68	212.99
463.86	140.43
464.05	238.73
464.23	224.69
464.41	163.84
464.59	205.97
464.78	145.11
464.96	173.20
465.14	262.14
465.32	208.31
465.50	135.75
465.69	182.56
465.87	140.43
466.05	196.60
466.23	229.37
466.41	210.65
466.60	208.31
466.78	95.96
466.96	220.01
467.14	177.88
467.32	234.05
467.51	210.65
467.69	236.39
467.87	248.10
468.05	215.33
468.23	184.90
468.41	252.78
468.60	189.58
468.78	161.50
468.96	180.22
469.14	156.82
469.32	91.28
469.50	205.97
469.69	182.56
469.87	250.44
470.05	210.65
470.23	205.97
470.41	142.77
470.59	180.22
470.77	198.95
470.95	198.95
471.14	210.65
471.32	203.63
471.50	154.48
471.68	135.75
471.86	184.90
472.04	180.22
472.22	182.56
472.40	149.79
472.58	156.82
472.77	191.92
472.95	248.10
473.13	236.39
473.31	222.35
473.49	210.65
473.67	163.84
473.85	170.86
474.03	175.54
474.21	126.39
474.39	243.42
474.57	241.08
474.75	224.69
474.93	177.88
475.12	198.95
475.30	77.24
475.48	208.31
475.66	248.10
475.84	227.03
476.02	222.35
476.20	280.86
476.38	224.69
476.56	243.42
476.74	135.75
476.92	159.16
477.10	187.24
477.28	236.39
477.46	175.54
477.64	234.05
477.82	182.56
478.00	243.42
478.18	241.08
478.36	161.50
478.54	154.48
478.72	149.79
478.90	189.58
479.08	194.26
479.26	196.60
479.44	276.18
479.62	257.46
479.80	107.66
479.98	147.45
480.16	159.16
480.34	182.56
480.52	196.60
480.70	173.20
480.88	229.37
481.06	220.01
481.24	203.63
481.41	212.99
481.59	264.48
481.77	168.52
481.95	245.76
482.13	262.14
482.31	205.97
482.49	313.63
482.67	182.56
482.85	215.33
483.03	203.63
483.21	220.01
483.39	220.01
483.57	201.29
483.74	175.54
483.92	220.01
484.10	187.24
484.28	285.55
484.46	297.25
484.64	203.63
484.82	215.33
485.00	250.44
485.18	224.69
485.35	248.10
485.53	194.26
485.71	252.78
485.89	189.58
486.07	264.48
486.25	224.69
486.43	241.08
486.61	259.80
486.78	257.46
486.96	290.23
487.14	168.52
487.32	212.99
487.50	290.23
487.68	238.73
487.85	222.35
488.03	234.05
488.21	269.16
488.39	299.59
488.57	248.10
488.75	231.71
488.92	470.45
489.10	217.67
489.28	266.82
489.46	196.60
489.64	250.44
489.81	250.44
489.99	285.55
490.17	304.27
490.35	299.59
490.53	229.37
490.70	285.55
490.88	252.78
491.06	308.95
491.24	252.78
491.41	262.14
491.59	269.16
491.77	217.67
491.95	177.88
492.13	245.76
492.30	198.95
492.48	266.82
492.66	264.48
492.84	212.99
493.01	245.76
493.19	177.88
493.37	301.93
493.54	234.05
493.72	224.69
493.90	266.82
494.08	234.05
494.25	241.08
494.43	278.52
494.61	222.35
494.79	255.12
494.96	145.11
495.14	196.60
495.32	159.16
495.49	215.33
495.67	238.73
495.85	191.92
496.02	205.97
496.20	217.67
496.38	201.29
496.55	234.05
496.73	156.82
496.91	259.80
497.09	184.90
497.26	229.37
497.44	212.99
497.62	297.25
497.79	276.18
497.97	198.95
498.14	278.52
498.32	189.58
498.50	287.89
498.67	241.08
498.85	273.84
499.03	182.56
499.20	269.16
499.38	304.27
499.56	266.82
499.73	301.93
499.91	266.82
500.08	285.55
500.26	222.35
500.44	294.91
500.61	290.23
500.79	224.69
500.97	255.12
501.14	252.78
501.32	264.48
501.49	252.78
501.67	287.89
501.84	217.67
502.02	276.18
502.20	243.42
502.37	269.16
502.55	212.99
502.72	266.82
502.90	337.04
503.07	212.99
503.25	252.78
503.43	175.54
503.60	222.35
503.78	208.31
503.95	180.22
504.13	231.71
504.30	227.03
504.48	250.44
504.65	292.57
504.83	177.88
505.01	292.57
505.18	266.82
505.36	243.42
505.53	266.82
505.71	299.59
505.88	208.31
506.06	201.29
506.23	208.31
506.41	201.29
506.58	379.17
506.76	294.91
506.93	308.95
507.11	259.80
507.28	231.71
507.46	259.80
507.63	252.78
507.81	217.67
507.98	224.69
508.16	283.20
508.33	212.99
508.50	250.44
508.68	252.78
508.85	290.23
509.03	196.60
509.20	262.14
509.38	259.80
509.55	264.48
509.73	238.73
509.90	234.05
510.08	280.86
510.25	257.46
510.42	238.73
510.60	203.63
510.77	297.25
510.95	255.12
511.12	191.92
511.30	337.04
511.47	299.59
511.64	264.48
511.82	264.48
511.99	285.55
512.17	187.24
512.34	224.69
512.51	280.86
512.69	170.86
512.86	241.08
513.04	334.70
513.21	250.44
513.38	229.37
513.56	236.39
513.73	142.77
513.90	266.82
514.08	259.80
514.25	243.42
514.43	266.82
514.60	222.35
514.77	227.03
514.95	304.27
515.12	189.58
515.29	292.57
515.47	212.99
515.64	271.50
515.81	250.44
515.99	245.76
516.16	311.29
516.33	266.82
516.51	220.01
516.68	252.78
516.85	259.80
517.03	278.52
517.20	320.65
517.37	294.91
517.54	208.31
517.72	198.95
517.89	198.95
518.06	184.90
518.24	308.95
518.41	205.97
518.58	175.54
518.75	280.86
518.93	290.23
519.10	229.37
519.27	229.37
519.45	269.16
519.62	273.84
519.79	271.50
519.96	212.99
520.14	231.71
520.31	243.42
520.48	245.76
520.65	224.69
520.83	252.78
521.00	203.63
521.17	220.01
521.34	322.99
521.52	252.78
521.69	255.12
521.86	227.03
522.03	283.20
522.20	210.65
522.38	227.03
522.55	283.20
522.72	212.99
522.89	222.35
523.07	203.63
523.24	215.33
523.41	245.76
523.58	311.29
523.75	287.89
523.92	224.69
524.10	243.42
524.27	255.12
524.44	276.18
524.61	318.31
524.78	257.46
524.96	231.71
525.13	248.10
525.30	224.69
525.47	259.80
525.64	264.48
525.81	166.18
525.98	276.18
526.16	297.25
526.33	301.93
526.50	163.84
526.67	212.99
526.84	229.37
527.01	189.58
527.18	271.50
527.36	285.55
527.53	259.80
527.70	257.46
527.87	196.60
528.04	255.12
528.21	234.05
528.38	276.18
528.55	285.55
528.72	231.71
528.89	273.84
529.07	276.18
529.24	318.31
529.41	257.46
529.58	215.33
529.75	287.89
529.92	290.23
530.09	283.20
530.26	262.14
530.43	255.12
530.60	236.39
530.77	266.82
530.94	248.10
531.11	290.23
531.28	215.33
531.46	264.48
531.63	290.23
531.80	301.93
531.97	294.91
532.14	248.10
532.31	243.42
532.48	330.02
532.65	285.55
532.82	365.12
532.99	292.57
533.16	283.20
533.33	318.31
533.50	266.82
533.67	299.59
533.84	327.68
534.01	276.18
534.18	379.17
534.35	255.12
534.52	294.91
534.69	308.95
534.86	290.23
535.03	238.73
535.20	320.65
535.37	355.76
535.54	191.92
535.71	257.46
535.88	393.21
536.05	315.97
536.22	278.52
536.38	264.48
536.55	318.31
536.72	294.91
536.89	299.59
537.06	278.52
537.23	234.05
537.40	217.67
537.57	215.33
537.74	318.31
537.91	278.52
538.08	337.04
538.25	301.93
538.42	320.65
538.59	299.59
538.75	322.99
538.92	285.55
539.09	367.46
539.26	348.74
539.43	440.02
539.60	547.69
539.77	660.03
539.94	610.88
540.11	561.73
540.28	514.92
540.44	423.64
540.61	376.83
540.78	365.12
540.95	425.98
541.12	454.06
541.29	449.38
541.46	545.34
541.62	514.92
541.79	531.30
541.96	505.56
542.13	498.53
542.30	477.47
542.47	449.38
542.63	442.36
542.80	456.40
542.97	458.74
543.14	421.30
543.31	440.02
543.48	510.24
543.64	489.17
543.81	442.36
543.98	557.05
544.15	454.06
544.32	435.34
544.48	503.22
544.65	507.90
544.82	456.40
544.99	428.32
545.16	512.58
545.32	514.92
545.49	653.01
545.66	770.04
545.83	868.34
546.00	847.27
546.16	592.16
546.33	503.22
546.50	360.44
546.67	461.09
546.83	500.87
547.00	451.72
547.17	372.15
547.34	407.25
547.50	409.59
547.67	325.33
547.84	409.59
548.00	280.86
548.17	330.02
548.34	402.57
548.51	407.25
548.67	423.64
548.84	400.23
549.01	383.85
549.18	360.44
549.34	332.36
549.51	369.80
549.68	287.89
549.84	404.91
550.01	304.27
550.18	362.78
550.34	299.59
550.51	330.02
550.68	322.99
550.84	327.68
551.01	306.61
551.18	369.80
551.34	330.02
551.51	271.50
551.68	280.86
551.84	299.59
552.01	259.80
552.18	367.46
552.34	297.25
552.51	231.71
552.68	322.99
552.84	311.29
553.01	262.14
553.18	367.46
553.34	212.99
553.51	334.70
553.67	252.78
553.84	400.23
554.01	285.55
554.17	327.68
554.34	241.08
554.51	339.38
554.67	304.27
554.84	292.57
555.00	255.12
555.17	332.36
555.33	259.80
555.50	322.99
555.67	189.58
555.83	231.71
556.00	266.82
556.16	433.00
556.33	325.33
556.50	266.82
556.66	236.39
556.83	252.78
556.99	210.65
557.16	241.08
557.32	276.18
557.49	264.48
557.65	264.48
557.82	243.42
557.98	231.71
558.15	255.12
558.32	248.10
558.48	196.60
558.65	210.65
558.81	276.18
558.98	320.65
559.14	236.39
559.31	304.27
559.47	208.31
559.64	203.63
559.80	290.23
559.97	257.46
560.13	280.86
560.30	191.92
560.46	287.89
560.63	269.16
560.79	339.38
560.96	187.24
561.12	210.65
561.29	337.04
561.45	259.80
561.61	313.63
561.78	264.48
561.94	208.31
562.11	224.69
562.27	313.63
562.44	299.59
562.60	241.08
562.77	220.01
562.93	280.86
563.10	264.48
563.26	283.20
563.42	311.29
563.59	285.55
563.75	128.73
563.92	241.08
564.08	285.55
564.24	264.48
564.41	339.38
564.57	208.31
564.74	257.46
564.90	341.72
565.07	344.06
565.23	290.23
565.39	264.48
565.56	243.42
565.72	248.10
565.88	283.20
566.05	252.78
566.21	245.76
566.38	299.59
566.54	212.99
566.70	224.69
566.87	238.73
567.03	245.76
567.19	243.42
567.36	257.46
567.52	248.10
567.68	229.37
567.85	280.86
568.01	229.37
568.17	236.39
568.34	269.16
568.50	250.44
568.66	187.24
568.83	318.31
568.99	243.42
569.15	269.16
569.32	238.73
569.48	238.73
569.64	255.12
569.81	278.52
569.97	278.52
570.13	243.42
570.30	194.26
570.46	255.12
570.62	266.82
570.78	252.78
570.95	245.76
571.11	259.80
571.27	320.65
571.43	236.39
571.60	264.48
571.76	196.60
571.92	236.39
572.09	262.14
572.25	229.37
572.41	205.97
572.57	315.97
572.74	294.91
572.90	189.58
573.06	320.65
573.22	285.55
573.38	285.55
573.55	217.67
573.71	222.35
573.87	271.50
574.03	231.71
574.20	205.97
574.36	278.52
574.52	341.72
574.68	330.02
574.84	292.57
575.01	238.73
575.17	264.48
575.33	332.36
575.49	259.80
575.65	311.29
575.82	301.93
575.98	278.52
576.14	442.36
576.30	458.74
576.46	381.51
576.62	411.93
576.79	416.62
576.95	341.72
577.11	290.23
577.27	285.55
577.43	330.02
577.59	266.82
577.75	212.99
577.92	259.80
578.08	290.23
578.24	243.42
578.40	241.08
578.56	383.85
578.72	458.74
578.88	365.12
579.04	259.80
579.21	313.63
579.37	283.20
579.53	276.18
579.69	325.33
579.85	292.57
580.01	346.40
580.17	348.74
580.33	252.78
580.49	322.99
580.65	311.29
580.82	311.29
580.98	299.59
581.14	283.20
581.30	386.19
581.46	341.72
581.62	346.40
581.78	388.53
581.94	337.04
582.10	379.17
582.26	440.02
582.42	388.53
582.58	337.04
582.74	390.87
582.90	322.99
583.06	339.38
583.22	318.31
583.38	311.29
583.54	407.25
583.70	381.51
583.86	449.38
584.02	421.30
584.18	500.87
584.34	526.62
584.50	1074.31
584.66	6469.24
584.82	14331.10
584.98	18403.63
585.14	15707.34
585.30	9893.44
585.46	6289.02
585.62	3969.55
585.78	1858.39
585.94	980.68
586.10	622.58
586.26	440.02
586.42	395.55
586.58	451.72
586.74	435.34
586.90	416.62
587.06	418.96
587.22	388.53
587.38	386.19
587.54	510.24
587.70	1139.84
587.86	1507.30
588.02	1551.78
588.18	1172.61
588.34	870.68
588.49	503.22
588.65	390.87
588.81	311.29
588.97	351.08
589.13	299.59
589.29	259.80
589.45	292.57
589.61	276.18
589.77	330.02
589.93	308.95
590.08	283.20
590.24	234.05
590.40	285.55
590.56	355.76
590.72	255.12
590.88	285.55
591.04	259.80
591.20	266.82
591.35	351.08
591.51	339.38
591.67	332.36
591.83	255.12
591.99	304.27
592.15	238.73
592.31	262.14
592.46	313.63
592.62	325.33
592.78	241.08
592.94	271.50
593.10	358.10
593.26	229.37
593.41	330.02
593.57	313.63
593.73	379.17
593.89	1053.24
594.05	1863.07
594.20	2649.49
594.36	2312.45
594.52	1549.43
594.68	1086.01
594.84	807.48
594.99	482.15
595.15	374.49
595.31	344.06
595.47	292.57
595.62	271.50
595.78	269.16
595.94	294.91
596.10	259.80
596.25	325.33
596.41	290.23
596.57	273.84
596.73	283.20
596.88	290.23
597.04	521.94
597.20	688.12
597.36	943.24
597.51	589.82
597.67	512.58
597.83	444.70
597.99	367.46
598.14	266.82
598.30	285.55
598.46	283.20
598.61	308.95
598.77	318.31
598.93	318.31
599.09	234.05
599.24	304.27
599.40	372.15
599.56	266.82
599.71	290.23
599.87	290.23
600.03	322.99
600.18	248.10
600.34	301.93
600.50	259.80
600.65	234.05
600.81	203.63
600.97	198.95
601.12	285.55
601.28	306.61
601.44	255.12
601.59	278.52
601.75	290.23
601.91	231.71
602.06	236.39
602.22	287.89
602.37	430.66
602.53	674.07
602.69	889.40
602.84	770.04
603.00	582.79
603.16	475.13
603.31	477.47
603.47	390.87
603.62	278.52
603.78	297.25
603.94	273.84
604.09	217.67
604.25	313.63
604.40	327.68
604.56	351.08
604.71	313.63
604.87	231.71
605.03	238.73
605.18	290.23
605.34	330.02
605.49	334.70
605.65	315.97
605.80	234.05
605.96	266.82
606.12	297.25
606.27	402.57
606.43	292.57
606.58	327.68
606.74	463.43
606.89	1090.69
607.05	1750.72
607.20	2167.34
607.36	1727.32
607.51	1221.76
607.67	933.87
607.82	720.88
607.98	512.58
608.13	430.66
608.29	383.85
608.44	346.40
608.60	334.70
608.75	367.46
608.91	547.69
609.06	1668.80
609.22	2937.37
609.37	3318.88
609.53	3014.61
609.68	2069.03
609.84	1516.67
609.99	1165.59
610.15	795.78
610.30	638.97
610.46	667.05
610.61	676.41
