SpectraSuite Data File
++++++++++++++++++++++++++++++++++++
Date: Fri Oct 04 11:33:56 GMT-05:00 2013
User: price-jones
Dark Spectrum Present: No
Reference Spectrum Present: No
Number of Sampled Component Spectra: 1
Spectrometers: USB2+H05261
Integration Time (usec): 100000 (USB2+H05261)
Spectra Averaged: 1 (USB2+H05261)
Boxcar Smoothing: 0 (USB2+H05261)
Correct for Electrical Dark: No (USB2+H05261)
Strobe/Lamp Enabled: No (USB2+H05261)
Correct for Detector Non-linearity: No (USB2+H05261)
Correct for Stray Light: No (USB2+H05261)
Number of Pixels in Processed Spectrum: 2048
>>>>>Begin Processed Spectral Data<<<<<
365.73	128.73
365.92	128.73
366.12	128.73
366.32	0.00
366.52	9.36
366.72	0.00
366.91	0.00
367.11	0.00
367.31	0.00
367.51	0.00
367.70	23.41
367.90	67.88
368.10	0.00
368.30	7.02
368.49	0.00
368.69	0.00
368.89	2.34
369.09	0.00
369.28	9.36
369.48	0.00
369.68	0.00
369.87	0.00
370.07	9.36
370.27	126.39
370.47	0.00
370.66	67.88
370.86	84.26
371.06	77.24
371.25	175.54
371.45	110.01
371.65	149.79
371.84	63.19
372.04	152.13
372.24	98.30
372.44	138.09
372.63	79.58
372.83	175.54
373.03	84.26
373.22	149.79
373.42	105.32
373.62	159.16
373.81	149.79
374.01	72.56
374.21	98.30
374.40	161.50
374.60	175.54
374.79	77.24
374.99	166.18
375.19	156.82
375.38	166.18
375.58	100.64
375.78	159.16
375.97	198.95
376.17	119.37
376.37	81.92
376.56	138.09
376.76	138.09
376.95	156.82
377.15	81.92
377.35	203.63
377.54	131.07
377.74	110.01
377.93	135.75
378.13	114.69
378.33	168.52
378.52	156.82
378.72	51.49
378.91	311.29
379.11	145.11
379.31	107.66
379.50	124.05
379.70	84.26
379.89	231.71
380.09	147.45
380.28	161.50
380.48	156.82
380.68	131.07
380.87	222.35
381.07	128.73
381.26	187.24
381.46	138.09
381.65	152.13
381.85	142.77
382.04	140.43
382.24	142.77
382.43	191.92
382.63	107.66
382.83	95.96
383.02	95.96
383.22	184.90
383.41	100.64
383.61	128.73
383.80	156.82
384.00	124.05
384.19	138.09
384.39	147.45
384.58	163.84
384.78	189.58
384.97	203.63
385.17	112.35
385.36	119.37
385.56	159.16
385.75	142.77
385.95	81.92
386.14	170.86
386.34	166.18
386.53	203.63
386.72	128.73
386.92	194.26
387.11	131.07
387.31	147.45
387.50	170.86
387.70	91.28
387.89	138.09
388.09	112.35
388.28	170.86
388.48	100.64
388.67	114.69
388.86	166.18
389.06	208.31
389.25	140.43
389.45	166.18
389.64	163.84
389.84	145.11
390.03	243.42
390.22	138.09
390.42	140.43
390.61	177.88
390.81	170.86
391.00	210.65
391.19	138.09
391.39	138.09
391.58	180.22
391.78	126.39
391.97	131.07
392.16	58.51
392.36	163.84
392.55	177.88
392.75	210.65
392.94	133.41
393.13	140.43
393.33	126.39
393.52	198.95
393.71	184.90
393.91	135.75
394.10	142.77
394.29	170.86
394.49	135.75
394.68	159.16
394.88	210.65
395.07	187.24
395.26	177.88
395.46	184.90
395.65	131.07
395.84	131.07
396.04	229.37
396.23	147.45
396.42	142.77
396.62	163.84
396.81	212.99
397.00	208.31
397.19	220.01
397.39	140.43
397.58	154.48
397.77	168.52
397.97	166.18
398.16	138.09
398.35	198.95
398.55	110.01
398.74	119.37
398.93	208.31
399.12	180.22
399.32	117.03
399.51	175.54
399.70	168.52
399.90	91.28
400.09	166.18
400.28	220.01
400.47	177.88
400.67	173.20
400.86	135.75
401.05	208.31
401.24	149.79
401.44	95.96
401.63	119.37
401.82	168.52
402.01	112.35
402.21	168.52
402.40	196.60
402.59	170.86
402.78	138.09
402.97	168.52
403.17	159.16
403.36	124.05
403.55	117.03
403.74	152.13
403.93	215.33
404.13	241.08
404.32	196.60
404.51	224.69
404.70	208.31
404.89	84.26
405.09	163.84
405.28	196.60
405.47	203.63
405.66	138.09
405.85	175.54
406.05	203.63
406.24	140.43
406.43	126.39
406.62	140.43
406.81	152.13
407.00	133.41
407.20	124.05
407.39	152.13
407.58	114.69
407.77	187.24
407.96	196.60
408.15	173.20
408.34	212.99
408.54	184.90
408.73	208.31
408.92	126.39
409.11	201.29
409.30	170.86
409.49	135.75
409.68	159.16
409.87	163.84
410.07	131.07
410.26	166.18
410.45	145.11
410.64	140.43
410.83	180.22
411.02	154.48
411.21	222.35
411.40	163.84
411.59	180.22
411.78	117.03
411.98	117.03
412.17	189.58
412.36	161.50
412.55	124.05
412.74	175.54
412.93	191.92
413.12	161.50
413.31	177.88
413.50	154.48
413.69	145.11
413.88	166.18
414.07	142.77
414.26	147.45
414.45	173.20
414.64	175.54
414.83	166.18
415.02	70.22
415.22	163.84
415.41	100.64
415.60	145.11
415.79	124.05
415.98	220.01
416.17	257.46
416.36	138.09
416.55	182.56
416.74	152.13
416.93	212.99
417.12	194.26
417.31	173.20
417.50	161.50
417.69	292.57
417.88	152.13
418.07	166.18
418.26	224.69
418.45	210.65
418.64	252.78
418.83	180.22
419.02	191.92
419.21	189.58
419.39	229.37
419.58	201.29
419.77	248.10
419.96	168.52
420.15	222.35
420.34	180.22
420.53	210.65
420.72	166.18
420.91	117.03
421.10	102.98
421.29	194.26
421.48	128.73
421.67	191.92
421.86	161.50
422.05	147.45
422.24	138.09
422.43	110.01
422.61	161.50
422.80	173.20
422.99	163.84
423.18	156.82
423.37	147.45
423.56	189.58
423.75	159.16
423.94	159.16
424.13	100.64
424.32	191.92
424.50	149.79
424.69	145.11
424.88	166.18
425.07	110.01
425.26	266.82
425.45	215.33
425.64	250.44
425.83	238.73
426.01	238.73
426.20	231.71
426.39	159.16
426.58	124.05
426.77	161.50
426.96	161.50
427.15	184.90
427.33	191.92
427.52	208.31
427.71	135.75
427.90	187.24
428.09	119.37
428.28	95.96
428.46	173.20
428.65	208.31
428.84	154.48
429.03	201.29
429.22	177.88
429.40	184.90
429.59	147.45
429.78	257.46
429.97	124.05
430.16	145.11
430.34	194.26
430.53	154.48
430.72	145.11
430.91	184.90
431.10	140.43
431.28	182.56
431.47	177.88
431.66	138.09
431.85	203.63
432.03	182.56
432.22	159.16
432.41	175.54
432.60	201.29
432.79	266.82
432.97	266.82
433.16	290.23
433.35	330.02
433.54	191.92
433.72	203.63
433.91	222.35
434.10	217.67
434.28	205.97
434.47	175.54
434.66	212.99
434.85	182.56
435.03	227.03
435.22	362.78
435.41	369.80
435.59	374.49
435.78	365.12
435.97	229.37
436.16	198.95
436.34	133.41
436.53	161.50
436.72	191.92
436.90	175.54
437.09	208.31
437.28	159.16
437.46	234.05
437.65	93.62
437.84	194.26
438.02	147.45
438.21	177.88
438.40	133.41
438.58	56.17
438.77	180.22
438.96	191.92
439.14	205.97
439.33	196.60
439.52	149.79
439.70	189.58
439.89	131.07
440.08	191.92
440.26	222.35
440.45	203.63
440.63	163.84
440.82	191.92
441.01	184.90
441.19	140.43
441.38	107.66
441.57	170.86
441.75	184.90
441.94	264.48
442.12	339.38
442.31	140.43
442.50	203.63
442.68	163.84
442.87	198.95
443.05	126.39
443.24	149.79
443.43	196.60
443.61	173.20
443.80	133.41
443.98	177.88
444.17	166.18
444.35	215.33
444.54	231.71
444.73	182.56
444.91	224.69
445.10	212.99
445.28	159.16
445.47	227.03
445.65	224.69
445.84	175.54
446.02	208.31
446.21	170.86
446.39	168.52
446.58	201.29
446.77	182.56
446.95	245.76
447.14	259.80
447.32	271.50
447.51	175.54
447.69	124.05
447.88	224.69
448.06	290.23
448.25	311.29
448.43	170.86
448.62	224.69
448.80	212.99
448.99	180.22
449.17	173.20
449.36	154.48
449.54	180.22
449.73	154.48
449.91	276.18
450.10	198.95
450.28	224.69
450.46	243.42
450.65	245.76
450.83	175.54
451.02	180.22
451.20	212.99
451.39	191.92
451.57	262.14
451.76	217.67
451.94	250.44
452.13	191.92
452.31	252.78
452.49	189.58
452.68	102.98
452.86	163.84
453.05	241.08
453.23	220.01
453.42	241.08
453.60	189.58
453.78	170.86
453.97	126.39
454.15	205.97
454.34	175.54
454.52	177.88
454.70	173.20
454.89	217.67
455.07	173.20
455.26	208.31
455.44	212.99
455.62	145.11
455.81	198.95
455.99	212.99
456.17	166.18
456.36	215.33
456.54	163.84
456.73	105.32
456.91	180.22
457.09	203.63
457.28	201.29
457.46	189.58
457.64	194.26
457.83	180.22
458.01	149.79
458.19	259.80
458.38	154.48
458.56	140.43
458.74	203.63
458.93	201.29
459.11	191.92
459.29	170.86
459.48	201.29
459.66	119.37
459.84	243.42
460.03	297.25
460.21	215.33
460.39	234.05
460.57	229.37
460.76	170.86
460.94	215.33
461.12	220.01
461.31	180.22
461.49	117.03
461.67	177.88
461.85	133.41
462.04	140.43
462.22	634.29
462.40	248.10
462.59	280.86
462.77	140.43
462.95	187.24
463.13	273.84
463.32	184.90
463.50	194.26
463.68	205.97
463.86	222.35
464.05	198.95
464.23	224.69
464.41	257.46
464.59	187.24
464.78	196.60
464.96	102.98
465.14	220.01
465.32	231.71
465.50	175.54
465.69	264.48
465.87	210.65
466.05	234.05
466.23	198.95
466.41	212.99
466.60	182.56
466.78	159.16
466.96	168.52
467.14	203.63
467.32	266.82
467.51	177.88
467.69	166.18
467.87	229.37
468.05	208.31
468.23	187.24
468.41	248.10
468.60	133.41
468.78	175.54
468.96	189.58
469.14	175.54
469.32	161.50
469.50	203.63
469.69	175.54
469.87	238.73
470.05	205.97
470.23	203.63
470.41	163.84
470.59	191.92
470.77	203.63
470.95	201.29
471.14	170.86
471.32	196.60
471.50	224.69
471.68	138.09
471.86	177.88
472.04	203.63
472.22	147.45
472.40	203.63
472.58	182.56
472.77	152.13
472.95	138.09
473.13	243.42
473.31	262.14
473.49	170.86
473.67	194.26
473.85	276.18
474.03	313.63
474.21	170.86
474.39	175.54
474.57	264.48
474.75	205.97
474.93	154.48
475.12	121.71
475.30	229.37
475.48	161.50
475.66	259.80
475.84	231.71
476.02	229.37
476.20	273.84
476.38	292.57
476.56	311.29
476.74	212.99
476.92	184.90
477.10	205.97
477.28	264.48
477.46	163.84
477.64	140.43
477.82	205.97
478.00	194.26
478.18	212.99
478.36	205.97
478.54	222.35
478.72	142.77
478.90	266.82
479.08	250.44
479.26	259.80
479.44	241.08
479.62	299.59
479.80	163.84
479.98	252.78
480.16	208.31
480.34	208.31
480.52	217.67
480.70	191.92
480.88	184.90
481.06	161.50
481.24	245.76
481.41	180.22
481.59	194.26
481.77	229.37
481.95	203.63
482.13	257.46
482.31	234.05
482.49	241.08
482.67	203.63
482.85	224.69
483.03	161.50
483.21	234.05
483.39	255.12
483.57	264.48
483.74	266.82
483.92	182.56
484.10	215.33
484.28	250.44
484.46	271.50
484.64	234.05
484.82	217.67
485.00	262.14
485.18	250.44
485.35	231.71
485.53	168.52
485.71	285.55
485.89	189.58
486.07	210.65
486.25	189.58
486.43	241.08
486.61	187.24
486.78	234.05
486.96	266.82
487.14	255.12
487.32	259.80
487.50	212.99
487.68	259.80
487.85	245.76
488.03	255.12
488.21	301.93
488.39	231.71
488.57	264.48
488.75	208.31
488.92	496.19
489.10	306.61
489.28	353.42
489.46	299.59
489.64	229.37
489.81	271.50
489.99	264.48
490.17	243.42
490.35	313.63
490.53	255.12
490.70	227.03
490.88	285.55
491.06	222.35
491.24	266.82
491.41	330.02
491.59	238.73
491.77	278.52
491.95	184.90
492.13	266.82
492.30	210.65
492.48	283.20
492.66	255.12
492.84	224.69
493.01	259.80
493.19	257.46
493.37	245.76
493.54	259.80
493.72	325.33
493.90	325.33
494.08	297.25
494.25	308.95
494.43	313.63
494.61	208.31
494.79	236.39
494.96	301.93
495.14	301.93
495.32	297.25
495.49	266.82
495.67	294.91
495.85	236.39
496.02	241.08
496.20	269.16
496.38	276.18
496.55	229.37
496.73	287.89
496.91	259.80
497.09	299.59
497.26	220.01
497.44	278.52
497.62	210.65
497.79	229.37
497.97	264.48
498.14	290.23
498.32	264.48
498.50	245.76
498.67	205.97
498.85	262.14
499.03	255.12
499.20	241.08
499.38	276.18
499.56	231.71
499.73	243.42
499.91	175.54
500.08	266.82
500.26	264.48
500.44	262.14
500.61	140.43
500.79	191.92
500.97	294.91
501.14	330.02
501.32	227.03
501.49	236.39
501.67	273.84
501.84	222.35
502.02	313.63
502.20	339.38
502.37	264.48
502.55	222.35
502.72	262.14
502.90	294.91
503.07	266.82
503.25	283.20
503.43	271.50
503.60	332.36
503.78	243.42
503.95	248.10
504.13	229.37
504.30	227.03
504.48	280.86
504.65	315.97
504.83	285.55
505.01	187.24
505.18	217.67
505.36	250.44
505.53	278.52
505.71	262.14
505.88	280.86
506.06	271.50
506.23	215.33
506.41	217.67
506.58	191.92
506.76	290.23
506.93	320.65
507.11	301.93
507.28	208.31
507.46	348.74
507.63	290.23
507.81	264.48
507.98	320.65
508.16	257.46
508.33	283.20
508.50	217.67
508.68	311.29
508.85	245.76
509.03	280.86
509.20	311.29
509.38	243.42
509.55	344.06
509.73	250.44
509.90	215.33
510.08	344.06
510.25	351.08
510.42	269.16
510.60	257.46
510.77	320.65
510.95	215.33
511.12	299.59
511.30	283.20
511.47	320.65
511.64	259.80
511.82	301.93
511.99	262.14
512.17	266.82
512.34	203.63
512.51	222.35
512.69	210.65
512.86	290.23
513.04	229.37
513.21	264.48
513.38	255.12
513.56	280.86
513.73	276.18
513.90	217.67
514.08	243.42
514.25	301.93
514.43	278.52
514.60	196.60
514.77	280.86
514.95	313.63
515.12	287.89
515.29	287.89
515.47	227.03
515.64	266.82
515.81	271.50
515.99	311.29
516.16	290.23
516.33	273.84
516.51	273.84
516.68	152.13
516.85	229.37
517.03	318.31
517.20	217.67
517.37	257.46
517.54	248.10
517.72	184.90
517.89	205.97
518.06	245.76
518.24	278.52
518.41	332.36
518.58	344.06
518.75	220.01
518.93	208.31
519.10	262.14
519.27	287.89
519.45	273.84
519.62	234.05
519.79	222.35
519.96	262.14
520.14	318.31
520.31	273.84
520.48	332.36
520.65	255.12
520.83	236.39
521.00	208.31
521.17	271.50
521.34	292.57
521.52	292.57
521.69	290.23
521.86	283.20
522.03	330.02
522.20	351.08
522.38	243.42
522.55	280.86
522.72	278.52
522.89	280.86
523.07	337.04
523.24	250.44
523.41	283.20
523.58	212.99
523.75	255.12
523.92	248.10
524.10	250.44
524.27	245.76
524.44	285.55
524.61	306.61
524.78	280.86
524.96	283.20
525.13	269.16
525.30	292.57
525.47	287.89
525.64	187.24
525.81	353.42
525.98	196.60
526.16	276.18
526.33	208.31
526.50	252.78
526.67	287.89
526.84	266.82
527.01	269.16
527.18	355.76
527.36	301.93
527.53	194.26
527.70	290.23
527.87	266.82
528.04	278.52
528.21	224.69
528.38	297.25
528.55	304.27
528.72	301.93
528.89	341.72
529.07	220.01
529.24	257.46
529.41	325.33
529.58	257.46
529.75	264.48
529.92	304.27
530.09	264.48
530.26	255.12
530.43	341.72
530.60	250.44
530.77	283.20
530.94	245.76
531.11	306.61
531.28	248.10
531.46	222.35
531.63	220.01
531.80	327.68
531.97	318.31
532.14	250.44
532.31	301.93
532.48	365.12
532.65	341.72
532.82	430.66
532.99	430.66
533.16	393.21
533.33	376.83
533.50	327.68
533.67	411.93
533.84	416.62
534.01	440.02
534.18	315.97
534.35	388.53
534.52	306.61
534.69	344.06
534.86	287.89
535.03	236.39
535.20	227.03
535.37	360.44
535.54	327.68
535.71	255.12
535.88	339.38
536.05	262.14
536.22	280.86
536.38	220.01
536.55	311.29
536.72	334.70
536.89	337.04
537.06	311.29
537.23	299.59
537.40	341.72
537.57	257.46
537.74	320.65
537.91	327.68
538.08	346.40
538.25	287.89
538.42	362.78
538.59	337.04
538.75	313.63
538.92	318.31
539.09	304.27
539.26	271.50
539.43	613.22
539.60	1053.24
539.77	1465.18
539.94	1591.56
540.11	1104.73
540.28	812.17
540.44	660.03
540.61	479.81
540.78	540.66
540.95	430.66
541.12	507.90
541.29	559.39
541.46	582.79
541.62	528.96
541.79	484.49
541.96	568.75
542.13	472.79
542.30	498.53
542.47	528.96
542.63	451.72
542.80	519.60
542.97	472.79
543.14	440.02
543.31	489.17
543.48	552.37
543.64	545.34
543.81	491.51
543.98	465.77
544.15	507.90
544.32	489.17
544.48	388.53
544.65	428.32
544.82	369.80
544.99	458.74
545.16	535.98
545.32	524.28
545.49	751.31
545.66	910.47
545.83	947.92
546.00	896.43
546.16	777.06
546.33	543.00
546.50	528.96
546.67	486.83
546.83	526.62
547.00	447.04
547.17	362.78
547.34	383.85
547.50	409.59
547.67	414.27
547.84	418.96
548.00	351.08
548.17	348.74
548.34	367.46
548.51	358.10
548.67	414.27
548.84	383.85
549.01	327.68
549.18	330.02
549.34	393.21
549.51	369.80
549.68	318.31
549.84	411.93
550.01	290.23
550.18	411.93
550.34	308.95
550.51	346.40
550.68	367.46
550.84	311.29
551.01	273.84
551.18	294.91
551.34	330.02
551.51	283.20
551.68	273.84
551.84	355.76
552.01	327.68
552.18	287.89
552.34	346.40
552.51	220.01
552.68	308.95
552.84	341.72
553.01	318.31
553.18	241.08
553.34	217.67
553.51	236.39
553.67	308.95
553.84	386.19
554.01	278.52
554.17	297.25
554.34	234.05
554.51	294.91
554.67	337.04
554.84	337.04
555.00	269.16
555.17	358.10
555.33	297.25
555.50	308.95
555.67	311.29
555.83	252.78
556.00	306.61
556.16	433.00
556.33	290.23
556.50	311.29
556.66	297.25
556.83	243.42
556.99	290.23
557.16	372.15
557.32	339.38
557.49	276.18
557.65	257.46
557.82	266.82
557.98	306.61
558.15	210.65
558.32	299.59
558.48	257.46
558.65	287.89
558.81	287.89
558.98	271.50
559.14	262.14
559.31	231.71
559.47	301.93
559.64	271.50
559.80	210.65
559.97	243.42
560.13	315.97
560.30	231.71
560.46	262.14
560.63	264.48
560.79	224.69
560.96	301.93
561.12	327.68
561.29	280.86
561.45	308.95
561.61	283.20
561.78	360.44
561.94	231.71
562.11	264.48
562.27	262.14
562.44	273.84
562.60	280.86
562.77	252.78
562.93	294.91
563.10	273.84
563.26	259.80
563.42	306.61
563.59	320.65
563.75	276.18
563.92	297.25
564.08	290.23
564.24	327.68
564.41	294.91
564.57	259.80
564.74	229.37
564.90	325.33
565.07	294.91
565.23	388.53
565.39	248.10
565.56	271.50
565.72	348.74
565.88	308.95
566.05	299.59
566.21	301.93
566.38	322.99
566.54	231.71
566.70	243.42
566.87	259.80
567.03	259.80
567.19	227.03
567.36	212.99
567.52	196.60
567.68	269.16
567.85	327.68
568.01	308.95
568.17	222.35
568.34	273.84
568.50	290.23
568.66	224.69
568.83	376.83
568.99	294.91
569.15	290.23
569.32	234.05
569.48	276.18
569.64	257.46
569.81	234.05
569.97	227.03
570.13	294.91
570.30	362.78
570.46	290.23
570.62	259.80
570.78	264.48
570.95	243.42
571.11	252.78
571.27	379.17
571.43	243.42
571.60	259.80
571.76	238.73
571.92	163.84
572.09	264.48
572.25	262.14
572.41	306.61
572.57	212.99
572.74	220.01
572.90	255.12
573.06	243.42
573.22	220.01
573.38	315.97
573.55	278.52
573.71	299.59
573.87	269.16
574.03	292.57
574.20	217.67
574.36	325.33
574.52	369.80
574.68	311.29
574.84	388.53
575.01	252.78
575.17	381.51
575.33	259.80
575.49	339.38
575.65	292.57
575.82	372.15
575.98	528.96
576.14	739.61
576.30	720.88
576.46	676.41
576.62	510.24
576.79	500.87
576.95	407.25
577.11	353.42
577.27	255.12
577.43	308.95
577.59	341.72
577.75	262.14
577.92	315.97
578.08	379.17
578.24	369.80
578.40	337.04
578.56	454.06
578.72	430.66
578.88	402.57
579.04	379.17
579.21	395.55
579.37	358.10
579.53	383.85
579.69	505.56
579.85	301.93
580.01	458.74
580.17	360.44
580.33	362.78
580.49	451.72
580.65	428.32
580.82	390.87
580.98	379.17
581.14	390.87
581.30	416.62
581.46	430.66
581.62	601.52
581.78	669.39
581.94	622.58
582.10	585.13
582.26	500.87
582.42	538.32
582.58	521.94
582.74	484.49
582.90	475.13
583.06	507.90
583.22	472.79
583.38	475.13
583.54	519.60
583.70	674.07
583.86	669.39
584.02	784.08
584.18	1013.45
584.34	1221.76
584.50	3239.30
584.66	22970.02
584.82	54279.36
584.98	63337.24
585.14	60324.97
585.30	44863.39
585.46	27199.37
585.62	16774.62
585.78	7662.91
585.94	3176.11
586.10	1582.20
586.26	1142.18
586.42	863.66
586.58	760.67
586.74	683.44
586.90	603.86
587.06	692.80
587.22	631.94
587.38	559.39
587.54	1179.63
587.70	3276.75
587.86	5397.28
588.02	5799.85
588.18	4046.79
588.34	2785.24
588.49	1760.08
588.65	1135.16
588.81	678.76
588.97	383.85
589.13	362.78
589.29	339.38
589.45	393.21
589.61	395.55
589.77	400.23
589.93	507.90
590.08	526.62
590.24	475.13
590.40	512.58
590.56	458.74
590.72	447.04
590.88	421.30
591.04	411.93
591.20	397.89
591.35	383.85
591.51	407.25
591.67	376.83
591.83	381.51
591.99	463.43
592.15	456.40
592.31	355.76
592.46	411.93
592.62	388.53
592.78	325.33
592.94	362.78
593.10	369.80
593.26	348.74
593.41	444.70
593.57	440.02
593.73	723.23
593.89	2888.22
594.05	6829.68
594.20	10125.16
594.36	9408.95
594.52	6274.98
594.68	3913.38
594.84	2698.64
594.99	1511.99
595.15	758.33
595.31	477.47
595.47	404.91
595.62	425.98
595.78	322.99
595.94	379.17
596.10	386.19
596.25	402.57
596.41	437.68
596.57	393.21
596.73	353.42
596.88	725.57
597.04	1444.11
597.20	2239.89
597.36	2621.40
597.51	1968.39
597.67	1287.29
597.83	985.37
597.99	676.41
598.14	489.17
598.30	397.89
598.46	358.10
598.61	428.32
598.77	369.80
598.93	395.55
599.09	348.74
599.24	341.72
599.40	294.91
599.56	264.48
599.71	322.99
599.87	376.83
600.03	304.27
600.18	315.97
600.34	330.02
600.50	255.12
600.65	304.27
600.81	332.36
600.97	259.80
601.12	325.33
601.28	299.59
601.44	334.70
601.59	264.48
601.75	367.46
601.91	285.55
602.06	348.74
602.22	472.79
602.37	674.07
602.53	1633.69
602.69	2525.44
602.84	2513.74
603.00	2017.54
603.16	1387.94
603.31	1025.15
603.47	713.86
603.62	486.83
603.78	381.51
603.94	418.96
604.09	360.44
604.25	372.15
604.40	215.33
604.56	301.93
604.71	278.52
604.87	285.55
605.03	330.02
605.18	311.29
605.34	339.38
605.49	341.72
605.65	400.23
605.80	299.59
605.96	346.40
606.12	386.19
606.27	407.25
606.43	330.02
606.58	421.30
606.74	800.46
606.89	3246.32
607.05	6483.28
607.20	8690.41
607.36	7187.79
607.51	4833.21
607.67	3129.30
607.82	2157.97
607.98	1221.76
608.13	765.36
608.29	489.17
608.44	517.26
608.60	526.62
608.75	620.24
608.91	1114.10
609.06	5137.48
609.22	11075.42
609.37	14785.16
609.53	13310.63
609.68	8664.66
609.84	5708.57
609.99	3845.50
