SpectraSuite Data File
++++++++++++++++++++++++++++++++++++
Date: Fri Oct 04 12:13:54 GMT-05:00 2013
User: price-jones
Dark Spectrum Present: No
Reference Spectrum Present: No
Number of Sampled Component Spectra: 1
Spectrometers: USB2+H05261
Integration Time (usec): 1000000 (USB2+H05261)
Spectra Averaged: 1 (USB2+H05261)
Boxcar Smoothing: 0 (USB2+H05261)
Correct for Electrical Dark: No (USB2+H05261)
Strobe/Lamp Enabled: No (USB2+H05261)
Correct for Detector Non-linearity: No (USB2+H05261)
Correct for Stray Light: No (USB2+H05261)
Number of Pixels in Processed Spectrum: 2048
>>>>>Begin Processed Spectral Data<<<<<
365.73	0.00
365.92	0.00
366.12	0.00
366.32	0.00
366.52	0.00
366.72	283.20
366.91	110.01
367.11	351.08
367.31	271.50
367.51	367.46
367.70	367.46
367.90	503.22
368.10	337.04
368.30	315.97
368.49	102.98
368.69	444.70
368.89	301.93
369.09	189.58
369.28	299.59
369.48	163.84
369.68	196.60
369.87	418.96
370.07	229.37
370.27	524.28
370.47	414.27
370.66	262.14
370.86	496.19
371.06	781.74
371.25	889.40
371.45	414.27
371.65	615.56
371.84	339.38
372.04	276.18
372.24	484.49
372.44	428.32
372.63	528.96
372.83	816.85
373.03	409.59
373.22	416.62
373.42	348.74
373.62	468.11
373.81	561.73
374.01	622.58
374.21	748.97
374.40	489.17
374.60	713.86
374.79	454.06
374.99	456.40
375.19	519.60
375.38	603.86
375.58	510.24
375.78	741.95
375.97	613.22
376.17	957.28
376.37	442.36
376.56	641.31
376.76	379.17
376.95	306.61
377.15	697.48
377.35	596.84
377.54	578.11
377.74	390.87
377.93	470.45
378.13	578.11
378.33	645.99
378.52	564.07
378.72	737.27
378.91	685.78
379.11	440.02
379.31	393.21
379.50	308.95
379.70	697.48
379.89	786.42
380.09	458.74
380.28	311.29
380.48	482.15
380.68	374.49
380.87	278.52
381.07	592.16
381.26	791.10
381.46	683.44
381.65	636.63
381.85	411.93
382.04	514.92
382.24	557.05
382.43	449.38
382.63	360.44
382.83	468.11
383.02	720.88
383.22	763.01
383.41	400.23
383.61	585.13
383.80	531.30
384.00	533.64
384.19	435.34
384.39	531.30
384.58	442.36
384.78	617.90
384.97	573.43
385.17	477.47
385.36	449.38
385.56	650.67
385.75	360.44
385.95	547.69
386.14	706.84
386.34	442.36
386.53	505.56
386.72	418.96
386.92	763.01
387.11	592.16
387.31	585.13
387.50	442.36
387.70	301.93
387.89	458.74
388.09	524.28
388.28	381.51
388.48	402.57
388.67	613.22
388.86	514.92
389.06	465.77
389.25	582.79
389.45	435.34
389.64	578.11
389.84	664.71
390.03	704.50
390.22	498.53
390.42	437.68
390.61	397.89
390.81	337.04
391.00	447.04
391.19	706.84
391.39	524.28
391.58	627.26
391.78	561.73
391.97	561.73
392.16	301.93
392.36	748.97
392.55	758.33
392.75	454.06
392.94	362.78
393.13	620.24
393.33	334.70
393.52	435.34
393.71	786.42
393.91	543.00
394.10	411.93
394.29	468.11
394.49	482.15
394.68	653.01
394.88	718.54
395.07	706.84
395.26	564.07
395.46	507.90
395.65	711.52
395.84	622.58
396.04	1114.10
396.23	573.43
396.42	395.55
396.62	617.90
396.81	599.18
397.00	510.24
397.19	470.45
397.39	507.90
397.58	720.88
397.77	409.59
397.97	482.15
398.16	596.84
398.35	641.31
398.55	381.51
398.74	580.45
398.93	725.57
399.12	505.56
399.32	610.88
399.51	540.66
399.70	655.35
399.90	645.99
400.09	603.86
400.28	758.33
400.47	545.34
400.67	711.52
400.86	547.69
401.05	671.73
401.24	732.59
401.44	730.25
401.63	770.04
401.82	767.70
402.01	458.74
402.21	620.24
402.40	699.82
402.59	535.98
402.78	566.41
402.97	575.77
403.17	622.58
403.36	622.58
403.55	578.11
403.74	573.43
403.93	620.24
404.13	873.02
404.32	575.77
404.51	524.28
404.70	737.27
404.89	634.29
405.09	952.60
405.28	540.66
405.47	428.32
405.66	592.16
405.85	784.08
406.05	643.65
406.24	613.22
406.43	573.43
406.62	678.76
406.81	959.62
407.00	744.29
407.20	617.90
407.39	552.37
407.58	629.60
407.77	702.16
407.96	793.44
408.15	779.40
408.34	664.71
408.54	676.41
408.73	648.33
408.92	622.58
409.11	655.35
409.30	849.61
409.49	512.58
409.68	631.94
409.87	627.26
410.07	540.66
410.26	613.22
410.45	557.05
410.64	550.03
410.83	676.41
411.02	571.09
411.21	723.23
411.40	840.25
411.59	643.65
411.78	648.33
411.98	638.97
412.17	470.45
412.36	479.81
412.55	493.85
412.74	699.82
412.93	1074.31
413.12	493.85
413.31	830.89
413.50	718.54
413.69	629.60
413.88	994.73
414.07	678.76
414.26	608.54
414.45	608.54
414.64	833.23
414.83	748.97
415.02	711.52
415.22	858.98
415.41	983.02
415.60	596.84
415.79	650.67
415.98	1004.09
416.17	784.08
416.36	755.99
416.55	571.09
416.74	823.87
416.93	887.06
417.12	727.91
417.31	676.41
417.50	653.01
417.69	1097.71
417.88	739.61
418.07	580.45
418.26	770.04
418.45	730.25
418.64	1111.75
418.83	765.36
419.02	765.36
419.21	739.61
419.39	760.67
419.58	657.69
419.77	589.82
419.96	919.83
420.15	1090.69
420.34	741.95
420.53	723.23
420.72	924.51
420.91	753.65
421.10	727.91
421.29	755.99
421.48	856.64
421.67	875.36
421.86	643.65
422.05	664.71
422.24	601.52
422.43	727.91
422.61	594.50
422.80	603.86
422.99	741.95
423.18	606.20
423.37	868.34
423.56	807.48
423.75	819.19
423.94	554.71
424.13	699.82
424.32	711.52
424.50	763.01
424.69	702.16
424.88	971.32
425.07	671.73
425.26	858.98
425.45	1034.52
425.64	739.61
425.83	795.78
426.01	1043.88
426.20	868.34
426.39	697.48
426.58	631.94
426.77	807.48
426.96	877.70
427.15	802.80
427.33	613.22
427.52	702.16
427.71	755.99
427.90	763.01
428.09	592.16
428.28	608.54
428.46	674.07
428.65	866.00
428.84	873.02
429.03	945.58
429.22	636.63
429.40	587.47
429.59	500.87
429.78	1097.71
429.97	655.35
430.16	627.26
430.34	681.10
430.53	615.56
430.72	631.94
430.91	856.64
431.10	648.33
431.28	784.08
431.47	870.68
431.66	807.48
431.85	575.77
432.03	690.46
432.22	1153.88
432.41	772.38
432.60	1114.10
432.79	730.25
432.97	950.26
433.16	957.28
433.35	685.78
433.54	688.12
433.72	880.04
433.91	905.79
434.10	657.69
434.28	861.32
434.47	648.33
434.66	926.85
434.85	662.37
435.03	737.27
435.22	1121.12
435.41	1181.97
435.59	875.36
435.78	823.87
435.97	699.82
436.16	1034.52
436.34	734.93
436.53	814.51
436.72	936.21
436.90	1018.13
437.09	830.89
437.28	774.72
437.46	737.27
437.65	861.32
437.84	889.40
438.02	847.27
438.21	912.81
438.40	690.46
438.58	688.12
438.77	816.85
438.96	835.57
439.14	695.14
439.33	950.26
439.52	716.20
439.70	816.85
439.89	964.30
440.08	826.21
440.26	779.40
440.45	1086.01
440.63	912.81
440.82	912.81
441.01	882.38
441.19	777.06
441.38	882.38
441.57	837.91
441.75	1121.12
441.94	1053.24
442.12	856.64
442.31	858.98
442.50	802.80
442.68	866.00
442.87	910.47
443.05	819.19
443.24	908.13
443.43	1086.01
443.61	1137.50
443.80	795.78
443.98	781.74
444.17	840.25
444.35	973.66
444.54	767.70
444.73	763.01
444.91	1114.10
445.10	702.16
445.28	702.16
445.47	917.49
445.65	847.27
445.84	840.25
446.02	936.21
446.21	798.12
446.39	716.20
446.58	896.43
446.77	737.27
446.95	870.68
447.14	978.34
447.32	1102.39
447.51	889.40
447.69	863.66
447.88	896.43
448.06	1174.95
448.25	931.53
448.43	746.63
448.62	706.84
448.80	987.71
448.99	1086.01
449.17	788.76
449.36	744.29
449.54	954.94
449.73	674.07
449.91	1029.84
450.10	833.23
450.28	1409.00
450.46	1373.89
450.65	1128.14
450.83	957.28
451.02	901.11
451.20	835.57
451.39	854.30
451.57	849.61
451.76	833.23
451.94	924.51
452.13	1135.16
452.31	1062.60
452.49	978.34
452.68	779.40
452.86	945.58
453.05	1277.93
453.23	954.94
453.42	755.99
453.60	842.59
453.78	1006.43
453.97	734.93
454.15	662.37
454.34	805.14
454.52	800.46
454.70	1249.85
454.89	1053.24
455.07	835.57
455.26	1029.84
455.44	1193.67
455.62	924.51
455.81	1001.75
455.99	1036.86
456.17	1111.75
456.36	912.81
456.54	903.45
456.73	837.91
456.91	849.61
457.09	957.28
457.28	1076.65
457.46	978.34
457.64	1160.91
457.83	884.72
458.01	826.21
458.19	1015.79
458.38	901.11
458.56	1022.81
458.74	793.44
458.93	999.41
459.11	943.24
459.29	908.13
459.48	1062.60
459.66	1207.72
459.84	1114.10
460.03	1802.21
460.21	1184.31
460.39	943.24
460.57	1219.42
460.76	950.26
460.94	992.39
461.12	1359.85
461.31	1235.80
461.49	866.00
461.67	884.72
461.85	926.85
462.04	1001.75
462.22	5738.99
462.40	1233.46
462.59	1196.01
462.77	908.13
462.95	992.39
463.13	826.21
463.32	1184.31
463.50	1011.11
463.68	1046.22
463.86	973.66
464.05	938.55
464.23	1254.53
464.41	1107.07
464.59	802.80
464.78	842.59
464.96	938.55
465.14	959.62
465.32	929.19
465.50	1078.99
465.69	1181.97
465.87	760.67
466.05	999.41
466.23	760.67
466.41	924.51
466.60	887.06
466.78	1022.81
466.96	1156.22
467.14	1004.09
467.32	1242.82
467.51	957.28
467.69	1055.58
467.87	1327.08
468.05	908.13
468.23	1378.58
468.41	1151.54
468.60	966.64
468.78	997.07
468.96	1153.88
469.14	966.64
469.32	748.97
469.50	842.59
469.69	1013.45
469.87	896.43
470.05	1060.26
470.23	887.06
470.41	861.32
470.59	858.98
470.77	1057.92
470.95	922.17
471.14	1210.06
471.32	1083.67
471.50	1301.34
471.68	978.34
471.86	1081.33
472.04	814.51
472.22	1046.22
472.40	760.67
472.58	912.81
472.77	851.96
472.95	898.77
473.13	1441.77
473.31	1275.59
473.49	844.93
473.67	863.66
473.85	1046.22
474.03	1165.59
474.21	1036.86
474.39	1291.98
474.57	1458.15
474.75	1015.79
474.93	980.68
475.12	875.36
475.30	912.81
475.48	1013.45
475.66	1132.82
475.84	1034.52
476.02	1067.28
476.20	1203.04
476.38	976.00
476.56	1582.20
476.74	1048.56
476.92	922.17
477.10	1053.24
477.28	1170.27
477.46	957.28
477.64	1177.29
477.82	1069.62
478.00	1071.97
478.18	1116.44
478.36	1004.09
478.54	866.00
478.72	1100.05
478.90	1093.03
479.08	1186.65
479.26	1057.92
479.44	1050.90
479.62	999.41
479.80	1048.56
479.98	964.30
480.16	945.58
480.34	1205.38
480.52	997.07
480.70	1200.69
480.88	997.07
481.06	976.00
481.24	968.98
481.41	1034.52
481.59	1242.82
481.77	1172.61
481.95	1039.20
482.13	1516.67
482.31	1074.31
482.49	1043.88
482.67	1247.51
482.85	1341.13
483.03	1252.19
483.21	1231.12
483.39	1146.86
483.57	1167.93
483.74	1493.26
483.92	1254.53
484.10	1057.92
484.28	1364.53
484.46	1717.95
484.64	1139.84
484.82	1153.88
485.00	1114.10
485.18	1200.69
485.35	1123.46
485.53	889.40
485.71	1310.70
485.89	894.08
486.07	1043.88
486.25	1624.33
486.43	1259.21
486.61	1355.17
486.78	1221.76
486.96	1001.75
487.14	1128.14
487.32	1144.52
487.50	1177.29
487.68	1294.32
487.85	1036.86
488.03	1387.94
488.21	1603.27
488.39	1196.01
488.57	1385.60
488.75	1184.31
488.92	3929.76
489.10	1392.62
489.28	1673.48
489.46	1198.35
489.64	1184.31
489.81	1247.51
489.99	1446.45
490.17	1289.64
490.35	1907.54
490.53	1334.11
490.70	1118.78
490.88	1479.22
491.06	1268.57
491.24	1448.79
491.41	1523.69
491.59	1327.08
491.77	1102.39
491.95	1167.93
492.13	1177.29
492.30	1359.85
492.48	1294.32
492.66	1397.30
492.84	1221.76
493.01	1509.65
493.19	1331.76
493.37	1722.63
493.54	1593.90
493.72	1434.75
493.90	1359.85
494.08	1240.48
494.25	1434.75
494.43	1511.99
494.61	1378.58
494.79	1329.42
494.96	1315.38
495.14	1519.01
495.32	1439.43
495.49	1437.09
495.67	1481.56
495.85	1406.66
496.02	1263.89
496.20	1591.56
496.38	1612.63
496.55	1565.82
496.73	1600.93
496.91	1373.89
497.09	1694.55
497.26	1521.35
497.44	1385.60
497.62	1362.19
497.79	1423.05
497.97	1507.30
498.14	1600.93
498.32	1570.50
498.50	1497.94
498.67	1451.13
498.85	1493.26
499.03	1481.56
499.20	1509.65
499.38	1383.26
499.56	1502.62
499.73	1912.22
499.91	1717.95
500.08	1626.67
500.26	1483.90
500.44	1383.26
500.61	1526.03
500.79	1385.60
500.97	1547.09
501.14	1834.98
501.32	1563.48
501.49	1722.63
501.67	1430.07
501.84	1427.73
502.02	1362.19
502.20	1797.53
502.37	1654.76
502.55	1469.86
502.72	1495.60
502.90	1694.55
503.07	1600.93
503.25	1551.78
503.43	1380.92
503.60	1394.96
503.78	1507.30
503.95	1554.12
504.13	1383.26
504.30	1664.12
504.48	1764.76
504.65	1851.36
504.83	1809.23
505.01	1523.69
505.18	1673.48
505.36	1516.67
505.53	1476.88
505.71	1387.94
505.88	1797.53
506.06	1460.49
506.23	1530.71
506.41	1458.15
506.58	1610.29
506.76	1720.29
506.93	1427.73
507.11	1680.50
507.28	1465.18
507.46	1399.64
507.63	1591.56
507.81	1462.83
507.98	1551.78
508.16	1462.83
508.33	1593.90
508.50	1654.76
508.68	1643.06
508.85	1584.54
509.03	1500.28
509.20	1460.49
509.38	1636.03
509.55	1739.02
509.73	1706.25
509.90	1912.22
510.08	1446.45
510.25	1734.34
510.42	1493.26
510.60	1551.78
510.77	1785.83
510.95	1795.19
511.12	1636.03
511.30	1778.81
511.47	1820.94
511.64	2087.76
511.82	1664.12
511.99	1596.25
512.17	1549.43
512.34	1371.55
512.51	1565.82
512.69	1530.71
512.86	1858.39
513.04	1582.20
513.21	1526.03
513.38	1535.39
513.56	1502.62
513.73	1486.24
513.90	1458.15
514.08	1373.89
514.25	1675.82
514.43	1584.54
514.60	1488.58
514.77	1502.62
514.95	1741.36
515.12	1451.13
515.29	1593.90
515.47	1696.89
515.64	1612.63
515.81	1596.25
515.99	1839.66
516.16	1774.13
516.33	1696.89
516.51	1427.73
516.68	1282.61
516.85	1411.34
517.03	1476.88
517.20	1598.59
517.37	1568.16
517.54	1661.78
517.72	1490.92
517.89	1343.47
518.06	1336.45
518.24	1860.73
518.41	1919.24
518.58	1778.81
518.75	1387.94
518.93	1582.20
519.10	1621.99
519.27	1530.71
519.45	1568.16
519.62	1673.48
519.79	1629.01
519.96	1427.73
520.14	1706.25
520.31	1839.66
520.48	1614.97
520.65	1748.38
520.83	1778.81
521.00	1746.04
521.17	1746.04
521.34	1600.93
521.52	1748.38
521.69	1678.16
521.86	1633.69
522.03	1732.00
522.20	2031.58
522.38	1551.78
522.55	1760.08
522.72	1427.73
522.89	1842.00
523.07	2057.33
523.24	1713.27
523.41	1643.06
523.58	1584.54
523.75	1556.46
523.92	1528.37
524.10	1734.34
524.27	1753.06
524.44	1523.69
524.61	1954.35
524.78	1685.19
524.96	1753.06
525.13	1783.49
525.30	1872.43
525.47	1816.26
525.64	1788.17
525.81	1806.89
525.98	1710.93
526.16	1568.16
526.33	1423.05
526.50	1373.89
526.67	1444.11
526.84	1416.02
527.01	1544.75
527.18	1696.89
527.36	1650.08
527.53	1593.90
527.70	1813.92
527.87	1671.14
528.04	2148.61
528.21	1603.27
528.38	1954.35
528.55	1952.01
528.72	2083.08
528.89	2165.00
529.07	1736.68
529.24	1790.51
529.41	2094.78
529.58	1706.25
529.75	1603.27
529.92	1881.79
530.09	1722.63
530.26	1935.62
530.43	1799.87
530.60	1732.00
530.77	1689.87
530.94	1912.22
531.11	1912.22
531.28	1743.70
531.46	1607.95
531.63	1710.93
531.80	1715.61
531.97	1776.47
532.14	1650.08
532.31	1713.27
532.48	1764.76
532.65	1813.92
532.82	1621.99
532.99	1750.72
533.16	1713.27
533.33	1771.79
533.50	1802.21
533.67	1839.66
533.84	2052.65
534.01	1998.82
534.18	1830.30
534.35	1792.85
534.52	1792.85
534.69	2265.64
534.86	1631.35
535.03	1673.48
535.20	1689.87
535.37	1996.48
535.54	1900.52
535.71	1788.17
535.88	1970.73
536.05	1631.35
536.22	1767.10
536.38	1619.65
536.55	1703.91
536.72	1912.22
536.89	1509.65
537.06	1568.16
537.23	1640.72
537.40	1502.62
537.57	1593.90
537.74	1942.64
537.91	1907.54
538.08	1827.96
538.25	1879.45
538.42	1650.08
538.59	1771.79
538.75	1689.87
538.92	1722.63
539.09	1989.46
539.26	1678.16
539.43	2473.95
539.60	2738.43
539.77	3300.16
539.94	3101.21
540.11	2661.19
540.28	2410.75
540.44	2064.35
540.61	1696.89
540.78	1645.40
540.95	1434.75
541.12	2033.93
541.29	1659.44
541.46	1947.33
541.62	1729.66
541.79	1537.73
541.96	1460.49
542.13	1556.46
542.30	1614.97
542.47	1909.88
542.63	1661.78
542.80	1689.87
542.97	1834.98
543.14	1713.27
543.31	1743.70
543.48	1643.06
543.64	1736.68
543.81	1654.76
543.98	1511.99
544.15	1504.96
544.32	1621.99
544.48	1577.52
544.65	1685.19
544.82	1551.78
544.99	1600.93
545.16	1795.19
545.32	1605.61
545.49	1778.81
545.66	1671.14
545.83	1504.96
546.00	1479.22
546.16	1579.86
546.33	1629.01
546.50	1586.88
546.67	1872.43
546.83	1930.94
547.00	1699.23
547.17	1619.65
547.34	1528.37
547.50	1621.99
547.67	1561.14
547.84	1556.46
548.00	1746.04
548.17	1563.48
548.34	1598.59
548.51	2012.86
548.67	1968.39
548.84	1633.69
549.01	1785.83
549.18	1837.32
549.34	1732.00
549.51	1713.27
549.68	1743.70
549.84	1624.33
550.01	1502.62
550.18	2511.39
550.34	2347.56
550.51	1755.40
550.68	2169.68
550.84	1486.24
551.01	1664.12
551.18	1746.04
551.34	1638.38
551.51	1631.35
551.68	1675.82
551.84	1844.34
552.01	1547.09
552.18	1621.99
552.34	1689.87
552.51	1657.10
552.68	1921.58
552.84	1598.59
553.01	1650.08
553.18	1891.15
553.34	1664.12
553.51	1369.21
553.67	1877.11
553.84	2069.03
554.01	1825.62
554.17	1713.27
554.34	1458.15
554.51	1757.74
554.67	1930.94
554.84	1921.58
555.00	1724.97
555.17	1792.85
555.33	1907.54
555.50	1720.29
555.67	1804.55
555.83	1460.49
556.00	1720.29
556.16	3361.01
556.33	1799.87
556.50	1558.80
556.66	1659.44
556.83	1554.12
556.99	1657.10
557.16	1607.95
557.32	1462.83
557.49	1547.09
557.65	1521.35
557.82	1577.52
557.98	1547.09
558.15	1488.58
558.32	1582.20
558.48	1451.13
558.65	1481.56
558.81	1748.38
558.98	1474.54
559.14	1596.25
559.31	1694.55
559.47	1701.57
559.64	1479.22
559.80	1748.38
559.97	1418.36
560.13	1579.86
560.30	1439.43
560.46	1572.84
560.63	1659.44
560.79	1598.59
560.96	1818.60
561.12	1511.99
561.29	1647.74
561.45	1596.25
561.61	1528.37
561.78	2422.45
561.94	1591.56
562.11	1542.41
562.27	1523.69
562.44	1490.92
562.60	1666.46
562.77	1507.30
562.93	2132.23
563.10	1558.80
563.26	1619.65
563.42	1813.92
563.59	1661.78
563.75	1493.26
563.92	1923.92
564.08	1722.63
564.24	1795.19
564.41	1980.09
564.57	1413.68
564.74	1523.69
564.90	1645.40
565.07	1734.34
565.23	1722.63
565.39	1432.41
565.56	1727.32
565.72	1516.67
565.88	1551.78
566.05	1383.26
566.21	1486.24
566.38	1652.42
566.54	1619.65
566.70	1537.73
566.87	1535.39
567.03	1378.58
567.19	1657.10
567.36	1757.74
567.52	1526.03
567.68	1741.36
567.85	1694.55
568.01	1514.33
568.17	1404.32
568.34	1490.92
568.50	1811.57
568.66	1385.60
568.83	2148.61
568.99	1404.32
569.15	1818.60
569.32	1430.07
569.48	1516.67
569.64	1378.58
569.81	1542.41
569.97	1399.64
570.13	1596.25
570.30	1380.92
570.46	1409.00
570.62	1451.13
570.78	1397.30
570.95	1329.42
571.11	1856.04
571.27	1895.83
571.43	1451.13
571.60	1713.27
571.76	1432.41
571.92	1493.26
572.09	1416.02
572.25	1458.15
572.41	1446.45
572.57	1516.67
572.74	2003.50
572.90	1647.74
573.06	1680.50
573.22	1682.85
573.38	1664.12
573.55	1760.08
573.71	1774.13
573.87	1610.29
574.03	1465.18
574.20	1476.88
574.36	1842.00
574.52	1598.59
574.68	1579.86
574.84	1633.69
575.01	1448.79
575.17	1706.25
575.33	1371.55
575.49	1703.91
575.65	1764.76
575.82	1827.96
575.98	2385.01
576.14	1984.77
576.30	2012.86
576.46	1858.39
576.62	1790.51
576.79	1720.29
576.95	1914.56
577.11	1465.18
577.27	1416.02
577.43	1877.11
577.59	1839.66
577.75	1633.69
577.92	1404.32
578.08	1425.39
578.24	1348.15
578.40	1706.25
578.56	1877.11
578.72	1760.08
578.88	1582.20
579.04	1486.24
579.21	1621.99
579.37	1516.67
579.53	1519.01
579.69	1767.10
579.85	1469.86
580.01	1760.08
580.17	1533.05
580.33	1668.80
580.49	1743.70
580.65	1760.08
580.82	1596.25
580.98	1526.03
581.14	1542.41
581.30	1879.45
581.46	1891.15
581.62	2052.65
581.78	1923.92
581.94	1994.14
582.10	1715.61
582.26	1734.34
582.42	1717.95
582.58	1736.68
582.74	1629.01
582.90	1767.10
583.06	1760.08
583.22	1633.69
583.38	1638.38
583.54	1778.81
583.70	2296.07
583.86	2186.06
584.02	2183.72
584.18	2717.36
584.34	2759.49
584.50	6597.97
584.66	41996.23
584.82	63320.85
584.98	65535.00
585.14	64521.55
585.30	51793.71
585.46	34518.22
585.62	21319.94
585.78	10427.09
585.94	4910.44
586.10	3023.97
586.26	2429.48
586.42	2597.99
586.58	2106.48
586.74	1954.35
586.90	1900.52
587.06	1900.52
587.22	1888.81
587.38	1664.12
587.54	2953.76
587.70	6429.45
587.86	8379.12
588.02	8070.17
588.18	6202.42
588.34	4458.72
588.49	2832.05
588.65	2204.78
588.81	1682.85
588.97	1254.53
589.13	1350.49
589.29	1416.02
589.45	1544.75
589.61	1399.64
589.77	1825.62
589.93	1556.46
590.08	1629.01
590.24	1528.37
590.40	1392.62
590.56	1692.21
590.72	1423.05
590.88	1247.51
591.04	1554.12
591.20	1420.71
591.35	1678.16
591.51	1451.13
591.67	1322.40
591.83	1284.95
591.99	1511.99
592.15	1633.69
592.31	1605.61
592.46	1399.64
592.62	1696.89
592.78	1341.13
592.94	1359.85
593.10	1359.85
593.26	1397.30
593.41	1551.78
593.57	1472.20
593.73	1956.69
593.89	5792.83
594.05	11166.70
594.20	13912.14
594.36	12718.47
594.52	8549.98
594.68	5827.93
594.84	4454.04
594.99	3063.76
595.15	2033.93
595.31	1872.43
595.47	1968.39
595.62	1514.33
595.78	1537.73
595.94	1542.41
596.10	1717.95
596.25	1540.07
596.41	1685.19
596.57	1406.66
596.73	1399.64
596.88	1867.75
597.04	3157.38
597.20	3974.23
597.36	4140.41
597.51	3286.11
597.67	2623.74
597.83	2050.31
597.99	2012.86
598.14	1640.72
598.30	1741.36
598.46	1455.81
598.61	1732.00
598.77	1577.52
598.93	1434.75
599.09	1390.28
599.24	1572.84
599.40	1689.87
599.56	1355.17
599.71	1483.90
599.87	1282.61
600.03	1423.05
600.18	1355.17
600.34	1521.35
600.50	1357.51
600.65	1207.72
600.81	1577.52
600.97	1291.98
