SpectraSuite Data File
++++++++++++++++++++++++++++++++++++
Date: Fri Oct 04 11:34:08 GMT-05:00 2013
User: price-jones
Dark Spectrum Present: No
Reference Spectrum Present: No
Number of Sampled Component Spectra: 1
Spectrometers: USB2+H05261
Integration Time (usec): 100000 (USB2+H05261)
Spectra Averaged: 1 (USB2+H05261)
Boxcar Smoothing: 0 (USB2+H05261)
Correct for Electrical Dark: No (USB2+H05261)
Strobe/Lamp Enabled: No (USB2+H05261)
Correct for Detector Non-linearity: No (USB2+H05261)
Correct for Stray Light: No (USB2+H05261)
Number of Pixels in Processed Spectrum: 2048
>>>>>Begin Processed Spectral Data<<<<<
365.73	58.51
365.92	58.51
366.12	58.51
366.32	0.00
366.52	0.00
366.72	0.00
366.91	9.36
367.11	0.00
367.31	18.72
367.51	0.00
367.70	18.72
367.90	0.00
368.10	0.00
368.30	0.00
368.49	0.00
368.69	0.00
368.89	0.00
369.09	23.41
369.28	0.00
369.48	0.00
369.68	4.68
369.87	86.60
370.07	30.43
370.27	84.26
370.47	63.19
370.66	74.90
370.86	72.56
371.06	93.62
371.25	98.30
371.45	86.60
371.65	154.48
371.84	114.69
372.04	133.41
372.24	91.28
372.44	161.50
372.63	35.11
372.83	168.52
373.03	128.73
373.22	102.98
373.42	138.09
373.62	58.51
373.81	152.13
374.01	149.79
374.21	154.48
374.40	156.82
374.60	156.82
374.79	175.54
374.99	119.37
375.19	112.35
375.38	166.18
375.58	149.79
375.78	191.92
375.97	100.64
376.17	187.24
376.37	154.48
376.56	149.79
376.76	126.39
376.95	156.82
377.15	88.94
377.35	191.92
377.54	135.75
377.74	100.64
377.93	131.07
378.13	180.22
378.33	166.18
378.52	191.92
378.72	124.05
378.91	102.98
379.11	166.18
379.31	105.32
379.50	110.01
379.70	163.84
379.89	105.32
380.09	11.70
380.28	145.11
380.48	177.88
380.68	166.18
380.87	107.66
381.07	222.35
381.26	177.88
381.46	133.41
381.65	100.64
381.85	42.13
382.04	84.26
382.24	145.11
382.43	128.73
382.63	58.51
382.83	133.41
383.02	135.75
383.22	142.77
383.41	198.95
383.61	84.26
383.80	98.30
384.00	191.92
384.19	117.03
384.39	91.28
384.58	126.39
384.78	140.43
384.97	121.71
385.17	170.86
385.36	110.01
385.56	191.92
385.75	46.81
385.95	154.48
386.14	100.64
386.34	166.18
386.53	121.71
386.72	110.01
386.92	126.39
387.11	180.22
387.31	138.09
387.50	173.20
387.70	74.90
387.89	117.03
388.09	163.84
388.28	156.82
388.48	156.82
388.67	117.03
388.86	91.28
389.06	100.64
389.25	166.18
389.45	131.07
389.64	173.20
389.84	77.24
390.03	84.26
390.22	166.18
390.42	117.03
390.61	135.75
390.81	187.24
391.00	145.11
391.19	140.43
391.39	215.33
391.58	145.11
391.78	156.82
391.97	182.56
392.16	124.05
392.36	175.54
392.55	161.50
392.75	124.05
392.94	140.43
393.13	98.30
393.33	138.09
393.52	105.32
393.71	210.65
393.91	191.92
394.10	161.50
394.29	163.84
394.49	126.39
394.68	220.01
394.88	154.48
395.07	140.43
395.26	191.92
395.46	152.13
395.65	152.13
395.84	119.37
396.04	205.97
396.23	142.77
396.42	117.03
396.62	126.39
396.81	154.48
397.00	114.69
397.19	201.29
397.39	84.26
397.58	173.20
397.77	168.52
397.97	121.71
398.16	177.88
398.35	163.84
398.55	128.73
398.74	112.35
398.93	180.22
399.12	166.18
399.32	159.16
399.51	201.29
399.70	170.86
399.90	114.69
400.09	184.90
400.28	138.09
400.47	138.09
400.67	201.29
400.86	128.73
401.05	138.09
401.24	154.48
401.44	196.60
401.63	166.18
401.82	238.73
402.01	149.79
402.21	166.18
402.40	168.52
402.59	145.11
402.78	149.79
402.97	135.75
403.17	131.07
403.36	124.05
403.55	133.41
403.74	124.05
403.93	168.52
404.13	231.71
404.32	203.63
404.51	205.97
404.70	166.18
404.89	102.98
405.09	180.22
405.28	145.11
405.47	56.17
405.66	205.97
405.85	133.41
406.05	133.41
406.24	121.71
406.43	175.54
406.62	135.75
406.81	196.60
407.00	159.16
407.20	191.92
407.39	191.92
407.58	220.01
407.77	170.86
407.96	135.75
408.15	142.77
408.34	229.37
408.54	248.10
408.73	161.50
408.92	145.11
409.11	154.48
409.30	145.11
409.49	173.20
409.68	110.01
409.87	131.07
410.07	131.07
410.26	128.73
410.45	138.09
410.64	156.82
410.83	187.24
411.02	117.03
411.21	194.26
411.40	182.56
411.59	191.92
411.78	95.96
411.98	102.98
412.17	114.69
412.36	128.73
412.55	145.11
412.74	135.75
412.93	191.92
413.12	198.95
413.31	210.65
413.50	149.79
413.69	114.69
413.88	222.35
414.07	184.90
414.26	166.18
414.45	128.73
414.64	95.96
414.83	152.13
415.02	175.54
415.22	182.56
415.41	224.69
415.60	135.75
415.79	163.84
415.98	128.73
416.17	194.26
416.36	56.17
416.55	215.33
416.74	131.07
416.93	175.54
417.12	107.66
417.31	147.45
417.50	180.22
417.69	264.48
417.88	173.20
418.07	262.14
418.26	201.29
418.45	210.65
418.64	332.36
418.83	238.73
419.02	191.92
419.21	231.71
419.39	257.46
419.58	224.69
419.77	175.54
419.96	168.52
420.15	184.90
420.34	196.60
420.53	166.18
420.72	187.24
420.91	217.67
421.10	152.13
421.29	208.31
421.48	102.98
421.67	128.73
421.86	117.03
422.05	166.18
422.24	182.56
422.43	182.56
422.61	135.75
422.80	163.84
422.99	121.71
423.18	161.50
423.37	161.50
423.56	220.01
423.75	210.65
423.94	173.20
424.13	163.84
424.32	154.48
424.50	175.54
424.69	175.54
424.88	227.03
425.07	210.65
425.26	201.29
425.45	220.01
425.64	311.29
425.83	231.71
426.01	227.03
426.20	191.92
426.39	196.60
426.58	229.37
426.77	205.97
426.96	184.90
427.15	187.24
427.33	102.98
427.52	98.30
427.71	126.39
427.90	161.50
428.09	194.26
428.28	168.52
428.46	117.03
428.65	156.82
428.84	170.86
429.03	168.52
429.22	201.29
429.40	238.73
429.59	189.58
429.78	168.52
429.97	168.52
430.16	135.75
430.34	201.29
430.53	154.48
430.72	212.99
430.91	184.90
431.10	191.92
431.28	182.56
431.47	156.82
431.66	124.05
431.85	121.71
432.03	180.22
432.22	217.67
432.41	152.13
432.60	266.82
432.79	191.92
432.97	280.86
433.16	224.69
433.35	248.10
433.54	222.35
433.72	196.60
433.91	252.78
434.10	215.33
434.28	250.44
434.47	187.24
434.66	205.97
434.85	191.92
435.03	262.14
435.22	407.25
435.41	428.32
435.59	390.87
435.78	351.08
435.97	184.90
436.16	250.44
436.34	140.43
436.53	156.82
436.72	229.37
436.90	210.65
437.09	222.35
437.28	177.88
437.46	201.29
437.65	184.90
437.84	196.60
438.02	215.33
438.21	194.26
438.40	56.17
438.58	187.24
438.77	147.45
438.96	88.94
439.14	159.16
439.33	182.56
439.52	124.05
439.70	117.03
439.89	124.05
440.08	231.71
440.26	182.56
440.45	168.52
440.63	250.44
440.82	255.12
441.01	187.24
441.19	168.52
441.38	203.63
441.57	191.92
441.75	182.56
441.94	196.60
442.12	276.18
442.31	210.65
442.50	177.88
442.68	177.88
442.87	184.90
443.05	189.58
443.24	187.24
443.43	140.43
443.61	187.24
443.80	248.10
443.98	187.24
444.17	208.31
444.35	241.08
444.54	131.07
444.73	149.79
444.91	142.77
445.10	119.37
445.28	124.05
445.47	201.29
445.65	196.60
445.84	191.92
446.02	236.39
446.21	271.50
446.39	248.10
446.58	177.88
446.77	166.18
446.95	114.69
447.14	215.33
447.32	191.92
447.51	173.20
447.69	184.90
447.88	191.92
448.06	224.69
448.25	194.26
448.43	138.09
448.62	229.37
448.80	231.71
448.99	187.24
449.17	149.79
449.36	124.05
449.54	231.71
449.73	161.50
449.91	238.73
450.10	201.29
450.28	269.16
450.46	217.67
450.65	203.63
450.83	262.14
451.02	147.45
451.20	126.39
451.39	149.79
451.57	203.63
451.76	182.56
451.94	217.67
452.13	180.22
452.31	175.54
452.49	205.97
452.68	154.48
452.86	154.48
453.05	175.54
453.23	250.44
453.42	180.22
453.60	175.54
453.78	161.50
453.97	201.29
454.15	135.75
454.34	189.58
454.52	135.75
454.70	124.05
454.89	194.26
455.07	138.09
455.26	227.03
455.44	121.71
455.62	180.22
455.81	194.26
455.99	262.14
456.17	182.56
456.36	220.01
456.54	205.97
456.73	152.13
456.91	222.35
457.09	205.97
457.28	212.99
457.46	152.13
457.64	201.29
457.83	147.45
458.01	189.58
458.19	168.52
458.38	212.99
458.56	257.46
458.74	138.09
458.93	145.11
459.11	159.16
459.29	201.29
459.48	201.29
459.66	238.73
459.84	175.54
460.03	229.37
460.21	191.92
460.39	217.67
460.57	196.60
460.76	196.60
460.94	189.58
461.12	257.46
461.31	191.92
461.49	180.22
461.67	229.37
461.85	245.76
462.04	241.08
462.22	552.37
462.40	187.24
462.59	170.86
462.77	210.65
462.95	231.71
463.13	257.46
463.32	210.65
463.50	173.20
463.68	194.26
463.86	271.50
464.05	182.56
464.23	285.55
464.41	170.86
464.59	84.26
464.78	145.11
464.96	189.58
465.14	131.07
465.32	161.50
465.50	238.73
465.69	203.63
465.87	201.29
466.05	142.77
466.23	149.79
466.41	262.14
466.60	255.12
466.78	212.99
466.96	243.42
467.14	241.08
467.32	243.42
467.51	142.77
467.69	217.67
467.87	227.03
468.05	238.73
468.23	203.63
468.41	231.71
468.60	234.05
468.78	194.26
468.96	203.63
469.14	227.03
469.32	208.31
469.50	215.33
469.69	163.84
469.87	224.69
470.05	187.24
470.23	245.76
470.41	117.03
470.59	154.48
470.77	128.73
470.95	245.76
471.14	210.65
471.32	196.60
471.50	234.05
471.68	126.39
471.86	191.92
472.04	114.69
472.22	283.20
472.40	86.60
472.58	170.86
472.77	210.65
472.95	215.33
473.13	208.31
473.31	189.58
473.49	154.48
473.67	182.56
473.85	224.69
474.03	220.01
474.21	156.82
474.39	215.33
474.57	208.31
474.75	215.33
474.93	175.54
475.12	156.82
475.30	252.78
475.48	203.63
475.66	196.60
475.84	234.05
476.02	210.65
476.20	184.90
476.38	149.79
476.56	255.12
476.74	227.03
476.92	217.67
477.10	205.97
477.28	252.78
477.46	210.65
477.64	170.86
477.82	217.67
478.00	203.63
478.18	222.35
478.36	201.29
478.54	173.20
478.72	208.31
478.90	306.61
479.08	210.65
479.26	149.79
479.44	259.80
479.62	273.84
479.80	182.56
479.98	124.05
480.16	163.84
480.34	236.39
480.52	175.54
480.70	205.97
480.88	187.24
481.06	170.86
481.24	210.65
481.41	245.76
481.59	177.88
481.77	205.97
481.95	212.99
482.13	212.99
482.31	220.01
482.49	250.44
482.67	194.26
482.85	255.12
483.03	220.01
483.21	278.52
483.39	217.67
483.57	220.01
483.74	180.22
483.92	180.22
484.10	201.29
484.28	187.24
484.46	271.50
484.64	271.50
484.82	196.60
485.00	203.63
485.18	266.82
485.35	245.76
485.53	238.73
485.71	243.42
485.89	264.48
486.07	212.99
486.25	243.42
486.43	245.76
486.61	250.44
486.78	292.57
486.96	299.59
487.14	231.71
487.32	222.35
487.50	290.23
487.68	224.69
487.85	278.52
488.03	313.63
488.21	266.82
488.39	271.50
488.57	205.97
488.75	231.71
488.92	486.83
489.10	187.24
489.28	283.20
489.46	203.63
489.64	177.88
489.81	243.42
489.99	234.05
490.17	285.55
490.35	341.72
490.53	339.38
490.70	259.80
490.88	257.46
491.06	175.54
491.24	257.46
491.41	278.52
491.59	262.14
491.77	259.80
491.95	250.44
492.13	283.20
492.30	273.84
492.48	278.52
492.66	210.65
492.84	278.52
493.01	325.33
493.19	177.88
493.37	299.59
493.54	290.23
493.72	229.37
493.90	248.10
494.08	215.33
494.25	269.16
494.43	248.10
494.61	238.73
494.79	238.73
494.96	238.73
495.14	287.89
495.32	248.10
495.49	278.52
495.67	227.03
495.85	243.42
496.02	224.69
496.20	248.10
496.38	280.86
496.55	168.52
496.73	334.70
496.91	241.08
497.09	210.65
497.26	227.03
497.44	227.03
497.62	241.08
497.79	290.23
497.97	285.55
498.14	311.29
498.32	255.12
498.50	266.82
498.67	222.35
498.85	255.12
499.03	259.80
499.20	250.44
499.38	198.95
499.56	196.60
499.73	266.82
499.91	292.57
500.08	250.44
500.26	245.76
500.44	236.39
500.61	315.97
500.79	229.37
500.97	304.27
501.14	299.59
501.32	271.50
501.49	346.40
501.67	273.84
501.84	351.08
502.02	229.37
502.20	297.25
502.37	287.89
502.55	287.89
502.72	278.52
502.90	264.48
503.07	245.76
503.25	297.25
503.43	205.97
503.60	311.29
503.78	241.08
503.95	283.20
504.13	301.93
504.30	215.33
504.48	290.23
504.65	212.99
504.83	283.20
505.01	297.25
505.18	402.57
505.36	276.18
505.53	358.10
505.71	189.58
505.88	238.73
506.06	276.18
506.23	252.78
506.41	369.80
506.58	278.52
506.76	325.33
506.93	222.35
507.11	212.99
507.28	269.16
507.46	276.18
507.63	269.16
507.81	285.55
507.98	299.59
508.16	255.12
508.33	276.18
508.50	308.95
508.68	252.78
508.85	198.95
509.03	201.29
509.20	196.60
509.38	276.18
509.55	283.20
509.73	257.46
509.90	236.39
510.08	168.52
510.25	348.74
510.42	229.37
510.60	269.16
510.77	220.01
510.95	308.95
511.12	203.63
511.30	313.63
511.47	322.99
511.64	304.27
511.82	262.14
511.99	273.84
512.17	205.97
512.34	189.58
512.51	280.86
512.69	276.18
512.86	280.86
513.04	304.27
513.21	231.71
513.38	264.48
513.56	276.18
513.73	170.86
513.90	182.56
514.08	271.50
514.25	238.73
514.43	255.12
514.60	283.20
514.77	297.25
514.95	264.48
515.12	266.82
515.29	255.12
515.47	287.89
515.64	217.67
515.81	187.24
515.99	294.91
516.16	231.71
516.33	243.42
516.51	217.67
516.68	180.22
516.85	220.01
517.03	208.31
517.20	231.71
517.37	182.56
517.54	264.48
517.72	231.71
517.89	280.86
518.06	191.92
518.24	313.63
518.41	271.50
518.58	315.97
518.75	276.18
518.93	224.69
519.10	252.78
519.27	220.01
519.45	252.78
519.62	271.50
519.79	287.89
519.96	278.52
520.14	278.52
520.31	353.42
520.48	311.29
520.65	273.84
520.83	287.89
521.00	285.55
521.17	322.99
521.34	266.82
521.52	224.69
521.69	222.35
521.86	220.01
522.03	262.14
522.20	276.18
522.38	241.08
522.55	332.36
522.72	257.46
522.89	304.27
523.07	299.59
523.24	241.08
523.41	266.82
523.58	264.48
523.75	292.57
523.92	273.84
524.10	292.57
524.27	259.80
524.44	301.93
524.61	315.97
524.78	280.86
524.96	280.86
525.13	355.76
525.30	304.27
525.47	374.49
525.64	210.65
525.81	264.48
525.98	290.23
526.16	320.65
526.33	255.12
526.50	269.16
526.67	259.80
526.84	217.67
527.01	215.33
527.18	311.29
527.36	304.27
527.53	285.55
527.70	332.36
527.87	290.23
528.04	308.95
528.21	198.95
528.38	280.86
528.55	273.84
528.72	320.65
528.89	304.27
529.07	276.18
529.24	271.50
529.41	308.95
529.58	255.12
529.75	339.38
529.92	330.02
530.09	266.82
530.26	301.93
530.43	297.25
530.60	259.80
530.77	266.82
530.94	283.20
531.11	250.44
531.28	348.74
531.46	297.25
531.63	283.20
531.80	271.50
531.97	255.12
532.14	294.91
532.31	325.33
532.48	374.49
532.65	397.89
532.82	346.40
532.99	407.25
533.16	381.51
533.33	334.70
533.50	318.31
533.67	372.15
533.84	353.42
534.01	411.93
534.18	400.23
534.35	334.70
534.52	271.50
534.69	351.08
534.86	259.80
535.03	325.33
535.20	292.57
535.37	337.04
535.54	351.08
535.71	255.12
535.88	299.59
536.05	332.36
536.22	266.82
536.38	301.93
536.55	290.23
536.72	325.33
536.89	262.14
537.06	224.69
537.23	351.08
537.40	362.78
537.57	348.74
537.74	409.59
537.91	411.93
538.08	276.18
538.25	346.40
538.42	304.27
538.59	346.40
538.75	337.04
538.92	306.61
539.09	353.42
539.26	355.76
539.43	545.34
539.60	910.47
539.77	1270.91
539.94	1256.87
540.11	1041.54
540.28	692.80
540.44	578.11
540.61	458.74
540.78	472.79
540.95	491.51
541.12	491.51
541.29	653.01
541.46	699.82
541.62	507.90
541.79	538.32
541.96	526.62
542.13	573.43
542.30	507.90
542.47	543.00
542.63	505.56
542.80	486.83
542.97	484.49
543.14	482.15
543.31	482.15
543.48	500.87
543.64	447.04
543.81	526.62
543.98	454.06
544.15	514.92
544.32	470.45
544.48	423.64
544.65	540.66
544.82	402.57
544.99	554.71
545.16	484.49
545.32	578.11
545.49	809.83
545.66	929.19
545.83	1111.75
546.00	1011.11
546.16	648.33
546.33	557.05
546.50	390.87
546.67	503.22
546.83	451.72
547.00	449.38
547.17	496.19
547.34	320.65
547.50	409.59
547.67	430.66
547.84	360.44
548.00	362.78
548.17	344.06
548.34	372.15
548.51	360.44
548.67	411.93
548.84	388.53
549.01	367.46
549.18	348.74
549.34	362.78
549.51	397.89
549.68	386.19
549.84	278.52
550.01	334.70
550.18	463.43
550.34	393.21
550.51	332.36
550.68	402.57
550.84	290.23
551.01	339.38
551.18	348.74
551.34	304.27
551.51	287.89
551.68	313.63
551.84	306.61
552.01	322.99
552.18	383.85
552.34	287.89
552.51	306.61
552.68	299.59
552.84	365.12
553.01	304.27
553.18	308.95
553.34	362.78
553.51	257.46
553.67	290.23
553.84	360.44
554.01	266.82
554.17	365.12
554.34	285.55
554.51	320.65
554.67	341.72
554.84	290.23
555.00	315.97
555.17	358.10
555.33	245.76
555.50	330.02
555.67	315.97
555.83	311.29
556.00	304.27
556.16	528.96
556.33	271.50
556.50	273.84
556.66	257.46
556.83	208.31
556.99	262.14
557.16	252.78
557.32	287.89
557.49	297.25
557.65	259.80
557.82	238.73
557.98	259.80
558.15	325.33
558.32	236.39
558.48	273.84
558.65	292.57
558.81	280.86
558.98	280.86
559.14	332.36
559.31	332.36
559.47	327.68
559.64	266.82
559.80	346.40
559.97	259.80
560.13	334.70
560.30	290.23
560.46	327.68
560.63	320.65
560.79	299.59
560.96	222.35
561.12	325.33
561.29	264.48
561.45	203.63
561.61	250.44
561.78	273.84
561.94	184.90
562.11	259.80
562.27	264.48
562.44	283.20
562.60	222.35
562.77	198.95
562.93	264.48
563.10	262.14
563.26	278.52
563.42	299.59
563.59	243.42
563.75	234.05
563.92	264.48
564.08	248.10
564.24	262.14
564.41	290.23
564.57	243.42
564.74	266.82
564.90	301.93
565.07	266.82
565.23	351.08
565.39	344.06
565.56	262.14
565.72	208.31
565.88	250.44
566.05	311.29
566.21	252.78
566.38	294.91
566.54	304.27
566.70	294.91
566.87	234.05
567.03	203.63
567.19	245.76
567.36	304.27
567.52	234.05
567.68	290.23
567.85	252.78
568.01	283.20
568.17	290.23
568.34	248.10
568.50	297.25
568.66	245.76
568.83	292.57
568.99	262.14
569.15	266.82
569.32	297.25
569.48	236.39
569.64	266.82
569.81	241.08
569.97	271.50
570.13	271.50
570.30	224.69
570.46	304.27
570.62	196.60
570.78	224.69
570.95	229.37
571.11	297.25
571.27	320.65
571.43	348.74
571.60	308.95
571.76	304.27
571.92	259.80
572.09	271.50
572.25	297.25
572.41	250.44
572.57	325.33
572.74	304.27
572.90	313.63
573.06	299.59
573.22	292.57
573.38	313.63
573.55	278.52
573.71	315.97
573.87	339.38
574.03	330.02
574.20	304.27
574.36	266.82
574.52	388.53
574.68	297.25
574.84	257.46
575.01	262.14
575.17	266.82
575.33	241.08
575.49	257.46
575.65	283.20
575.82	386.19
575.98	594.50
576.14	587.47
576.30	648.33
576.46	568.75
576.62	507.90
576.79	479.81
576.95	449.38
577.11	341.72
577.27	278.52
577.43	311.29
577.59	278.52
577.75	325.33
577.92	292.57
578.08	283.20
578.24	266.82
578.40	308.95
578.56	451.72
578.72	451.72
578.88	465.77
579.04	409.59
579.21	334.70
579.37	360.44
579.53	334.70
579.69	369.80
579.85	292.57
580.01	463.43
580.17	433.00
580.33	447.04
580.49	393.21
580.65	353.42
580.82	341.72
580.98	383.85
581.14	313.63
581.30	465.77
581.46	369.80
581.62	493.85
581.78	538.32
581.94	566.41
582.10	519.60
582.26	472.79
582.42	500.87
582.58	475.13
582.74	437.68
582.90	461.09
583.06	479.81
583.22	416.62
583.38	444.70
583.54	461.09
583.70	711.52
583.86	664.71
584.02	638.97
584.18	835.57
584.34	978.34
584.50	2497.35
584.66	17589.13
584.82	44126.12
584.98	55772.63
585.14	51145.39
585.30	33385.40
585.46	20180.10
585.62	12578.04
585.78	5860.70
585.94	2523.10
586.10	1303.68
586.26	802.80
586.42	770.04
586.58	615.56
586.74	533.64
586.90	624.92
587.06	669.39
587.22	573.43
587.38	599.18
587.54	1006.43
587.70	2700.98
587.86	4112.32
588.02	4454.04
588.18	3241.64
588.34	2160.31
588.49	1434.75
588.65	983.02
588.81	599.18
588.97	433.00
589.13	344.06
589.29	306.61
589.45	358.10
589.61	360.44
589.77	402.57
589.93	458.74
590.08	397.89
590.24	468.11
590.40	411.93
590.56	486.83
590.72	381.51
590.88	409.59
591.04	407.25
591.20	388.53
591.35	374.49
591.51	341.72
591.67	348.74
591.83	306.61
591.99	393.21
592.15	360.44
592.31	365.12
592.46	383.85
592.62	381.51
592.78	411.93
592.94	409.59
593.10	381.51
593.26	318.31
593.41	376.83
593.57	440.02
593.73	550.03
593.89	2312.45
594.05	5577.50
594.20	7761.22
594.36	7075.44
594.52	4847.25
594.68	2944.39
594.84	2078.40
594.99	1210.06
595.15	566.41
595.31	449.38
595.47	397.89
595.62	351.08
595.78	292.57
595.94	369.80
596.10	416.62
596.25	411.93
596.41	362.78
596.57	374.49
596.73	397.89
596.88	531.30
597.04	1212.40
597.20	1849.02
597.36	1959.03
597.51	1483.90
597.67	1074.31
597.83	744.29
597.99	580.45
598.14	416.62
598.30	365.12
598.46	313.63
598.61	407.25
598.77	339.38
598.93	355.76
599.09	318.31
599.24	278.52
599.40	313.63
599.56	264.48
599.71	287.89
599.87	222.35
600.03	325.33
600.18	297.25
600.34	330.02
600.50	259.80
600.65	259.80
600.81	348.74
600.97	250.44
601.12	266.82
601.28	280.86
601.44	344.06
601.59	315.97
601.75	243.42
601.91	355.76
602.06	360.44
602.22	360.44
602.37	711.52
602.53	1327.08
602.69	1961.37
602.84	1989.46
603.00	1549.43
603.16	1139.84
603.31	814.51
603.47	638.97
603.62	381.51
603.78	337.04
603.94	215.33
604.09	337.04
604.25	292.57
604.40	369.80
604.56	262.14
604.71	273.84
604.87	255.12
605.03	311.29
605.18	257.46
605.34	372.15
605.49	243.42
605.65	344.06
605.80	322.99
605.96	308.95
606.12	332.36
606.27	332.36
606.43	297.25
606.58	304.27
606.74	784.08
606.89	2708.00
607.05	5226.42
607.20	6403.71
607.36	5165.56
607.51	3660.60
607.67	2518.42
607.82	1631.35
607.98	1076.65
608.13	617.90
608.29	491.51
608.44	500.87
608.60	409.59
608.75	496.19
608.91	1053.24
609.06	4276.16
609.22	8692.75
609.37	11136.27
609.53	9666.41
609.68	6876.49
609.84	4498.51
609.99	2939.71
610.15	1886.47
