SpectraSuite Data File
++++++++++++++++++++++++++++++++++++
Date: Fri Oct 04 11:34:02 GMT-05:00 2013
User: price-jones
Dark Spectrum Present: No
Reference Spectrum Present: No
Number of Sampled Component Spectra: 1
Spectrometers: USB2+H05261
Integration Time (usec): 100000 (USB2+H05261)
Spectra Averaged: 1 (USB2+H05261)
Boxcar Smoothing: 0 (USB2+H05261)
Correct for Electrical Dark: No (USB2+H05261)
Strobe/Lamp Enabled: No (USB2+H05261)
Correct for Detector Non-linearity: No (USB2+H05261)
Correct for Stray Light: No (USB2+H05261)
Number of Pixels in Processed Spectrum: 2048
>>>>>Begin Processed Spectral Data<<<<<
365.73	154.48
365.92	154.48
366.12	154.48
366.32	0.00
366.52	0.00
366.72	23.41
366.91	0.00
367.11	0.00
367.31	0.00
367.51	0.00
367.70	0.00
367.90	63.19
368.10	0.00
368.30	0.00
368.49	0.00
368.69	0.00
368.89	11.70
369.09	0.00
369.28	9.36
369.48	56.17
369.68	0.00
369.87	0.00
370.07	25.75
370.27	107.66
370.47	37.45
370.66	16.38
370.86	117.03
371.06	49.15
371.25	88.94
371.45	74.90
371.65	191.92
371.84	81.92
372.04	86.60
372.24	166.18
372.44	128.73
372.63	149.79
372.83	161.50
373.03	95.96
373.22	135.75
373.42	142.77
373.62	100.64
373.81	184.90
374.01	133.41
374.21	149.79
374.40	154.48
374.60	145.11
374.79	156.82
374.99	269.16
375.19	166.18
375.38	119.37
375.58	191.92
375.78	86.60
375.97	121.71
376.17	212.99
376.37	184.90
376.56	161.50
376.76	154.48
376.95	124.05
377.15	173.20
377.35	128.73
377.54	163.84
377.74	110.01
377.93	201.29
378.13	119.37
378.33	131.07
378.52	159.16
378.72	170.86
378.91	227.03
379.11	95.96
379.31	154.48
379.50	112.35
379.70	98.30
379.89	196.60
380.09	117.03
380.28	180.22
380.48	215.33
380.68	105.32
380.87	154.48
381.07	159.16
381.26	194.26
381.46	189.58
381.65	212.99
381.85	152.13
382.04	147.45
382.24	189.58
382.43	159.16
382.63	138.09
382.83	72.56
383.02	191.92
383.22	166.18
383.41	191.92
383.61	142.77
383.80	217.67
384.00	222.35
384.19	173.20
384.39	145.11
384.58	163.84
384.78	177.88
384.97	124.05
385.17	147.45
385.36	142.77
385.56	163.84
385.75	156.82
385.95	149.79
386.14	145.11
386.34	88.94
386.53	121.71
386.72	95.96
386.92	182.56
387.11	126.39
387.31	135.75
387.50	140.43
387.70	84.26
387.89	135.75
388.09	217.67
388.28	154.48
388.48	198.95
388.67	168.52
388.86	124.05
389.06	119.37
389.25	149.79
389.45	152.13
389.64	168.52
389.84	88.94
390.03	156.82
390.22	161.50
390.42	145.11
390.61	128.73
390.81	121.71
391.00	177.88
391.19	110.01
391.39	121.71
391.58	117.03
391.78	147.45
391.97	175.54
392.16	163.84
392.36	142.77
392.55	205.97
392.75	133.41
392.94	187.24
393.13	77.24
393.33	93.62
393.52	98.30
393.71	198.95
393.91	142.77
394.10	138.09
394.29	189.58
394.49	131.07
394.68	205.97
394.88	203.63
395.07	145.11
395.26	135.75
395.46	95.96
395.65	131.07
395.84	198.95
396.04	245.76
396.23	198.95
396.42	107.66
396.62	168.52
396.81	184.90
397.00	112.35
397.19	114.69
397.39	124.05
397.58	154.48
397.77	63.19
397.97	208.31
398.16	166.18
398.35	168.52
398.55	114.69
398.74	154.48
398.93	203.63
399.12	189.58
399.32	187.24
399.51	196.60
399.70	243.42
399.90	217.67
400.09	238.73
400.28	191.92
400.47	124.05
400.67	152.13
400.86	138.09
401.05	133.41
401.24	196.60
401.44	131.07
401.63	138.09
401.82	145.11
402.01	203.63
402.21	173.20
402.40	91.28
402.59	117.03
402.78	110.01
402.97	152.13
403.17	182.56
403.36	112.35
403.55	154.48
403.74	161.50
403.93	224.69
404.13	212.99
404.32	287.89
404.51	203.63
404.70	201.29
404.89	91.28
405.09	196.60
405.28	95.96
405.47	119.37
405.66	187.24
405.85	255.12
406.05	194.26
406.24	119.37
406.43	93.62
406.62	191.92
406.81	205.97
407.00	224.69
407.20	152.13
407.39	161.50
407.58	198.95
407.77	177.88
407.96	196.60
408.15	152.13
408.34	166.18
408.54	208.31
408.73	140.43
408.92	210.65
409.11	205.97
409.30	196.60
409.49	166.18
409.68	112.35
409.87	161.50
410.07	145.11
410.26	170.86
410.45	201.29
410.64	140.43
410.83	266.82
411.02	159.16
411.21	147.45
411.40	212.99
411.59	117.03
411.78	189.58
411.98	138.09
412.17	194.26
412.36	135.75
412.55	166.18
412.74	170.86
412.93	142.77
413.12	163.84
413.31	215.33
413.50	203.63
413.69	180.22
413.88	238.73
414.07	114.69
414.26	184.90
414.45	170.86
414.64	266.82
414.83	238.73
415.02	184.90
415.22	245.76
415.41	276.18
415.60	184.90
415.79	187.24
415.98	145.11
416.17	154.48
416.36	138.09
416.55	107.66
416.74	140.43
416.93	133.41
417.12	180.22
417.31	161.50
417.50	215.33
417.69	180.22
417.88	194.26
418.07	156.82
418.26	154.48
418.45	182.56
418.64	264.48
418.83	227.03
419.02	264.48
419.21	201.29
419.39	168.52
419.58	196.60
419.77	191.92
419.96	301.93
420.15	227.03
420.34	145.11
420.53	152.13
420.72	177.88
420.91	203.63
421.10	203.63
421.29	184.90
421.48	198.95
421.67	203.63
421.86	135.75
422.05	149.79
422.24	81.92
422.43	166.18
422.61	212.99
422.80	173.20
422.99	156.82
423.18	124.05
423.37	170.86
423.56	215.33
423.75	201.29
423.94	100.64
424.13	201.29
424.32	140.43
424.50	154.48
424.69	194.26
424.88	257.46
425.07	177.88
425.26	248.10
425.45	175.54
425.64	304.27
425.83	241.08
426.01	248.10
426.20	201.29
426.39	161.50
426.58	152.13
426.77	163.84
426.96	149.79
427.15	168.52
427.33	110.01
427.52	112.35
427.71	154.48
427.90	189.58
428.09	163.84
428.28	161.50
428.46	191.92
428.65	217.67
428.84	147.45
429.03	304.27
429.22	180.22
429.40	168.52
429.59	187.24
429.78	222.35
429.97	173.20
430.16	182.56
430.34	201.29
430.53	205.97
430.72	170.86
430.91	112.35
431.10	147.45
431.28	194.26
431.47	177.88
431.66	170.86
431.85	243.42
432.03	208.31
432.22	175.54
432.41	110.01
432.60	241.08
432.79	264.48
432.97	395.55
433.16	311.29
433.35	327.68
433.54	196.60
433.72	201.29
433.91	227.03
434.10	191.92
434.28	271.50
434.47	180.22
434.66	220.01
434.85	142.77
435.03	318.31
435.22	372.15
435.41	538.32
435.59	463.43
435.78	461.09
435.97	224.69
436.16	273.84
436.34	177.88
436.53	234.05
436.72	241.08
436.90	152.13
437.09	191.92
437.28	81.92
437.46	177.88
437.65	166.18
437.84	224.69
438.02	173.20
438.21	168.52
438.40	208.31
438.58	119.37
438.77	194.26
438.96	184.90
439.14	147.45
439.33	229.37
439.52	187.24
439.70	168.52
439.89	205.97
440.08	173.20
440.26	184.90
440.45	266.82
440.63	220.01
440.82	205.97
441.01	140.43
441.19	168.52
441.38	88.94
441.57	173.20
441.75	180.22
441.94	252.78
442.12	198.95
442.31	208.31
442.50	114.69
442.68	110.01
442.87	196.60
443.05	177.88
443.24	191.92
443.43	189.58
443.61	177.88
443.80	142.77
443.98	255.12
444.17	184.90
444.35	191.92
444.54	238.73
444.73	210.65
444.91	203.63
445.10	224.69
445.28	152.13
445.47	135.75
445.65	224.69
445.84	198.95
446.02	177.88
446.21	168.52
446.39	264.48
446.58	119.37
446.77	140.43
446.95	140.43
447.14	196.60
447.32	224.69
447.51	222.35
447.69	166.18
447.88	266.82
448.06	217.67
448.25	166.18
448.43	131.07
448.62	194.26
448.80	245.76
448.99	205.97
449.17	259.80
449.36	152.13
449.54	210.65
449.73	222.35
449.91	231.71
450.10	187.24
450.28	238.73
450.46	287.89
450.65	227.03
450.83	241.08
451.02	227.03
451.20	194.26
451.39	196.60
451.57	175.54
451.76	152.13
451.94	149.79
452.13	191.92
452.31	198.95
452.49	259.80
452.68	135.75
452.86	175.54
453.05	196.60
453.23	177.88
453.42	140.43
453.60	220.01
453.78	184.90
453.97	112.35
454.15	177.88
454.34	133.41
454.52	163.84
454.70	194.26
454.89	184.90
455.07	203.63
455.26	212.99
455.44	255.12
455.62	212.99
455.81	236.39
455.99	229.37
456.17	212.99
456.36	180.22
456.54	166.18
456.73	177.88
456.91	152.13
457.09	170.86
457.28	245.76
457.46	203.63
457.64	250.44
457.83	189.58
458.01	133.41
458.19	180.22
458.38	177.88
458.56	142.77
458.74	201.29
458.93	238.73
459.11	231.71
459.29	168.52
459.48	315.97
459.66	292.57
459.84	175.54
460.03	252.78
460.21	191.92
460.39	159.16
460.57	201.29
460.76	182.56
460.94	196.60
461.12	210.65
461.31	140.43
461.49	184.90
461.67	168.52
461.85	173.20
462.04	114.69
462.22	676.41
462.40	205.97
462.59	142.77
462.77	114.69
462.95	117.03
463.13	203.63
463.32	245.76
463.50	182.56
463.68	220.01
463.86	159.16
464.05	138.09
464.23	215.33
464.41	131.07
464.59	184.90
464.78	180.22
464.96	147.45
465.14	166.18
465.32	166.18
465.50	210.65
465.69	220.01
465.87	161.50
466.05	203.63
466.23	201.29
466.41	142.77
466.60	182.56
466.78	227.03
466.96	161.50
467.14	189.58
467.32	126.39
467.51	255.12
467.69	271.50
467.87	236.39
468.05	205.97
468.23	168.52
468.41	205.97
468.60	196.60
468.78	163.84
468.96	201.29
469.14	234.05
469.32	166.18
469.50	159.16
469.69	285.55
469.87	231.71
470.05	177.88
470.23	133.41
470.41	212.99
470.59	187.24
470.77	266.82
470.95	187.24
471.14	266.82
471.32	154.48
471.50	187.24
471.68	215.33
471.86	191.92
472.04	177.88
472.22	180.22
472.40	156.82
472.58	173.20
472.77	241.08
472.95	177.88
473.13	161.50
473.31	220.01
473.49	208.31
473.67	191.92
473.85	217.67
474.03	224.69
474.21	107.66
474.39	191.92
474.57	201.29
474.75	236.39
474.93	227.03
475.12	135.75
475.30	191.92
475.48	182.56
475.66	222.35
475.84	168.52
476.02	238.73
476.20	173.20
476.38	180.22
476.56	257.46
476.74	163.84
476.92	191.92
477.10	182.56
477.28	212.99
477.46	196.60
477.64	119.37
477.82	203.63
478.00	234.05
478.18	198.95
478.36	201.29
478.54	177.88
478.72	201.29
478.90	198.95
479.08	191.92
479.26	191.92
479.44	217.67
479.62	257.46
479.80	245.76
479.98	205.97
480.16	257.46
480.34	203.63
480.52	203.63
480.70	248.10
480.88	180.22
481.06	273.84
481.24	238.73
481.41	203.63
481.59	269.16
481.77	229.37
481.95	203.63
482.13	285.55
482.31	278.52
482.49	234.05
482.67	234.05
482.85	287.89
483.03	184.90
483.21	210.65
483.39	273.84
483.57	198.95
483.74	278.52
483.92	269.16
484.10	201.29
484.28	301.93
484.46	273.84
484.64	264.48
484.82	203.63
485.00	227.03
485.18	262.14
485.35	227.03
485.53	234.05
485.71	208.31
485.89	269.16
486.07	276.18
486.25	348.74
486.43	255.12
486.61	257.46
486.78	266.82
486.96	266.82
487.14	273.84
487.32	313.63
487.50	332.36
487.68	313.63
487.85	248.10
488.03	177.88
488.21	294.91
488.39	276.18
488.57	285.55
488.75	257.46
488.92	526.62
489.10	191.92
489.28	234.05
489.46	222.35
489.64	304.27
489.81	266.82
489.99	208.31
490.17	308.95
490.35	292.57
490.53	259.80
490.70	217.67
490.88	222.35
491.06	243.42
491.24	287.89
491.41	266.82
491.59	227.03
491.77	161.50
491.95	203.63
492.13	259.80
492.30	273.84
492.48	236.39
492.66	203.63
492.84	271.50
493.01	245.76
493.19	229.37
493.37	255.12
493.54	320.65
493.72	224.69
493.90	266.82
494.08	252.78
494.25	285.55
494.43	217.67
494.61	210.65
494.79	224.69
494.96	318.31
495.14	217.67
495.32	266.82
495.49	313.63
495.67	215.33
495.85	278.52
496.02	292.57
496.20	283.20
496.38	229.37
496.55	266.82
496.73	271.50
496.91	215.33
497.09	283.20
497.26	337.04
497.44	287.89
497.62	250.44
497.79	234.05
497.97	276.18
498.14	236.39
498.32	278.52
498.50	276.18
498.67	259.80
498.85	306.61
499.03	339.38
499.20	227.03
499.38	278.52
499.56	229.37
499.73	318.31
499.91	262.14
500.08	224.69
500.26	297.25
500.44	191.92
500.61	250.44
500.79	222.35
500.97	205.97
501.14	266.82
501.32	212.99
501.49	299.59
501.67	210.65
501.84	208.31
502.02	201.29
502.20	269.16
502.37	243.42
502.55	252.78
502.72	292.57
502.90	301.93
503.07	290.23
503.25	276.18
503.43	341.72
503.60	315.97
503.78	276.18
503.95	287.89
504.13	276.18
504.30	283.20
504.48	182.56
504.65	215.33
504.83	215.33
505.01	140.43
505.18	330.02
505.36	264.48
505.53	271.50
505.71	182.56
505.88	220.01
506.06	271.50
506.23	191.92
506.41	280.86
506.58	252.78
506.76	346.40
506.93	227.03
507.11	191.92
507.28	227.03
507.46	194.26
507.63	271.50
507.81	269.16
507.98	283.20
508.16	259.80
508.33	271.50
508.50	191.92
508.68	262.14
508.85	271.50
509.03	194.26
509.20	184.90
509.38	217.67
509.55	252.78
509.73	290.23
509.90	205.97
510.08	241.08
510.25	339.38
510.42	248.10
510.60	191.92
510.77	374.49
510.95	262.14
511.12	205.97
511.30	318.31
511.47	393.21
511.64	269.16
511.82	241.08
511.99	205.97
512.17	238.73
512.34	304.27
512.51	285.55
512.69	271.50
512.86	269.16
513.04	264.48
513.21	290.23
513.38	220.01
513.56	299.59
513.73	255.12
513.90	283.20
514.08	262.14
514.25	315.97
514.43	304.27
514.60	269.16
514.77	273.84
514.95	248.10
515.12	285.55
515.29	280.86
515.47	208.31
515.64	273.84
515.81	264.48
515.99	231.71
516.16	341.72
516.33	337.04
516.51	210.65
516.68	196.60
516.85	264.48
517.03	276.18
517.20	191.92
517.37	332.36
517.54	215.33
517.72	220.01
517.89	175.54
518.06	175.54
518.24	294.91
518.41	220.01
518.58	255.12
518.75	241.08
518.93	308.95
519.10	294.91
519.27	301.93
519.45	220.01
519.62	266.82
519.79	259.80
519.96	273.84
520.14	266.82
520.31	259.80
520.48	217.67
520.65	297.25
520.83	194.26
521.00	205.97
521.17	304.27
521.34	348.74
521.52	276.18
521.69	280.86
521.86	271.50
522.03	257.46
522.20	358.10
522.38	215.33
522.55	255.12
522.72	285.55
522.89	220.01
523.07	262.14
523.24	299.59
523.41	231.71
523.58	189.58
523.75	252.78
523.92	276.18
524.10	280.86
524.27	278.52
524.44	262.14
524.61	301.93
524.78	308.95
524.96	224.69
525.13	271.50
525.30	330.02
525.47	304.27
525.64	217.67
525.81	231.71
525.98	259.80
526.16	194.26
526.33	287.89
526.50	243.42
526.67	257.46
526.84	208.31
527.01	259.80
527.18	196.60
527.36	264.48
527.53	208.31
527.70	351.08
527.87	301.93
528.04	278.52
528.21	334.70
528.38	390.87
528.55	315.97
528.72	313.63
528.89	339.38
529.07	231.71
529.24	276.18
529.41	252.78
529.58	330.02
529.75	248.10
529.92	292.57
530.09	306.61
530.26	278.52
530.43	215.33
530.60	301.93
530.77	238.73
530.94	276.18
531.11	273.84
531.28	201.29
531.46	292.57
531.63	318.31
531.80	236.39
531.97	297.25
532.14	348.74
532.31	273.84
532.48	327.68
532.65	299.59
532.82	421.30
532.99	444.70
533.16	318.31
533.33	388.53
533.50	330.02
533.67	376.83
533.84	535.98
534.01	425.98
534.18	430.66
534.35	318.31
534.52	334.70
534.69	306.61
534.86	292.57
535.03	294.91
535.20	320.65
535.37	339.38
535.54	224.69
535.71	301.93
535.88	285.55
536.05	334.70
536.22	250.44
536.38	315.97
536.55	191.92
536.72	299.59
536.89	283.20
537.06	212.99
537.23	311.29
537.40	341.72
537.57	283.20
537.74	255.12
537.91	332.36
538.08	337.04
538.25	362.78
538.42	374.49
538.59	388.53
538.75	369.80
538.92	374.49
539.09	313.63
539.26	337.04
539.43	617.90
539.60	1088.35
539.77	1790.51
539.94	1823.28
540.11	1252.19
540.28	919.83
540.44	664.71
540.61	540.66
540.78	484.49
540.95	599.18
541.12	587.47
541.29	528.96
541.46	634.29
541.62	568.75
541.79	571.09
541.96	491.51
542.13	554.71
542.30	615.56
542.47	573.43
542.63	528.96
542.80	547.69
542.97	557.05
543.14	475.13
543.31	503.22
543.48	505.56
543.64	507.90
543.81	538.32
543.98	512.58
544.15	507.90
544.32	580.45
544.48	528.96
544.65	587.47
544.82	498.53
544.99	491.51
545.16	568.75
545.32	559.39
545.49	774.72
545.66	1018.13
545.83	1156.22
546.00	901.11
546.16	669.39
546.33	622.58
546.50	493.85
546.67	458.74
546.83	573.43
547.00	470.45
547.17	409.59
547.34	409.59
547.50	402.57
547.67	395.55
547.84	374.49
548.00	477.47
548.17	388.53
548.34	388.53
548.51	507.90
548.67	447.04
548.84	351.08
549.01	386.19
549.18	365.12
549.34	461.09
549.51	418.96
549.68	383.85
549.84	414.27
550.01	397.89
550.18	517.26
550.34	514.92
550.51	360.44
550.68	449.38
550.84	339.38
551.01	297.25
551.18	381.51
551.34	348.74
551.51	341.72
551.68	376.83
551.84	362.78
552.01	341.72
552.18	278.52
552.34	304.27
552.51	325.33
552.68	346.40
552.84	332.36
553.01	299.59
553.18	269.16
553.34	360.44
553.51	372.15
553.67	313.63
553.84	332.36
554.01	269.16
554.17	313.63
554.34	257.46
554.51	280.86
554.67	344.06
554.84	287.89
555.00	318.31
555.17	320.65
555.33	330.02
555.50	301.93
555.67	294.91
555.83	273.84
556.00	304.27
556.16	477.47
556.33	285.55
556.50	322.99
556.66	344.06
556.83	273.84
556.99	278.52
557.16	276.18
557.32	227.03
557.49	229.37
557.65	290.23
557.82	264.48
557.98	236.39
558.15	271.50
558.32	245.76
558.48	299.59
558.65	259.80
558.81	285.55
558.98	271.50
559.14	311.29
559.31	297.25
559.47	297.25
559.64	252.78
559.80	271.50
559.97	250.44
560.13	304.27
560.30	248.10
560.46	217.67
560.63	301.93
560.79	234.05
560.96	205.97
561.12	217.67
561.29	318.31
561.45	245.76
561.61	351.08
561.78	297.25
561.94	334.70
562.11	304.27
562.27	287.89
562.44	227.03
562.60	325.33
562.77	205.97
562.93	360.44
563.10	301.93
563.26	353.42
563.42	243.42
563.59	311.29
563.75	262.14
563.92	259.80
564.08	212.99
564.24	269.16
564.41	325.33
564.57	285.55
564.74	271.50
564.90	250.44
565.07	311.29
565.23	327.68
565.39	379.17
565.56	322.99
565.72	168.52
565.88	252.78
566.05	278.52
566.21	287.89
566.38	285.55
566.54	297.25
566.70	250.44
566.87	243.42
567.03	248.10
567.19	299.59
567.36	285.55
567.52	170.86
567.68	259.80
567.85	301.93
568.01	273.84
568.17	330.02
568.34	222.35
568.50	355.76
568.66	287.89
568.83	308.95
568.99	257.46
569.15	358.10
569.32	280.86
569.48	231.71
569.64	290.23
569.81	341.72
569.97	191.92
570.13	280.86
570.30	308.95
570.46	217.67
570.62	339.38
570.78	231.71
570.95	311.29
571.11	290.23
571.27	322.99
571.43	283.20
571.60	337.04
571.76	337.04
571.92	344.06
572.09	313.63
572.25	313.63
572.41	304.27
572.57	243.42
572.74	325.33
572.90	273.84
573.06	229.37
573.22	311.29
573.38	320.65
573.55	339.38
573.71	255.12
573.87	292.57
574.03	308.95
574.20	250.44
574.36	404.91
574.52	353.42
574.68	418.96
574.84	362.78
575.01	351.08
575.17	346.40
575.33	304.27
575.49	339.38
575.65	332.36
575.82	395.55
575.98	557.05
576.14	795.78
576.30	725.57
576.46	697.48
576.62	606.20
576.79	575.77
576.95	442.36
577.11	348.74
577.27	358.10
577.43	358.10
577.59	332.36
577.75	337.04
577.92	299.59
578.08	344.06
578.24	285.55
578.40	273.84
578.56	447.04
578.72	440.02
578.88	552.37
579.04	409.59
579.21	414.27
579.37	339.38
579.53	311.29
579.69	367.46
579.85	360.44
580.01	421.30
580.17	519.60
580.33	442.36
580.49	425.98
580.65	416.62
580.82	477.47
580.98	418.96
581.14	379.17
581.30	449.38
581.46	477.47
581.62	620.24
581.78	660.03
581.94	716.20
582.10	510.24
582.26	526.62
582.42	435.34
582.58	587.47
582.74	517.26
582.90	521.94
583.06	610.88
583.22	559.39
583.38	587.47
583.54	643.65
583.70	690.46
583.86	767.70
584.02	866.00
584.18	1196.01
584.34	1310.70
584.50	3295.47
584.66	23414.72
584.82	57759.74
584.98	65535.00
585.14	65289.24
585.30	52175.22
585.46	32903.25
585.62	20215.21
585.78	9320.01
585.94	3627.83
586.10	1844.34
586.26	1181.97
586.42	1064.94
586.58	833.23
586.74	781.74
586.90	688.12
587.06	720.88
587.22	695.14
587.38	660.03
587.54	1308.36
587.70	3763.58
587.86	6356.90
588.02	6970.12
588.18	5146.84
588.34	3159.72
588.49	2139.25
588.65	1366.87
588.81	730.25
588.97	538.32
589.13	498.53
589.29	353.42
589.45	400.23
589.61	362.78
589.77	444.70
589.93	507.90
590.08	512.58
590.24	606.20
590.40	524.28
590.56	491.51
590.72	388.53
590.88	397.89
591.04	404.91
591.20	414.27
591.35	505.56
591.51	362.78
591.67	423.64
591.83	449.38
591.99	322.99
592.15	423.64
592.31	418.96
592.46	393.21
592.62	418.96
592.78	416.62
592.94	346.40
593.10	428.32
593.26	430.66
593.41	500.87
593.57	463.43
593.73	638.97
593.89	2916.31
594.05	7812.71
594.20	12046.74
594.36	11534.16
594.52	7581.00
594.68	4774.69
594.84	3192.49
594.99	1825.62
595.15	847.27
595.31	566.41
595.47	395.55
595.62	418.96
595.78	421.30
595.94	386.19
596.10	451.72
596.25	461.09
596.41	484.49
596.57	416.62
596.73	430.66
596.88	657.69
597.04	1455.81
597.20	2354.58
597.36	3136.32
597.51	2232.87
597.67	1619.65
597.83	1090.69
597.99	823.87
598.14	498.53
598.30	430.66
598.46	390.87
598.61	440.02
598.77	507.90
598.93	402.57
599.09	440.02
599.24	348.74
599.40	414.27
599.56	374.49
599.71	325.33
599.87	337.04
600.03	304.27
600.18	372.15
600.34	395.55
600.50	365.12
600.65	241.08
600.81	273.84
600.97	283.20
601.12	355.76
601.28	351.08
601.44	327.68
601.59	283.20
601.75	224.69
601.91	273.84
602.06	318.31
602.22	395.55
602.37	774.72
602.53	1825.62
602.69	2878.86
602.84	3091.85
603.00	2331.17
603.16	1708.59
603.31	1263.89
603.47	807.48
603.62	456.40
603.78	468.11
603.94	313.63
604.09	358.10
604.25	325.33
604.40	372.15
604.56	365.12
604.71	299.59
604.87	315.97
605.03	388.53
605.18	334.70
605.34	358.10
605.49	322.99
605.65	334.70
605.80	280.86
605.96	395.55
606.12	407.25
606.27	456.40
606.43	379.17
606.58	498.53
606.74	861.32
606.89	3393.78
607.05	7545.89
607.20	10071.33
607.36	8416.57
607.51	5970.71
607.67	3705.07
607.82	2656.51
607.98	1451.13
608.13	856.64
608.29	624.92
608.44	568.75
608.60	496.19
608.75	681.10
608.91	1273.25
609.06	5483.88
609.22	13221.69
609.37	18050.21
609.53	15913.30
609.68	10565.18
609.84	7117.57
609.99	4734.90
