SpectraSuite Data File
++++++++++++++++++++++++++++++++++++
Date: Fri Oct 04 11:33:51 GMT-05:00 2013
User: price-jones
Dark Spectrum Present: No
Reference Spectrum Present: No
Number of Sampled Component Spectra: 1
Spectrometers: USB2+H05261
Integration Time (usec): 100000 (USB2+H05261)
Spectra Averaged: 1 (USB2+H05261)
Boxcar Smoothing: 0 (USB2+H05261)
Correct for Electrical Dark: No (USB2+H05261)
Strobe/Lamp Enabled: No (USB2+H05261)
Correct for Detector Non-linearity: No (USB2+H05261)
Correct for Stray Light: No (USB2+H05261)
Number of Pixels in Processed Spectrum: 2048
>>>>>Begin Processed Spectral Data<<<<<
365.73	93.62
365.92	93.62
366.12	93.62
366.32	0.00
366.52	0.00
366.72	0.00
366.91	0.00
367.11	2.34
367.31	0.00
367.51	0.00
367.70	0.00
367.90	0.00
368.10	44.47
368.30	0.00
368.49	0.00
368.69	0.00
368.89	0.00
369.09	0.00
369.28	9.36
369.48	0.00
369.68	14.04
369.87	2.34
370.07	93.62
370.27	81.92
370.47	18.72
370.66	9.36
370.86	56.17
371.06	93.62
371.25	110.01
371.45	74.90
371.65	77.24
371.84	170.86
372.04	119.37
372.24	161.50
372.44	63.19
372.63	95.96
372.83	217.67
373.03	147.45
373.22	212.99
373.42	154.48
373.62	124.05
373.81	177.88
374.01	238.73
374.21	194.26
374.40	152.13
374.60	135.75
374.79	147.45
374.99	161.50
375.19	133.41
375.38	102.98
375.58	159.16
375.78	138.09
375.97	173.20
376.17	191.92
376.37	133.41
376.56	168.52
376.76	140.43
376.95	107.66
377.15	138.09
377.35	166.18
377.54	112.35
377.74	147.45
377.93	124.05
378.13	159.16
378.33	177.88
378.52	100.64
378.72	131.07
378.91	149.79
379.11	177.88
379.31	201.29
379.50	140.43
379.70	191.92
379.89	88.94
380.09	102.98
380.28	142.77
380.48	184.90
380.68	105.32
380.87	191.92
381.07	102.98
381.26	175.54
381.46	142.77
381.65	159.16
381.85	128.73
382.04	100.64
382.24	161.50
382.43	95.96
382.63	121.71
382.83	140.43
383.02	98.30
383.22	135.75
383.41	98.30
383.61	93.62
383.80	152.13
384.00	102.98
384.19	201.29
384.39	72.56
384.58	135.75
384.78	114.69
384.97	170.86
385.17	154.48
385.36	79.58
385.56	191.92
385.75	135.75
385.95	124.05
386.14	49.15
386.34	114.69
386.53	142.77
386.72	177.88
386.92	149.79
387.11	156.82
387.31	119.37
387.50	187.24
387.70	191.92
387.89	163.84
388.09	121.71
388.28	70.22
388.48	81.92
388.67	142.77
388.86	133.41
389.06	121.71
389.25	175.54
389.45	131.07
389.64	140.43
389.84	98.30
390.03	161.50
390.22	170.86
390.42	100.64
390.61	149.79
390.81	107.66
391.00	175.54
391.19	168.52
391.39	114.69
391.58	194.26
391.78	138.09
391.97	187.24
392.16	152.13
392.36	145.11
392.55	231.71
392.75	117.03
392.94	44.47
393.13	117.03
393.33	98.30
393.52	107.66
393.71	177.88
393.91	184.90
394.10	201.29
394.29	140.43
394.49	196.60
394.68	145.11
394.88	175.54
395.07	145.11
395.26	124.05
395.46	152.13
395.65	187.24
395.84	191.92
396.04	168.52
396.23	63.19
396.42	149.79
396.62	138.09
396.81	166.18
397.00	175.54
397.19	140.43
397.39	159.16
397.58	145.11
397.77	173.20
397.97	198.95
398.16	95.96
398.35	163.84
398.55	117.03
398.74	114.69
398.93	182.56
399.12	119.37
399.32	161.50
399.51	140.43
399.70	177.88
399.90	182.56
400.09	140.43
400.28	152.13
400.47	161.50
400.67	60.85
400.86	145.11
401.05	191.92
401.24	147.45
401.44	95.96
401.63	210.65
401.82	119.37
402.01	91.28
402.21	180.22
402.40	173.20
402.59	224.69
402.78	126.39
402.97	142.77
403.17	177.88
403.36	161.50
403.55	138.09
403.74	152.13
403.93	201.29
404.13	224.69
404.32	159.16
404.51	208.31
404.70	241.08
404.89	320.65
405.09	194.26
405.28	147.45
405.47	194.26
405.66	131.07
405.85	156.82
406.05	124.05
406.24	138.09
406.43	208.31
406.62	212.99
406.81	191.92
407.00	180.22
407.20	138.09
407.39	98.30
407.58	177.88
407.77	140.43
407.96	166.18
408.15	159.16
408.34	241.08
408.54	170.86
408.73	166.18
408.92	149.79
409.11	128.73
409.30	154.48
409.49	170.86
409.68	107.66
409.87	231.71
410.07	98.30
410.26	140.43
410.45	208.31
410.64	184.90
410.83	168.52
411.02	138.09
411.21	177.88
411.40	84.26
411.59	191.92
411.78	107.66
411.98	124.05
412.17	170.86
412.36	131.07
412.55	77.24
412.74	180.22
412.93	198.95
413.12	180.22
413.31	159.16
413.50	149.79
413.69	191.92
413.88	161.50
414.07	156.82
414.26	196.60
414.45	191.92
414.64	222.35
414.83	147.45
415.02	238.73
415.22	210.65
415.41	198.95
415.60	243.42
415.79	166.18
415.98	187.24
416.17	182.56
416.36	189.58
416.55	175.54
416.74	194.26
416.93	166.18
417.12	173.20
417.31	203.63
417.50	205.97
417.69	238.73
417.88	262.14
418.07	126.39
418.26	88.94
418.45	175.54
418.64	276.18
418.83	212.99
419.02	224.69
419.21	189.58
419.39	201.29
419.58	119.37
419.77	149.79
419.96	198.95
420.15	205.97
420.34	161.50
420.53	131.07
420.72	224.69
420.91	187.24
421.10	140.43
421.29	117.03
421.48	196.60
421.67	145.11
421.86	212.99
422.05	93.62
422.24	177.88
422.43	173.20
422.61	182.56
422.80	177.88
422.99	119.37
423.18	163.84
423.37	187.24
423.56	117.03
423.75	121.71
423.94	187.24
424.13	187.24
424.32	196.60
424.50	210.65
424.69	175.54
424.88	234.05
425.07	138.09
425.26	215.33
425.45	196.60
425.64	224.69
425.83	170.86
426.01	156.82
426.20	177.88
426.39	161.50
426.58	198.95
426.77	112.35
426.96	198.95
427.15	217.67
427.33	194.26
427.52	177.88
427.71	147.45
427.90	175.54
428.09	107.66
428.28	138.09
428.46	152.13
428.65	159.16
428.84	189.58
429.03	198.95
429.22	180.22
429.40	168.52
429.59	135.75
429.78	191.92
429.97	248.10
430.16	163.84
430.34	236.39
430.53	140.43
430.72	248.10
430.91	194.26
431.10	102.98
431.28	208.31
431.47	138.09
431.66	189.58
431.85	119.37
432.03	208.31
432.22	255.12
432.41	149.79
432.60	180.22
432.79	194.26
432.97	208.31
433.16	215.33
433.35	142.77
433.54	259.80
433.72	198.95
433.91	145.11
434.10	201.29
434.28	262.14
434.47	149.79
434.66	210.65
434.85	229.37
435.03	191.92
435.22	442.36
435.41	402.57
435.59	456.40
435.78	290.23
435.97	241.08
436.16	234.05
436.34	222.35
436.53	131.07
436.72	184.90
436.90	173.20
437.09	191.92
437.28	180.22
437.46	215.33
437.65	152.13
437.84	215.33
438.02	210.65
438.21	210.65
438.40	177.88
438.58	135.75
438.77	149.79
438.96	161.50
439.14	163.84
439.33	224.69
439.52	159.16
439.70	189.58
439.89	189.58
440.08	215.33
440.26	189.58
440.45	273.84
440.63	112.35
440.82	189.58
441.01	184.90
441.19	182.56
441.38	198.95
441.57	182.56
441.75	182.56
441.94	198.95
442.12	152.13
442.31	112.35
442.50	205.97
442.68	166.18
442.87	201.29
443.05	156.82
443.24	201.29
443.43	212.99
443.61	234.05
443.80	121.71
443.98	100.64
444.17	198.95
444.35	175.54
444.54	170.86
444.73	128.73
444.91	203.63
445.10	163.84
445.28	229.37
445.47	212.99
445.65	177.88
445.84	205.97
446.02	203.63
446.21	252.78
446.39	238.73
446.58	212.99
446.77	170.86
446.95	208.31
447.14	161.50
447.32	212.99
447.51	203.63
447.69	112.35
447.88	201.29
448.06	285.55
448.25	257.46
448.43	189.58
448.62	189.58
448.80	173.20
448.99	119.37
449.17	175.54
449.36	203.63
449.54	156.82
449.73	91.28
449.91	208.31
450.10	126.39
450.28	252.78
450.46	245.76
450.65	163.84
450.83	170.86
451.02	163.84
451.20	220.01
451.39	154.48
451.57	220.01
451.76	170.86
451.94	196.60
452.13	205.97
452.31	182.56
452.49	30.43
452.68	203.63
452.86	208.31
453.05	182.56
453.23	208.31
453.42	198.95
453.60	173.20
453.78	196.60
453.97	252.78
454.15	138.09
454.34	156.82
454.52	114.69
454.70	252.78
454.89	194.26
455.07	161.50
455.26	184.90
455.44	227.03
455.62	163.84
455.81	180.22
455.99	182.56
456.17	194.26
456.36	245.76
456.54	196.60
456.73	166.18
456.91	196.60
457.09	220.01
457.28	156.82
457.46	180.22
457.64	187.24
457.83	112.35
458.01	187.24
458.19	177.88
458.38	135.75
458.56	124.05
458.74	173.20
458.93	187.24
459.11	138.09
459.29	182.56
459.48	187.24
459.66	184.90
459.84	205.97
460.03	292.57
460.21	152.13
460.39	229.37
460.57	224.69
460.76	203.63
460.94	238.73
461.12	311.29
461.31	250.44
461.49	238.73
461.67	217.67
461.85	177.88
462.04	234.05
462.22	580.45
462.40	257.46
462.59	191.92
462.77	203.63
462.95	236.39
463.13	234.05
463.32	194.26
463.50	152.13
463.68	262.14
463.86	250.44
464.05	283.20
464.23	236.39
464.41	222.35
464.59	198.95
464.78	194.26
464.96	220.01
465.14	217.67
465.32	201.29
465.50	191.92
465.69	184.90
465.87	159.16
466.05	238.73
466.23	205.97
466.41	149.79
466.60	182.56
466.78	250.44
466.96	168.52
467.14	180.22
467.32	196.60
467.51	180.22
467.69	166.18
467.87	212.99
468.05	224.69
468.23	215.33
468.41	212.99
468.60	229.37
468.78	180.22
468.96	205.97
469.14	198.95
469.32	161.50
469.50	198.95
469.69	182.56
469.87	205.97
470.05	107.66
470.23	173.20
470.41	168.52
470.59	245.76
470.77	201.29
470.95	227.03
471.14	196.60
471.32	184.90
471.50	203.63
471.68	227.03
471.86	154.48
472.04	170.86
472.22	215.33
472.40	203.63
472.58	215.33
472.77	208.31
472.95	163.84
473.13	243.42
473.31	170.86
473.49	170.86
473.67	156.82
473.85	201.29
474.03	180.22
474.21	205.97
474.39	245.76
474.57	189.58
474.75	182.56
474.93	152.13
475.12	191.92
475.30	180.22
475.48	159.16
475.66	236.39
475.84	182.56
476.02	161.50
476.20	229.37
476.38	182.56
476.56	273.84
476.74	107.66
476.92	133.41
477.10	229.37
477.28	238.73
477.46	140.43
477.64	201.29
477.82	147.45
478.00	175.54
478.18	229.37
478.36	222.35
478.54	161.50
478.72	166.18
478.90	212.99
479.08	198.95
479.26	212.99
479.44	301.93
479.62	245.76
479.80	248.10
479.98	248.10
480.16	180.22
480.34	227.03
480.52	182.56
480.70	208.31
480.88	196.60
481.06	208.31
481.24	236.39
481.41	248.10
481.59	220.01
481.77	224.69
481.95	196.60
482.13	248.10
482.31	238.73
482.49	145.11
482.67	198.95
482.85	280.86
483.03	210.65
483.21	196.60
483.39	210.65
483.57	203.63
483.74	280.86
483.92	177.88
484.10	170.86
484.28	220.01
484.46	278.52
484.64	236.39
484.82	208.31
485.00	257.46
485.18	231.71
485.35	191.92
485.53	159.16
485.71	276.18
485.89	245.76
486.07	266.82
486.25	196.60
486.43	222.35
486.61	245.76
486.78	222.35
486.96	140.43
487.14	248.10
487.32	175.54
487.50	224.69
487.68	220.01
487.85	215.33
488.03	234.05
488.21	278.52
488.39	330.02
488.57	308.95
488.75	189.58
488.92	531.30
489.10	264.48
489.28	292.57
489.46	250.44
489.64	264.48
489.81	280.86
489.99	234.05
490.17	222.35
490.35	332.36
490.53	257.46
490.70	264.48
490.88	238.73
491.06	262.14
491.24	175.54
491.41	285.55
491.59	304.27
491.77	182.56
491.95	255.12
492.13	166.18
492.30	266.82
492.48	271.50
492.66	234.05
492.84	241.08
493.01	222.35
493.19	210.65
493.37	294.91
493.54	257.46
493.72	262.14
493.90	264.48
494.08	271.50
494.25	220.01
494.43	262.14
494.61	217.67
494.79	208.31
494.96	255.12
495.14	266.82
495.32	231.71
495.49	236.39
495.67	205.97
495.85	210.65
496.02	248.10
496.20	212.99
496.38	280.86
496.55	308.95
496.73	252.78
496.91	250.44
497.09	252.78
497.26	290.23
497.44	196.60
497.62	271.50
497.79	264.48
497.97	318.31
498.14	238.73
498.32	264.48
498.50	320.65
498.67	264.48
498.85	301.93
499.03	187.24
499.20	196.60
499.38	222.35
499.56	301.93
499.73	283.20
499.91	215.33
500.08	250.44
500.26	259.80
500.44	292.57
500.61	283.20
500.79	238.73
500.97	245.76
501.14	285.55
501.32	271.50
501.49	290.23
501.67	248.10
501.84	234.05
502.02	259.80
502.20	243.42
502.37	236.39
502.55	205.97
502.72	285.55
502.90	292.57
503.07	245.76
503.25	231.71
503.43	161.50
503.60	255.12
503.78	299.59
503.95	224.69
504.13	236.39
504.30	301.93
504.48	250.44
504.65	266.82
504.83	269.16
505.01	287.89
505.18	215.33
505.36	283.20
505.53	250.44
505.71	220.01
505.88	222.35
506.06	245.76
506.23	234.05
506.41	212.99
506.58	311.29
506.76	205.97
506.93	222.35
507.11	255.12
507.28	264.48
507.46	301.93
507.63	283.20
507.81	241.08
507.98	241.08
508.16	255.12
508.33	243.42
508.50	262.14
508.68	248.10
508.85	280.86
509.03	198.95
509.20	262.14
509.38	301.93
509.55	325.33
509.73	285.55
509.90	301.93
510.08	266.82
510.25	222.35
510.42	215.33
510.60	276.18
510.77	264.48
510.95	287.89
511.12	248.10
511.30	315.97
511.47	236.39
511.64	292.57
511.82	278.52
511.99	264.48
512.17	196.60
512.34	252.78
512.51	161.50
512.69	248.10
512.86	283.20
513.04	257.46
513.21	229.37
513.38	234.05
513.56	292.57
513.73	266.82
513.90	243.42
514.08	301.93
514.25	271.50
514.43	224.69
514.60	224.69
514.77	255.12
514.95	259.80
515.12	292.57
515.29	224.69
515.47	264.48
515.64	248.10
515.81	294.91
515.99	294.91
516.16	334.70
516.33	210.65
516.51	212.99
516.68	220.01
516.85	212.99
517.03	220.01
517.20	245.76
517.37	292.57
517.54	259.80
517.72	252.78
517.89	168.52
518.06	241.08
518.24	243.42
518.41	255.12
518.58	292.57
518.75	248.10
518.93	241.08
519.10	231.71
519.27	252.78
519.45	308.95
519.62	231.71
519.79	287.89
519.96	269.16
520.14	243.42
520.31	344.06
520.48	236.39
520.65	266.82
520.83	234.05
521.00	290.23
521.17	353.42
521.34	182.56
521.52	290.23
521.69	304.27
521.86	259.80
522.03	280.86
522.20	367.46
522.38	182.56
522.55	269.16
522.72	173.20
522.89	266.82
523.07	320.65
523.24	257.46
523.41	292.57
523.58	241.08
523.75	250.44
523.92	266.82
524.10	212.99
524.27	241.08
524.44	257.46
524.61	313.63
524.78	252.78
524.96	299.59
525.13	278.52
525.30	320.65
525.47	257.46
525.64	290.23
525.81	285.55
525.98	306.61
526.16	264.48
526.33	220.01
526.50	278.52
526.67	224.69
526.84	212.99
527.01	264.48
527.18	280.86
527.36	231.71
527.53	315.97
527.70	236.39
527.87	262.14
528.04	301.93
528.21	234.05
528.38	285.55
528.55	257.46
528.72	337.04
528.89	358.10
529.07	241.08
529.24	229.37
529.41	222.35
529.58	313.63
529.75	271.50
529.92	243.42
530.09	245.76
530.26	318.31
530.43	245.76
530.60	287.89
530.77	315.97
530.94	238.73
531.11	259.80
531.28	241.08
531.46	250.44
531.63	278.52
531.80	259.80
531.97	273.84
532.14	257.46
532.31	264.48
532.48	250.44
532.65	264.48
532.82	383.85
532.99	313.63
533.16	332.36
533.33	322.99
533.50	248.10
533.67	322.99
533.84	358.10
534.01	400.23
534.18	339.38
534.35	330.02
534.52	318.31
534.69	374.49
534.86	315.97
535.03	334.70
535.20	341.72
535.37	297.25
535.54	318.31
535.71	266.82
535.88	325.33
536.05	358.10
536.22	334.70
536.38	322.99
536.55	308.95
536.72	243.42
536.89	266.82
537.06	259.80
537.23	191.92
537.40	283.20
537.57	315.97
537.74	381.51
537.91	283.20
538.08	315.97
538.25	201.29
538.42	318.31
538.59	311.29
538.75	315.97
538.92	313.63
539.09	318.31
539.26	245.76
539.43	484.49
539.60	795.78
539.77	940.90
539.94	943.24
540.11	704.50
540.28	585.13
540.44	486.83
540.61	376.83
540.78	451.72
540.95	447.04
541.12	470.45
541.29	512.58
541.46	608.54
541.62	468.11
541.79	519.60
541.96	575.77
542.13	503.22
542.30	573.43
542.47	503.22
542.63	475.13
542.80	514.92
542.97	479.81
543.14	421.30
543.31	414.27
543.48	472.79
543.64	463.43
543.81	477.47
543.98	425.98
544.15	484.49
544.32	440.02
544.48	395.55
544.65	365.12
544.82	444.70
544.99	533.64
545.16	472.79
545.32	540.66
545.49	741.95
545.66	854.30
545.83	896.43
546.00	774.72
546.16	615.56
546.33	559.39
546.50	393.21
546.67	465.77
546.83	372.15
547.00	440.02
547.17	358.10
547.34	346.40
547.50	421.30
547.67	449.38
547.84	428.32
548.00	411.93
548.17	447.04
548.34	390.87
548.51	381.51
548.67	360.44
548.84	407.25
549.01	358.10
549.18	322.99
549.34	393.21
549.51	367.46
549.68	327.68
549.84	285.55
550.01	266.82
550.18	423.64
550.34	418.96
550.51	327.68
550.68	386.19
550.84	318.31
551.01	337.04
551.18	351.08
551.34	294.91
551.51	229.37
551.68	271.50
551.84	344.06
552.01	276.18
552.18	334.70
552.34	283.20
552.51	266.82
552.68	229.37
552.84	292.57
553.01	278.52
553.18	276.18
553.34	248.10
553.51	315.97
553.67	262.14
553.84	252.78
554.01	358.10
554.17	266.82
554.34	313.63
554.51	318.31
554.67	294.91
554.84	262.14
555.00	238.73
555.17	259.80
555.33	273.84
555.50	276.18
555.67	208.31
555.83	287.89
556.00	201.29
556.16	421.30
556.33	334.70
556.50	257.46
556.66	241.08
556.83	266.82
556.99	198.95
557.16	325.33
557.32	220.01
557.49	269.16
557.65	224.69
557.82	262.14
557.98	245.76
558.15	280.86
558.32	227.03
558.48	285.55
558.65	252.78
558.81	276.18
558.98	236.39
559.14	224.69
559.31	208.31
559.47	252.78
559.64	294.91
559.80	299.59
559.97	220.01
560.13	224.69
560.30	285.55
560.46	285.55
560.63	318.31
560.79	255.12
560.96	269.16
561.12	220.01
561.29	259.80
561.45	245.76
561.61	262.14
561.78	308.95
561.94	245.76
562.11	259.80
562.27	241.08
562.44	280.86
562.60	196.60
562.77	175.54
562.93	353.42
563.10	301.93
563.26	320.65
563.42	224.69
563.59	327.68
563.75	245.76
563.92	224.69
564.08	257.46
564.24	280.86
564.41	341.72
564.57	266.82
564.74	257.46
564.90	276.18
565.07	311.29
565.23	276.18
565.39	266.82
565.56	271.50
565.72	194.26
565.88	229.37
566.05	283.20
566.21	299.59
566.38	208.31
566.54	215.33
566.70	262.14
566.87	276.18
567.03	262.14
567.19	287.89
567.36	234.05
567.52	266.82
567.68	236.39
567.85	292.57
568.01	273.84
568.17	220.01
568.34	320.65
568.50	308.95
568.66	287.89
568.83	313.63
568.99	259.80
569.15	285.55
569.32	301.93
569.48	238.73
569.64	238.73
569.81	229.37
569.97	194.26
570.13	259.80
570.30	217.67
570.46	243.42
570.62	259.80
570.78	243.42
570.95	229.37
571.11	257.46
571.27	292.57
571.43	276.18
571.60	229.37
571.76	276.18
571.92	322.99
572.09	262.14
572.25	290.23
572.41	203.63
572.57	285.55
572.74	191.92
572.90	250.44
573.06	273.84
573.22	269.16
573.38	245.76
573.55	250.44
573.71	217.67
573.87	292.57
574.03	269.16
574.20	250.44
574.36	278.52
574.52	276.18
574.68	304.27
574.84	301.93
575.01	315.97
575.17	327.68
575.33	255.12
575.49	306.61
575.65	257.46
575.82	348.74
575.98	404.91
576.14	423.64
576.30	524.28
576.46	470.45
576.62	456.40
576.79	468.11
576.95	379.17
577.11	287.89
577.27	220.01
577.43	318.31
577.59	348.74
577.75	259.80
577.92	315.97
578.08	227.03
578.24	283.20
578.40	299.59
578.56	407.25
578.72	507.90
578.88	423.64
579.04	402.57
579.21	360.44
579.37	266.82
579.53	383.85
579.69	372.15
579.85	325.33
580.01	437.68
580.17	416.62
580.33	362.78
580.49	292.57
580.65	285.55
580.82	320.65
580.98	346.40
581.14	381.51
581.30	416.62
581.46	404.91
581.62	449.38
581.78	461.09
581.94	425.98
582.10	470.45
582.26	479.81
582.42	353.42
582.58	400.23
582.74	334.70
582.90	433.00
583.06	355.76
583.22	346.40
583.38	365.12
583.54	411.93
583.70	503.22
583.86	461.09
584.02	587.47
584.18	690.46
584.34	807.48
584.50	1764.76
584.66	12215.26
584.82	30595.48
584.98	40308.71
585.14	34995.69
585.30	22101.68
585.46	13287.22
585.62	8194.22
585.78	4053.81
585.94	1694.55
586.10	1022.81
586.26	713.86
586.42	578.11
586.58	484.49
586.74	533.64
586.90	564.07
587.06	463.43
587.22	540.66
587.38	512.58
587.54	812.17
587.70	1914.56
587.86	2904.60
588.02	3042.70
588.18	2209.47
588.34	1511.99
588.49	1053.24
588.65	653.01
588.81	404.91
588.97	313.63
589.13	353.42
589.29	280.86
589.45	334.70
589.61	273.84
589.77	414.27
589.93	374.49
590.08	449.38
590.24	374.49
590.40	437.68
590.56	383.85
590.72	390.87
590.88	337.04
591.04	248.10
591.20	322.99
591.35	257.46
591.51	390.87
591.67	351.08
591.83	238.73
591.99	273.84
592.15	346.40
592.31	308.95
592.46	322.99
592.62	325.33
592.78	318.31
592.94	355.76
593.10	358.10
593.26	313.63
593.41	404.91
593.57	374.49
593.73	521.94
593.89	1703.91
594.05	3775.28
594.20	5266.21
594.36	4760.65
594.52	3178.45
594.68	2150.95
594.84	1420.71
594.99	833.23
595.15	566.41
595.31	402.57
595.47	458.74
595.62	353.42
595.78	362.78
595.94	353.42
596.10	330.02
596.25	383.85
596.41	341.72
596.57	306.61
596.73	273.84
596.88	369.80
597.04	851.96
597.20	1193.67
597.36	1306.02
597.51	1121.12
597.67	830.89
597.83	622.58
597.99	482.15
598.14	369.80
598.30	311.29
598.46	353.42
598.61	250.44
598.77	297.25
598.93	337.04
599.09	262.14
599.24	341.72
599.40	341.72
599.56	264.48
599.71	276.18
599.87	280.86
600.03	322.99
600.18	229.37
600.34	306.61
600.50	322.99
600.65	210.65
600.81	290.23
600.97	245.76
601.12	353.42
601.28	311.29
601.44	250.44
601.59	318.31
601.75	255.12
601.91	301.93
602.06	334.70
602.22	379.17
602.37	557.05
602.53	1011.11
602.69	1331.76
602.84	1380.92
603.00	1076.65
603.16	791.10
603.31	695.14
603.47	447.04
603.62	365.12
603.78	369.80
603.94	292.57
604.09	360.44
604.25	262.14
604.40	290.23
604.56	308.95
604.71	276.18
604.87	292.57
605.03	234.05
605.18	285.55
605.34	358.10
605.49	308.95
605.65	280.86
605.80	348.74
605.96	301.93
606.12	311.29
606.27	383.85
606.43	334.70
606.58	304.27
606.74	603.86
606.89	2010.52
607.05	3571.66
607.20	4379.14
607.36	3463.99
607.51	2469.27
607.67	1703.91
607.82	1221.76
607.98	798.12
608.13	468.11
608.29	313.63
608.44	313.63
608.60	372.15
608.75	430.66
608.91	802.80
609.06	3070.78
609.22	5692.18
609.37	7241.62
609.53	6483.28
609.68	4383.82
609.84	3049.72
609.99	2162.66
610.15	1350.49
610.30	854.30
610.46	730.25
