SpectraSuite Data File
++++++++++++++++++++++++++++++++++++
Date: Fri Oct 04 11:33:58 GMT-05:00 2013
User: price-jones
Dark Spectrum Present: No
Reference Spectrum Present: No
Number of Sampled Component Spectra: 1
Spectrometers: USB2+H05261
Integration Time (usec): 100000 (USB2+H05261)
Spectra Averaged: 1 (USB2+H05261)
Boxcar Smoothing: 0 (USB2+H05261)
Correct for Electrical Dark: No (USB2+H05261)
Strobe/Lamp Enabled: No (USB2+H05261)
Correct for Detector Non-linearity: No (USB2+H05261)
Correct for Stray Light: No (USB2+H05261)
Number of Pixels in Processed Spectrum: 2048
>>>>>Begin Processed Spectral Data<<<<<
365.73	60.85
365.92	60.85
366.12	60.85
366.32	11.70
366.52	0.00
366.72	0.00
366.91	0.00
367.11	9.36
367.31	0.00
367.51	0.00
367.70	70.22
367.90	58.51
368.10	0.00
368.30	0.00
368.49	0.00
368.69	0.00
368.89	0.00
369.09	0.00
369.28	2.34
369.48	18.72
369.68	23.41
369.87	9.36
370.07	16.38
370.27	91.28
370.47	32.77
370.66	98.30
370.86	95.96
371.06	135.75
371.25	126.39
371.45	105.32
371.65	110.01
371.84	102.98
372.04	112.35
372.24	7.02
372.44	88.94
372.63	201.29
372.83	126.39
373.03	175.54
373.22	140.43
373.42	112.35
373.62	112.35
373.81	112.35
374.01	177.88
374.21	168.52
374.40	142.77
374.60	152.13
374.79	156.82
374.99	131.07
375.19	163.84
375.38	161.50
375.58	145.11
375.78	217.67
375.97	191.92
376.17	243.42
376.37	112.35
376.56	182.56
376.76	159.16
376.95	114.69
377.15	152.13
377.35	224.69
377.54	91.28
377.74	81.92
377.93	117.03
378.13	152.13
378.33	201.29
378.52	135.75
378.72	159.16
378.91	170.86
379.11	119.37
379.31	156.82
379.50	180.22
379.70	166.18
379.89	159.16
380.09	119.37
380.28	166.18
380.48	131.07
380.68	102.98
380.87	84.26
381.07	154.48
381.26	156.82
381.46	138.09
381.65	149.79
381.85	121.71
382.04	119.37
382.24	168.52
382.43	191.92
382.63	145.11
382.83	117.03
383.02	205.97
383.22	182.56
383.41	53.83
383.61	84.26
383.80	95.96
384.00	156.82
384.19	93.62
384.39	166.18
384.58	93.62
384.78	117.03
384.97	168.52
385.17	159.16
385.36	163.84
385.56	124.05
385.75	56.17
385.95	138.09
386.14	184.90
386.34	184.90
386.53	161.50
386.72	124.05
386.92	152.13
387.11	208.31
387.31	187.24
387.50	128.73
387.70	173.20
387.89	163.84
388.09	168.52
388.28	117.03
388.48	142.77
388.67	187.24
388.86	198.95
389.06	138.09
389.25	189.58
389.45	161.50
389.64	145.11
389.84	152.13
390.03	138.09
390.22	147.45
390.42	138.09
390.61	152.13
390.81	187.24
391.00	149.79
391.19	140.43
391.39	159.16
391.58	149.79
391.78	93.62
391.97	166.18
392.16	175.54
392.36	208.31
392.55	149.79
392.75	229.37
392.94	163.84
393.13	154.48
393.33	91.28
393.52	175.54
393.71	149.79
393.91	168.52
394.10	184.90
394.29	98.30
394.49	161.50
394.68	142.77
394.88	163.84
395.07	117.03
395.26	194.26
395.46	159.16
395.65	201.29
395.84	121.71
396.04	245.76
396.23	119.37
396.42	131.07
396.62	203.63
396.81	161.50
397.00	93.62
397.19	168.52
397.39	145.11
397.58	138.09
397.77	140.43
397.97	112.35
398.16	110.01
398.35	191.92
398.55	119.37
398.74	102.98
398.93	198.95
399.12	67.88
399.32	138.09
399.51	100.64
399.70	163.84
399.90	145.11
400.09	163.84
400.28	140.43
400.47	152.13
400.67	142.77
400.86	189.58
401.05	196.60
401.24	114.69
401.44	140.43
401.63	131.07
401.82	250.44
402.01	140.43
402.21	154.48
402.40	191.92
402.59	114.69
402.78	180.22
402.97	133.41
403.17	175.54
403.36	145.11
403.55	119.37
403.74	140.43
403.93	241.08
404.13	196.60
404.32	248.10
404.51	152.13
404.70	182.56
404.89	112.35
405.09	227.03
405.28	201.29
405.47	98.30
405.66	194.26
405.85	184.90
406.05	173.20
406.24	93.62
406.43	140.43
406.62	133.41
406.81	191.92
407.00	248.10
407.20	191.92
407.39	173.20
407.58	175.54
407.77	152.13
407.96	210.65
408.15	259.80
408.34	159.16
408.54	58.51
408.73	131.07
408.92	138.09
409.11	142.77
409.30	201.29
409.49	119.37
409.68	145.11
409.87	191.92
410.07	149.79
410.26	142.77
410.45	177.88
410.64	131.07
410.83	138.09
411.02	201.29
411.21	114.69
411.40	168.52
411.59	198.95
411.78	105.32
411.98	135.75
412.17	229.37
412.36	161.50
412.55	145.11
412.74	95.96
412.93	283.20
413.12	182.56
413.31	173.20
413.50	198.95
413.69	152.13
413.88	203.63
414.07	147.45
414.26	152.13
414.45	142.77
414.64	88.94
414.83	180.22
415.02	159.16
415.22	210.65
415.41	245.76
415.60	163.84
415.79	173.20
415.98	163.84
416.17	220.01
416.36	205.97
416.55	152.13
416.74	203.63
416.93	166.18
417.12	205.97
417.31	189.58
417.50	194.26
417.69	224.69
417.88	128.73
418.07	184.90
418.26	198.95
418.45	168.52
418.64	243.42
418.83	205.97
419.02	227.03
419.21	159.16
419.39	142.77
419.58	189.58
419.77	98.30
419.96	163.84
420.15	201.29
420.34	196.60
420.53	212.99
420.72	187.24
420.91	166.18
421.10	159.16
421.29	112.35
421.48	168.52
421.67	222.35
421.86	201.29
422.05	194.26
422.24	156.82
422.43	114.69
422.61	173.20
422.80	154.48
422.99	180.22
423.18	131.07
423.37	210.65
423.56	180.22
423.75	166.18
423.94	126.39
424.13	198.95
424.32	154.48
424.50	149.79
424.69	205.97
424.88	245.76
425.07	161.50
425.26	154.48
425.45	278.52
425.64	224.69
425.83	191.92
426.01	182.56
426.20	105.32
426.39	175.54
426.58	194.26
426.77	147.45
426.96	149.79
427.15	231.71
427.33	182.56
427.52	210.65
427.71	154.48
427.90	145.11
428.09	135.75
428.28	191.92
428.46	121.71
428.65	189.58
428.84	236.39
429.03	147.45
429.22	170.86
429.40	138.09
429.59	114.69
429.78	217.67
429.97	173.20
430.16	180.22
430.34	149.79
430.53	191.92
430.72	166.18
430.91	236.39
431.10	98.30
431.28	140.43
431.47	145.11
431.66	152.13
431.85	168.52
432.03	159.16
432.22	227.03
432.41	149.79
432.60	220.01
432.79	241.08
432.97	208.31
433.16	203.63
433.35	250.44
433.54	245.76
433.72	198.95
433.91	194.26
434.10	222.35
434.28	224.69
434.47	189.58
434.66	205.97
434.85	182.56
435.03	215.33
435.22	372.15
435.41	454.06
435.59	339.38
435.78	325.33
435.97	262.14
436.16	184.90
436.34	177.88
436.53	212.99
436.72	315.97
436.90	182.56
437.09	175.54
437.28	177.88
437.46	210.65
437.65	198.95
437.84	184.90
438.02	231.71
438.21	241.08
438.40	161.50
438.58	152.13
438.77	212.99
438.96	163.84
439.14	133.41
439.33	191.92
439.52	152.13
439.70	187.24
439.89	166.18
440.08	175.54
440.26	196.60
440.45	273.84
440.63	149.79
440.82	140.43
441.01	156.82
441.19	194.26
441.38	152.13
441.57	166.18
441.75	198.95
441.94	234.05
442.12	250.44
442.31	229.37
442.50	189.58
442.68	234.05
442.87	196.60
443.05	163.84
443.24	203.63
443.43	180.22
443.61	154.48
443.80	224.69
443.98	220.01
444.17	255.12
444.35	180.22
444.54	161.50
444.73	175.54
444.91	224.69
445.10	149.79
445.28	128.73
445.47	187.24
445.65	147.45
445.84	147.45
446.02	170.86
446.21	138.09
446.39	147.45
446.58	187.24
446.77	126.39
446.95	152.13
447.14	131.07
447.32	194.26
447.51	138.09
447.69	131.07
447.88	201.29
448.06	198.95
448.25	173.20
448.43	173.20
448.62	231.71
448.80	196.60
448.99	173.20
449.17	212.99
449.36	161.50
449.54	224.69
449.73	126.39
449.91	217.67
450.10	215.33
450.28	299.59
450.46	222.35
450.65	248.10
450.83	140.43
451.02	142.77
451.20	175.54
451.39	154.48
451.57	180.22
451.76	245.76
451.94	177.88
452.13	175.54
452.31	161.50
452.49	152.13
452.68	180.22
452.86	133.41
453.05	220.01
453.23	194.26
453.42	173.20
453.60	173.20
453.78	245.76
453.97	131.07
454.15	77.24
454.34	201.29
454.52	161.50
454.70	203.63
454.89	156.82
455.07	212.99
455.26	234.05
455.44	290.23
455.62	168.52
455.81	163.84
455.99	177.88
456.17	175.54
456.36	140.43
456.54	166.18
456.73	236.39
456.91	252.78
457.09	194.26
457.28	257.46
457.46	180.22
457.64	245.76
457.83	210.65
458.01	177.88
458.19	180.22
458.38	135.75
458.56	212.99
458.74	184.90
458.93	161.50
459.11	147.45
459.29	175.54
459.48	241.08
459.66	287.89
459.84	238.73
460.03	236.39
460.21	220.01
460.39	184.90
460.57	196.60
460.76	212.99
460.94	234.05
461.12	203.63
461.31	248.10
461.49	170.86
461.67	212.99
461.85	191.92
462.04	259.80
462.22	559.39
462.40	205.97
462.59	224.69
462.77	259.80
462.95	234.05
463.13	243.42
463.32	182.56
463.50	201.29
463.68	234.05
463.86	205.97
464.05	140.43
464.23	205.97
464.41	227.03
464.59	201.29
464.78	177.88
464.96	166.18
465.14	198.95
465.32	196.60
465.50	229.37
465.69	210.65
465.87	248.10
466.05	264.48
466.23	154.48
466.41	210.65
466.60	187.24
466.78	173.20
466.96	248.10
467.14	194.26
467.32	313.63
467.51	201.29
467.69	217.67
467.87	229.37
468.05	189.58
468.23	259.80
468.41	177.88
468.60	236.39
468.78	231.71
468.96	196.60
469.14	229.37
469.32	168.52
469.50	266.82
469.69	210.65
469.87	222.35
470.05	189.58
470.23	166.18
470.41	224.69
470.59	187.24
470.77	191.92
470.95	182.56
471.14	215.33
471.32	245.76
471.50	236.39
471.68	189.58
471.86	152.13
472.04	203.63
472.22	152.13
472.40	184.90
472.58	194.26
472.77	175.54
472.95	154.48
473.13	201.29
473.31	231.71
473.49	203.63
473.67	180.22
473.85	168.52
474.03	95.96
474.21	175.54
474.39	201.29
474.57	262.14
474.75	187.24
474.93	131.07
475.12	147.45
475.30	198.95
475.48	203.63
475.66	203.63
475.84	156.82
476.02	252.78
476.20	184.90
476.38	175.54
476.56	234.05
476.74	194.26
476.92	220.01
477.10	241.08
477.28	173.20
477.46	182.56
477.64	222.35
477.82	255.12
478.00	210.65
478.18	224.69
478.36	285.55
478.54	273.84
478.72	210.65
478.90	212.99
479.08	208.31
479.26	156.82
479.44	187.24
479.62	208.31
479.80	166.18
479.98	177.88
480.16	166.18
480.34	133.41
480.52	250.44
480.70	210.65
480.88	259.80
481.06	175.54
481.24	227.03
481.41	227.03
481.59	238.73
481.77	175.54
481.95	210.65
482.13	215.33
482.31	250.44
482.49	210.65
482.67	203.63
482.85	203.63
483.03	248.10
483.21	224.69
483.39	191.92
483.57	168.52
483.74	231.71
483.92	231.71
484.10	259.80
484.28	252.78
484.46	287.89
484.64	205.97
484.82	208.31
485.00	241.08
485.18	236.39
485.35	180.22
485.53	222.35
485.71	234.05
485.89	243.42
486.07	210.65
486.25	273.84
486.43	257.46
486.61	297.25
486.78	315.97
486.96	262.14
487.14	243.42
487.32	210.65
487.50	248.10
487.68	229.37
487.85	280.86
488.03	224.69
488.21	306.61
488.39	208.31
488.57	229.37
488.75	255.12
488.92	496.19
489.10	208.31
489.28	252.78
489.46	294.91
489.64	184.90
489.81	250.44
489.99	205.97
490.17	285.55
490.35	360.44
490.53	245.76
490.70	224.69
490.88	304.27
491.06	276.18
491.24	252.78
491.41	243.42
491.59	248.10
491.77	220.01
491.95	215.33
492.13	290.23
492.30	280.86
492.48	238.73
492.66	212.99
492.84	241.08
493.01	280.86
493.19	224.69
493.37	264.48
493.54	276.18
493.72	229.37
493.90	283.20
494.08	215.33
494.25	280.86
494.43	234.05
494.61	241.08
494.79	234.05
494.96	210.65
495.14	257.46
495.32	252.78
495.49	194.26
495.67	283.20
495.85	315.97
496.02	334.70
496.20	203.63
496.38	236.39
496.55	208.31
496.73	306.61
496.91	257.46
497.09	262.14
497.26	280.86
497.44	259.80
497.62	241.08
497.79	290.23
497.97	248.10
498.14	208.31
498.32	271.50
498.50	294.91
498.67	236.39
498.85	245.76
499.03	339.38
499.20	285.55
499.38	229.37
499.56	175.54
499.73	276.18
499.91	276.18
500.08	297.25
500.26	238.73
500.44	250.44
500.61	257.46
500.79	271.50
500.97	255.12
501.14	227.03
501.32	215.33
501.49	304.27
501.67	154.48
501.84	187.24
502.02	220.01
502.20	278.52
502.37	180.22
502.55	315.97
502.72	173.20
502.90	227.03
503.07	203.63
503.25	215.33
503.43	173.20
503.60	290.23
503.78	250.44
503.95	203.63
504.13	154.48
504.30	257.46
504.48	245.76
504.65	292.57
504.83	243.42
505.01	276.18
505.18	234.05
505.36	278.52
505.53	224.69
505.71	248.10
505.88	245.76
506.06	205.97
506.23	290.23
506.41	220.01
506.58	273.84
506.76	250.44
506.93	210.65
507.11	294.91
507.28	227.03
507.46	236.39
507.63	217.67
507.81	271.50
507.98	184.90
508.16	278.52
508.33	276.18
508.50	234.05
508.68	133.41
508.85	283.20
509.03	231.71
509.20	248.10
509.38	297.25
509.55	292.57
509.73	318.31
509.90	250.44
510.08	262.14
510.25	224.69
510.42	217.67
510.60	245.76
510.77	243.42
510.95	238.73
511.12	229.37
511.30	287.89
511.47	231.71
511.64	248.10
511.82	294.91
511.99	276.18
512.17	229.37
512.34	259.80
512.51	205.97
512.69	194.26
512.86	250.44
513.04	257.46
513.21	229.37
513.38	271.50
513.56	276.18
513.73	215.33
513.90	318.31
514.08	287.89
514.25	255.12
514.43	315.97
514.60	297.25
514.77	231.71
514.95	285.55
515.12	220.01
515.29	290.23
515.47	236.39
515.64	301.93
515.81	201.29
515.99	248.10
516.16	243.42
516.33	306.61
516.51	182.56
516.68	276.18
516.85	217.67
517.03	271.50
517.20	318.31
517.37	229.37
517.54	262.14
517.72	227.03
517.89	196.60
518.06	212.99
518.24	278.52
518.41	290.23
518.58	227.03
518.75	318.31
518.93	276.18
519.10	283.20
519.27	269.16
519.45	304.27
519.62	264.48
519.79	266.82
519.96	334.70
520.14	278.52
520.31	313.63
520.48	287.89
520.65	313.63
520.83	243.42
521.00	271.50
521.17	280.86
521.34	234.05
521.52	266.82
521.69	318.31
521.86	304.27
522.03	322.99
522.20	318.31
522.38	231.71
522.55	276.18
522.72	212.99
522.89	191.92
523.07	262.14
523.24	269.16
523.41	241.08
523.58	248.10
523.75	264.48
523.92	234.05
524.10	297.25
524.27	266.82
524.44	238.73
524.61	245.76
524.78	278.52
524.96	266.82
525.13	262.14
525.30	341.72
525.47	334.70
525.64	189.58
525.81	182.56
525.98	203.63
526.16	215.33
526.33	304.27
526.50	273.84
526.67	210.65
526.84	180.22
527.01	250.44
527.18	313.63
527.36	236.39
527.53	259.80
527.70	306.61
527.87	250.44
528.04	311.29
528.21	245.76
528.38	348.74
528.55	369.80
528.72	315.97
528.89	294.91
529.07	273.84
529.24	311.29
529.41	315.97
529.58	337.04
529.75	248.10
529.92	259.80
530.09	269.16
530.26	259.80
530.43	407.25
530.60	269.16
530.77	252.78
530.94	252.78
531.11	222.35
531.28	210.65
531.46	304.27
531.63	290.23
531.80	212.99
531.97	266.82
532.14	276.18
532.31	304.27
532.48	273.84
532.65	311.29
532.82	320.65
532.99	337.04
533.16	297.25
533.33	313.63
533.50	276.18
533.67	374.49
533.84	362.78
534.01	330.02
534.18	290.23
534.35	306.61
534.52	376.83
534.69	255.12
534.86	294.91
535.03	215.33
535.20	203.63
535.37	294.91
535.54	304.27
535.71	250.44
535.88	301.93
536.05	208.31
536.22	294.91
536.38	236.39
536.55	341.72
536.72	344.06
536.89	367.46
537.06	294.91
537.23	311.29
537.40	330.02
537.57	266.82
537.74	395.55
537.91	341.72
538.08	372.15
538.25	355.76
538.42	327.68
538.59	355.76
538.75	301.93
538.92	250.44
539.09	287.89
539.26	327.68
539.43	500.87
539.60	732.59
539.77	863.66
539.94	798.12
540.11	723.23
540.28	547.69
540.44	505.56
540.61	369.80
540.78	411.93
540.95	421.30
541.12	486.83
541.29	566.41
541.46	585.13
541.62	589.82
541.79	493.85
541.96	533.64
542.13	514.92
542.30	498.53
542.47	498.53
542.63	458.74
542.80	437.68
542.97	477.47
543.14	400.23
543.31	430.66
543.48	514.92
543.64	498.53
543.81	519.60
543.98	458.74
544.15	491.51
544.32	463.43
544.48	505.56
544.65	517.26
544.82	411.93
544.99	465.77
545.16	500.87
545.32	475.13
545.49	709.18
545.66	828.55
545.83	854.30
546.00	807.48
546.16	725.57
546.33	517.26
546.50	498.53
546.67	533.64
546.83	355.76
547.00	411.93
547.17	374.49
547.34	409.59
547.50	353.42
547.67	416.62
547.84	353.42
548.00	390.87
548.17	351.08
548.34	365.12
548.51	358.10
548.67	442.36
548.84	379.17
549.01	411.93
549.18	362.78
549.34	348.74
549.51	346.40
549.68	332.36
549.84	337.04
550.01	308.95
550.18	390.87
550.34	390.87
550.51	407.25
550.68	365.12
550.84	346.40
551.01	208.31
551.18	388.53
551.34	341.72
551.51	383.85
551.68	304.27
551.84	358.10
552.01	278.52
552.18	257.46
552.34	341.72
552.51	278.52
552.68	327.68
552.84	351.08
553.01	259.80
553.18	301.93
553.34	264.48
553.51	297.25
553.67	313.63
553.84	311.29
554.01	367.46
554.17	327.68
554.34	217.67
554.51	276.18
554.67	322.99
554.84	306.61
555.00	327.68
555.17	259.80
555.33	264.48
555.50	292.57
555.67	266.82
555.83	224.69
556.00	304.27
556.16	390.87
556.33	257.46
556.50	264.48
556.66	220.01
556.83	280.86
556.99	182.56
557.16	290.23
557.32	175.54
557.49	299.59
557.65	262.14
557.82	201.29
557.98	348.74
558.15	259.80
558.32	276.18
558.48	227.03
558.65	315.97
558.81	283.20
558.98	266.82
559.14	252.78
559.31	346.40
559.47	229.37
559.64	222.35
559.80	266.82
559.97	266.82
560.13	409.59
560.30	257.46
560.46	330.02
560.63	238.73
560.79	224.69
560.96	287.89
561.12	238.73
561.29	252.78
561.45	269.16
561.61	292.57
561.78	341.72
561.94	224.69
562.11	262.14
562.27	315.97
562.44	180.22
562.60	241.08
562.77	212.99
562.93	330.02
563.10	208.31
563.26	238.73
563.42	313.63
563.59	262.14
563.75	287.89
563.92	330.02
564.08	320.65
564.24	290.23
564.41	332.36
564.57	180.22
564.74	311.29
564.90	243.42
565.07	313.63
565.23	299.59
565.39	304.27
565.56	301.93
565.72	224.69
565.88	189.58
566.05	273.84
566.21	306.61
566.38	318.31
566.54	283.20
566.70	198.95
566.87	229.37
567.03	231.71
567.19	191.92
567.36	269.16
567.52	227.03
567.68	341.72
567.85	262.14
568.01	217.67
568.17	229.37
568.34	292.57
568.50	318.31
568.66	332.36
568.83	341.72
568.99	273.84
569.15	273.84
569.32	278.52
569.48	201.29
569.64	227.03
569.81	173.20
569.97	266.82
570.13	222.35
570.30	210.65
570.46	269.16
570.62	250.44
570.78	294.91
570.95	215.33
571.11	271.50
571.27	257.46
571.43	252.78
571.60	285.55
571.76	238.73
571.92	196.60
572.09	271.50
572.25	248.10
572.41	220.01
572.57	290.23
572.74	215.33
572.90	344.06
573.06	245.76
573.22	229.37
573.38	327.68
573.55	234.05
573.71	332.36
573.87	208.31
574.03	280.86
574.20	264.48
574.36	301.93
574.52	287.89
574.68	301.93
574.84	290.23
575.01	322.99
575.17	243.42
575.33	241.08
575.49	222.35
575.65	290.23
575.82	266.82
575.98	416.62
576.14	454.06
576.30	437.68
576.46	447.04
576.62	393.21
576.79	514.92
576.95	311.29
577.11	252.78
577.27	311.29
577.43	304.27
577.59	287.89
577.75	229.37
577.92	229.37
578.08	297.25
578.24	269.16
578.40	351.08
578.56	374.49
578.72	444.70
578.88	365.12
579.04	325.33
579.21	367.46
579.37	245.76
579.53	273.84
579.69	313.63
579.85	339.38
580.01	330.02
580.17	365.12
580.33	325.33
580.49	362.78
580.65	301.93
580.82	278.52
580.98	306.61
581.14	325.33
581.30	365.12
581.46	353.42
581.62	454.06
581.78	451.72
581.94	423.64
582.10	416.62
582.26	430.66
582.42	264.48
582.58	388.53
582.74	390.87
582.90	447.04
583.06	411.93
583.22	353.42
583.38	409.59
583.54	383.85
583.70	500.87
583.86	414.27
584.02	503.22
584.18	543.00
584.34	791.10
584.50	1570.50
584.66	10312.40
584.82	24685.63
584.98	32189.39
585.14	28151.96
585.30	17799.77
585.46	10752.42
585.62	6693.93
585.78	3335.26
585.94	1434.75
586.10	770.04
586.26	538.32
586.42	578.11
586.58	521.94
586.74	461.09
586.90	505.56
587.06	444.70
587.22	458.74
587.38	416.62
587.54	737.27
587.70	1619.65
587.86	2382.67
588.02	2427.14
588.18	1783.49
588.34	1303.68
588.49	863.66
588.65	631.94
588.81	437.68
588.97	294.91
589.13	320.65
589.29	299.59
589.45	315.97
589.61	332.36
589.77	330.02
589.93	358.10
590.08	241.08
590.24	379.17
590.40	353.42
590.56	388.53
590.72	339.38
590.88	283.20
591.04	337.04
591.20	304.27
591.35	416.62
591.51	330.02
591.67	245.76
591.83	339.38
591.99	266.82
592.15	341.72
592.31	315.97
592.46	355.76
592.62	339.38
592.78	327.68
592.94	304.27
593.10	353.42
593.26	271.50
593.41	407.25
593.57	341.72
593.73	407.25
593.89	1409.00
594.05	3201.85
594.20	4308.93
594.36	3950.82
594.52	2614.38
594.68	1652.42
594.84	1219.42
594.99	760.67
595.15	482.15
595.31	341.72
595.47	299.59
595.62	236.39
595.78	348.74
595.94	269.16
596.10	341.72
596.25	320.65
596.41	299.59
596.57	262.14
596.73	322.99
596.88	365.12
597.04	844.93
597.20	997.07
597.36	1191.33
597.51	835.57
597.67	671.73
597.83	594.50
597.99	517.26
598.14	348.74
598.30	386.19
598.46	353.42
598.61	369.80
598.77	266.82
598.93	220.01
599.09	306.61
599.24	390.87
599.40	280.86
599.56	285.55
599.71	330.02
599.87	262.14
600.03	278.52
600.18	306.61
600.34	318.31
600.50	262.14
600.65	189.58
600.81	315.97
600.97	273.84
601.12	276.18
601.28	311.29
601.44	325.33
601.59	229.37
601.75	255.12
601.91	208.31
602.06	271.50
602.22	313.63
602.37	533.64
602.53	929.19
602.69	1144.52
602.84	1086.01
603.00	896.43
603.16	697.48
603.31	528.96
603.47	358.10
603.62	294.91
603.78	308.95
603.94	283.20
604.09	287.89
604.25	259.80
604.40	355.76
604.56	379.17
604.71	262.14
604.87	234.05
605.03	327.68
605.18	308.95
605.34	306.61
605.49	355.76
605.65	320.65
605.80	283.20
605.96	257.46
606.12	285.55
606.27	290.23
606.43	304.27
606.58	238.73
606.74	500.87
606.89	1551.78
607.05	2935.03
607.20	3592.72
607.36	2932.69
607.51	2090.10
607.67	1371.55
607.82	1114.10
607.98	653.01
608.13	571.09
608.29	416.62
608.44	367.46
608.60	372.15
608.75	402.57
608.91	765.36
609.06	2448.20
609.22	4903.42
609.37	5949.64
609.53	5254.50
609.68	3660.60
609.84	2450.54
609.99	1715.61
610.15	1076.65
610.30	884.72
