SpectraSuite Data File
++++++++++++++++++++++++++++++++++++
Date: Fri Oct 04 12:14:15 GMT-05:00 2013
User: price-jones
Dark Spectrum Present: No
Reference Spectrum Present: No
Number of Sampled Component Spectra: 1
Spectrometers: USB2+H05261
Integration Time (usec): 1000000 (USB2+H05261)
Spectra Averaged: 1 (USB2+H05261)
Boxcar Smoothing: 0 (USB2+H05261)
Correct for Electrical Dark: No (USB2+H05261)
Strobe/Lamp Enabled: No (USB2+H05261)
Correct for Detector Non-linearity: No (USB2+H05261)
Correct for Stray Light: No (USB2+H05261)
Number of Pixels in Processed Spectrum: 2048
>>>>>Begin Processed Spectral Data<<<<<
365.73	58.51
365.92	58.51
366.12	58.51
366.32	0.00
366.52	0.00
366.72	264.48
366.91	105.32
367.11	227.03
367.31	212.99
367.51	313.63
367.70	334.70
367.90	580.45
368.10	351.08
368.30	381.51
368.49	198.95
368.69	372.15
368.89	351.08
369.09	189.58
369.28	404.91
369.48	152.13
369.68	266.82
369.87	351.08
370.07	217.67
370.27	608.54
370.47	423.64
370.66	400.23
370.86	470.45
371.06	739.61
371.25	940.90
371.45	454.06
371.65	688.12
371.84	285.55
372.04	299.59
372.24	397.89
372.44	472.79
372.63	608.54
372.83	847.27
373.03	393.21
373.22	332.36
373.42	383.85
373.62	482.15
373.81	524.28
374.01	667.05
374.21	688.12
374.40	407.25
374.60	676.41
374.79	456.40
374.99	416.62
375.19	585.13
375.38	653.01
375.58	531.30
375.78	624.92
375.97	657.69
376.17	999.41
376.37	414.27
376.56	547.69
376.76	388.53
376.95	383.85
377.15	575.77
377.35	573.43
377.54	561.73
377.74	440.02
377.93	433.00
378.13	564.07
378.33	779.40
378.52	472.79
378.72	730.25
378.91	596.84
379.11	482.15
379.31	428.32
379.50	381.51
379.70	727.91
379.89	634.29
380.09	433.00
380.28	407.25
380.48	517.26
380.68	390.87
380.87	351.08
381.07	601.52
381.26	835.57
381.46	683.44
381.65	641.31
381.85	358.10
382.04	491.51
382.24	596.84
382.43	463.43
382.63	367.46
382.83	437.68
383.02	650.67
383.22	734.93
383.41	313.63
383.61	458.74
383.80	559.39
384.00	477.47
384.19	435.34
384.39	500.87
384.58	489.17
384.78	587.47
384.97	547.69
385.17	451.72
385.36	390.87
385.56	634.29
385.75	304.27
385.95	510.24
386.14	744.29
386.34	360.44
386.53	613.22
386.72	437.68
386.92	814.51
387.11	638.97
387.31	631.94
387.50	414.27
387.70	383.85
387.89	528.96
388.09	428.32
388.28	435.34
388.48	395.55
388.67	564.07
388.86	435.34
389.06	463.43
389.25	538.32
389.45	493.85
389.64	472.79
389.84	774.72
390.03	552.37
390.22	437.68
390.42	479.81
390.61	407.25
390.81	337.04
391.00	507.90
391.19	812.17
391.39	475.13
391.58	636.63
391.78	505.56
391.97	596.84
392.16	337.04
392.36	788.76
392.55	622.58
392.75	440.02
392.94	360.44
393.13	671.73
393.33	365.12
393.52	430.66
393.71	784.08
393.91	489.17
394.10	397.89
394.29	491.51
394.49	442.36
394.68	638.97
394.88	795.78
395.07	674.07
395.26	564.07
395.46	557.05
395.65	681.10
395.84	624.92
396.04	1160.91
396.23	489.17
396.42	451.72
396.62	641.31
396.81	566.41
397.00	566.41
397.19	545.34
397.39	477.47
397.58	763.01
397.77	500.87
397.97	517.26
398.16	571.09
398.35	627.26
398.55	435.34
398.74	655.35
398.93	732.59
399.12	470.45
399.32	669.39
399.51	519.60
399.70	613.22
399.90	615.56
400.09	599.18
400.28	737.27
400.47	521.94
400.67	784.08
400.86	528.96
401.05	706.84
401.24	697.48
401.44	650.67
401.63	732.59
401.82	814.51
402.01	514.92
402.21	613.22
402.40	617.90
402.59	517.26
402.78	545.34
402.97	610.88
403.17	514.92
403.36	571.09
403.55	580.45
403.74	538.32
403.93	552.37
404.13	847.27
404.32	500.87
404.51	498.53
404.70	781.74
404.89	538.32
405.09	961.96
405.28	554.71
405.47	477.47
405.66	727.91
405.85	816.85
406.05	608.54
406.24	540.66
406.43	634.29
406.62	653.01
406.81	1076.65
407.00	847.27
407.20	582.79
407.39	500.87
407.58	535.98
407.77	683.44
407.96	795.78
408.15	770.04
408.34	751.31
408.54	594.50
408.73	643.65
408.92	695.14
409.11	681.10
409.30	786.42
409.49	505.56
409.68	730.25
409.87	685.78
410.07	517.26
410.26	716.20
410.45	592.16
410.64	468.11
410.83	657.69
411.02	622.58
411.21	629.60
411.40	777.06
411.59	587.47
411.78	601.52
411.98	697.48
412.17	500.87
412.36	559.39
412.55	458.74
412.74	823.87
412.93	1020.47
413.12	472.79
413.31	814.51
413.50	676.41
413.69	613.22
413.88	936.21
414.07	678.76
414.26	690.46
414.45	592.16
414.64	791.10
414.83	741.95
415.02	763.01
415.22	739.61
415.41	868.34
415.60	561.73
415.79	681.10
415.98	936.21
416.17	634.29
416.36	716.20
416.55	557.05
416.74	828.55
416.93	814.51
417.12	620.24
417.31	744.29
417.50	655.35
417.69	1086.01
417.88	774.72
418.07	519.60
418.26	601.52
418.45	664.71
418.64	1142.18
418.83	851.96
419.02	788.76
419.21	763.01
419.39	772.38
419.58	589.82
419.77	603.86
419.96	908.13
420.15	1032.18
420.34	727.91
420.53	690.46
420.72	924.51
420.91	723.23
421.10	702.16
421.29	777.06
421.48	821.53
421.67	849.61
421.86	655.35
422.05	648.33
422.24	599.18
422.43	688.12
422.61	500.87
422.80	613.22
422.99	681.10
423.18	566.41
423.37	999.41
423.56	814.51
423.75	765.36
423.94	627.26
424.13	645.99
424.32	596.84
424.50	760.67
424.69	692.80
424.88	940.90
425.07	594.50
425.26	795.78
425.45	929.19
425.64	706.84
425.83	777.06
426.01	919.83
426.20	730.25
426.39	610.88
426.58	678.76
426.77	699.82
426.96	926.85
427.15	833.23
427.33	627.26
427.52	695.14
427.71	688.12
427.90	737.27
428.09	580.45
428.28	566.41
428.46	634.29
428.65	781.74
428.84	915.15
429.03	1069.62
429.22	603.86
429.40	547.69
429.59	543.00
429.78	1064.94
429.97	653.01
430.16	543.00
430.34	608.54
430.53	524.28
430.72	655.35
430.91	917.49
431.10	594.50
431.28	777.06
431.47	908.13
431.66	821.53
431.85	669.39
432.03	739.61
432.22	1273.25
432.41	718.54
432.60	933.87
432.79	674.07
432.97	976.00
433.16	837.91
433.35	608.54
433.54	695.14
433.72	842.59
433.91	835.57
434.10	678.76
434.28	821.53
434.47	711.52
434.66	966.64
434.85	622.58
435.03	748.97
435.22	1109.41
435.41	1139.84
435.59	856.64
435.78	730.25
435.97	664.71
436.16	896.43
436.34	716.20
436.53	774.72
436.72	936.21
436.90	891.74
437.09	929.19
437.28	788.76
437.46	706.84
437.65	936.21
437.84	894.08
438.02	812.17
438.21	947.92
438.40	720.88
438.58	510.24
438.77	755.99
438.96	837.91
439.14	704.50
439.33	912.81
439.52	692.80
439.70	727.91
439.89	880.04
440.08	889.40
440.26	746.63
440.45	1125.80
440.63	908.13
440.82	915.15
441.01	842.59
441.19	779.40
441.38	898.77
441.57	791.10
441.75	1006.43
441.94	1144.52
442.12	802.80
442.31	791.10
442.50	723.23
442.68	802.80
442.87	870.68
443.05	805.14
443.24	809.83
443.43	994.73
443.61	1144.52
443.80	905.79
443.98	741.95
444.17	784.08
444.35	908.13
444.54	772.38
444.73	802.80
444.91	1135.16
445.10	704.50
445.28	746.63
445.47	868.34
445.65	798.12
445.84	741.95
446.02	847.27
446.21	791.10
446.39	763.01
446.58	880.04
446.77	753.65
446.95	901.11
447.14	954.94
447.32	1142.18
447.51	863.66
447.69	968.98
447.88	936.21
448.06	1144.52
448.25	985.37
448.43	781.74
448.62	744.29
448.80	917.49
448.99	1013.45
449.17	791.10
449.36	774.72
449.54	910.47
449.73	814.51
449.91	994.73
450.10	772.38
450.28	1394.96
450.46	1313.04
450.65	1135.16
450.83	894.08
451.02	912.81
451.20	903.45
451.39	940.90
451.57	910.47
451.76	847.27
451.94	926.85
452.13	994.73
452.31	1111.75
452.49	1022.81
452.68	655.35
452.86	943.24
453.05	1313.04
453.23	950.26
453.42	713.86
453.60	814.51
453.78	882.38
453.97	774.72
454.15	746.63
454.34	791.10
454.52	770.04
454.70	1107.07
454.89	1137.50
455.07	809.83
455.26	1004.09
455.44	1025.15
455.62	763.01
455.81	961.96
455.99	926.85
456.17	1050.90
456.36	915.15
456.54	863.66
456.73	779.40
456.91	812.17
457.09	990.05
457.28	1071.97
457.46	917.49
457.64	1151.54
457.83	858.98
458.01	807.48
458.19	959.62
458.38	847.27
458.56	933.87
458.74	842.59
458.93	1076.65
459.11	961.96
459.29	716.20
459.48	1050.90
459.66	1336.45
459.84	1076.65
460.03	1650.08
460.21	1081.33
460.39	924.51
460.57	1081.33
460.76	973.66
460.94	966.64
461.12	1376.24
461.31	1249.85
461.49	887.06
461.67	894.08
461.85	992.39
462.04	954.94
462.22	5923.90
462.40	1256.87
462.59	1191.33
462.77	835.57
462.95	873.02
463.13	809.83
463.32	1057.92
463.50	938.55
463.68	976.00
463.86	997.07
464.05	873.02
464.23	1224.10
464.41	1013.45
464.59	870.68
464.78	880.04
464.96	763.01
465.14	908.13
465.32	795.78
465.50	1053.24
465.69	1149.20
465.87	819.19
466.05	983.02
466.23	784.08
466.41	875.36
466.60	861.32
466.78	983.02
466.96	1226.44
467.14	999.41
467.32	1149.20
467.51	1032.18
467.69	990.05
467.87	1245.16
468.05	943.24
468.23	1343.47
468.41	1093.03
468.60	861.32
468.78	966.64
468.96	1095.37
469.14	1020.47
469.32	800.46
469.50	842.59
469.69	1078.99
469.87	903.45
470.05	1011.11
470.23	976.00
470.41	847.27
470.59	760.67
470.77	1071.97
470.95	898.77
471.14	1139.84
471.32	887.06
471.50	1238.14
471.68	980.68
471.86	1123.46
472.04	807.48
472.22	994.73
472.40	697.48
472.58	765.36
472.77	856.64
472.95	922.17
473.13	1348.15
473.31	1191.33
473.49	833.23
473.67	830.89
473.85	1083.67
474.03	1071.97
474.21	1027.50
474.39	1252.19
474.57	1387.94
474.75	968.98
474.93	912.81
475.12	795.78
475.30	919.83
475.48	990.05
475.66	938.55
475.84	1006.43
476.02	929.19
476.20	1004.09
476.38	1149.20
476.56	1640.72
476.74	1060.26
476.92	947.92
477.10	1027.50
477.28	1228.78
477.46	1001.75
477.64	1205.38
477.82	1015.79
478.00	978.34
478.18	1053.24
478.36	980.68
478.54	985.37
478.72	915.15
478.90	1057.92
479.08	1196.01
479.26	1069.62
479.44	1076.65
479.62	938.55
479.80	994.73
479.98	931.53
480.16	917.49
480.34	1233.46
480.52	978.34
480.70	1121.12
480.88	957.28
481.06	964.30
481.24	1041.54
481.41	1177.29
481.59	1165.59
481.77	1118.78
481.95	1057.92
482.13	1366.87
482.31	1156.22
482.49	943.24
482.67	1275.59
482.85	1266.23
483.03	1177.29
483.21	1139.84
483.39	987.71
483.57	1149.20
483.74	1500.28
483.92	1069.62
484.10	945.58
484.28	1308.36
484.46	1724.97
484.64	1046.22
484.82	1179.63
485.00	1050.90
485.18	1193.67
485.35	1179.63
485.53	973.66
485.71	1247.51
485.89	884.72
486.07	1006.43
486.25	1692.21
486.43	1207.72
486.61	1287.29
486.78	1240.48
486.96	985.37
487.14	1055.58
487.32	1107.07
487.50	1050.90
487.68	1355.17
487.85	1043.88
488.03	1301.34
488.21	1441.77
488.39	1132.82
488.57	1352.83
488.75	1118.78
488.92	3861.88
489.10	1469.86
489.28	1694.55
489.46	1170.27
489.64	1174.95
489.81	1287.29
489.99	1455.81
490.17	1268.57
490.35	1930.94
490.53	1263.89
490.70	1242.82
490.88	1366.87
491.06	1242.82
491.24	1411.34
491.41	1579.86
491.59	1343.47
491.77	1125.80
491.95	1179.63
492.13	1179.63
492.30	1348.15
492.48	1270.91
492.66	1352.83
492.84	1179.63
493.01	1376.24
493.19	1221.76
493.37	1755.40
493.54	1526.03
493.72	1476.88
493.90	1270.91
494.08	1266.23
494.25	1486.24
494.43	1490.92
494.61	1350.49
494.79	1254.53
494.96	1207.72
495.14	1420.71
495.32	1366.87
495.49	1420.71
495.67	1423.05
495.85	1350.49
496.02	1303.68
496.20	1556.46
496.38	1558.80
496.55	1320.06
496.73	1530.71
496.91	1299.00
497.09	1626.67
497.26	1453.47
497.44	1380.92
497.62	1390.28
497.79	1380.92
497.97	1425.39
498.14	1537.73
498.32	1504.96
498.50	1474.54
498.67	1432.41
498.85	1535.39
499.03	1444.11
499.20	1409.00
499.38	1399.64
499.56	1427.73
499.73	1764.76
499.91	1579.86
500.08	1582.20
500.26	1296.66
500.44	1418.36
500.61	1497.94
500.79	1345.81
500.97	1502.62
501.14	1664.12
501.32	1418.36
501.49	1680.50
501.67	1387.94
501.84	1579.86
502.02	1331.76
502.20	1846.68
502.37	1565.82
502.55	1446.45
502.72	1472.20
502.90	1607.95
503.07	1409.00
503.25	1523.69
503.43	1373.89
503.60	1404.32
503.78	1542.41
503.95	1320.06
504.13	1401.98
504.30	1533.05
504.48	1671.14
504.65	1699.23
504.83	1732.00
505.01	1380.92
505.18	1598.59
505.36	1458.15
505.53	1420.71
505.71	1416.02
505.88	1792.85
506.06	1439.43
506.23	1437.09
506.41	1460.49
506.58	1537.73
506.76	1544.75
506.93	1357.51
507.11	1596.25
507.28	1434.75
507.46	1399.64
507.63	1626.67
507.81	1310.70
507.98	1530.71
508.16	1385.60
508.33	1561.14
508.50	1675.82
508.68	1544.75
508.85	1614.97
509.03	1458.15
509.20	1458.15
509.38	1596.25
509.55	1701.57
509.73	1654.76
509.90	1788.17
510.08	1451.13
510.25	1790.51
510.42	1439.43
510.60	1603.27
510.77	1661.78
510.95	1764.76
511.12	1591.56
511.30	1666.46
511.47	1605.61
511.64	1940.30
511.82	1542.41
511.99	1462.83
512.17	1528.37
512.34	1446.45
512.51	1497.94
512.69	1430.07
512.86	1769.44
513.04	1556.46
513.21	1502.62
513.38	1451.13
513.56	1444.11
513.73	1507.30
513.90	1343.47
514.08	1376.24
514.25	1591.56
514.43	1626.67
514.60	1371.55
514.77	1528.37
514.95	1675.82
515.12	1467.52
515.29	1614.97
515.47	1586.88
515.64	1647.74
515.81	1453.47
515.99	1806.89
516.16	1600.93
516.33	1689.87
516.51	1357.51
516.68	1242.82
516.85	1317.72
517.03	1336.45
517.20	1511.99
517.37	1673.48
517.54	1596.25
517.72	1495.60
517.89	1240.48
518.06	1275.59
518.24	1947.33
518.41	1944.99
518.58	1687.53
518.75	1423.05
518.93	1591.56
519.10	1561.14
519.27	1411.34
519.45	1554.12
519.62	1547.09
519.79	1715.61
519.96	1366.87
520.14	1596.25
520.31	1837.32
520.48	1652.42
520.65	1636.03
520.83	1706.25
521.00	1633.69
521.17	1668.80
521.34	1582.20
521.52	1701.57
521.69	1551.78
521.86	1631.35
522.03	1811.57
522.20	1935.62
522.38	1596.25
522.55	1645.40
522.72	1380.92
522.89	1813.92
523.07	1994.14
523.24	1617.31
523.41	1481.56
523.58	1521.35
523.75	1610.29
523.92	1427.73
524.10	1701.57
524.27	1563.48
524.44	1657.10
524.61	1839.66
524.78	1523.69
524.96	1724.97
525.13	1645.40
525.30	1865.41
525.47	1774.13
525.64	1652.42
525.81	1689.87
525.98	1652.42
526.16	1551.78
526.33	1509.65
526.50	1526.03
526.67	1376.24
526.84	1392.62
527.01	1345.81
527.18	1621.99
527.36	1643.06
527.53	1430.07
527.70	1867.75
527.87	1680.50
528.04	2148.61
528.21	1554.12
528.38	1867.75
528.55	1959.03
528.72	1940.30
528.89	2174.36
529.07	1673.48
529.24	1640.72
529.41	2012.86
529.58	1678.16
529.75	1621.99
529.92	1834.98
530.09	1629.01
530.26	1912.22
530.43	1940.30
530.60	1631.35
530.77	1610.29
530.94	1870.09
531.11	1682.85
531.28	1565.82
531.46	1516.67
531.63	1619.65
531.80	1692.21
531.97	1708.59
532.14	1624.33
532.31	1638.38
532.48	1769.44
532.65	1813.92
532.82	1638.38
532.99	1645.40
533.16	1809.23
533.33	1699.23
533.50	1626.67
533.67	1572.84
533.84	1839.66
534.01	1806.89
534.18	1696.89
534.35	1753.06
534.52	1654.76
534.69	2160.31
534.86	1603.27
535.03	1497.94
535.20	1654.76
535.37	1834.98
535.54	1701.57
535.71	1668.80
535.88	1998.82
536.05	1551.78
536.22	1694.55
536.38	1528.37
536.55	1664.12
536.72	1865.41
536.89	1579.86
537.06	1497.94
537.23	1467.52
537.40	1614.97
537.57	1514.33
537.74	1834.98
537.91	1790.51
538.08	1706.25
538.25	1769.44
538.42	1544.75
538.59	1703.91
538.75	1558.80
538.92	1631.35
539.09	1811.57
539.26	1582.20
539.43	2188.40
539.60	2539.48
539.77	3042.70
539.94	2895.24
540.11	2300.75
540.28	2263.30
540.44	2087.76
540.61	1591.56
540.78	1568.16
540.95	1490.92
541.12	1968.39
541.29	1554.12
541.46	1994.14
541.62	1629.01
541.79	1519.01
541.96	1432.41
542.13	1479.22
542.30	1490.92
542.47	1687.53
542.63	1589.22
542.80	1739.02
542.97	1856.04
543.14	1502.62
543.31	1699.23
543.48	1647.74
543.64	1746.04
543.81	1666.46
543.98	1544.75
544.15	1469.86
544.32	1605.61
544.48	1572.84
544.65	1593.90
544.82	1425.39
544.99	1621.99
545.16	1755.40
545.32	1486.24
545.49	1652.42
545.66	1619.65
545.83	1511.99
546.00	1451.13
546.16	1575.18
546.33	1600.93
546.50	1624.33
546.67	1827.96
546.83	1764.76
547.00	1603.27
547.17	1446.45
547.34	1409.00
547.50	1610.29
547.67	1600.93
547.84	1481.56
548.00	1710.93
548.17	1488.58
548.34	1584.54
548.51	1977.75
548.67	1851.36
548.84	1614.97
549.01	1809.23
549.18	1596.25
549.34	1664.12
549.51	1743.70
549.68	1699.23
549.84	1575.18
550.01	1502.62
550.18	2532.46
550.34	2275.00
550.51	1673.48
550.68	1977.75
550.84	1547.09
551.01	1680.50
551.18	1799.87
551.34	1626.67
551.51	1586.88
551.68	1572.84
551.84	1755.40
552.01	1465.18
552.18	1448.79
552.34	1561.14
552.51	1584.54
552.68	1781.15
552.84	1504.96
553.01	1631.35
553.18	1760.08
553.34	1526.03
553.51	1416.02
553.67	1629.01
553.84	2012.86
554.01	1874.77
554.17	1760.08
554.34	1497.94
554.51	1727.32
554.67	1802.21
554.84	1792.85
555.00	1661.78
555.17	1722.63
555.33	1795.19
555.50	1542.41
555.67	1694.55
555.83	1453.47
556.00	1549.43
556.16	3164.40
556.33	1661.78
556.50	1607.95
556.66	1577.52
556.83	1472.20
556.99	1455.81
557.16	1542.41
557.32	1434.75
557.49	1568.16
557.65	1497.94
557.82	1451.13
557.98	1530.71
558.15	1411.34
558.32	1533.05
558.48	1465.18
558.65	1603.27
558.81	1675.82
558.98	1404.32
559.14	1727.32
559.31	1556.46
559.47	1652.42
559.64	1418.36
559.80	1722.63
559.97	1411.34
560.13	1537.73
560.30	1380.92
560.46	1490.92
560.63	1519.01
560.79	1570.50
560.96	1591.56
561.12	1528.37
561.29	1596.25
561.45	1495.60
561.61	1589.22
561.78	2326.49
561.94	1540.07
562.11	1502.62
562.27	1563.48
562.44	1434.75
562.60	1514.33
562.77	1511.99
562.93	2111.16
563.10	1614.97
563.26	1514.33
563.42	1748.38
563.59	1633.69
563.75	1453.47
563.92	1741.36
564.08	1629.01
564.24	1739.02
564.41	2129.89
564.57	1376.24
564.74	1329.42
564.90	1565.82
565.07	1664.12
565.23	1720.29
565.39	1509.65
565.56	1650.08
565.72	1373.89
565.88	1472.20
566.05	1462.83
566.21	1369.21
566.38	1614.97
566.54	1657.10
566.70	1554.12
566.87	1537.73
567.03	1308.36
567.19	1624.33
567.36	1614.97
567.52	1390.28
567.68	1507.30
567.85	1561.14
568.01	1418.36
568.17	1291.98
568.34	1362.19
568.50	1699.23
568.66	1284.95
568.83	2176.70
568.99	1394.96
569.15	1781.15
569.32	1437.09
569.48	1444.11
569.64	1336.45
569.81	1460.49
569.97	1345.81
570.13	1638.38
570.30	1404.32
570.46	1469.86
570.62	1474.54
570.78	1327.08
570.95	1221.76
571.11	1919.24
571.27	1806.89
571.43	1409.00
571.60	1577.52
571.76	1404.32
571.92	1486.24
572.09	1366.87
572.25	1465.18
572.41	1418.36
572.57	1497.94
572.74	1809.23
572.90	1607.95
573.06	1547.09
573.22	1638.38
573.38	1722.63
573.55	1596.25
573.71	1638.38
573.87	1558.80
574.03	1359.85
574.20	1394.96
574.36	1776.47
574.52	1563.48
574.68	1521.35
574.84	1544.75
575.01	1430.07
575.17	1603.27
575.33	1383.26
575.49	1631.35
575.65	1694.55
575.82	1849.02
575.98	2331.17
576.14	1926.26
576.30	1961.37
576.46	1746.04
576.62	1717.95
576.79	1715.61
576.95	1909.88
577.11	1366.87
577.27	1350.49
577.43	1682.85
577.59	1757.74
577.75	1558.80
577.92	1397.30
578.08	1357.51
578.24	1350.49
578.40	1680.50
578.56	1706.25
578.72	1806.89
578.88	1769.44
579.04	1453.47
579.21	1577.52
579.37	1373.89
579.53	1371.55
579.69	1762.42
579.85	1401.98
580.01	1640.72
580.17	1448.79
580.33	1528.37
580.49	1540.07
580.65	1636.03
580.82	1593.90
580.98	1504.96
581.14	1394.96
581.30	1884.13
581.46	1710.93
581.62	1991.80
581.78	1776.47
581.94	1898.17
582.10	1476.88
582.26	1584.54
582.42	1605.61
582.58	1844.34
582.74	1612.63
582.90	1675.82
583.06	1781.15
583.22	1523.69
583.38	1610.29
583.54	1626.67
583.70	2111.16
583.86	2029.24
584.02	2043.29
584.18	2537.14
584.34	2499.69
584.50	5518.98
584.66	34169.48
584.82	60301.56
584.98	65535.00
585.14	62670.18
585.30	49397.01
585.46	32336.84
585.62	20152.01
585.78	9851.31
585.94	4791.08
586.10	2785.24
586.26	2345.22
586.42	2289.04
586.58	2047.97
586.74	1834.98
586.90	1818.60
587.06	1844.34
587.22	1720.29
587.38	1624.33
587.54	2623.74
587.70	5645.37
587.86	7838.45
588.02	7686.32
588.18	5809.21
588.34	4395.53
588.49	2782.90
588.65	2244.57
588.81	1661.78
588.97	1301.34
589.13	1301.34
589.29	1357.51
589.45	1614.97
589.61	1376.24
589.77	1720.29
589.93	1486.24
590.08	1460.49
590.24	1423.05
590.40	1448.79
590.56	1636.03
590.72	1493.26
590.88	1275.59
591.04	1521.35
591.20	1331.76
591.35	1734.34
591.51	1383.26
591.67	1228.78
591.83	1245.16
591.99	1486.24
592.15	1612.63
592.31	1540.07
592.46	1479.22
592.62	1521.35
592.78	1261.55
592.94	1259.21
593.10	1289.64
593.26	1174.95
593.41	1540.07
593.57	1488.58
593.73	1703.91
593.89	5240.46
594.05	10106.43
594.20	12641.23
594.36	11866.52
594.52	8081.87
594.68	5549.41
594.84	4198.92
594.99	2993.55
595.15	1912.22
595.31	1643.06
595.47	1870.09
595.62	1423.05
595.78	1336.45
595.94	1413.68
596.10	1682.85
596.25	1493.26
596.41	1584.54
596.57	1355.17
596.73	1359.85
596.88	1762.42
597.04	2853.11
597.20	3571.66
597.36	4004.66
597.51	3143.34
597.67	2438.84
597.83	1987.11
597.99	1952.01
598.14	1598.59
598.30	1750.72
598.46	1294.32
598.61	1757.74
598.77	1446.45
598.93	1261.55
599.09	1336.45
599.24	1486.24
599.40	1596.25
599.56	1434.75
599.71	1378.58
599.87	1299.00
600.03	1371.55
600.18	1338.79
600.34	1516.67
600.50	1275.59
600.65	1249.85
600.81	1572.84
600.97	1174.95
601.12	1329.42
601.28	1617.31
