SpectraSuite Data File
++++++++++++++++++++++++++++++++++++
Date: Fri Oct 04 12:14:03 GMT-05:00 2013
User: price-jones
Dark Spectrum Present: No
Reference Spectrum Present: No
Number of Sampled Component Spectra: 1
Spectrometers: USB2+H05261
Integration Time (usec): 1000000 (USB2+H05261)
Spectra Averaged: 1 (USB2+H05261)
Boxcar Smoothing: 0 (USB2+H05261)
Correct for Electrical Dark: No (USB2+H05261)
Strobe/Lamp Enabled: No (USB2+H05261)
Correct for Detector Non-linearity: No (USB2+H05261)
Correct for Stray Light: No (USB2+H05261)
Number of Pixels in Processed Spectrum: 2048
>>>>>Begin Processed Spectral Data<<<<<
365.73	0.00
365.92	0.00
366.12	0.00
366.32	0.00
366.52	0.00
366.72	348.74
366.91	67.88
367.11	301.93
367.31	191.92
367.51	339.38
367.70	339.38
367.90	416.62
368.10	241.08
368.30	355.76
368.49	126.39
368.69	486.83
368.89	299.59
369.09	110.01
369.28	257.46
369.48	107.66
369.68	238.73
369.87	397.89
370.07	241.08
370.27	545.34
370.47	414.27
370.66	353.42
370.86	477.47
371.06	788.76
371.25	976.00
371.45	440.02
371.65	732.59
371.84	341.72
372.04	285.55
372.24	482.15
372.44	362.78
372.63	575.77
372.83	894.08
373.03	444.70
373.22	360.44
373.42	397.89
373.62	552.37
373.81	543.00
374.01	755.99
374.21	699.82
374.40	456.40
374.60	711.52
374.79	514.92
374.99	416.62
375.19	505.56
375.38	580.45
375.58	500.87
375.78	720.88
375.97	641.31
376.17	896.43
376.37	477.47
376.56	631.94
376.76	397.89
376.95	414.27
377.15	676.41
377.35	606.20
377.54	568.75
377.74	411.93
377.93	376.83
378.13	505.56
378.33	720.88
378.52	472.79
378.72	683.44
378.91	674.07
379.11	374.49
379.31	463.43
379.50	339.38
379.70	784.08
379.89	599.18
380.09	493.85
380.28	388.53
380.48	475.13
380.68	346.40
380.87	301.93
381.07	629.60
381.26	798.12
381.46	596.84
381.65	660.03
381.85	418.96
382.04	491.51
382.24	550.03
382.43	465.77
382.63	313.63
382.83	393.21
383.02	706.84
383.22	791.10
383.41	383.85
383.61	461.09
383.80	465.77
384.00	510.24
384.19	407.25
384.39	507.90
384.58	472.79
384.78	669.39
384.97	533.64
385.17	561.73
385.36	437.68
385.56	702.16
385.75	404.91
385.95	489.17
386.14	622.58
386.34	517.26
386.53	538.32
386.72	369.80
386.92	802.80
387.11	594.50
387.31	599.18
387.50	346.40
387.70	311.29
387.89	517.26
388.09	409.59
388.28	402.57
388.48	409.59
388.67	662.37
388.86	465.77
389.06	486.83
389.25	631.94
389.45	631.94
389.64	456.40
389.84	748.97
390.03	620.24
390.22	540.66
390.42	440.02
390.61	383.85
390.81	306.61
391.00	514.92
391.19	727.91
391.39	437.68
391.58	657.69
391.78	479.81
391.97	526.62
392.16	355.76
392.36	770.04
392.55	723.23
392.75	484.49
392.94	365.12
393.13	540.66
393.33	379.17
393.52	472.79
393.71	807.48
393.91	585.13
394.10	423.64
394.29	390.87
394.49	503.22
394.68	615.56
394.88	727.91
395.07	655.35
395.26	475.13
395.46	528.96
395.65	727.91
395.84	599.18
396.04	1163.25
396.23	472.79
396.42	458.74
396.62	573.43
396.81	547.69
397.00	533.64
397.19	594.50
397.39	472.79
397.58	814.51
397.77	444.70
397.97	578.11
398.16	554.71
398.35	706.84
398.55	367.46
398.74	578.11
398.93	711.52
399.12	493.85
399.32	702.16
399.51	554.71
399.70	676.41
399.90	634.29
400.09	578.11
400.28	758.33
400.47	517.26
400.67	732.59
400.86	547.69
401.05	760.67
401.24	730.25
401.44	725.57
401.63	739.61
401.82	748.97
402.01	418.96
402.21	610.88
402.40	589.82
402.59	521.94
402.78	468.11
402.97	538.32
403.17	610.88
403.36	741.95
403.55	547.69
403.74	550.03
403.93	613.22
404.13	875.36
404.32	554.71
404.51	566.41
404.70	711.52
404.89	458.74
405.09	990.05
405.28	535.98
405.47	428.32
405.66	692.80
405.85	844.93
406.05	636.63
406.24	557.05
406.43	702.16
406.62	692.80
406.81	1104.73
407.00	748.97
407.20	636.63
407.39	606.20
407.58	535.98
407.77	720.88
407.96	856.64
408.15	758.33
408.34	683.44
408.54	624.92
408.73	638.97
408.92	641.31
409.11	788.76
409.30	830.89
409.49	601.52
409.68	550.03
409.87	660.03
410.07	561.73
410.26	648.33
410.45	638.97
410.64	596.84
410.83	692.80
411.02	573.43
411.21	814.51
411.40	814.51
411.59	594.50
411.78	547.69
411.98	636.63
412.17	533.64
412.36	587.47
412.55	543.00
412.74	861.32
412.93	985.37
413.12	627.26
413.31	826.21
413.50	751.31
413.69	620.24
413.88	1057.92
414.07	683.44
414.26	716.20
414.45	564.07
414.64	748.97
414.83	702.16
415.02	755.99
415.22	784.08
415.41	992.39
415.60	634.29
415.79	641.31
415.98	940.90
416.17	676.41
416.36	620.24
416.55	575.77
416.74	898.77
416.93	847.27
417.12	610.88
417.31	596.84
417.50	664.71
417.69	1006.43
417.88	786.42
418.07	664.71
418.26	720.88
418.45	650.67
418.64	1158.57
418.83	861.32
419.02	802.80
419.21	704.50
419.39	805.14
419.58	667.05
419.77	636.63
419.96	901.11
420.15	1078.99
420.34	709.18
420.53	730.25
420.72	828.55
420.91	746.63
421.10	830.89
421.29	734.93
421.48	887.06
421.67	877.70
421.86	765.36
422.05	657.69
422.24	634.29
422.43	800.46
422.61	554.71
422.80	582.79
422.99	744.29
423.18	711.52
423.37	1032.18
423.56	727.91
423.75	751.31
423.94	578.11
424.13	753.65
424.32	617.90
424.50	645.99
424.69	730.25
424.88	976.00
425.07	674.07
425.26	772.38
425.45	952.60
425.64	765.36
425.83	777.06
426.01	971.32
426.20	770.04
426.39	674.07
426.58	681.10
426.77	791.10
426.96	882.38
427.15	765.36
427.33	695.14
427.52	695.14
427.71	734.93
427.90	779.40
428.09	636.63
428.28	575.77
428.46	615.56
428.65	856.64
428.84	926.85
429.03	1083.67
429.22	641.31
429.40	557.05
429.59	538.32
429.78	1039.20
429.97	727.91
430.16	627.26
430.34	503.22
430.53	629.60
430.72	681.10
430.91	870.68
431.10	603.86
431.28	730.25
431.47	835.57
431.66	833.23
431.85	662.37
432.03	755.99
432.22	1179.63
432.41	720.88
432.60	1029.84
432.79	730.25
432.97	952.60
433.16	901.11
433.35	734.93
433.54	798.12
433.72	856.64
433.91	966.64
434.10	774.72
434.28	791.10
434.47	751.31
434.66	957.28
434.85	725.57
435.03	793.44
435.22	1064.94
435.41	1139.84
435.59	919.83
435.78	798.12
435.97	690.46
436.16	1022.81
436.34	709.18
436.53	786.42
436.72	1029.84
436.90	943.24
437.09	922.17
437.28	702.16
437.46	704.50
437.65	793.44
437.84	896.43
438.02	784.08
438.21	901.11
438.40	641.31
438.58	641.31
438.77	767.70
438.96	746.63
439.14	718.54
439.33	931.53
439.52	737.27
439.70	713.86
439.89	912.81
440.08	854.30
440.26	805.14
440.45	1055.58
440.63	870.68
440.82	844.93
441.01	866.00
441.19	800.46
441.38	887.06
441.57	823.87
441.75	1074.31
441.94	1118.78
442.12	861.32
442.31	770.04
442.50	786.42
442.68	821.53
442.87	774.72
443.05	837.91
443.24	912.81
443.43	1188.99
443.61	1214.74
443.80	861.32
443.98	739.61
444.17	823.87
444.35	997.07
444.54	800.46
444.73	791.10
444.91	1076.65
445.10	737.27
445.28	723.23
445.47	926.85
445.65	849.61
445.84	760.67
446.02	842.59
446.21	849.61
446.39	748.97
446.58	915.15
446.77	812.17
446.95	943.24
447.14	994.73
447.32	1165.59
447.51	847.27
447.69	959.62
447.88	875.36
448.06	1071.97
448.25	973.66
448.43	690.46
448.62	734.93
448.80	936.21
448.99	1097.71
449.17	781.74
449.36	755.99
449.54	968.98
449.73	898.77
449.91	954.94
450.10	861.32
450.28	1397.30
450.46	1404.32
450.65	1088.35
450.83	999.41
451.02	882.38
451.20	947.92
451.39	891.74
451.57	884.72
451.76	891.74
451.94	917.49
452.13	1097.71
452.31	1151.54
452.49	1046.22
452.68	709.18
452.86	912.81
453.05	1317.72
453.23	947.92
453.42	711.52
453.60	917.49
453.78	983.02
453.97	723.23
454.15	716.20
454.34	856.64
454.52	861.32
454.70	1212.40
454.89	1013.45
455.07	861.32
455.26	990.05
455.44	1025.15
455.62	854.30
455.81	980.68
455.99	983.02
456.17	1050.90
456.36	844.93
456.54	805.14
456.73	844.93
456.91	751.31
457.09	952.60
457.28	1130.48
457.46	915.15
457.64	1064.94
457.83	868.34
458.01	821.53
458.19	1053.24
458.38	889.40
458.56	896.43
458.74	826.21
458.93	954.94
459.11	990.05
459.29	760.67
459.48	1008.77
459.66	1242.82
459.84	1139.84
460.03	1741.36
460.21	1114.10
460.39	954.94
460.57	1217.08
460.76	1032.18
460.94	943.24
461.12	1287.29
461.31	1254.53
461.49	929.19
461.67	912.81
461.85	1027.50
462.04	844.93
462.22	5895.81
462.40	1226.44
462.59	1256.87
462.77	889.40
462.95	1011.11
463.13	746.63
463.32	1104.73
463.50	983.02
463.68	1160.91
463.86	1018.13
464.05	910.47
464.23	1174.95
464.41	1081.33
464.59	826.21
464.78	840.25
464.96	847.27
465.14	950.26
465.32	919.83
465.50	997.07
465.69	1083.67
465.87	767.70
466.05	1013.45
466.23	755.99
466.41	926.85
466.60	968.98
466.78	861.32
466.96	1111.75
467.14	1043.88
467.32	1088.35
467.51	1039.20
467.69	997.07
467.87	1261.55
468.05	997.07
468.23	1313.04
468.41	1074.31
468.60	933.87
468.78	1015.79
468.96	1282.61
469.14	1116.44
469.32	767.70
469.50	840.25
469.69	1062.60
469.87	940.90
470.05	1067.28
470.23	964.30
470.41	858.98
470.59	854.30
470.77	945.58
470.95	959.62
471.14	1219.42
471.32	968.98
471.50	1289.64
471.68	1057.92
471.86	1093.03
472.04	798.12
472.22	1039.20
472.40	755.99
472.58	947.92
472.77	791.10
472.95	959.62
473.13	1490.92
473.31	1217.08
473.49	800.46
473.67	863.66
473.85	1025.15
474.03	1102.39
474.21	987.71
474.39	1247.51
474.57	1401.98
474.75	1111.75
474.93	926.85
475.12	833.23
475.30	1001.75
475.48	936.21
475.66	1053.24
475.84	1057.92
476.02	1025.15
476.20	1137.50
476.38	1076.65
476.56	1624.33
476.74	1053.24
476.92	980.68
477.10	1064.94
477.28	1130.48
477.46	1008.77
477.64	1226.44
477.82	945.58
478.00	954.94
478.18	1053.24
478.36	1025.15
478.54	884.72
478.72	990.05
478.90	973.66
479.08	1198.35
479.26	1090.69
479.44	1100.05
479.62	875.36
479.80	837.91
479.98	912.81
480.16	997.07
480.34	1235.80
480.52	994.73
480.70	1158.57
480.88	947.92
481.06	976.00
481.24	1008.77
481.41	1093.03
481.59	1245.16
481.77	1270.91
481.95	1081.33
482.13	1409.00
482.31	1221.76
482.49	957.28
482.67	1252.19
482.85	1287.29
483.03	1310.70
483.21	1186.65
483.39	1036.86
483.57	1137.50
483.74	1462.83
483.92	1146.86
484.10	1008.77
484.28	1392.62
484.46	1689.87
484.64	1081.33
484.82	1153.88
485.00	1076.65
485.18	1151.54
485.35	1247.51
485.53	873.02
485.71	1334.11
485.89	875.36
486.07	961.96
486.25	1650.08
486.43	1233.46
486.61	1235.80
486.78	1296.66
486.96	980.68
487.14	1095.37
487.32	1174.95
487.50	1170.27
487.68	1334.11
487.85	1107.07
488.03	1387.94
488.21	1563.48
488.39	1247.51
488.57	1371.55
488.75	1109.41
488.92	4011.68
489.10	1533.05
489.28	1802.21
489.46	1221.76
489.64	1289.64
489.81	1357.51
489.99	1430.07
490.17	1343.47
490.35	1994.14
490.53	1329.42
490.70	1231.12
490.88	1561.14
491.06	1219.42
491.24	1476.88
491.41	1671.14
491.59	1467.52
491.77	1067.28
491.95	1205.38
492.13	1224.10
492.30	1296.66
492.48	1334.11
492.66	1352.83
492.84	1228.78
493.01	1474.54
493.19	1385.60
493.37	1792.85
493.54	1425.39
493.72	1455.81
493.90	1301.34
494.08	1409.00
494.25	1434.75
494.43	1500.28
494.61	1387.94
494.79	1282.61
494.96	1261.55
495.14	1577.52
495.32	1409.00
495.49	1521.35
495.67	1359.85
495.85	1357.51
496.02	1247.51
496.20	1551.78
496.38	1500.28
496.55	1467.52
496.73	1521.35
496.91	1455.81
497.09	1565.82
497.26	1488.58
497.44	1469.86
497.62	1385.60
497.79	1444.11
497.97	1565.82
498.14	1479.22
498.32	1526.03
498.50	1504.96
498.67	1394.96
498.85	1530.71
499.03	1495.60
499.20	1500.28
499.38	1392.62
499.56	1432.41
499.73	1820.94
499.91	1596.25
500.08	1612.63
500.26	1432.41
500.44	1310.70
500.61	1416.02
500.79	1289.64
500.97	1528.37
501.14	1781.15
501.32	1507.30
501.49	1645.40
501.67	1453.47
501.84	1638.38
502.02	1306.02
502.20	1816.26
502.37	1661.78
502.55	1427.73
502.72	1418.36
502.90	1636.03
503.07	1493.26
503.25	1633.69
503.43	1322.40
503.60	1441.77
503.78	1561.14
503.95	1495.60
504.13	1439.43
504.30	1549.43
504.48	1682.85
504.65	1842.00
504.83	1589.22
505.01	1462.83
505.18	1568.16
505.36	1514.33
505.53	1551.78
505.71	1467.52
505.88	1806.89
506.06	1495.60
506.23	1577.52
506.41	1483.90
506.58	1654.76
506.76	1638.38
506.93	1458.15
507.11	1617.31
507.28	1315.38
507.46	1495.60
507.63	1565.82
507.81	1497.94
507.98	1598.59
508.16	1502.62
508.33	1675.82
508.50	1617.31
508.68	1577.52
508.85	1596.25
509.03	1472.20
509.20	1549.43
509.38	1671.14
509.55	1797.53
509.73	1734.34
509.90	1797.53
510.08	1465.18
510.25	1696.89
510.42	1488.58
510.60	1540.07
510.77	1645.40
510.95	1806.89
511.12	1575.18
511.30	1802.21
511.47	1792.85
511.64	2094.78
511.82	1582.20
511.99	1547.09
512.17	1451.13
512.34	1432.41
512.51	1535.39
512.69	1570.50
512.86	1884.13
513.04	1432.41
513.21	1678.16
513.38	1413.68
513.56	1394.96
513.73	1509.65
513.90	1411.34
514.08	1401.98
514.25	1596.25
514.43	1720.29
514.60	1607.95
514.77	1619.65
514.95	1610.29
515.12	1469.86
515.29	1673.48
515.47	1682.85
515.64	1671.14
515.81	1598.59
515.99	1839.66
516.16	1626.67
516.33	1701.57
516.51	1399.64
516.68	1284.95
516.85	1355.17
517.03	1404.32
517.20	1650.08
517.37	1734.34
517.54	1710.93
517.72	1411.34
517.89	1254.53
518.06	1416.02
518.24	1914.56
518.41	1998.82
518.58	1771.79
518.75	1469.86
518.93	1600.93
519.10	1577.52
519.27	1514.33
519.45	1631.35
519.62	1701.57
519.79	1722.63
519.96	1544.75
520.14	1589.22
520.31	1849.02
520.48	1706.25
520.65	1626.67
520.83	1771.79
521.00	1764.76
521.17	1675.82
521.34	1570.50
521.52	1678.16
521.69	1643.06
521.86	1612.63
522.03	1771.79
522.20	1980.09
522.38	1444.11
522.55	1668.80
522.72	1516.67
522.89	1799.87
523.07	1952.01
523.24	1633.69
523.41	1528.37
523.58	1526.03
523.75	1582.20
523.92	1526.03
524.10	1764.76
524.27	1633.69
524.44	1703.91
524.61	1806.89
524.78	1600.93
524.96	1797.53
525.13	1729.66
525.30	1874.77
525.47	1867.75
525.64	1715.61
525.81	1647.74
525.98	1621.99
526.16	1474.54
526.33	1533.05
526.50	1390.28
526.67	1348.15
526.84	1362.19
527.01	1446.45
527.18	1692.21
527.36	1675.82
527.53	1514.33
527.70	1863.07
527.87	1668.80
528.04	2064.35
528.21	1540.07
528.38	1888.81
528.55	1820.94
528.72	2106.48
528.89	2101.80
529.07	1753.06
529.24	1741.36
529.41	1984.77
529.58	1736.68
529.75	1631.35
529.92	1783.49
530.09	1582.20
530.26	1980.09
530.43	1767.10
530.60	1764.76
530.77	1708.59
530.94	1912.22
531.11	1795.19
531.28	1654.76
531.46	1497.94
531.63	1734.34
531.80	1839.66
531.97	1774.13
532.14	1640.72
532.31	1785.83
532.48	1633.69
532.65	1839.66
532.82	1767.10
532.99	1760.08
533.16	1746.04
533.33	1790.51
533.50	1645.40
533.67	1774.13
533.84	1942.64
534.01	2143.93
534.18	1893.49
534.35	1874.77
534.52	1732.00
534.69	2230.53
534.86	1767.10
535.03	1650.08
535.20	1689.87
535.37	1921.58
535.54	1769.44
535.71	1647.74
535.88	2059.67
536.05	1685.19
536.22	1689.87
536.38	1640.72
536.55	1640.72
536.72	1886.47
536.89	1570.50
537.06	1612.63
537.23	1561.14
537.40	1511.99
537.57	1654.76
537.74	1802.21
537.91	1818.60
538.08	1610.29
538.25	1832.64
538.42	1636.03
538.59	1598.59
538.75	1668.80
538.92	1764.76
539.09	1980.09
539.26	1654.76
539.43	2263.30
539.60	3066.10
539.77	3836.14
539.94	3714.43
540.11	2911.63
540.28	2539.48
540.44	2277.34
540.61	1703.91
540.78	1619.65
540.95	1519.01
541.12	2026.90
541.29	1643.06
541.46	1980.09
541.62	1809.23
541.79	1453.47
541.96	1563.48
542.13	1668.80
542.30	1502.62
542.47	1851.36
542.63	1591.56
542.80	1645.40
542.97	1877.11
543.14	1736.68
543.31	1673.48
543.48	1610.29
543.64	1778.81
543.81	1799.87
543.98	1544.75
544.15	1416.02
544.32	1612.63
544.48	1654.76
544.65	1577.52
544.82	1568.16
544.99	1614.97
545.16	1886.47
545.32	1570.50
545.49	1741.36
545.66	1582.20
545.83	1502.62
546.00	1542.41
546.16	1600.93
546.33	1638.38
546.50	1673.48
546.67	1949.67
546.83	1846.68
547.00	1603.27
547.17	1554.12
547.34	1469.86
547.50	1584.54
547.67	1619.65
547.84	1537.73
548.00	1788.17
548.17	1603.27
548.34	1535.39
548.51	2129.89
548.67	1872.43
548.84	1657.10
549.01	1724.97
549.18	1741.36
549.34	1820.94
549.51	1767.10
549.68	1706.25
549.84	1607.95
550.01	1458.15
550.18	2605.02
550.34	2312.45
550.51	1844.34
550.68	1994.14
550.84	1507.30
551.01	1689.87
551.18	1781.15
551.34	1586.88
551.51	1584.54
551.68	1584.54
551.84	1823.28
552.01	1528.37
552.18	1582.20
552.34	1760.08
552.51	1519.01
552.68	1832.64
552.84	1530.71
553.01	1762.42
553.18	1776.47
553.34	1542.41
553.51	1458.15
553.67	1741.36
553.84	2132.23
554.01	1739.02
554.17	1827.96
554.34	1593.90
554.51	1776.47
554.67	1916.90
554.84	1842.00
555.00	1788.17
555.17	1732.00
555.33	1919.24
555.50	1680.50
555.67	1797.53
555.83	1502.62
556.00	1638.38
556.16	3208.87
556.33	1858.39
556.50	1572.84
556.66	1533.05
556.83	1537.73
556.99	1540.07
557.16	1598.59
557.32	1502.62
557.49	1575.18
557.65	1469.86
557.82	1451.13
557.98	1605.61
558.15	1434.75
558.32	1533.05
558.48	1511.99
558.65	1591.56
558.81	1717.95
558.98	1544.75
559.14	1584.54
559.31	1586.88
559.47	1643.06
559.64	1469.86
559.80	1685.19
559.97	1483.90
560.13	1519.01
560.30	1570.50
560.46	1582.20
560.63	1591.56
560.79	1570.50
560.96	1607.95
561.12	1465.18
561.29	1638.38
561.45	1474.54
561.61	1650.08
561.78	2392.03
561.94	1514.33
562.11	1420.71
562.27	1589.22
562.44	1469.86
562.60	1610.29
562.77	1589.22
562.93	2263.30
563.10	1626.67
563.26	1607.95
563.42	1879.45
563.59	1603.27
563.75	1462.83
563.92	1767.10
564.08	1528.37
564.24	1788.17
564.41	2050.31
564.57	1497.94
564.74	1472.20
564.90	1680.50
565.07	1743.70
565.23	1703.91
565.39	1523.69
565.56	1626.67
565.72	1416.02
565.88	1526.03
566.05	1540.07
566.21	1521.35
566.38	1603.27
566.54	1685.19
566.70	1535.39
566.87	1614.97
567.03	1291.98
567.19	1551.78
567.36	1572.84
567.52	1554.12
567.68	1659.44
567.85	1607.95
568.01	1542.41
568.17	1369.21
568.34	1418.36
568.50	1769.44
568.66	1401.98
568.83	2211.81
568.99	1465.18
569.15	1863.07
569.32	1523.69
569.48	1427.73
569.64	1327.08
569.81	1563.48
569.97	1437.09
570.13	1708.59
570.30	1460.49
570.46	1577.52
570.62	1507.30
570.78	1327.08
570.95	1270.91
571.11	1933.28
571.27	1914.56
571.43	1348.15
571.60	1671.14
571.76	1507.30
571.92	1481.56
572.09	1535.39
572.25	1540.07
572.41	1535.39
572.57	1465.18
572.74	1886.47
572.90	1741.36
573.06	1654.76
573.22	1647.74
573.38	1713.27
573.55	1633.69
573.71	1748.38
573.87	1664.12
574.03	1430.07
574.20	1514.33
574.36	1825.62
574.52	1582.20
574.68	1598.59
574.84	1699.23
575.01	1504.96
575.17	1671.14
575.33	1427.73
575.49	1586.88
575.65	1764.76
575.82	1675.82
575.98	2478.63
576.14	2069.03
576.30	2153.29
576.46	1996.48
576.62	1853.70
576.79	1764.76
576.95	1872.43
577.11	1509.65
577.27	1399.64
577.43	1748.38
577.59	1916.90
577.75	1673.48
577.92	1591.56
578.08	1488.58
578.24	1390.28
578.40	1762.42
578.56	1827.96
578.72	1813.92
578.88	1643.06
579.04	1439.43
579.21	1619.65
579.37	1530.71
579.53	1521.35
579.69	1813.92
579.85	1465.18
580.01	1743.70
580.17	1685.19
580.33	1795.19
580.49	1736.68
580.65	1806.89
580.82	1701.57
580.98	1568.16
581.14	1561.14
581.30	1935.62
581.46	1935.62
581.62	2211.81
581.78	2059.67
581.94	2223.51
582.10	1816.26
582.26	1820.94
582.42	1680.50
582.58	1788.17
582.74	1844.34
582.90	1827.96
583.06	1881.79
583.22	1767.10
583.38	1879.45
583.54	1809.23
583.70	2359.26
583.86	2188.40
584.02	2249.25
584.18	2839.07
584.34	2902.26
584.50	6810.96
584.66	43243.74
584.82	65535.00
584.98	65535.00
585.14	65535.00
585.30	65535.00
585.46	47133.71
585.62	29951.84
585.78	14132.15
585.94	6406.05
586.10	3658.26
586.26	2888.22
586.42	2740.77
586.58	2286.70
586.74	2026.90
586.90	1982.43
587.06	2012.86
587.22	1963.71
587.38	1757.74
587.54	3023.97
587.70	7646.53
587.86	11030.94
588.02	11536.50
588.18	8334.65
588.34	5607.92
588.49	3826.78
588.65	2885.88
588.81	1970.73
588.97	1462.83
589.13	1502.62
589.29	1465.18
589.45	1591.56
589.61	1423.05
589.77	1849.02
589.93	1535.39
590.08	1671.14
590.24	1540.07
590.40	1682.85
590.56	1652.42
590.72	1493.26
590.88	1378.58
591.04	1458.15
591.20	1301.34
591.35	1891.15
591.51	1481.56
591.67	1329.42
591.83	1434.75
591.99	1540.07
592.15	1643.06
592.31	1556.46
592.46	1446.45
592.62	1694.55
592.78	1291.98
592.94	1406.66
593.10	1348.15
593.26	1336.45
593.41	1624.33
593.57	1575.18
593.73	1961.37
593.89	6176.67
594.05	14380.25
594.20	19770.51
594.36	18132.13
594.52	11644.17
594.68	7786.96
594.84	5839.64
594.99	3840.82
595.15	2293.72
595.31	1919.24
595.47	1898.17
595.62	1549.43
595.78	1511.99
595.94	1448.79
596.10	1746.04
596.25	1591.56
596.41	1741.36
596.57	1406.66
596.73	1439.43
596.88	1820.94
597.04	3368.03
597.20	4765.33
597.36	5427.70
597.51	4191.90
597.67	3164.40
597.83	2576.93
597.99	2202.44
598.14	1757.74
598.30	1895.83
598.46	1533.05
598.61	1708.59
598.77	1612.63
598.93	1301.34
599.09	1425.39
599.24	1521.35
599.40	1621.99
599.56	1366.87
599.71	1441.77
599.87	1324.74
600.03	1493.26
600.18	1320.06
600.34	1462.83
600.50	1385.60
600.65	1252.19
600.81	1633.69
600.97	1296.66
601.12	1413.68
