SpectraSuite Data File
++++++++++++++++++++++++++++++++++++
Date: Fri Oct 04 11:34:00 GMT-05:00 2013
User: price-jones
Dark Spectrum Present: No
Reference Spectrum Present: No
Number of Sampled Component Spectra: 1
Spectrometers: USB2+H05261
Integration Time (usec): 100000 (USB2+H05261)
Spectra Averaged: 1 (USB2+H05261)
Boxcar Smoothing: 0 (USB2+H05261)
Correct for Electrical Dark: No (USB2+H05261)
Strobe/Lamp Enabled: No (USB2+H05261)
Correct for Detector Non-linearity: No (USB2+H05261)
Correct for Stray Light: No (USB2+H05261)
Number of Pixels in Processed Spectrum: 2048
>>>>>Begin Processed Spectral Data<<<<<
365.73	39.79
365.92	39.79
366.12	39.79
366.32	11.70
366.52	0.00
366.72	0.00
366.91	4.68
367.11	0.00
367.31	0.00
367.51	0.00
367.70	0.00
367.90	37.45
368.10	0.00
368.30	0.00
368.49	0.00
368.69	0.00
368.89	0.00
369.09	0.00
369.28	39.79
369.48	0.00
369.68	37.45
369.87	42.13
370.07	30.43
370.27	100.64
370.47	63.19
370.66	58.51
370.86	88.94
371.06	28.09
371.25	210.65
371.45	49.15
371.65	154.48
371.84	77.24
372.04	145.11
372.24	11.70
372.44	98.30
372.63	107.66
372.83	241.08
373.03	105.32
373.22	152.13
373.42	168.52
373.62	145.11
373.81	175.54
374.01	168.52
374.21	229.37
374.40	156.82
374.60	173.20
374.79	79.58
374.99	198.95
375.19	138.09
375.38	102.98
375.58	182.56
375.78	222.35
375.97	159.16
376.17	196.60
376.37	210.65
376.56	196.60
376.76	142.77
376.95	110.01
377.15	140.43
377.35	119.37
377.54	147.45
377.74	191.92
377.93	126.39
378.13	135.75
378.33	168.52
378.52	196.60
378.72	191.92
378.91	128.73
379.11	98.30
379.31	147.45
379.50	128.73
379.70	105.32
379.89	234.05
380.09	128.73
380.28	170.86
380.48	79.58
380.68	102.98
380.87	135.75
381.07	182.56
381.26	177.88
381.46	187.24
381.65	126.39
381.85	110.01
382.04	84.26
382.24	154.48
382.43	81.92
382.63	222.35
382.83	135.75
383.02	182.56
383.22	182.56
383.41	161.50
383.61	124.05
383.80	105.32
384.00	112.35
384.19	168.52
384.39	138.09
384.58	133.41
384.78	126.39
384.97	201.29
385.17	191.92
385.36	81.92
385.56	126.39
385.75	159.16
385.95	180.22
386.14	191.92
386.34	147.45
386.53	124.05
386.72	114.69
386.92	163.84
387.11	159.16
387.31	138.09
387.50	142.77
387.70	72.56
387.89	133.41
388.09	154.48
388.28	91.28
388.48	81.92
388.67	84.26
388.86	107.66
389.06	145.11
389.25	102.98
389.45	166.18
389.64	84.26
389.84	140.43
390.03	131.07
390.22	147.45
390.42	189.58
390.61	91.28
390.81	102.98
391.00	79.58
391.19	177.88
391.39	60.85
391.58	110.01
391.78	102.98
391.97	203.63
392.16	156.82
392.36	124.05
392.55	154.48
392.75	133.41
392.94	140.43
393.13	205.97
393.33	124.05
393.52	131.07
393.71	187.24
393.91	198.95
394.10	51.49
394.29	88.94
394.49	201.29
394.68	117.03
394.88	159.16
395.07	121.71
395.26	145.11
395.46	166.18
395.65	187.24
395.84	152.13
396.04	184.90
396.23	205.97
396.42	112.35
396.62	135.75
396.81	119.37
397.00	149.79
397.19	234.05
397.39	135.75
397.58	177.88
397.77	110.01
397.97	161.50
398.16	173.20
398.35	180.22
398.55	152.13
398.74	105.32
398.93	173.20
399.12	93.62
399.32	133.41
399.51	135.75
399.70	191.92
399.90	140.43
400.09	163.84
400.28	156.82
400.47	147.45
400.67	88.94
400.86	205.97
401.05	182.56
401.24	161.50
401.44	189.58
401.63	170.86
401.82	168.52
402.01	203.63
402.21	208.31
402.40	128.73
402.59	93.62
402.78	161.50
402.97	93.62
403.17	149.79
403.36	91.28
403.55	142.77
403.74	175.54
403.93	170.86
404.13	212.99
404.32	180.22
404.51	184.90
404.70	198.95
404.89	121.71
405.09	154.48
405.28	100.64
405.47	93.62
405.66	187.24
405.85	184.90
406.05	205.97
406.24	140.43
406.43	175.54
406.62	140.43
406.81	187.24
407.00	194.26
407.20	194.26
407.39	159.16
407.58	208.31
407.77	102.98
407.96	175.54
408.15	131.07
408.34	133.41
408.54	205.97
408.73	191.92
408.92	140.43
409.11	184.90
409.30	180.22
409.49	124.05
409.68	121.71
409.87	243.42
410.07	128.73
410.26	154.48
410.45	114.69
410.64	217.67
410.83	212.99
411.02	222.35
411.21	182.56
411.40	234.05
411.59	173.20
411.78	140.43
411.98	215.33
412.17	255.12
412.36	203.63
412.55	124.05
412.74	175.54
412.93	250.44
413.12	138.09
413.31	152.13
413.50	135.75
413.69	119.37
413.88	138.09
414.07	88.94
414.26	91.28
414.45	191.92
414.64	201.29
414.83	170.86
415.02	128.73
415.22	163.84
415.41	159.16
415.60	145.11
415.79	112.35
415.98	128.73
416.17	161.50
416.36	191.92
416.55	189.58
416.74	210.65
416.93	205.97
417.12	128.73
417.31	177.88
417.50	227.03
417.69	241.08
417.88	184.90
418.07	114.69
418.26	170.86
418.45	112.35
418.64	177.88
418.83	208.31
419.02	177.88
419.21	161.50
419.39	133.41
419.58	180.22
419.77	147.45
419.96	290.23
420.15	180.22
420.34	180.22
420.53	227.03
420.72	161.50
420.91	222.35
421.10	191.92
421.29	152.13
421.48	161.50
421.67	236.39
421.86	180.22
422.05	194.26
422.24	140.43
422.43	210.65
422.61	117.03
422.80	117.03
422.99	182.56
423.18	227.03
423.37	175.54
423.56	159.16
423.75	201.29
423.94	222.35
424.13	166.18
424.32	175.54
424.50	184.90
424.69	180.22
424.88	217.67
425.07	142.77
425.26	163.84
425.45	152.13
425.64	166.18
425.83	86.60
426.01	140.43
426.20	170.86
426.39	105.32
426.58	170.86
426.77	163.84
426.96	231.71
427.15	210.65
427.33	128.73
427.52	201.29
427.71	229.37
427.90	180.22
428.09	201.29
428.28	114.69
428.46	156.82
428.65	121.71
428.84	191.92
429.03	184.90
429.22	110.01
429.40	166.18
429.59	234.05
429.78	187.24
429.97	128.73
430.16	133.41
430.34	140.43
430.53	210.65
430.72	131.07
430.91	205.97
431.10	168.52
431.28	201.29
431.47	187.24
431.66	182.56
431.85	217.67
432.03	168.52
432.22	259.80
432.41	182.56
432.60	224.69
432.79	229.37
432.97	222.35
433.16	208.31
433.35	182.56
433.54	126.39
433.72	140.43
433.91	170.86
434.10	149.79
434.28	264.48
434.47	166.18
434.66	189.58
434.85	168.52
435.03	299.59
435.22	250.44
435.41	444.70
435.59	395.55
435.78	266.82
435.97	198.95
436.16	196.60
436.34	198.95
436.53	159.16
436.72	259.80
436.90	243.42
437.09	121.71
437.28	168.52
437.46	86.60
437.65	147.45
437.84	215.33
438.02	133.41
438.21	93.62
438.40	182.56
438.58	166.18
438.77	161.50
438.96	180.22
439.14	117.03
439.33	217.67
439.52	173.20
439.70	105.32
439.89	203.63
440.08	124.05
440.26	175.54
440.45	182.56
440.63	166.18
440.82	159.16
441.01	168.52
441.19	159.16
441.38	173.20
441.57	147.45
441.75	208.31
441.94	229.37
442.12	196.60
442.31	173.20
442.50	191.92
442.68	210.65
442.87	196.60
443.05	194.26
443.24	236.39
443.43	205.97
443.61	203.63
443.80	117.03
443.98	217.67
444.17	273.84
444.35	159.16
444.54	166.18
444.73	175.54
444.91	215.33
445.10	173.20
445.28	149.79
445.47	191.92
445.65	184.90
445.84	161.50
446.02	168.52
446.21	198.95
446.39	224.69
446.58	224.69
446.77	182.56
446.95	205.97
447.14	205.97
447.32	187.24
447.51	152.13
447.69	187.24
447.88	107.66
448.06	212.99
448.25	126.39
448.43	102.98
448.62	114.69
448.80	198.95
448.99	110.01
449.17	152.13
449.36	138.09
449.54	145.11
449.73	182.56
449.91	217.67
450.10	187.24
450.28	224.69
450.46	198.95
450.65	184.90
450.83	105.32
451.02	196.60
451.20	198.95
451.39	234.05
451.57	175.54
451.76	154.48
451.94	152.13
452.13	212.99
452.31	152.13
452.49	161.50
452.68	166.18
452.86	107.66
453.05	241.08
453.23	227.03
453.42	210.65
453.60	210.65
453.78	105.32
453.97	117.03
454.15	205.97
454.34	145.11
454.52	205.97
454.70	238.73
454.89	201.29
455.07	224.69
455.26	203.63
455.44	198.95
455.62	184.90
455.81	222.35
455.99	189.58
456.17	208.31
456.36	198.95
456.54	198.95
456.73	175.54
456.91	180.22
457.09	222.35
457.28	234.05
457.46	241.08
457.64	187.24
457.83	156.82
458.01	182.56
458.19	220.01
458.38	117.03
458.56	177.88
458.74	145.11
458.93	187.24
459.11	140.43
459.29	110.01
459.48	184.90
459.66	220.01
459.84	175.54
460.03	210.65
460.21	231.71
460.39	201.29
460.57	236.39
460.76	173.20
460.94	196.60
461.12	194.26
461.31	175.54
461.49	201.29
461.67	177.88
461.85	231.71
462.04	201.29
462.22	627.26
462.40	276.18
462.59	257.46
462.77	145.11
462.95	231.71
463.13	210.65
463.32	180.22
463.50	203.63
463.68	278.52
463.86	201.29
464.05	156.82
464.23	248.10
464.41	210.65
464.59	145.11
464.78	182.56
464.96	189.58
465.14	222.35
465.32	142.77
465.50	187.24
465.69	210.65
465.87	168.52
466.05	196.60
466.23	147.45
466.41	241.08
466.60	189.58
466.78	248.10
466.96	278.52
467.14	203.63
467.32	187.24
467.51	177.88
467.69	154.48
467.87	203.63
468.05	124.05
468.23	180.22
468.41	198.95
468.60	170.86
468.78	177.88
468.96	126.39
469.14	187.24
469.32	131.07
469.50	212.99
469.69	187.24
469.87	138.09
470.05	234.05
470.23	212.99
470.41	128.73
470.59	203.63
470.77	191.92
470.95	182.56
471.14	159.16
471.32	145.11
471.50	287.89
471.68	255.12
471.86	203.63
472.04	203.63
472.22	128.73
472.40	147.45
472.58	208.31
472.77	161.50
472.95	159.16
473.13	210.65
473.31	227.03
473.49	173.20
473.67	210.65
473.85	198.95
474.03	252.78
474.21	203.63
474.39	278.52
474.57	189.58
474.75	222.35
474.93	126.39
475.12	229.37
475.30	177.88
475.48	238.73
475.66	212.99
475.84	142.77
476.02	227.03
476.20	170.86
476.38	217.67
476.56	212.99
476.74	266.82
476.92	264.48
477.10	142.77
477.28	215.33
477.46	177.88
477.64	177.88
477.82	145.11
478.00	163.84
478.18	175.54
478.36	189.58
478.54	245.76
478.72	124.05
478.90	255.12
479.08	205.97
479.26	217.67
479.44	208.31
479.62	189.58
479.80	138.09
479.98	161.50
480.16	180.22
480.34	217.67
480.52	243.42
480.70	227.03
480.88	217.67
481.06	208.31
481.24	215.33
481.41	220.01
481.59	238.73
481.77	196.60
481.95	208.31
482.13	273.84
482.31	278.52
482.49	184.90
482.67	203.63
482.85	196.60
483.03	205.97
483.21	252.78
483.39	269.16
483.57	184.90
483.74	285.55
483.92	149.79
484.10	170.86
484.28	234.05
484.46	269.16
484.64	196.60
484.82	271.50
485.00	227.03
485.18	248.10
485.35	131.07
485.53	234.05
485.71	285.55
485.89	205.97
486.07	215.33
486.25	330.02
486.43	227.03
486.61	191.92
486.78	189.58
486.96	191.92
487.14	252.78
487.32	194.26
487.50	229.37
487.68	243.42
487.85	231.71
488.03	180.22
488.21	252.78
488.39	257.46
488.57	264.48
488.75	280.86
488.92	470.45
489.10	224.69
489.28	337.04
489.46	203.63
489.64	215.33
489.81	205.97
489.99	243.42
490.17	210.65
490.35	271.50
490.53	189.58
490.70	212.99
490.88	238.73
491.06	182.56
491.24	276.18
491.41	220.01
491.59	304.27
491.77	203.63
491.95	278.52
492.13	194.26
492.30	201.29
492.48	229.37
492.66	276.18
492.84	308.95
493.01	210.65
493.19	182.56
493.37	189.58
493.54	236.39
493.72	346.40
493.90	215.33
494.08	250.44
494.25	252.78
494.43	273.84
494.61	220.01
494.79	227.03
494.96	159.16
495.14	234.05
495.32	236.39
495.49	266.82
495.67	280.86
495.85	238.73
496.02	173.20
496.20	276.18
496.38	320.65
496.55	257.46
496.73	306.61
496.91	311.29
497.09	191.92
497.26	241.08
497.44	241.08
497.62	266.82
497.79	283.20
497.97	287.89
498.14	280.86
498.32	320.65
498.50	212.99
498.67	229.37
498.85	161.50
499.03	339.38
499.20	278.52
499.38	198.95
499.56	168.52
499.73	297.25
499.91	257.46
500.08	234.05
500.26	163.84
500.44	220.01
500.61	212.99
500.79	154.48
500.97	285.55
501.14	278.52
501.32	220.01
501.49	273.84
501.67	210.65
501.84	217.67
502.02	229.37
502.20	257.46
502.37	224.69
502.55	229.37
502.72	236.39
502.90	250.44
503.07	222.35
503.25	234.05
503.43	166.18
503.60	184.90
503.78	205.97
503.95	229.37
504.13	224.69
504.30	285.55
504.48	262.14
504.65	231.71
504.83	250.44
505.01	241.08
505.18	248.10
505.36	250.44
505.53	220.01
505.71	271.50
505.88	322.99
506.06	269.16
506.23	252.78
506.41	222.35
506.58	222.35
506.76	276.18
506.93	252.78
507.11	243.42
507.28	234.05
507.46	212.99
507.63	297.25
507.81	224.69
507.98	217.67
508.16	236.39
508.33	173.20
508.50	241.08
508.68	248.10
508.85	273.84
509.03	210.65
509.20	220.01
509.38	248.10
509.55	269.16
509.73	306.61
509.90	257.46
510.08	257.46
510.25	250.44
510.42	243.42
510.60	299.59
510.77	259.80
510.95	264.48
511.12	259.80
511.30	255.12
511.47	266.82
511.64	177.88
511.82	215.33
511.99	299.59
512.17	175.54
512.34	194.26
512.51	259.80
512.69	231.71
512.86	252.78
513.04	283.20
513.21	252.78
513.38	194.26
513.56	250.44
513.73	238.73
513.90	252.78
514.08	208.31
514.25	259.80
514.43	259.80
514.60	224.69
514.77	283.20
514.95	203.63
515.12	234.05
515.29	262.14
515.47	262.14
515.64	248.10
515.81	236.39
515.99	269.16
516.16	238.73
516.33	287.89
516.51	229.37
516.68	227.03
516.85	248.10
517.03	203.63
517.20	266.82
517.37	241.08
517.54	236.39
517.72	297.25
517.89	236.39
518.06	241.08
518.24	360.44
518.41	332.36
518.58	245.76
518.75	227.03
518.93	238.73
519.10	245.76
519.27	271.50
519.45	241.08
519.62	238.73
519.79	241.08
519.96	264.48
520.14	257.46
520.31	276.18
520.48	294.91
520.65	273.84
520.83	327.68
521.00	229.37
521.17	304.27
521.34	287.89
521.52	250.44
521.69	278.52
521.86	243.42
522.03	255.12
522.20	292.57
522.38	241.08
522.55	220.01
522.72	208.31
522.89	248.10
523.07	252.78
523.24	259.80
523.41	287.89
523.58	222.35
523.75	248.10
523.92	271.50
524.10	308.95
524.27	212.99
524.44	210.65
524.61	252.78
524.78	238.73
524.96	325.33
525.13	212.99
525.30	203.63
525.47	337.04
525.64	262.14
525.81	269.16
525.98	292.57
526.16	287.89
526.33	271.50
526.50	248.10
526.67	212.99
526.84	241.08
527.01	210.65
527.18	248.10
527.36	278.52
527.53	236.39
527.70	283.20
527.87	313.63
528.04	362.78
528.21	273.84
528.38	287.89
528.55	269.16
528.72	304.27
528.89	341.72
529.07	217.67
529.24	262.14
529.41	355.76
529.58	245.76
529.75	238.73
529.92	229.37
530.09	231.71
530.26	280.86
530.43	348.74
530.60	259.80
530.77	266.82
530.94	304.27
531.11	287.89
531.28	299.59
531.46	266.82
531.63	259.80
531.80	227.03
531.97	299.59
532.14	285.55
532.31	273.84
532.48	276.18
532.65	250.44
532.82	168.52
532.99	280.86
533.16	287.89
533.33	238.73
533.50	315.97
533.67	353.42
533.84	290.23
534.01	250.44
534.18	294.91
534.35	273.84
534.52	266.82
534.69	238.73
534.86	205.97
535.03	220.01
535.20	236.39
535.37	290.23
535.54	283.20
535.71	243.42
535.88	308.95
536.05	250.44
536.22	283.20
536.38	215.33
536.55	280.86
536.72	266.82
536.89	299.59
537.06	243.42
537.23	339.38
537.40	271.50
537.57	243.42
537.74	290.23
537.91	285.55
538.08	276.18
538.25	290.23
538.42	290.23
538.59	229.37
538.75	280.86
538.92	322.99
539.09	409.59
539.26	264.48
539.43	372.15
539.60	447.04
539.77	418.96
539.94	402.57
540.11	404.91
540.28	330.02
540.44	395.55
540.61	411.93
540.78	369.80
540.95	397.89
541.12	472.79
541.29	456.40
541.46	557.05
541.62	479.81
541.79	449.38
541.96	437.68
542.13	425.98
542.30	395.55
542.47	416.62
542.63	444.70
542.80	395.55
542.97	379.17
543.14	369.80
543.31	433.00
543.48	374.49
543.64	477.47
543.81	351.08
543.98	400.23
544.15	435.34
544.32	444.70
544.48	379.17
544.65	400.23
544.82	428.32
544.99	374.49
545.16	475.13
545.32	416.62
545.49	655.35
545.66	784.08
545.83	793.44
546.00	737.27
546.16	582.79
546.33	383.85
546.50	461.09
546.67	484.49
546.83	425.98
547.00	374.49
547.17	407.25
547.34	351.08
547.50	423.64
547.67	334.70
547.84	332.36
548.00	351.08
548.17	318.31
548.34	318.31
548.51	320.65
548.67	388.53
548.84	404.91
549.01	250.44
549.18	304.27
549.34	355.76
549.51	308.95
549.68	407.25
549.84	353.42
550.01	341.72
550.18	369.80
550.34	376.83
550.51	250.44
550.68	390.87
550.84	278.52
551.01	271.50
551.18	332.36
551.34	306.61
551.51	322.99
551.68	241.08
551.84	365.12
552.01	315.97
552.18	250.44
552.34	262.14
552.51	241.08
552.68	308.95
552.84	311.29
553.01	280.86
553.18	318.31
553.34	355.76
553.51	287.89
553.67	285.55
553.84	273.84
554.01	283.20
554.17	318.31
554.34	257.46
554.51	280.86
554.67	283.20
554.84	266.82
555.00	313.63
555.17	257.46
555.33	322.99
555.50	245.76
555.67	266.82
555.83	229.37
556.00	170.86
556.16	447.04
556.33	299.59
556.50	283.20
556.66	278.52
556.83	252.78
556.99	231.71
557.16	189.58
557.32	236.39
557.49	252.78
557.65	222.35
557.82	212.99
557.98	210.65
558.15	241.08
558.32	252.78
558.48	184.90
558.65	294.91
558.81	283.20
558.98	262.14
559.14	287.89
559.31	271.50
559.47	243.42
559.64	238.73
559.80	344.06
559.97	278.52
560.13	292.57
560.30	245.76
560.46	224.69
560.63	210.65
560.79	229.37
560.96	276.18
561.12	257.46
561.29	301.93
561.45	173.20
561.61	280.86
561.78	325.33
561.94	231.71
562.11	234.05
562.27	283.20
562.44	236.39
562.60	271.50
562.77	220.01
562.93	238.73
563.10	252.78
563.26	201.29
563.42	299.59
563.59	222.35
563.75	271.50
563.92	266.82
564.08	313.63
564.24	255.12
564.41	290.23
564.57	198.95
564.74	294.91
564.90	273.84
565.07	238.73
565.23	273.84
565.39	196.60
565.56	264.48
565.72	189.58
565.88	177.88
566.05	231.71
566.21	297.25
566.38	217.67
566.54	238.73
566.70	238.73
566.87	187.24
567.03	266.82
567.19	297.25
567.36	215.33
567.52	201.29
567.68	201.29
567.85	257.46
568.01	287.89
568.17	231.71
568.34	238.73
568.50	241.08
568.66	229.37
568.83	278.52
568.99	149.79
569.15	262.14
569.32	306.61
569.48	250.44
569.64	245.76
569.81	227.03
569.97	243.42
570.13	250.44
570.30	252.78
570.46	283.20
570.62	203.63
570.78	236.39
570.95	184.90
571.11	287.89
571.27	287.89
571.43	255.12
571.60	269.16
571.76	248.10
571.92	271.50
572.09	126.39
572.25	163.84
572.41	290.23
572.57	227.03
572.74	330.02
572.90	264.48
573.06	351.08
573.22	252.78
573.38	346.40
573.55	257.46
573.71	292.57
573.87	273.84
574.03	250.44
574.20	236.39
574.36	259.80
574.52	271.50
574.68	248.10
574.84	222.35
575.01	231.71
575.17	332.36
575.33	229.37
575.49	320.65
575.65	215.33
575.82	248.10
575.98	348.74
576.14	327.68
576.30	339.38
576.46	315.97
576.62	379.17
576.79	369.80
576.95	344.06
577.11	257.46
577.27	217.67
577.43	294.91
577.59	243.42
577.75	315.97
577.92	205.97
578.08	259.80
578.24	215.33
578.40	325.33
578.56	306.61
578.72	351.08
578.88	280.86
579.04	306.61
579.21	292.57
579.37	330.02
579.53	250.44
579.69	313.63
579.85	257.46
580.01	344.06
580.17	330.02
580.33	301.93
580.49	311.29
580.65	280.86
580.82	276.18
580.98	227.03
581.14	285.55
581.30	241.08
581.46	334.70
581.62	276.18
581.78	266.82
581.94	313.63
582.10	292.57
582.26	266.82
582.42	290.23
582.58	278.52
582.74	301.93
582.90	306.61
583.06	301.93
583.22	337.04
583.38	259.80
583.54	194.26
583.70	327.68
583.86	227.03
584.02	365.12
584.18	369.80
584.34	339.38
584.50	510.24
584.66	2464.58
584.82	4954.91
584.98	6392.00
585.14	5551.75
585.30	3599.74
585.46	2300.75
585.62	1446.45
585.78	840.25
585.94	510.24
586.10	318.31
586.26	358.10
586.42	374.49
586.58	341.72
586.74	353.42
586.90	308.95
587.06	379.17
587.22	290.23
587.38	381.51
587.54	512.58
587.70	524.28
587.86	748.97
588.02	645.99
588.18	561.73
588.34	451.72
588.49	379.17
588.65	372.15
588.81	313.63
588.97	266.82
589.13	229.37
589.29	262.14
589.45	236.39
589.61	283.20
589.77	259.80
589.93	259.80
590.08	255.12
590.24	266.82
590.40	229.37
590.56	365.12
590.72	217.67
590.88	205.97
591.04	271.50
591.20	271.50
591.35	344.06
591.51	262.14
591.67	224.69
591.83	248.10
591.99	262.14
592.15	259.80
592.31	262.14
592.46	320.65
592.62	255.12
592.78	287.89
592.94	217.67
593.10	297.25
593.26	292.57
593.41	287.89
593.57	184.90
593.73	299.59
593.89	524.28
594.05	868.34
594.20	980.68
594.36	919.83
594.52	695.14
594.68	566.41
594.84	482.15
594.99	383.85
595.15	308.95
595.31	322.99
595.47	280.86
595.62	243.42
595.78	269.16
595.94	262.14
596.10	393.21
596.25	234.05
596.41	264.48
596.57	266.82
596.73	194.26
596.88	205.97
597.04	327.68
597.20	397.89
597.36	421.30
597.51	304.27
597.67	322.99
597.83	318.31
597.99	353.42
598.14	245.76
598.30	252.78
598.46	299.59
598.61	280.86
598.77	217.67
598.93	259.80
599.09	299.59
599.24	308.95
599.40	297.25
599.56	224.69
599.71	294.91
599.87	180.22
600.03	327.68
600.18	236.39
600.34	238.73
600.50	271.50
600.65	278.52
600.81	229.37
600.97	311.29
601.12	250.44
601.28	180.22
601.44	264.48
601.59	280.86
601.75	220.01
601.91	215.33
602.06	273.84
602.22	301.93
602.37	299.59
602.53	512.58
602.69	388.53
602.84	444.70
603.00	315.97
603.16	299.59
603.31	269.16
603.47	245.76
603.62	182.56
603.78	210.65
603.94	292.57
604.09	224.69
604.25	292.57
604.40	304.27
604.56	262.14
604.71	255.12
604.87	264.48
605.03	224.69
605.18	311.29
605.34	339.38
605.49	161.50
605.65	252.78
605.80	227.03
605.96	285.55
606.12	299.59
606.27	311.29
606.43	241.08
606.58	297.25
606.74	362.78
606.89	524.28
607.05	739.61
607.20	994.73
607.36	840.25
607.51	557.05
607.67	524.28
607.82	491.51
607.98	278.52
608.13	344.06
608.29	271.50
608.44	362.78
608.60	315.97
608.75	358.10
608.91	421.30
609.06	758.33
609.22	1156.22
609.37	1373.89
609.53	1249.85
609.68	866.00
609.84	744.29
609.99	589.82
610.15	561.73
610.30	512.58
610.46	634.29
610.61	669.39
610.76	660.03
