SpectraSuite Data File
++++++++++++++++++++++++++++++++++++
Date: Fri Oct 04 11:33:47 GMT-05:00 2013
User: price-jones
Dark Spectrum Present: No
Reference Spectrum Present: No
Number of Sampled Component Spectra: 1
Spectrometers: USB2+H05261
Integration Time (usec): 100000 (USB2+H05261)
Spectra Averaged: 1 (USB2+H05261)
Boxcar Smoothing: 0 (USB2+H05261)
Correct for Electrical Dark: No (USB2+H05261)
Strobe/Lamp Enabled: No (USB2+H05261)
Correct for Detector Non-linearity: No (USB2+H05261)
Correct for Stray Light: No (USB2+H05261)
Number of Pixels in Processed Spectrum: 2048
>>>>>Begin Processed Spectral Data<<<<<
365.73	67.88
365.92	67.88
366.12	67.88
366.32	0.00
366.52	60.85
366.72	0.00
366.91	0.00
367.11	0.00
367.31	4.68
367.51	0.00
367.70	0.00
367.90	0.00
368.10	0.00
368.30	0.00
368.49	0.00
368.69	0.00
368.89	30.43
369.09	0.00
369.28	0.00
369.48	0.00
369.68	9.36
369.87	9.36
370.07	53.83
370.27	93.62
370.47	4.68
370.66	93.62
370.86	86.60
371.06	187.24
371.25	135.75
371.45	65.54
371.65	131.07
371.84	88.94
372.04	135.75
372.24	105.32
372.44	161.50
372.63	102.98
372.83	215.33
373.03	110.01
373.22	107.66
373.42	154.48
373.62	105.32
373.81	180.22
374.01	145.11
374.21	187.24
374.40	191.92
374.60	196.60
374.79	133.41
374.99	194.26
375.19	177.88
375.38	177.88
375.58	187.24
375.78	198.95
375.97	142.77
376.17	133.41
376.37	138.09
376.56	114.69
376.76	194.26
376.95	140.43
377.15	189.58
377.35	133.41
377.54	77.24
377.74	152.13
377.93	145.11
378.13	135.75
378.33	131.07
378.52	189.58
378.72	269.16
378.91	173.20
379.11	95.96
379.31	142.77
379.50	56.17
379.70	184.90
379.89	191.92
380.09	126.39
380.28	119.37
380.48	145.11
380.68	152.13
380.87	98.30
381.07	65.54
381.26	156.82
381.46	107.66
381.65	100.64
381.85	100.64
382.04	138.09
382.24	182.56
382.43	147.45
382.63	133.41
382.83	149.79
383.02	166.18
383.22	215.33
383.41	182.56
383.61	140.43
383.80	156.82
384.00	119.37
384.19	173.20
384.39	170.86
384.58	98.30
384.78	131.07
384.97	114.69
385.17	131.07
385.36	189.58
385.56	168.52
385.75	149.79
385.95	126.39
386.14	142.77
386.34	140.43
386.53	135.75
386.72	121.71
386.92	154.48
387.11	114.69
387.31	161.50
387.50	51.49
387.70	142.77
387.89	168.52
388.09	100.64
388.28	173.20
388.48	154.48
388.67	168.52
388.86	72.56
389.06	81.92
389.25	168.52
389.45	182.56
389.64	119.37
389.84	217.67
390.03	215.33
390.22	98.30
390.42	98.30
390.61	110.01
390.81	79.58
391.00	145.11
391.19	173.20
391.39	56.17
391.58	147.45
391.78	163.84
391.97	238.73
392.16	81.92
392.36	180.22
392.55	121.71
392.75	173.20
392.94	175.54
393.13	166.18
393.33	128.73
393.52	180.22
393.71	51.49
393.91	135.75
394.10	163.84
394.29	124.05
394.49	88.94
394.68	124.05
394.88	147.45
395.07	166.18
395.26	241.08
395.46	170.86
395.65	161.50
395.84	121.71
396.04	184.90
396.23	135.75
396.42	163.84
396.62	168.52
396.81	168.52
397.00	124.05
397.19	145.11
397.39	131.07
397.58	177.88
397.77	131.07
397.97	168.52
398.16	126.39
398.35	170.86
398.55	147.45
398.74	124.05
398.93	255.12
399.12	95.96
399.32	110.01
399.51	184.90
399.70	259.80
399.90	156.82
400.09	140.43
400.28	227.03
400.47	154.48
400.67	149.79
400.86	224.69
401.05	156.82
401.24	231.71
401.44	177.88
401.63	194.26
401.82	194.26
402.01	70.22
402.21	236.39
402.40	166.18
402.59	121.71
402.78	154.48
402.97	138.09
403.17	152.13
403.36	187.24
403.55	182.56
403.74	138.09
403.93	173.20
404.13	278.52
404.32	173.20
404.51	138.09
404.70	154.48
404.89	161.50
405.09	173.20
405.28	93.62
405.47	159.16
405.66	128.73
405.85	194.26
406.05	201.29
406.24	238.73
406.43	147.45
406.62	191.92
406.81	159.16
407.00	210.65
407.20	121.71
407.39	180.22
407.58	126.39
407.77	201.29
407.96	187.24
408.15	140.43
408.34	147.45
408.54	161.50
408.73	110.01
408.92	142.77
409.11	191.92
409.30	266.82
409.49	205.97
409.68	173.20
409.87	180.22
410.07	196.60
410.26	142.77
410.45	107.66
410.64	112.35
410.83	180.22
411.02	159.16
411.21	168.52
411.40	257.46
411.59	187.24
411.78	161.50
411.98	119.37
412.17	131.07
412.36	229.37
412.55	124.05
412.74	145.11
412.93	224.69
413.12	152.13
413.31	191.92
413.50	145.11
413.69	145.11
413.88	119.37
414.07	154.48
414.26	243.42
414.45	189.58
414.64	142.77
414.83	252.78
415.02	154.48
415.22	124.05
415.41	241.08
415.60	163.84
415.79	173.20
415.98	208.31
416.17	210.65
416.36	145.11
416.55	119.37
416.74	107.66
416.93	187.24
417.12	140.43
417.31	114.69
417.50	105.32
417.69	187.24
417.88	217.67
418.07	124.05
418.26	243.42
418.45	184.90
418.64	252.78
418.83	196.60
419.02	205.97
419.21	117.03
419.39	161.50
419.58	166.18
419.77	138.09
419.96	203.63
420.15	154.48
420.34	248.10
420.53	138.09
420.72	154.48
420.91	124.05
421.10	184.90
421.29	173.20
421.48	248.10
421.67	156.82
421.86	166.18
422.05	168.52
422.24	208.31
422.43	145.11
422.61	147.45
422.80	215.33
422.99	177.88
423.18	138.09
423.37	234.05
423.56	290.23
423.75	196.60
423.94	128.73
424.13	149.79
424.32	166.18
424.50	187.24
424.69	189.58
424.88	243.42
425.07	196.60
425.26	184.90
425.45	203.63
425.64	245.76
425.83	175.54
426.01	191.92
426.20	170.86
426.39	203.63
426.58	168.52
426.77	114.69
426.96	159.16
427.15	182.56
427.33	161.50
427.52	196.60
427.71	198.95
427.90	196.60
428.09	128.73
428.28	133.41
428.46	217.67
428.65	229.37
428.84	250.44
429.03	194.26
429.22	131.07
429.40	131.07
429.59	196.60
429.78	229.37
429.97	159.16
430.16	191.92
430.34	184.90
430.53	133.41
430.72	124.05
430.91	142.77
431.10	173.20
431.28	126.39
431.47	180.22
431.66	212.99
431.85	196.60
432.03	177.88
432.22	156.82
432.41	168.52
432.60	168.52
432.79	173.20
432.97	229.37
433.16	201.29
433.35	212.99
433.54	203.63
433.72	259.80
433.91	220.01
434.10	212.99
434.28	198.95
434.47	234.05
434.66	173.20
434.85	177.88
435.03	271.50
435.22	318.31
435.41	435.34
435.59	428.32
435.78	346.40
435.97	217.67
436.16	236.39
436.34	194.26
436.53	159.16
436.72	163.84
436.90	229.37
437.09	168.52
437.28	173.20
437.46	175.54
437.65	250.44
437.84	198.95
438.02	205.97
438.21	220.01
438.40	212.99
438.58	128.73
438.77	205.97
438.96	180.22
439.14	220.01
439.33	201.29
439.52	208.31
439.70	170.86
439.89	168.52
440.08	159.16
440.26	175.54
440.45	259.80
440.63	191.92
440.82	149.79
441.01	212.99
441.19	205.97
441.38	173.20
441.57	163.84
441.75	161.50
441.94	154.48
442.12	154.48
442.31	145.11
442.50	138.09
442.68	194.26
442.87	154.48
443.05	203.63
443.24	159.16
443.43	224.69
443.61	170.86
443.80	182.56
443.98	210.65
444.17	166.18
444.35	140.43
444.54	231.71
444.73	236.39
444.91	180.22
445.10	191.92
445.28	215.33
445.47	255.12
445.65	175.54
445.84	201.29
446.02	180.22
446.21	138.09
446.39	131.07
446.58	227.03
446.77	220.01
446.95	222.35
447.14	189.58
447.32	280.86
447.51	140.43
447.69	210.65
447.88	203.63
448.06	271.50
448.25	264.48
448.43	229.37
448.62	175.54
448.80	196.60
448.99	205.97
449.17	154.48
449.36	175.54
449.54	248.10
449.73	231.71
449.91	205.97
450.10	201.29
450.28	259.80
450.46	205.97
450.65	126.39
450.83	205.97
451.02	177.88
451.20	220.01
451.39	168.52
451.57	212.99
451.76	245.76
451.94	224.69
452.13	175.54
452.31	287.89
452.49	173.20
452.68	149.79
452.86	198.95
453.05	264.48
453.23	175.54
453.42	201.29
453.60	133.41
453.78	187.24
453.97	187.24
454.15	84.26
454.34	227.03
454.52	191.92
454.70	276.18
454.89	189.58
455.07	252.78
455.26	229.37
455.44	203.63
455.62	180.22
455.81	191.92
455.99	156.82
456.17	194.26
456.36	248.10
456.54	187.24
456.73	205.97
456.91	131.07
457.09	269.16
457.28	217.67
457.46	184.90
457.64	252.78
457.83	266.82
458.01	154.48
458.19	205.97
458.38	166.18
458.56	229.37
458.74	229.37
458.93	198.95
459.11	205.97
459.29	145.11
459.48	147.45
459.66	217.67
459.84	248.10
460.03	231.71
460.21	276.18
460.39	166.18
460.57	175.54
460.76	147.45
460.94	175.54
461.12	287.89
461.31	262.14
461.49	175.54
461.67	224.69
461.85	234.05
462.04	222.35
462.22	643.65
462.40	236.39
462.59	180.22
462.77	170.86
462.95	194.26
463.13	175.54
463.32	227.03
463.50	245.76
463.68	189.58
463.86	191.92
464.05	149.79
464.23	250.44
464.41	222.35
464.59	234.05
464.78	205.97
464.96	149.79
465.14	170.86
465.32	245.76
465.50	236.39
465.69	215.33
465.87	177.88
466.05	262.14
466.23	154.48
466.41	257.46
466.60	236.39
466.78	196.60
466.96	205.97
467.14	210.65
467.32	170.86
467.51	140.43
467.69	212.99
467.87	290.23
468.05	210.65
468.23	189.58
468.41	262.14
468.60	248.10
468.78	175.54
468.96	212.99
469.14	236.39
469.32	180.22
469.50	196.60
469.69	180.22
469.87	215.33
470.05	278.52
470.23	163.84
470.41	161.50
470.59	175.54
470.77	154.48
470.95	152.13
471.14	234.05
471.32	245.76
471.50	159.16
471.68	257.46
471.86	241.08
472.04	184.90
472.22	243.42
472.40	182.56
472.58	184.90
472.77	208.31
472.95	215.33
473.13	243.42
473.31	152.13
473.49	133.41
473.67	191.92
473.85	205.97
474.03	227.03
474.21	182.56
474.39	241.08
474.57	220.01
474.75	241.08
474.93	250.44
475.12	234.05
475.30	201.29
475.48	238.73
475.66	227.03
475.84	250.44
476.02	189.58
476.20	252.78
476.38	198.95
476.56	325.33
476.74	222.35
476.92	245.76
477.10	163.84
477.28	187.24
477.46	170.86
477.64	166.18
477.82	208.31
478.00	138.09
478.18	177.88
478.36	222.35
478.54	180.22
478.72	248.10
478.90	194.26
479.08	243.42
479.26	241.08
479.44	238.73
479.62	262.14
479.80	142.77
479.98	210.65
480.16	252.78
480.34	224.69
480.52	269.16
480.70	252.78
480.88	189.58
481.06	257.46
481.24	234.05
481.41	238.73
481.59	243.42
481.77	236.39
481.95	191.92
482.13	273.84
482.31	201.29
482.49	257.46
482.67	208.31
482.85	259.80
483.03	250.44
483.21	245.76
483.39	241.08
483.57	173.20
483.74	304.27
483.92	182.56
484.10	208.31
484.28	168.52
484.46	259.80
484.64	245.76
484.82	205.97
485.00	243.42
485.18	212.99
485.35	278.52
485.53	205.97
485.71	252.78
485.89	177.88
486.07	292.57
486.25	341.72
486.43	252.78
486.61	297.25
486.78	292.57
486.96	201.29
487.14	215.33
487.32	203.63
487.50	287.89
487.68	271.50
487.85	234.05
488.03	322.99
488.21	299.59
488.39	301.93
488.57	259.80
488.75	231.71
488.92	472.79
489.10	198.95
489.28	269.16
489.46	252.78
489.64	189.58
489.81	250.44
489.99	238.73
490.17	276.18
490.35	257.46
490.53	243.42
490.70	304.27
490.88	285.55
491.06	290.23
491.24	358.10
491.41	252.78
491.59	313.63
491.77	236.39
491.95	264.48
492.13	241.08
492.30	290.23
492.48	234.05
492.66	278.52
492.84	264.48
493.01	215.33
493.19	212.99
493.37	294.91
493.54	299.59
493.72	264.48
493.90	299.59
494.08	248.10
494.25	304.27
494.43	259.80
494.61	259.80
494.79	250.44
494.96	308.95
495.14	358.10
495.32	285.55
495.49	269.16
495.67	297.25
495.85	264.48
496.02	259.80
496.20	287.89
496.38	313.63
496.55	278.52
496.73	308.95
496.91	224.69
497.09	315.97
497.26	266.82
497.44	266.82
497.62	210.65
497.79	264.48
497.97	266.82
498.14	236.39
498.32	285.55
498.50	266.82
498.67	292.57
498.85	294.91
499.03	248.10
499.20	222.35
499.38	346.40
499.56	269.16
499.73	358.10
499.91	273.84
500.08	252.78
500.26	334.70
500.44	325.33
500.61	273.84
500.79	255.12
500.97	229.37
501.14	304.27
501.32	236.39
501.49	341.72
501.67	234.05
501.84	257.46
502.02	205.97
502.20	325.33
502.37	231.71
502.55	259.80
502.72	322.99
502.90	276.18
503.07	299.59
503.25	304.27
503.43	283.20
503.60	227.03
503.78	278.52
503.95	269.16
504.13	198.95
504.30	276.18
504.48	273.84
504.65	243.42
504.83	294.91
505.01	245.76
505.18	259.80
505.36	222.35
505.53	273.84
505.71	252.78
505.88	315.97
506.06	273.84
506.23	311.29
506.41	297.25
506.58	210.65
506.76	234.05
506.93	266.82
507.11	229.37
507.28	238.73
507.46	255.12
507.63	259.80
507.81	224.69
507.98	248.10
508.16	243.42
508.33	248.10
508.50	290.23
508.68	259.80
508.85	337.04
509.03	241.08
509.20	290.23
509.38	313.63
509.55	269.16
509.73	283.20
509.90	271.50
510.08	236.39
510.25	285.55
510.42	196.60
510.60	287.89
510.77	285.55
510.95	271.50
511.12	273.84
511.30	280.86
511.47	278.52
511.64	311.29
511.82	285.55
511.99	276.18
512.17	287.89
512.34	224.69
512.51	266.82
512.69	212.99
512.86	227.03
513.04	266.82
513.21	334.70
513.38	266.82
513.56	271.50
513.73	245.76
513.90	283.20
514.08	238.73
514.25	299.59
514.43	299.59
514.60	280.86
514.77	337.04
514.95	301.93
515.12	266.82
515.29	255.12
515.47	266.82
515.64	386.19
515.81	285.55
515.99	276.18
516.16	287.89
516.33	318.31
516.51	234.05
516.68	304.27
516.85	259.80
517.03	217.67
517.20	241.08
517.37	222.35
517.54	297.25
517.72	245.76
517.89	290.23
518.06	250.44
518.24	346.40
518.41	292.57
518.58	330.02
518.75	339.38
518.93	325.33
519.10	308.95
519.27	245.76
519.45	278.52
519.62	271.50
519.79	241.08
519.96	262.14
520.14	280.86
520.31	187.24
520.48	290.23
520.65	287.89
520.83	259.80
521.00	318.31
521.17	222.35
521.34	245.76
521.52	266.82
521.69	285.55
521.86	269.16
522.03	355.76
522.20	292.57
522.38	271.50
522.55	273.84
522.72	248.10
522.89	266.82
523.07	231.71
523.24	238.73
523.41	311.29
523.58	304.27
523.75	262.14
523.92	299.59
524.10	248.10
524.27	294.91
524.44	252.78
524.61	220.01
524.78	215.33
524.96	252.78
525.13	322.99
525.30	325.33
525.47	339.38
525.64	315.97
525.81	212.99
525.98	285.55
526.16	276.18
526.33	252.78
526.50	292.57
526.67	271.50
526.84	243.42
527.01	252.78
527.18	318.31
527.36	351.08
527.53	299.59
527.70	332.36
527.87	308.95
528.04	290.23
528.21	320.65
528.38	318.31
528.55	390.87
528.72	304.27
528.89	318.31
529.07	397.89
529.24	332.36
529.41	332.36
529.58	318.31
529.75	334.70
529.92	322.99
530.09	346.40
530.26	299.59
530.43	266.82
530.60	259.80
530.77	395.55
530.94	365.12
531.11	278.52
531.28	306.61
531.46	372.15
531.63	229.37
531.80	315.97
531.97	290.23
532.14	301.93
532.31	255.12
532.48	344.06
532.65	259.80
532.82	297.25
532.99	276.18
533.16	276.18
533.33	353.42
533.50	271.50
533.67	292.57
533.84	290.23
534.01	388.53
534.18	297.25
534.35	287.89
534.52	306.61
534.69	353.42
534.86	212.99
535.03	337.04
535.20	372.15
535.37	299.59
535.54	318.31
535.71	290.23
535.88	337.04
536.05	280.86
536.22	344.06
536.38	304.27
536.55	297.25
536.72	301.93
536.89	238.73
537.06	297.25
537.23	346.40
537.40	327.68
537.57	400.23
537.74	430.66
537.91	264.48
538.08	407.25
538.25	362.78
538.42	297.25
538.59	304.27
538.75	332.36
538.92	330.02
539.09	337.04
539.26	308.95
539.43	447.04
539.60	411.93
539.77	550.03
539.94	484.49
540.11	552.37
540.28	418.96
540.44	486.83
540.61	358.10
540.78	486.83
540.95	472.79
541.12	636.63
541.29	524.28
541.46	622.58
541.62	622.58
541.79	545.34
541.96	543.00
542.13	526.62
542.30	559.39
542.47	589.82
542.63	498.53
542.80	430.66
542.97	552.37
543.14	557.05
543.31	498.53
543.48	463.43
543.64	641.31
543.81	561.73
543.98	444.70
544.15	463.43
544.32	507.90
544.48	493.85
544.65	531.30
544.82	531.30
544.99	477.47
545.16	554.71
545.32	589.82
545.49	847.27
545.66	1004.09
545.83	1055.58
546.00	887.06
546.16	748.97
546.33	638.97
546.50	528.96
546.67	538.32
546.83	388.53
547.00	477.47
547.17	402.57
547.34	344.06
547.50	468.11
547.67	461.09
547.84	444.70
548.00	376.83
548.17	470.45
548.34	390.87
548.51	510.24
548.67	451.72
548.84	393.21
549.01	376.83
549.18	341.72
549.34	416.62
549.51	463.43
549.68	390.87
549.84	365.12
550.01	325.33
550.18	421.30
550.34	491.51
550.51	311.29
550.68	386.19
550.84	308.95
551.01	409.59
551.18	404.91
551.34	287.89
551.51	341.72
551.68	351.08
551.84	372.15
552.01	369.80
552.18	308.95
552.34	266.82
552.51	325.33
552.68	327.68
552.84	386.19
553.01	327.68
553.18	322.99
553.34	297.25
553.51	283.20
553.67	280.86
553.84	430.66
554.01	313.63
554.17	278.52
554.34	248.10
554.51	306.61
554.67	276.18
554.84	248.10
555.00	271.50
555.17	337.04
555.33	269.16
555.50	308.95
555.67	320.65
555.83	304.27
556.00	294.91
556.16	360.44
556.33	306.61
556.50	231.71
556.66	241.08
556.83	266.82
556.99	313.63
557.16	194.26
557.32	290.23
557.49	259.80
557.65	238.73
557.82	278.52
557.98	304.27
558.15	318.31
558.32	348.74
558.48	280.86
558.65	318.31
558.81	285.55
558.98	325.33
559.14	334.70
559.31	245.76
559.47	231.71
559.64	278.52
559.80	299.59
559.97	292.57
560.13	257.46
560.30	287.89
560.46	224.69
560.63	243.42
560.79	297.25
560.96	252.78
561.12	353.42
561.29	234.05
561.45	290.23
561.61	292.57
561.78	390.87
561.94	318.31
562.11	227.03
562.27	322.99
562.44	278.52
562.60	220.01
562.77	201.29
562.93	315.97
563.10	325.33
563.26	313.63
563.42	337.04
563.59	306.61
563.75	259.80
563.92	252.78
564.08	252.78
564.24	287.89
564.41	334.70
564.57	259.80
564.74	273.84
564.90	287.89
565.07	243.42
565.23	250.44
565.39	217.67
565.56	346.40
565.72	264.48
565.88	283.20
566.05	245.76
566.21	325.33
566.38	184.90
566.54	290.23
566.70	285.55
566.87	292.57
567.03	248.10
567.19	337.04
567.36	250.44
567.52	327.68
567.68	266.82
567.85	397.89
568.01	234.05
568.17	273.84
568.34	280.86
568.50	313.63
568.66	220.01
568.83	388.53
568.99	262.14
569.15	358.10
569.32	278.52
569.48	273.84
569.64	175.54
569.81	241.08
569.97	236.39
570.13	280.86
570.30	250.44
570.46	271.50
570.62	257.46
570.78	217.67
570.95	250.44
571.11	348.74
571.27	306.61
571.43	266.82
571.60	348.74
571.76	271.50
571.92	241.08
572.09	264.48
572.25	257.46
572.41	273.84
572.57	320.65
572.74	369.80
572.90	304.27
573.06	266.82
573.22	313.63
573.38	311.29
573.55	245.76
573.71	285.55
573.87	306.61
574.03	264.48
574.20	212.99
574.36	386.19
574.52	341.72
574.68	280.86
574.84	238.73
575.01	306.61
575.17	285.55
575.33	344.06
575.49	280.86
575.65	351.08
575.82	280.86
575.98	306.61
576.14	332.36
576.30	327.68
576.46	390.87
576.62	402.57
576.79	482.15
576.95	402.57
577.11	315.97
577.27	299.59
577.43	280.86
577.59	351.08
577.75	358.10
577.92	210.65
578.08	208.31
578.24	255.12
578.40	304.27
578.56	376.83
578.72	414.27
578.88	381.51
579.04	306.61
579.21	374.49
579.37	271.50
579.53	311.29
579.69	416.62
579.85	283.20
580.01	358.10
580.17	355.76
580.33	292.57
580.49	325.33
580.65	341.72
580.82	315.97
580.98	280.86
581.14	224.69
581.30	362.78
581.46	388.53
581.62	339.38
581.78	367.46
581.94	353.42
582.10	304.27
582.26	369.80
582.42	369.80
582.58	395.55
582.74	367.46
582.90	301.93
583.06	390.87
583.22	360.44
583.38	294.91
583.54	292.57
583.70	386.19
583.86	393.21
584.02	367.46
584.18	367.46
584.34	383.85
584.50	564.07
584.66	2038.61
584.82	5036.83
584.98	7197.15
585.14	6722.02
585.30	4231.69
585.46	2717.36
585.62	1760.08
585.78	985.37
585.94	636.63
586.10	449.38
586.26	433.00
586.42	416.62
586.58	332.36
586.74	433.00
586.90	402.57
587.06	425.98
587.22	393.21
587.38	430.66
587.54	496.19
587.70	638.97
587.86	767.70
588.02	784.08
588.18	669.39
588.34	531.30
588.49	383.85
588.65	372.15
588.81	285.55
588.97	205.97
589.13	400.23
589.29	299.59
589.45	330.02
589.61	248.10
589.77	381.51
589.93	238.73
590.08	322.99
590.24	313.63
590.40	334.70
590.56	330.02
590.72	337.04
590.88	311.29
591.04	341.72
591.20	262.14
591.35	271.50
591.51	332.36
591.67	320.65
591.83	255.12
591.99	327.68
592.15	322.99
592.31	278.52
592.46	266.82
592.62	325.33
592.78	285.55
592.94	381.51
593.10	301.93
593.26	306.61
593.41	344.06
593.57	337.04
593.73	367.46
593.89	552.37
594.05	854.30
594.20	1137.50
594.36	1142.18
594.52	767.70
594.68	627.26
594.84	507.90
594.99	463.43
595.15	372.15
595.31	276.18
595.47	386.19
595.62	320.65
595.78	290.23
595.94	311.29
596.10	313.63
596.25	330.02
596.41	271.50
596.57	271.50
596.73	257.46
596.88	297.25
597.04	386.19
597.20	496.19
597.36	498.53
597.51	425.98
597.67	348.74
597.83	383.85
597.99	297.25
598.14	313.63
598.30	346.40
598.46	301.93
598.61	327.68
598.77	351.08
598.93	395.55
599.09	243.42
599.24	330.02
599.40	337.04
599.56	255.12
599.71	332.36
599.87	294.91
600.03	320.65
600.18	351.08
600.34	355.76
600.50	259.80
600.65	250.44
600.81	285.55
600.97	259.80
601.12	248.10
601.28	297.25
601.44	353.42
601.59	320.65
601.75	292.57
601.91	264.48
602.06	297.25
602.22	346.40
602.37	273.84
602.53	372.15
602.69	535.98
602.84	493.85
603.00	421.30
603.16	390.87
603.31	339.38
603.47	290.23
603.62	215.33
603.78	374.49
603.94	266.82
604.09	332.36
604.25	306.61
604.40	276.18
604.56	325.33
604.71	262.14
604.87	278.52
605.03	248.10
605.18	285.55
605.34	376.83
605.49	252.78
605.65	306.61
605.80	276.18
605.96	264.48
606.12	320.65
606.27	266.82
606.43	266.82
606.58	332.36
606.74	315.97
606.89	524.28
607.05	877.70
607.20	1069.62
607.36	922.17
607.51	767.70
607.67	622.58
607.82	442.36
607.98	482.15
608.13	337.04
608.29	416.62
608.44	430.66
608.60	390.87
608.75	369.80
608.91	411.93
609.06	777.06
609.22	1277.93
609.37	1593.90
609.53	1411.34
609.68	1153.88
609.84	936.21
609.99	781.74
610.15	683.44
610.30	599.18
610.46	702.16
610.61	772.38
