SpectraSuite Data File
++++++++++++++++++++++++++++++++++++
Date: Fri Oct 04 11:33:47 GMT-05:00 2013
User: price-jones
Dark Spectrum Present: No
Reference Spectrum Present: No
Number of Sampled Component Spectra: 1
Spectrometers: USB2+H05261
Integration Time (usec): 100000 (USB2+H05261)
Spectra Averaged: 1 (USB2+H05261)
Boxcar Smoothing: 0 (USB2+H05261)
Correct for Electrical Dark: No (USB2+H05261)
Strobe/Lamp Enabled: No (USB2+H05261)
Correct for Detector Non-linearity: No (USB2+H05261)
Correct for Stray Light: No (USB2+H05261)
Number of Pixels in Processed Spectrum: 2048
>>>>>Begin Processed Spectral Data<<<<<
365.73	119.37
365.92	119.37
366.12	119.37
366.32	0.00
366.52	0.00
366.72	0.00
366.91	0.00
367.11	0.00
367.31	0.00
367.51	7.02
367.70	0.00
367.90	0.00
368.10	0.00
368.30	0.00
368.49	0.00
368.69	51.49
368.89	63.19
369.09	0.00
369.28	0.00
369.48	30.43
369.68	0.00
369.87	30.43
370.07	23.41
370.27	23.41
370.47	74.90
370.66	56.17
370.86	98.30
371.06	91.28
371.25	37.45
371.45	140.43
371.65	138.09
371.84	117.03
372.04	114.69
372.24	135.75
372.44	88.94
372.63	98.30
372.83	159.16
373.03	135.75
373.22	173.20
373.42	133.41
373.62	182.56
373.81	152.13
374.01	191.92
374.21	128.73
374.40	173.20
374.60	203.63
374.79	173.20
374.99	194.26
375.19	79.58
375.38	121.71
375.58	145.11
375.78	203.63
375.97	201.29
376.17	112.35
376.37	152.13
376.56	184.90
376.76	175.54
376.95	91.28
377.15	161.50
377.35	161.50
377.54	161.50
377.74	98.30
377.93	112.35
378.13	205.97
378.33	121.71
378.52	156.82
378.72	205.97
378.91	138.09
379.11	145.11
379.31	166.18
379.50	114.69
379.70	170.86
379.89	182.56
380.09	88.94
380.28	105.32
380.48	138.09
380.68	77.24
380.87	112.35
381.07	182.56
381.26	149.79
381.46	173.20
381.65	138.09
381.85	147.45
382.04	142.77
382.24	173.20
382.43	191.92
382.63	86.60
382.83	112.35
383.02	191.92
383.22	163.84
383.41	53.83
383.61	131.07
383.80	105.32
384.00	105.32
384.19	114.69
384.39	107.66
384.58	170.86
384.78	149.79
384.97	194.26
385.17	126.39
385.36	131.07
385.56	128.73
385.75	114.69
385.95	142.77
386.14	147.45
386.34	140.43
386.53	117.03
386.72	140.43
386.92	170.86
387.11	128.73
387.31	159.16
387.50	131.07
387.70	124.05
387.89	161.50
388.09	133.41
388.28	128.73
388.48	156.82
388.67	154.48
388.86	180.22
389.06	98.30
389.25	102.98
389.45	126.39
389.64	182.56
389.84	128.73
390.03	124.05
390.22	72.56
390.42	142.77
390.61	187.24
390.81	102.98
391.00	210.65
391.19	166.18
391.39	229.37
391.58	117.03
391.78	105.32
391.97	198.95
392.16	124.05
392.36	201.29
392.55	215.33
392.75	152.13
392.94	135.75
393.13	194.26
393.33	163.84
393.52	147.45
393.71	210.65
393.91	196.60
394.10	138.09
394.29	180.22
394.49	142.77
394.68	93.62
394.88	220.01
395.07	196.60
395.26	159.16
395.46	79.58
395.65	156.82
395.84	196.60
396.04	198.95
396.23	163.84
396.42	133.41
396.62	152.13
396.81	208.31
397.00	166.18
397.19	147.45
397.39	245.76
397.58	203.63
397.77	159.16
397.97	152.13
398.16	166.18
398.35	142.77
398.55	124.05
398.74	119.37
398.93	201.29
399.12	154.48
399.32	154.48
399.51	177.88
399.70	168.52
399.90	135.75
400.09	201.29
400.28	133.41
400.47	93.62
400.67	112.35
400.86	119.37
401.05	170.86
401.24	189.58
401.44	203.63
401.63	189.58
401.82	154.48
402.01	149.79
402.21	152.13
402.40	159.16
402.59	173.20
402.78	128.73
402.97	112.35
403.17	112.35
403.36	135.75
403.55	220.01
403.74	147.45
403.93	145.11
404.13	229.37
404.32	215.33
404.51	215.33
404.70	248.10
404.89	93.62
405.09	208.31
405.28	173.20
405.47	191.92
405.66	100.64
405.85	154.48
406.05	189.58
406.24	191.92
406.43	105.32
406.62	140.43
406.81	149.79
407.00	163.84
407.20	102.98
407.39	161.50
407.58	135.75
407.77	182.56
407.96	128.73
408.15	187.24
408.34	156.82
408.54	166.18
408.73	140.43
408.92	180.22
409.11	210.65
409.30	191.92
409.49	131.07
409.68	152.13
409.87	191.92
410.07	114.69
410.26	222.35
410.45	138.09
410.64	117.03
410.83	142.77
411.02	156.82
411.21	196.60
411.40	191.92
411.59	168.52
411.78	119.37
411.98	198.95
412.17	161.50
412.36	201.29
412.55	147.45
412.74	191.92
412.93	248.10
413.12	112.35
413.31	248.10
413.50	159.16
413.69	170.86
413.88	168.52
414.07	149.79
414.26	208.31
414.45	203.63
414.64	191.92
414.83	198.95
415.02	159.16
415.22	182.56
415.41	215.33
415.60	217.67
415.79	149.79
415.98	220.01
416.17	184.90
416.36	163.84
416.55	128.73
416.74	180.22
416.93	203.63
417.12	203.63
417.31	133.41
417.50	133.41
417.69	198.95
417.88	175.54
418.07	175.54
418.26	95.96
418.45	72.56
418.64	159.16
418.83	168.52
419.02	135.75
419.21	142.77
419.39	175.54
419.58	161.50
419.77	124.05
419.96	198.95
420.15	198.95
420.34	203.63
420.53	231.71
420.72	91.28
420.91	142.77
421.10	114.69
421.29	107.66
421.48	184.90
421.67	227.03
421.86	166.18
422.05	217.67
422.24	154.48
422.43	191.92
422.61	182.56
422.80	205.97
422.99	194.26
423.18	117.03
423.37	224.69
423.56	152.13
423.75	182.56
423.94	159.16
424.13	159.16
424.32	138.09
424.50	128.73
424.69	210.65
424.88	222.35
425.07	154.48
425.26	175.54
425.45	175.54
425.64	182.56
425.83	198.95
426.01	156.82
426.20	173.20
426.39	110.01
426.58	156.82
426.77	234.05
426.96	198.95
427.15	173.20
427.33	175.54
427.52	180.22
427.71	196.60
427.90	248.10
428.09	98.30
428.28	159.16
428.46	53.83
428.65	182.56
428.84	159.16
429.03	159.16
429.22	74.90
429.40	131.07
429.59	173.20
429.78	189.58
429.97	138.09
430.16	112.35
430.34	135.75
430.53	161.50
430.72	175.54
430.91	238.73
431.10	163.84
431.28	166.18
431.47	177.88
431.66	238.73
431.85	152.13
432.03	187.24
432.22	182.56
432.41	180.22
432.60	187.24
432.79	110.01
432.97	217.67
433.16	138.09
433.35	135.75
433.54	203.63
433.72	236.39
433.91	191.92
434.10	180.22
434.28	196.60
434.47	196.60
434.66	222.35
434.85	161.50
435.03	234.05
435.22	388.53
435.41	430.66
435.59	472.79
435.78	327.68
435.97	297.25
436.16	222.35
436.34	196.60
436.53	187.24
436.72	187.24
436.90	198.95
437.09	112.35
437.28	208.31
437.46	161.50
437.65	231.71
437.84	159.16
438.02	175.54
438.21	177.88
438.40	138.09
438.58	159.16
438.77	212.99
438.96	231.71
439.14	205.97
439.33	175.54
439.52	163.84
439.70	159.16
439.89	262.14
440.08	131.07
440.26	166.18
440.45	201.29
440.63	166.18
440.82	245.76
441.01	175.54
441.19	189.58
441.38	227.03
441.57	156.82
441.75	212.99
441.94	229.37
442.12	191.92
442.31	140.43
442.50	238.73
442.68	168.52
442.87	182.56
443.05	205.97
443.24	208.31
443.43	283.20
443.61	191.92
443.80	124.05
443.98	177.88
444.17	205.97
444.35	187.24
444.54	201.29
444.73	236.39
444.91	222.35
445.10	166.18
445.28	184.90
445.47	229.37
445.65	215.33
445.84	156.82
446.02	184.90
446.21	189.58
446.39	154.48
446.58	257.46
446.77	231.71
446.95	248.10
447.14	208.31
447.32	180.22
447.51	189.58
447.69	126.39
447.88	198.95
448.06	196.60
448.25	110.01
448.43	154.48
448.62	147.45
448.80	154.48
448.99	208.31
449.17	161.50
449.36	180.22
449.54	231.71
449.73	128.73
449.91	191.92
450.10	220.01
450.28	273.84
450.46	245.76
450.65	175.54
450.83	231.71
451.02	191.92
451.20	198.95
451.39	201.29
451.57	156.82
451.76	156.82
451.94	220.01
452.13	189.58
452.31	250.44
452.49	191.92
452.68	241.08
452.86	173.20
453.05	227.03
453.23	182.56
453.42	149.79
453.60	236.39
453.78	184.90
453.97	224.69
454.15	222.35
454.34	189.58
454.52	161.50
454.70	175.54
454.89	180.22
455.07	203.63
455.26	222.35
455.44	241.08
455.62	215.33
455.81	215.33
455.99	215.33
456.17	278.52
456.36	138.09
456.54	149.79
456.73	220.01
456.91	198.95
457.09	182.56
457.28	255.12
457.46	175.54
457.64	243.42
457.83	194.26
458.01	112.35
458.19	191.92
458.38	135.75
458.56	229.37
458.74	124.05
458.93	210.65
459.11	189.58
459.29	252.78
459.48	285.55
459.66	203.63
459.84	271.50
460.03	255.12
460.21	191.92
460.39	250.44
460.57	231.71
460.76	184.90
460.94	238.73
461.12	304.27
461.31	198.95
461.49	212.99
461.67	173.20
461.85	217.67
462.04	180.22
462.22	648.33
462.40	273.84
462.59	308.95
462.77	184.90
462.95	133.41
463.13	208.31
463.32	217.67
463.50	229.37
463.68	182.56
463.86	175.54
464.05	203.63
464.23	224.69
464.41	243.42
464.59	187.24
464.78	208.31
464.96	124.05
465.14	276.18
465.32	168.52
465.50	159.16
465.69	210.65
465.87	191.92
466.05	128.73
466.23	191.92
466.41	203.63
466.60	191.92
466.78	175.54
466.96	194.26
467.14	210.65
467.32	170.86
467.51	297.25
467.69	217.67
467.87	220.01
468.05	166.18
468.23	227.03
468.41	166.18
468.60	187.24
468.78	166.18
468.96	248.10
469.14	189.58
469.32	140.43
469.50	198.95
469.69	170.86
469.87	163.84
470.05	173.20
470.23	177.88
470.41	201.29
470.59	147.45
470.77	152.13
470.95	234.05
471.14	269.16
471.32	180.22
471.50	227.03
471.68	152.13
471.86	168.52
472.04	184.90
472.22	175.54
472.40	184.90
472.58	182.56
472.77	156.82
472.95	243.42
473.13	278.52
473.31	191.92
473.49	212.99
473.67	170.86
473.85	236.39
474.03	276.18
474.21	184.90
474.39	189.58
474.57	266.82
474.75	149.79
474.93	227.03
475.12	152.13
475.30	215.33
475.48	255.12
475.66	184.90
475.84	229.37
476.02	175.54
476.20	231.71
476.38	159.16
476.56	292.57
476.74	229.37
476.92	161.50
477.10	198.95
477.28	168.52
477.46	222.35
477.64	248.10
477.82	201.29
478.00	161.50
478.18	259.80
478.36	210.65
478.54	234.05
478.72	124.05
478.90	140.43
479.08	166.18
479.26	203.63
479.44	236.39
479.62	147.45
479.80	248.10
479.98	184.90
480.16	168.52
480.34	198.95
480.52	241.08
480.70	215.33
480.88	91.28
481.06	231.71
481.24	205.97
481.41	196.60
481.59	187.24
481.77	306.61
481.95	227.03
482.13	245.76
482.31	252.78
482.49	222.35
482.67	196.60
482.85	243.42
483.03	231.71
483.21	255.12
483.39	287.89
483.57	236.39
483.74	252.78
483.92	163.84
484.10	212.99
484.28	283.20
484.46	318.31
484.64	283.20
484.82	229.37
485.00	259.80
485.18	205.97
485.35	201.29
485.53	217.67
485.71	313.63
485.89	198.95
486.07	306.61
486.25	351.08
486.43	241.08
486.61	266.82
486.78	241.08
486.96	220.01
487.14	255.12
487.32	355.76
487.50	234.05
487.68	243.42
487.85	278.52
488.03	304.27
488.21	292.57
488.39	248.10
488.57	243.42
488.75	152.13
488.92	582.79
489.10	308.95
489.28	353.42
489.46	250.44
489.64	297.25
489.81	262.14
489.99	285.55
490.17	294.91
490.35	320.65
490.53	238.73
490.70	297.25
490.88	322.99
491.06	229.37
491.24	285.55
491.41	337.04
491.59	182.56
491.77	243.42
491.95	234.05
492.13	175.54
492.30	205.97
492.48	276.18
492.66	234.05
492.84	222.35
493.01	264.48
493.19	224.69
493.37	346.40
493.54	290.23
493.72	269.16
493.90	238.73
494.08	250.44
494.25	290.23
494.43	159.16
494.61	257.46
494.79	311.29
494.96	203.63
495.14	330.02
495.32	320.65
495.49	241.08
495.67	358.10
495.85	227.03
496.02	170.86
496.20	334.70
496.38	262.14
496.55	168.52
496.73	287.89
496.91	252.78
497.09	278.52
497.26	238.73
497.44	243.42
497.62	322.99
497.79	287.89
497.97	259.80
498.14	283.20
498.32	262.14
498.50	243.42
498.67	276.18
498.85	271.50
499.03	299.59
499.20	271.50
499.38	285.55
499.56	283.20
499.73	283.20
499.91	325.33
500.08	259.80
500.26	243.42
500.44	262.14
500.61	290.23
500.79	231.71
500.97	255.12
501.14	297.25
501.32	224.69
501.49	327.68
501.67	269.16
501.84	299.59
502.02	238.73
502.20	280.86
502.37	311.29
502.55	243.42
502.72	248.10
502.90	315.97
503.07	271.50
503.25	248.10
503.43	264.48
503.60	262.14
503.78	280.86
503.95	353.42
504.13	280.86
504.30	301.93
504.48	299.59
504.65	327.68
504.83	283.20
505.01	276.18
505.18	299.59
505.36	208.31
505.53	266.82
505.71	262.14
505.88	264.48
506.06	311.29
506.23	280.86
506.41	301.93
506.58	236.39
506.76	294.91
506.93	248.10
507.11	308.95
507.28	248.10
507.46	210.65
507.63	212.99
507.81	306.61
507.98	322.99
508.16	294.91
508.33	273.84
508.50	285.55
508.68	278.52
508.85	294.91
509.03	248.10
509.20	243.42
509.38	315.97
509.55	236.39
509.73	269.16
509.90	278.52
510.08	252.78
510.25	290.23
510.42	234.05
510.60	243.42
510.77	362.78
510.95	290.23
511.12	276.18
511.30	320.65
511.47	297.25
511.64	315.97
511.82	245.76
511.99	276.18
512.17	299.59
512.34	306.61
512.51	301.93
512.69	297.25
512.86	313.63
513.04	259.80
513.21	231.71
513.38	257.46
513.56	243.42
513.73	348.74
513.90	250.44
514.08	273.84
514.25	327.68
514.43	243.42
514.60	327.68
514.77	294.91
514.95	285.55
515.12	198.95
515.29	250.44
515.47	205.97
515.64	238.73
515.81	287.89
515.99	325.33
516.16	276.18
516.33	259.80
516.51	271.50
516.68	266.82
516.85	255.12
517.03	304.27
517.20	278.52
517.37	269.16
517.54	278.52
517.72	278.52
517.89	229.37
518.06	205.97
518.24	280.86
518.41	299.59
518.58	290.23
518.75	187.24
518.93	255.12
519.10	297.25
519.27	241.08
519.45	327.68
519.62	278.52
519.79	276.18
519.96	292.57
520.14	250.44
520.31	315.97
520.48	215.33
520.65	220.01
520.83	217.67
521.00	294.91
521.17	285.55
521.34	264.48
521.52	222.35
521.69	285.55
521.86	262.14
522.03	252.78
522.20	297.25
522.38	245.76
522.55	259.80
522.72	290.23
522.89	273.84
523.07	283.20
523.24	355.76
523.41	376.83
523.58	262.14
523.75	287.89
523.92	299.59
524.10	227.03
524.27	313.63
524.44	243.42
524.61	311.29
524.78	311.29
524.96	255.12
525.13	348.74
525.30	271.50
525.47	194.26
525.64	299.59
525.81	355.76
525.98	278.52
526.16	161.50
526.33	273.84
526.50	358.10
526.67	322.99
526.84	236.39
527.01	287.89
527.18	287.89
527.36	327.68
527.53	273.84
527.70	285.55
527.87	273.84
528.04	273.84
528.21	285.55
528.38	308.95
528.55	313.63
528.72	334.70
528.89	346.40
529.07	294.91
529.24	255.12
529.41	332.36
529.58	353.42
529.75	327.68
529.92	348.74
530.09	262.14
530.26	264.48
530.43	248.10
530.60	227.03
530.77	287.89
530.94	304.27
531.11	255.12
531.28	287.89
531.46	334.70
531.63	313.63
531.80	327.68
531.97	315.97
532.14	318.31
532.31	269.16
532.48	308.95
532.65	358.10
532.82	287.89
532.99	224.69
533.16	367.46
533.33	301.93
533.50	308.95
533.67	320.65
533.84	330.02
534.01	306.61
534.18	292.57
534.35	327.68
534.52	259.80
534.69	339.38
534.86	322.99
535.03	358.10
535.20	280.86
535.37	294.91
535.54	339.38
535.71	297.25
535.88	402.57
536.05	306.61
536.22	287.89
536.38	320.65
536.55	346.40
536.72	264.48
536.89	283.20
537.06	332.36
537.23	332.36
537.40	379.17
537.57	372.15
537.74	344.06
537.91	294.91
538.08	346.40
538.25	428.32
538.42	358.10
538.59	346.40
538.75	301.93
538.92	407.25
539.09	381.51
539.26	339.38
539.43	369.80
539.60	465.77
539.77	477.47
539.94	465.77
540.11	531.30
540.28	421.30
540.44	528.96
540.61	444.70
540.78	440.02
540.95	468.11
541.12	578.11
541.29	559.39
541.46	606.20
541.62	545.34
541.79	589.82
541.96	585.13
542.13	566.41
542.30	517.26
542.47	531.30
542.63	505.56
542.80	500.87
542.97	479.81
543.14	573.43
543.31	599.18
543.48	510.24
543.64	477.47
543.81	503.22
543.98	468.11
544.15	430.66
544.32	433.00
544.48	449.38
544.65	568.75
544.82	503.22
544.99	519.60
545.16	514.92
545.32	465.77
545.49	692.80
545.66	882.38
545.83	1013.45
546.00	926.85
546.16	772.38
546.33	564.07
546.50	507.90
546.67	512.58
546.83	442.36
547.00	433.00
547.17	437.68
547.34	428.32
547.50	339.38
547.67	440.02
547.84	409.59
548.00	475.13
548.17	367.46
548.34	397.89
548.51	475.13
548.67	402.57
548.84	428.32
549.01	433.00
549.18	257.46
549.34	341.72
549.51	458.74
549.68	379.17
549.84	360.44
550.01	299.59
550.18	435.34
550.34	409.59
550.51	280.86
550.68	416.62
550.84	351.08
551.01	320.65
551.18	365.12
551.34	337.04
551.51	362.78
551.68	337.04
551.84	376.83
552.01	325.33
552.18	344.06
552.34	299.59
552.51	358.10
552.68	351.08
552.84	297.25
553.01	283.20
553.18	332.36
553.34	276.18
553.51	269.16
553.67	327.68
553.84	353.42
554.01	304.27
554.17	311.29
554.34	327.68
554.51	360.44
554.67	348.74
554.84	337.04
555.00	315.97
555.17	334.70
555.33	280.86
555.50	344.06
555.67	250.44
555.83	259.80
556.00	294.91
556.16	454.06
556.33	278.52
556.50	304.27
556.66	306.61
556.83	245.76
556.99	287.89
557.16	271.50
557.32	217.67
557.49	238.73
557.65	276.18
557.82	231.71
557.98	308.95
558.15	243.42
558.32	311.29
558.48	290.23
558.65	252.78
558.81	341.72
558.98	332.36
559.14	264.48
559.31	280.86
559.47	372.15
559.64	273.84
559.80	269.16
559.97	341.72
560.13	292.57
560.30	304.27
560.46	262.14
560.63	306.61
560.79	222.35
560.96	280.86
561.12	290.23
561.29	276.18
561.45	194.26
561.61	259.80
561.78	348.74
561.94	292.57
562.11	241.08
562.27	325.33
562.44	278.52
562.60	241.08
562.77	271.50
562.93	299.59
563.10	276.18
563.26	266.82
563.42	248.10
563.59	292.57
563.75	245.76
563.92	250.44
564.08	283.20
564.24	262.14
564.41	353.42
564.57	283.20
564.74	318.31
564.90	243.42
565.07	262.14
565.23	285.55
565.39	227.03
565.56	248.10
565.72	238.73
565.88	283.20
566.05	276.18
566.21	250.44
566.38	297.25
566.54	215.33
566.70	243.42
566.87	241.08
567.03	292.57
567.19	264.48
567.36	280.86
567.52	255.12
567.68	301.93
567.85	269.16
568.01	283.20
568.17	262.14
568.34	337.04
568.50	360.44
568.66	283.20
568.83	320.65
568.99	264.48
569.15	229.37
569.32	236.39
569.48	318.31
569.64	187.24
569.81	264.48
569.97	201.29
570.13	159.16
570.30	243.42
570.46	283.20
570.62	227.03
570.78	198.95
570.95	201.29
571.11	301.93
571.27	236.39
571.43	222.35
571.60	222.35
571.76	210.65
571.92	252.78
572.09	224.69
572.25	241.08
572.41	257.46
572.57	222.35
572.74	262.14
572.90	306.61
573.06	304.27
573.22	292.57
573.38	276.18
573.55	266.82
573.71	264.48
573.87	301.93
574.03	292.57
574.20	231.71
574.36	292.57
574.52	229.37
574.68	311.29
574.84	299.59
575.01	264.48
575.17	250.44
575.33	313.63
575.49	283.20
575.65	271.50
575.82	278.52
575.98	299.59
576.14	346.40
576.30	397.89
576.46	400.23
576.62	437.68
576.79	388.53
576.95	390.87
577.11	318.31
577.27	341.72
577.43	301.93
577.59	285.55
577.75	351.08
577.92	299.59
578.08	287.89
578.24	252.78
578.40	327.68
578.56	337.04
578.72	339.38
578.88	402.57
579.04	344.06
579.21	372.15
579.37	313.63
579.53	383.85
579.69	386.19
579.85	341.72
580.01	365.12
580.17	292.57
580.33	280.86
580.49	320.65
580.65	252.78
580.82	341.72
580.98	327.68
581.14	236.39
581.30	332.36
581.46	365.12
581.62	362.78
581.78	341.72
581.94	409.59
582.10	325.33
582.26	264.48
582.42	325.33
582.58	358.10
582.74	341.72
582.90	337.04
583.06	358.10
583.22	386.19
583.38	369.80
583.54	330.02
583.70	360.44
583.86	367.46
584.02	402.57
584.18	425.98
584.34	386.19
584.50	543.00
584.66	2085.42
584.82	5088.32
584.98	7634.83
585.14	7119.91
585.30	4479.79
585.46	2902.26
585.62	1839.66
585.78	976.00
585.94	596.84
586.10	526.62
586.26	376.83
586.42	301.93
586.58	379.17
586.74	374.49
586.90	430.66
587.06	416.62
587.22	388.53
587.38	374.49
587.54	404.91
587.70	627.26
587.86	800.46
588.02	884.72
588.18	704.50
588.34	500.87
588.49	383.85
588.65	355.76
588.81	299.59
588.97	276.18
589.13	241.08
589.29	353.42
589.45	292.57
589.61	308.95
589.77	304.27
589.93	297.25
590.08	308.95
590.24	257.46
590.40	238.73
590.56	306.61
590.72	301.93
590.88	234.05
591.04	315.97
591.20	299.59
591.35	362.78
591.51	327.68
591.67	250.44
591.83	327.68
591.99	358.10
592.15	395.55
592.31	351.08
592.46	344.06
592.62	311.29
592.78	292.57
592.94	334.70
593.10	346.40
593.26	280.86
593.41	283.20
593.57	248.10
593.73	245.76
593.89	540.66
594.05	887.06
594.20	1219.42
594.36	1172.61
594.52	889.40
594.68	727.91
594.84	554.71
594.99	425.98
595.15	351.08
595.31	386.19
595.47	285.55
595.62	236.39
595.78	301.93
595.94	339.38
596.10	287.89
596.25	294.91
596.41	299.59
596.57	308.95
596.73	229.37
596.88	313.63
597.04	358.10
597.20	521.94
597.36	524.28
597.51	456.40
597.67	409.59
597.83	355.76
597.99	332.36
598.14	325.33
598.30	351.08
598.46	241.08
598.61	273.84
598.77	334.70
598.93	320.65
599.09	313.63
599.24	315.97
599.40	287.89
599.56	313.63
599.71	294.91
599.87	327.68
600.03	325.33
600.18	325.33
600.34	285.55
600.50	276.18
600.65	292.57
600.81	229.37
600.97	266.82
601.12	231.71
601.28	292.57
601.44	290.23
601.59	325.33
601.75	273.84
601.91	339.38
602.06	245.76
602.22	348.74
602.37	360.44
602.53	402.57
602.69	531.30
602.84	484.49
603.00	421.30
603.16	407.25
603.31	397.89
603.47	376.83
603.62	358.10
603.78	325.33
603.94	294.91
604.09	318.31
604.25	381.51
604.40	311.29
604.56	313.63
604.71	304.27
604.87	299.59
605.03	257.46
605.18	353.42
605.34	306.61
605.49	262.14
605.65	276.18
605.80	222.35
605.96	304.27
606.12	334.70
606.27	346.40
606.43	346.40
606.58	332.36
606.74	369.80
606.89	566.41
607.05	891.74
607.20	1032.18
607.36	924.51
607.51	763.01
607.67	517.26
607.82	465.77
607.98	386.19
608.13	351.08
608.29	290.23
608.44	322.99
608.60	269.16
608.75	362.78
608.91	397.89
609.06	793.44
609.22	1401.98
609.37	1715.61
609.53	1666.46
609.68	1341.13
609.84	905.79
609.99	793.44
610.15	667.05
610.30	589.82
610.46	653.01
610.61	753.65
