SpectraSuite Data File
++++++++++++++++++++++++++++++++++++
Date: Fri Oct 04 11:34:00 GMT-05:00 2013
User: price-jones
Dark Spectrum Present: No
Reference Spectrum Present: No
Number of Sampled Component Spectra: 1
Spectrometers: USB2+H05261
Integration Time (usec): 100000 (USB2+H05261)
Spectra Averaged: 1 (USB2+H05261)
Boxcar Smoothing: 0 (USB2+H05261)
Correct for Electrical Dark: No (USB2+H05261)
Strobe/Lamp Enabled: No (USB2+H05261)
Correct for Detector Non-linearity: No (USB2+H05261)
Correct for Stray Light: No (USB2+H05261)
Number of Pixels in Processed Spectrum: 2048
>>>>>Begin Processed Spectral Data<<<<<
365.73	63.19
365.92	63.19
366.12	63.19
366.32	53.83
366.52	7.02
366.72	44.47
366.91	0.00
367.11	0.00
367.31	7.02
367.51	0.00
367.70	0.00
367.90	0.00
368.10	0.00
368.30	11.70
368.49	0.00
368.69	23.41
368.89	0.00
369.09	0.00
369.28	0.00
369.48	0.00
369.68	0.00
369.87	30.43
370.07	32.77
370.27	95.96
370.47	30.43
370.66	30.43
370.86	72.56
371.06	79.58
371.25	86.60
371.45	42.13
371.65	42.13
371.84	117.03
372.04	121.71
372.24	161.50
372.44	140.43
372.63	110.01
372.83	128.73
373.03	135.75
373.22	152.13
373.42	126.39
373.62	149.79
373.81	149.79
374.01	110.01
374.21	269.16
374.40	159.16
374.60	182.56
374.79	166.18
374.99	88.94
375.19	126.39
375.38	205.97
375.58	138.09
375.78	93.62
375.97	138.09
376.17	156.82
376.37	142.77
376.56	170.86
376.76	142.77
376.95	175.54
377.15	149.79
377.35	145.11
377.54	112.35
377.74	121.71
377.93	166.18
378.13	170.86
378.33	189.58
378.52	212.99
378.72	149.79
378.91	145.11
379.11	138.09
379.31	98.30
379.50	166.18
379.70	175.54
379.89	135.75
380.09	145.11
380.28	124.05
380.48	159.16
380.68	126.39
380.87	222.35
381.07	133.41
381.26	184.90
381.46	175.54
381.65	212.99
381.85	88.94
382.04	98.30
382.24	100.64
382.43	135.75
382.63	156.82
382.83	131.07
383.02	140.43
383.22	147.45
383.41	159.16
383.61	131.07
383.80	135.75
384.00	107.66
384.19	152.13
384.39	187.24
384.58	135.75
384.78	227.03
384.97	243.42
385.17	140.43
385.36	128.73
385.56	138.09
385.75	154.48
385.95	152.13
386.14	163.84
386.34	152.13
386.53	135.75
386.72	180.22
386.92	135.75
387.11	196.60
387.31	126.39
387.50	88.94
387.70	152.13
387.89	159.16
388.09	133.41
388.28	77.24
388.48	67.88
388.67	166.18
388.86	182.56
389.06	168.52
389.25	191.92
389.45	154.48
389.64	105.32
389.84	140.43
390.03	102.98
390.22	152.13
390.42	166.18
390.61	163.84
390.81	110.01
391.00	187.24
391.19	210.65
391.39	149.79
391.58	39.79
391.78	215.33
391.97	119.37
392.16	152.13
392.36	156.82
392.55	154.48
392.75	91.28
392.94	93.62
393.13	79.58
393.33	121.71
393.52	170.86
393.71	166.18
393.91	201.29
394.10	152.13
394.29	121.71
394.49	133.41
394.68	140.43
394.88	114.69
395.07	166.18
395.26	156.82
395.46	196.60
395.65	180.22
395.84	173.20
396.04	210.65
396.23	114.69
396.42	74.90
396.62	156.82
396.81	168.52
397.00	210.65
397.19	203.63
397.39	198.95
397.58	194.26
397.77	124.05
397.97	107.66
398.16	210.65
398.35	142.77
398.55	74.90
398.74	154.48
398.93	156.82
399.12	168.52
399.32	84.26
399.51	142.77
399.70	133.41
399.90	194.26
400.09	194.26
400.28	194.26
400.47	156.82
400.67	91.28
400.86	142.77
401.05	227.03
401.24	170.86
401.44	135.75
401.63	215.33
401.82	166.18
402.01	145.11
402.21	175.54
402.40	177.88
402.59	133.41
402.78	152.13
402.97	100.64
403.17	163.84
403.36	175.54
403.55	177.88
403.74	154.48
403.93	252.78
404.13	262.14
404.32	290.23
404.51	168.52
404.70	166.18
404.89	205.97
405.09	189.58
405.28	154.48
405.47	210.65
405.66	161.50
405.85	205.97
406.05	191.92
406.24	262.14
406.43	170.86
406.62	243.42
406.81	222.35
407.00	182.56
407.20	170.86
407.39	110.01
407.58	191.92
407.77	138.09
407.96	212.99
408.15	131.07
408.34	84.26
408.54	222.35
408.73	166.18
408.92	154.48
409.11	313.63
409.30	175.54
409.49	105.32
409.68	102.98
409.87	63.19
410.07	163.84
410.26	140.43
410.45	196.60
410.64	175.54
410.83	159.16
411.02	189.58
411.21	222.35
411.40	119.37
411.59	168.52
411.78	140.43
411.98	215.33
412.17	117.03
412.36	170.86
412.55	121.71
412.74	177.88
412.93	257.46
413.12	152.13
413.31	145.11
413.50	175.54
413.69	212.99
413.88	166.18
414.07	175.54
414.26	135.75
414.45	126.39
414.64	222.35
414.83	198.95
415.02	154.48
415.22	229.37
415.41	215.33
415.60	65.54
415.79	194.26
415.98	194.26
416.17	156.82
416.36	236.39
416.55	205.97
416.74	198.95
416.93	203.63
417.12	234.05
417.31	217.67
417.50	121.71
417.69	212.99
417.88	124.05
418.07	196.60
418.26	166.18
418.45	229.37
418.64	243.42
418.83	238.73
419.02	215.33
419.21	205.97
419.39	95.96
419.58	198.95
419.77	145.11
419.96	147.45
420.15	252.78
420.34	210.65
420.53	236.39
420.72	159.16
420.91	187.24
421.10	180.22
421.29	187.24
421.48	138.09
421.67	191.92
421.86	166.18
422.05	173.20
422.24	152.13
422.43	198.95
422.61	110.01
422.80	182.56
422.99	149.79
423.18	166.18
423.37	252.78
423.56	201.29
423.75	196.60
423.94	152.13
424.13	168.52
424.32	145.11
424.50	166.18
424.69	163.84
424.88	168.52
425.07	145.11
425.26	236.39
425.45	252.78
425.64	159.16
425.83	205.97
426.01	215.33
426.20	191.92
426.39	142.77
426.58	142.77
426.77	124.05
426.96	173.20
427.15	191.92
427.33	182.56
427.52	210.65
427.71	180.22
427.90	133.41
428.09	142.77
428.28	112.35
428.46	168.52
428.65	180.22
428.84	142.77
429.03	227.03
429.22	161.50
429.40	133.41
429.59	154.48
429.78	229.37
429.97	168.52
430.16	149.79
430.34	168.52
430.53	222.35
430.72	241.08
430.91	154.48
431.10	112.35
431.28	210.65
431.47	238.73
431.66	191.92
431.85	222.35
432.03	173.20
432.22	166.18
432.41	124.05
432.60	234.05
432.79	163.84
432.97	255.12
433.16	287.89
433.35	161.50
433.54	201.29
433.72	250.44
433.91	189.58
434.10	196.60
434.28	170.86
434.47	156.82
434.66	217.67
434.85	187.24
435.03	245.76
435.22	397.89
435.41	447.04
435.59	423.64
435.78	365.12
435.97	266.82
436.16	117.03
436.34	105.32
436.53	189.58
436.72	180.22
436.90	156.82
437.09	168.52
437.28	142.77
437.46	154.48
437.65	189.58
437.84	210.65
438.02	189.58
438.21	243.42
438.40	189.58
438.58	194.26
438.77	196.60
438.96	135.75
439.14	142.77
439.33	189.58
439.52	147.45
439.70	215.33
439.89	259.80
440.08	227.03
440.26	180.22
440.45	234.05
440.63	236.39
440.82	269.16
441.01	248.10
441.19	166.18
441.38	175.54
441.57	133.41
441.75	184.90
441.94	154.48
442.12	145.11
442.31	170.86
442.50	170.86
442.68	156.82
442.87	163.84
443.05	72.56
443.24	133.41
443.43	147.45
443.61	280.86
443.80	224.69
443.98	166.18
444.17	140.43
444.35	210.65
444.54	175.54
444.73	215.33
444.91	173.20
445.10	196.60
445.28	180.22
445.47	138.09
445.65	152.13
445.84	152.13
446.02	159.16
446.21	191.92
446.39	217.67
446.58	224.69
446.77	133.41
446.95	135.75
447.14	203.63
447.32	224.69
447.51	210.65
447.69	117.03
447.88	217.67
448.06	175.54
448.25	212.99
448.43	198.95
448.62	163.84
448.80	215.33
448.99	201.29
449.17	234.05
449.36	184.90
449.54	215.33
449.73	198.95
449.91	271.50
450.10	166.18
450.28	140.43
450.46	250.44
450.65	231.71
450.83	224.69
451.02	147.45
451.20	203.63
451.39	217.67
451.57	227.03
451.76	131.07
451.94	262.14
452.13	161.50
452.31	255.12
452.49	187.24
452.68	138.09
452.86	210.65
453.05	238.73
453.23	255.12
453.42	198.95
453.60	177.88
453.78	236.39
453.97	187.24
454.15	126.39
454.34	145.11
454.52	203.63
454.70	222.35
454.89	173.20
455.07	194.26
455.26	262.14
455.44	198.95
455.62	224.69
455.81	140.43
455.99	180.22
456.17	173.20
456.36	173.20
456.54	175.54
456.73	142.77
456.91	201.29
457.09	189.58
457.28	170.86
457.46	201.29
457.64	229.37
457.83	189.58
458.01	79.58
458.19	245.76
458.38	212.99
458.56	224.69
458.74	180.22
458.93	238.73
459.11	220.01
459.29	173.20
459.48	241.08
459.66	299.59
459.84	203.63
460.03	269.16
460.21	203.63
460.39	236.39
460.57	196.60
460.76	173.20
460.94	100.64
461.12	241.08
461.31	245.76
461.49	138.09
461.67	224.69
461.85	229.37
462.04	215.33
462.22	566.41
462.40	229.37
462.59	227.03
462.77	159.16
462.95	184.90
463.13	191.92
463.32	236.39
463.50	198.95
463.68	196.60
463.86	119.37
464.05	138.09
464.23	203.63
464.41	175.54
464.59	187.24
464.78	205.97
464.96	163.84
465.14	184.90
465.32	189.58
465.50	191.92
465.69	135.75
465.87	194.26
466.05	159.16
466.23	175.54
466.41	124.05
466.60	203.63
466.78	175.54
466.96	147.45
467.14	201.29
467.32	175.54
467.51	203.63
467.69	238.73
467.87	154.48
468.05	203.63
468.23	220.01
468.41	243.42
468.60	203.63
468.78	231.71
468.96	234.05
469.14	262.14
469.32	175.54
469.50	175.54
469.69	191.92
469.87	182.56
470.05	177.88
470.23	208.31
470.41	201.29
470.59	198.95
470.77	210.65
470.95	238.73
471.14	241.08
471.32	196.60
471.50	220.01
471.68	128.73
471.86	231.71
472.04	189.58
472.22	241.08
472.40	208.31
472.58	173.20
472.77	98.30
472.95	241.08
473.13	208.31
473.31	196.60
473.49	229.37
473.67	210.65
473.85	168.52
474.03	208.31
474.21	217.67
474.39	189.58
474.57	252.78
474.75	196.60
474.93	222.35
475.12	156.82
475.30	208.31
475.48	177.88
475.66	250.44
475.84	147.45
476.02	224.69
476.20	304.27
476.38	163.84
476.56	194.26
476.74	161.50
476.92	152.13
477.10	234.05
477.28	245.76
477.46	229.37
477.64	252.78
477.82	269.16
478.00	215.33
478.18	222.35
478.36	184.90
478.54	222.35
478.72	133.41
478.90	203.63
479.08	210.65
479.26	208.31
479.44	212.99
479.62	170.86
479.80	156.82
479.98	215.33
480.16	196.60
480.34	234.05
480.52	205.97
480.70	215.33
480.88	252.78
481.06	177.88
481.24	203.63
481.41	196.60
481.59	280.86
481.77	180.22
481.95	189.58
482.13	311.29
482.31	220.01
482.49	208.31
482.67	264.48
482.85	238.73
483.03	177.88
483.21	236.39
483.39	238.73
483.57	184.90
483.74	299.59
483.92	208.31
484.10	182.56
484.28	142.77
484.46	257.46
484.64	264.48
484.82	259.80
485.00	304.27
485.18	227.03
485.35	264.48
485.53	208.31
485.71	252.78
485.89	182.56
486.07	245.76
486.25	257.46
486.43	353.42
486.61	243.42
486.78	238.73
486.96	220.01
487.14	266.82
487.32	248.10
487.50	229.37
487.68	262.14
487.85	241.08
488.03	236.39
488.21	280.86
488.39	210.65
488.57	250.44
488.75	285.55
488.92	491.51
489.10	266.82
489.28	322.99
489.46	245.76
489.64	266.82
489.81	283.20
489.99	341.72
490.17	252.78
490.35	337.04
490.53	311.29
490.70	184.90
490.88	306.61
491.06	283.20
491.24	224.69
491.41	271.50
491.59	227.03
491.77	196.60
491.95	220.01
492.13	180.22
492.30	283.20
492.48	273.84
492.66	245.76
492.84	297.25
493.01	250.44
493.19	292.57
493.37	276.18
493.54	259.80
493.72	224.69
493.90	299.59
494.08	198.95
494.25	330.02
494.43	304.27
494.61	278.52
494.79	287.89
494.96	231.71
495.14	280.86
495.32	297.25
495.49	266.82
495.67	262.14
495.85	273.84
496.02	273.84
496.20	245.76
496.38	236.39
496.55	227.03
496.73	297.25
496.91	290.23
497.09	285.55
497.26	222.35
497.44	205.97
497.62	308.95
497.79	266.82
497.97	278.52
498.14	311.29
498.32	248.10
498.50	259.80
498.67	271.50
498.85	255.12
499.03	248.10
499.20	299.59
499.38	203.63
499.56	269.16
499.73	299.59
499.91	318.31
500.08	276.18
500.26	250.44
500.44	203.63
500.61	191.92
500.79	205.97
500.97	318.31
501.14	259.80
501.32	285.55
501.49	337.04
501.67	220.01
501.84	250.44
502.02	208.31
502.20	231.71
502.37	276.18
502.55	236.39
502.72	283.20
502.90	273.84
503.07	215.33
503.25	280.86
503.43	271.50
503.60	180.22
503.78	294.91
503.95	191.92
504.13	238.73
504.30	341.72
504.48	222.35
504.65	294.91
504.83	362.78
505.01	283.20
505.18	245.76
505.36	210.65
505.53	182.56
505.71	189.58
505.88	318.31
506.06	238.73
506.23	194.26
506.41	283.20
506.58	341.72
506.76	264.48
506.93	234.05
507.11	215.33
507.28	177.88
507.46	250.44
507.63	257.46
507.81	259.80
507.98	271.50
508.16	231.71
508.33	304.27
508.50	238.73
508.68	276.18
508.85	278.52
509.03	189.58
509.20	252.78
509.38	264.48
509.55	287.89
509.73	299.59
509.90	297.25
510.08	234.05
510.25	266.82
510.42	236.39
510.60	227.03
510.77	315.97
510.95	315.97
511.12	180.22
511.30	283.20
511.47	238.73
511.64	369.80
511.82	346.40
511.99	264.48
512.17	217.67
512.34	208.31
512.51	217.67
512.69	187.24
512.86	269.16
513.04	248.10
513.21	278.52
513.38	278.52
513.56	236.39
513.73	330.02
513.90	208.31
514.08	252.78
514.25	208.31
514.43	248.10
514.60	301.93
514.77	271.50
514.95	290.23
515.12	280.86
515.29	264.48
515.47	283.20
515.64	257.46
515.81	248.10
515.99	264.48
516.16	217.67
516.33	294.91
516.51	304.27
516.68	177.88
516.85	259.80
517.03	250.44
517.20	294.91
517.37	234.05
517.54	227.03
517.72	287.89
517.89	271.50
518.06	154.48
518.24	250.44
518.41	292.57
518.58	262.14
518.75	255.12
518.93	287.89
519.10	161.50
519.27	238.73
519.45	252.78
519.62	262.14
519.79	278.52
519.96	229.37
520.14	234.05
520.31	318.31
520.48	234.05
520.65	278.52
520.83	264.48
521.00	259.80
521.17	205.97
521.34	234.05
521.52	308.95
521.69	224.69
521.86	224.69
522.03	234.05
522.20	297.25
522.38	276.18
522.55	212.99
522.72	245.76
522.89	301.93
523.07	248.10
523.24	231.71
523.41	238.73
523.58	280.86
523.75	234.05
523.92	222.35
524.10	269.16
524.27	290.23
524.44	259.80
524.61	301.93
524.78	187.24
524.96	243.42
525.13	294.91
525.30	234.05
525.47	304.27
525.64	299.59
525.81	262.14
525.98	304.27
526.16	217.67
526.33	191.92
526.50	215.33
526.67	266.82
526.84	231.71
527.01	252.78
527.18	198.95
527.36	227.03
527.53	339.38
527.70	255.12
527.87	294.91
528.04	325.33
528.21	292.57
528.38	276.18
528.55	196.60
528.72	278.52
528.89	322.99
529.07	266.82
529.24	259.80
529.41	320.65
529.58	243.42
529.75	285.55
529.92	330.02
530.09	285.55
530.26	313.63
530.43	234.05
530.60	259.80
530.77	252.78
530.94	308.95
531.11	250.44
531.28	252.78
531.46	315.97
531.63	294.91
531.80	241.08
531.97	227.03
532.14	341.72
532.31	201.29
532.48	339.38
532.65	379.17
532.82	308.95
532.99	248.10
533.16	320.65
533.33	325.33
533.50	334.70
533.67	264.48
533.84	351.08
534.01	362.78
534.18	311.29
534.35	362.78
534.52	304.27
534.69	358.10
534.86	287.89
535.03	273.84
535.20	208.31
535.37	208.31
535.54	227.03
535.71	315.97
535.88	306.61
536.05	299.59
536.22	245.76
536.38	220.01
536.55	292.57
536.72	320.65
536.89	334.70
537.06	325.33
537.23	313.63
537.40	287.89
537.57	271.50
537.74	313.63
537.91	337.04
538.08	313.63
538.25	273.84
538.42	294.91
538.59	344.06
538.75	367.46
538.92	299.59
539.09	355.76
539.26	388.53
539.43	517.26
539.60	870.68
539.77	1200.69
539.94	1116.44
540.11	856.64
540.28	713.86
540.44	589.82
540.61	458.74
540.78	493.85
540.95	475.13
541.12	573.43
541.29	578.11
541.46	543.00
541.62	540.66
541.79	500.87
541.96	444.70
542.13	500.87
542.30	421.30
542.47	573.43
542.63	482.15
542.80	524.28
542.97	554.71
543.14	418.96
543.31	512.58
543.48	489.17
543.64	557.05
543.81	463.43
543.98	545.34
544.15	433.00
544.32	458.74
544.48	505.56
544.65	475.13
544.82	407.25
544.99	423.64
545.16	500.87
545.32	500.87
545.49	758.33
545.66	880.04
545.83	1027.50
546.00	894.08
546.16	573.43
546.33	514.92
546.50	510.24
546.67	507.90
546.83	421.30
547.00	472.79
547.17	416.62
547.34	381.51
547.50	428.32
547.67	498.53
547.84	339.38
548.00	381.51
548.17	320.65
548.34	346.40
548.51	468.11
548.67	393.21
548.84	414.27
549.01	346.40
549.18	372.15
549.34	379.17
549.51	304.27
549.68	369.80
549.84	325.33
550.01	322.99
550.18	397.89
550.34	400.23
550.51	280.86
550.68	243.42
550.84	320.65
551.01	297.25
551.18	341.72
551.34	294.91
551.51	362.78
551.68	285.55
551.84	365.12
552.01	367.46
552.18	276.18
552.34	383.85
552.51	337.04
552.68	344.06
552.84	299.59
553.01	299.59
553.18	322.99
553.34	301.93
553.51	320.65
553.67	308.95
553.84	299.59
554.01	238.73
554.17	344.06
554.34	341.72
554.51	285.55
554.67	292.57
554.84	231.71
555.00	330.02
555.17	283.20
555.33	304.27
555.50	229.37
555.67	306.61
555.83	210.65
556.00	250.44
556.16	482.15
556.33	271.50
556.50	301.93
556.66	334.70
556.83	255.12
556.99	266.82
557.16	308.95
557.32	320.65
557.49	215.33
557.65	229.37
557.82	355.76
557.98	252.78
558.15	315.97
558.32	236.39
558.48	325.33
558.65	285.55
558.81	337.04
558.98	234.05
559.14	212.99
559.31	297.25
559.47	271.50
559.64	248.10
559.80	278.52
559.97	290.23
560.13	187.24
560.30	248.10
560.46	297.25
560.63	262.14
560.79	271.50
560.96	297.25
561.12	217.67
561.29	278.52
561.45	220.01
561.61	227.03
561.78	315.97
561.94	248.10
562.11	283.20
562.27	241.08
562.44	252.78
562.60	325.33
562.77	245.76
562.93	322.99
563.10	285.55
563.26	304.27
563.42	252.78
563.59	287.89
563.75	266.82
563.92	358.10
564.08	266.82
564.24	236.39
564.41	318.31
564.57	264.48
564.74	250.44
564.90	269.16
565.07	315.97
565.23	320.65
565.39	245.76
565.56	262.14
565.72	322.99
565.88	217.67
566.05	243.42
566.21	243.42
566.38	271.50
566.54	266.82
566.70	224.69
566.87	180.22
567.03	308.95
567.19	259.80
567.36	229.37
567.52	234.05
567.68	243.42
567.85	255.12
568.01	252.78
568.17	236.39
568.34	262.14
568.50	285.55
568.66	250.44
568.83	311.29
568.99	243.42
569.15	163.84
569.32	241.08
569.48	280.86
569.64	238.73
569.81	287.89
569.97	259.80
570.13	290.23
570.30	297.25
570.46	248.10
570.62	341.72
570.78	191.92
570.95	227.03
571.11	264.48
571.27	269.16
571.43	297.25
571.60	243.42
571.76	271.50
571.92	217.67
572.09	224.69
572.25	266.82
572.41	227.03
572.57	241.08
572.74	266.82
572.90	358.10
573.06	255.12
573.22	351.08
573.38	266.82
573.55	339.38
573.71	285.55
573.87	341.72
574.03	269.16
574.20	297.25
574.36	320.65
574.52	285.55
574.68	311.29
574.84	271.50
575.01	304.27
575.17	297.25
575.33	234.05
575.49	318.31
575.65	280.86
575.82	388.53
575.98	554.71
576.14	580.45
576.30	524.28
576.46	435.34
576.62	528.96
576.79	470.45
576.95	367.46
577.11	376.83
577.27	266.82
577.43	325.33
577.59	308.95
577.75	355.76
577.92	318.31
578.08	252.78
578.24	283.20
578.40	348.74
578.56	393.21
578.72	397.89
578.88	486.83
579.04	369.80
579.21	390.87
579.37	245.76
579.53	311.29
579.69	381.51
579.85	322.99
580.01	430.66
580.17	355.76
580.33	369.80
580.49	409.59
580.65	327.68
580.82	315.97
580.98	297.25
581.14	301.93
581.30	334.70
581.46	400.23
581.62	493.85
581.78	472.79
581.94	528.96
582.10	390.87
582.26	402.57
582.42	433.00
582.58	407.25
582.74	390.87
582.90	477.47
583.06	472.79
583.22	416.62
583.38	416.62
583.54	433.00
583.70	507.90
583.86	601.52
584.02	578.11
584.18	784.08
584.34	851.96
584.50	2136.91
584.66	15082.41
584.82	37240.26
584.98	48765.06
585.14	43262.46
585.30	27201.71
585.46	16470.35
585.62	10104.09
585.78	4908.10
585.94	2017.54
586.10	1069.62
586.26	798.12
586.42	730.25
586.58	589.82
586.74	648.33
586.90	575.77
587.06	603.86
587.22	479.81
587.38	538.32
587.54	978.34
587.70	2324.15
587.86	3456.97
588.02	3524.85
588.18	2558.21
588.34	1788.17
588.49	1198.35
588.65	767.70
588.81	526.62
588.97	383.85
589.13	337.04
589.29	322.99
589.45	365.12
589.61	313.63
589.77	393.21
589.93	393.21
590.08	353.42
590.24	376.83
590.40	353.42
590.56	379.17
590.72	301.93
590.88	418.96
591.04	353.42
591.20	330.02
591.35	353.42
591.51	339.38
591.67	292.57
591.83	318.31
591.99	292.57
592.15	320.65
592.31	278.52
592.46	381.51
592.62	381.51
592.78	381.51
592.94	386.19
593.10	334.70
593.26	414.27
593.41	423.64
593.57	369.80
593.73	498.53
593.89	2087.76
594.05	4594.47
594.20	6387.32
594.36	5699.20
594.52	4018.70
594.68	2516.08
594.84	1802.21
594.99	992.39
595.15	566.41
595.31	351.08
595.47	472.79
595.62	334.70
595.78	353.42
595.94	292.57
596.10	365.12
596.25	423.64
596.41	397.89
596.57	315.97
596.73	367.46
596.88	477.47
597.04	1069.62
597.20	1437.09
597.36	1732.00
597.51	1313.04
597.67	945.58
597.83	638.97
597.99	414.27
598.14	425.98
598.30	353.42
598.46	372.15
598.61	414.27
598.77	374.49
598.93	318.31
599.09	262.14
599.24	402.57
599.40	409.59
599.56	358.10
599.71	320.65
599.87	315.97
600.03	290.23
600.18	231.71
600.34	299.59
600.50	301.93
600.65	273.84
600.81	276.18
600.97	250.44
601.12	292.57
601.28	383.85
601.44	294.91
601.59	306.61
601.75	283.20
601.91	245.76
602.06	351.08
602.22	421.30
602.37	606.20
602.53	1203.04
602.69	1689.87
602.84	1659.44
603.00	1177.29
603.16	866.00
603.31	748.97
603.47	491.51
603.62	308.95
603.78	367.46
603.94	341.72
604.09	224.69
604.25	379.17
604.40	334.70
604.56	313.63
604.71	327.68
604.87	280.86
605.03	280.86
605.18	322.99
605.34	379.17
605.49	280.86
605.65	367.46
605.80	320.65
605.96	294.91
606.12	217.67
606.27	358.10
606.43	308.95
606.58	404.91
606.74	676.41
606.89	2293.72
607.05	4304.25
607.20	5256.84
607.36	4339.35
607.51	3028.65
607.67	2108.82
607.82	1497.94
607.98	828.55
608.13	617.90
608.29	425.98
608.44	468.11
608.60	468.11
608.75	531.30
608.91	976.00
609.06	3695.71
609.22	7246.30
609.37	8997.02
609.53	7815.05
609.68	5472.17
609.84	3646.55
609.99	2609.70
610.15	1528.37
610.30	968.98
