SpectraSuite Data File
++++++++++++++++++++++++++++++++++++
Date: Fri Oct 04 11:33:50 GMT-05:00 2013
User: price-jones
Dark Spectrum Present: No
Reference Spectrum Present: No
Number of Sampled Component Spectra: 1
Spectrometers: USB2+H05261
Integration Time (usec): 100000 (USB2+H05261)
Spectra Averaged: 1 (USB2+H05261)
Boxcar Smoothing: 0 (USB2+H05261)
Correct for Electrical Dark: No (USB2+H05261)
Strobe/Lamp Enabled: No (USB2+H05261)
Correct for Detector Non-linearity: No (USB2+H05261)
Correct for Stray Light: No (USB2+H05261)
Number of Pixels in Processed Spectrum: 2048
>>>>>Begin Processed Spectral Data<<<<<
365.73	60.85
365.92	60.85
366.12	60.85
366.32	0.00
366.52	51.49
366.72	7.02
366.91	7.02
367.11	0.00
367.31	0.00
367.51	0.00
367.70	0.00
367.90	25.75
368.10	0.00
368.30	0.00
368.49	0.00
368.69	0.00
368.89	74.90
369.09	0.00
369.28	0.00
369.48	0.00
369.68	0.00
369.87	4.68
370.07	0.00
370.27	74.90
370.47	30.43
370.66	81.92
370.86	18.72
371.06	98.30
371.25	133.41
371.45	98.30
371.65	81.92
371.84	117.03
372.04	16.38
372.24	63.19
372.44	114.69
372.63	133.41
372.83	149.79
373.03	152.13
373.22	142.77
373.42	67.88
373.62	154.48
373.81	112.35
374.01	177.88
374.21	121.71
374.40	102.98
374.60	198.95
374.79	149.79
374.99	95.96
375.19	236.39
375.38	173.20
375.58	156.82
375.78	201.29
375.97	215.33
376.17	245.76
376.37	140.43
376.56	117.03
376.76	156.82
376.95	70.22
377.15	168.52
377.35	201.29
377.54	177.88
377.74	88.94
377.93	138.09
378.13	138.09
378.33	161.50
378.52	100.64
378.72	170.86
378.91	131.07
379.11	138.09
379.31	184.90
379.50	138.09
379.70	229.37
379.89	98.30
380.09	131.07
380.28	128.73
380.48	91.28
380.68	175.54
380.87	177.88
381.07	98.30
381.26	131.07
381.46	138.09
381.65	131.07
381.85	128.73
382.04	133.41
382.24	184.90
382.43	77.24
382.63	77.24
382.83	147.45
383.02	175.54
383.22	133.41
383.41	166.18
383.61	149.79
383.80	84.26
384.00	168.52
384.19	149.79
384.39	187.24
384.58	196.60
384.78	121.71
384.97	121.71
385.17	53.83
385.36	105.32
385.56	110.01
385.75	112.35
385.95	105.32
386.14	166.18
386.34	128.73
386.53	156.82
386.72	91.28
386.92	154.48
387.11	93.62
387.31	152.13
387.50	145.11
387.70	140.43
387.89	154.48
388.09	138.09
388.28	114.69
388.48	107.66
388.67	166.18
388.86	133.41
389.06	140.43
389.25	198.95
389.45	110.01
389.64	100.64
389.84	107.66
390.03	126.39
390.22	198.95
390.42	173.20
390.61	117.03
390.81	117.03
391.00	152.13
391.19	124.05
391.39	121.71
391.58	112.35
391.78	159.16
391.97	189.58
392.16	166.18
392.36	177.88
392.55	147.45
392.75	107.66
392.94	180.22
393.13	107.66
393.33	161.50
393.52	145.11
393.71	168.52
393.91	168.52
394.10	159.16
394.29	191.92
394.49	177.88
394.68	114.69
394.88	297.25
395.07	210.65
395.26	170.86
395.46	166.18
395.65	194.26
395.84	159.16
396.04	229.37
396.23	173.20
396.42	149.79
396.62	163.84
396.81	168.52
397.00	168.52
397.19	154.48
397.39	154.48
397.58	124.05
397.77	126.39
397.97	161.50
398.16	182.56
398.35	191.92
398.55	124.05
398.74	212.99
398.93	201.29
399.12	98.30
399.32	126.39
399.51	156.82
399.70	187.24
399.90	196.60
400.09	166.18
400.28	168.52
400.47	128.73
400.67	220.01
400.86	182.56
401.05	152.13
401.24	131.07
401.44	131.07
401.63	217.67
401.82	166.18
402.01	187.24
402.21	170.86
402.40	131.07
402.59	133.41
402.78	131.07
402.97	201.29
403.17	145.11
403.36	177.88
403.55	110.01
403.74	184.90
403.93	182.56
404.13	290.23
404.32	229.37
404.51	131.07
404.70	205.97
404.89	170.86
405.09	84.26
405.28	119.37
405.47	138.09
405.66	175.54
405.85	145.11
406.05	138.09
406.24	110.01
406.43	177.88
406.62	154.48
406.81	276.18
407.00	191.92
407.20	163.84
407.39	189.58
407.58	140.43
407.77	201.29
407.96	126.39
408.15	236.39
408.34	252.78
408.54	121.71
408.73	217.67
408.92	203.63
409.11	161.50
409.30	147.45
409.49	196.60
409.68	163.84
409.87	184.90
410.07	147.45
410.26	156.82
410.45	156.82
410.64	77.24
410.83	140.43
411.02	161.50
411.21	110.01
411.40	170.86
411.59	149.79
411.78	117.03
411.98	229.37
412.17	159.16
412.36	100.64
412.55	152.13
412.74	220.01
412.93	210.65
413.12	98.30
413.31	100.64
413.50	154.48
413.69	189.58
413.88	110.01
414.07	212.99
414.26	198.95
414.45	170.86
414.64	196.60
414.83	184.90
415.02	142.77
415.22	117.03
415.41	276.18
415.60	133.41
415.79	187.24
415.98	196.60
416.17	203.63
416.36	241.08
416.55	173.20
416.74	182.56
416.93	227.03
417.12	117.03
417.31	156.82
417.50	156.82
417.69	196.60
417.88	236.39
418.07	166.18
418.26	203.63
418.45	131.07
418.64	217.67
418.83	215.33
419.02	215.33
419.21	142.77
419.39	184.90
419.58	175.54
419.77	156.82
419.96	236.39
420.15	227.03
420.34	196.60
420.53	135.75
420.72	210.65
420.91	152.13
421.10	177.88
421.29	133.41
421.48	163.84
421.67	248.10
421.86	114.69
422.05	142.77
422.24	149.79
422.43	152.13
422.61	173.20
422.80	198.95
422.99	210.65
423.18	198.95
423.37	238.73
423.56	224.69
423.75	173.20
423.94	217.67
424.13	182.56
424.32	194.26
424.50	194.26
424.69	175.54
424.88	252.78
425.07	229.37
425.26	163.84
425.45	147.45
425.64	236.39
425.83	191.92
426.01	227.03
426.20	152.13
426.39	88.94
426.58	196.60
426.77	110.01
426.96	234.05
427.15	191.92
427.33	131.07
427.52	152.13
427.71	224.69
427.90	147.45
428.09	138.09
428.28	142.77
428.46	156.82
428.65	215.33
428.84	269.16
429.03	222.35
429.22	210.65
429.40	112.35
429.59	180.22
429.78	184.90
429.97	131.07
430.16	124.05
430.34	290.23
430.53	187.24
430.72	215.33
430.91	210.65
431.10	154.48
431.28	131.07
431.47	224.69
431.66	243.42
431.85	177.88
432.03	131.07
432.22	184.90
432.41	117.03
432.60	149.79
432.79	215.33
432.97	280.86
433.16	159.16
433.35	201.29
433.54	131.07
433.72	299.59
433.91	184.90
434.10	212.99
434.28	201.29
434.47	173.20
434.66	173.20
434.85	220.01
435.03	248.10
435.22	386.19
435.41	561.73
435.59	444.70
435.78	402.57
435.97	287.89
436.16	255.12
436.34	156.82
436.53	189.58
436.72	163.84
436.90	180.22
437.09	168.52
437.28	156.82
437.46	194.26
437.65	236.39
437.84	210.65
438.02	198.95
438.21	145.11
438.40	161.50
438.58	147.45
438.77	170.86
438.96	175.54
439.14	191.92
439.33	201.29
439.52	191.92
439.70	154.48
439.89	266.82
440.08	252.78
440.26	187.24
440.45	189.58
440.63	196.60
440.82	168.52
441.01	203.63
441.19	264.48
441.38	215.33
441.57	205.97
441.75	198.95
441.94	212.99
442.12	229.37
442.31	210.65
442.50	236.39
442.68	154.48
442.87	203.63
443.05	145.11
443.24	194.26
443.43	154.48
443.61	149.79
443.80	149.79
443.98	201.29
444.17	217.67
444.35	191.92
444.54	276.18
444.73	187.24
444.91	201.29
445.10	163.84
445.28	142.77
445.47	184.90
445.65	180.22
445.84	124.05
446.02	173.20
446.21	205.97
446.39	248.10
446.58	255.12
446.77	205.97
446.95	269.16
447.14	222.35
447.32	182.56
447.51	191.92
447.69	152.13
447.88	156.82
448.06	217.67
448.25	215.33
448.43	231.71
448.62	189.58
448.80	224.69
448.99	215.33
449.17	175.54
449.36	222.35
449.54	210.65
449.73	187.24
449.91	140.43
450.10	189.58
450.28	248.10
450.46	215.33
450.65	196.60
450.83	210.65
451.02	215.33
451.20	227.03
451.39	124.05
451.57	238.73
451.76	187.24
451.94	229.37
452.13	173.20
452.31	168.52
452.49	98.30
452.68	217.67
452.86	257.46
453.05	241.08
453.23	184.90
453.42	227.03
453.60	273.84
453.78	212.99
453.97	152.13
454.15	145.11
454.34	166.18
454.52	227.03
454.70	231.71
454.89	201.29
455.07	203.63
455.26	224.69
455.44	248.10
455.62	262.14
455.81	182.56
455.99	149.79
456.17	243.42
456.36	156.82
456.54	184.90
456.73	124.05
456.91	145.11
457.09	215.33
457.28	196.60
457.46	182.56
457.64	201.29
457.83	156.82
458.01	222.35
458.19	173.20
458.38	203.63
458.56	250.44
458.74	161.50
458.93	227.03
459.11	180.22
459.29	222.35
459.48	191.92
459.66	245.76
459.84	222.35
460.03	292.57
460.21	266.82
460.39	196.60
460.57	203.63
460.76	175.54
460.94	264.48
461.12	271.50
461.31	212.99
461.49	250.44
461.67	252.78
461.85	159.16
462.04	166.18
462.22	638.97
462.40	194.26
462.59	236.39
462.77	187.24
462.95	177.88
463.13	175.54
463.32	203.63
463.50	205.97
463.68	224.69
463.86	159.16
464.05	191.92
464.23	152.13
464.41	205.97
464.59	229.37
464.78	168.52
464.96	201.29
465.14	227.03
465.32	175.54
465.50	198.95
465.69	217.67
465.87	147.45
466.05	201.29
466.23	149.79
466.41	212.99
466.60	187.24
466.78	152.13
466.96	243.42
467.14	182.56
467.32	283.20
467.51	212.99
467.69	217.67
467.87	238.73
468.05	208.31
468.23	184.90
468.41	283.20
468.60	255.12
468.78	243.42
468.96	234.05
469.14	229.37
469.32	170.86
469.50	177.88
469.69	262.14
469.87	180.22
470.05	163.84
470.23	170.86
470.41	220.01
470.59	142.77
470.77	203.63
470.95	259.80
471.14	175.54
471.32	229.37
471.50	243.42
471.68	222.35
471.86	168.52
472.04	163.84
472.22	238.73
472.40	184.90
472.58	180.22
472.77	182.56
472.95	278.52
473.13	234.05
473.31	231.71
473.49	245.76
473.67	201.29
473.85	205.97
474.03	205.97
474.21	126.39
474.39	210.65
474.57	269.16
474.75	264.48
474.93	177.88
475.12	203.63
475.30	257.46
475.48	161.50
475.66	187.24
475.84	205.97
476.02	138.09
476.20	217.67
476.38	147.45
476.56	292.57
476.74	262.14
476.92	184.90
477.10	259.80
477.28	255.12
477.46	177.88
477.64	224.69
477.82	210.65
478.00	142.77
478.18	266.82
478.36	161.50
478.54	301.93
478.72	252.78
478.90	208.31
479.08	224.69
479.26	147.45
479.44	175.54
479.62	205.97
479.80	203.63
479.98	194.26
480.16	196.60
480.34	220.01
480.52	201.29
480.70	191.92
480.88	149.79
481.06	189.58
481.24	205.97
481.41	149.79
481.59	170.86
481.77	227.03
481.95	177.88
482.13	238.73
482.31	294.91
482.49	250.44
482.67	245.76
482.85	264.48
483.03	306.61
483.21	248.10
483.39	294.91
483.57	257.46
483.74	252.78
483.92	259.80
484.10	290.23
484.28	269.16
484.46	360.44
484.64	196.60
484.82	231.71
485.00	250.44
485.18	241.08
485.35	304.27
485.53	252.78
485.71	280.86
485.89	210.65
486.07	234.05
486.25	400.23
486.43	285.55
486.61	308.95
486.78	292.57
486.96	257.46
487.14	248.10
487.32	259.80
487.50	266.82
487.68	243.42
487.85	276.18
488.03	238.73
488.21	313.63
488.39	238.73
488.57	234.05
488.75	299.59
488.92	564.07
489.10	301.93
489.28	362.78
489.46	248.10
489.64	250.44
489.81	301.93
489.99	306.61
490.17	304.27
490.35	290.23
490.53	201.29
490.70	283.20
490.88	344.06
491.06	294.91
491.24	334.70
491.41	402.57
491.59	234.05
491.77	292.57
491.95	325.33
492.13	283.20
492.30	285.55
492.48	271.50
492.66	248.10
492.84	217.67
493.01	271.50
493.19	264.48
493.37	369.80
493.54	294.91
493.72	390.87
493.90	327.68
494.08	220.01
494.25	367.46
494.43	304.27
494.61	266.82
494.79	227.03
494.96	311.29
495.14	294.91
495.32	294.91
495.49	259.80
495.67	299.59
495.85	271.50
496.02	344.06
496.20	306.61
496.38	322.99
496.55	205.97
496.73	245.76
496.91	294.91
497.09	271.50
497.26	301.93
497.44	269.16
497.62	262.14
497.79	248.10
497.97	250.44
498.14	299.59
498.32	255.12
498.50	306.61
498.67	322.99
498.85	266.82
499.03	301.93
499.20	212.99
499.38	292.57
499.56	280.86
499.73	290.23
499.91	311.29
500.08	257.46
500.26	264.48
500.44	311.29
500.61	301.93
500.79	229.37
500.97	287.89
501.14	311.29
501.32	322.99
501.49	285.55
501.67	217.67
501.84	238.73
502.02	224.69
502.20	304.27
502.37	224.69
502.55	241.08
502.72	166.18
502.90	285.55
503.07	252.78
503.25	292.57
503.43	231.71
503.60	212.99
503.78	259.80
503.95	269.16
504.13	212.99
504.30	306.61
504.48	250.44
504.65	397.89
504.83	266.82
505.01	299.59
505.18	262.14
505.36	276.18
505.53	241.08
505.71	292.57
505.88	283.20
506.06	238.73
506.23	271.50
506.41	334.70
506.58	231.71
506.76	276.18
506.93	315.97
507.11	243.42
507.28	299.59
507.46	308.95
507.63	280.86
507.81	266.82
507.98	227.03
508.16	358.10
508.33	320.65
508.50	315.97
508.68	220.01
508.85	287.89
509.03	313.63
509.20	327.68
509.38	222.35
509.55	318.31
509.73	280.86
509.90	313.63
510.08	248.10
510.25	320.65
510.42	241.08
510.60	227.03
510.77	245.76
510.95	355.76
511.12	255.12
511.30	313.63
511.47	203.63
511.64	353.42
511.82	294.91
511.99	220.01
512.17	330.02
512.34	238.73
512.51	353.42
512.69	362.78
512.86	337.04
513.04	227.03
513.21	238.73
513.38	250.44
513.56	301.93
513.73	285.55
513.90	241.08
514.08	266.82
514.25	299.59
514.43	339.38
514.60	344.06
514.77	306.61
514.95	360.44
515.12	273.84
515.29	280.86
515.47	297.25
515.64	315.97
515.81	294.91
515.99	262.14
516.16	330.02
516.33	306.61
516.51	280.86
516.68	250.44
516.85	243.42
517.03	269.16
517.20	241.08
517.37	257.46
517.54	311.29
517.72	241.08
517.89	210.65
518.06	231.71
518.24	341.72
518.41	318.31
518.58	299.59
518.75	238.73
518.93	322.99
519.10	290.23
519.27	252.78
519.45	355.76
519.62	269.16
519.79	290.23
519.96	203.63
520.14	278.52
520.31	355.76
520.48	292.57
520.65	339.38
520.83	327.68
521.00	304.27
521.17	341.72
521.34	264.48
521.52	304.27
521.69	255.12
521.86	259.80
522.03	332.36
522.20	435.34
522.38	224.69
522.55	290.23
522.72	262.14
522.89	250.44
523.07	294.91
523.24	348.74
523.41	308.95
523.58	301.93
523.75	250.44
523.92	238.73
524.10	262.14
524.27	313.63
524.44	292.57
524.61	348.74
524.78	283.20
524.96	306.61
525.13	311.29
525.30	365.12
525.47	318.31
525.64	315.97
525.81	271.50
525.98	243.42
526.16	276.18
526.33	220.01
526.50	276.18
526.67	306.61
526.84	259.80
527.01	278.52
527.18	280.86
527.36	278.52
527.53	337.04
527.70	341.72
527.87	301.93
528.04	379.17
528.21	241.08
528.38	346.40
528.55	315.97
528.72	236.39
528.89	409.59
529.07	264.48
529.24	355.76
529.41	337.04
529.58	311.29
529.75	320.65
529.92	372.15
530.09	304.27
530.26	308.95
530.43	280.86
530.60	243.42
530.77	313.63
530.94	339.38
531.11	269.16
531.28	341.72
531.46	271.50
531.63	325.33
531.80	133.41
531.97	294.91
532.14	313.63
532.31	299.59
532.48	283.20
532.65	341.72
532.82	369.80
532.99	360.44
533.16	383.85
533.33	330.02
533.50	332.36
533.67	297.25
533.84	393.21
534.01	376.83
534.18	409.59
534.35	397.89
534.52	278.52
534.69	416.62
534.86	292.57
535.03	374.49
535.20	360.44
535.37	344.06
535.54	301.93
535.71	346.40
535.88	435.34
536.05	346.40
536.22	339.38
536.38	299.59
536.55	341.72
536.72	280.86
536.89	327.68
537.06	304.27
537.23	360.44
537.40	358.10
537.57	374.49
537.74	435.34
537.91	444.70
538.08	374.49
538.25	456.40
538.42	346.40
538.59	383.85
538.75	334.70
538.92	388.53
539.09	313.63
539.26	322.99
539.43	421.30
539.60	580.45
539.77	814.51
539.94	875.36
540.11	706.84
540.28	543.00
540.44	554.71
540.61	484.49
540.78	545.34
540.95	559.39
541.12	695.14
541.29	484.49
541.46	711.52
541.62	641.31
541.79	638.97
541.96	596.84
542.13	620.24
542.30	552.37
542.47	557.05
542.63	496.19
542.80	550.03
542.97	528.96
543.14	566.41
543.31	578.11
543.48	571.09
543.64	629.60
543.81	554.71
543.98	507.90
544.15	496.19
544.32	568.75
544.48	596.84
544.65	629.60
544.82	566.41
544.99	573.43
545.16	608.54
545.32	561.73
545.49	894.08
545.66	1008.77
545.83	1329.42
546.00	1142.18
546.16	854.30
546.33	688.12
546.50	655.35
546.67	571.09
546.83	571.09
547.00	514.92
547.17	477.47
547.34	486.83
547.50	538.32
547.67	477.47
547.84	395.55
548.00	482.15
548.17	489.17
548.34	449.38
548.51	489.17
548.67	423.64
548.84	397.89
549.01	348.74
549.18	470.45
549.34	470.45
549.51	484.49
549.68	400.23
549.84	414.27
550.01	390.87
550.18	521.94
550.34	400.23
550.51	388.53
550.68	351.08
550.84	376.83
551.01	344.06
551.18	423.64
551.34	374.49
551.51	372.15
551.68	341.72
551.84	433.00
552.01	397.89
552.18	348.74
552.34	322.99
552.51	334.70
552.68	362.78
552.84	341.72
553.01	313.63
553.18	341.72
553.34	372.15
553.51	374.49
553.67	416.62
553.84	416.62
554.01	348.74
554.17	315.97
554.34	339.38
554.51	334.70
554.67	374.49
554.84	337.04
555.00	255.12
555.17	346.40
555.33	362.78
555.50	304.27
555.67	355.76
555.83	287.89
556.00	283.20
556.16	493.85
556.33	383.85
556.50	346.40
556.66	294.91
556.83	252.78
556.99	327.68
557.16	297.25
557.32	276.18
557.49	334.70
557.65	315.97
557.82	290.23
557.98	360.44
558.15	196.60
558.32	234.05
558.48	292.57
558.65	222.35
558.81	264.48
558.98	287.89
559.14	266.82
559.31	351.08
559.47	388.53
559.64	306.61
559.80	257.46
559.97	304.27
560.13	292.57
560.30	327.68
560.46	311.29
560.63	271.50
560.79	376.83
560.96	280.86
561.12	259.80
561.29	273.84
561.45	283.20
561.61	257.46
561.78	372.15
561.94	313.63
562.11	287.89
562.27	311.29
562.44	332.36
562.60	271.50
562.77	194.26
562.93	344.06
563.10	304.27
563.26	255.12
563.42	301.93
563.59	292.57
563.75	322.99
563.92	311.29
564.08	339.38
564.24	308.95
564.41	355.76
564.57	327.68
564.74	248.10
564.90	292.57
565.07	353.42
565.23	280.86
565.39	344.06
565.56	308.95
565.72	273.84
565.88	337.04
566.05	285.55
566.21	259.80
566.38	210.65
566.54	330.02
566.70	365.12
566.87	320.65
567.03	285.55
567.19	205.97
567.36	299.59
567.52	191.92
567.68	346.40
567.85	262.14
568.01	280.86
568.17	217.67
568.34	273.84
568.50	320.65
568.66	205.97
568.83	337.04
568.99	208.31
569.15	320.65
569.32	191.92
569.48	290.23
569.64	264.48
569.81	264.48
569.97	301.93
570.13	273.84
570.30	257.46
570.46	325.33
570.62	250.44
570.78	222.35
570.95	269.16
571.11	355.76
571.27	308.95
571.43	348.74
571.60	278.52
571.76	337.04
571.92	273.84
572.09	248.10
572.25	278.52
572.41	259.80
572.57	276.18
572.74	255.12
572.90	337.04
573.06	308.95
573.22	276.18
573.38	372.15
573.55	325.33
573.71	290.23
573.87	367.46
574.03	262.14
574.20	320.65
574.36	332.36
574.52	257.46
574.68	287.89
574.84	318.31
575.01	283.20
575.17	266.82
575.33	299.59
575.49	255.12
575.65	231.71
575.82	325.33
575.98	404.91
576.14	433.00
576.30	550.03
576.46	498.53
576.62	482.15
576.79	505.56
576.95	470.45
577.11	313.63
577.27	243.42
577.43	362.78
577.59	388.53
577.75	287.89
577.92	306.61
578.08	280.86
578.24	322.99
578.40	388.53
578.56	381.51
578.72	454.06
578.88	411.93
579.04	409.59
579.21	428.32
579.37	318.31
579.53	334.70
579.69	372.15
579.85	402.57
580.01	475.13
580.17	407.25
580.33	383.85
580.49	360.44
580.65	330.02
580.82	320.65
580.98	322.99
581.14	362.78
581.30	344.06
581.46	376.83
581.62	421.30
581.78	477.47
581.94	461.09
582.10	404.91
582.26	463.43
582.42	360.44
582.58	479.81
582.74	372.15
582.90	468.11
583.06	374.49
583.22	456.40
583.38	449.38
583.54	416.62
583.70	489.17
583.86	489.17
584.02	636.63
584.18	559.39
584.34	650.67
584.50	1121.12
584.66	6256.25
584.82	17689.77
584.98	30352.07
585.14	28526.45
585.30	16908.03
585.46	9870.04
585.62	6415.41
585.78	3133.98
585.94	1411.34
586.10	807.48
586.26	671.73
586.42	627.26
586.58	440.02
586.74	416.62
586.90	463.43
587.06	535.98
587.22	468.11
587.38	559.39
587.54	617.90
587.70	1315.38
587.86	2059.67
588.02	2527.78
588.18	1837.32
588.34	1320.06
588.49	786.42
588.65	662.37
588.81	496.19
588.97	292.57
589.13	360.44
589.29	372.15
589.45	330.02
589.61	362.78
589.77	334.70
589.93	404.91
590.08	353.42
590.24	386.19
590.40	360.44
590.56	437.68
590.72	374.49
590.88	390.87
591.04	304.27
591.20	341.72
591.35	297.25
591.51	337.04
591.67	404.91
591.83	381.51
591.99	393.21
592.15	442.36
592.31	402.57
592.46	358.10
592.62	351.08
592.78	372.15
592.94	411.93
593.10	339.38
593.26	425.98
593.41	409.59
593.57	376.83
593.73	493.85
593.89	1069.62
594.05	2310.11
594.20	3782.31
594.36	3861.88
594.52	2708.00
594.68	1680.50
594.84	1219.42
594.99	767.70
595.15	503.22
595.31	435.34
595.47	461.09
595.62	315.97
595.78	348.74
595.94	355.76
596.10	339.38
596.25	360.44
596.41	351.08
596.57	344.06
596.73	339.38
596.88	414.27
597.04	615.56
597.20	978.34
597.36	1174.95
597.51	966.64
597.67	667.05
597.83	524.28
597.99	472.79
598.14	402.57
598.30	365.12
598.46	334.70
598.61	337.04
598.77	332.36
598.93	372.15
599.09	365.12
599.24	416.62
599.40	367.46
599.56	322.99
599.71	299.59
599.87	290.23
600.03	358.10
600.18	355.76
600.34	299.59
600.50	327.68
600.65	229.37
600.81	327.68
600.97	306.61
601.12	280.86
601.28	311.29
601.44	264.48
601.59	334.70
601.75	353.42
601.91	273.84
602.06	308.95
602.22	395.55
602.37	496.19
602.53	746.63
602.69	1097.71
602.84	1308.36
603.00	936.21
603.16	758.33
603.31	606.20
603.47	514.92
603.62	320.65
603.78	276.18
603.94	332.36
604.09	290.23
604.25	313.63
604.40	362.78
604.56	362.78
604.71	308.95
604.87	308.95
605.03	407.25
605.18	337.04
605.34	280.86
605.49	330.02
605.65	355.76
605.80	299.59
605.96	344.06
606.12	322.99
606.27	318.31
606.43	299.59
606.58	365.12
606.74	442.36
606.89	1299.00
607.05	2480.97
607.20	3480.38
607.36	3021.63
607.51	2054.99
607.67	1451.13
607.82	1006.43
607.98	788.76
608.13	533.64
608.29	416.62
608.44	362.78
608.60	346.40
608.75	486.83
608.91	664.71
609.06	1827.96
609.22	3875.93
609.37	5701.54
609.53	5193.65
609.68	3487.40
609.84	2443.52
609.99	1757.74
610.15	1289.64
610.30	912.81
