SpectraSuite Data File
++++++++++++++++++++++++++++++++++++
Date: Fri Oct 04 11:34:04 GMT-05:00 2013
User: price-jones
Dark Spectrum Present: No
Reference Spectrum Present: No
Number of Sampled Component Spectra: 1
Spectrometers: USB2+H05261
Integration Time (usec): 100000 (USB2+H05261)
Spectra Averaged: 1 (USB2+H05261)
Boxcar Smoothing: 0 (USB2+H05261)
Correct for Electrical Dark: No (USB2+H05261)
Strobe/Lamp Enabled: No (USB2+H05261)
Correct for Detector Non-linearity: No (USB2+H05261)
Correct for Stray Light: No (USB2+H05261)
Number of Pixels in Processed Spectrum: 2048
>>>>>Begin Processed Spectral Data<<<<<
365.73	98.30
365.92	98.30
366.12	98.30
366.32	35.11
366.52	18.72
366.72	0.00
366.91	0.00
367.11	0.00
367.31	0.00
367.51	0.00
367.70	0.00
367.90	0.00
368.10	0.00
368.30	21.06
368.49	0.00
368.69	0.00
368.89	0.00
369.09	0.00
369.28	0.00
369.48	0.00
369.68	21.06
369.87	30.43
370.07	23.41
370.27	53.83
370.47	63.19
370.66	0.00
370.86	91.28
371.06	67.88
371.25	159.16
371.45	53.83
371.65	58.51
371.84	142.77
372.04	81.92
372.24	159.16
372.44	161.50
372.63	121.71
372.83	198.95
373.03	126.39
373.22	112.35
373.42	196.60
373.62	86.60
373.81	140.43
374.01	149.79
374.21	177.88
374.40	173.20
374.60	191.92
374.79	166.18
374.99	170.86
375.19	119.37
375.38	133.41
375.58	140.43
375.78	159.16
375.97	166.18
376.17	264.48
376.37	159.16
376.56	133.41
376.76	177.88
376.95	168.52
377.15	184.90
377.35	159.16
377.54	168.52
377.74	212.99
377.93	173.20
378.13	140.43
378.33	180.22
378.52	198.95
378.72	177.88
378.91	189.58
379.11	170.86
379.31	147.45
379.50	110.01
379.70	170.86
379.89	227.03
380.09	124.05
380.28	124.05
380.48	156.82
380.68	159.16
380.87	131.07
381.07	170.86
381.26	173.20
381.46	140.43
381.65	147.45
381.85	93.62
382.04	145.11
382.24	156.82
382.43	95.96
382.63	168.52
382.83	135.75
383.02	175.54
383.22	210.65
383.41	128.73
383.61	98.30
383.80	154.48
384.00	121.71
384.19	114.69
384.39	159.16
384.58	154.48
384.78	163.84
384.97	154.48
385.17	189.58
385.36	161.50
385.56	154.48
385.75	170.86
385.95	117.03
386.14	184.90
386.34	119.37
386.53	180.22
386.72	105.32
386.92	128.73
387.11	124.05
387.31	110.01
387.50	65.54
387.70	110.01
387.89	173.20
388.09	72.56
388.28	166.18
388.48	110.01
388.67	135.75
388.86	170.86
389.06	102.98
389.25	166.18
389.45	175.54
389.64	142.77
389.84	189.58
390.03	105.32
390.22	79.58
390.42	88.94
390.61	191.92
390.81	147.45
391.00	194.26
391.19	191.92
391.39	212.99
391.58	138.09
391.78	107.66
391.97	107.66
392.16	84.26
392.36	184.90
392.55	74.90
392.75	156.82
392.94	131.07
393.13	145.11
393.33	156.82
393.52	51.49
393.71	133.41
393.91	205.97
394.10	112.35
394.29	152.13
394.49	170.86
394.68	161.50
394.88	84.26
395.07	229.37
395.26	119.37
395.46	112.35
395.65	133.41
395.84	119.37
396.04	231.71
396.23	133.41
396.42	74.90
396.62	107.66
396.81	149.79
397.00	159.16
397.19	133.41
397.39	53.83
397.58	175.54
397.77	74.90
397.97	117.03
398.16	145.11
398.35	156.82
398.55	124.05
398.74	91.28
398.93	180.22
399.12	98.30
399.32	182.56
399.51	161.50
399.70	191.92
399.90	191.92
400.09	161.50
400.28	222.35
400.47	138.09
400.67	220.01
400.86	124.05
401.05	191.92
401.24	196.60
401.44	191.92
401.63	154.48
401.82	203.63
402.01	121.71
402.21	124.05
402.40	152.13
402.59	189.58
402.78	166.18
402.97	191.92
403.17	152.13
403.36	110.01
403.55	110.01
403.74	175.54
403.93	168.52
404.13	252.78
404.32	208.31
404.51	191.92
404.70	161.50
404.89	189.58
405.09	131.07
405.28	133.41
405.47	128.73
405.66	161.50
405.85	245.76
406.05	98.30
406.24	72.56
406.43	110.01
406.62	177.88
406.81	149.79
407.00	210.65
407.20	152.13
407.39	138.09
407.58	196.60
407.77	163.84
407.96	161.50
408.15	170.86
408.34	135.75
408.54	42.13
408.73	166.18
408.92	117.03
409.11	203.63
409.30	161.50
409.49	177.88
409.68	147.45
409.87	117.03
410.07	255.12
410.26	175.54
410.45	159.16
410.64	60.85
410.83	191.92
411.02	168.52
411.21	184.90
411.40	159.16
411.59	154.48
411.78	156.82
411.98	170.86
412.17	110.01
412.36	180.22
412.55	128.73
412.74	105.32
412.93	163.84
413.12	133.41
413.31	161.50
413.50	205.97
413.69	126.39
413.88	215.33
414.07	166.18
414.26	184.90
414.45	124.05
414.64	114.69
414.83	163.84
415.02	105.32
415.22	173.20
415.41	210.65
415.60	145.11
415.79	177.88
415.98	161.50
416.17	180.22
416.36	184.90
416.55	184.90
416.74	191.92
416.93	168.52
417.12	212.99
417.31	194.26
417.50	140.43
417.69	203.63
417.88	241.08
418.07	191.92
418.26	248.10
418.45	212.99
418.64	191.92
418.83	201.29
419.02	255.12
419.21	245.76
419.39	250.44
419.58	161.50
419.77	166.18
419.96	142.77
420.15	227.03
420.34	147.45
420.53	196.60
420.72	124.05
420.91	220.01
421.10	245.76
421.29	203.63
421.48	135.75
421.67	201.29
421.86	205.97
422.05	145.11
422.24	79.58
422.43	201.29
422.61	189.58
422.80	198.95
422.99	168.52
423.18	222.35
423.37	236.39
423.56	163.84
423.75	187.24
423.94	163.84
424.13	114.69
424.32	229.37
424.50	184.90
424.69	205.97
424.88	217.67
425.07	117.03
425.26	182.56
425.45	227.03
425.64	227.03
425.83	266.82
426.01	203.63
426.20	205.97
426.39	117.03
426.58	154.48
426.77	191.92
426.96	236.39
427.15	198.95
427.33	128.73
427.52	166.18
427.71	170.86
427.90	126.39
428.09	149.79
428.28	194.26
428.46	168.52
428.65	142.77
428.84	119.37
429.03	236.39
429.22	173.20
429.40	177.88
429.59	205.97
429.78	245.76
429.97	110.01
430.16	175.54
430.34	156.82
430.53	131.07
430.72	175.54
430.91	198.95
431.10	138.09
431.28	159.16
431.47	142.77
431.66	189.58
431.85	203.63
432.03	133.41
432.22	227.03
432.41	196.60
432.60	177.88
432.79	227.03
432.97	229.37
433.16	180.22
433.35	201.29
433.54	159.16
433.72	201.29
433.91	210.65
434.10	184.90
434.28	238.73
434.47	159.16
434.66	191.92
434.85	177.88
435.03	196.60
435.22	325.33
435.41	454.06
435.59	400.23
435.78	353.42
435.97	201.29
436.16	222.35
436.34	217.67
436.53	138.09
436.72	161.50
436.90	170.86
437.09	187.24
437.28	212.99
437.46	168.52
437.65	170.86
437.84	121.71
438.02	175.54
438.21	81.92
438.40	212.99
438.58	126.39
438.77	170.86
438.96	152.13
439.14	191.92
439.33	170.86
439.52	119.37
439.70	147.45
439.89	149.79
440.08	203.63
440.26	112.35
440.45	191.92
440.63	152.13
440.82	212.99
441.01	189.58
441.19	128.73
441.38	166.18
441.57	175.54
441.75	154.48
441.94	163.84
442.12	170.86
442.31	112.35
442.50	201.29
442.68	159.16
442.87	177.88
443.05	131.07
443.24	184.90
443.43	196.60
443.61	198.95
443.80	163.84
443.98	227.03
444.17	149.79
444.35	252.78
444.54	234.05
444.73	163.84
444.91	173.20
445.10	145.11
445.28	177.88
445.47	152.13
445.65	196.60
445.84	248.10
446.02	203.63
446.21	170.86
446.39	140.43
446.58	208.31
446.77	194.26
446.95	105.32
447.14	198.95
447.32	145.11
447.51	182.56
447.69	210.65
447.88	187.24
448.06	273.84
448.25	224.69
448.43	224.69
448.62	163.84
448.80	161.50
448.99	124.05
449.17	149.79
449.36	231.71
449.54	217.67
449.73	182.56
449.91	175.54
450.10	170.86
450.28	194.26
450.46	203.63
450.65	133.41
450.83	212.99
451.02	203.63
451.20	156.82
451.39	210.65
451.57	180.22
451.76	84.26
451.94	156.82
452.13	124.05
452.31	201.29
452.49	166.18
452.68	163.84
452.86	203.63
453.05	276.18
453.23	173.20
453.42	166.18
453.60	201.29
453.78	184.90
453.97	163.84
454.15	196.60
454.34	142.77
454.52	159.16
454.70	212.99
454.89	229.37
455.07	189.58
455.26	198.95
455.44	217.67
455.62	203.63
455.81	182.56
455.99	205.97
456.17	175.54
456.36	191.92
456.54	201.29
456.73	212.99
456.91	149.79
457.09	163.84
457.28	248.10
457.46	128.73
457.64	147.45
457.83	231.71
458.01	77.24
458.19	217.67
458.38	135.75
458.56	212.99
458.74	189.58
458.93	208.31
459.11	243.42
459.29	271.50
459.48	220.01
459.66	175.54
459.84	184.90
460.03	252.78
460.21	161.50
460.39	163.84
460.57	184.90
460.76	117.03
460.94	140.43
461.12	250.44
461.31	222.35
461.49	182.56
461.67	201.29
461.85	170.86
462.04	187.24
462.22	592.16
462.40	212.99
462.59	189.58
462.77	196.60
462.95	208.31
463.13	152.13
463.32	297.25
463.50	203.63
463.68	205.97
463.86	170.86
464.05	212.99
464.23	229.37
464.41	159.16
464.59	241.08
464.78	175.54
464.96	182.56
465.14	163.84
465.32	184.90
465.50	203.63
465.69	205.97
465.87	182.56
466.05	252.78
466.23	177.88
466.41	187.24
466.60	212.99
466.78	227.03
466.96	187.24
467.14	269.16
467.32	278.52
467.51	175.54
467.69	140.43
467.87	205.97
468.05	175.54
468.23	241.08
468.41	201.29
468.60	124.05
468.78	166.18
468.96	163.84
469.14	203.63
469.32	201.29
469.50	248.10
469.69	182.56
469.87	212.99
470.05	138.09
470.23	191.92
470.41	191.92
470.59	205.97
470.77	243.42
470.95	191.92
471.14	224.69
471.32	142.77
471.50	234.05
471.68	182.56
471.86	205.97
472.04	196.60
472.22	145.11
472.40	215.33
472.58	175.54
472.77	198.95
472.95	135.75
473.13	252.78
473.31	210.65
473.49	168.52
473.67	189.58
473.85	208.31
474.03	187.24
474.21	156.82
474.39	177.88
474.57	297.25
474.75	194.26
474.93	194.26
475.12	163.84
475.30	222.35
475.48	201.29
475.66	135.75
475.84	208.31
476.02	212.99
476.20	224.69
476.38	238.73
476.56	299.59
476.74	210.65
476.92	187.24
477.10	266.82
477.28	234.05
477.46	170.86
477.64	257.46
477.82	196.60
478.00	191.92
478.18	191.92
478.36	110.01
478.54	166.18
478.72	210.65
478.90	266.82
479.08	168.52
479.26	196.60
479.44	161.50
479.62	189.58
479.80	191.92
479.98	168.52
480.16	229.37
480.34	243.42
480.52	224.69
480.70	245.76
480.88	198.95
481.06	191.92
481.24	201.29
481.41	201.29
481.59	163.84
481.77	229.37
481.95	163.84
482.13	236.39
482.31	182.56
482.49	191.92
482.67	287.89
482.85	217.67
483.03	264.48
483.21	241.08
483.39	205.97
483.57	238.73
483.74	285.55
483.92	243.42
484.10	203.63
484.28	243.42
484.46	287.89
484.64	245.76
484.82	215.33
485.00	227.03
485.18	266.82
485.35	264.48
485.53	229.37
485.71	203.63
485.89	273.84
486.07	222.35
486.25	313.63
486.43	208.31
486.61	227.03
486.78	308.95
486.96	198.95
487.14	238.73
487.32	245.76
487.50	208.31
487.68	243.42
487.85	210.65
488.03	222.35
488.21	255.12
488.39	210.65
488.57	252.78
488.75	243.42
488.92	545.34
489.10	273.84
489.28	311.29
489.46	241.08
489.64	231.71
489.81	212.99
489.99	292.57
490.17	308.95
490.35	318.31
490.53	212.99
490.70	198.95
490.88	238.73
491.06	210.65
491.24	325.33
491.41	273.84
491.59	243.42
491.77	196.60
491.95	212.99
492.13	252.78
492.30	241.08
492.48	266.82
492.66	271.50
492.84	224.69
493.01	231.71
493.19	227.03
493.37	262.14
493.54	208.31
493.72	227.03
493.90	304.27
494.08	273.84
494.25	243.42
494.43	224.69
494.61	238.73
494.79	243.42
494.96	191.92
495.14	248.10
495.32	273.84
495.49	262.14
495.67	210.65
495.85	259.80
496.02	315.97
496.20	273.84
496.38	220.01
496.55	280.86
496.73	313.63
496.91	283.20
497.09	234.05
497.26	236.39
497.44	269.16
497.62	252.78
497.79	154.48
497.97	248.10
498.14	257.46
498.32	229.37
498.50	257.46
498.67	334.70
498.85	255.12
499.03	234.05
499.20	212.99
499.38	187.24
499.56	297.25
499.73	299.59
499.91	212.99
500.08	294.91
500.26	222.35
500.44	308.95
500.61	196.60
500.79	248.10
500.97	184.90
501.14	294.91
501.32	252.78
501.49	234.05
501.67	236.39
501.84	231.71
502.02	217.67
502.20	255.12
502.37	236.39
502.55	248.10
502.72	313.63
502.90	208.31
503.07	283.20
503.25	222.35
503.43	245.76
503.60	238.73
503.78	245.76
503.95	210.65
504.13	149.79
504.30	264.48
504.48	318.31
504.65	220.01
504.83	250.44
505.01	222.35
505.18	308.95
505.36	252.78
505.53	280.86
505.71	187.24
505.88	285.55
506.06	278.52
506.23	198.95
506.41	264.48
506.58	292.57
506.76	259.80
506.93	205.97
507.11	201.29
507.28	259.80
507.46	273.84
507.63	224.69
507.81	264.48
507.98	313.63
508.16	170.86
508.33	212.99
508.50	224.69
508.68	248.10
508.85	231.71
509.03	257.46
509.20	290.23
509.38	292.57
509.55	341.72
509.73	271.50
509.90	332.36
510.08	189.58
510.25	290.23
510.42	208.31
510.60	182.56
510.77	201.29
510.95	241.08
511.12	201.29
511.30	278.52
511.47	215.33
511.64	297.25
511.82	273.84
511.99	215.33
512.17	315.97
512.34	241.08
512.51	184.90
512.69	297.25
512.86	229.37
513.04	285.55
513.21	271.50
513.38	259.80
513.56	283.20
513.73	212.99
513.90	266.82
514.08	259.80
514.25	325.33
514.43	292.57
514.60	224.69
514.77	227.03
514.95	234.05
515.12	290.23
515.29	297.25
515.47	227.03
515.64	205.97
515.81	198.95
515.99	248.10
516.16	243.42
516.33	271.50
516.51	257.46
516.68	168.52
516.85	245.76
517.03	271.50
517.20	264.48
517.37	224.69
517.54	252.78
517.72	287.89
517.89	259.80
518.06	121.71
518.24	215.33
518.41	283.20
518.58	278.52
518.75	346.40
518.93	330.02
519.10	241.08
519.27	238.73
519.45	273.84
519.62	241.08
519.79	224.69
519.96	273.84
520.14	269.16
520.31	339.38
520.48	215.33
520.65	255.12
520.83	304.27
521.00	229.37
521.17	252.78
521.34	175.54
521.52	304.27
521.69	292.57
521.86	299.59
522.03	322.99
522.20	313.63
522.38	290.23
522.55	238.73
522.72	252.78
522.89	250.44
523.07	304.27
523.24	262.14
523.41	315.97
523.58	224.69
523.75	271.50
523.92	290.23
524.10	306.61
524.27	292.57
524.44	194.26
524.61	243.42
524.78	236.39
524.96	332.36
525.13	234.05
525.30	332.36
525.47	353.42
525.64	285.55
525.81	287.89
525.98	271.50
526.16	236.39
526.33	140.43
526.50	238.73
526.67	241.08
526.84	168.52
527.01	196.60
527.18	299.59
527.36	236.39
527.53	236.39
527.70	236.39
527.87	220.01
528.04	322.99
528.21	259.80
528.38	362.78
528.55	318.31
528.72	234.05
528.89	355.76
529.07	273.84
529.24	238.73
529.41	215.33
529.58	285.55
529.75	308.95
529.92	215.33
530.09	287.89
530.26	297.25
530.43	299.59
530.60	257.46
530.77	248.10
530.94	299.59
531.11	341.72
531.28	248.10
531.46	245.76
531.63	266.82
531.80	308.95
531.97	210.65
532.14	306.61
532.31	250.44
532.48	327.68
532.65	276.18
532.82	264.48
532.99	262.14
533.16	330.02
533.33	301.93
533.50	266.82
533.67	351.08
533.84	365.12
534.01	299.59
534.18	315.97
534.35	255.12
534.52	327.68
534.69	358.10
534.86	280.86
535.03	362.78
535.20	215.33
535.37	393.21
535.54	290.23
535.71	262.14
535.88	311.29
536.05	283.20
536.22	285.55
536.38	301.93
536.55	243.42
536.72	306.61
536.89	217.67
537.06	304.27
537.23	287.89
537.40	322.99
537.57	322.99
537.74	334.70
537.91	266.82
538.08	395.55
538.25	306.61
538.42	311.29
538.59	383.85
538.75	330.02
538.92	243.42
539.09	311.29
539.26	325.33
539.43	465.77
539.60	676.41
539.77	849.61
539.94	866.00
540.11	631.94
540.28	571.09
540.44	528.96
540.61	388.53
540.78	365.12
540.95	519.60
541.12	568.75
541.29	531.30
541.46	580.45
541.62	510.24
541.79	489.17
541.96	479.81
542.13	425.98
542.30	437.68
542.47	493.85
542.63	409.59
542.80	475.13
542.97	528.96
543.14	433.00
543.31	442.36
543.48	451.72
543.64	477.47
543.81	442.36
543.98	421.30
544.15	435.34
544.32	416.62
544.48	475.13
544.65	510.24
544.82	465.77
544.99	414.27
545.16	489.17
545.32	479.81
545.49	685.78
545.66	896.43
545.83	795.78
546.00	734.93
546.16	674.07
546.33	528.96
546.50	491.51
546.67	512.58
546.83	493.85
547.00	423.64
547.17	325.33
547.34	337.04
547.50	409.59
547.67	374.49
547.84	379.17
548.00	447.04
548.17	381.51
548.34	397.89
548.51	435.34
548.67	407.25
548.84	376.83
549.01	355.76
549.18	381.51
549.34	416.62
549.51	376.83
549.68	339.38
549.84	290.23
550.01	351.08
550.18	428.32
550.34	400.23
550.51	271.50
550.68	458.74
550.84	327.68
551.01	280.86
551.18	292.57
551.34	337.04
551.51	311.29
551.68	318.31
551.84	332.36
552.01	250.44
552.18	262.14
552.34	285.55
552.51	259.80
552.68	306.61
552.84	330.02
553.01	269.16
553.18	285.55
553.34	248.10
553.51	304.27
553.67	360.44
553.84	287.89
554.01	227.03
554.17	360.44
554.34	315.97
554.51	301.93
554.67	278.52
554.84	257.46
555.00	259.80
555.17	290.23
555.33	348.74
555.50	273.84
555.67	290.23
555.83	320.65
556.00	280.86
556.16	489.17
556.33	304.27
556.50	250.44
556.66	255.12
556.83	220.01
556.99	252.78
557.16	276.18
557.32	280.86
557.49	245.76
557.65	231.71
557.82	257.46
557.98	266.82
558.15	231.71
558.32	241.08
558.48	262.14
558.65	229.37
558.81	304.27
558.98	264.48
559.14	278.52
559.31	285.55
559.47	205.97
559.64	215.33
559.80	306.61
559.97	238.73
560.13	196.60
560.30	292.57
560.46	255.12
560.63	205.97
560.79	262.14
560.96	248.10
561.12	344.06
561.29	287.89
561.45	234.05
561.61	220.01
561.78	330.02
561.94	273.84
562.11	245.76
562.27	290.23
562.44	205.97
562.60	301.93
562.77	290.23
562.93	341.72
563.10	285.55
563.26	262.14
563.42	245.76
563.59	315.97
563.75	283.20
563.92	292.57
564.08	210.65
564.24	255.12
564.41	276.18
564.57	264.48
564.74	241.08
564.90	294.91
565.07	198.95
565.23	306.61
565.39	311.29
565.56	262.14
565.72	278.52
565.88	198.95
566.05	184.90
566.21	222.35
566.38	236.39
566.54	264.48
566.70	220.01
566.87	234.05
567.03	234.05
567.19	266.82
567.36	248.10
567.52	224.69
567.68	222.35
567.85	285.55
568.01	269.16
568.17	222.35
568.34	212.99
568.50	283.20
568.66	215.33
568.83	297.25
568.99	241.08
569.15	269.16
569.32	245.76
569.48	229.37
569.64	280.86
569.81	311.29
569.97	224.69
570.13	273.84
570.30	220.01
570.46	231.71
570.62	194.26
570.78	266.82
570.95	222.35
571.11	229.37
571.27	205.97
571.43	198.95
571.60	297.25
571.76	283.20
571.92	220.01
572.09	168.52
572.25	287.89
572.41	236.39
572.57	227.03
572.74	262.14
572.90	252.78
573.06	245.76
573.22	227.03
573.38	301.93
573.55	294.91
573.71	266.82
573.87	285.55
574.03	194.26
574.20	353.42
574.36	308.95
574.52	269.16
574.68	252.78
574.84	262.14
575.01	313.63
575.17	299.59
575.33	299.59
575.49	241.08
575.65	292.57
575.82	369.80
575.98	376.83
576.14	496.19
576.30	514.92
576.46	451.72
576.62	484.49
576.79	414.27
576.95	355.76
577.11	280.86
577.27	266.82
577.43	362.78
577.59	259.80
577.75	330.02
577.92	304.27
578.08	299.59
578.24	248.10
578.40	299.59
578.56	421.30
578.72	407.25
578.88	411.93
579.04	367.46
579.21	311.29
579.37	290.23
579.53	386.19
579.69	337.04
579.85	313.63
580.01	376.83
580.17	337.04
580.33	376.83
580.49	262.14
580.65	386.19
580.82	311.29
580.98	276.18
581.14	311.29
581.30	367.46
581.46	386.19
581.62	440.02
581.78	428.32
581.94	465.77
582.10	346.40
582.26	367.46
582.42	411.93
582.58	388.53
582.74	416.62
582.90	369.80
583.06	465.77
583.22	379.17
583.38	383.85
583.54	402.57
583.70	414.27
583.86	580.45
584.02	528.96
584.18	620.24
584.34	575.77
584.50	1502.62
584.66	10115.80
584.82	24638.82
584.98	32224.50
585.14	27613.64
585.30	17336.35
585.46	10509.01
585.62	6647.12
585.78	3234.62
585.94	1423.05
586.10	744.29
586.26	589.82
586.42	528.96
586.58	538.32
586.74	512.58
586.90	458.74
587.06	447.04
587.22	463.43
587.38	404.91
587.54	716.20
587.70	1575.18
587.86	2307.77
588.02	2387.35
588.18	1856.04
588.34	1198.35
588.49	877.70
588.65	678.76
588.81	470.45
588.97	276.18
589.13	269.16
589.29	304.27
589.45	311.29
589.61	330.02
589.77	341.72
589.93	318.31
590.08	334.70
590.24	334.70
590.40	344.06
590.56	344.06
590.72	327.68
590.88	308.95
591.04	341.72
591.20	304.27
591.35	404.91
591.51	264.48
591.67	318.31
591.83	271.50
591.99	348.74
592.15	353.42
592.31	383.85
592.46	404.91
592.62	287.89
592.78	346.40
592.94	330.02
593.10	308.95
593.26	297.25
593.41	322.99
593.57	360.44
593.73	409.59
593.89	1427.73
594.05	3173.77
594.20	4140.41
594.36	3794.01
594.52	2628.42
594.68	1689.87
594.84	1196.01
594.99	791.10
595.15	418.96
595.31	428.32
595.47	362.78
595.62	238.73
595.78	315.97
595.94	311.29
596.10	327.68
596.25	271.50
596.41	315.97
596.57	388.53
596.73	287.89
596.88	489.17
597.04	732.59
597.20	999.41
597.36	1217.08
597.51	968.98
597.67	645.99
597.83	503.22
597.99	493.85
598.14	313.63
598.30	372.15
598.46	297.25
598.61	355.76
598.77	362.78
598.93	322.99
599.09	360.44
599.24	341.72
599.40	313.63
599.56	250.44
599.71	313.63
599.87	276.18
600.03	248.10
600.18	313.63
600.34	273.84
600.50	241.08
600.65	234.05
600.81	299.59
600.97	229.37
601.12	308.95
601.28	269.16
601.44	299.59
601.59	266.82
601.75	255.12
601.91	248.10
602.06	269.16
602.22	327.68
602.37	496.19
602.53	858.98
602.69	1146.86
602.84	1167.93
603.00	898.77
603.16	812.17
603.31	496.19
603.47	458.74
603.62	255.12
603.78	238.73
603.94	231.71
604.09	285.55
604.25	299.59
604.40	330.02
604.56	222.35
604.71	269.16
604.87	271.50
605.03	320.65
605.18	271.50
605.34	283.20
605.49	292.57
605.65	325.33
605.80	173.20
605.96	273.84
606.12	290.23
606.27	287.89
606.43	315.97
606.58	367.46
606.74	514.92
606.89	1645.40
607.05	2904.60
607.20	3492.08
607.36	2761.83
607.51	2003.50
607.67	1348.15
607.82	1060.26
607.98	671.73
608.13	482.15
608.29	421.30
608.44	458.74
608.60	395.55
608.75	454.06
608.91	730.25
609.06	2518.42
609.22	4875.34
609.37	5603.24
609.53	5118.75
609.68	3543.57
609.84	2499.69
609.99	1844.34
610.15	1214.74
610.30	833.23
610.46	709.18
