SpectraSuite Data File
++++++++++++++++++++++++++++++++++++
Date: Fri Oct 04 12:14:20 GMT-05:00 2013
User: price-jones
Dark Spectrum Present: No
Reference Spectrum Present: No
Number of Sampled Component Spectra: 1
Spectrometers: USB2+H05261
Integration Time (usec): 1000000 (USB2+H05261)
Spectra Averaged: 1 (USB2+H05261)
Boxcar Smoothing: 0 (USB2+H05261)
Correct for Electrical Dark: No (USB2+H05261)
Strobe/Lamp Enabled: No (USB2+H05261)
Correct for Detector Non-linearity: No (USB2+H05261)
Correct for Stray Light: No (USB2+H05261)
Number of Pixels in Processed Spectrum: 2048
>>>>>Begin Processed Spectral Data<<<<<
365.73	0.00
365.92	0.00
366.12	0.00
366.32	0.00
366.52	0.00
366.72	351.08
366.91	102.98
367.11	248.10
367.31	212.99
367.51	304.27
367.70	318.31
367.90	524.28
368.10	318.31
368.30	320.65
368.49	156.82
368.69	496.19
368.89	227.03
369.09	86.60
369.28	271.50
369.48	112.35
369.68	337.04
369.87	285.55
370.07	191.92
370.27	510.24
370.47	650.67
370.66	1198.35
370.86	1631.35
371.06	1926.26
371.25	2017.54
371.45	1514.33
371.65	1617.31
371.84	1231.12
372.04	1198.35
372.24	1554.12
372.44	1474.54
372.63	1568.16
372.83	1802.21
373.03	1441.77
373.22	1219.42
373.42	1355.17
373.62	1462.83
373.81	1549.43
374.01	1799.87
374.21	1565.82
374.40	1301.34
374.60	1790.51
374.79	1551.78
374.99	1671.14
375.19	1820.94
375.38	1954.35
375.58	1760.08
375.78	1877.11
375.97	1926.26
376.17	2237.55
376.37	1722.63
376.56	1898.17
376.76	1743.70
376.95	1827.96
377.15	2146.27
377.35	2165.00
377.54	2076.06
377.74	2073.71
377.93	2099.46
378.13	2132.23
378.33	2181.38
378.52	1942.64
378.72	2129.89
378.91	2064.35
379.11	1633.69
379.31	1659.44
379.50	1612.63
379.70	2111.16
379.89	2186.06
380.09	1987.11
380.28	1942.64
380.48	2106.48
380.68	1849.02
380.87	1870.09
381.07	1977.75
381.26	2118.18
381.46	1947.33
381.65	1853.70
381.85	1724.97
382.04	1629.01
382.24	1640.72
382.43	1521.35
382.63	1350.49
382.83	1376.24
383.02	1636.03
383.22	1748.38
383.41	1261.55
383.61	1605.61
383.80	1785.83
384.00	1877.11
384.19	1884.13
384.39	2085.42
384.58	2083.08
384.78	2214.15
384.97	2059.67
385.17	1975.41
385.36	1769.44
385.56	2080.74
385.75	1785.83
385.95	2057.33
386.14	2284.36
386.34	1991.80
386.53	2078.40
386.72	1856.04
386.92	2277.34
387.11	2092.44
387.31	2246.91
387.50	1989.46
387.70	1860.73
387.89	2017.54
388.09	2019.88
388.28	1874.77
388.48	1989.46
388.67	2363.94
388.86	2394.37
389.06	2363.94
389.25	2487.99
389.45	2523.10
389.64	2614.38
389.84	2846.09
390.03	2628.42
390.22	2511.39
390.42	2551.18
390.61	2497.35
390.81	2597.99
391.00	2862.48
391.19	3045.04
391.39	2722.04
391.58	2698.64
391.78	2462.24
391.97	2576.93
392.16	2202.44
392.36	2340.54
392.55	2015.20
392.75	1533.05
392.94	1350.49
393.13	1591.56
393.33	1481.56
393.52	1673.48
393.71	2408.41
393.91	2352.24
394.10	2373.30
394.29	2480.97
394.49	2719.70
394.68	3023.97
394.88	3157.38
395.07	3112.91
395.26	2902.26
395.46	2834.39
395.65	2888.22
395.84	2511.39
396.04	2841.41
396.23	1905.20
396.42	1540.07
396.62	1713.27
396.81	2031.58
397.00	2277.34
397.19	2726.72
397.39	2925.67
397.58	3510.80
397.77	3274.41
397.97	3471.01
398.16	3379.73
398.35	3840.82
398.55	3468.67
398.74	3941.46
398.93	4067.85
399.12	3751.88
399.32	3864.22
399.51	3957.85
399.70	4093.60
399.90	4058.49
400.09	4053.81
400.28	4142.75
400.47	3882.95
400.67	4369.78
400.86	4318.29
401.05	4461.06
401.24	4318.29
401.44	4383.82
401.63	4566.39
401.82	4465.74
402.01	4308.93
402.21	4374.46
402.40	4442.34
402.59	4133.39
402.78	4056.15
402.97	4037.42
403.17	4285.52
403.36	4386.16
403.55	4512.55
403.74	4381.48
403.93	4435.32
404.13	4393.19
404.32	4016.36
404.51	4205.94
404.70	4479.79
404.89	4353.40
405.09	4779.37
405.28	4196.58
405.47	4161.47
405.66	4440.00
405.85	4236.37
406.05	4121.68
406.24	4145.09
406.43	4280.84
406.62	4486.81
406.81	4905.76
407.00	4542.98
407.20	4203.60
407.39	4241.05
407.58	4451.70
407.77	4692.77
407.96	4959.60
408.15	5006.41
408.34	4847.25
408.54	4980.66
408.73	4999.38
408.92	4954.91
409.11	4830.87
409.30	4863.63
409.49	4358.08
409.68	4077.21
409.87	4058.49
410.07	4234.03
410.26	4606.17
410.45	4660.01
410.64	4786.40
410.83	5116.41
411.02	4966.62
411.21	5301.31
411.40	5275.57
411.59	5275.57
411.78	4968.96
411.98	5050.88
412.17	5046.20
412.36	5074.28
412.55	5116.41
412.74	4997.04
412.93	5228.76
413.12	4985.34
413.31	5556.43
413.50	5509.62
413.69	5479.19
413.88	5607.92
414.07	5163.22
414.26	5266.21
414.45	5282.59
414.64	5462.81
414.83	5507.28
415.02	5310.68
415.22	5411.32
415.41	5802.19
415.60	5535.37
415.79	5729.63
415.98	6218.80
416.17	5799.85
416.36	5694.52
416.55	5671.12
416.74	5598.56
416.93	5504.94
417.12	5380.89
417.31	5423.02
417.50	5516.64
417.69	5893.47
417.88	5729.63
418.07	5561.11
418.26	5373.87
418.45	5551.75
418.64	6127.52
418.83	6127.52
419.02	5860.70
419.21	5724.95
419.39	5738.99
419.58	5188.97
419.77	5320.04
419.96	5757.72
420.15	6076.03
420.34	6057.31
420.53	6033.90
420.72	6485.62
420.91	6204.76
421.10	6012.84
421.29	6090.07
421.48	6181.35
421.67	6368.60
421.86	5755.38
422.05	5504.94
422.24	5149.18
422.43	5205.35
422.61	5483.88
422.80	5661.76
422.99	5865.38
423.18	5778.78
423.37	5980.07
423.56	5827.93
423.75	5940.28
423.94	5802.19
424.13	5650.05
424.32	5469.83
424.50	5713.25
424.69	5699.20
424.88	5907.51
425.07	5542.39
425.26	5680.48
425.45	5617.29
425.64	5233.44
425.83	5474.51
426.01	6052.63
426.20	5980.07
426.39	5699.20
426.58	5240.46
426.77	5130.45
426.96	5252.16
427.15	5394.93
427.33	5338.76
427.52	5603.24
427.71	5633.67
427.90	5626.65
428.09	5542.39
428.28	5284.93
428.46	5200.67
428.65	5303.65
428.84	5556.43
429.03	5701.54
429.22	4865.97
429.40	4723.20
429.59	4493.83
429.78	4564.04
429.97	4114.66
430.16	4060.83
430.34	3971.89
430.53	4095.94
430.72	4280.84
430.91	4873.00
431.10	5174.92
431.28	6087.73
431.47	6750.10
431.66	6520.73
431.85	5841.98
432.03	5687.50
432.22	5881.77
432.41	5853.68
432.60	6354.55
432.79	6181.35
432.97	6616.69
433.16	6377.96
433.35	5643.03
433.54	5331.74
433.72	5235.78
433.91	5507.28
434.10	5575.16
434.28	6169.65
434.47	6223.48
434.66	6485.62
434.85	6045.60
435.03	6150.93
435.22	6553.50
435.41	6949.05
435.59	6801.60
435.78	6726.70
435.97	6658.82
436.16	7002.88
436.34	6684.57
436.53	6743.08
436.72	6759.47
436.90	6494.99
437.09	6282.00
437.28	6216.46
437.46	6361.58
437.65	6410.73
437.84	5968.37
438.02	5738.99
438.21	5753.04
438.40	5713.25
438.58	6171.99
438.77	6417.75
438.96	6530.09
439.14	6630.74
439.33	7047.35
439.52	6747.76
439.70	6810.96
439.89	6862.45
440.08	6380.30
440.26	6733.72
440.45	7061.40
440.63	7180.76
440.82	7414.82
441.01	7276.73
441.19	7185.44
441.38	7250.98
441.57	7552.91
441.75	7824.41
441.94	8124.00
442.12	7634.83
442.31	7634.83
442.50	7583.34
442.68	7644.19
442.87	7527.16
443.05	7396.09
443.24	7613.76
443.43	8215.28
443.61	8028.04
443.80	7946.12
443.98	7424.18
444.17	7379.71
444.35	8060.80
444.54	8002.29
444.73	7939.10
444.91	7929.74
445.10	7234.60
445.28	6965.43
445.47	7052.03
445.65	6974.80
445.84	7176.08
446.02	7424.18
446.21	7335.24
446.39	7438.22
446.58	7527.16
446.77	7576.31
446.95	7672.28
447.14	8063.15
447.32	8400.18
447.51	7679.30
447.69	7700.36
447.88	7510.78
448.06	7896.97
448.25	7936.76
448.43	7892.29
448.62	7522.48
448.80	7911.01
448.99	7976.55
449.17	7793.98
449.36	7564.61
449.54	8292.52
449.73	7871.22
449.91	8456.36
450.10	8397.84
450.28	8786.37
450.46	8950.21
450.65	8587.43
450.83	8397.84
451.02	8294.86
451.20	8374.44
451.39	8269.11
451.57	8301.88
451.76	8149.75
451.94	8011.65
452.13	8205.92
452.31	7971.86
452.49	7550.57
452.68	7403.11
452.86	7630.15
453.05	7950.80
453.23	7747.17
453.42	7824.41
453.60	7847.82
453.78	8264.43
453.97	7810.37
454.15	7744.83
454.34	8004.63
454.52	7836.11
454.70	8208.26
454.89	7990.59
455.07	7733.13
455.26	8266.77
455.44	8573.38
455.62	8318.26
455.81	8376.78
455.99	8355.71
456.17	8383.80
456.36	8285.50
456.54	8388.48
456.73	8344.01
456.91	8575.72
457.09	8589.77
457.28	9095.32
457.46	8489.12
457.64	8503.17
457.83	8276.13
458.01	8086.55
458.19	8383.80
458.38	8248.05
458.56	8711.47
458.74	8402.52
458.93	8559.34
459.11	8250.39
459.29	8191.88
459.48	8454.02
459.66	8779.35
459.84	8645.94
460.03	9345.76
460.21	8650.62
460.39	8713.81
460.57	9067.24
460.76	8835.52
460.94	8697.43
461.12	9158.52
461.31	8966.59
461.49	8594.45
461.67	8617.85
461.85	8931.48
462.04	8828.50
462.22	14043.21
462.40	9139.79
462.59	9100.00
462.77	8774.67
462.95	8894.04
463.13	8503.17
463.32	8877.65
463.50	8688.07
463.68	8870.63
463.86	8468.06
464.05	8409.54
464.23	8533.59
464.41	8451.67
464.59	8046.76
464.78	8517.21
464.96	8475.08
465.14	8444.65
465.32	8446.99
465.50	8990.00
465.69	9097.66
465.87	8678.71
466.05	8552.32
466.23	8166.13
466.41	7985.91
466.60	8327.63
466.78	8463.38
466.96	8718.50
467.14	8674.03
467.32	8802.75
467.51	8648.28
467.69	8423.59
467.87	8800.41
468.05	8470.40
468.23	9102.34
468.41	8617.85
468.60	8568.70
468.78	8650.62
468.96	8704.45
469.14	8894.04
469.32	8503.17
469.50	8217.62
469.69	8404.86
469.87	8332.31
470.05	8278.47
470.23	8184.85
470.41	8091.23
470.59	8372.10
470.77	8435.29
470.95	8493.80
471.14	8894.04
471.32	8685.73
471.50	9373.85
471.68	9146.81
471.86	9338.74
472.04	9001.70
472.22	9308.31
472.40	8844.88
472.58	8746.58
472.77	8667.00
472.95	8739.56
473.13	9378.53
473.31	8879.99
473.49	8690.41
473.67	8718.50
473.85	9268.52
474.03	9460.45
474.21	9294.27
474.39	9645.35
474.57	9870.04
474.75	9423.00
474.93	9355.12
475.12	8926.80
475.30	9041.49
475.48	9291.93
475.66	9369.16
475.84	9282.56
476.02	9153.84
476.20	9188.94
476.38	9336.40
476.56	10118.14
476.74	9654.71
476.92	9640.67
477.10	9680.46
477.28	10176.65
477.46	10059.62
477.64	10263.25
477.82	10108.77
478.00	10153.24
478.18	10169.63
478.36	10033.88
478.54	10019.83
478.72	10115.80
478.90	10368.57
479.08	10647.10
479.26	10848.38
479.44	10420.06
479.62	10471.56
479.80	10642.42
479.98	10483.26
480.16	10665.82
480.34	10789.87
480.52	10803.91
480.70	10946.69
480.88	10677.52
481.06	10740.72
481.24	11026.26
481.41	11346.92
481.59	11630.12
481.77	11384.37
481.95	11393.73
482.13	11243.93
482.31	11309.47
482.49	11316.49
482.67	11515.44
482.85	11667.57
483.03	11721.40
483.21	11779.92
483.39	11564.59
483.57	11410.11
483.74	11770.55
483.92	11531.82
484.10	11145.63
484.28	11709.70
484.46	12435.27
484.64	11967.16
484.82	11758.85
485.00	11646.51
485.18	11143.29
485.35	11066.05
485.53	10104.09
485.71	9884.08
485.89	9263.84
486.07	9769.40
486.25	11166.70
486.43	11365.64
486.61	11480.33
486.78	11452.24
486.96	11290.74
487.14	11971.84
487.32	12203.55
487.50	12311.22
487.68	12940.82
487.85	12582.72
488.03	12882.31
488.21	13064.87
488.39	12313.56
488.57	12313.56
488.75	12140.36
488.92	15480.30
489.10	13420.63
489.28	14258.54
489.46	13954.27
489.64	14157.90
489.81	13881.72
489.99	14197.69
490.17	13970.66
490.35	14843.68
490.53	13783.41
490.70	13497.87
490.88	13923.85
491.06	13954.27
491.24	14246.84
491.41	14153.22
491.59	13217.01
491.77	12732.51
491.95	13221.69
492.13	13535.32
492.30	14059.60
492.48	14553.45
492.66	14892.83
492.84	14726.65
493.01	14635.37
493.19	14431.74
493.37	14642.39
493.54	14466.85
493.72	14658.78
493.90	15007.52
494.08	15166.67
494.25	15639.46
494.43	15517.75
494.61	15623.08
494.79	15866.49
494.96	15482.64
495.14	15515.41
495.32	14712.61
495.49	14951.34
495.67	15356.25
495.85	15712.02
496.02	15868.83
496.20	16329.92
496.38	16032.67
496.55	15737.76
496.73	16107.57
496.91	15981.18
497.09	16624.83
497.26	16659.93
497.44	16198.85
497.62	15875.85
497.79	15405.41
497.97	14885.81
498.14	15140.93
498.32	15934.37
498.50	15852.45
498.67	16049.05
498.85	16201.19
499.03	16077.14
499.20	16374.39
499.38	16306.51
499.56	16350.98
499.73	16559.29
499.91	15974.16
500.08	15854.79
500.26	15091.77
500.44	15276.68
500.61	15669.89
500.79	15513.07
500.97	15548.18
501.14	15800.96
501.32	15555.20
501.49	15459.24
501.67	15197.10
501.84	15754.15
502.02	15702.65
502.20	16100.55
502.37	16067.78
502.55	15929.69
502.72	16161.40
502.90	16688.02
503.07	16058.42
503.25	15805.64
503.43	15068.37
503.60	14396.64
503.78	14824.95
503.95	14850.70
504.13	15770.53
504.30	16538.23
504.48	16404.81
504.65	16624.83
504.83	16655.25
505.01	16610.78
505.18	16599.08
505.36	16943.14
505.53	17078.89
505.71	17151.45
505.88	17474.44
506.06	16833.13
506.23	16638.87
506.41	16414.18
506.58	16673.98
506.76	16868.24
506.93	16306.51
507.11	16580.36
507.28	16453.97
507.46	16149.70
507.63	15901.60
507.81	15719.04
507.98	15936.71
508.16	16540.57
508.33	16732.49
508.50	17303.58
508.68	17224.00
508.85	17474.44
509.03	17184.21
509.20	17238.05
509.38	16739.51
509.55	16643.55
509.73	16844.84
509.90	17205.28
510.08	16964.20
510.25	16999.31
510.42	16737.17
510.60	16779.30
510.77	17341.03
510.95	17825.52
511.12	17535.29
511.30	17572.74
511.47	17928.50
511.64	18010.42
511.82	17436.99
511.99	17151.45
512.17	17163.15
512.34	16676.32
512.51	16706.74
512.69	16582.70
512.86	17296.56
513.04	16868.24
513.21	17301.24
513.38	16725.47
513.56	16547.59
513.73	16063.10
513.90	16355.66
514.08	16210.55
514.25	16905.69
514.43	17078.89
514.60	16760.58
514.77	16992.29
514.95	17317.62
515.12	16856.54
515.29	17277.83
515.47	17252.09
515.64	17350.39
515.81	17357.41
515.99	17373.80
516.16	16161.40
516.33	15239.23
516.51	14080.66
516.68	13841.93
516.85	13675.75
517.03	14361.53
517.20	15421.79
517.37	16400.13
517.54	17088.25
517.72	16751.21
517.89	15035.60
518.06	14141.52
518.24	15150.29
518.41	15974.16
518.58	16374.39
518.75	16067.78
518.93	16390.77
519.10	16517.16
519.27	16343.96
519.45	16926.75
519.62	17163.15
519.79	17645.30
519.96	17317.62
520.14	17226.34
520.31	16973.56
520.48	16629.51
520.65	16620.14
520.83	17305.92
521.00	17605.51
521.17	17605.51
521.34	16917.39
521.52	17825.52
521.69	17781.05
521.86	17844.24
522.03	17771.69
522.20	17408.90
522.38	16238.64
522.55	16570.99
522.72	16507.80
522.89	17071.87
523.07	17507.21
523.24	17149.11
523.41	17776.37
523.58	18073.62
523.75	17961.27
523.92	17923.82
524.10	18106.38
524.27	18005.74
524.44	18228.09
524.61	18176.60
524.78	17757.64
524.96	17722.54
525.13	17577.42
525.30	18097.02
525.47	18274.90
525.64	17886.37
525.81	17603.17
525.98	16716.11
526.16	15761.17
526.33	15735.42
526.50	15396.04
526.67	14960.70
526.84	15735.42
527.01	15922.66
527.18	16285.45
527.36	17025.06
527.53	17249.75
527.70	17834.88
527.87	17521.25
528.04	17668.70
528.21	17172.51
528.38	18164.90
528.55	18305.33
528.72	18682.16
528.89	19094.09
529.07	18211.71
529.24	17628.92
529.41	18078.30
529.58	17188.89
529.75	17228.68
529.92	17795.09
530.09	17776.37
530.26	18178.94
530.43	18384.91
530.60	18317.03
530.77	18253.84
530.94	18588.53
531.11	18200.01
531.28	17804.46
531.46	18024.47
531.63	17928.50
531.80	17984.68
531.97	17839.56
532.14	17298.90
532.31	16568.65
532.48	16402.47
532.65	16608.44
532.82	16512.48
532.99	17088.25
533.16	17652.32
533.33	17696.79
533.50	17624.23
533.67	17130.38
533.84	17043.78
534.01	17139.74
534.18	17280.18
534.35	17502.53
534.52	17465.08
534.69	17949.57
534.86	17511.89
535.03	17811.48
535.20	18017.44
535.37	18417.68
535.54	18394.27
535.71	18293.63
535.88	18246.82
536.05	17483.80
536.22	17696.79
536.38	17060.16
536.55	16549.93
536.72	16980.59
536.89	16650.57
537.06	16872.92
537.23	17404.22
537.40	17521.25
537.57	17542.32
537.74	17902.76
537.91	17855.95
538.08	17469.76
538.25	17628.92
538.42	17614.87
538.59	17535.29
538.75	16924.41
538.92	16961.86
539.09	17090.59
539.26	16774.62
539.43	17027.40
539.60	16648.23
539.77	16973.56
539.94	17034.42
540.11	16341.62
540.28	16353.32
540.44	16367.37
540.61	16049.05
540.78	16046.71
540.95	16212.89
541.12	16769.94
541.29	16507.80
541.46	17109.32
541.62	17003.99
541.79	16842.50
541.96	16308.85
542.13	16493.76
542.30	16692.70
542.47	16901.01
542.63	16500.78
542.80	16528.86
542.97	16664.61
543.14	16856.54
543.31	16720.79
543.48	16695.04
543.64	17193.58
543.81	17549.34
543.98	17336.35
544.15	16716.11
544.32	16681.00
544.48	16655.25
544.65	17111.66
544.82	17090.59
544.99	17106.98
545.16	16599.08
545.32	16486.73
545.49	16676.32
545.66	16994.63
545.83	16903.35
546.00	16552.27
546.16	16641.21
546.33	16573.33
546.50	16662.27
546.67	17401.88
546.83	17015.69
547.00	16428.22
547.17	16252.68
547.34	16137.99
547.50	16184.80
547.67	16510.14
547.84	16395.45
548.00	17144.42
548.17	17027.40
548.34	16870.58
548.51	17345.71
548.67	17013.35
548.84	16847.18
549.01	17125.70
549.18	17029.74
549.34	17020.38
549.51	16929.09
549.68	16996.97
549.84	16666.95
550.01	16542.91
550.18	17645.30
550.34	17158.47
550.51	16975.91
550.68	17186.55
550.84	16486.73
551.01	16538.23
551.18	16582.70
551.34	16713.77
551.51	16835.47
551.68	16924.41
551.84	17041.44
552.01	16706.74
552.18	16816.75
552.34	16290.13
552.51	16439.92
552.68	16409.50
552.84	16397.79
553.01	16720.79
553.18	16748.87
553.34	16631.85
553.51	16404.81
553.67	17163.15
553.84	17334.01
554.01	16760.58
554.17	16725.47
554.34	16746.53
554.51	16699.72
554.67	17095.27
554.84	17186.55
555.00	16699.72
555.17	16833.13
555.33	16781.64
555.50	16755.90
555.67	16802.71
555.83	16145.02
556.00	16313.53
556.16	18225.75
556.33	16226.93
556.50	15969.48
556.66	15999.90
556.83	15997.56
556.99	15819.68
557.16	16030.33
557.32	15955.43
557.49	16306.51
557.65	16147.36
557.82	16257.36
557.98	16119.27
558.15	15899.26
558.32	15557.54
558.48	15281.36
558.65	15035.60
558.81	15342.21
558.98	15077.73
559.14	15466.26
559.31	15379.66
559.47	15953.09
559.64	15173.69
559.80	15620.74
559.97	15122.20
560.13	15538.82
560.30	15428.81
560.46	16350.98
560.63	16350.98
560.79	16280.77
560.96	15953.09
561.12	15477.96
561.29	15440.51
561.45	15183.06
561.61	15496.69
561.78	16760.58
561.94	15564.56
562.11	15517.75
562.27	15688.61
562.44	15161.99
562.60	15414.77
562.77	15927.35
562.93	16489.07
563.10	15648.82
563.26	15637.12
563.42	15637.12
563.59	15531.80
563.75	15253.27
563.92	15651.16
564.08	15522.43
564.24	15871.17
564.41	16112.25
564.57	15358.60
564.74	15051.99
564.90	15712.02
565.07	15587.97
565.23	15555.20
565.39	14766.44
565.56	14609.62
565.72	14345.14
565.88	14649.41
566.05	14747.72
566.21	14799.21
566.38	15028.58
566.54	15040.28
566.70	15517.75
566.87	15353.91
567.03	14822.61
567.19	15246.25
567.36	15276.68
567.52	14944.32
567.68	15304.76
567.85	14633.03
568.01	14214.07
568.17	13942.57
568.34	13809.16
568.50	14260.88
568.66	13650.00
568.83	14724.31
568.99	13916.83
569.15	14560.47
569.32	14455.15
569.48	14087.68
569.64	14059.60
569.81	14239.82
569.97	13935.55
570.13	14317.06
570.30	14223.44
570.46	13937.89
570.62	13661.71
570.78	13486.17
570.95	13420.63
571.11	14417.70
571.27	14370.89
571.43	13879.38
571.60	14235.14
571.76	14104.07
571.92	14291.31
572.09	14312.38
572.25	14375.57
572.41	14310.04
572.57	14169.60
572.74	14635.37
572.90	14415.36
573.06	14291.31
573.22	14160.24
573.38	14539.41
573.55	14459.83
573.71	14368.55
573.87	14548.77
574.03	13804.48
574.20	14043.21
574.36	14083.00
574.52	13689.79
574.68	13919.17
574.84	13738.94
575.01	13397.23
575.17	13642.98
575.33	13364.46
575.49	14090.02
575.65	13855.97
575.82	13741.29
575.98	13994.06
576.14	13682.77
576.30	13568.09
576.46	13909.80
576.62	13748.31
576.79	14216.41
576.95	13933.21
577.11	13565.74
577.27	13809.16
577.43	13940.23
577.59	13970.66
577.75	13532.98
577.92	13184.24
578.08	13114.02
578.24	13319.99
578.40	13413.61
578.56	13865.33
578.72	13874.70
578.88	13813.84
579.04	13542.34
579.21	13696.82
579.37	13748.31
579.53	13682.77
579.69	13874.70
579.85	13605.53
580.01	14066.62
580.17	13207.64
580.33	13385.52
580.49	13500.21
580.65	13837.25
580.82	13778.73
580.98	13617.24
581.14	13694.47
581.30	13907.46
581.46	13720.22
581.62	13984.70
581.78	13378.50
581.94	13919.17
582.10	13371.48
582.26	13617.24
582.42	13682.77
582.58	14024.49
582.74	13844.27
582.90	13855.97
583.06	13755.33
583.22	13722.56
583.38	13439.36
583.54	13322.33
583.70	14038.53
583.86	13673.41
584.02	13650.00
584.18	13853.63
584.34	13582.13
584.50	13462.76
584.66	13432.33
584.82	13032.10
584.98	13088.28
585.14	13128.06
585.30	13256.79
585.46	12896.35
585.62	12549.95
585.78	12863.58
585.94	13032.10
586.10	12816.77
586.26	12947.84
586.42	13399.57
586.58	13343.39
586.74	12854.22
586.90	12891.67
587.06	12475.06
587.22	12835.50
587.38	12215.26
587.54	12393.14
587.70	12624.85
587.86	12051.42
588.02	11286.06
588.18	11625.44
588.34	11152.65
588.49	10050.26
588.65	9966.00
588.81	9551.73
588.97	9647.69
589.13	9816.21
