SpectraSuite Data File
++++++++++++++++++++++++++++++++++++
Date: Fri Oct 04 12:14:08 GMT-05:00 2013
User: price-jones
Dark Spectrum Present: No
Reference Spectrum Present: No
Number of Sampled Component Spectra: 1
Spectrometers: USB2+H05261
Integration Time (usec): 1000000 (USB2+H05261)
Spectra Averaged: 1 (USB2+H05261)
Boxcar Smoothing: 0 (USB2+H05261)
Correct for Electrical Dark: No (USB2+H05261)
Strobe/Lamp Enabled: No (USB2+H05261)
Correct for Detector Non-linearity: No (USB2+H05261)
Correct for Stray Light: No (USB2+H05261)
Number of Pixels in Processed Spectrum: 2048
>>>>>Begin Processed Spectral Data<<<<<
365.73	44.47
365.92	44.47
366.12	44.47
366.32	0.00
366.52	0.00
366.72	360.44
366.91	72.56
367.11	311.29
367.31	198.95
367.51	276.18
367.70	341.72
367.90	505.56
368.10	379.17
368.30	332.36
368.49	11.70
368.69	433.00
368.89	294.91
369.09	238.73
369.28	191.92
369.48	88.94
369.68	227.03
369.87	369.80
370.07	182.56
370.27	535.98
370.47	435.34
370.66	313.63
370.86	435.34
371.06	695.14
371.25	835.57
371.45	362.78
371.65	716.20
371.84	393.21
372.04	294.91
372.24	449.38
372.44	428.32
372.63	550.03
372.83	830.89
373.03	442.36
373.22	346.40
373.42	367.46
373.62	381.51
373.81	510.24
374.01	713.86
374.21	702.16
374.40	477.47
374.60	732.59
374.79	582.79
374.99	526.62
375.19	561.73
375.38	564.07
375.58	496.19
375.78	751.31
375.97	557.05
376.17	1050.90
376.37	472.79
376.56	589.82
376.76	397.89
376.95	290.23
377.15	634.29
377.35	582.79
377.54	699.82
377.74	435.34
377.93	430.66
378.13	573.43
378.33	676.41
378.52	498.53
378.72	786.42
378.91	645.99
379.11	395.55
379.31	461.09
379.50	404.91
379.70	704.50
379.89	641.31
380.09	458.74
380.28	344.06
380.48	461.09
380.68	381.51
380.87	414.27
381.07	528.96
381.26	760.67
381.46	669.39
381.65	561.73
381.85	430.66
382.04	414.27
382.24	564.07
382.43	367.46
382.63	381.51
382.83	489.17
383.02	706.84
383.22	800.46
383.41	411.93
383.61	498.53
383.80	470.45
384.00	482.15
384.19	425.98
384.39	505.56
384.58	465.77
384.78	594.50
384.97	571.09
385.17	554.71
385.36	496.19
385.56	664.71
385.75	318.31
385.95	463.43
386.14	713.86
386.34	437.68
386.53	582.79
386.72	428.32
386.92	807.48
387.11	657.69
387.31	638.97
387.50	365.12
387.70	351.08
387.89	458.74
388.09	395.55
388.28	360.44
388.48	397.89
388.67	648.33
388.86	538.32
389.06	440.02
389.25	613.22
389.45	503.22
389.64	484.49
389.84	706.84
390.03	606.20
390.22	554.71
390.42	468.11
390.61	425.98
390.81	334.70
391.00	468.11
391.19	835.57
391.39	435.34
391.58	631.94
391.78	543.00
391.97	507.90
392.16	339.38
392.36	840.25
392.55	753.65
392.75	524.28
392.94	358.10
393.13	638.97
393.33	344.06
393.52	397.89
393.71	739.61
393.91	594.50
394.10	409.59
394.29	400.23
394.49	491.51
394.68	713.86
394.88	842.59
395.07	638.97
395.26	514.92
395.46	540.66
395.65	737.27
395.84	634.29
396.04	1146.86
396.23	547.69
396.42	390.87
396.62	543.00
396.81	564.07
397.00	557.05
397.19	543.00
397.39	540.66
397.58	807.48
397.77	465.77
397.97	545.34
398.16	533.64
398.35	664.71
398.55	360.44
398.74	554.71
398.93	805.14
399.12	543.00
399.32	678.76
399.51	552.37
399.70	713.86
399.90	674.07
400.09	727.91
400.28	826.21
400.47	540.66
400.67	772.38
400.86	470.45
401.05	631.94
401.24	798.12
401.44	713.86
401.63	676.41
401.82	802.80
402.01	500.87
402.21	641.31
402.40	615.56
402.59	479.81
402.78	470.45
402.97	425.98
403.17	648.33
403.36	634.29
403.55	552.37
403.74	517.26
403.93	568.75
404.13	842.59
404.32	550.03
404.51	482.15
404.70	781.74
404.89	566.41
405.09	997.07
405.28	617.90
405.47	414.27
405.66	727.91
405.85	844.93
406.05	578.11
406.24	641.31
406.43	711.52
406.62	690.46
406.81	1055.58
407.00	866.00
407.20	676.41
407.39	587.47
407.58	559.39
407.77	690.46
407.96	821.53
408.15	809.83
408.34	678.76
408.54	685.78
408.73	709.18
408.92	650.67
409.11	753.65
409.30	812.17
409.49	561.73
409.68	470.45
409.87	594.50
410.07	423.64
410.26	697.48
410.45	622.58
410.64	503.22
410.83	543.00
411.02	592.16
411.21	732.59
411.40	833.23
411.59	638.97
411.78	428.32
411.98	552.37
412.17	472.79
412.36	573.43
412.55	500.87
412.74	725.57
412.93	1083.67
413.12	592.16
413.31	926.85
413.50	737.27
413.69	716.20
413.88	889.40
414.07	702.16
414.26	669.39
414.45	573.43
414.64	819.19
414.83	767.70
415.02	676.41
415.22	746.63
415.41	884.72
415.60	634.29
415.79	706.84
415.98	950.26
416.17	723.23
416.36	669.39
416.55	566.41
416.74	770.04
416.93	938.55
417.12	648.33
417.31	650.67
417.50	592.16
417.69	1130.48
417.88	753.65
418.07	589.82
418.26	688.12
418.45	671.73
418.64	1020.47
418.83	851.96
419.02	861.32
419.21	674.07
419.39	809.83
419.58	657.69
419.77	629.60
419.96	901.11
420.15	1018.13
420.34	678.76
420.53	828.55
420.72	889.40
420.91	751.31
421.10	702.16
421.29	725.57
421.48	851.96
421.67	933.87
421.86	683.44
422.05	734.93
422.24	638.97
422.43	737.27
422.61	631.94
422.80	692.80
422.99	823.87
423.18	622.58
423.37	973.66
423.56	833.23
423.75	809.83
423.94	599.18
424.13	650.67
424.32	620.24
424.50	763.01
424.69	695.14
424.88	931.53
425.07	653.01
425.26	718.54
425.45	908.13
425.64	786.42
425.83	692.80
426.01	950.26
426.20	741.95
426.39	706.84
426.58	627.26
426.77	720.88
426.96	919.83
427.15	763.01
427.33	648.33
427.52	718.54
427.71	765.36
427.90	744.29
428.09	678.76
428.28	585.13
428.46	620.24
428.65	826.21
428.84	940.90
429.03	1104.73
429.22	748.97
429.40	603.86
429.59	496.19
429.78	1067.28
429.97	592.16
430.16	615.56
430.34	554.71
430.53	620.24
430.72	664.71
430.91	889.40
431.10	648.33
431.28	781.74
431.47	861.32
431.66	830.89
431.85	692.80
432.03	807.48
432.22	1231.12
432.41	641.31
432.60	1111.75
432.79	823.87
432.97	926.85
433.16	809.83
433.35	681.10
433.54	716.20
433.72	891.74
433.91	891.74
434.10	617.90
434.28	882.38
434.47	751.31
434.66	971.32
434.85	688.12
435.03	723.23
435.22	1081.33
435.41	1144.52
435.59	976.00
435.78	828.55
435.97	739.61
436.16	971.32
436.34	835.57
436.53	854.30
436.72	1020.47
436.90	940.90
437.09	915.15
437.28	690.46
437.46	770.04
437.65	882.38
437.84	884.72
438.02	781.74
438.21	877.70
438.40	727.91
438.58	599.18
438.77	837.91
438.96	866.00
439.14	697.48
439.33	891.74
439.52	727.91
439.70	809.83
439.89	978.34
440.08	851.96
440.26	847.27
440.45	1139.84
440.63	858.98
440.82	849.61
441.01	882.38
441.19	819.19
441.38	727.91
441.57	767.70
441.75	999.41
441.94	1046.22
442.12	922.17
442.31	791.10
442.50	772.38
442.68	837.91
442.87	873.02
443.05	816.85
443.24	926.85
443.43	1160.91
443.61	1226.44
443.80	849.61
443.98	786.42
444.17	772.38
444.35	987.71
444.54	816.85
444.73	840.25
444.91	1116.44
445.10	697.48
445.28	784.08
445.47	856.64
445.65	844.93
445.84	751.31
446.02	866.00
446.21	741.95
446.39	851.96
446.58	966.64
446.77	664.71
446.95	849.61
447.14	931.53
447.32	1146.86
447.51	952.60
447.69	940.90
447.88	809.83
448.06	1179.63
448.25	1027.50
448.43	739.61
448.62	741.95
448.80	898.77
448.99	931.53
449.17	793.44
449.36	748.97
449.54	983.02
449.73	751.31
449.91	1034.52
450.10	851.96
450.28	1432.41
450.46	1341.13
450.65	1102.39
450.83	1048.56
451.02	837.91
451.20	887.06
451.39	976.00
451.57	898.77
451.76	746.63
451.94	898.77
452.13	1128.14
452.31	1130.48
452.49	940.90
452.68	704.50
452.86	931.53
453.05	1317.72
453.23	933.87
453.42	709.18
453.60	858.98
453.78	891.74
453.97	816.85
454.15	786.42
454.34	767.70
454.52	791.10
454.70	1116.44
454.89	936.21
455.07	770.04
455.26	968.98
455.44	997.07
455.62	917.49
455.81	992.39
455.99	1069.62
456.17	966.64
456.36	910.47
456.54	926.85
456.73	891.74
456.91	809.83
457.09	999.41
457.28	1221.76
457.46	870.68
457.64	1078.99
457.83	856.64
458.01	926.85
458.19	1027.50
458.38	858.98
458.56	1121.12
458.74	685.78
458.93	983.02
459.11	954.94
459.29	786.42
459.48	1008.77
459.66	1163.25
459.84	1114.10
460.03	1624.33
460.21	1198.35
460.39	931.53
460.57	1090.69
460.76	1022.81
460.94	971.32
461.12	1273.25
461.31	1186.65
461.49	908.13
461.67	788.76
461.85	976.00
462.04	947.92
462.22	5895.81
462.40	1331.76
462.59	1233.46
462.77	926.85
462.95	940.90
463.13	777.06
463.32	1153.88
463.50	1004.09
463.68	1093.03
463.86	968.98
464.05	861.32
464.23	1207.72
464.41	1057.92
464.59	915.15
464.78	891.74
464.96	784.08
465.14	915.15
465.32	875.36
465.50	1130.48
465.69	1149.20
465.87	814.51
466.05	1078.99
466.23	793.44
466.41	894.08
466.60	926.85
466.78	964.30
466.96	1090.69
467.14	978.34
467.32	1263.89
467.51	1032.18
467.69	1027.50
467.87	1294.32
468.05	931.53
468.23	1299.00
468.41	1156.22
468.60	992.39
468.78	1025.15
468.96	1212.40
469.14	1050.90
469.32	793.44
469.50	854.30
469.69	1114.10
469.87	1046.22
470.05	1013.45
470.23	957.28
470.41	788.76
470.59	903.45
470.77	1032.18
470.95	1001.75
471.14	1233.46
471.32	926.85
471.50	1357.51
471.68	1039.20
471.86	1095.37
472.04	814.51
472.22	1095.37
472.40	800.46
472.58	854.30
472.77	851.96
472.95	1008.77
473.13	1411.34
473.31	1203.04
473.49	866.00
473.67	851.96
473.85	1228.78
474.03	1081.33
474.21	1011.11
474.39	1315.38
474.57	1423.05
474.75	1036.86
474.93	842.59
475.12	809.83
475.30	858.98
475.48	978.34
475.66	1062.60
475.84	1036.86
476.02	966.64
476.20	1130.48
476.38	1078.99
476.56	1533.05
476.74	1025.15
476.92	898.77
477.10	999.41
477.28	1135.16
477.46	1022.81
477.64	1212.40
477.82	1053.24
478.00	903.45
478.18	1132.82
478.36	1095.37
478.54	950.26
478.72	908.13
478.90	1074.31
479.08	1142.18
479.26	1167.93
479.44	983.02
479.62	1055.58
479.80	1093.03
479.98	971.32
480.16	997.07
480.34	1352.83
480.52	1004.09
480.70	1193.67
480.88	936.21
481.06	1074.31
481.24	966.64
481.41	1100.05
481.59	1179.63
481.77	1196.01
481.95	1034.52
482.13	1425.39
482.31	1217.08
482.49	1069.62
482.67	1231.12
482.85	1282.61
483.03	1221.76
483.21	1144.52
483.39	1057.92
483.57	1181.97
483.74	1577.52
483.92	1149.20
484.10	1076.65
484.28	1474.54
484.46	1750.72
484.64	1130.48
484.82	1139.84
485.00	1156.22
485.18	1142.18
485.35	1191.33
485.53	896.43
485.71	1371.55
485.89	917.49
486.07	985.37
486.25	1617.31
486.43	1294.32
486.61	1231.12
486.78	1310.70
486.96	933.87
487.14	1137.50
487.32	1104.73
487.50	1097.71
487.68	1380.92
487.85	990.05
488.03	1369.21
488.21	1596.25
488.39	1275.59
488.57	1338.79
488.75	1205.38
488.92	4025.72
489.10	1479.22
489.28	1732.00
489.46	1224.10
489.64	1334.11
489.81	1423.05
489.99	1469.86
490.17	1303.68
490.35	1914.56
490.53	1315.38
490.70	1263.89
490.88	1465.18
491.06	1238.14
491.24	1366.87
491.41	1549.43
491.59	1401.98
491.77	1149.20
491.95	1123.46
492.13	1233.46
492.30	1387.94
492.48	1261.55
492.66	1266.23
492.84	1280.27
493.01	1413.68
493.19	1249.85
493.37	1799.87
493.54	1446.45
493.72	1430.07
493.90	1369.21
494.08	1203.04
494.25	1519.01
494.43	1483.90
494.61	1306.02
494.79	1207.72
494.96	1242.82
495.14	1481.56
495.32	1409.00
495.49	1427.73
495.67	1469.86
495.85	1348.15
496.02	1348.15
496.20	1568.16
496.38	1568.16
496.55	1427.73
496.73	1636.03
496.91	1334.11
497.09	1535.39
497.26	1474.54
497.44	1430.07
497.62	1357.51
497.79	1418.36
497.97	1511.99
498.14	1500.28
498.32	1427.73
498.50	1441.77
498.67	1296.66
498.85	1589.22
499.03	1420.71
499.20	1495.60
499.38	1273.25
499.56	1432.41
499.73	1778.81
499.91	1680.50
500.08	1605.61
500.26	1458.15
500.44	1277.93
500.61	1462.83
500.79	1376.24
500.97	1593.90
501.14	1710.93
501.32	1540.07
501.49	1647.74
501.67	1385.60
501.84	1488.58
502.02	1284.95
502.20	1874.77
502.37	1570.50
502.55	1430.07
502.72	1437.09
502.90	1640.72
503.07	1500.28
503.25	1486.24
503.43	1268.57
503.60	1317.72
503.78	1535.39
503.95	1453.47
504.13	1535.39
504.30	1692.21
504.48	1806.89
504.65	1769.44
504.83	1715.61
505.01	1390.28
505.18	1626.67
505.36	1483.90
505.53	1516.67
505.71	1359.85
505.88	1757.74
506.06	1568.16
506.23	1383.26
506.41	1299.00
506.58	1722.63
506.76	1533.05
506.93	1528.37
507.11	1563.48
507.28	1413.68
507.46	1371.55
507.63	1519.01
507.81	1373.89
507.98	1591.56
508.16	1462.83
508.33	1584.54
508.50	1727.32
508.68	1537.73
508.85	1502.62
509.03	1533.05
509.20	1418.36
509.38	1689.87
509.55	1689.87
509.73	1792.85
509.90	1898.17
510.08	1530.71
510.25	1743.70
510.42	1451.13
510.60	1603.27
510.77	1699.23
510.95	1746.04
511.12	1598.59
511.30	1823.28
511.47	1734.34
511.64	2017.54
511.82	1526.03
511.99	1568.16
512.17	1448.79
512.34	1469.86
512.51	1451.13
512.69	1409.00
512.86	1900.52
513.04	1504.96
513.21	1577.52
513.38	1537.73
513.56	1409.00
513.73	1486.24
513.90	1404.32
514.08	1455.81
514.25	1729.66
514.43	1636.03
514.60	1416.02
514.77	1467.52
514.95	1633.69
515.12	1469.86
515.29	1603.27
515.47	1652.42
515.64	1598.59
515.81	1537.73
515.99	1886.47
516.16	1671.14
516.33	1689.87
516.51	1299.00
516.68	1270.91
516.85	1341.13
517.03	1336.45
517.20	1582.20
517.37	1617.31
517.54	1666.46
517.72	1472.20
517.89	1296.66
518.06	1383.26
518.24	2008.18
518.41	1944.99
518.58	1696.89
518.75	1404.32
518.93	1502.62
519.10	1703.91
519.27	1528.37
519.45	1624.33
519.62	1589.22
519.79	1650.08
519.96	1409.00
520.14	1561.14
520.31	1830.30
520.48	1542.41
520.65	1519.01
520.83	1727.32
521.00	1710.93
521.17	1654.76
521.34	1526.03
521.52	1696.89
521.69	1624.33
521.86	1626.67
522.03	1795.19
522.20	2017.54
522.38	1519.01
522.55	1577.52
522.72	1413.68
522.89	1762.42
523.07	2153.29
523.24	1720.29
523.41	1575.18
523.58	1551.78
523.75	1526.03
523.92	1465.18
524.10	1713.27
524.27	1657.10
524.44	1582.20
524.61	1907.54
524.78	1603.27
524.96	1797.53
525.13	1694.55
525.30	1961.37
525.47	1802.21
525.64	1668.80
525.81	1643.06
525.98	1657.10
526.16	1409.00
526.33	1455.81
526.50	1502.62
526.67	1259.21
526.84	1376.24
527.01	1483.90
527.18	1661.78
527.36	1593.90
527.53	1589.22
527.70	1860.73
527.87	1762.42
528.04	2129.89
528.21	1603.27
528.38	1944.99
528.55	1877.11
528.72	2043.29
528.89	2134.57
529.07	1626.67
529.24	1619.65
529.41	2031.58
529.58	1664.12
529.75	1488.58
529.92	1816.26
530.09	1647.74
530.26	1844.34
530.43	1891.15
530.60	1715.61
530.77	1778.81
530.94	1863.07
531.11	1783.49
531.28	1689.87
531.46	1654.76
531.63	1764.76
531.80	1753.06
531.97	1825.62
532.14	1645.40
532.31	1689.87
532.48	1842.00
532.65	1816.26
532.82	1633.69
532.99	1750.72
533.16	1715.61
533.33	1727.32
533.50	1741.36
533.67	1692.21
533.84	2024.56
534.01	1963.71
534.18	1806.89
534.35	1788.17
534.52	1816.26
534.69	2125.21
534.86	1762.42
535.03	1593.90
535.20	1600.93
535.37	1968.39
535.54	1781.15
535.71	1652.42
535.88	2003.50
536.05	1650.08
536.22	1799.87
536.38	1680.50
536.55	1593.90
536.72	1853.70
536.89	1481.56
537.06	1610.29
537.23	1607.95
537.40	1633.69
537.57	1591.56
537.74	1860.73
537.91	1842.00
538.08	1659.44
538.25	1771.79
538.42	1654.76
538.59	1701.57
538.75	1614.97
538.92	1661.78
539.09	1834.98
539.26	1624.33
539.43	2230.53
539.60	2761.83
539.77	3391.44
539.94	3269.73
540.11	2729.06
540.28	2424.80
540.44	2136.91
540.61	1717.95
540.78	1610.29
540.95	1533.05
541.12	2033.93
541.29	1472.20
541.46	1881.79
541.62	1696.89
541.79	1579.86
541.96	1528.37
542.13	1680.50
542.30	1540.07
542.47	1722.63
542.63	1629.01
542.80	1582.20
542.97	1837.32
543.14	1570.50
543.31	1762.42
543.48	1640.72
543.64	1689.87
543.81	1650.08
543.98	1600.93
544.15	1423.05
544.32	1547.09
544.48	1577.52
544.65	1535.39
544.82	1600.93
544.99	1659.44
545.16	1837.32
545.32	1577.52
545.49	1612.63
545.66	1652.42
545.83	1591.56
546.00	1472.20
546.16	1626.67
546.33	1685.19
546.50	1575.18
546.67	1867.75
546.83	1776.47
547.00	1685.19
547.17	1633.69
547.34	1493.26
547.50	1533.05
547.67	1563.48
547.84	1582.20
548.00	1720.29
548.17	1519.01
548.34	1626.67
548.51	1970.73
548.67	1802.21
548.84	1638.38
549.01	1661.78
549.18	1781.15
549.34	1636.03
549.51	1710.93
549.68	1743.70
549.84	1558.80
550.01	1441.77
550.18	2588.63
550.34	2291.38
550.51	1614.97
550.68	2099.46
550.84	1502.62
551.01	1551.78
551.18	1781.15
551.34	1624.33
551.51	1582.20
551.68	1694.55
551.84	1823.28
552.01	1607.95
552.18	1598.59
552.34	1624.33
552.51	1547.09
552.68	1806.89
552.84	1556.46
553.01	1685.19
553.18	1912.22
553.34	1530.71
553.51	1416.02
553.67	1743.70
553.84	1891.15
554.01	1760.08
554.17	1802.21
554.34	1479.22
554.51	1589.22
554.67	1776.47
554.84	1825.62
555.00	1741.36
555.17	1689.87
555.33	1902.86
555.50	1600.93
555.67	1757.74
555.83	1481.56
556.00	1624.33
556.16	3091.85
556.33	1830.30
556.50	1551.78
556.66	1535.39
556.83	1474.54
556.99	1596.25
557.16	1598.59
557.32	1483.90
557.49	1458.15
557.65	1467.52
557.82	1509.65
557.98	1563.48
558.15	1467.52
558.32	1668.80
558.48	1460.49
558.65	1458.15
558.81	1668.80
558.98	1497.94
559.14	1727.32
559.31	1614.97
559.47	1657.10
559.64	1364.53
559.80	1713.27
559.97	1336.45
560.13	1577.52
560.30	1493.26
560.46	1502.62
560.63	1490.92
560.79	1582.20
560.96	1476.88
561.12	1509.65
561.29	1633.69
561.45	1490.92
561.61	1502.62
561.78	2392.03
561.94	1392.62
562.11	1430.07
562.27	1582.20
562.44	1383.26
562.60	1448.79
562.77	1547.09
562.93	2157.97
563.10	1579.86
563.26	1577.52
563.42	1743.70
563.59	1636.03
563.75	1439.43
563.92	1802.21
564.08	1661.78
564.24	1776.47
564.41	1998.82
564.57	1413.68
564.74	1406.66
564.90	1621.99
565.07	1631.35
565.23	1671.14
565.39	1507.30
565.56	1617.31
565.72	1469.86
565.88	1530.71
566.05	1406.66
566.21	1500.28
566.38	1640.72
566.54	1535.39
566.70	1472.20
566.87	1556.46
567.03	1401.98
567.19	1535.39
567.36	1713.27
567.52	1547.09
567.68	1636.03
567.85	1568.16
568.01	1437.09
568.17	1350.49
568.34	1521.35
568.50	1863.07
568.66	1397.30
568.83	2113.50
568.99	1493.26
569.15	1809.23
569.32	1544.75
569.48	1481.56
569.64	1453.47
569.81	1413.68
569.97	1427.73
570.13	1596.25
570.30	1474.54
570.46	1451.13
570.62	1355.17
570.78	1465.18
570.95	1238.14
571.11	1893.49
571.27	1849.02
571.43	1303.68
571.60	1696.89
571.76	1441.77
571.92	1519.01
572.09	1479.22
572.25	1406.66
572.41	1519.01
572.57	1519.01
572.74	1937.96
572.90	1549.43
573.06	1633.69
573.22	1713.27
573.38	1743.70
573.55	1680.50
573.71	1825.62
573.87	1617.31
574.03	1385.60
574.20	1465.18
574.36	1741.36
574.52	1502.62
574.68	1453.47
574.84	1584.54
575.01	1509.65
575.17	1643.06
575.33	1413.68
575.49	1638.38
575.65	1661.78
575.82	1865.41
575.98	2359.26
576.14	2022.22
576.30	2022.22
576.46	1923.92
576.62	1905.20
576.79	1666.46
576.95	1813.92
577.11	1453.47
577.27	1411.34
577.43	1750.72
577.59	1832.64
577.75	1626.67
577.92	1448.79
578.08	1509.65
578.24	1308.36
578.40	1708.59
578.56	1865.41
578.72	1926.26
578.88	1650.08
579.04	1490.92
579.21	1607.95
579.37	1619.65
579.53	1451.13
579.69	1839.66
579.85	1511.99
580.01	1764.76
580.17	1659.44
580.33	1629.01
580.49	1703.91
580.65	1762.42
580.82	1652.42
580.98	1542.41
581.14	1526.03
581.30	1907.54
581.46	1830.30
581.62	2239.89
581.78	1928.60
581.94	1935.62
582.10	1614.97
582.26	1741.36
582.42	1629.01
582.58	1820.94
582.74	1685.19
582.90	1919.24
583.06	1832.64
583.22	1708.59
583.38	1743.70
583.54	1710.93
583.70	2216.49
583.86	2193.08
584.02	2232.87
584.18	2642.46
584.34	2869.50
584.50	6565.20
584.66	41408.76
584.82	65535.00
584.98	65535.00
585.14	65535.00
585.30	61649.71
585.46	40367.22
585.62	24938.41
585.78	12020.99
585.94	5554.09
586.10	3309.52
586.26	2672.89
586.42	2581.61
586.58	2132.23
586.74	1919.24
586.90	1844.34
587.06	1963.71
587.22	1830.30
587.38	1783.49
587.54	3054.40
587.70	6747.76
587.86	9336.40
588.02	9568.11
588.18	7157.36
588.34	4898.74
588.49	3361.01
588.65	2560.55
588.81	1624.33
588.97	1289.64
589.13	1350.49
589.29	1488.58
589.45	1614.97
589.61	1444.11
589.77	1724.97
589.93	1572.84
590.08	1600.93
590.24	1633.69
590.40	1610.29
590.56	1671.14
590.72	1448.79
590.88	1287.29
591.04	1507.30
591.20	1350.49
591.35	1746.04
591.51	1458.15
591.67	1275.59
591.83	1310.70
591.99	1474.54
592.15	1509.65
592.31	1451.13
592.46	1455.81
592.62	1584.54
592.78	1259.21
592.94	1331.76
593.10	1287.29
593.26	1282.61
593.41	1626.67
593.57	1551.78
593.73	1919.24
593.89	5933.26
594.05	12320.58
594.20	16208.21
594.36	14768.78
594.52	9818.55
594.68	6607.33
594.84	4922.15
594.99	3407.82
595.15	2183.72
595.31	1856.04
595.47	1898.17
595.62	1441.77
595.78	1416.02
595.94	1387.94
596.10	1739.02
596.25	1488.58
596.41	1596.25
596.57	1430.07
596.73	1394.96
596.88	1792.85
597.04	3229.94
597.20	4313.61
597.36	4643.62
597.51	3578.68
597.67	2810.98
597.83	2314.79
597.99	2125.21
598.14	1654.76
598.30	1853.70
598.46	1369.21
598.61	1689.87
598.77	1460.49
598.93	1362.19
599.09	1338.79
599.24	1523.69
599.40	1645.40
599.56	1329.42
599.71	1383.26
599.87	1289.64
600.03	1378.58
600.18	1294.32
600.34	1425.39
600.50	1322.40
600.65	1233.46
600.81	1551.78
600.97	1348.15
601.12	1331.76
