SpectraSuite Data File
++++++++++++++++++++++++++++++++++++
Date: Fri Oct 04 12:15:31 GMT-05:00 2013
User: price-jones
Dark Spectrum Present: No
Reference Spectrum Present: No
Number of Sampled Component Spectra: 1
Spectrometers: USB2+H05261
Integration Time (usec): 10000000 (USB2+H05261)
Spectra Averaged: 1 (USB2+H05261)
Boxcar Smoothing: 0 (USB2+H05261)
Correct for Electrical Dark: No (USB2+H05261)
Strobe/Lamp Enabled: No (USB2+H05261)
Correct for Detector Non-linearity: No (USB2+H05261)
Correct for Stray Light: No (USB2+H05261)
Number of Pixels in Processed Spectrum: 2048
>>>>>Begin Processed Spectral Data<<<<<
365.73	0.00
365.92	0.00
366.12	0.00
366.32	0.00
366.52	0.00
366.72	4411.91
366.91	2272.66
367.11	4142.75
367.31	3691.02
367.51	4187.22
367.70	4966.62
367.90	6817.98
368.10	4746.61
368.30	4954.91
368.49	2420.11
368.69	6090.07
368.89	4161.47
369.09	2745.45
369.28	3889.97
369.48	2406.07
369.68	3335.26
369.87	4542.98
370.07	3045.04
370.27	6539.46
370.47	4554.68
370.66	3838.48
370.86	5336.42
371.06	7913.35
371.25	9886.42
371.45	4280.84
371.65	6923.30
371.84	3510.80
372.04	3030.99
372.24	4849.59
372.44	4039.76
372.63	5254.50
372.83	8587.43
373.03	4514.89
373.22	3545.91
373.42	3761.24
373.62	4489.15
373.81	5509.62
374.01	7007.56
374.21	6799.26
374.40	4084.23
374.60	7405.46
374.79	4428.29
374.99	4280.84
375.19	5579.84
375.38	5736.65
375.58	4830.87
375.78	6628.40
375.97	6317.11
376.17	9734.29
376.37	4580.43
376.56	5804.53
376.76	3730.81
376.95	3485.06
377.15	6274.98
377.35	5694.52
377.54	5799.85
377.74	3768.26
377.93	4070.19
378.13	5357.49
378.33	6810.96
378.52	4779.37
378.72	7201.83
378.91	6354.55
379.11	4159.13
379.31	4095.94
379.50	3066.10
379.70	7087.14
379.89	6778.19
380.09	4063.17
380.28	3325.90
380.48	4938.53
380.68	3843.16
380.87	3131.64
381.07	5387.91
381.26	7651.21
381.46	3372.71
381.65	5966.03
381.85	4093.60
382.04	4620.22
382.24	5790.49
382.43	4645.96
382.63	3524.85
382.83	4278.50
383.02	6857.77
383.22	7606.74
383.41	3515.48
383.61	4987.68
383.80	4472.76
384.00	4596.81
384.19	4161.47
384.39	5181.95
384.58	4308.93
384.78	5935.60
384.97	5352.81
385.17	4699.80
385.36	3925.08
385.56	6476.26
385.75	3192.49
385.95	4795.76
386.14	6590.95
386.34	4205.94
386.53	5441.75
386.72	3873.59
386.92	7641.85
387.11	5856.02
387.31	6022.20
387.50	3726.13
387.70	3325.90
387.89	5181.95
388.09	3740.18
388.28	3569.32
388.48	3765.92
388.67	6729.04
388.86	4617.88
389.06	4634.26
389.25	5715.59
389.45	5336.42
389.64	4594.47
389.84	7447.58
390.03	6033.90
390.22	5359.83
390.42	4475.10
390.61	3630.17
390.81	3101.21
391.00	4814.48
391.19	7129.27
391.39	4690.43
391.58	6251.57
391.78	5053.22
391.97	5446.43
392.16	3538.89
392.36	7651.21
392.55	7239.28
392.75	4896.40
392.94	3992.95
393.13	6162.63
393.33	3321.22
393.52	4042.11
393.71	7824.41
393.91	5224.08
394.10	3473.36
394.29	4152.11
394.49	4222.33
394.68	5858.36
394.88	7466.31
395.07	7082.46
395.26	5163.22
395.46	5104.71
395.65	7112.89
395.84	5888.79
396.04	11719.06
396.23	4880.02
396.42	4194.24
396.62	5472.17
396.81	5881.77
397.00	5163.22
397.19	5460.47
397.39	4615.54
397.58	7871.22
397.77	4538.30
397.97	5296.63
398.16	5132.79
398.35	6513.71
398.55	4053.81
398.74	5233.44
398.93	7155.02
399.12	4585.11
399.32	6445.84
399.51	5076.62
399.70	6616.69
399.90	6143.91
400.09	6186.04
400.28	7398.43
400.47	4695.11
400.67	6923.30
400.86	5598.56
401.05	6602.65
401.24	7470.99
401.44	6892.88
401.63	6953.73
401.82	7651.21
402.01	4313.61
402.21	6157.95
402.40	5863.04
402.59	5043.85
402.78	4877.68
402.97	5181.95
403.17	5682.82
403.36	6216.46
403.55	5282.59
403.74	5041.51
403.93	5221.74
404.13	7981.23
404.32	4643.62
404.51	4657.67
404.70	7314.17
404.89	5020.45
405.09	9893.44
405.28	5645.37
405.47	4306.59
405.66	6736.06
405.85	7508.44
406.05	5558.77
406.24	5305.99
406.43	6195.40
406.62	6808.62
406.81	10331.12
407.00	7819.73
407.20	5991.77
407.39	5350.46
407.58	5011.09
407.77	6647.12
407.96	8301.88
408.15	7517.80
408.34	6747.76
408.54	6312.42
408.73	6174.33
408.92	6181.35
409.11	7199.49
409.30	8205.92
409.49	4573.41
409.68	5359.83
409.87	5982.41
410.07	4692.77
410.26	6160.29
410.45	5394.93
410.64	4882.36
410.83	5973.05
411.02	5158.54
411.21	7056.72
411.40	7639.51
411.59	5788.14
411.78	5397.28
411.98	6143.91
412.17	4758.31
412.36	5516.64
412.55	5465.15
412.74	7112.89
412.93	10047.92
413.12	5144.50
413.31	8182.51
413.50	6729.04
413.69	5916.87
413.88	9102.34
414.07	6640.10
414.26	6399.02
414.45	5193.65
414.64	7445.24
414.83	7258.00
415.02	6801.60
415.22	7576.31
415.41	8971.27
415.60	5493.24
415.79	6235.19
415.98	9163.20
416.17	6356.90
416.36	6576.91
416.55	5488.56
416.74	7744.83
416.93	8592.11
417.12	6216.46
417.31	6127.52
417.50	6017.52
417.69	10345.17
417.88	6628.40
418.07	5139.82
418.26	6242.21
418.45	6047.94
418.64	10157.92
418.83	7297.79
419.02	7300.13
419.21	6927.99
419.39	7016.93
419.58	5432.38
419.77	5596.22
419.96	8552.32
420.15	9781.10
420.34	6707.98
420.53	7016.93
420.72	8636.58
420.91	7239.28
421.10	6825.00
421.29	7258.00
421.48	7882.92
421.67	8589.77
421.86	6033.90
422.05	6366.26
422.24	6202.42
422.43	6977.14
422.61	5022.79
422.80	6256.25
422.99	6764.15
423.18	5856.02
423.37	9603.22
423.56	8002.29
423.75	7892.29
423.94	5172.58
424.13	6485.62
424.32	5617.29
424.50	6696.27
424.69	6516.05
424.88	9570.45
425.07	6073.69
425.26	7503.76
425.45	8081.87
425.64	5940.28
425.83	6338.17
426.01	9210.01
426.20	7398.43
426.39	6214.12
426.58	5900.49
426.77	7049.69
426.96	8648.28
427.15	7349.28
427.33	5900.49
427.52	6832.02
427.71	6738.40
427.90	7185.44
428.09	5900.49
428.28	5380.89
428.46	6183.70
428.65	7810.37
428.84	8517.21
429.03	10202.40
429.22	5811.55
429.40	5266.21
429.59	4898.74
429.78	10792.21
429.97	6127.52
430.16	5455.79
430.34	5959.00
430.53	5753.04
430.72	5898.15
430.91	8418.91
431.10	5348.12
431.28	6750.10
431.47	8395.50
431.66	7868.88
431.85	5874.74
432.03	6736.06
432.22	12123.98
432.41	6827.34
432.60	9717.90
432.79	6183.70
432.97	7559.93
433.16	6752.45
433.35	6038.58
433.54	6251.57
433.72	8341.67
433.91	8585.08
434.10	6235.19
434.28	7683.98
434.47	6494.99
434.66	8870.63
434.85	6415.41
435.03	7332.90
435.22	10602.63
435.41	11101.16
435.59	8578.06
435.78	7962.50
435.97	6424.77
436.16	8990.00
436.34	7028.63
436.53	7927.39
436.72	9607.90
436.90	8758.28
437.09	8142.72
437.28	7389.07
437.46	6654.14
437.65	8723.18
437.84	8465.72
438.02	7742.49
438.21	8308.90
438.40	6527.75
438.58	5636.01
438.77	7777.60
438.96	7627.81
439.14	6644.78
439.33	9001.70
439.52	6988.84
439.70	7632.49
439.89	9111.71
440.08	7955.48
440.26	7871.22
440.45	11009.88
440.63	8287.84
440.82	7983.57
441.01	8051.44
441.19	7358.64
441.38	7534.18
441.57	7634.83
441.75	10616.67
441.94	10490.28
442.12	7978.89
442.31	7391.41
442.50	7463.97
442.68	7442.90
442.87	8142.72
443.05	7475.67
443.24	8489.12
443.43	10761.78
443.61	11091.80
443.80	8196.56
443.98	7126.93
444.17	7466.31
444.35	9624.28
444.54	7765.90
444.73	7597.38
444.91	10480.92
445.10	6392.00
445.28	6775.85
445.47	8180.17
445.65	7801.01
445.84	7052.03
446.02	8257.41
446.21	7543.55
446.39	7492.05
446.58	8863.61
446.77	7377.37
446.95	7801.01
447.14	9123.41
447.32	11482.67
447.51	8266.77
447.69	8617.85
447.88	8477.42
448.06	11569.27
448.25	9041.49
448.43	6794.58
448.62	6710.32
448.80	9589.17
448.99	9792.80
449.17	7295.45
449.36	7094.16
449.54	9832.59
449.73	6956.07
449.91	9305.97
450.10	7655.89
450.28	13689.79
450.46	12767.62
450.65	10251.55
450.83	9013.40
451.02	8437.63
451.20	8404.86
451.39	8332.31
451.57	7925.05
451.76	7461.63
451.94	8369.76
452.13	9638.33
452.31	10867.11
452.49	9139.79
452.68	6703.29
452.86	8816.80
453.05	12236.32
453.23	8222.30
453.42	6932.67
453.60	8229.32
453.78	9198.31
453.97	7049.69
454.15	7014.59
454.34	7569.29
454.52	7293.11
454.70	11337.56
454.89	9743.65
455.07	7803.35
455.26	9661.73
455.44	10115.80
455.62	8037.40
455.81	8954.89
455.99	9554.07
456.17	9837.27
456.36	8308.90
456.54	8208.26
456.73	7808.03
456.91	7838.45
457.09	9504.92
457.28	11026.26
457.46	8606.15
457.64	10637.73
457.83	8234.00
458.01	7641.85
458.19	9109.36
458.38	8074.85
458.56	9114.05
458.74	7075.44
458.93	9376.19
459.11	9067.24
459.29	7557.59
459.48	10015.15
459.66	12241.00
459.84	10443.47
460.03	17364.43
460.21	10703.27
460.39	8645.94
460.57	11447.56
460.76	9324.69
460.94	8779.35
461.12	12585.06
461.31	11894.60
461.49	8538.27
461.67	8203.58
461.85	9497.89
462.04	8351.03
462.22	53249.53
462.40	10015.15
462.59	11536.50
462.77	8238.69
462.95	9650.03
463.13	7419.50
463.32	10822.64
463.50	9476.83
463.68	10061.96
463.86	9025.11
464.05	8182.51
464.23	11311.81
464.41	10066.64
464.59	7709.72
464.78	8168.47
464.96	7293.11
465.14	9577.47
465.32	8142.72
465.50	10178.99
465.69	10244.52
465.87	7314.17
466.05	9774.08
466.23	6998.20
466.41	8421.25
466.60	8369.76
466.78	8872.97
466.96	10925.62
467.14	9540.02
467.32	11253.30
467.51	10033.88
467.69	10146.22
467.87	12367.39
468.05	8985.32
468.23	13177.22
468.41	10757.10
468.60	8638.92
468.78	9493.21
468.96	11777.58
469.14	9902.81
469.32	6918.62
469.50	7513.12
469.69	10040.90
469.87	9191.28
470.05	9036.81
470.23	8636.58
470.41	7571.63
470.59	8079.53
470.77	9444.06
470.95	8894.04
471.14	11602.04
471.32	8943.19
471.50	12695.07
471.68	9181.92
471.86	9797.48
472.04	7971.86
472.22	9369.16
472.40	7400.77
472.58	8477.42
472.77	7611.42
472.95	8919.78
473.13	13551.70
473.31	12077.16
473.49	7627.81
473.67	7978.89
473.85	10619.01
474.03	10698.59
474.21	9654.71
474.39	12470.37
474.57	13362.12
474.75	10085.37
474.93	8266.77
475.12	7557.59
475.30	8528.91
475.48	9331.72
475.66	9493.21
475.84	9341.08
476.02	9102.34
476.20	11234.57
476.38	9657.05
476.56	15087.09
476.74	9294.27
476.92	9121.07
477.10	9507.26
477.28	11037.97
477.46	9170.22
477.64	11250.96
477.82	9820.89
478.00	9486.19
478.18	10214.10
478.36	9745.99
478.54	8765.31
478.72	8826.16
478.90	9685.14
479.08	10677.52
479.26	10256.23
479.44	9504.92
479.62	8681.05
479.80	9261.50
479.98	8800.41
480.16	9327.03
480.34	12187.17
480.52	9060.21
480.70	11379.68
480.88	8987.66
481.06	9277.88
481.24	9610.24
481.41	9905.15
481.59	11676.93
481.77	10829.66
481.95	10221.12
482.13	13617.24
482.31	10665.82
482.49	9355.12
482.67	11915.67
482.85	12294.83
483.03	11473.31
483.21	11124.57
483.39	10059.62
483.57	10469.22
483.74	13965.98
483.92	10827.32
484.10	9287.25
484.28	12826.14
484.46	16578.01
484.64	10195.37
484.82	11030.94
485.00	10218.78
485.18	10663.48
485.35	10909.24
485.53	8369.76
485.71	12610.81
485.89	7992.93
486.07	9731.95
486.25	15857.13
486.43	11908.65
486.61	12493.78
486.78	11868.86
486.96	8966.59
487.14	10862.43
487.32	10609.65
487.50	10560.50
487.68	13114.02
487.85	9973.02
488.03	12587.40
488.21	14623.67
488.39	11220.53
488.57	12819.11
488.75	10665.82
488.92	38258.40
489.10	12367.39
489.28	16407.16
489.46	10658.80
489.64	12065.46
489.81	12308.88
489.99	13469.78
490.17	11779.92
490.35	18782.80
490.53	11716.72
490.70	10597.95
490.88	13818.52
491.06	11529.48
491.24	13453.40
491.41	15335.19
491.59	13060.19
491.77	10614.33
491.95	10686.89
492.13	10869.45
492.30	12795.71
492.48	11981.20
492.66	12676.34
492.84	11391.39
493.01	13287.22
493.19	11779.92
493.37	16737.17
493.54	14143.86
493.72	13844.27
493.90	12388.46
494.08	12203.55
494.25	14235.14
494.43	13673.41
494.61	12409.52
494.79	11501.39
494.96	11688.64
495.14	14300.67
495.32	12760.60
495.49	13530.64
495.67	13603.19
495.85	12648.26
496.02	12020.99
496.20	15220.50
496.38	14331.10
496.55	13734.26
496.73	14565.15
496.91	12449.31
497.09	15489.67
497.26	13378.50
497.44	13212.32
497.62	13184.24
497.79	13062.53
497.97	14043.21
498.14	14487.92
498.32	14012.79
498.50	14146.20
498.67	12938.48
498.85	14183.65
499.03	13254.45
499.20	13650.00
499.38	13640.64
499.56	13659.37
499.73	18050.21
499.91	15295.40
500.08	15382.00
500.26	13050.83
500.44	12578.04
500.61	14284.29
500.79	12512.50
500.97	14796.87
501.14	16648.23
501.32	13675.75
501.49	16383.75
501.67	13596.17
501.84	14621.33
502.02	12156.74
502.20	17308.26
502.37	14736.01
502.55	13114.02
502.72	13502.55
502.90	15346.89
503.07	14171.94
503.25	14413.02
503.43	11838.43
503.60	12688.04
503.78	14026.83
503.95	13149.13
504.13	12929.12
504.30	15227.53
504.48	16058.42
504.65	16933.78
504.83	15613.71
505.01	13486.17
505.18	14324.08
505.36	14176.62
505.53	14176.62
505.71	13542.34
505.88	17163.15
506.06	13898.10
506.23	14052.58
506.41	13287.22
506.58	14958.36
506.76	14633.03
506.93	13350.42
507.11	15159.65
507.28	12512.50
507.46	12940.82
507.63	14384.93
507.81	12596.76
507.98	14200.03
508.16	14225.78
508.33	15007.52
508.50	15667.55
508.68	14651.75
508.85	14658.78
509.03	13465.10
509.20	13678.09
509.38	15632.44
509.55	16482.05
509.73	16699.72
509.90	17369.12
510.08	13429.99
510.25	16102.89
510.42	13247.43
510.60	14333.44
510.77	16023.31
510.95	17266.13
511.12	14162.58
511.30	16269.06
511.47	16533.54
511.64	19108.13
511.82	14508.98
511.99	14490.26
512.17	14340.46
512.34	13296.58
512.51	13940.23
512.69	13912.14
512.86	17486.14
513.04	13486.17
513.21	15154.97
513.38	13600.85
513.56	13757.67
513.73	13628.94
513.90	12957.21
514.08	12915.08
514.25	15232.21
514.43	15417.11
514.60	13209.98
514.77	13699.16
514.95	15454.56
515.12	13685.11
515.29	15688.61
515.47	15459.24
515.64	15061.35
515.81	14710.27
515.99	17741.26
516.16	15557.54
516.33	16030.33
516.51	12503.14
516.68	11555.22
516.85	12793.37
517.03	13004.02
517.20	15639.46
517.37	15218.16
517.54	15906.28
517.72	13664.05
517.89	11730.76
518.06	12566.34
518.24	18443.42
518.41	18534.70
518.58	15875.85
518.75	13224.03
518.93	15187.74
519.10	15150.29
519.27	14026.83
519.45	15435.83
519.62	15616.05
519.79	16219.91
519.96	13429.99
520.14	15304.76
520.31	17586.79
520.48	14867.08
520.65	15728.40
520.83	16545.25
521.00	16578.01
521.17	16006.92
521.34	14448.13
521.52	15723.72
521.69	15262.63
521.86	15356.25
522.03	16355.66
522.20	18883.44
522.38	14005.77
522.55	15513.07
522.72	13263.82
522.89	16606.10
523.07	19915.62
523.24	15204.12
523.41	14630.69
523.58	14864.74
523.75	15171.35
523.92	14265.57
524.10	16112.25
524.27	15239.23
524.44	14731.33
524.61	18272.56
524.78	14443.45
524.96	16559.29
525.13	15941.39
525.30	17907.44
525.47	17460.40
525.64	15712.02
525.81	15857.13
525.98	15250.93
526.16	14312.38
526.33	13308.29
526.50	12828.48
526.67	12650.60
526.84	12858.90
527.01	13392.55
527.18	15831.38
527.36	15255.61
527.53	14284.29
527.70	18052.55
527.87	15435.83
528.04	19620.71
528.21	14448.13
528.38	18279.58
528.55	18420.02
528.72	18984.09
528.89	20577.99
529.07	15604.35
529.24	15887.56
529.41	19323.46
529.58	15667.55
529.75	14740.69
529.92	17228.68
530.09	15948.41
530.26	18050.21
530.43	16992.29
530.60	16219.91
530.77	16063.10
530.94	17521.25
531.11	17301.24
531.28	15274.34
531.46	14670.48
531.63	16145.02
531.80	16599.08
531.97	16889.31
532.14	15243.91
532.31	15744.78
532.48	15662.86
532.65	16030.33
532.82	14129.81
532.99	15253.27
533.16	15733.08
533.33	15791.59
533.50	15379.66
533.67	14394.29
533.84	16929.09
534.01	16374.39
534.18	15644.14
534.35	15962.45
534.52	16273.74
534.69	20982.90
534.86	15573.92
535.03	15316.47
535.20	15489.67
535.37	18530.02
535.54	16879.94
535.71	15667.55
535.88	19300.06
536.05	14909.21
536.22	16957.18
536.38	15222.84
536.55	15964.79
536.72	17778.71
536.89	13900.44
537.06	14391.95
537.23	14626.01
537.40	14902.19
537.57	14623.67
537.74	17504.87
537.91	17062.51
538.08	15665.21
538.25	16877.60
538.42	14977.09
538.59	15948.41
538.75	15225.18
538.92	16025.65
539.09	17696.79
539.26	15115.18
539.43	19171.33
539.60	18544.06
539.77	21118.65
539.94	20049.03
540.11	19143.24
540.28	19924.98
540.44	18827.27
540.61	15080.07
540.78	14829.63
540.95	13654.69
541.12	19295.38
541.29	14567.49
541.46	18925.57
541.62	16095.86
541.79	14389.61
541.96	14090.02
542.13	15002.83
542.30	14122.79
542.47	17441.67
542.63	14817.93
542.80	16126.29
542.97	17851.27
543.14	14743.03
543.31	16638.87
543.48	15419.45
543.64	16404.81
543.81	15599.67
543.98	14513.66
544.15	13647.66
544.32	14829.63
544.48	15283.70
544.65	14796.87
544.82	14026.83
544.99	15012.20
545.16	18207.03
545.32	14583.88
545.49	16379.07
545.66	15054.33
545.83	14143.86
546.00	13748.31
546.16	14511.32
546.33	14689.20
546.50	15311.78
546.67	18216.39
546.83	17193.58
547.00	15529.45
547.17	13802.14
547.34	13617.24
547.50	15019.22
547.67	15009.86
547.84	14113.43
548.00	16898.67
548.17	14228.12
548.34	15042.62
548.51	19054.30
548.67	17921.48
548.84	15087.09
549.01	15934.37
549.18	16128.63
549.34	16070.12
549.51	16154.38
549.68	16358.00
549.84	15477.96
550.01	13790.44
550.18	25537.59
550.34	21879.33
550.51	16191.83
550.68	20084.14
550.84	14555.79
551.01	15695.63
551.18	16973.56
551.34	15274.34
551.51	14965.39
551.68	15393.70
551.84	16915.05
552.01	14012.79
552.18	14998.15
552.34	15396.04
552.51	15421.79
552.68	16657.59
552.84	14424.72
553.01	16051.39
553.18	17324.65
553.34	14789.85
553.51	13479.15
553.67	16779.30
553.84	20271.38
554.01	17062.51
554.17	16650.57
554.34	14235.14
554.51	16650.57
554.67	17444.01
554.84	17310.60
555.00	16100.55
555.17	15840.75
555.33	17600.83
555.50	15583.29
555.67	16428.22
555.83	13429.99
556.00	15293.06
556.16	32818.99
556.33	15632.44
556.50	14967.73
556.66	14794.53
556.83	14005.77
556.99	14038.53
557.16	15136.24
557.32	14094.71
557.49	14162.58
557.65	14277.27
557.82	14148.54
557.98	14937.30
558.15	13783.41
558.32	14562.81
558.48	14033.85
558.65	14466.85
558.81	15756.49
558.98	14169.60
559.14	16231.62
559.31	15314.13
559.47	16130.97
559.64	13720.22
559.80	16280.77
559.97	12952.52
560.13	14740.69
560.30	13015.72
560.46	14457.49
560.63	14291.31
560.79	15037.94
560.96	15225.18
561.12	13858.31
561.29	15690.95
561.45	14129.81
561.61	14523.02
561.78	23524.72
561.94	14171.94
562.11	13818.52
562.27	14963.04
562.44	13174.88
562.60	14633.03
562.77	14164.92
562.93	21226.32
563.10	15290.72
563.26	14672.82
563.42	16872.92
563.59	14876.44
563.75	13584.47
563.92	17575.08
564.08	15506.05
564.24	17195.92
564.41	19374.95
564.57	12772.30
564.74	13575.11
564.90	15328.17
565.07	16128.63
565.23	16063.10
565.39	13694.47
565.56	15503.71
565.72	13207.64
565.88	13951.93
566.05	13565.74
566.21	13752.99
566.38	15559.88
566.54	14806.23
566.70	14148.54
566.87	13848.95
567.03	12388.46
567.19	14363.87
567.36	15433.49
567.52	13654.69
567.68	15363.28
567.85	15360.94
568.01	13418.29
568.17	11946.09
568.34	13490.85
568.50	16442.26
568.66	12299.52
568.83	21261.43
568.99	12657.62
569.15	17385.50
569.32	13687.45
569.48	13289.56
569.64	12652.94
569.81	13862.99
569.97	12931.46
570.13	15192.42
570.30	13097.64
570.46	13249.77
570.62	13294.24
570.78	13170.19
570.95	11328.19
571.11	17767.01
571.27	17755.30
571.43	12346.33
571.60	15311.78
571.76	12924.44
571.92	13994.06
572.09	13504.89
572.25	13563.40
572.41	14122.79
572.57	13551.70
572.74	18176.60
572.90	15723.72
573.06	15969.48
573.22	15154.97
573.38	16219.91
573.55	15742.44
573.71	16051.39
573.87	15473.28
574.03	12437.61
574.20	13397.23
574.36	16460.99
574.52	13249.77
574.68	13160.83
574.84	14572.18
575.01	13245.09
575.17	14759.42
575.33	12800.39
575.49	15784.57
575.65	15929.69
575.82	15871.17
575.98	20020.94
576.14	15339.87
576.30	14902.19
576.46	14773.46
576.62	14724.31
576.79	15337.53
576.95	16933.78
577.11	12732.51
577.27	12418.88
577.43	16489.07
577.59	16725.47
577.75	14740.69
577.92	13270.84
578.08	12865.92
578.24	12304.20
578.40	15990.54
578.56	16514.82
578.72	16919.73
578.88	15379.66
579.04	13109.34
579.21	14583.88
579.37	13413.61
579.53	13266.16
579.69	16088.84
579.85	12287.81
580.01	15140.93
580.17	13212.32
580.33	13273.18
580.49	14197.69
580.65	14925.60
580.82	14242.16
580.98	12964.23
581.14	12912.74
581.30	16882.28
581.46	14406.00
581.62	17053.14
581.78	14246.84
581.94	16334.60
582.10	12622.51
582.26	13942.57
582.42	13432.33
582.58	15379.66
582.74	13572.77
582.90	14768.78
583.06	14934.96
583.22	13099.98
583.38	13530.64
583.54	13205.30
583.70	17809.14
583.86	15786.91
584.02	15506.05
584.18	19630.07
584.34	16542.91
584.50	25553.97
584.66	61925.89
584.82	65535.00
584.98	65535.00
585.14	65535.00
585.30	65535.00
585.46	65535.00
585.62	57602.92
585.78	39660.38
585.94	24187.10
586.10	17462.74
586.26	16341.62
586.42	19449.85
586.58	16264.38
586.74	14284.29
586.90	14546.43
587.06	15260.29
587.22	14892.83
587.38	12638.89
587.54	15700.31
587.70	27365.54
587.86	34314.59
588.02	32650.47
588.18	28474.96
588.34	22581.49
588.49	15157.31
