SpectraSuite Data File
++++++++++++++++++++++++++++++++++++
Date: Fri Oct 04 11:33:51 GMT-05:00 2013
User: price-jones
Dark Spectrum Present: No
Reference Spectrum Present: No
Number of Sampled Component Spectra: 1
Spectrometers: USB2+H05261
Integration Time (usec): 100000 (USB2+H05261)
Spectra Averaged: 1 (USB2+H05261)
Boxcar Smoothing: 0 (USB2+H05261)
Correct for Electrical Dark: No (USB2+H05261)
Strobe/Lamp Enabled: No (USB2+H05261)
Correct for Detector Non-linearity: No (USB2+H05261)
Correct for Stray Light: No (USB2+H05261)
Number of Pixels in Processed Spectrum: 2048
>>>>>Begin Processed Spectral Data<<<<<
365.73	142.77
365.92	142.77
366.12	142.77
366.32	0.00
366.52	0.00
366.72	0.00
366.91	0.00
367.11	0.00
367.31	0.00
367.51	0.00
367.70	0.00
367.90	14.04
368.10	0.00
368.30	18.72
368.49	0.00
368.69	0.00
368.89	2.34
369.09	0.00
369.28	0.00
369.48	21.06
369.68	0.00
369.87	4.68
370.07	49.15
370.27	42.13
370.47	72.56
370.66	72.56
370.86	184.90
371.06	107.66
371.25	184.90
371.45	166.18
371.65	88.94
371.84	98.30
372.04	72.56
372.24	88.94
372.44	98.30
372.63	163.84
372.83	290.23
373.03	93.62
373.22	145.11
373.42	173.20
373.62	201.29
373.81	182.56
374.01	121.71
374.21	145.11
374.40	161.50
374.60	238.73
374.79	149.79
374.99	100.64
375.19	205.97
375.38	133.41
375.58	72.56
375.78	212.99
375.97	203.63
376.17	161.50
376.37	170.86
376.56	147.45
376.76	114.69
376.95	77.24
377.15	231.71
377.35	135.75
377.54	79.58
377.74	145.11
377.93	147.45
378.13	170.86
378.33	166.18
378.52	105.32
378.72	91.28
378.91	180.22
379.11	147.45
379.31	168.52
379.50	145.11
379.70	147.45
379.89	168.52
380.09	154.48
380.28	121.71
380.48	175.54
380.68	154.48
380.87	81.92
381.07	177.88
381.26	131.07
381.46	201.29
381.65	170.86
381.85	149.79
382.04	194.26
382.24	98.30
382.43	119.37
382.63	95.96
382.83	131.07
383.02	163.84
383.22	220.01
383.41	74.90
383.61	142.77
383.80	170.86
384.00	149.79
384.19	119.37
384.39	175.54
384.58	175.54
384.78	222.35
384.97	159.16
385.17	107.66
385.36	114.69
385.56	119.37
385.75	152.13
385.95	210.65
386.14	86.60
386.34	67.88
386.53	95.96
386.72	152.13
386.92	126.39
387.11	152.13
387.31	138.09
387.50	112.35
387.70	154.48
387.89	126.39
388.09	117.03
388.28	145.11
388.48	170.86
388.67	173.20
388.86	135.75
389.06	93.62
389.25	140.43
389.45	191.92
389.64	149.79
389.84	177.88
390.03	168.52
390.22	203.63
390.42	170.86
390.61	128.73
390.81	161.50
391.00	154.48
391.19	102.98
391.39	152.13
391.58	184.90
391.78	161.50
391.97	128.73
392.16	117.03
392.36	177.88
392.55	217.67
392.75	205.97
392.94	95.96
393.13	198.95
393.33	173.20
393.52	117.03
393.71	154.48
393.91	119.37
394.10	166.18
394.29	74.90
394.49	105.32
394.68	173.20
394.88	210.65
395.07	140.43
395.26	138.09
395.46	140.43
395.65	142.77
395.84	112.35
396.04	210.65
396.23	121.71
396.42	112.35
396.62	138.09
396.81	198.95
397.00	152.13
397.19	161.50
397.39	102.98
397.58	191.92
397.77	79.58
397.97	191.92
398.16	138.09
398.35	133.41
398.55	128.73
398.74	145.11
398.93	119.37
399.12	142.77
399.32	152.13
399.51	168.52
399.70	135.75
399.90	138.09
400.09	117.03
400.28	156.82
400.47	128.73
400.67	194.26
400.86	227.03
401.05	133.41
401.24	224.69
401.44	170.86
401.63	142.77
401.82	166.18
402.01	238.73
402.21	154.48
402.40	117.03
402.59	140.43
402.78	166.18
402.97	91.28
403.17	126.39
403.36	154.48
403.55	177.88
403.74	170.86
403.93	203.63
404.13	243.42
404.32	208.31
404.51	133.41
404.70	196.60
404.89	114.69
405.09	191.92
405.28	191.92
405.47	79.58
405.66	133.41
405.85	173.20
406.05	112.35
406.24	191.92
406.43	227.03
406.62	102.98
406.81	147.45
407.00	154.48
407.20	117.03
407.39	180.22
407.58	156.82
407.77	198.95
407.96	191.92
408.15	166.18
408.34	156.82
408.54	161.50
408.73	124.05
408.92	170.86
409.11	159.16
409.30	170.86
409.49	131.07
409.68	147.45
409.87	170.86
410.07	114.69
410.26	152.13
410.45	147.45
410.64	163.84
410.83	159.16
411.02	180.22
411.21	231.71
411.40	142.77
411.59	149.79
411.78	203.63
411.98	170.86
412.17	119.37
412.36	191.92
412.55	140.43
412.74	147.45
412.93	215.33
413.12	198.95
413.31	208.31
413.50	170.86
413.69	154.48
413.88	177.88
414.07	161.50
414.26	175.54
414.45	63.19
414.64	220.01
414.83	140.43
415.02	173.20
415.22	166.18
415.41	184.90
415.60	142.77
415.79	140.43
415.98	212.99
416.17	135.75
416.36	145.11
416.55	67.88
416.74	133.41
416.93	229.37
417.12	121.71
417.31	126.39
417.50	121.71
417.69	196.60
417.88	184.90
418.07	198.95
418.26	145.11
418.45	245.76
418.64	241.08
418.83	215.33
419.02	212.99
419.21	191.92
419.39	210.65
419.58	224.69
419.77	194.26
419.96	159.16
420.15	163.84
420.34	182.56
420.53	177.88
420.72	133.41
420.91	166.18
421.10	121.71
421.29	133.41
421.48	229.37
421.67	203.63
421.86	145.11
422.05	163.84
422.24	173.20
422.43	205.97
422.61	180.22
422.80	194.26
422.99	161.50
423.18	121.71
423.37	205.97
423.56	175.54
423.75	170.86
423.94	102.98
424.13	182.56
424.32	191.92
424.50	142.77
424.69	173.20
424.88	128.73
425.07	231.71
425.26	252.78
425.45	259.80
425.64	217.67
425.83	231.71
426.01	217.67
426.20	208.31
426.39	205.97
426.58	107.66
426.77	161.50
426.96	229.37
427.15	161.50
427.33	133.41
427.52	161.50
427.71	156.82
427.90	110.01
428.09	117.03
428.28	98.30
428.46	205.97
428.65	203.63
428.84	159.16
429.03	222.35
429.22	191.92
429.40	180.22
429.59	180.22
429.78	245.76
429.97	187.24
430.16	205.97
430.34	152.13
430.53	177.88
430.72	189.58
430.91	152.13
431.10	114.69
431.28	194.26
431.47	191.92
431.66	142.77
431.85	177.88
432.03	161.50
432.22	220.01
432.41	187.24
432.60	175.54
432.79	166.18
432.97	245.76
433.16	238.73
433.35	271.50
433.54	234.05
433.72	184.90
433.91	187.24
434.10	252.78
434.28	208.31
434.47	180.22
434.66	217.67
434.85	156.82
435.03	290.23
435.22	341.72
435.41	355.76
435.59	379.17
435.78	397.89
435.97	236.39
436.16	173.20
436.34	170.86
436.53	208.31
436.72	196.60
436.90	161.50
437.09	184.90
437.28	124.05
437.46	191.92
437.65	245.76
437.84	161.50
438.02	163.84
438.21	234.05
438.40	135.75
438.58	184.90
438.77	180.22
438.96	180.22
439.14	149.79
439.33	205.97
439.52	170.86
439.70	194.26
439.89	245.76
440.08	180.22
440.26	203.63
440.45	187.24
440.63	224.69
440.82	152.13
441.01	175.54
441.19	196.60
441.38	198.95
441.57	236.39
441.75	126.39
441.94	273.84
442.12	203.63
442.31	159.16
442.50	180.22
442.68	128.73
442.87	154.48
443.05	168.52
443.24	222.35
443.43	266.82
443.61	243.42
443.80	168.52
443.98	189.58
444.17	131.07
444.35	229.37
444.54	227.03
444.73	180.22
444.91	189.58
445.10	203.63
445.28	191.92
445.47	264.48
445.65	215.33
445.84	212.99
446.02	180.22
446.21	170.86
446.39	142.77
446.58	189.58
446.77	138.09
446.95	262.14
447.14	248.10
447.32	222.35
447.51	255.12
447.69	191.92
447.88	210.65
448.06	184.90
448.25	135.75
448.43	191.92
448.62	154.48
448.80	74.90
448.99	173.20
449.17	140.43
449.36	126.39
449.54	203.63
449.73	168.52
449.91	224.69
450.10	135.75
450.28	210.65
450.46	308.95
450.65	152.13
450.83	166.18
451.02	250.44
451.20	117.03
451.39	248.10
451.57	156.82
451.76	201.29
451.94	198.95
452.13	168.52
452.31	231.71
452.49	135.75
452.68	198.95
452.86	163.84
453.05	184.90
453.23	217.67
453.42	180.22
453.60	166.18
453.78	238.73
453.97	149.79
454.15	168.52
454.34	102.98
454.52	252.78
454.70	196.60
454.89	154.48
455.07	224.69
455.26	142.77
455.44	234.05
455.62	184.90
455.81	184.90
455.99	252.78
456.17	187.24
456.36	205.97
456.54	187.24
456.73	170.86
456.91	201.29
457.09	236.39
457.28	212.99
457.46	100.64
457.64	154.48
457.83	191.92
458.01	182.56
458.19	243.42
458.38	196.60
458.56	184.90
458.74	170.86
458.93	154.48
459.11	187.24
459.29	161.50
459.48	257.46
459.66	145.11
459.84	133.41
460.03	262.14
460.21	114.69
460.39	166.18
460.57	170.86
460.76	191.92
460.94	201.29
461.12	196.60
461.31	198.95
461.49	156.82
461.67	187.24
461.85	173.20
462.04	145.11
462.22	585.13
462.40	208.31
462.59	227.03
462.77	255.12
462.95	191.92
463.13	196.60
463.32	189.58
463.50	245.76
463.68	163.84
463.86	156.82
464.05	210.65
464.23	271.50
464.41	173.20
464.59	170.86
464.78	182.56
464.96	182.56
465.14	212.99
465.32	166.18
465.50	210.65
465.69	236.39
465.87	119.37
466.05	287.89
466.23	191.92
466.41	184.90
466.60	250.44
466.78	241.08
466.96	201.29
467.14	229.37
467.32	170.86
467.51	177.88
467.69	177.88
467.87	248.10
468.05	196.60
468.23	224.69
468.41	212.99
468.60	168.52
468.78	126.39
468.96	198.95
469.14	191.92
469.32	156.82
469.50	205.97
469.69	227.03
469.87	184.90
470.05	180.22
470.23	142.77
470.41	189.58
470.59	205.97
470.77	245.76
470.95	210.65
471.14	215.33
471.32	135.75
471.50	201.29
471.68	163.84
471.86	234.05
472.04	159.16
472.22	180.22
472.40	133.41
472.58	126.39
472.77	121.71
472.95	210.65
473.13	201.29
473.31	236.39
473.49	175.54
473.67	184.90
473.85	243.42
474.03	182.56
474.21	175.54
474.39	168.52
474.57	227.03
474.75	187.24
474.93	264.48
475.12	159.16
475.30	189.58
475.48	212.99
475.66	191.92
475.84	236.39
476.02	159.16
476.20	210.65
476.38	173.20
476.56	208.31
476.74	264.48
476.92	191.92
477.10	257.46
477.28	278.52
477.46	252.78
477.64	297.25
477.82	180.22
478.00	191.92
478.18	248.10
478.36	229.37
478.54	215.33
478.72	212.99
478.90	212.99
479.08	205.97
479.26	152.13
479.44	182.56
479.62	203.63
479.80	212.99
479.98	177.88
480.16	189.58
480.34	196.60
480.52	208.31
480.70	250.44
480.88	142.77
481.06	168.52
481.24	196.60
481.41	212.99
481.59	229.37
481.77	196.60
481.95	203.63
482.13	205.97
482.31	215.33
482.49	138.09
482.67	255.12
482.85	229.37
483.03	227.03
483.21	292.57
483.39	191.92
483.57	163.84
483.74	276.18
483.92	238.73
484.10	133.41
484.28	187.24
484.46	224.69
484.64	257.46
484.82	184.90
485.00	217.67
485.18	210.65
485.35	269.16
485.53	243.42
485.71	327.68
485.89	290.23
486.07	212.99
486.25	259.80
486.43	287.89
486.61	229.37
486.78	196.60
486.96	152.13
487.14	294.91
487.32	194.26
487.50	205.97
487.68	269.16
487.85	198.95
488.03	264.48
488.21	205.97
488.39	269.16
488.57	154.48
488.75	217.67
488.92	454.06
489.10	325.33
489.28	313.63
489.46	210.65
489.64	250.44
489.81	131.07
489.99	229.37
490.17	217.67
490.35	283.20
490.53	217.67
490.70	231.71
490.88	238.73
491.06	220.01
491.24	182.56
491.41	276.18
491.59	299.59
491.77	142.77
491.95	271.50
492.13	229.37
492.30	184.90
492.48	248.10
492.66	245.76
492.84	250.44
493.01	220.01
493.19	262.14
493.37	308.95
493.54	217.67
493.72	271.50
493.90	198.95
494.08	196.60
494.25	327.68
494.43	292.57
494.61	234.05
494.79	210.65
494.96	217.67
495.14	161.50
495.32	273.84
495.49	271.50
495.67	243.42
495.85	280.86
496.02	236.39
496.20	266.82
496.38	208.31
496.55	264.48
496.73	248.10
496.91	297.25
497.09	278.52
497.26	248.10
497.44	191.92
497.62	234.05
497.79	184.90
497.97	259.80
498.14	262.14
498.32	224.69
498.50	241.08
498.67	194.26
498.85	299.59
499.03	297.25
499.20	283.20
499.38	266.82
499.56	250.44
499.73	299.59
499.91	245.76
500.08	229.37
500.26	269.16
500.44	177.88
500.61	212.99
500.79	255.12
500.97	257.46
501.14	255.12
501.32	238.73
501.49	271.50
501.67	217.67
501.84	311.29
502.02	301.93
502.20	327.68
502.37	170.86
502.55	163.84
502.72	229.37
502.90	273.84
503.07	266.82
503.25	196.60
503.43	276.18
503.60	201.29
503.78	217.67
503.95	276.18
504.13	215.33
504.30	280.86
504.48	311.29
504.65	287.89
504.83	262.14
505.01	173.20
505.18	259.80
505.36	327.68
505.53	182.56
505.71	294.91
505.88	266.82
506.06	250.44
506.23	191.92
506.41	276.18
506.58	280.86
506.76	189.58
506.93	227.03
507.11	283.20
507.28	250.44
507.46	203.63
507.63	264.48
507.81	222.35
507.98	290.23
508.16	238.73
508.33	229.37
508.50	243.42
508.68	280.86
508.85	297.25
509.03	194.26
509.20	217.67
509.38	245.76
509.55	238.73
509.73	262.14
509.90	280.86
510.08	229.37
510.25	257.46
510.42	222.35
510.60	318.31
510.77	304.27
510.95	271.50
511.12	194.26
511.30	287.89
511.47	299.59
511.64	304.27
511.82	257.46
511.99	280.86
512.17	332.36
512.34	245.76
512.51	308.95
512.69	332.36
512.86	299.59
513.04	229.37
513.21	205.97
513.38	243.42
513.56	191.92
513.73	222.35
513.90	283.20
514.08	301.93
514.25	306.61
514.43	236.39
514.60	301.93
514.77	276.18
514.95	299.59
515.12	201.29
515.29	299.59
515.47	313.63
515.64	236.39
515.81	264.48
515.99	308.95
516.16	271.50
516.33	318.31
516.51	217.67
516.68	201.29
516.85	208.31
517.03	259.80
517.20	203.63
517.37	210.65
517.54	283.20
517.72	250.44
517.89	264.48
518.06	234.05
518.24	276.18
518.41	266.82
518.58	290.23
518.75	224.69
518.93	229.37
519.10	285.55
519.27	245.76
519.45	292.57
519.62	189.58
519.79	273.84
519.96	252.78
520.14	276.18
520.31	355.76
520.48	187.24
520.65	234.05
520.83	299.59
521.00	201.29
521.17	259.80
521.34	205.97
521.52	245.76
521.69	327.68
521.86	269.16
522.03	255.12
522.20	266.82
522.38	280.86
522.55	250.44
522.72	306.61
522.89	311.29
523.07	248.10
523.24	217.67
523.41	283.20
523.58	231.71
523.75	217.67
523.92	229.37
524.10	327.68
524.27	283.20
524.44	229.37
524.61	285.55
524.78	234.05
524.96	220.01
525.13	212.99
525.30	287.89
525.47	287.89
525.64	229.37
525.81	311.29
525.98	227.03
526.16	243.42
526.33	217.67
526.50	220.01
526.67	194.26
526.84	234.05
527.01	229.37
527.18	306.61
527.36	308.95
527.53	299.59
527.70	320.65
527.87	304.27
528.04	334.70
528.21	299.59
528.38	259.80
528.55	306.61
528.72	245.76
528.89	304.27
529.07	224.69
529.24	337.04
529.41	287.89
529.58	290.23
529.75	304.27
529.92	250.44
530.09	297.25
530.26	273.84
530.43	292.57
530.60	241.08
530.77	280.86
530.94	294.91
531.11	243.42
531.28	238.73
531.46	217.67
531.63	243.42
531.80	334.70
531.97	301.93
532.14	227.03
532.31	252.78
532.48	262.14
532.65	353.42
532.82	442.36
532.99	369.80
533.16	301.93
533.33	325.33
533.50	383.85
533.67	402.57
533.84	374.49
534.01	465.77
534.18	344.06
534.35	311.29
534.52	346.40
534.69	376.83
534.86	264.48
535.03	315.97
535.20	257.46
535.37	348.74
535.54	332.36
535.71	250.44
535.88	344.06
536.05	266.82
536.22	306.61
536.38	227.03
536.55	234.05
536.72	332.36
536.89	208.31
537.06	294.91
537.23	339.38
537.40	318.31
537.57	313.63
537.74	374.49
537.91	297.25
538.08	334.70
538.25	327.68
538.42	248.10
538.59	304.27
538.75	334.70
538.92	308.95
539.09	411.93
539.26	416.62
539.43	472.79
539.60	952.60
539.77	1252.19
539.94	1217.08
540.11	854.30
540.28	645.99
540.44	528.96
540.61	442.36
540.78	332.36
540.95	425.98
541.12	557.05
541.29	404.91
541.46	582.79
541.62	514.92
541.79	463.43
541.96	442.36
542.13	517.26
542.30	470.45
542.47	482.15
542.63	454.06
542.80	461.09
542.97	418.96
543.14	486.83
543.31	498.53
543.48	470.45
543.64	519.60
543.81	484.49
543.98	346.40
544.15	496.19
544.32	510.24
544.48	425.98
544.65	402.57
544.82	400.23
544.99	503.22
545.16	496.19
545.32	517.26
545.49	608.54
545.66	725.57
545.83	805.14
546.00	734.93
546.16	631.94
546.33	512.58
546.50	442.36
546.67	465.77
546.83	390.87
547.00	442.36
547.17	318.31
547.34	388.53
547.50	390.87
547.67	346.40
547.84	283.20
548.00	379.17
548.17	381.51
548.34	383.85
548.51	374.49
548.67	447.04
548.84	290.23
549.01	360.44
549.18	353.42
549.34	355.76
549.51	348.74
549.68	318.31
549.84	297.25
550.01	278.52
550.18	400.23
550.34	395.55
550.51	330.02
550.68	372.15
550.84	287.89
551.01	351.08
551.18	311.29
551.34	252.78
551.51	245.76
551.68	266.82
551.84	266.82
552.01	341.72
552.18	299.59
552.34	266.82
552.51	315.97
552.68	334.70
552.84	250.44
553.01	334.70
553.18	311.29
553.34	255.12
553.51	224.69
553.67	367.46
553.84	332.36
554.01	360.44
554.17	330.02
554.34	224.69
554.51	248.10
554.67	308.95
554.84	280.86
555.00	259.80
555.17	241.08
555.33	341.72
555.50	327.68
555.67	327.68
555.83	299.59
556.00	280.86
556.16	463.43
556.33	259.80
556.50	250.44
556.66	264.48
556.83	203.63
556.99	205.97
557.16	271.50
557.32	210.65
557.49	210.65
557.65	276.18
557.82	215.33
557.98	196.60
558.15	161.50
558.32	208.31
558.48	276.18
558.65	257.46
558.81	220.01
558.98	283.20
559.14	220.01
559.31	262.14
559.47	241.08
559.64	252.78
559.80	175.54
559.97	257.46
560.13	320.65
560.30	248.10
560.46	348.74
560.63	215.33
560.79	184.90
560.96	266.82
561.12	262.14
561.29	203.63
561.45	212.99
561.61	292.57
561.78	320.65
561.94	269.16
562.11	252.78
562.27	294.91
562.44	222.35
562.60	250.44
562.77	203.63
562.93	390.87
563.10	362.78
563.26	205.97
563.42	322.99
563.59	191.92
563.75	294.91
563.92	311.29
564.08	287.89
564.24	297.25
564.41	271.50
564.57	283.20
564.74	203.63
564.90	315.97
565.07	229.37
565.23	243.42
565.39	278.52
565.56	278.52
565.72	327.68
565.88	292.57
566.05	227.03
566.21	266.82
566.38	297.25
566.54	234.05
566.70	194.26
566.87	292.57
567.03	271.50
567.19	283.20
567.36	311.29
567.52	252.78
567.68	248.10
567.85	276.18
568.01	194.26
568.17	194.26
568.34	273.84
568.50	297.25
568.66	273.84
568.83	341.72
568.99	241.08
569.15	306.61
569.32	255.12
569.48	271.50
569.64	222.35
569.81	292.57
569.97	234.05
570.13	271.50
570.30	290.23
570.46	224.69
570.62	248.10
570.78	241.08
570.95	245.76
571.11	304.27
571.27	241.08
571.43	278.52
571.60	280.86
571.76	301.93
571.92	205.97
572.09	224.69
572.25	283.20
572.41	229.37
572.57	259.80
572.74	285.55
572.90	259.80
573.06	262.14
573.22	306.61
573.38	304.27
573.55	266.82
573.71	311.29
573.87	248.10
574.03	276.18
574.20	241.08
574.36	308.95
574.52	294.91
574.68	337.04
574.84	215.33
575.01	346.40
575.17	297.25
575.33	205.97
575.49	325.33
575.65	308.95
575.82	252.78
575.98	461.09
576.14	587.47
576.30	601.52
576.46	594.50
576.62	491.51
576.79	442.36
576.95	475.13
577.11	339.38
577.27	271.50
577.43	308.95
577.59	351.08
577.75	304.27
577.92	276.18
578.08	308.95
578.24	290.23
578.40	341.72
578.56	388.53
578.72	447.04
578.88	442.36
579.04	372.15
579.21	341.72
579.37	348.74
579.53	395.55
579.69	327.68
579.85	280.86
580.01	390.87
580.17	449.38
580.33	381.51
580.49	327.68
580.65	353.42
580.82	351.08
580.98	334.70
581.14	360.44
581.30	407.25
581.46	449.38
581.62	505.56
581.78	535.98
581.94	547.69
582.10	425.98
582.26	395.55
582.42	437.68
582.58	376.83
582.74	451.72
582.90	489.17
583.06	463.43
583.22	507.90
583.38	362.78
583.54	493.85
583.70	603.86
583.86	543.00
584.02	580.45
584.18	704.50
584.34	922.17
584.50	2408.41
584.66	16418.86
584.82	42543.92
584.98	54885.56
585.14	51189.86
585.30	33425.19
585.46	19763.48
585.62	12341.64
585.78	5785.80
585.94	2347.56
586.10	1277.93
586.26	887.06
586.42	671.73
586.58	631.94
586.74	498.53
586.90	589.82
587.06	650.67
587.22	568.75
587.38	540.66
587.54	922.17
587.70	2525.44
587.86	3990.61
588.02	4266.80
588.18	3138.66
588.34	2071.37
588.49	1427.73
588.65	880.04
588.81	631.94
588.97	379.17
589.13	337.04
589.29	341.72
589.45	358.10
589.61	381.51
589.77	512.58
589.93	400.23
590.08	411.93
590.24	390.87
590.40	395.55
590.56	404.91
590.72	344.06
590.88	346.40
591.04	421.30
591.20	355.76
591.35	447.04
591.51	283.20
591.67	337.04
591.83	355.76
591.99	308.95
592.15	299.59
592.31	304.27
592.46	411.93
592.62	315.97
592.78	369.80
592.94	346.40
593.10	386.19
593.26	374.49
593.41	353.42
593.57	397.89
593.73	547.69
593.89	2169.68
594.05	5270.89
594.20	7400.77
594.36	6937.35
594.52	4624.90
594.68	2890.56
594.84	1970.73
594.99	1167.93
595.15	575.77
595.31	409.59
595.47	386.19
595.62	266.82
595.78	276.18
595.94	341.72
596.10	397.89
596.25	348.74
596.41	369.80
596.57	327.68
596.73	327.68
596.88	507.90
597.04	1064.94
597.20	1736.68
597.36	1839.66
597.51	1401.98
597.67	1027.50
597.83	791.10
597.99	547.69
598.14	449.38
598.30	355.76
598.46	344.06
598.61	318.31
598.77	351.08
598.93	273.84
599.09	379.17
599.24	280.86
599.40	330.02
599.56	259.80
599.71	313.63
599.87	266.82
600.03	262.14
600.18	292.57
600.34	315.97
600.50	287.89
600.65	313.63
600.81	313.63
600.97	290.23
601.12	271.50
601.28	269.16
601.44	262.14
601.59	262.14
601.75	311.29
601.91	215.33
602.06	322.99
602.22	418.96
602.37	641.31
602.53	1303.68
602.69	1919.24
602.84	1853.70
603.00	1486.24
603.16	1093.03
603.31	816.85
603.47	582.79
603.62	411.93
603.78	271.50
603.94	287.89
604.09	435.34
604.25	362.78
604.40	308.95
604.56	285.55
604.71	341.72
604.87	266.82
605.03	278.52
605.18	238.73
605.34	330.02
605.49	315.97
605.65	318.31
605.80	252.78
605.96	386.19
606.12	327.68
606.27	388.53
606.43	376.83
606.58	339.38
606.74	692.80
606.89	2448.20
607.05	4770.01
607.20	6300.72
607.36	5203.01
607.51	3585.70
607.67	2438.84
607.82	1483.90
607.98	1036.86
608.13	645.99
608.29	456.40
608.44	386.19
608.60	433.00
608.75	500.87
608.91	947.92
609.06	3777.62
609.22	8112.30
609.37	10546.45
609.53	9390.23
609.68	6424.77
609.84	4283.18
609.99	2977.16
610.15	1746.04
