SpectraSuite Data File
++++++++++++++++++++++++++++++++++++
Date: Fri Oct 04 11:34:08 GMT-05:00 2013
User: price-jones
Dark Spectrum Present: No
Reference Spectrum Present: No
Number of Sampled Component Spectra: 1
Spectrometers: USB2+H05261
Integration Time (usec): 100000 (USB2+H05261)
Spectra Averaged: 1 (USB2+H05261)
Boxcar Smoothing: 0 (USB2+H05261)
Correct for Electrical Dark: No (USB2+H05261)
Strobe/Lamp Enabled: No (USB2+H05261)
Correct for Detector Non-linearity: No (USB2+H05261)
Correct for Stray Light: No (USB2+H05261)
Number of Pixels in Processed Spectrum: 2048
>>>>>Begin Processed Spectral Data<<<<<
365.73	51.49
365.92	51.49
366.12	51.49
366.32	39.79
366.52	0.00
366.72	0.00
366.91	14.04
367.11	0.00
367.31	0.00
367.51	9.36
367.70	0.00
367.90	46.81
368.10	0.00
368.30	0.00
368.49	0.00
368.69	0.00
368.89	0.00
369.09	0.00
369.28	0.00
369.48	11.70
369.68	0.00
369.87	37.45
370.07	16.38
370.27	28.09
370.47	105.32
370.66	60.85
370.86	117.03
371.06	135.75
371.25	114.69
371.45	105.32
371.65	152.13
371.84	77.24
372.04	105.32
372.24	147.45
372.44	138.09
372.63	98.30
372.83	161.50
373.03	131.07
373.22	91.28
373.42	65.54
373.62	154.48
373.81	67.88
374.01	102.98
374.21	156.82
374.40	189.58
374.60	173.20
374.79	203.63
374.99	168.52
375.19	196.60
375.38	138.09
375.58	152.13
375.78	184.90
375.97	180.22
376.17	203.63
376.37	189.58
376.56	121.71
376.76	105.32
376.95	194.26
377.15	194.26
377.35	161.50
377.54	156.82
377.74	91.28
377.93	170.86
378.13	175.54
378.33	147.45
378.52	131.07
378.72	147.45
378.91	102.98
379.11	124.05
379.31	149.79
379.50	170.86
379.70	105.32
379.89	184.90
380.09	138.09
380.28	105.32
380.48	100.64
380.68	210.65
380.87	159.16
381.07	126.39
381.26	110.01
381.46	184.90
381.65	112.35
381.85	98.30
382.04	133.41
382.24	161.50
382.43	203.63
382.63	168.52
382.83	203.63
383.02	175.54
383.22	145.11
383.41	107.66
383.61	88.94
383.80	128.73
384.00	126.39
384.19	102.98
384.39	98.30
384.58	196.60
384.78	201.29
384.97	152.13
385.17	145.11
385.36	121.71
385.56	140.43
385.75	107.66
385.95	149.79
386.14	156.82
386.34	191.92
386.53	152.13
386.72	93.62
386.92	126.39
387.11	142.77
387.31	201.29
387.50	154.48
387.70	112.35
387.89	196.60
388.09	173.20
388.28	88.94
388.48	191.92
388.67	135.75
388.86	140.43
389.06	98.30
389.25	191.92
389.45	84.26
389.64	133.41
389.84	95.96
390.03	182.56
390.22	79.58
390.42	102.98
390.61	133.41
390.81	227.03
391.00	166.18
391.19	173.20
391.39	205.97
391.58	170.86
391.78	159.16
391.97	180.22
392.16	156.82
392.36	163.84
392.55	224.69
392.75	114.69
392.94	86.60
393.13	152.13
393.33	86.60
393.52	110.01
393.71	126.39
393.91	135.75
394.10	84.26
394.29	128.73
394.49	147.45
394.68	173.20
394.88	175.54
395.07	159.16
395.26	81.92
395.46	65.54
395.65	156.82
395.84	184.90
396.04	203.63
396.23	152.13
396.42	117.03
396.62	128.73
396.81	154.48
397.00	102.98
397.19	154.48
397.39	110.01
397.58	91.28
397.77	112.35
397.97	170.86
398.16	126.39
398.35	220.01
398.55	56.17
398.74	117.03
398.93	135.75
399.12	18.72
399.32	196.60
399.51	121.71
399.70	145.11
399.90	191.92
400.09	140.43
400.28	91.28
400.47	161.50
400.67	187.24
400.86	79.58
401.05	159.16
401.24	142.77
401.44	231.71
401.63	58.51
401.82	194.26
402.01	142.77
402.21	138.09
402.40	191.92
402.59	217.67
402.78	107.66
402.97	220.01
403.17	208.31
403.36	138.09
403.55	147.45
403.74	147.45
403.93	140.43
404.13	166.18
404.32	149.79
404.51	198.95
404.70	175.54
404.89	140.43
405.09	220.01
405.28	102.98
405.47	187.24
405.66	196.60
405.85	189.58
406.05	131.07
406.24	145.11
406.43	117.03
406.62	205.97
406.81	163.84
407.00	222.35
407.20	145.11
407.39	156.82
407.58	121.71
407.77	224.69
407.96	278.52
408.15	177.88
408.34	145.11
408.54	159.16
408.73	168.52
408.92	236.39
409.11	105.32
409.30	102.98
409.49	147.45
409.68	131.07
409.87	138.09
410.07	159.16
410.26	149.79
410.45	173.20
410.64	88.94
410.83	166.18
411.02	112.35
411.21	133.41
411.40	163.84
411.59	88.94
411.78	184.90
411.98	180.22
412.17	124.05
412.36	140.43
412.55	110.01
412.74	161.50
412.93	154.48
413.12	159.16
413.31	212.99
413.50	156.82
413.69	184.90
413.88	201.29
414.07	135.75
414.26	170.86
414.45	187.24
414.64	149.79
414.83	105.32
415.02	156.82
415.22	212.99
415.41	227.03
415.60	154.48
415.79	135.75
415.98	135.75
416.17	126.39
416.36	163.84
416.55	126.39
416.74	168.52
416.93	159.16
417.12	194.26
417.31	166.18
417.50	166.18
417.69	210.65
417.88	173.20
418.07	152.13
418.26	152.13
418.45	166.18
418.64	217.67
418.83	231.71
419.02	217.67
419.21	182.56
419.39	98.30
419.58	145.11
419.77	182.56
419.96	191.92
420.15	168.52
420.34	138.09
420.53	166.18
420.72	166.18
420.91	140.43
421.10	156.82
421.29	191.92
421.48	175.54
421.67	217.67
421.86	74.90
422.05	180.22
422.24	140.43
422.43	182.56
422.61	84.26
422.80	173.20
422.99	170.86
423.18	149.79
423.37	217.67
423.56	194.26
423.75	196.60
423.94	159.16
424.13	154.48
424.32	194.26
424.50	145.11
424.69	124.05
424.88	110.01
425.07	86.60
425.26	154.48
425.45	166.18
425.64	187.24
425.83	142.77
426.01	182.56
426.20	170.86
426.39	173.20
426.58	110.01
426.77	133.41
426.96	117.03
427.15	124.05
427.33	142.77
427.52	177.88
427.71	63.19
427.90	201.29
428.09	95.96
428.28	168.52
428.46	166.18
428.65	149.79
428.84	124.05
429.03	234.05
429.22	74.90
429.40	168.52
429.59	128.73
429.78	271.50
429.97	201.29
430.16	149.79
430.34	112.35
430.53	145.11
430.72	149.79
430.91	191.92
431.10	133.41
431.28	112.35
431.47	126.39
431.66	189.58
431.85	231.71
432.03	222.35
432.22	173.20
432.41	177.88
432.60	238.73
432.79	182.56
432.97	238.73
433.16	175.54
433.35	131.07
433.54	168.52
433.72	138.09
433.91	166.18
434.10	234.05
434.28	177.88
434.47	140.43
434.66	182.56
434.85	163.84
435.03	262.14
435.22	271.50
435.41	276.18
435.59	278.52
435.78	269.16
435.97	259.80
436.16	201.29
436.34	201.29
436.53	205.97
436.72	170.86
436.90	229.37
437.09	222.35
437.28	187.24
437.46	266.82
437.65	255.12
437.84	194.26
438.02	105.32
438.21	184.90
438.40	63.19
438.58	227.03
438.77	147.45
438.96	187.24
439.14	177.88
439.33	243.42
439.52	156.82
439.70	227.03
439.89	175.54
440.08	152.13
440.26	133.41
440.45	135.75
440.63	229.37
440.82	177.88
441.01	229.37
441.19	149.79
441.38	135.75
441.57	194.26
441.75	236.39
441.94	264.48
442.12	180.22
442.31	180.22
442.50	149.79
442.68	180.22
442.87	105.32
443.05	208.31
443.24	175.54
443.43	227.03
443.61	273.84
443.80	177.88
443.98	203.63
444.17	88.94
444.35	126.39
444.54	198.95
444.73	175.54
444.91	177.88
445.10	154.48
445.28	180.22
445.47	196.60
445.65	159.16
445.84	194.26
446.02	203.63
446.21	159.16
446.39	255.12
446.58	161.50
446.77	138.09
446.95	212.99
447.14	196.60
447.32	152.13
447.51	245.76
447.69	201.29
447.88	208.31
448.06	187.24
448.25	208.31
448.43	194.26
448.62	194.26
448.80	168.52
448.99	156.82
449.17	154.48
449.36	177.88
449.54	184.90
449.73	196.60
449.91	210.65
450.10	201.29
450.28	278.52
450.46	191.92
450.65	215.33
450.83	156.82
451.02	196.60
451.20	168.52
451.39	222.35
451.57	238.73
451.76	210.65
451.94	243.42
452.13	128.73
452.31	208.31
452.49	168.52
452.68	205.97
452.86	229.37
453.05	259.80
453.23	140.43
453.42	147.45
453.60	142.77
453.78	163.84
453.97	135.75
454.15	243.42
454.34	203.63
454.52	128.73
454.70	231.71
454.89	210.65
455.07	135.75
455.26	180.22
455.44	177.88
455.62	224.69
455.81	163.84
455.99	252.78
456.17	276.18
456.36	222.35
456.54	212.99
456.73	154.48
456.91	119.37
457.09	201.29
457.28	252.78
457.46	227.03
457.64	180.22
457.83	163.84
458.01	189.58
458.19	170.86
458.38	154.48
458.56	224.69
458.74	229.37
458.93	215.33
459.11	187.24
459.29	201.29
459.48	138.09
459.66	98.30
459.84	217.67
460.03	224.69
460.21	173.20
460.39	241.08
460.57	220.01
460.76	198.95
460.94	243.42
461.12	313.63
461.31	259.80
461.49	215.33
461.67	177.88
461.85	283.20
462.04	147.45
462.22	653.01
462.40	238.73
462.59	201.29
462.77	212.99
462.95	191.92
463.13	180.22
463.32	231.71
463.50	102.98
463.68	149.79
463.86	196.60
464.05	187.24
464.23	168.52
464.41	217.67
464.59	212.99
464.78	301.93
464.96	161.50
465.14	184.90
465.32	161.50
465.50	205.97
465.69	168.52
465.87	156.82
466.05	222.35
466.23	100.64
466.41	175.54
466.60	119.37
466.78	220.01
466.96	257.46
467.14	205.97
467.32	224.69
467.51	126.39
467.69	231.71
467.87	264.48
468.05	234.05
468.23	280.86
468.41	189.58
468.60	168.52
468.78	203.63
468.96	241.08
469.14	208.31
469.32	138.09
469.50	149.79
469.69	215.33
469.87	166.18
470.05	173.20
470.23	159.16
470.41	191.92
470.59	189.58
470.77	255.12
470.95	222.35
471.14	210.65
471.32	182.56
471.50	194.26
471.68	248.10
471.86	241.08
472.04	170.86
472.22	236.39
472.40	220.01
472.58	203.63
472.77	124.05
472.95	182.56
473.13	222.35
473.31	220.01
473.49	208.31
473.67	215.33
473.85	243.42
474.03	168.52
474.21	212.99
474.39	245.76
474.57	252.78
474.75	180.22
474.93	170.86
475.12	156.82
475.30	180.22
475.48	212.99
475.66	194.26
475.84	154.48
476.02	170.86
476.20	194.26
476.38	215.33
476.56	229.37
476.74	187.24
476.92	220.01
477.10	140.43
477.28	177.88
477.46	217.67
477.64	212.99
477.82	149.79
478.00	220.01
478.18	241.08
478.36	154.48
478.54	229.37
478.72	159.16
478.90	210.65
479.08	236.39
479.26	203.63
479.44	304.27
479.62	166.18
479.80	163.84
479.98	142.77
480.16	182.56
480.34	241.08
480.52	175.54
480.70	196.60
480.88	177.88
481.06	215.33
481.24	238.73
481.41	262.14
481.59	184.90
481.77	257.46
481.95	243.42
482.13	217.67
482.31	210.65
482.49	248.10
482.67	147.45
482.85	184.90
483.03	234.05
483.21	236.39
483.39	241.08
483.57	227.03
483.74	184.90
483.92	182.56
484.10	196.60
484.28	212.99
484.46	273.84
484.64	238.73
484.82	201.29
485.00	238.73
485.18	175.54
485.35	173.20
485.53	217.67
485.71	220.01
485.89	163.84
486.07	234.05
486.25	322.99
486.43	271.50
486.61	255.12
486.78	203.63
486.96	196.60
487.14	236.39
487.32	184.90
487.50	180.22
487.68	203.63
487.85	217.67
488.03	269.16
488.21	311.29
488.39	208.31
488.57	234.05
488.75	147.45
488.92	507.90
489.10	292.57
489.28	332.36
489.46	264.48
489.64	264.48
489.81	238.73
489.99	252.78
490.17	264.48
490.35	220.01
490.53	245.76
490.70	217.67
490.88	280.86
491.06	280.86
491.24	212.99
491.41	290.23
491.59	280.86
491.77	290.23
491.95	238.73
492.13	220.01
492.30	285.55
492.48	191.92
492.66	266.82
492.84	220.01
493.01	234.05
493.19	224.69
493.37	196.60
493.54	208.31
493.72	187.24
493.90	234.05
494.08	182.56
494.25	241.08
494.43	271.50
494.61	245.76
494.79	241.08
494.96	248.10
495.14	318.31
495.32	259.80
495.49	243.42
495.67	191.92
495.85	297.25
496.02	250.44
496.20	250.44
496.38	271.50
496.55	243.42
496.73	315.97
496.91	257.46
497.09	262.14
497.26	231.71
497.44	269.16
497.62	278.52
497.79	266.82
497.97	245.76
498.14	264.48
498.32	238.73
498.50	262.14
498.67	262.14
498.85	217.67
499.03	297.25
499.20	250.44
499.38	276.18
499.56	285.55
499.73	327.68
499.91	294.91
500.08	290.23
500.26	252.78
500.44	175.54
500.61	220.01
500.79	182.56
500.97	348.74
501.14	205.97
501.32	243.42
501.49	266.82
501.67	269.16
501.84	210.65
502.02	208.31
502.20	273.84
502.37	238.73
502.55	290.23
502.72	276.18
502.90	231.71
503.07	372.15
503.25	264.48
503.43	278.52
503.60	238.73
503.78	227.03
503.95	194.26
504.13	280.86
504.30	217.67
504.48	212.99
504.65	215.33
504.83	292.57
505.01	248.10
505.18	262.14
505.36	229.37
505.53	220.01
505.71	234.05
505.88	250.44
506.06	241.08
506.23	243.42
506.41	257.46
506.58	292.57
506.76	194.26
506.93	238.73
507.11	236.39
507.28	287.89
507.46	182.56
507.63	264.48
507.81	241.08
507.98	227.03
508.16	248.10
508.33	212.99
508.50	245.76
508.68	166.18
508.85	264.48
509.03	262.14
509.20	227.03
509.38	231.71
509.55	250.44
509.73	280.86
509.90	290.23
510.08	259.80
510.25	238.73
510.42	208.31
510.60	248.10
510.77	250.44
510.95	358.10
511.12	227.03
511.30	301.93
511.47	273.84
511.64	271.50
511.82	152.13
511.99	308.95
512.17	245.76
512.34	248.10
512.51	191.92
512.69	212.99
512.86	294.91
513.04	220.01
513.21	215.33
513.38	177.88
513.56	236.39
513.73	241.08
513.90	210.65
514.08	285.55
514.25	194.26
514.43	287.89
514.60	234.05
514.77	245.76
514.95	217.67
515.12	276.18
515.29	252.78
515.47	205.97
515.64	220.01
515.81	283.20
515.99	341.72
516.16	299.59
516.33	348.74
516.51	271.50
516.68	208.31
516.85	222.35
517.03	205.97
517.20	255.12
517.37	271.50
517.54	257.46
517.72	297.25
517.89	236.39
518.06	217.67
518.24	337.04
518.41	252.78
518.58	180.22
518.75	271.50
518.93	198.95
519.10	266.82
519.27	215.33
519.45	262.14
519.62	229.37
519.79	243.42
519.96	217.67
520.14	241.08
520.31	252.78
520.48	299.59
520.65	238.73
520.83	245.76
521.00	222.35
521.17	229.37
521.34	255.12
521.52	311.29
521.69	231.71
521.86	222.35
522.03	234.05
522.20	318.31
522.38	248.10
522.55	276.18
522.72	229.37
522.89	220.01
523.07	287.89
523.24	248.10
523.41	243.42
523.58	243.42
523.75	250.44
523.92	222.35
524.10	276.18
524.27	285.55
524.44	229.37
524.61	292.57
524.78	227.03
524.96	301.93
525.13	297.25
525.30	292.57
525.47	294.91
525.64	198.95
525.81	250.44
525.98	262.14
526.16	259.80
526.33	168.52
526.50	290.23
526.67	257.46
526.84	224.69
527.01	231.71
527.18	273.84
527.36	259.80
527.53	252.78
527.70	280.86
527.87	229.37
528.04	322.99
528.21	248.10
528.38	238.73
528.55	248.10
528.72	271.50
528.89	322.99
529.07	262.14
529.24	234.05
529.41	283.20
529.58	304.27
529.75	241.08
529.92	220.01
530.09	255.12
530.26	187.24
530.43	227.03
530.60	334.70
530.77	203.63
530.94	255.12
531.11	304.27
531.28	259.80
531.46	264.48
531.63	245.76
531.80	259.80
531.97	241.08
532.14	297.25
532.31	217.67
532.48	259.80
532.65	236.39
532.82	238.73
532.99	210.65
533.16	292.57
533.33	290.23
533.50	306.61
533.67	236.39
533.84	322.99
534.01	222.35
534.18	292.57
534.35	248.10
534.52	238.73
534.69	358.10
534.86	285.55
535.03	217.67
535.20	325.33
535.37	376.83
535.54	215.33
535.71	236.39
535.88	411.93
536.05	351.08
536.22	231.71
536.38	252.78
536.55	215.33
536.72	322.99
536.89	294.91
537.06	301.93
537.23	311.29
537.40	299.59
537.57	315.97
537.74	325.33
537.91	318.31
538.08	224.69
538.25	276.18
538.42	344.06
538.59	311.29
538.75	222.35
538.92	283.20
539.09	271.50
539.26	243.42
539.43	304.27
539.60	360.44
539.77	411.93
539.94	388.53
540.11	421.30
540.28	292.57
540.44	421.30
540.61	428.32
540.78	400.23
540.95	395.55
541.12	449.38
541.29	451.72
541.46	470.45
541.62	493.85
541.79	468.11
541.96	369.80
542.13	411.93
542.30	367.46
542.47	444.70
542.63	444.70
542.80	472.79
542.97	451.72
543.14	404.91
543.31	489.17
543.48	379.17
543.64	440.02
543.81	407.25
543.98	404.91
544.15	369.80
544.32	447.04
544.48	400.23
544.65	397.89
544.82	484.49
544.99	437.68
545.16	507.90
545.32	433.00
545.49	706.84
545.66	828.55
545.83	802.80
546.00	713.86
546.16	627.26
546.33	430.66
546.50	386.19
546.67	411.93
546.83	414.27
547.00	355.76
547.17	320.65
547.34	348.74
547.50	339.38
547.67	337.04
547.84	374.49
548.00	341.72
548.17	325.33
548.34	348.74
548.51	383.85
548.67	306.61
548.84	351.08
549.01	337.04
549.18	231.71
549.34	353.42
549.51	280.86
549.68	351.08
549.84	369.80
550.01	273.84
550.18	390.87
550.34	337.04
550.51	318.31
550.68	376.83
550.84	353.42
551.01	346.40
551.18	311.29
551.34	306.61
551.51	264.48
551.68	297.25
551.84	320.65
552.01	259.80
552.18	339.38
552.34	269.16
552.51	278.52
552.68	287.89
552.84	280.86
553.01	236.39
553.18	264.48
553.34	269.16
553.51	283.20
553.67	245.76
553.84	376.83
554.01	294.91
554.17	297.25
554.34	229.37
554.51	278.52
554.67	330.02
554.84	264.48
555.00	315.97
555.17	304.27
555.33	322.99
555.50	285.55
555.67	278.52
555.83	222.35
556.00	280.86
556.16	411.93
556.33	280.86
556.50	276.18
556.66	255.12
556.83	180.22
556.99	283.20
557.16	337.04
557.32	271.50
557.49	278.52
557.65	229.37
557.82	271.50
557.98	299.59
558.15	224.69
558.32	301.93
558.48	234.05
558.65	257.46
558.81	248.10
558.98	224.69
559.14	337.04
559.31	234.05
559.47	351.08
559.64	248.10
559.80	304.27
559.97	203.63
560.13	325.33
560.30	252.78
560.46	163.84
560.63	250.44
560.79	262.14
560.96	220.01
561.12	173.20
561.29	269.16
561.45	257.46
561.61	224.69
561.78	393.21
561.94	255.12
562.11	212.99
562.27	304.27
562.44	229.37
562.60	241.08
562.77	266.82
562.93	271.50
563.10	313.63
563.26	262.14
563.42	280.86
563.59	285.55
563.75	227.03
563.92	262.14
564.08	217.67
564.24	241.08
564.41	252.78
564.57	271.50
564.74	196.60
564.90	294.91
565.07	238.73
565.23	273.84
565.39	238.73
565.56	308.95
565.72	238.73
565.88	252.78
566.05	285.55
566.21	252.78
566.38	304.27
566.54	273.84
566.70	262.14
566.87	262.14
567.03	191.92
567.19	217.67
567.36	252.78
567.52	271.50
567.68	264.48
567.85	222.35
568.01	224.69
568.17	177.88
568.34	180.22
568.50	287.89
568.66	236.39
568.83	308.95
568.99	231.71
569.15	266.82
569.32	266.82
569.48	243.42
569.64	234.05
569.81	252.78
569.97	215.33
570.13	243.42
570.30	173.20
570.46	238.73
570.62	161.50
570.78	182.56
570.95	205.97
571.11	306.61
571.27	297.25
571.43	222.35
571.60	243.42
571.76	262.14
571.92	365.12
572.09	222.35
572.25	227.03
572.41	273.84
572.57	222.35
572.74	252.78
572.90	203.63
573.06	294.91
573.22	278.52
573.38	241.08
573.55	229.37
573.71	210.65
573.87	294.91
574.03	177.88
574.20	287.89
574.36	264.48
574.52	220.01
574.68	266.82
574.84	257.46
575.01	257.46
575.17	229.37
575.33	255.12
575.49	224.69
575.65	257.46
575.82	287.89
575.98	344.06
576.14	285.55
576.30	325.33
576.46	358.10
576.62	376.83
576.79	409.59
576.95	262.14
577.11	304.27
577.27	243.42
577.43	278.52
577.59	294.91
577.75	259.80
577.92	299.59
578.08	175.54
578.24	227.03
578.40	337.04
578.56	301.93
578.72	402.57
578.88	292.57
579.04	292.57
579.21	325.33
579.37	318.31
579.53	250.44
579.69	311.29
579.85	262.14
580.01	231.71
580.17	257.46
580.33	255.12
580.49	264.48
580.65	290.23
580.82	325.33
580.98	322.99
581.14	294.91
581.30	299.59
581.46	304.27
581.62	318.31
581.78	292.57
581.94	278.52
582.10	287.89
582.26	259.80
582.42	332.36
582.58	311.29
582.74	236.39
582.90	257.46
583.06	245.76
583.22	273.84
583.38	191.92
583.54	294.91
583.70	334.70
583.86	212.99
584.02	294.91
584.18	353.42
584.34	369.80
584.50	358.10
584.66	896.43
584.82	1844.34
584.98	2925.67
585.14	2600.34
585.30	1776.47
585.46	1149.20
585.62	840.25
585.78	521.94
585.94	397.89
586.10	255.12
586.26	315.97
586.42	353.42
586.58	315.97
586.74	325.33
586.90	353.42
587.06	400.23
587.22	315.97
587.38	374.49
587.54	322.99
587.70	458.74
587.86	491.51
588.02	397.89
588.18	409.59
588.34	327.68
588.49	322.99
588.65	231.71
588.81	250.44
588.97	217.67
589.13	313.63
589.29	208.31
589.45	311.29
589.61	266.82
589.77	292.57
589.93	257.46
590.08	212.99
590.24	243.42
590.40	278.52
590.56	245.76
590.72	285.55
590.88	280.86
591.04	269.16
591.20	308.95
591.35	238.73
591.51	257.46
591.67	198.95
591.83	315.97
591.99	369.80
592.15	250.44
592.31	294.91
592.46	252.78
592.62	301.93
592.78	334.70
592.94	266.82
593.10	313.63
593.26	285.55
593.41	337.04
593.57	271.50
593.73	257.46
593.89	304.27
594.05	496.19
594.20	557.05
594.36	631.94
594.52	540.66
594.68	402.57
594.84	374.49
594.99	341.72
595.15	231.71
595.31	259.80
595.47	271.50
595.62	255.12
595.78	208.31
595.94	227.03
596.10	299.59
596.25	306.61
596.41	318.31
596.57	196.60
596.73	262.14
596.88	271.50
597.04	304.27
597.20	259.80
597.36	327.68
597.51	299.59
597.67	215.33
597.83	259.80
597.99	318.31
598.14	308.95
598.30	245.76
598.46	227.03
598.61	271.50
598.77	236.39
598.93	203.63
599.09	257.46
599.24	245.76
599.40	294.91
599.56	231.71
599.71	198.95
599.87	304.27
600.03	262.14
600.18	191.92
600.34	325.33
600.50	248.10
600.65	280.86
600.81	198.95
600.97	243.42
601.12	234.05
601.28	231.71
601.44	299.59
601.59	220.01
601.75	334.70
601.91	163.84
602.06	276.18
602.22	276.18
602.37	273.84
602.53	241.08
602.69	294.91
602.84	367.46
603.00	374.49
603.16	344.06
603.31	315.97
603.47	332.36
603.62	198.95
603.78	257.46
603.94	224.69
604.09	278.52
604.25	262.14
604.40	315.97
604.56	285.55
604.71	283.20
604.87	290.23
605.03	229.37
605.18	273.84
605.34	269.16
605.49	189.58
605.65	278.52
605.80	220.01
605.96	283.20
606.12	318.31
606.27	269.16
606.43	294.91
606.58	177.88
606.74	201.29
606.89	353.42
607.05	503.22
607.20	580.45
607.36	489.17
607.51	437.68
607.67	327.68
607.82	297.25
607.98	365.12
608.13	278.52
608.29	264.48
608.44	280.86
608.60	318.31
608.75	266.82
608.91	379.17
609.06	463.43
609.22	718.54
609.37	697.48
609.53	730.25
609.68	671.73
609.84	461.09
609.99	538.32
610.15	489.17
610.30	465.77
610.46	526.62
610.61	582.79
610.76	695.14
610.92	807.48
