SpectraSuite Data File
++++++++++++++++++++++++++++++++++++
Date: Fri Oct 04 11:33:58 GMT-05:00 2013
User: price-jones
Dark Spectrum Present: No
Reference Spectrum Present: No
Number of Sampled Component Spectra: 1
Spectrometers: USB2+H05261
Integration Time (usec): 100000 (USB2+H05261)
Spectra Averaged: 1 (USB2+H05261)
Boxcar Smoothing: 0 (USB2+H05261)
Correct for Electrical Dark: No (USB2+H05261)
Strobe/Lamp Enabled: No (USB2+H05261)
Correct for Detector Non-linearity: No (USB2+H05261)
Correct for Stray Light: No (USB2+H05261)
Number of Pixels in Processed Spectrum: 2048
>>>>>Begin Processed Spectral Data<<<<<
365.73	21.06
365.92	21.06
366.12	21.06
366.32	16.38
366.52	0.00
366.72	0.00
366.91	0.00
367.11	0.00
367.31	0.00
367.51	0.00
367.70	0.00
367.90	0.00
368.10	0.00
368.30	0.00
368.49	0.00
368.69	0.00
368.89	0.00
369.09	0.00
369.28	0.00
369.48	0.00
369.68	0.00
369.87	0.00
370.07	2.34
370.27	56.17
370.47	112.35
370.66	0.00
370.86	51.49
371.06	74.90
371.25	166.18
371.45	91.28
371.65	105.32
371.84	46.81
372.04	145.11
372.24	159.16
372.44	114.69
372.63	198.95
372.83	154.48
373.03	203.63
373.22	110.01
373.42	93.62
373.62	194.26
373.81	191.92
374.01	135.75
374.21	105.32
374.40	147.45
374.60	196.60
374.79	163.84
374.99	175.54
375.19	110.01
375.38	117.03
375.58	180.22
375.78	154.48
375.97	168.52
376.17	182.56
376.37	135.75
376.56	159.16
376.76	184.90
376.95	58.51
377.15	184.90
377.35	205.97
377.54	187.24
377.74	88.94
377.93	156.82
378.13	107.66
378.33	147.45
378.52	177.88
378.72	159.16
378.91	79.58
379.11	138.09
379.31	102.98
379.50	159.16
379.70	159.16
379.89	107.66
380.09	170.86
380.28	121.71
380.48	194.26
380.68	159.16
380.87	133.41
381.07	147.45
381.26	168.52
381.46	81.92
381.65	203.63
381.85	201.29
382.04	201.29
382.24	142.77
382.43	91.28
382.63	152.13
382.83	77.24
383.02	142.77
383.22	124.05
383.41	107.66
383.61	180.22
383.80	84.26
384.00	220.01
384.19	110.01
384.39	110.01
384.58	133.41
384.78	121.71
384.97	142.77
385.17	63.19
385.36	140.43
385.56	149.79
385.75	37.45
385.95	126.39
386.14	147.45
386.34	177.88
386.53	32.77
386.72	95.96
386.92	166.18
387.11	191.92
387.31	128.73
387.50	117.03
387.70	154.48
387.89	98.30
388.09	173.20
388.28	105.32
388.48	93.62
388.67	126.39
388.86	203.63
389.06	114.69
389.25	175.54
389.45	170.86
389.64	128.73
389.84	182.56
390.03	168.52
390.22	121.71
390.42	49.15
390.61	140.43
390.81	154.48
391.00	166.18
391.19	168.52
391.39	168.52
391.58	182.56
391.78	135.75
391.97	180.22
392.16	93.62
392.36	184.90
392.55	194.26
392.75	166.18
392.94	114.69
393.13	110.01
393.33	112.35
393.52	182.56
393.71	163.84
393.91	91.28
394.10	142.77
394.29	119.37
394.49	159.16
394.68	168.52
394.88	128.73
395.07	198.95
395.26	168.52
395.46	159.16
395.65	91.28
395.84	170.86
396.04	208.31
396.23	145.11
396.42	152.13
396.62	140.43
396.81	140.43
397.00	79.58
397.19	142.77
397.39	121.71
397.58	175.54
397.77	220.01
397.97	107.66
398.16	77.24
398.35	163.84
398.55	182.56
398.74	166.18
398.93	175.54
399.12	128.73
399.32	198.95
399.51	154.48
399.70	168.52
399.90	138.09
400.09	166.18
400.28	194.26
400.47	231.71
400.67	119.37
400.86	126.39
401.05	145.11
401.24	182.56
401.44	142.77
401.63	205.97
401.82	215.33
402.01	149.79
402.21	182.56
402.40	102.98
402.59	175.54
402.78	161.50
402.97	114.69
403.17	131.07
403.36	114.69
403.55	198.95
403.74	145.11
403.93	177.88
404.13	299.59
404.32	184.90
404.51	201.29
404.70	180.22
404.89	156.82
405.09	170.86
405.28	126.39
405.47	140.43
405.66	196.60
405.85	173.20
406.05	145.11
406.24	128.73
406.43	131.07
406.62	126.39
406.81	184.90
407.00	217.67
407.20	170.86
407.39	152.13
407.58	117.03
407.77	163.84
407.96	189.58
408.15	222.35
408.34	173.20
408.54	163.84
408.73	161.50
408.92	184.90
409.11	177.88
409.30	166.18
409.49	98.30
409.68	147.45
409.87	201.29
410.07	152.13
410.26	189.58
410.45	126.39
410.64	102.98
410.83	173.20
411.02	152.13
411.21	163.84
411.40	229.37
411.59	124.05
411.78	154.48
411.98	173.20
412.17	107.66
412.36	117.03
412.55	187.24
412.74	187.24
412.93	238.73
413.12	177.88
413.31	201.29
413.50	156.82
413.69	142.77
413.88	131.07
414.07	74.90
414.26	166.18
414.45	170.86
414.64	205.97
414.83	189.58
415.02	145.11
415.22	140.43
415.41	152.13
415.60	152.13
415.79	182.56
415.98	208.31
416.17	227.03
416.36	210.65
416.55	163.84
416.74	177.88
416.93	140.43
417.12	117.03
417.31	156.82
417.50	194.26
417.69	212.99
417.88	189.58
418.07	231.71
418.26	241.08
418.45	201.29
418.64	217.67
418.83	222.35
419.02	231.71
419.21	210.65
419.39	152.13
419.58	262.14
419.77	191.92
419.96	187.24
420.15	187.24
420.34	191.92
420.53	201.29
420.72	152.13
420.91	177.88
421.10	142.77
421.29	166.18
421.48	128.73
421.67	140.43
421.86	212.99
422.05	180.22
422.24	156.82
422.43	163.84
422.61	194.26
422.80	142.77
422.99	203.63
423.18	159.16
423.37	212.99
423.56	142.77
423.75	119.37
423.94	198.95
424.13	98.30
424.32	114.69
424.50	159.16
424.69	117.03
424.88	196.60
425.07	133.41
425.26	205.97
425.45	264.48
425.64	201.29
425.83	182.56
426.01	201.29
426.20	180.22
426.39	170.86
426.58	142.77
426.77	198.95
426.96	227.03
427.15	131.07
427.33	245.76
427.52	142.77
427.71	173.20
427.90	212.99
428.09	194.26
428.28	170.86
428.46	135.75
428.65	201.29
428.84	243.42
429.03	220.01
429.22	215.33
429.40	205.97
429.59	100.64
429.78	252.78
429.97	168.52
430.16	161.50
430.34	107.66
430.53	234.05
430.72	180.22
430.91	124.05
431.10	189.58
431.28	220.01
431.47	194.26
431.66	203.63
431.85	142.77
432.03	105.32
432.22	217.67
432.41	154.48
432.60	208.31
432.79	147.45
432.97	224.69
433.16	297.25
433.35	257.46
433.54	180.22
433.72	205.97
433.91	168.52
434.10	128.73
434.28	191.92
434.47	212.99
434.66	217.67
434.85	255.12
435.03	222.35
435.22	388.53
435.41	444.70
435.59	383.85
435.78	308.95
435.97	231.71
436.16	210.65
436.34	182.56
436.53	168.52
436.72	140.43
436.90	215.33
437.09	196.60
437.28	149.79
437.46	189.58
437.65	145.11
437.84	201.29
438.02	217.67
438.21	217.67
438.40	152.13
438.58	168.52
438.77	133.41
438.96	203.63
439.14	149.79
439.33	222.35
439.52	135.75
439.70	241.08
439.89	198.95
440.08	271.50
440.26	140.43
440.45	180.22
440.63	184.90
440.82	180.22
441.01	191.92
441.19	224.69
441.38	147.45
441.57	177.88
441.75	156.82
441.94	191.92
442.12	152.13
442.31	203.63
442.50	203.63
442.68	210.65
442.87	236.39
443.05	208.31
443.24	194.26
443.43	177.88
443.61	177.88
443.80	194.26
443.98	194.26
444.17	156.82
444.35	131.07
444.54	166.18
444.73	152.13
444.91	149.79
445.10	182.56
445.28	175.54
445.47	161.50
445.65	133.41
445.84	238.73
446.02	166.18
446.21	229.37
446.39	138.09
446.58	175.54
446.77	166.18
446.95	187.24
447.14	198.95
447.32	184.90
447.51	166.18
447.69	191.92
447.88	224.69
448.06	161.50
448.25	220.01
448.43	121.71
448.62	156.82
448.80	184.90
448.99	175.54
449.17	229.37
449.36	208.31
449.54	255.12
449.73	107.66
449.91	170.86
450.10	138.09
450.28	224.69
450.46	292.57
450.65	248.10
450.83	93.62
451.02	205.97
451.20	231.71
451.39	212.99
451.57	215.33
451.76	234.05
451.94	184.90
452.13	175.54
452.31	182.56
452.49	191.92
452.68	161.50
452.86	177.88
453.05	320.65
453.23	173.20
453.42	198.95
453.60	224.69
453.78	156.82
453.97	215.33
454.15	234.05
454.34	154.48
454.52	234.05
454.70	222.35
454.89	276.18
455.07	121.71
455.26	196.60
455.44	152.13
455.62	201.29
455.81	180.22
455.99	227.03
456.17	175.54
456.36	161.50
456.54	149.79
456.73	156.82
456.91	184.90
457.09	250.44
457.28	220.01
457.46	236.39
457.64	205.97
457.83	208.31
458.01	187.24
458.19	266.82
458.38	222.35
458.56	194.26
458.74	212.99
458.93	201.29
459.11	175.54
459.29	133.41
459.48	168.52
459.66	255.12
459.84	250.44
460.03	276.18
460.21	191.92
460.39	161.50
460.57	196.60
460.76	154.48
460.94	166.18
461.12	255.12
461.31	243.42
461.49	205.97
461.67	184.90
461.85	250.44
462.04	170.86
462.22	695.14
462.40	229.37
462.59	297.25
462.77	224.69
462.95	189.58
463.13	205.97
463.32	154.48
463.50	245.76
463.68	259.80
463.86	114.69
464.05	189.58
464.23	224.69
464.41	107.66
464.59	191.92
464.78	220.01
464.96	138.09
465.14	175.54
465.32	135.75
465.50	147.45
465.69	224.69
465.87	149.79
466.05	198.95
466.23	102.98
466.41	217.67
466.60	149.79
466.78	166.18
466.96	205.97
467.14	220.01
467.32	187.24
467.51	201.29
467.69	252.78
467.87	194.26
468.05	269.16
468.23	222.35
468.41	203.63
468.60	220.01
468.78	149.79
468.96	191.92
469.14	191.92
469.32	177.88
469.50	170.86
469.69	238.73
469.87	126.39
470.05	259.80
470.23	147.45
470.41	177.88
470.59	170.86
470.77	217.67
470.95	189.58
471.14	252.78
471.32	266.82
471.50	198.95
471.68	210.65
471.86	208.31
472.04	208.31
472.22	234.05
472.40	166.18
472.58	180.22
472.77	145.11
472.95	222.35
473.13	236.39
473.31	217.67
473.49	145.11
473.67	212.99
473.85	154.48
474.03	147.45
474.21	262.14
474.39	161.50
474.57	217.67
474.75	156.82
474.93	163.84
475.12	196.60
475.30	133.41
475.48	276.18
475.66	180.22
475.84	163.84
476.02	215.33
476.20	173.20
476.38	191.92
476.56	259.80
476.74	212.99
476.92	222.35
477.10	280.86
477.28	285.55
477.46	194.26
477.64	156.82
477.82	168.52
478.00	194.26
478.18	224.69
478.36	142.77
478.54	194.26
478.72	184.90
478.90	210.65
479.08	243.42
479.26	196.60
479.44	215.33
479.62	191.92
479.80	241.08
479.98	220.01
480.16	238.73
480.34	227.03
480.52	159.16
480.70	283.20
480.88	173.20
481.06	182.56
481.24	210.65
481.41	191.92
481.59	227.03
481.77	152.13
481.95	227.03
482.13	227.03
482.31	229.37
482.49	156.82
482.67	234.05
482.85	297.25
483.03	294.91
483.21	252.78
483.39	222.35
483.57	229.37
483.74	257.46
483.92	194.26
484.10	161.50
484.28	217.67
484.46	238.73
484.64	227.03
484.82	208.31
485.00	119.37
485.18	252.78
485.35	205.97
485.53	257.46
485.71	245.76
485.89	241.08
486.07	175.54
486.25	313.63
486.43	145.11
486.61	250.44
486.78	266.82
486.96	276.18
487.14	313.63
487.32	250.44
487.50	205.97
487.68	294.91
487.85	189.58
488.03	351.08
488.21	271.50
488.39	257.46
488.57	222.35
488.75	266.82
488.92	510.24
489.10	266.82
489.28	327.68
489.46	229.37
489.64	266.82
489.81	177.88
489.99	325.33
490.17	264.48
490.35	301.93
490.53	259.80
490.70	243.42
490.88	266.82
491.06	255.12
491.24	283.20
491.41	287.89
491.59	236.39
491.77	222.35
491.95	264.48
492.13	327.68
492.30	301.93
492.48	252.78
492.66	142.77
492.84	294.91
493.01	252.78
493.19	243.42
493.37	325.33
493.54	285.55
493.72	290.23
493.90	238.73
494.08	334.70
494.25	273.84
494.43	259.80
494.61	243.42
494.79	212.99
494.96	227.03
495.14	266.82
495.32	269.16
495.49	243.42
495.67	234.05
495.85	266.82
496.02	229.37
496.20	227.03
496.38	262.14
496.55	227.03
496.73	234.05
496.91	271.50
497.09	301.93
497.26	301.93
497.44	273.84
497.62	243.42
497.79	231.71
497.97	210.65
498.14	210.65
498.32	271.50
498.50	238.73
498.67	241.08
498.85	259.80
499.03	201.29
499.20	259.80
499.38	241.08
499.56	210.65
499.73	245.76
499.91	266.82
500.08	245.76
500.26	250.44
500.44	255.12
500.61	241.08
500.79	187.24
500.97	248.10
501.14	271.50
501.32	166.18
501.49	292.57
501.67	287.89
501.84	227.03
502.02	217.67
502.20	287.89
502.37	243.42
502.55	271.50
502.72	234.05
502.90	229.37
503.07	182.56
503.25	227.03
503.43	255.12
503.60	224.69
503.78	250.44
503.95	231.71
504.13	269.16
504.30	276.18
504.48	208.31
504.65	273.84
504.83	301.93
505.01	210.65
505.18	290.23
505.36	248.10
505.53	280.86
505.71	215.33
505.88	273.84
506.06	306.61
506.23	304.27
506.41	299.59
506.58	278.52
506.76	276.18
506.93	168.52
507.11	264.48
507.28	262.14
507.46	222.35
507.63	306.61
507.81	236.39
507.98	255.12
508.16	205.97
508.33	266.82
508.50	191.92
508.68	273.84
508.85	325.33
509.03	231.71
509.20	184.90
509.38	290.23
509.55	208.31
509.73	238.73
509.90	313.63
510.08	180.22
510.25	292.57
510.42	217.67
510.60	264.48
510.77	292.57
510.95	325.33
511.12	238.73
511.30	348.74
511.47	266.82
511.64	327.68
511.82	315.97
511.99	224.69
512.17	241.08
512.34	241.08
512.51	278.52
512.69	189.58
512.86	250.44
513.04	301.93
513.21	304.27
513.38	252.78
513.56	175.54
513.73	248.10
513.90	224.69
514.08	248.10
514.25	294.91
514.43	325.33
514.60	294.91
514.77	287.89
514.95	250.44
515.12	187.24
515.29	285.55
515.47	273.84
515.64	341.72
515.81	269.16
515.99	299.59
516.16	257.46
516.33	215.33
516.51	313.63
516.68	210.65
516.85	264.48
517.03	234.05
517.20	243.42
517.37	271.50
517.54	217.67
517.72	229.37
517.89	198.95
518.06	243.42
518.24	379.17
518.41	365.12
518.58	262.14
518.75	196.60
518.93	283.20
519.10	362.78
519.27	299.59
519.45	290.23
519.62	238.73
519.79	170.86
519.96	257.46
520.14	290.23
520.31	283.20
520.48	245.76
520.65	313.63
520.83	273.84
521.00	269.16
521.17	238.73
521.34	245.76
521.52	229.37
521.69	248.10
521.86	280.86
522.03	304.27
522.20	313.63
522.38	222.35
522.55	262.14
522.72	241.08
522.89	248.10
523.07	330.02
523.24	294.91
523.41	318.31
523.58	229.37
523.75	177.88
523.92	229.37
524.10	287.89
524.27	229.37
524.44	222.35
524.61	243.42
524.78	203.63
524.96	306.61
525.13	238.73
525.30	248.10
525.47	259.80
525.64	245.76
525.81	198.95
525.98	248.10
526.16	236.39
526.33	294.91
526.50	215.33
526.67	259.80
526.84	236.39
527.01	313.63
527.18	255.12
527.36	273.84
527.53	250.44
527.70	325.33
527.87	269.16
528.04	271.50
528.21	161.50
528.38	313.63
528.55	273.84
528.72	304.27
528.89	346.40
529.07	210.65
529.24	210.65
529.41	273.84
529.58	227.03
529.75	248.10
529.92	271.50
530.09	243.42
530.26	269.16
530.43	306.61
530.60	241.08
530.77	217.67
530.94	264.48
531.11	290.23
531.28	276.18
531.46	285.55
531.63	241.08
531.80	285.55
531.97	297.25
532.14	215.33
532.31	315.97
532.48	365.12
532.65	348.74
532.82	351.08
532.99	311.29
533.16	322.99
533.33	306.61
533.50	346.40
533.67	339.38
533.84	362.78
534.01	409.59
534.18	346.40
534.35	299.59
534.52	278.52
534.69	308.95
534.86	285.55
535.03	215.33
535.20	243.42
535.37	201.29
535.54	220.01
535.71	262.14
535.88	365.12
536.05	280.86
536.22	231.71
536.38	259.80
536.55	248.10
536.72	250.44
536.89	222.35
537.06	325.33
537.23	297.25
537.40	294.91
537.57	311.29
537.74	346.40
537.91	320.65
538.08	322.99
538.25	341.72
538.42	276.18
538.59	339.38
538.75	313.63
538.92	304.27
539.09	332.36
539.26	334.70
539.43	503.22
539.60	767.70
539.77	1027.50
539.94	1039.20
540.11	692.80
540.28	650.67
540.44	498.53
540.61	407.25
540.78	418.96
540.95	421.30
541.12	533.64
541.29	484.49
541.46	486.83
541.62	568.75
541.79	491.51
541.96	472.79
542.13	454.06
542.30	491.51
542.47	521.94
542.63	479.81
542.80	463.43
542.97	430.66
543.14	491.51
543.31	498.53
543.48	517.26
543.64	444.70
543.81	425.98
543.98	479.81
544.15	456.40
544.32	379.17
544.48	383.85
544.65	482.15
544.82	433.00
544.99	428.32
545.16	472.79
545.32	451.72
545.49	725.57
545.66	828.55
545.83	819.19
546.00	809.83
546.16	617.90
546.33	531.30
546.50	500.87
546.67	425.98
546.83	447.04
547.00	416.62
547.17	346.40
547.34	372.15
547.50	428.32
547.67	503.22
547.84	381.51
548.00	346.40
548.17	386.19
548.34	388.53
548.51	376.83
548.67	379.17
548.84	372.15
549.01	358.10
549.18	409.59
549.34	395.55
549.51	379.17
549.68	330.02
549.84	348.74
550.01	241.08
550.18	440.02
550.34	339.38
550.51	404.91
550.68	365.12
550.84	304.27
551.01	245.76
551.18	362.78
551.34	332.36
551.51	315.97
551.68	231.71
551.84	344.06
552.01	306.61
552.18	318.31
552.34	320.65
552.51	381.51
552.68	285.55
552.84	339.38
553.01	259.80
553.18	266.82
553.34	266.82
553.51	290.23
553.67	341.72
553.84	320.65
554.01	400.23
554.17	252.78
554.34	290.23
554.51	271.50
554.67	327.68
554.84	257.46
555.00	308.95
555.17	241.08
555.33	322.99
555.50	308.95
555.67	266.82
555.83	292.57
556.00	290.23
556.16	393.21
556.33	278.52
556.50	259.80
556.66	334.70
556.83	341.72
556.99	290.23
557.16	222.35
557.32	294.91
557.49	229.37
557.65	266.82
557.82	304.27
557.98	294.91
558.15	255.12
558.32	248.10
558.48	245.76
558.65	245.76
558.81	271.50
558.98	220.01
559.14	313.63
559.31	276.18
559.47	231.71
559.64	269.16
559.80	313.63
559.97	205.97
560.13	266.82
560.30	273.84
560.46	245.76
560.63	285.55
560.79	236.39
560.96	318.31
561.12	236.39
561.29	229.37
561.45	259.80
561.61	252.78
561.78	301.93
561.94	259.80
562.11	315.97
562.27	278.52
562.44	243.42
562.60	304.27
562.77	257.46
562.93	315.97
563.10	367.46
563.26	252.78
563.42	320.65
563.59	301.93
563.75	269.16
563.92	250.44
564.08	238.73
564.24	327.68
564.41	290.23
564.57	212.99
564.74	203.63
564.90	292.57
565.07	262.14
565.23	297.25
565.39	264.48
565.56	318.31
565.72	248.10
565.88	210.65
566.05	297.25
566.21	250.44
566.38	252.78
566.54	255.12
566.70	245.76
566.87	243.42
567.03	285.55
567.19	203.63
567.36	266.82
567.52	285.55
567.68	360.44
567.85	278.52
568.01	301.93
568.17	259.80
568.34	257.46
568.50	322.99
568.66	243.42
568.83	337.04
568.99	285.55
569.15	325.33
569.32	194.26
569.48	292.57
569.64	245.76
569.81	250.44
569.97	273.84
570.13	243.42
570.30	238.73
570.46	243.42
570.62	334.70
570.78	278.52
570.95	217.67
571.11	297.25
571.27	334.70
571.43	311.29
571.60	304.27
571.76	177.88
571.92	308.95
572.09	224.69
572.25	255.12
572.41	318.31
572.57	297.25
572.74	224.69
572.90	292.57
573.06	243.42
573.22	360.44
573.38	222.35
573.55	294.91
573.71	224.69
573.87	287.89
574.03	313.63
574.20	294.91
574.36	285.55
574.52	304.27
574.68	241.08
574.84	283.20
575.01	318.31
575.17	287.89
575.33	236.39
575.49	292.57
575.65	301.93
575.82	337.04
575.98	376.83
576.14	489.17
576.30	533.64
576.46	482.15
576.62	456.40
576.79	540.66
576.95	421.30
577.11	334.70
577.27	372.15
577.43	311.29
577.59	344.06
577.75	341.72
577.92	224.69
578.08	337.04
578.24	208.31
578.40	243.42
578.56	330.02
578.72	360.44
578.88	421.30
579.04	278.52
579.21	320.65
579.37	320.65
579.53	278.52
579.69	355.76
579.85	301.93
580.01	266.82
580.17	393.21
580.33	341.72
580.49	397.89
580.65	344.06
580.82	353.42
580.98	269.16
581.14	311.29
581.30	437.68
581.46	500.87
581.62	535.98
581.78	482.15
581.94	472.79
582.10	526.62
582.26	484.49
582.42	411.93
582.58	379.17
582.74	355.76
582.90	402.57
583.06	472.79
583.22	388.53
583.38	454.06
583.54	376.83
583.70	503.22
583.86	594.50
584.02	559.39
584.18	692.80
584.34	833.23
584.50	1863.07
584.66	13322.33
584.82	33460.30
584.98	44884.45
585.14	39173.55
585.30	24947.77
585.46	14874.10
585.62	9245.12
585.78	4381.48
585.94	1881.79
586.10	1041.54
586.26	638.97
586.42	643.65
586.58	592.16
586.74	531.30
586.90	564.07
587.06	491.51
587.22	475.13
587.38	411.93
587.54	784.08
587.70	2169.68
587.86	3262.71
588.02	3321.22
588.18	2431.82
588.34	1619.65
588.49	1163.25
588.65	720.88
588.81	514.92
588.97	346.40
589.13	250.44
589.29	337.04
589.45	320.65
589.61	299.59
589.77	259.80
589.93	348.74
590.08	348.74
590.24	306.61
590.40	348.74
590.56	369.80
590.72	362.78
590.88	334.70
591.04	325.33
591.20	402.57
591.35	372.15
591.51	360.44
591.67	358.10
591.83	344.06
591.99	290.23
592.15	304.27
592.31	287.89
592.46	308.95
592.62	346.40
592.78	301.93
592.94	315.97
593.10	332.36
593.26	360.44
593.41	245.76
593.57	374.49
593.73	535.98
593.89	1825.62
594.05	4109.98
594.20	5795.17
594.36	5270.89
594.52	3471.01
594.68	2256.28
594.84	1542.41
594.99	947.92
595.15	559.39
595.31	367.46
595.47	397.89
595.62	327.68
595.78	273.84
595.94	278.52
596.10	308.95
596.25	327.68
596.41	348.74
596.57	304.27
596.73	339.38
596.88	407.25
597.04	812.17
597.20	1357.51
597.36	1671.14
597.51	1219.42
597.67	826.21
597.83	645.99
597.99	454.06
598.14	440.02
598.30	440.02
598.46	374.49
598.61	365.12
598.77	304.27
598.93	315.97
599.09	271.50
599.24	315.97
599.40	330.02
599.56	351.08
599.71	306.61
599.87	285.55
600.03	299.59
600.18	330.02
600.34	355.76
600.50	229.37
600.65	308.95
600.81	308.95
600.97	306.61
601.12	248.10
601.28	388.53
601.44	287.89
601.59	234.05
601.75	348.74
601.91	271.50
602.06	182.56
602.22	322.99
602.37	547.69
602.53	1086.01
602.69	1607.95
602.84	1502.62
603.00	1109.41
603.16	870.68
603.31	692.80
603.47	486.83
603.62	390.87
603.78	287.89
603.94	341.72
604.09	318.31
604.25	320.65
604.40	278.52
604.56	334.70
604.71	271.50
604.87	278.52
605.03	264.48
605.18	252.78
605.34	365.12
605.49	276.18
605.65	287.89
605.80	266.82
605.96	273.84
606.12	306.61
606.27	379.17
606.43	327.68
606.58	390.87
606.74	594.50
606.89	2038.61
607.05	3852.52
607.20	4847.25
607.36	3880.61
607.51	2825.03
607.67	1799.87
607.82	1324.74
607.98	788.76
608.13	540.66
608.29	322.99
608.44	411.93
608.60	393.21
608.75	514.92
608.91	821.53
609.06	3201.85
609.22	6361.58
609.37	8074.85
609.53	7138.63
609.68	4938.53
609.84	3361.01
609.99	2436.50
610.15	1455.81
610.30	866.00
