SpectraSuite Data File
++++++++++++++++++++++++++++++++++++
Date: Fri Oct 04 11:33:44 GMT-05:00 2013
User: price-jones
Dark Spectrum Present: No
Reference Spectrum Present: No
Number of Sampled Component Spectra: 1
Spectrometers: USB2+H05261
Integration Time (usec): 100000 (USB2+H05261)
Spectra Averaged: 1 (USB2+H05261)
Boxcar Smoothing: 0 (USB2+H05261)
Correct for Electrical Dark: No (USB2+H05261)
Strobe/Lamp Enabled: No (USB2+H05261)
Correct for Detector Non-linearity: No (USB2+H05261)
Correct for Stray Light: No (USB2+H05261)
Number of Pixels in Processed Spectrum: 2048
>>>>>Begin Processed Spectral Data<<<<<
365.73	60.85
365.92	60.85
366.12	60.85
366.32	74.90
366.52	0.00
366.72	0.00
366.91	0.00
367.11	0.00
367.31	0.00
367.51	0.00
367.70	2.34
367.90	0.00
368.10	0.00
368.30	28.09
368.49	0.00
368.69	0.00
368.89	0.00
369.09	0.00
369.28	0.00
369.48	0.00
369.68	16.38
369.87	70.22
370.07	46.81
370.27	112.35
370.47	30.43
370.66	2.34
370.86	74.90
371.06	124.05
371.25	95.96
371.45	56.17
371.65	74.90
371.84	23.41
372.04	42.13
372.24	51.49
372.44	121.71
372.63	72.56
372.83	222.35
373.03	107.66
373.22	140.43
373.42	100.64
373.62	93.62
373.81	147.45
374.01	140.43
374.21	121.71
374.40	112.35
374.60	140.43
374.79	131.07
374.99	180.22
375.19	133.41
375.38	112.35
375.58	140.43
375.78	177.88
375.97	187.24
376.17	147.45
376.37	184.90
376.56	121.71
376.76	205.97
376.95	105.32
377.15	138.09
377.35	105.32
377.54	107.66
377.74	135.75
377.93	124.05
378.13	252.78
378.33	152.13
378.52	77.24
378.72	152.13
378.91	156.82
379.11	105.32
379.31	217.67
379.50	147.45
379.70	161.50
379.89	170.86
380.09	100.64
380.28	135.75
380.48	81.92
380.68	182.56
380.87	112.35
381.07	152.13
381.26	187.24
381.46	252.78
381.65	100.64
381.85	145.11
382.04	102.98
382.24	133.41
382.43	159.16
382.63	175.54
382.83	145.11
383.02	210.65
383.22	208.31
383.41	124.05
383.61	180.22
383.80	42.13
384.00	88.94
384.19	133.41
384.39	173.20
384.58	161.50
384.78	149.79
384.97	201.29
385.17	182.56
385.36	147.45
385.56	198.95
385.75	133.41
385.95	128.73
386.14	126.39
386.34	79.58
386.53	187.24
386.72	161.50
386.92	145.11
387.11	142.77
387.31	88.94
387.50	88.94
387.70	53.83
387.89	133.41
388.09	147.45
388.28	100.64
388.48	196.60
388.67	170.86
388.86	107.66
389.06	93.62
389.25	170.86
389.45	166.18
389.64	86.60
389.84	149.79
390.03	128.73
390.22	72.56
390.42	98.30
390.61	65.54
390.81	100.64
391.00	168.52
391.19	189.58
391.39	88.94
391.58	81.92
391.78	133.41
391.97	142.77
392.16	180.22
392.36	86.60
392.55	152.13
392.75	173.20
392.94	121.71
393.13	110.01
393.33	84.26
393.52	147.45
393.71	142.77
393.91	124.05
394.10	142.77
394.29	107.66
394.49	112.35
394.68	147.45
394.88	149.79
395.07	203.63
395.26	177.88
395.46	112.35
395.65	114.69
395.84	124.05
396.04	234.05
396.23	161.50
396.42	205.97
396.62	191.92
396.81	177.88
397.00	187.24
397.19	161.50
397.39	124.05
397.58	159.16
397.77	147.45
397.97	135.75
398.16	182.56
398.35	163.84
398.55	93.62
398.74	149.79
398.93	184.90
399.12	105.32
399.32	182.56
399.51	156.82
399.70	79.58
399.90	166.18
400.09	248.10
400.28	147.45
400.47	117.03
400.67	252.78
400.86	131.07
401.05	168.52
401.24	142.77
401.44	154.48
401.63	217.67
401.82	173.20
402.01	32.77
402.21	187.24
402.40	147.45
402.59	133.41
402.78	149.79
402.97	161.50
403.17	121.71
403.36	194.26
403.55	107.66
403.74	145.11
403.93	166.18
404.13	177.88
404.32	170.86
404.51	154.48
404.70	278.52
404.89	175.54
405.09	152.13
405.28	149.79
405.47	145.11
405.66	161.50
405.85	196.60
406.05	142.77
406.24	156.82
406.43	163.84
406.62	175.54
406.81	220.01
407.00	187.24
407.20	201.29
407.39	98.30
407.58	177.88
407.77	208.31
407.96	194.26
408.15	205.97
408.34	131.07
408.54	147.45
408.73	156.82
408.92	107.66
409.11	205.97
409.30	147.45
409.49	128.73
409.68	128.73
409.87	175.54
410.07	142.77
410.26	163.84
410.45	138.09
410.64	142.77
410.83	201.29
411.02	205.97
411.21	163.84
411.40	208.31
411.59	166.18
411.78	124.05
411.98	191.92
412.17	98.30
412.36	156.82
412.55	182.56
412.74	205.97
412.93	210.65
413.12	154.48
413.31	161.50
413.50	147.45
413.69	58.51
413.88	173.20
414.07	147.45
414.26	196.60
414.45	121.71
414.64	187.24
414.83	177.88
415.02	163.84
415.22	177.88
415.41	224.69
415.60	131.07
415.79	154.48
415.98	201.29
416.17	220.01
416.36	140.43
416.55	131.07
416.74	212.99
416.93	217.67
417.12	163.84
417.31	152.13
417.50	124.05
417.69	210.65
417.88	194.26
418.07	212.99
418.26	229.37
418.45	175.54
418.64	245.76
418.83	222.35
419.02	168.52
419.21	189.58
419.39	170.86
419.58	166.18
419.77	217.67
419.96	177.88
420.15	229.37
420.34	128.73
420.53	210.65
420.72	168.52
420.91	121.71
421.10	191.92
421.29	145.11
421.48	156.82
421.67	191.92
421.86	168.52
422.05	163.84
422.24	110.01
422.43	170.86
422.61	117.03
422.80	224.69
422.99	201.29
423.18	182.56
423.37	201.29
423.56	196.60
423.75	95.96
423.94	203.63
424.13	119.37
424.32	175.54
424.50	196.60
424.69	147.45
424.88	98.30
425.07	105.32
425.26	210.65
425.45	292.57
425.64	245.76
425.83	252.78
426.01	220.01
426.20	175.54
426.39	173.20
426.58	145.11
426.77	177.88
426.96	154.48
427.15	170.86
427.33	98.30
427.52	152.13
427.71	175.54
427.90	140.43
428.09	133.41
428.28	126.39
428.46	105.32
428.65	208.31
428.84	107.66
429.03	217.67
429.22	72.56
429.40	135.75
429.59	196.60
429.78	245.76
429.97	187.24
430.16	138.09
430.34	135.75
430.53	147.45
430.72	170.86
430.91	203.63
431.10	182.56
431.28	182.56
431.47	212.99
431.66	212.99
431.85	140.43
432.03	110.01
432.22	163.84
432.41	201.29
432.60	236.39
432.79	229.37
432.97	222.35
433.16	241.08
433.35	238.73
433.54	245.76
433.72	177.88
433.91	140.43
434.10	168.52
434.28	215.33
434.47	238.73
434.66	177.88
434.85	173.20
435.03	227.03
435.22	301.93
435.41	294.91
435.59	297.25
435.78	285.55
435.97	142.77
436.16	220.01
436.34	114.69
436.53	161.50
436.72	189.58
436.90	168.52
437.09	182.56
437.28	156.82
437.46	201.29
437.65	196.60
437.84	266.82
438.02	212.99
438.21	170.86
438.40	212.99
438.58	156.82
438.77	170.86
438.96	210.65
439.14	142.77
439.33	248.10
439.52	156.82
439.70	187.24
439.89	177.88
440.08	147.45
440.26	161.50
440.45	175.54
440.63	196.60
440.82	196.60
441.01	182.56
441.19	163.84
441.38	238.73
441.57	203.63
441.75	227.03
441.94	159.16
442.12	224.69
442.31	198.95
442.50	208.31
442.68	191.92
442.87	168.52
443.05	145.11
443.24	173.20
443.43	259.80
443.61	264.48
443.80	168.52
443.98	184.90
444.17	217.67
444.35	121.71
444.54	217.67
444.73	184.90
444.91	182.56
445.10	196.60
445.28	166.18
445.47	170.86
445.65	184.90
445.84	170.86
446.02	175.54
446.21	170.86
446.39	140.43
446.58	159.16
446.77	212.99
446.95	212.99
447.14	159.16
447.32	236.39
447.51	224.69
447.69	205.97
447.88	212.99
448.06	177.88
448.25	145.11
448.43	189.58
448.62	102.98
448.80	245.76
448.99	191.92
449.17	177.88
449.36	264.48
449.54	187.24
449.73	107.66
449.91	184.90
450.10	201.29
450.28	236.39
450.46	266.82
450.65	159.16
450.83	238.73
451.02	238.73
451.20	166.18
451.39	128.73
451.57	212.99
451.76	175.54
451.94	229.37
452.13	245.76
452.31	215.33
452.49	255.12
452.68	126.39
452.86	210.65
453.05	271.50
453.23	245.76
453.42	180.22
453.60	187.24
453.78	187.24
453.97	147.45
454.15	187.24
454.34	184.90
454.52	124.05
454.70	184.90
454.89	236.39
455.07	121.71
455.26	198.95
455.44	198.95
455.62	238.73
455.81	100.64
455.99	212.99
456.17	168.52
456.36	168.52
456.54	154.48
456.73	135.75
456.91	205.97
457.09	198.95
457.28	152.13
457.46	170.86
457.64	163.84
457.83	154.48
458.01	166.18
458.19	140.43
458.38	163.84
458.56	189.58
458.74	205.97
458.93	227.03
459.11	220.01
459.29	166.18
459.48	119.37
459.66	262.14
459.84	191.92
460.03	259.80
460.21	205.97
460.39	222.35
460.57	182.56
460.76	196.60
460.94	161.50
461.12	252.78
461.31	255.12
461.49	205.97
461.67	187.24
461.85	198.95
462.04	163.84
462.22	636.63
462.40	203.63
462.59	124.05
462.77	98.30
462.95	224.69
463.13	234.05
463.32	220.01
463.50	187.24
463.68	273.84
463.86	201.29
464.05	205.97
464.23	283.20
464.41	194.26
464.59	191.92
464.78	236.39
464.96	201.29
465.14	198.95
465.32	142.77
465.50	241.08
465.69	201.29
465.87	250.44
466.05	194.26
466.23	180.22
466.41	163.84
466.60	191.92
466.78	191.92
466.96	177.88
467.14	236.39
467.32	166.18
467.51	166.18
467.69	173.20
467.87	280.86
468.05	241.08
468.23	238.73
468.41	170.86
468.60	208.31
468.78	156.82
468.96	194.26
469.14	241.08
469.32	175.54
469.50	215.33
469.69	201.29
469.87	198.95
470.05	198.95
470.23	198.95
470.41	191.92
470.59	163.84
470.77	135.75
470.95	205.97
471.14	189.58
471.32	229.37
471.50	234.05
471.68	194.26
471.86	245.76
472.04	182.56
472.22	301.93
472.40	182.56
472.58	227.03
472.77	222.35
472.95	166.18
473.13	245.76
473.31	196.60
473.49	205.97
473.67	250.44
473.85	201.29
474.03	149.79
474.21	234.05
474.39	241.08
474.57	145.11
474.75	222.35
474.93	142.77
475.12	189.58
475.30	182.56
475.48	175.54
475.66	215.33
475.84	194.26
476.02	182.56
476.20	205.97
476.38	229.37
476.56	285.55
476.74	212.99
476.92	110.01
477.10	177.88
477.28	220.01
477.46	154.48
477.64	290.23
477.82	245.76
478.00	222.35
478.18	231.71
478.36	152.13
478.54	187.24
478.72	198.95
478.90	194.26
479.08	173.20
479.26	224.69
479.44	194.26
479.62	177.88
479.80	215.33
479.98	205.97
480.16	145.11
480.34	217.67
480.52	198.95
480.70	210.65
480.88	205.97
481.06	175.54
481.24	217.67
481.41	189.58
481.59	180.22
481.77	205.97
481.95	217.67
482.13	264.48
482.31	205.97
482.49	196.60
482.67	205.97
482.85	299.59
483.03	231.71
483.21	215.33
483.39	287.89
483.57	173.20
483.74	266.82
483.92	262.14
484.10	231.71
484.28	220.01
484.46	257.46
484.64	217.67
484.82	173.20
485.00	227.03
485.18	229.37
485.35	161.50
485.53	234.05
485.71	271.50
485.89	215.33
486.07	217.67
486.25	341.72
486.43	250.44
486.61	215.33
486.78	276.18
486.96	238.73
487.14	163.84
487.32	182.56
487.50	234.05
487.68	229.37
487.85	224.69
488.03	255.12
488.21	297.25
488.39	276.18
488.57	271.50
488.75	287.89
488.92	428.32
489.10	227.03
489.28	273.84
489.46	234.05
489.64	273.84
489.81	229.37
489.99	236.39
490.17	315.97
490.35	348.74
490.53	210.65
490.70	245.76
490.88	292.57
491.06	208.31
491.24	203.63
491.41	266.82
491.59	205.97
491.77	297.25
491.95	257.46
492.13	173.20
492.30	220.01
492.48	299.59
492.66	236.39
492.84	243.42
493.01	194.26
493.19	234.05
493.37	271.50
493.54	250.44
493.72	259.80
493.90	238.73
494.08	276.18
494.25	269.16
494.43	245.76
494.61	236.39
494.79	170.86
494.96	245.76
495.14	217.67
495.32	238.73
495.49	269.16
495.67	234.05
495.85	255.12
496.02	231.71
496.20	292.57
496.38	227.03
496.55	231.71
496.73	140.43
496.91	222.35
497.09	299.59
497.26	255.12
497.44	243.42
497.62	248.10
497.79	238.73
497.97	250.44
498.14	217.67
498.32	257.46
498.50	301.93
498.67	238.73
498.85	259.80
499.03	227.03
499.20	280.86
499.38	187.24
499.56	212.99
499.73	318.31
499.91	292.57
500.08	259.80
500.26	283.20
500.44	259.80
500.61	189.58
500.79	194.26
500.97	259.80
501.14	280.86
501.32	191.92
501.49	292.57
501.67	287.89
501.84	182.56
502.02	187.24
502.20	280.86
502.37	224.69
502.55	208.31
502.72	184.90
502.90	191.92
503.07	229.37
503.25	332.36
503.43	234.05
503.60	266.82
503.78	287.89
503.95	189.58
504.13	217.67
504.30	264.48
504.48	245.76
504.65	238.73
504.83	285.55
505.01	196.60
505.18	287.89
505.36	271.50
505.53	227.03
505.71	234.05
505.88	308.95
506.06	224.69
506.23	149.79
506.41	236.39
506.58	205.97
506.76	229.37
506.93	264.48
507.11	236.39
507.28	285.55
507.46	227.03
507.63	245.76
507.81	355.76
507.98	320.65
508.16	255.12
508.33	238.73
508.50	292.57
508.68	187.24
508.85	327.68
509.03	170.86
509.20	217.67
509.38	294.91
509.55	262.14
509.73	255.12
509.90	201.29
510.08	257.46
510.25	271.50
510.42	264.48
510.60	212.99
510.77	212.99
510.95	208.31
511.12	313.63
511.30	273.84
511.47	304.27
511.64	355.76
511.82	311.29
511.99	250.44
512.17	262.14
512.34	238.73
512.51	196.60
512.69	271.50
512.86	189.58
513.04	257.46
513.21	212.99
513.38	264.48
513.56	276.18
513.73	201.29
513.90	224.69
514.08	140.43
514.25	220.01
514.43	205.97
514.60	184.90
514.77	271.50
514.95	320.65
515.12	236.39
515.29	290.23
515.47	227.03
515.64	290.23
515.81	301.93
515.99	292.57
516.16	264.48
516.33	248.10
516.51	290.23
516.68	198.95
516.85	210.65
517.03	210.65
517.20	227.03
517.37	269.16
517.54	311.29
517.72	208.31
517.89	212.99
518.06	231.71
518.24	271.50
518.41	334.70
518.58	280.86
518.75	245.76
518.93	297.25
519.10	301.93
519.27	236.39
519.45	252.78
519.62	222.35
519.79	301.93
519.96	280.86
520.14	337.04
520.31	294.91
520.48	283.20
520.65	292.57
520.83	231.71
521.00	273.84
521.17	355.76
521.34	264.48
521.52	194.26
521.69	234.05
521.86	290.23
522.03	280.86
522.20	299.59
522.38	231.71
522.55	273.84
522.72	231.71
522.89	330.02
523.07	400.23
523.24	301.93
523.41	210.65
523.58	315.97
523.75	280.86
523.92	236.39
524.10	269.16
524.27	266.82
524.44	262.14
524.61	337.04
524.78	248.10
524.96	311.29
525.13	262.14
525.30	290.23
525.47	220.01
525.64	292.57
525.81	252.78
525.98	287.89
526.16	220.01
526.33	220.01
526.50	198.95
526.67	175.54
526.84	198.95
527.01	208.31
527.18	280.86
527.36	224.69
527.53	229.37
527.70	297.25
527.87	257.46
528.04	276.18
528.21	236.39
528.38	238.73
528.55	271.50
528.72	290.23
528.89	374.49
529.07	271.50
529.24	250.44
529.41	344.06
529.58	280.86
529.75	273.84
529.92	339.38
530.09	266.82
530.26	257.46
530.43	346.40
530.60	238.73
530.77	248.10
530.94	320.65
531.11	301.93
531.28	273.84
531.46	285.55
531.63	301.93
531.80	245.76
531.97	241.08
532.14	278.52
532.31	355.76
532.48	325.33
532.65	346.40
532.82	435.34
532.99	330.02
533.16	330.02
533.33	294.91
533.50	330.02
533.67	400.23
533.84	383.85
534.01	447.04
534.18	407.25
534.35	397.89
534.52	381.51
534.69	367.46
534.86	287.89
535.03	315.97
535.20	264.48
535.37	269.16
535.54	259.80
535.71	201.29
535.88	259.80
536.05	320.65
536.22	313.63
536.38	287.89
536.55	304.27
536.72	322.99
536.89	299.59
537.06	238.73
537.23	299.59
537.40	294.91
537.57	285.55
537.74	337.04
537.91	334.70
538.08	278.52
538.25	308.95
538.42	262.14
538.59	318.31
538.75	313.63
538.92	322.99
539.09	334.70
539.26	266.82
539.43	603.86
539.60	1046.22
539.77	1504.96
539.94	1640.72
540.11	1172.61
540.28	842.59
540.44	613.22
540.61	468.11
540.78	362.78
540.95	421.30
541.12	524.28
541.29	402.57
541.46	482.15
541.62	465.77
541.79	456.40
541.96	400.23
542.13	514.92
542.30	486.83
542.47	491.51
542.63	475.13
542.80	435.34
542.97	395.55
543.14	425.98
543.31	414.27
543.48	465.77
543.64	435.34
543.81	440.02
543.98	423.64
544.15	435.34
544.32	402.57
544.48	491.51
544.65	447.04
544.82	465.77
544.99	421.30
545.16	456.40
545.32	500.87
545.49	690.46
545.66	704.50
545.83	748.97
546.00	620.24
546.16	587.47
546.33	451.72
546.50	449.38
546.67	454.06
546.83	442.36
547.00	418.96
547.17	339.38
547.34	409.59
547.50	418.96
547.67	362.78
547.84	325.33
548.00	376.83
548.17	355.76
548.34	271.50
548.51	418.96
548.67	367.46
548.84	306.61
549.01	367.46
549.18	372.15
549.34	397.89
549.51	318.31
549.68	322.99
549.84	327.68
550.01	229.37
550.18	402.57
550.34	369.80
550.51	351.08
550.68	374.49
550.84	259.80
551.01	332.36
551.18	337.04
551.34	299.59
551.51	262.14
551.68	294.91
551.84	454.06
552.01	304.27
552.18	327.68
552.34	351.08
552.51	327.68
552.68	292.57
552.84	220.01
553.01	304.27
553.18	276.18
553.34	271.50
553.51	292.57
553.67	217.67
553.84	334.70
554.01	383.85
554.17	365.12
554.34	348.74
554.51	292.57
554.67	262.14
554.84	280.86
555.00	346.40
555.17	285.55
555.33	299.59
555.50	320.65
555.67	332.36
555.83	311.29
556.00	339.38
556.16	388.53
556.33	292.57
556.50	248.10
556.66	278.52
556.83	327.68
556.99	292.57
557.16	330.02
557.32	325.33
557.49	250.44
557.65	292.57
557.82	224.69
557.98	306.61
558.15	215.33
558.32	266.82
558.48	184.90
558.65	269.16
558.81	215.33
558.98	236.39
559.14	236.39
559.31	231.71
559.47	271.50
559.64	266.82
559.80	285.55
559.97	220.01
560.13	222.35
560.30	280.86
560.46	259.80
560.63	332.36
560.79	212.99
560.96	248.10
561.12	278.52
561.29	306.61
561.45	332.36
561.61	292.57
561.78	294.91
561.94	229.37
562.11	285.55
562.27	290.23
562.44	278.52
562.60	332.36
562.77	311.29
562.93	304.27
563.10	264.48
563.26	252.78
563.42	203.63
563.59	306.61
563.75	234.05
563.92	210.65
564.08	241.08
564.24	266.82
564.41	299.59
564.57	234.05
564.74	285.55
564.90	278.52
565.07	273.84
565.23	238.73
565.39	294.91
565.56	245.76
565.72	332.36
565.88	210.65
566.05	205.97
566.21	255.12
566.38	299.59
566.54	278.52
566.70	236.39
566.87	269.16
567.03	276.18
567.19	217.67
567.36	198.95
567.52	259.80
567.68	320.65
567.85	243.42
568.01	308.95
568.17	170.86
568.34	266.82
568.50	287.89
568.66	231.71
568.83	297.25
568.99	191.92
569.15	301.93
569.32	196.60
569.48	177.88
569.64	220.01
569.81	250.44
569.97	259.80
570.13	297.25
570.30	276.18
570.46	266.82
570.62	304.27
570.78	236.39
570.95	266.82
571.11	311.29
571.27	250.44
571.43	248.10
571.60	313.63
571.76	271.50
571.92	245.76
572.09	205.97
572.25	222.35
572.41	264.48
572.57	234.05
572.74	355.76
572.90	266.82
573.06	313.63
573.22	285.55
573.38	318.31
573.55	306.61
573.71	234.05
573.87	322.99
574.03	322.99
574.20	241.08
574.36	299.59
574.52	306.61
574.68	386.19
574.84	339.38
575.01	351.08
575.17	292.57
575.33	243.42
575.49	294.91
575.65	266.82
575.82	346.40
575.98	634.29
576.14	765.36
576.30	753.65
576.46	648.33
576.62	512.58
576.79	512.58
576.95	468.11
577.11	348.74
577.27	273.84
577.43	337.04
577.59	353.42
577.75	327.68
577.92	315.97
578.08	318.31
578.24	266.82
578.40	353.42
578.56	451.72
578.72	388.53
578.88	411.93
579.04	433.00
579.21	294.91
579.37	369.80
579.53	348.74
579.69	435.34
579.85	372.15
580.01	374.49
580.17	519.60
580.33	465.77
580.49	458.74
580.65	362.78
580.82	386.19
580.98	355.76
581.14	400.23
581.30	451.72
581.46	465.77
581.62	655.35
581.78	596.84
581.94	674.07
582.10	547.69
582.26	528.96
582.42	468.11
582.58	521.94
582.74	463.43
582.90	547.69
583.06	447.04
583.22	578.11
583.38	526.62
583.54	610.88
583.70	704.50
583.86	734.93
584.02	807.48
584.18	926.85
584.34	1268.57
584.50	3019.29
584.66	22469.14
584.82	55210.90
584.98	65408.61
585.14	62827.00
585.30	49106.78
585.46	29556.28
585.62	17930.84
585.78	8421.25
585.94	3433.57
586.10	1654.76
586.26	1102.39
586.42	938.55
586.58	737.27
586.74	681.10
586.90	587.47
587.06	655.35
587.22	608.54
587.38	667.05
587.54	1160.91
587.70	3253.34
587.86	5556.43
588.02	6492.65
588.18	4650.64
588.34	2920.99
588.49	1923.92
588.65	1170.27
588.81	681.10
588.97	433.00
589.13	411.93
589.29	397.89
589.45	322.99
589.61	409.59
589.77	503.22
589.93	461.09
590.08	517.26
590.24	437.68
590.40	578.11
590.56	454.06
590.72	416.62
590.88	341.72
591.04	374.49
591.20	353.42
591.35	395.55
591.51	348.74
591.67	322.99
591.83	362.78
591.99	325.33
592.15	440.02
592.31	425.98
592.46	402.57
592.62	369.80
592.78	369.80
592.94	280.86
593.10	365.12
593.26	353.42
593.41	346.40
593.57	428.32
593.73	610.88
593.89	2553.52
594.05	7028.63
594.20	10832.00
594.36	10408.36
594.52	6939.69
594.68	4161.47
594.84	2820.35
594.99	1802.21
595.15	753.65
595.31	526.62
595.47	374.49
595.62	376.83
595.78	379.17
595.94	334.70
596.10	430.66
596.25	358.10
596.41	372.15
596.57	376.83
596.73	358.10
596.88	594.50
597.04	1345.81
597.20	2293.72
597.36	2693.96
597.51	2186.06
597.67	1427.73
597.83	961.96
597.99	692.80
598.14	477.47
598.30	407.25
598.46	402.57
598.61	421.30
598.77	341.72
598.93	393.21
599.09	351.08
599.24	337.04
599.40	341.72
599.56	355.76
599.71	421.30
599.87	301.93
600.03	271.50
600.18	341.72
600.34	369.80
600.50	280.86
600.65	266.82
600.81	299.59
600.97	294.91
601.12	297.25
601.28	358.10
601.44	257.46
601.59	227.03
601.75	341.72
601.91	320.65
602.06	341.72
602.22	449.38
602.37	779.40
602.53	1724.97
602.69	2661.19
602.84	2895.24
603.00	2115.84
603.16	1451.13
603.31	997.07
603.47	741.95
603.62	421.30
603.78	386.19
603.94	411.93
604.09	262.14
604.25	351.08
604.40	341.72
604.56	341.72
604.71	325.33
604.87	236.39
605.03	278.52
605.18	322.99
605.34	395.55
605.49	308.95
605.65	318.31
605.80	337.04
605.96	355.76
606.12	353.42
606.27	404.91
606.43	404.91
606.58	386.19
606.74	739.61
606.89	3159.72
607.05	7021.61
607.20	9174.90
607.36	7576.31
607.51	5156.20
607.67	3463.99
607.82	2392.03
607.98	1331.76
608.13	748.97
608.29	573.43
608.44	568.75
608.60	521.94
608.75	582.79
608.91	1170.27
609.06	5114.07
609.22	11576.29
609.37	16145.02
609.53	14113.43
609.68	9322.35
609.84	6052.63
609.99	4184.88
610.15	2328.83
