SpectraSuite Data File
++++++++++++++++++++++++++++++++++++
Date: Fri Oct 04 11:33:50 GMT-05:00 2013
User: price-jones
Dark Spectrum Present: No
Reference Spectrum Present: No
Number of Sampled Component Spectra: 1
Spectrometers: USB2+H05261
Integration Time (usec): 100000 (USB2+H05261)
Spectra Averaged: 1 (USB2+H05261)
Boxcar Smoothing: 0 (USB2+H05261)
Correct for Electrical Dark: No (USB2+H05261)
Strobe/Lamp Enabled: No (USB2+H05261)
Correct for Detector Non-linearity: No (USB2+H05261)
Correct for Stray Light: No (USB2+H05261)
Number of Pixels in Processed Spectrum: 2048
>>>>>Begin Processed Spectral Data<<<<<
365.73	93.62
365.92	93.62
366.12	93.62
366.32	7.02
366.52	0.00
366.72	46.81
366.91	0.00
367.11	0.00
367.31	0.00
367.51	0.00
367.70	0.00
367.90	9.36
368.10	0.00
368.30	0.00
368.49	0.00
368.69	37.45
368.89	0.00
369.09	0.00
369.28	18.72
369.48	0.00
369.68	0.00
369.87	0.00
370.07	9.36
370.27	138.09
370.47	65.54
370.66	42.13
370.86	72.56
371.06	110.01
371.25	163.84
371.45	124.05
371.65	114.69
371.84	77.24
372.04	63.19
372.24	105.32
372.44	140.43
372.63	163.84
372.83	117.03
373.03	152.13
373.22	95.96
373.42	131.07
373.62	187.24
373.81	147.45
374.01	189.58
374.21	161.50
374.40	142.77
374.60	215.33
374.79	205.97
374.99	222.35
375.19	105.32
375.38	196.60
375.58	135.75
375.78	142.77
375.97	159.16
376.17	222.35
376.37	128.73
376.56	105.32
376.76	154.48
376.95	126.39
377.15	131.07
377.35	163.84
377.54	147.45
377.74	42.13
377.93	79.58
378.13	159.16
378.33	147.45
378.52	77.24
378.72	210.65
378.91	198.95
379.11	124.05
379.31	147.45
379.50	88.94
379.70	135.75
379.89	138.09
380.09	110.01
380.28	107.66
380.48	107.66
380.68	140.43
380.87	72.56
381.07	105.32
381.26	180.22
381.46	173.20
381.65	138.09
381.85	187.24
382.04	142.77
382.24	131.07
382.43	194.26
382.63	112.35
382.83	110.01
383.02	100.64
383.22	177.88
383.41	140.43
383.61	102.98
383.80	124.05
384.00	177.88
384.19	107.66
384.39	114.69
384.58	138.09
384.78	156.82
384.97	133.41
385.17	77.24
385.36	168.52
385.56	182.56
385.75	152.13
385.95	121.71
386.14	147.45
386.34	147.45
386.53	166.18
386.72	56.17
386.92	102.98
387.11	182.56
387.31	110.01
387.50	107.66
387.70	119.37
387.89	145.11
388.09	140.43
388.28	133.41
388.48	133.41
388.67	205.97
388.86	128.73
389.06	170.86
389.25	138.09
389.45	154.48
389.64	77.24
389.84	175.54
390.03	110.01
390.22	166.18
390.42	133.41
390.61	112.35
390.81	81.92
391.00	159.16
391.19	81.92
391.39	63.19
391.58	177.88
391.78	163.84
391.97	159.16
392.16	105.32
392.36	194.26
392.55	220.01
392.75	145.11
392.94	98.30
393.13	88.94
393.33	93.62
393.52	107.66
393.71	187.24
393.91	154.48
394.10	133.41
394.29	138.09
394.49	149.79
394.68	222.35
394.88	177.88
395.07	147.45
395.26	180.22
395.46	154.48
395.65	170.86
395.84	112.35
396.04	203.63
396.23	95.96
396.42	114.69
396.62	131.07
396.81	184.90
397.00	154.48
397.19	133.41
397.39	159.16
397.58	147.45
397.77	117.03
397.97	126.39
398.16	131.07
398.35	140.43
398.55	102.98
398.74	149.79
398.93	147.45
399.12	93.62
399.32	79.58
399.51	140.43
399.70	238.73
399.90	135.75
400.09	173.20
400.28	220.01
400.47	117.03
400.67	110.01
400.86	107.66
401.05	79.58
401.24	191.92
401.44	46.81
401.63	128.73
401.82	227.03
402.01	159.16
402.21	98.30
402.40	163.84
402.59	149.79
402.78	161.50
402.97	145.11
403.17	159.16
403.36	149.79
403.55	161.50
403.74	142.77
403.93	276.18
404.13	278.52
404.32	180.22
404.51	220.01
404.70	170.86
404.89	147.45
405.09	182.56
405.28	166.18
405.47	156.82
405.66	201.29
405.85	191.92
406.05	145.11
406.24	205.97
406.43	177.88
406.62	138.09
406.81	142.77
407.00	163.84
407.20	168.52
407.39	131.07
407.58	170.86
407.77	119.37
407.96	224.69
408.15	177.88
408.34	191.92
408.54	154.48
408.73	105.32
408.92	161.50
409.11	173.20
409.30	198.95
409.49	156.82
409.68	201.29
409.87	189.58
410.07	163.84
410.26	191.92
410.45	205.97
410.64	126.39
410.83	140.43
411.02	88.94
411.21	163.84
411.40	161.50
411.59	138.09
411.78	117.03
411.98	107.66
412.17	140.43
412.36	86.60
412.55	121.71
412.74	194.26
412.93	217.67
413.12	145.11
413.31	72.56
413.50	180.22
413.69	124.05
413.88	243.42
414.07	159.16
414.26	205.97
414.45	187.24
414.64	177.88
414.83	124.05
415.02	184.90
415.22	205.97
415.41	294.91
415.60	166.18
415.79	175.54
415.98	236.39
416.17	222.35
416.36	182.56
416.55	105.32
416.74	102.98
416.93	196.60
417.12	161.50
417.31	152.13
417.50	187.24
417.69	201.29
417.88	170.86
418.07	189.58
418.26	243.42
418.45	252.78
418.64	318.31
418.83	269.16
419.02	248.10
419.21	250.44
419.39	227.03
419.58	245.76
419.77	222.35
419.96	217.67
420.15	187.24
420.34	191.92
420.53	175.54
420.72	145.11
420.91	126.39
421.10	102.98
421.29	210.65
421.48	215.33
421.67	163.84
421.86	147.45
422.05	145.11
422.24	168.52
422.43	170.86
422.61	210.65
422.80	145.11
422.99	117.03
423.18	121.71
423.37	177.88
423.56	159.16
423.75	180.22
423.94	135.75
424.13	98.30
424.32	170.86
424.50	215.33
424.69	203.63
424.88	236.39
425.07	177.88
425.26	248.10
425.45	191.92
425.64	227.03
425.83	278.52
426.01	234.05
426.20	217.67
426.39	184.90
426.58	95.96
426.77	215.33
426.96	168.52
427.15	145.11
427.33	168.52
427.52	131.07
427.71	168.52
427.90	149.79
428.09	133.41
428.28	177.88
428.46	170.86
428.65	220.01
428.84	222.35
429.03	224.69
429.22	133.41
429.40	194.26
429.59	117.03
429.78	173.20
429.97	194.26
430.16	163.84
430.34	154.48
430.53	187.24
430.72	184.90
430.91	201.29
431.10	107.66
431.28	285.55
431.47	180.22
431.66	236.39
431.85	163.84
432.03	145.11
432.22	198.95
432.41	198.95
432.60	140.43
432.79	252.78
432.97	292.57
433.16	278.52
433.35	229.37
433.54	191.92
433.72	299.59
433.91	208.31
434.10	234.05
434.28	294.91
434.47	191.92
434.66	262.14
434.85	175.54
435.03	255.12
435.22	299.59
435.41	430.66
435.59	355.76
435.78	222.35
435.97	285.55
436.16	234.05
436.34	175.54
436.53	189.58
436.72	189.58
436.90	205.97
437.09	166.18
437.28	175.54
437.46	135.75
437.65	196.60
437.84	138.09
438.02	210.65
438.21	184.90
438.40	210.65
438.58	161.50
438.77	159.16
438.96	74.90
439.14	220.01
439.33	161.50
439.52	180.22
439.70	161.50
439.89	217.67
440.08	184.90
440.26	166.18
440.45	180.22
440.63	182.56
440.82	203.63
441.01	72.56
441.19	142.77
441.38	159.16
441.57	243.42
441.75	210.65
441.94	224.69
442.12	156.82
442.31	145.11
442.50	147.45
442.68	159.16
442.87	205.97
443.05	147.45
443.24	173.20
443.43	250.44
443.61	257.46
443.80	180.22
443.98	212.99
444.17	236.39
444.35	180.22
444.54	198.95
444.73	266.82
444.91	205.97
445.10	198.95
445.28	142.77
445.47	135.75
445.65	175.54
445.84	166.18
446.02	205.97
446.21	175.54
446.39	140.43
446.58	135.75
446.77	175.54
446.95	124.05
447.14	184.90
447.32	220.01
447.51	224.69
447.69	278.52
447.88	191.92
448.06	220.01
448.25	187.24
448.43	175.54
448.62	177.88
448.80	119.37
448.99	159.16
449.17	152.13
449.36	210.65
449.54	121.71
449.73	156.82
449.91	203.63
450.10	131.07
450.28	238.73
450.46	245.76
450.65	149.79
450.83	194.26
451.02	191.92
451.20	184.90
451.39	182.56
451.57	177.88
451.76	173.20
451.94	184.90
452.13	201.29
452.31	145.11
452.49	180.22
452.68	163.84
452.86	126.39
453.05	203.63
453.23	168.52
453.42	203.63
453.60	210.65
453.78	168.52
453.97	163.84
454.15	133.41
454.34	184.90
454.52	238.73
454.70	259.80
454.89	236.39
455.07	194.26
455.26	234.05
455.44	133.41
455.62	215.33
455.81	159.16
455.99	203.63
456.17	243.42
456.36	245.76
456.54	189.58
456.73	175.54
456.91	135.75
457.09	152.13
457.28	154.48
457.46	177.88
457.64	196.60
457.83	131.07
458.01	224.69
458.19	252.78
458.38	161.50
458.56	166.18
458.74	154.48
458.93	189.58
459.11	262.14
459.29	142.77
459.48	229.37
459.66	220.01
459.84	224.69
460.03	278.52
460.21	210.65
460.39	133.41
460.57	255.12
460.76	201.29
460.94	154.48
461.12	205.97
461.31	231.71
461.49	191.92
461.67	163.84
461.85	159.16
462.04	201.29
462.22	634.29
462.40	236.39
462.59	159.16
462.77	201.29
462.95	276.18
463.13	154.48
463.32	304.27
463.50	138.09
463.68	168.52
463.86	152.13
464.05	187.24
464.23	285.55
464.41	187.24
464.59	229.37
464.78	168.52
464.96	196.60
465.14	217.67
465.32	205.97
465.50	208.31
465.69	145.11
465.87	177.88
466.05	184.90
466.23	231.71
466.41	215.33
466.60	166.18
466.78	187.24
466.96	187.24
467.14	156.82
467.32	215.33
467.51	222.35
467.69	243.42
467.87	236.39
468.05	217.67
468.23	210.65
468.41	290.23
468.60	220.01
468.78	227.03
468.96	180.22
469.14	201.29
469.32	194.26
469.50	222.35
469.69	194.26
469.87	252.78
470.05	250.44
470.23	220.01
470.41	119.37
470.59	166.18
470.77	201.29
470.95	229.37
471.14	271.50
471.32	205.97
471.50	266.82
471.68	203.63
471.86	140.43
472.04	222.35
472.22	198.95
472.40	191.92
472.58	222.35
472.77	187.24
472.95	168.52
473.13	248.10
473.31	259.80
473.49	203.63
473.67	184.90
473.85	175.54
474.03	271.50
474.21	243.42
474.39	229.37
474.57	212.99
474.75	184.90
474.93	227.03
475.12	156.82
475.30	140.43
475.48	173.20
475.66	248.10
475.84	196.60
476.02	227.03
476.20	180.22
476.38	152.13
476.56	264.48
476.74	159.16
476.92	166.18
477.10	285.55
477.28	203.63
477.46	187.24
477.64	236.39
477.82	203.63
478.00	170.86
478.18	180.22
478.36	245.76
478.54	227.03
478.72	203.63
478.90	154.48
479.08	217.67
479.26	182.56
479.44	173.20
479.62	238.73
479.80	198.95
479.98	180.22
480.16	203.63
480.34	231.71
480.52	205.97
480.70	163.84
480.88	217.67
481.06	236.39
481.24	170.86
481.41	276.18
481.59	205.97
481.77	168.52
481.95	159.16
482.13	290.23
482.31	248.10
482.49	266.82
482.67	180.22
482.85	224.69
483.03	227.03
483.21	231.71
483.39	234.05
483.57	212.99
483.74	234.05
483.92	194.26
484.10	259.80
484.28	243.42
484.46	330.02
484.64	224.69
484.82	248.10
485.00	315.97
485.18	262.14
485.35	276.18
485.53	191.92
485.71	264.48
485.89	175.54
486.07	187.24
486.25	297.25
486.43	241.08
486.61	203.63
486.78	229.37
486.96	177.88
487.14	220.01
487.32	248.10
487.50	271.50
487.68	229.37
487.85	180.22
488.03	217.67
488.21	273.84
488.39	241.08
488.57	327.68
488.75	285.55
488.92	449.38
489.10	252.78
489.28	238.73
489.46	245.76
489.64	269.16
489.81	236.39
489.99	224.69
490.17	301.93
490.35	308.95
490.53	243.42
490.70	222.35
490.88	248.10
491.06	201.29
491.24	259.80
491.41	301.93
491.59	184.90
491.77	168.52
491.95	210.65
492.13	182.56
492.30	243.42
492.48	182.56
492.66	220.01
492.84	145.11
493.01	222.35
493.19	241.08
493.37	250.44
493.54	252.78
493.72	292.57
493.90	234.05
494.08	229.37
494.25	215.33
494.43	280.86
494.61	245.76
494.79	236.39
494.96	236.39
495.14	208.31
495.32	203.63
495.49	264.48
495.67	241.08
495.85	271.50
496.02	299.59
496.20	266.82
496.38	252.78
496.55	236.39
496.73	290.23
496.91	168.52
497.09	238.73
497.26	280.86
497.44	212.99
497.62	196.60
497.79	245.76
497.97	262.14
498.14	208.31
498.32	313.63
498.50	280.86
498.67	273.84
498.85	294.91
499.03	231.71
499.20	229.37
499.38	266.82
499.56	259.80
499.73	241.08
499.91	334.70
500.08	234.05
500.26	229.37
500.44	283.20
500.61	292.57
500.79	269.16
500.97	318.31
501.14	266.82
501.32	283.20
501.49	301.93
501.67	212.99
501.84	250.44
502.02	220.01
502.20	297.25
502.37	290.23
502.55	257.46
502.72	238.73
502.90	243.42
503.07	210.65
503.25	297.25
503.43	255.12
503.60	311.29
503.78	280.86
503.95	264.48
504.13	313.63
504.30	250.44
504.48	273.84
504.65	315.97
504.83	264.48
505.01	203.63
505.18	294.91
505.36	231.71
505.53	266.82
505.71	196.60
505.88	257.46
506.06	229.37
506.23	283.20
506.41	229.37
506.58	252.78
506.76	365.12
506.93	280.86
507.11	311.29
507.28	308.95
507.46	257.46
507.63	278.52
507.81	264.48
507.98	234.05
508.16	280.86
508.33	210.65
508.50	285.55
508.68	220.01
508.85	234.05
509.03	227.03
509.20	262.14
509.38	208.31
509.55	259.80
509.73	294.91
509.90	285.55
510.08	236.39
510.25	255.12
510.42	273.84
510.60	301.93
510.77	301.93
510.95	259.80
511.12	243.42
511.30	287.89
511.47	264.48
511.64	322.99
511.82	292.57
511.99	184.90
512.17	234.05
512.34	248.10
512.51	224.69
512.69	266.82
512.86	280.86
513.04	248.10
513.21	243.42
513.38	299.59
513.56	201.29
513.73	262.14
513.90	294.91
514.08	301.93
514.25	292.57
514.43	236.39
514.60	229.37
514.77	273.84
514.95	290.23
515.12	205.97
515.29	198.95
515.47	255.12
515.64	262.14
515.81	252.78
515.99	276.18
516.16	355.76
516.33	273.84
516.51	229.37
516.68	252.78
516.85	149.79
517.03	299.59
517.20	205.97
517.37	203.63
517.54	182.56
517.72	217.67
517.89	234.05
518.06	294.91
518.24	273.84
518.41	231.71
518.58	234.05
518.75	227.03
518.93	231.71
519.10	283.20
519.27	269.16
519.45	257.46
519.62	304.27
519.79	248.10
519.96	245.76
520.14	257.46
520.31	264.48
520.48	250.44
520.65	320.65
520.83	355.76
521.00	290.23
521.17	313.63
521.34	290.23
521.52	266.82
521.69	264.48
521.86	280.86
522.03	238.73
522.20	306.61
522.38	304.27
522.55	238.73
522.72	278.52
522.89	250.44
523.07	322.99
523.24	257.46
523.41	215.33
523.58	243.42
523.75	259.80
523.92	227.03
524.10	245.76
524.27	264.48
524.44	273.84
524.61	280.86
524.78	299.59
524.96	280.86
525.13	292.57
525.30	313.63
525.47	276.18
525.64	269.16
525.81	322.99
525.98	210.65
526.16	229.37
526.33	297.25
526.50	297.25
526.67	297.25
526.84	243.42
527.01	187.24
527.18	224.69
527.36	320.65
527.53	297.25
527.70	266.82
527.87	259.80
528.04	334.70
528.21	259.80
528.38	337.04
528.55	278.52
528.72	344.06
528.89	355.76
529.07	238.73
529.24	210.65
529.41	266.82
529.58	308.95
529.75	276.18
529.92	294.91
530.09	285.55
530.26	255.12
530.43	304.27
530.60	285.55
530.77	269.16
530.94	278.52
531.11	222.35
531.28	304.27
531.46	304.27
531.63	259.80
531.80	262.14
531.97	280.86
532.14	334.70
532.31	306.61
532.48	367.46
532.65	360.44
532.82	444.70
532.99	388.53
533.16	367.46
533.33	290.23
533.50	320.65
533.67	348.74
533.84	390.87
534.01	475.13
534.18	447.04
534.35	341.72
534.52	374.49
534.69	344.06
534.86	339.38
535.03	348.74
535.20	271.50
535.37	355.76
535.54	280.86
535.71	266.82
535.88	255.12
536.05	215.33
536.22	266.82
536.38	222.35
536.55	351.08
536.72	280.86
536.89	273.84
537.06	332.36
537.23	315.97
537.40	315.97
537.57	290.23
537.74	287.89
537.91	315.97
538.08	262.14
538.25	297.25
538.42	365.12
538.59	327.68
538.75	276.18
538.92	388.53
539.09	402.57
539.26	266.82
539.43	493.85
539.60	1086.01
539.77	1603.27
539.94	1717.95
540.11	1188.99
540.28	786.42
540.44	643.65
540.61	486.83
540.78	491.51
540.95	381.51
541.12	524.28
541.29	470.45
541.46	538.32
541.62	526.62
541.79	491.51
541.96	437.68
542.13	454.06
542.30	444.70
542.47	554.71
542.63	437.68
542.80	456.40
542.97	425.98
543.14	472.79
543.31	533.64
543.48	463.43
543.64	416.62
543.81	451.72
543.98	430.66
544.15	402.57
544.32	465.77
544.48	411.93
544.65	449.38
544.82	421.30
544.99	374.49
545.16	524.28
545.32	458.74
545.49	648.33
545.66	873.02
545.83	772.38
546.00	777.06
546.16	606.20
546.33	484.49
546.50	425.98
546.67	379.17
546.83	379.17
547.00	367.46
547.17	330.02
547.34	285.55
547.50	346.40
547.67	353.42
547.84	379.17
548.00	421.30
548.17	411.93
548.34	365.12
548.51	411.93
548.67	447.04
548.84	372.15
549.01	376.83
549.18	325.33
549.34	425.98
549.51	320.65
549.68	327.68
549.84	390.87
550.01	365.12
550.18	388.53
550.34	367.46
550.51	362.78
550.68	337.04
550.84	315.97
551.01	362.78
551.18	341.72
551.34	287.89
551.51	339.38
551.68	332.36
551.84	339.38
552.01	341.72
552.18	348.74
552.34	346.40
552.51	327.68
552.68	318.31
552.84	285.55
553.01	365.12
553.18	245.76
553.34	257.46
553.51	259.80
553.67	299.59
553.84	360.44
554.01	280.86
554.17	339.38
554.34	322.99
554.51	278.52
554.67	292.57
554.84	297.25
555.00	287.89
555.17	313.63
555.33	337.04
555.50	264.48
555.67	393.21
555.83	294.91
556.00	264.48
556.16	470.45
556.33	337.04
556.50	308.95
556.66	280.86
556.83	241.08
556.99	297.25
557.16	320.65
557.32	259.80
557.49	250.44
557.65	273.84
557.82	222.35
557.98	278.52
558.15	248.10
558.32	229.37
558.48	248.10
558.65	248.10
558.81	297.25
558.98	269.16
559.14	318.31
559.31	341.72
559.47	287.89
559.64	262.14
559.80	294.91
559.97	266.82
560.13	269.16
560.30	220.01
560.46	297.25
560.63	330.02
560.79	325.33
560.96	278.52
561.12	290.23
561.29	271.50
561.45	292.57
561.61	285.55
561.78	376.83
561.94	259.80
562.11	269.16
562.27	250.44
562.44	276.18
562.60	346.40
562.77	262.14
562.93	362.78
563.10	276.18
563.26	229.37
563.42	308.95
563.59	292.57
563.75	297.25
563.92	297.25
564.08	292.57
564.24	290.23
564.41	337.04
564.57	248.10
564.74	234.05
564.90	334.70
565.07	313.63
565.23	311.29
565.39	308.95
565.56	292.57
565.72	315.97
565.88	320.65
566.05	285.55
566.21	266.82
566.38	337.04
566.54	297.25
566.70	341.72
566.87	285.55
567.03	236.39
567.19	283.20
567.36	299.59
567.52	234.05
567.68	278.52
567.85	236.39
568.01	278.52
568.17	191.92
568.34	262.14
568.50	248.10
568.66	262.14
568.83	339.38
568.99	362.78
569.15	353.42
569.32	304.27
569.48	287.89
569.64	257.46
569.81	234.05
569.97	224.69
570.13	271.50
570.30	257.46
570.46	229.37
570.62	229.37
570.78	238.73
570.95	234.05
571.11	308.95
571.27	339.38
571.43	306.61
571.60	299.59
571.76	241.08
571.92	273.84
572.09	311.29
572.25	259.80
572.41	264.48
572.57	257.46
572.74	280.86
572.90	322.99
573.06	320.65
573.22	318.31
573.38	250.44
573.55	304.27
573.71	337.04
573.87	264.48
574.03	177.88
574.20	294.91
574.36	433.00
574.52	404.91
574.68	397.89
574.84	332.36
575.01	315.97
575.17	287.89
575.33	285.55
575.49	330.02
575.65	346.40
575.82	390.87
575.98	587.47
576.14	688.12
576.30	739.61
576.46	669.39
576.62	479.81
576.79	526.62
576.95	433.00
577.11	383.85
577.27	269.16
577.43	367.46
577.59	409.59
577.75	360.44
577.92	325.33
578.08	311.29
578.24	259.80
578.40	278.52
578.56	397.89
578.72	416.62
578.88	470.45
579.04	425.98
579.21	404.91
579.37	322.99
579.53	332.36
579.69	390.87
579.85	397.89
580.01	416.62
580.17	447.04
580.33	449.38
580.49	381.51
580.65	486.83
580.82	397.89
580.98	437.68
581.14	409.59
581.30	421.30
581.46	486.83
581.62	594.50
581.78	674.07
581.94	699.82
582.10	547.69
582.26	524.28
582.42	547.69
582.58	489.17
582.74	550.03
582.90	430.66
583.06	493.85
583.22	571.09
583.38	526.62
583.54	573.43
583.70	702.16
583.86	746.63
584.02	889.40
584.18	957.28
584.34	1172.61
584.50	2876.52
584.66	20262.02
584.82	54312.13
584.98	65535.00
585.14	65251.80
585.30	52346.08
585.46	31318.71
585.62	19433.47
585.78	9053.19
585.94	3466.33
586.10	1713.27
586.26	1151.54
586.42	999.41
586.58	873.02
586.74	830.89
586.90	681.10
587.06	645.99
587.22	669.39
587.38	557.05
587.54	1177.29
587.70	3330.58
587.86	5907.51
588.02	7082.46
588.18	5076.62
588.34	3187.81
588.49	2090.10
588.65	1343.47
588.81	655.35
588.97	524.28
589.13	444.70
589.29	372.15
589.45	423.64
589.61	386.19
589.77	440.02
589.93	524.28
590.08	531.30
590.24	484.49
590.40	528.96
590.56	503.22
590.72	437.68
590.88	358.10
591.04	421.30
591.20	428.32
591.35	402.57
591.51	411.93
591.67	351.08
591.83	341.72
591.99	367.46
592.15	355.76
592.31	393.21
592.46	456.40
592.62	433.00
592.78	355.76
592.94	362.78
593.10	353.42
593.26	388.53
593.41	423.64
593.57	433.00
593.73	589.82
593.89	2410.75
594.05	6892.88
594.20	11571.61
594.36	11709.70
594.52	7328.22
594.68	4617.88
594.84	3162.06
594.99	1717.95
595.15	854.30
595.31	615.56
595.47	407.25
595.62	376.83
595.78	400.23
595.94	360.44
596.10	374.49
596.25	390.87
596.41	447.04
596.57	313.63
596.73	383.85
596.88	550.03
597.04	1310.70
597.20	2242.23
597.36	3040.36
597.51	2200.10
597.67	1544.75
597.83	1139.84
597.99	786.42
598.14	533.64
598.30	482.15
598.46	374.49
598.61	454.06
598.77	451.72
598.93	402.57
599.09	341.72
599.24	390.87
599.40	304.27
599.56	313.63
599.71	351.08
599.87	355.76
600.03	283.20
600.18	297.25
600.34	346.40
600.50	280.86
600.65	271.50
600.81	273.84
600.97	234.05
601.12	269.16
601.28	355.76
601.44	285.55
601.59	210.65
601.75	304.27
601.91	327.68
602.06	322.99
602.22	390.87
602.37	709.18
602.53	1561.14
602.69	2827.37
602.84	3112.91
603.00	2303.09
603.16	1528.37
603.31	1069.62
603.47	758.33
603.62	449.38
603.78	395.55
603.94	341.72
604.09	304.27
604.25	346.40
604.40	299.59
604.56	280.86
604.71	311.29
604.87	257.46
605.03	334.70
605.18	330.02
605.34	311.29
605.49	383.85
605.65	376.83
605.80	318.31
605.96	322.99
606.12	409.59
606.27	437.68
606.43	353.42
606.58	367.46
606.74	851.96
606.89	3009.93
607.05	6876.49
607.20	9900.47
607.36	8400.18
607.51	5413.66
607.67	3639.53
607.82	2473.95
607.98	1465.18
608.13	688.12
608.29	617.90
608.44	528.96
608.60	461.09
608.75	526.62
608.91	1100.05
609.06	4678.73
609.22	11286.06
609.37	17479.12
609.53	15597.33
609.68	10284.31
609.84	6530.09
609.99	4482.13
610.15	2495.01
