SpectraSuite Data File
++++++++++++++++++++++++++++++++++++
Date: Fri Oct 04 12:14:21 GMT-05:00 2013
User: price-jones
Dark Spectrum Present: No
Reference Spectrum Present: No
Number of Sampled Component Spectra: 1
Spectrometers: USB2+H05261
Integration Time (usec): 1000000 (USB2+H05261)
Spectra Averaged: 1 (USB2+H05261)
Boxcar Smoothing: 0 (USB2+H05261)
Correct for Electrical Dark: No (USB2+H05261)
Strobe/Lamp Enabled: No (USB2+H05261)
Correct for Detector Non-linearity: No (USB2+H05261)
Correct for Stray Light: No (USB2+H05261)
Number of Pixels in Processed Spectrum: 2048
>>>>>Begin Processed Spectral Data<<<<<
365.73	2.34
365.92	2.34
366.12	2.34
366.32	0.00
366.52	0.00
366.72	411.93
366.91	105.32
367.11	360.44
367.31	170.86
367.51	252.78
367.70	372.15
367.90	430.66
368.10	360.44
368.30	332.36
368.49	74.90
368.69	589.82
368.89	266.82
369.09	117.03
369.28	299.59
369.48	107.66
369.68	191.92
369.87	318.31
370.07	152.13
370.27	552.37
370.47	383.85
370.66	437.68
370.86	636.63
371.06	842.59
371.25	1008.77
371.45	521.94
371.65	716.20
371.84	526.62
372.04	365.12
372.24	547.69
372.44	571.09
372.63	573.43
372.83	915.15
373.03	552.37
373.22	458.74
373.42	533.64
373.62	500.87
373.81	669.39
374.01	880.04
374.21	781.74
374.40	498.53
374.60	823.87
374.79	596.84
374.99	575.77
375.19	758.33
375.38	739.61
375.58	596.84
375.78	856.64
375.97	784.08
376.17	1123.46
376.37	606.20
376.56	758.33
376.76	655.35
376.95	571.09
377.15	861.32
377.35	915.15
377.54	891.74
377.74	568.75
377.93	564.07
378.13	634.29
378.33	786.42
378.52	592.16
378.72	882.38
378.91	755.99
379.11	566.41
379.31	514.92
379.50	484.49
379.70	833.23
379.89	873.02
380.09	603.86
380.28	519.60
380.48	720.88
380.68	468.11
380.87	482.15
381.07	763.01
381.26	896.43
381.46	786.42
381.65	823.87
381.85	589.82
382.04	512.58
382.24	711.52
382.43	521.94
382.63	564.07
382.83	573.43
383.02	798.12
383.22	908.13
383.41	479.81
383.61	636.63
383.80	631.94
384.00	627.26
384.19	596.84
384.39	723.23
384.58	613.22
384.78	711.52
384.97	681.10
385.17	660.03
385.36	587.47
385.56	793.44
385.75	482.15
385.95	702.16
386.14	866.00
386.34	683.44
386.53	770.04
386.72	606.20
386.92	856.64
387.11	814.51
387.31	840.25
387.50	629.60
387.70	484.49
387.89	706.84
388.09	617.90
388.28	543.00
388.48	587.47
388.67	894.08
388.86	685.78
389.06	777.06
389.25	835.57
389.45	746.63
389.64	758.33
389.84	1018.13
390.03	891.74
390.22	767.70
390.42	634.29
390.61	641.31
390.81	589.82
391.00	734.93
391.19	1036.86
391.39	767.70
391.58	823.87
391.78	774.72
391.97	777.06
392.16	648.33
392.36	1018.13
392.55	847.27
392.75	559.39
392.94	526.62
393.13	779.40
393.33	454.06
393.52	538.32
393.71	983.02
393.91	732.59
394.10	592.16
394.29	727.91
394.49	688.12
394.68	945.58
394.88	1043.88
395.07	1018.13
395.26	802.80
395.46	786.42
395.65	915.15
395.84	912.81
396.04	1343.47
396.23	720.88
396.42	634.29
396.62	723.23
396.81	723.23
397.00	723.23
397.19	819.19
397.39	795.78
397.58	1083.67
397.77	791.10
397.97	936.21
398.16	910.47
398.35	1011.11
398.55	788.76
398.74	985.37
398.93	1151.54
399.12	877.70
399.32	1086.01
399.51	868.34
399.70	1064.94
399.90	1109.41
400.09	1050.90
400.28	1235.80
400.47	971.32
400.67	1104.73
400.86	999.41
401.05	1160.91
401.24	1165.59
401.44	1142.18
401.63	1090.69
401.82	1184.31
402.01	887.06
402.21	1170.27
402.40	1088.35
402.59	950.26
402.78	842.59
402.97	968.98
403.17	1078.99
403.36	1074.31
403.55	1006.43
403.74	1032.18
403.93	1074.31
404.13	1198.35
404.32	870.68
404.51	894.08
404.70	1249.85
404.89	966.64
405.09	1516.67
405.28	973.66
405.47	856.64
405.66	1109.41
405.85	1198.35
406.05	957.28
406.24	1029.84
406.43	1041.54
406.62	1130.48
406.81	1441.77
407.00	1287.29
407.20	1034.52
407.39	1057.92
407.58	1004.09
407.77	1149.20
407.96	1394.96
408.15	1331.76
408.34	1284.95
408.54	1196.01
408.73	1151.54
408.92	1188.99
409.11	1345.81
409.30	1247.51
409.49	931.53
409.68	994.73
409.87	1088.35
410.07	1032.18
410.26	1139.84
410.45	1116.44
410.64	966.64
410.83	1191.33
411.02	1046.22
411.21	1348.15
411.40	1348.15
411.59	1170.27
411.78	1071.97
411.98	1153.88
412.17	1121.12
412.36	1163.25
412.55	1086.01
412.74	1373.89
412.93	1516.67
413.12	1034.52
413.31	1472.20
413.50	1329.42
413.69	1224.10
413.88	1596.25
414.07	1226.44
414.26	1268.57
414.45	1146.86
414.64	1362.19
414.83	1345.81
415.02	1387.94
415.22	1320.06
415.41	1416.02
415.60	1144.52
415.79	1261.55
415.98	1528.37
416.17	1315.38
416.36	1313.04
416.55	1111.75
416.74	1369.21
416.93	1540.07
417.12	1259.21
417.31	1259.21
417.50	1144.52
417.69	1703.91
417.88	1294.32
418.07	1158.57
418.26	1303.68
418.45	1235.80
418.64	1591.56
418.83	1483.90
419.02	1451.13
419.21	1324.74
419.39	1275.59
419.58	1160.91
419.77	1235.80
419.96	1570.50
420.15	1624.33
420.34	1299.00
420.53	1458.15
420.72	1621.99
420.91	1411.34
421.10	1413.68
421.29	1483.90
421.48	1511.99
421.67	1554.12
421.86	1277.93
422.05	1270.91
422.24	1226.44
422.43	1238.14
422.61	1207.72
422.80	1315.38
422.99	1296.66
423.18	1214.74
423.37	1657.10
423.56	1425.39
423.75	1502.62
423.94	1212.40
424.13	1282.61
424.32	1235.80
424.50	1343.47
424.69	1336.45
424.88	1570.50
425.07	1273.25
425.26	1390.28
425.45	1430.07
425.64	1186.65
425.83	1310.70
426.01	1556.46
426.20	1488.58
426.39	1280.27
426.58	1287.29
426.77	1203.04
426.96	1401.98
427.15	1324.74
427.33	1282.61
427.52	1411.34
427.71	1301.34
427.90	1472.20
428.09	1191.33
428.28	1093.03
428.46	1231.12
428.65	1390.28
428.84	1437.09
429.03	1629.01
429.22	1184.31
429.40	1046.22
429.59	1001.75
429.78	1582.20
429.97	1062.60
430.16	940.90
430.34	1083.67
430.53	1053.24
430.72	990.05
430.91	1359.85
431.10	1193.67
431.28	1334.11
431.47	1600.93
431.66	1533.05
431.85	1226.44
432.03	1252.19
432.22	1781.15
432.41	1338.79
432.60	1586.88
432.79	1306.02
432.97	1467.52
433.16	1418.36
433.35	1228.78
433.54	1249.85
433.72	1357.51
433.91	1460.49
434.10	1200.69
434.28	1523.69
434.47	1301.34
434.66	1607.95
434.85	1270.91
435.03	1465.18
435.22	1778.81
435.41	1977.75
435.59	1617.31
435.78	1504.96
435.97	1336.45
436.16	1774.13
436.34	1474.54
436.53	1603.27
436.72	1825.62
436.90	1678.16
437.09	1708.59
437.28	1577.52
437.46	1404.32
437.65	1558.80
437.84	1500.28
438.02	1364.53
438.21	1394.96
438.40	1373.89
438.58	1284.95
438.77	1533.05
438.96	1526.03
439.14	1453.47
439.33	1640.72
439.52	1544.75
439.70	1561.14
439.89	1680.50
440.08	1554.12
440.26	1504.96
440.45	1905.20
440.63	1568.16
440.82	1717.95
441.01	1624.33
441.19	1563.48
441.38	1629.01
441.57	1631.35
441.75	1961.37
441.94	1970.73
442.12	1689.87
442.31	1661.78
442.50	1664.12
442.68	1610.29
442.87	1804.55
443.05	1584.54
443.24	1685.19
443.43	1989.46
443.61	2015.20
443.80	1816.26
443.98	1554.12
444.17	1647.74
444.35	1930.94
444.54	1715.61
444.73	1771.79
444.91	2015.20
445.10	1493.26
445.28	1430.07
445.47	1600.93
445.65	1551.78
445.84	1530.71
446.02	1659.44
446.21	1664.12
446.39	1547.09
446.58	1834.98
446.77	1671.14
446.95	1710.93
447.14	1804.55
447.32	2033.93
447.51	1849.02
447.69	1748.38
447.88	1675.82
448.06	1998.82
448.25	1849.02
448.43	1710.93
448.62	1603.27
448.80	1806.89
448.99	1907.54
449.17	1549.43
449.36	1643.06
449.54	1867.75
449.73	1671.14
449.91	1954.35
450.10	1865.41
450.28	2300.75
450.46	2340.54
450.65	2015.20
450.83	1886.47
451.02	1839.66
451.20	1858.39
451.39	1797.53
451.57	1708.59
451.76	1659.44
451.94	1837.32
452.13	1912.22
452.31	1947.33
452.49	1853.70
452.68	1554.12
452.86	1820.94
453.05	2188.40
453.23	1713.27
453.42	1636.03
453.60	1809.23
453.78	1956.69
453.97	1600.93
454.15	1638.38
454.34	1666.46
454.52	1664.12
454.70	2118.18
454.89	1921.58
455.07	1724.97
455.26	1919.24
455.44	2015.20
455.62	1755.40
455.81	1963.71
455.99	1891.15
456.17	1991.80
456.36	1895.83
456.54	1790.51
456.73	1825.62
456.91	1781.15
457.09	1933.28
457.28	2279.68
457.46	1881.79
457.64	1982.43
457.83	1825.62
458.01	1699.23
458.19	1891.15
458.38	1692.21
458.56	1949.67
458.74	1717.95
458.93	1940.30
459.11	1842.00
459.29	1795.19
459.48	1916.90
459.66	2258.62
459.84	1975.41
460.03	2600.34
460.21	2221.17
460.39	1867.75
460.57	2118.18
460.76	2017.54
460.94	2005.84
461.12	2298.41
461.31	2270.32
461.49	1865.41
461.67	1867.75
461.85	2097.12
462.04	1940.30
462.22	6846.07
462.40	2342.88
462.59	2218.83
462.77	1834.98
462.95	1926.26
463.13	1762.42
463.32	2050.31
463.50	2026.90
463.68	2059.67
463.86	1942.64
464.05	1881.79
464.23	2026.90
464.41	2062.01
464.59	1741.36
464.78	1849.02
464.96	1767.10
465.14	1937.96
465.32	1902.86
465.50	2047.97
465.69	2076.06
465.87	1795.19
466.05	1914.56
466.23	1661.78
466.41	1823.28
466.60	1884.13
466.78	1834.98
466.96	2087.76
467.14	1909.88
467.32	2153.29
467.51	2015.20
467.69	1928.60
467.87	2195.42
468.05	1970.73
468.23	2345.22
468.41	2143.93
468.60	1802.21
468.78	1963.71
468.96	2256.28
469.14	2118.18
469.32	1872.43
469.50	1750.72
469.69	2106.48
469.87	1996.48
470.05	1949.67
470.23	1891.15
470.41	1729.66
470.59	1788.17
470.77	1902.86
470.95	2054.99
471.14	2111.16
471.32	1905.20
471.50	2303.09
471.68	2066.69
471.86	2033.93
472.04	1898.17
472.22	2073.71
472.40	1823.28
472.58	1900.52
472.77	1830.30
472.95	1923.92
473.13	2389.69
473.31	2211.81
473.49	1928.60
473.67	1825.62
473.85	2216.49
474.03	2104.14
474.21	2047.97
474.39	2258.62
474.57	2476.29
474.75	2155.63
474.93	1977.75
475.12	1834.98
475.30	1991.80
475.48	2059.67
475.66	2036.27
475.84	2139.25
476.02	2080.74
476.20	2153.29
476.38	2132.23
476.56	2733.75
476.74	2139.25
476.92	2050.31
477.10	2209.47
477.28	2216.49
477.46	2204.78
477.64	2310.11
477.82	2232.87
478.00	2251.60
478.18	2200.10
478.36	2235.21
478.54	2033.93
478.72	2169.68
478.90	2305.43
479.08	2282.02
479.26	2354.58
479.44	2230.53
479.62	2169.68
479.80	2190.74
479.98	2181.38
480.16	2193.08
480.34	2401.39
480.52	2176.70
480.70	2338.20
480.88	2188.40
481.06	2282.02
481.24	2319.47
481.41	2317.13
481.59	2506.71
481.77	2609.70
481.95	2410.75
482.13	2637.78
482.31	2389.69
482.49	2256.28
482.67	2579.27
482.85	2656.51
483.03	2600.34
483.21	2490.33
483.39	2469.27
483.57	2469.27
483.74	2895.24
483.92	2455.22
484.10	2324.15
484.28	2736.09
484.46	3152.70
484.64	2544.16
484.82	2478.63
485.00	2436.50
485.18	2527.78
485.35	2532.46
485.53	2080.74
485.71	2443.52
485.89	2062.01
486.07	2211.81
486.25	2740.77
486.43	2597.99
486.61	2583.95
486.78	2623.74
486.96	2314.79
487.14	2394.37
487.32	2600.34
487.50	2511.39
487.68	2808.64
487.85	2623.74
488.03	2890.56
488.21	2932.69
488.39	2628.42
488.57	2764.17
488.75	2595.65
488.92	5380.89
489.10	2881.20
489.28	3225.26
489.46	2841.41
489.64	2923.33
489.81	2911.63
489.99	3054.40
490.17	2848.43
490.35	3555.27
490.53	2881.20
490.70	2799.28
490.88	3021.63
491.06	2906.95
491.24	3026.31
491.41	3155.04
491.59	2916.31
491.77	2649.49
491.95	2539.48
492.13	2731.41
492.30	2906.95
492.48	2993.55
492.66	3115.25
492.84	2974.82
493.01	3110.57
493.19	2942.05
493.37	3363.35
493.54	3141.00
493.72	3225.26
493.90	3110.57
494.08	3112.91
494.25	3246.32
494.43	3293.13
494.61	3251.00
494.79	3208.87
494.96	3096.53
495.14	3433.57
495.32	2995.89
495.49	3091.85
495.67	3248.66
495.85	3258.03
496.02	3126.96
496.20	3503.78
496.38	3552.93
496.55	3208.87
496.73	3344.63
496.91	3215.90
497.09	3410.16
497.26	3337.60
497.44	3384.41
497.62	3304.84
497.79	3234.62
497.97	3262.71
498.14	3222.92
498.32	3180.79
498.50	3304.84
498.67	3316.54
498.85	3466.33
499.03	3421.86
499.20	3178.45
499.38	3248.66
499.56	3403.14
499.73	3543.57
499.91	3454.63
500.08	3508.46
500.26	3234.62
500.44	3190.15
500.61	3267.39
500.79	3171.43
500.97	3290.79
501.14	3372.71
501.32	3267.39
501.49	3468.67
501.67	3183.13
501.84	3384.41
502.02	3117.59
502.20	3646.55
502.37	3410.16
502.55	3159.72
502.72	3339.94
502.90	3548.25
503.07	3417.18
503.25	3410.16
503.43	3084.83
503.60	3021.63
503.78	3248.66
503.95	3077.80
504.13	3316.54
504.30	3578.68
504.48	3445.27
504.65	3737.84
504.83	3534.21
505.01	3307.18
505.18	3541.23
505.36	3644.21
505.53	3424.20
505.71	3555.27
505.88	3889.97
506.06	3552.93
506.23	3424.20
506.41	3447.61
506.58	3459.31
506.76	3375.05
506.93	3463.99
507.11	3545.91
507.28	3169.09
507.46	3365.69
507.63	3419.52
507.81	3318.88
507.98	3185.47
508.16	3363.35
508.33	3475.70
508.50	3639.53
508.68	3707.41
508.85	3623.15
509.03	3496.76
509.20	3410.16
509.38	3599.74
509.55	3794.01
509.73	3749.54
509.90	3824.44
510.08	3489.74
510.25	3707.41
510.42	3300.16
510.60	3515.48
510.77	3719.11
510.95	3693.37
511.12	3665.28
511.30	3805.71
511.47	3716.77
511.64	4053.81
511.82	3534.21
511.99	3468.67
512.17	3480.38
512.34	3421.86
512.51	3496.76
512.69	3391.44
512.86	3784.65
513.04	3478.04
513.21	3599.74
513.38	3403.14
513.56	3485.06
513.73	3424.20
513.90	3293.13
514.08	3421.86
514.25	3662.94
514.43	3672.30
514.60	3534.21
514.77	3424.20
514.95	3599.74
515.12	3372.71
515.29	3754.22
515.47	3648.90
515.64	3557.61
515.81	3681.66
515.99	3950.82
516.16	3442.93
516.33	3517.83
516.51	3038.02
516.68	2782.90
516.85	3033.33
517.03	3068.44
517.20	3419.52
517.37	3721.45
517.54	3620.81
517.72	3515.48
517.89	3178.45
518.06	3126.96
518.24	3667.62
518.41	3777.62
518.58	3555.27
518.75	3396.12
518.93	3522.51
519.10	3466.33
519.27	3492.08
519.45	3667.62
519.62	3728.47
519.79	3749.54
519.96	3506.12
520.14	3632.51
520.31	3875.93
520.48	3529.53
520.65	3611.45
520.83	3749.54
521.00	3861.88
521.17	3779.97
521.34	3569.32
521.52	3772.94
521.69	3744.86
521.86	3782.31
522.03	3920.40
522.20	3946.14
522.38	3478.04
522.55	3562.30
522.72	3494.42
522.89	3904.01
523.07	4023.38
523.24	3707.41
523.41	3602.08
523.58	3737.84
523.75	3723.79
523.92	3660.60
524.10	3805.71
524.27	3920.40
524.44	3733.15
524.61	4121.68
524.78	3653.58
524.96	3819.75
525.13	3744.86
525.30	3943.80
525.47	3920.40
525.64	3915.72
525.81	3838.48
525.98	3693.37
526.16	3370.37
526.33	3232.28
526.50	3325.90
526.67	3141.00
526.84	3222.92
527.01	3370.37
527.18	3679.32
527.36	3674.64
527.53	3630.17
527.70	3913.38
527.87	3784.65
528.04	4142.75
528.21	3576.34
528.38	3920.40
528.55	4093.60
528.72	4168.49
528.89	4388.50
529.07	3885.29
529.24	3918.06
529.41	3894.65
529.58	3845.50
529.75	3513.14
529.92	3861.88
530.09	3840.82
530.26	3974.23
530.43	3967.21
530.60	3913.38
530.77	3904.01
530.94	4028.06
531.11	3946.14
531.28	3819.75
531.46	3686.34
531.63	3829.12
531.80	4067.85
531.97	3779.97
532.14	3845.50
532.31	3669.96
532.48	3751.88
532.65	3541.23
532.82	3403.14
532.99	3684.00
533.16	3765.92
533.33	3864.22
533.50	3681.66
533.67	3480.38
533.84	3688.68
534.01	3761.24
534.18	3740.18
534.35	3943.80
534.52	3922.74
534.69	4210.62
534.86	3786.99
535.03	3777.62
535.20	3754.22
535.37	4163.81
535.54	4004.66
535.71	3772.94
535.88	4091.26
536.05	3747.20
536.22	3866.56
536.38	3744.86
536.55	3627.83
536.72	3920.40
536.89	3576.34
537.06	3684.00
537.23	3616.13
537.40	3826.78
537.57	3672.30
537.74	3796.35
537.91	3777.62
538.08	3744.86
538.25	3847.84
538.42	3775.28
538.59	3833.80
538.75	3667.62
538.92	3646.55
539.09	3911.04
539.26	3585.70
539.43	3819.75
539.60	3747.20
539.77	3791.67
539.94	3634.85
540.11	3581.02
540.28	3829.12
540.44	3784.65
540.61	3384.41
540.78	3419.52
540.95	3545.91
541.12	4007.00
541.29	3405.48
541.46	3957.85
541.62	3688.68
541.79	3515.48
541.96	3468.67
542.13	3480.38
542.30	3400.80
542.47	3798.69
542.63	3506.12
542.80	3721.45
542.97	3892.31
543.14	3592.72
543.31	3815.07
543.48	3571.66
543.64	3775.28
543.81	3747.20
543.98	3658.26
544.15	3555.27
544.32	3531.87
544.48	3524.85
544.65	3559.95
544.82	3564.64
544.99	3688.68
545.16	3838.48
545.32	3637.19
545.49	3768.26
545.66	3681.66
545.83	3602.08
546.00	3541.23
546.16	3461.65
546.33	3665.28
546.50	3564.64
546.67	4011.68
546.83	3803.37
547.00	3576.34
547.17	3613.79
547.34	3459.31
547.50	3501.44
547.67	3576.34
547.84	3510.80
548.00	3843.16
548.17	3531.87
548.34	3686.34
548.51	3882.95
548.67	3875.93
548.84	3737.84
549.01	3618.47
549.18	3714.43
549.34	3672.30
549.51	3660.60
549.68	3648.90
549.84	3592.72
550.01	3522.51
550.18	4503.19
550.34	4224.67
550.51	3698.05
550.68	4255.09
550.84	3431.23
551.01	3620.81
551.18	3803.37
551.34	3606.77
551.51	3527.19
551.68	3672.30
551.84	3789.33
552.01	3506.12
552.18	3454.63
552.34	3770.60
552.51	3569.32
552.68	3630.17
552.84	3396.12
553.01	3623.15
553.18	3763.58
553.34	3548.25
553.51	3555.27
553.67	3796.35
553.84	4009.34
554.01	3730.81
554.17	3852.52
554.34	3506.12
554.51	3756.56
554.67	3880.61
554.84	3861.88
555.00	3698.05
555.17	3681.66
555.33	3831.46
555.50	3845.50
555.67	3684.00
555.83	3344.63
556.00	3590.38
556.16	5128.11
556.33	3637.19
556.50	3524.85
556.66	3510.80
556.83	3421.86
556.99	3445.27
557.16	3445.27
557.32	3463.99
557.49	3478.04
557.65	3520.17
557.82	3407.82
557.98	3417.18
558.15	3445.27
558.32	3386.76
558.48	3309.52
558.65	3272.07
558.81	3559.95
558.98	3267.39
559.14	3503.78
559.31	3396.12
559.47	3611.45
559.64	3342.28
559.80	3543.57
559.97	3220.58
560.13	3382.07
560.30	3325.90
560.46	3492.08
560.63	3389.10
560.79	3599.74
560.96	3543.57
561.12	3361.01
561.29	3569.32
561.45	3431.23
561.61	3370.37
561.78	4203.60
561.94	3426.54
562.11	3300.16
562.27	3421.86
562.44	3131.64
562.60	3393.78
562.77	3428.88
562.93	3960.19
563.10	3393.78
563.26	3421.86
563.42	3705.07
563.59	3557.61
563.75	3323.56
563.92	3595.06
564.08	3620.81
564.24	3609.11
564.41	3829.12
564.57	3185.47
564.74	3283.77
564.90	3473.36
565.07	3510.80
565.23	3520.17
565.39	3286.11
565.56	3229.94
565.72	3145.68
565.88	3180.79
566.05	3236.96
566.21	3377.39
566.38	3445.27
566.54	3309.52
566.70	3456.97
566.87	3405.48
567.03	3171.43
567.19	3342.28
567.36	3410.16
567.52	3295.47
567.68	3389.10
567.85	3449.95
568.01	3176.11
568.17	3012.27
568.34	3040.36
568.50	3431.23
568.66	3061.42
568.83	3789.33
568.99	3063.76
569.15	3506.12
569.32	3262.71
569.48	3105.89
569.64	3007.59
569.81	3225.26
569.97	3133.98
570.13	3234.62
570.30	3129.30
570.46	3023.97
570.62	3129.30
570.78	3002.91
570.95	2855.45
571.11	3513.14
571.27	3543.57
571.43	2909.29
571.60	3391.44
571.76	3035.67
571.92	3246.32
572.09	3152.70
572.25	3171.43
572.41	3164.40
572.57	3122.27
572.74	3599.74
572.90	3286.11
573.06	3449.95
573.22	3274.41
573.38	3325.90
573.55	3386.76
573.71	3431.23
573.87	3339.94
574.03	3040.36
574.20	3143.34
574.36	3400.80
574.52	3026.31
574.68	3047.38
574.84	3227.60
575.01	3063.76
575.17	3159.72
575.33	3007.59
575.49	3353.99
575.65	3513.14
575.82	3274.41
575.98	3618.47
576.14	3103.55
576.30	3115.25
576.46	3087.17
576.62	3070.78
576.79	3171.43
576.95	3393.78
577.11	2930.35
577.27	2958.44
577.43	3417.18
577.59	3435.91
577.75	3084.83
577.92	2977.16
578.08	2935.03
578.24	2857.79
578.40	3164.40
578.56	3386.76
578.72	3302.50
578.88	3204.19
579.04	2979.50
579.21	3000.57
579.37	3061.42
579.53	3110.57
579.69	3283.77
579.85	3000.57
580.01	3187.81
580.17	3047.38
580.33	3073.12
580.49	3166.74
580.65	3138.66
580.82	3138.66
580.98	3035.67
581.14	3026.31
581.30	3471.01
581.46	3215.90
581.62	3297.81
581.78	2977.16
581.94	3293.13
582.10	2883.54
582.26	3267.39
582.42	3033.33
582.58	3253.34
582.74	3077.80
582.90	3115.25
583.06	3335.26
583.22	2939.71
583.38	3052.06
583.54	2888.22
583.70	3405.48
583.86	3267.39
584.02	3192.49
584.18	3302.50
584.34	3080.14
584.50	3073.12
584.66	3005.25
584.82	2979.50
584.98	3145.68
585.14	2869.50
585.30	3138.66
585.46	3042.70
585.62	2862.48
585.78	3038.02
585.94	3110.57
586.10	2951.42
586.26	3082.49
586.42	3342.28
586.58	3124.62
586.74	3061.42
586.90	3138.66
587.06	3016.95
587.22	3007.59
587.38	2834.39
587.54	2789.92
587.70	3133.98
587.86	3047.38
588.02	2684.59
588.18	2757.15
588.34	2815.66
588.49	2389.69
588.65	2431.82
588.81	2406.07
588.97	2270.32
589.13	2310.11
589.29	2380.32
589.45	2619.06
589.61	2635.44
589.77	2766.51
589.93	2539.48
590.08	2630.76
590.24	2626.08
590.40	2656.51
590.56	2855.45
590.72	2668.21
590.88	2443.52
591.04	2825.03
591.20	2605.02
591.35	3157.38
591.51	2572.25
591.67	2427.14
591.83	2595.65
591.99	2757.15
592.15	2801.62
592.31	2782.90
592.46	2626.08
592.62	2906.95
592.78	2576.93
592.94	2649.49
593.10	2506.71
593.26	2654.17
593.41	2855.45
593.57	2740.77
593.73	2628.42
593.89	2820.35
594.05	2644.81
594.20	2448.20
594.36	2703.32
594.52	2429.48
594.68	2490.33
594.84	2778.22
594.99	2946.73
595.15	2785.24
595.31	2871.84
595.47	3162.06
595.62	2722.04
595.78	2708.00
595.94	2801.62
596.10	3016.95
596.25	2799.28
596.41	2949.08
596.57	2679.91
596.73	2523.10
596.88	2827.37
597.04	2757.15
597.20	2544.16
597.36	2803.96
597.51	2616.72
597.67	2605.02
