SpectraSuite Data File
++++++++++++++++++++++++++++++++++++
Date: Fri Oct 04 11:33:49 GMT-05:00 2013
User: price-jones
Dark Spectrum Present: No
Reference Spectrum Present: No
Number of Sampled Component Spectra: 1
Spectrometers: USB2+H05261
Integration Time (usec): 100000 (USB2+H05261)
Spectra Averaged: 1 (USB2+H05261)
Boxcar Smoothing: 0 (USB2+H05261)
Correct for Electrical Dark: No (USB2+H05261)
Strobe/Lamp Enabled: No (USB2+H05261)
Correct for Detector Non-linearity: No (USB2+H05261)
Correct for Stray Light: No (USB2+H05261)
Number of Pixels in Processed Spectrum: 2048
>>>>>Begin Processed Spectral Data<<<<<
365.73	72.56
365.92	72.56
366.12	72.56
366.32	2.34
366.52	0.00
366.72	0.00
366.91	0.00
367.11	2.34
367.31	0.00
367.51	0.00
367.70	14.04
367.90	11.70
368.10	0.00
368.30	0.00
368.49	0.00
368.69	0.00
368.89	0.00
369.09	0.00
369.28	4.68
369.48	9.36
369.68	21.06
369.87	0.00
370.07	28.09
370.27	63.19
370.47	18.72
370.66	84.26
370.86	42.13
371.06	173.20
371.25	119.37
371.45	46.81
371.65	133.41
371.84	110.01
372.04	88.94
372.24	49.15
372.44	128.73
372.63	168.52
372.83	215.33
373.03	173.20
373.22	163.84
373.42	196.60
373.62	149.79
373.81	189.58
374.01	140.43
374.21	112.35
374.40	119.37
374.60	126.39
374.79	142.77
374.99	177.88
375.19	135.75
375.38	126.39
375.58	124.05
375.78	180.22
375.97	156.82
376.17	217.67
376.37	159.16
376.56	107.66
376.76	44.47
376.95	105.32
377.15	159.16
377.35	142.77
377.54	161.50
377.74	168.52
377.93	154.48
378.13	168.52
378.33	105.32
378.52	175.54
378.72	112.35
378.91	198.95
379.11	126.39
379.31	173.20
379.50	208.31
379.70	156.82
379.89	163.84
380.09	154.48
380.28	51.49
380.48	135.75
380.68	163.84
380.87	124.05
381.07	142.77
381.26	117.03
381.46	201.29
381.65	126.39
381.85	135.75
382.04	133.41
382.24	147.45
382.43	168.52
382.63	168.52
382.83	142.77
383.02	191.92
383.22	184.90
383.41	84.26
383.61	177.88
383.80	86.60
384.00	215.33
384.19	98.30
384.39	121.71
384.58	147.45
384.78	100.64
384.97	203.63
385.17	107.66
385.36	154.48
385.56	173.20
385.75	147.45
385.95	145.11
386.14	147.45
386.34	203.63
386.53	30.43
386.72	142.77
386.92	198.95
387.11	163.84
387.31	163.84
387.50	131.07
387.70	140.43
387.89	124.05
388.09	175.54
388.28	147.45
388.48	53.83
388.67	168.52
388.86	138.09
389.06	84.26
389.25	156.82
389.45	91.28
389.64	131.07
389.84	196.60
390.03	163.84
390.22	140.43
390.42	140.43
390.61	152.13
390.81	184.90
391.00	180.22
391.19	147.45
391.39	175.54
391.58	100.64
391.78	124.05
391.97	79.58
392.16	131.07
392.36	187.24
392.55	208.31
392.75	140.43
392.94	119.37
393.13	208.31
393.33	184.90
393.52	126.39
393.71	140.43
393.91	145.11
394.10	154.48
394.29	173.20
394.49	168.52
394.68	145.11
394.88	154.48
395.07	156.82
395.26	166.18
395.46	58.51
395.65	191.92
395.84	65.54
396.04	201.29
396.23	147.45
396.42	121.71
396.62	187.24
396.81	159.16
397.00	175.54
397.19	180.22
397.39	166.18
397.58	212.99
397.77	159.16
397.97	196.60
398.16	191.92
398.35	142.77
398.55	182.56
398.74	119.37
398.93	203.63
399.12	168.52
399.32	191.92
399.51	163.84
399.70	77.24
399.90	131.07
400.09	212.99
400.28	201.29
400.47	133.41
400.67	138.09
400.86	124.05
401.05	133.41
401.24	177.88
401.44	180.22
401.63	124.05
401.82	168.52
402.01	105.32
402.21	140.43
402.40	135.75
402.59	189.58
402.78	163.84
402.97	205.97
403.17	133.41
403.36	182.56
403.55	114.69
403.74	203.63
403.93	168.52
404.13	269.16
404.32	194.26
404.51	189.58
404.70	163.84
404.89	147.45
405.09	191.92
405.28	198.95
405.47	161.50
405.66	156.82
405.85	166.18
406.05	224.69
406.24	128.73
406.43	198.95
406.62	187.24
406.81	215.33
407.00	112.35
407.20	152.13
407.39	149.79
407.58	149.79
407.77	114.69
407.96	210.65
408.15	173.20
408.34	180.22
408.54	184.90
408.73	243.42
408.92	180.22
409.11	159.16
409.30	166.18
409.49	154.48
409.68	117.03
409.87	201.29
410.07	156.82
410.26	191.92
410.45	170.86
410.64	182.56
410.83	149.79
411.02	154.48
411.21	208.31
411.40	177.88
411.59	201.29
411.78	168.52
411.98	189.58
412.17	203.63
412.36	117.03
412.55	119.37
412.74	119.37
412.93	166.18
413.12	138.09
413.31	110.01
413.50	210.65
413.69	154.48
413.88	140.43
414.07	234.05
414.26	131.07
414.45	154.48
414.64	191.92
414.83	184.90
415.02	182.56
415.22	170.86
415.41	128.73
415.60	114.69
415.79	152.13
415.98	187.24
416.17	168.52
416.36	194.26
416.55	152.13
416.74	58.51
416.93	182.56
417.12	182.56
417.31	222.35
417.50	194.26
417.69	184.90
417.88	222.35
418.07	175.54
418.26	152.13
418.45	173.20
418.64	205.97
418.83	217.67
419.02	180.22
419.21	220.01
419.39	201.29
419.58	184.90
419.77	166.18
419.96	194.26
420.15	243.42
420.34	241.08
420.53	161.50
420.72	203.63
420.91	194.26
421.10	194.26
421.29	182.56
421.48	166.18
421.67	138.09
421.86	154.48
422.05	147.45
422.24	198.95
422.43	189.58
422.61	187.24
422.80	170.86
422.99	187.24
423.18	194.26
423.37	110.01
423.56	187.24
423.75	191.92
423.94	126.39
424.13	147.45
424.32	182.56
424.50	201.29
424.69	156.82
424.88	255.12
425.07	117.03
425.26	196.60
425.45	234.05
425.64	234.05
425.83	173.20
426.01	227.03
426.20	198.95
426.39	180.22
426.58	227.03
426.77	161.50
426.96	159.16
427.15	224.69
427.33	133.41
427.52	163.84
427.71	121.71
427.90	194.26
428.09	131.07
428.28	180.22
428.46	175.54
428.65	177.88
428.84	168.52
429.03	269.16
429.22	208.31
429.40	189.58
429.59	161.50
429.78	236.39
429.97	138.09
430.16	121.71
430.34	173.20
430.53	187.24
430.72	222.35
430.91	175.54
431.10	138.09
431.28	117.03
431.47	107.66
431.66	243.42
431.85	126.39
432.03	173.20
432.22	243.42
432.41	180.22
432.60	224.69
432.79	243.42
432.97	236.39
433.16	208.31
433.35	177.88
433.54	189.58
433.72	215.33
433.91	177.88
434.10	140.43
434.28	229.37
434.47	241.08
434.66	227.03
434.85	147.45
435.03	191.92
435.22	362.78
435.41	472.79
435.59	493.85
435.78	355.76
435.97	238.73
436.16	250.44
436.34	138.09
436.53	112.35
436.72	170.86
436.90	189.58
437.09	191.92
437.28	170.86
437.46	196.60
437.65	152.13
437.84	222.35
438.02	191.92
438.21	313.63
438.40	166.18
438.58	243.42
438.77	140.43
438.96	124.05
439.14	163.84
439.33	224.69
439.52	114.69
439.70	152.13
439.89	117.03
440.08	184.90
440.26	212.99
440.45	276.18
440.63	147.45
440.82	262.14
441.01	238.73
441.19	212.99
441.38	138.09
441.57	191.92
441.75	175.54
441.94	212.99
442.12	238.73
442.31	187.24
442.50	88.94
442.68	203.63
442.87	154.48
443.05	224.69
443.24	170.86
443.43	203.63
443.61	180.22
443.80	196.60
443.98	189.58
444.17	145.11
444.35	198.95
444.54	262.14
444.73	180.22
444.91	224.69
445.10	149.79
445.28	224.69
445.47	187.24
445.65	119.37
445.84	231.71
446.02	145.11
446.21	135.75
446.39	215.33
446.58	170.86
446.77	156.82
446.95	189.58
447.14	212.99
447.32	187.24
447.51	156.82
447.69	257.46
447.88	196.60
448.06	166.18
448.25	95.96
448.43	131.07
448.62	173.20
448.80	180.22
448.99	241.08
449.17	128.73
449.36	112.35
449.54	191.92
449.73	173.20
449.91	238.73
450.10	114.69
450.28	229.37
450.46	276.18
450.65	238.73
450.83	180.22
451.02	224.69
451.20	191.92
451.39	201.29
451.57	170.86
451.76	177.88
451.94	131.07
452.13	227.03
452.31	245.76
452.49	250.44
452.68	166.18
452.86	285.55
453.05	205.97
453.23	184.90
453.42	227.03
453.60	187.24
453.78	231.71
453.97	105.32
454.15	196.60
454.34	102.98
454.52	191.92
454.70	257.46
454.89	245.76
455.07	147.45
455.26	112.35
455.44	161.50
455.62	126.39
455.81	170.86
455.99	149.79
456.17	224.69
456.36	161.50
456.54	196.60
456.73	215.33
456.91	166.18
457.09	194.26
457.28	187.24
457.46	215.33
457.64	168.52
457.83	238.73
458.01	180.22
458.19	266.82
458.38	236.39
458.56	229.37
458.74	184.90
458.93	149.79
459.11	231.71
459.29	114.69
459.48	205.97
459.66	198.95
459.84	224.69
460.03	294.91
460.21	210.65
460.39	212.99
460.57	191.92
460.76	217.67
460.94	238.73
461.12	287.89
461.31	245.76
461.49	138.09
461.67	173.20
461.85	133.41
462.04	175.54
462.22	533.64
462.40	135.75
462.59	154.48
462.77	224.69
462.95	248.10
463.13	191.92
463.32	217.67
463.50	194.26
463.68	180.22
463.86	217.67
464.05	159.16
464.23	210.65
464.41	159.16
464.59	205.97
464.78	201.29
464.96	140.43
465.14	217.67
465.32	170.86
465.50	243.42
465.69	212.99
465.87	184.90
466.05	210.65
466.23	180.22
466.41	166.18
466.60	159.16
466.78	205.97
466.96	243.42
467.14	166.18
467.32	262.14
467.51	236.39
467.69	269.16
467.87	203.63
468.05	173.20
468.23	255.12
468.41	278.52
468.60	243.42
468.78	243.42
468.96	215.33
469.14	140.43
469.32	170.86
469.50	191.92
469.69	220.01
469.87	203.63
470.05	283.20
470.23	301.93
470.41	187.24
470.59	210.65
470.77	196.60
470.95	142.77
471.14	187.24
471.32	201.29
471.50	191.92
471.68	147.45
471.86	194.26
472.04	159.16
472.22	175.54
472.40	198.95
472.58	187.24
472.77	191.92
472.95	140.43
473.13	273.84
473.31	212.99
473.49	161.50
473.67	133.41
473.85	215.33
474.03	252.78
474.21	241.08
474.39	173.20
474.57	273.84
474.75	220.01
474.93	203.63
475.12	173.20
475.30	210.65
475.48	217.67
475.66	222.35
475.84	156.82
476.02	189.58
476.20	184.90
476.38	245.76
476.56	252.78
476.74	124.05
476.92	196.60
477.10	154.48
477.28	301.93
477.46	227.03
477.64	173.20
477.82	187.24
478.00	208.31
478.18	252.78
478.36	255.12
478.54	203.63
478.72	182.56
478.90	135.75
479.08	266.82
479.26	250.44
479.44	210.65
479.62	259.80
479.80	175.54
479.98	224.69
480.16	271.50
480.34	203.63
480.52	262.14
480.70	222.35
480.88	114.69
481.06	198.95
481.24	194.26
481.41	189.58
481.59	191.92
481.77	271.50
481.95	184.90
482.13	257.46
482.31	212.99
482.49	191.92
482.67	259.80
482.85	168.52
483.03	173.20
483.21	250.44
483.39	245.76
483.57	262.14
483.74	304.27
483.92	177.88
484.10	215.33
484.28	215.33
484.46	285.55
484.64	217.67
484.82	210.65
485.00	173.20
485.18	234.05
485.35	248.10
485.53	224.69
485.71	271.50
485.89	273.84
486.07	285.55
486.25	278.52
486.43	250.44
486.61	283.20
486.78	245.76
486.96	191.92
487.14	220.01
487.32	243.42
487.50	163.84
487.68	306.61
487.85	234.05
488.03	271.50
488.21	283.20
488.39	191.92
488.57	294.91
488.75	217.67
488.92	503.22
489.10	266.82
489.28	205.97
489.46	255.12
489.64	283.20
489.81	248.10
489.99	269.16
490.17	290.23
490.35	283.20
490.53	308.95
490.70	196.60
490.88	224.69
491.06	203.63
491.24	306.61
491.41	294.91
491.59	280.86
491.77	264.48
491.95	250.44
492.13	250.44
492.30	285.55
492.48	301.93
492.66	236.39
492.84	308.95
493.01	196.60
493.19	250.44
493.37	238.73
493.54	266.82
493.72	259.80
493.90	273.84
494.08	306.61
494.25	283.20
494.43	280.86
494.61	262.14
494.79	217.67
494.96	259.80
495.14	238.73
495.32	229.37
495.49	276.18
495.67	304.27
495.85	156.82
496.02	205.97
496.20	381.51
496.38	320.65
496.55	285.55
496.73	241.08
496.91	238.73
497.09	290.23
497.26	271.50
497.44	262.14
497.62	222.35
497.79	292.57
497.97	269.16
498.14	234.05
498.32	266.82
498.50	292.57
498.67	166.18
498.85	245.76
499.03	210.65
499.20	262.14
499.38	264.48
499.56	255.12
499.73	257.46
499.91	273.84
500.08	222.35
500.26	287.89
500.44	224.69
500.61	304.27
500.79	231.71
500.97	271.50
501.14	250.44
501.32	220.01
501.49	222.35
501.67	220.01
501.84	339.38
502.02	311.29
502.20	315.97
502.37	278.52
502.55	266.82
502.72	229.37
502.90	290.23
503.07	287.89
503.25	278.52
503.43	297.25
503.60	315.97
503.78	269.16
503.95	306.61
504.13	236.39
504.30	229.37
504.48	264.48
504.65	292.57
504.83	259.80
505.01	205.97
505.18	252.78
505.36	212.99
505.53	245.76
505.71	196.60
505.88	285.55
506.06	205.97
506.23	222.35
506.41	205.97
506.58	245.76
506.76	330.02
506.93	266.82
507.11	273.84
507.28	234.05
507.46	269.16
507.63	294.91
507.81	271.50
507.98	252.78
508.16	227.03
508.33	215.33
508.50	264.48
508.68	269.16
508.85	332.36
509.03	259.80
509.20	276.18
509.38	280.86
509.55	273.84
509.73	301.93
509.90	208.31
510.08	210.65
510.25	269.16
510.42	215.33
510.60	180.22
510.77	283.20
510.95	330.02
511.12	285.55
511.30	292.57
511.47	325.33
511.64	299.59
511.82	255.12
511.99	308.95
512.17	238.73
512.34	231.71
512.51	236.39
512.69	273.84
512.86	320.65
513.04	262.14
513.21	273.84
513.38	271.50
513.56	325.33
513.73	271.50
513.90	227.03
514.08	264.48
514.25	283.20
514.43	252.78
514.60	306.61
514.77	224.69
514.95	290.23
515.12	301.93
515.29	301.93
515.47	346.40
515.64	262.14
515.81	294.91
515.99	271.50
516.16	276.18
516.33	222.35
516.51	234.05
516.68	266.82
516.85	262.14
517.03	259.80
517.20	248.10
517.37	252.78
517.54	304.27
517.72	287.89
517.89	269.16
518.06	287.89
518.24	358.10
518.41	262.14
518.58	355.76
518.75	241.08
518.93	278.52
519.10	334.70
519.27	285.55
519.45	269.16
519.62	304.27
519.79	208.31
519.96	191.92
520.14	285.55
520.31	304.27
520.48	292.57
520.65	264.48
520.83	297.25
521.00	222.35
521.17	318.31
521.34	278.52
521.52	208.31
521.69	280.86
521.86	301.93
522.03	346.40
522.20	311.29
522.38	269.16
522.55	271.50
522.72	163.84
522.89	248.10
523.07	374.49
523.24	252.78
523.41	222.35
523.58	273.84
523.75	283.20
523.92	227.03
524.10	234.05
524.27	210.65
524.44	255.12
524.61	290.23
524.78	173.20
524.96	330.02
525.13	257.46
525.30	334.70
525.47	294.91
525.64	292.57
525.81	243.42
525.98	259.80
526.16	283.20
526.33	262.14
526.50	292.57
526.67	201.29
526.84	210.65
527.01	290.23
527.18	273.84
527.36	280.86
527.53	255.12
527.70	308.95
527.87	285.55
528.04	327.68
528.21	231.71
528.38	292.57
528.55	346.40
528.72	372.15
528.89	325.33
529.07	348.74
529.24	220.01
529.41	266.82
529.58	255.12
529.75	332.36
529.92	297.25
530.09	299.59
530.26	311.29
530.43	390.87
530.60	334.70
530.77	224.69
530.94	252.78
531.11	299.59
531.28	348.74
531.46	308.95
531.63	308.95
531.80	334.70
531.97	243.42
532.14	212.99
532.31	322.99
532.48	360.44
532.65	421.30
532.82	365.12
532.99	355.76
533.16	348.74
533.33	341.72
533.50	348.74
533.67	290.23
533.84	414.27
534.01	409.59
534.18	404.91
534.35	327.68
534.52	276.18
534.69	322.99
534.86	273.84
535.03	283.20
535.20	266.82
535.37	315.97
535.54	360.44
535.71	278.52
535.88	344.06
536.05	292.57
536.22	276.18
536.38	266.82
536.55	346.40
536.72	365.12
536.89	332.36
537.06	271.50
537.23	283.20
537.40	395.55
537.57	325.33
537.74	273.84
537.91	327.68
538.08	386.19
538.25	365.12
538.42	362.78
538.59	315.97
538.75	297.25
538.92	407.25
539.09	409.59
539.26	346.40
539.43	561.73
539.60	957.28
539.77	1348.15
539.94	1416.02
540.11	966.64
540.28	763.01
540.44	676.41
540.61	498.53
540.78	514.92
540.95	559.39
541.12	622.58
541.29	589.82
541.46	638.97
541.62	629.60
541.79	660.03
541.96	594.50
542.13	589.82
542.30	587.47
542.47	512.58
542.63	519.60
542.80	540.66
542.97	564.07
543.14	601.52
543.31	655.35
543.48	552.37
543.64	547.69
543.81	540.66
543.98	559.39
544.15	512.58
544.32	617.90
544.48	585.13
544.65	575.77
544.82	505.56
544.99	545.34
545.16	603.86
545.32	575.77
545.49	901.11
545.66	1160.91
545.83	1184.31
546.00	1062.60
546.16	854.30
546.33	601.52
546.50	594.50
546.67	505.56
546.83	479.81
547.00	510.24
547.17	454.06
547.34	470.45
547.50	414.27
547.67	433.00
547.84	503.22
548.00	498.53
548.17	414.27
548.34	404.91
548.51	470.45
548.67	407.25
548.84	362.78
549.01	435.34
549.18	360.44
549.34	358.10
549.51	372.15
549.68	372.15
549.84	339.38
550.01	315.97
550.18	458.74
550.34	404.91
550.51	381.51
550.68	437.68
550.84	360.44
551.01	348.74
551.18	379.17
551.34	299.59
551.51	320.65
551.68	365.12
551.84	285.55
552.01	365.12
552.18	327.68
552.34	318.31
552.51	376.83
552.68	313.63
552.84	395.55
553.01	285.55
553.18	369.80
553.34	337.04
553.51	278.52
553.67	332.36
553.84	390.87
554.01	332.36
554.17	313.63
554.34	283.20
554.51	353.42
554.67	353.42
554.84	325.33
555.00	318.31
555.17	227.03
555.33	332.36
555.50	297.25
555.67	334.70
555.83	252.78
556.00	294.91
556.16	402.57
556.33	257.46
556.50	341.72
556.66	269.16
556.83	245.76
556.99	262.14
557.16	306.61
557.32	318.31
557.49	262.14
557.65	285.55
557.82	259.80
557.98	330.02
558.15	266.82
558.32	283.20
558.48	208.31
558.65	243.42
558.81	320.65
558.98	257.46
559.14	227.03
559.31	292.57
559.47	210.65
559.64	269.16
559.80	304.27
559.97	280.86
560.13	332.36
560.30	205.97
560.46	236.39
560.63	269.16
560.79	222.35
560.96	283.20
561.12	241.08
561.29	231.71
561.45	245.76
561.61	341.72
561.78	393.21
561.94	313.63
562.11	278.52
562.27	304.27
562.44	290.23
562.60	292.57
562.77	210.65
562.93	332.36
563.10	301.93
563.26	278.52
563.42	280.86
563.59	276.18
563.75	238.73
563.92	285.55
564.08	208.31
564.24	255.12
564.41	397.89
564.57	327.68
564.74	203.63
564.90	327.68
565.07	290.23
565.23	294.91
565.39	351.08
565.56	294.91
565.72	346.40
565.88	287.89
566.05	266.82
566.21	264.48
566.38	269.16
566.54	369.80
566.70	262.14
566.87	297.25
567.03	227.03
567.19	285.55
567.36	332.36
567.52	334.70
567.68	250.44
567.85	325.33
568.01	322.99
568.17	248.10
568.34	203.63
568.50	271.50
568.66	297.25
568.83	407.25
568.99	322.99
569.15	320.65
569.32	248.10
569.48	252.78
569.64	229.37
569.81	245.76
569.97	294.91
570.13	325.33
570.30	238.73
570.46	257.46
570.62	262.14
570.78	271.50
570.95	224.69
571.11	227.03
571.27	273.84
571.43	280.86
571.60	283.20
571.76	257.46
571.92	262.14
572.09	189.58
572.25	262.14
572.41	304.27
572.57	243.42
572.74	264.48
572.90	327.68
573.06	259.80
573.22	351.08
573.38	245.76
573.55	290.23
573.71	271.50
573.87	344.06
574.03	283.20
574.20	227.03
574.36	292.57
574.52	388.53
574.68	374.49
574.84	341.72
575.01	315.97
575.17	297.25
575.33	255.12
575.49	229.37
575.65	355.76
575.82	367.46
575.98	507.90
576.14	624.92
576.30	655.35
576.46	573.43
576.62	559.39
576.79	491.51
576.95	505.56
577.11	348.74
577.27	353.42
577.43	430.66
577.59	433.00
577.75	285.55
577.92	227.03
578.08	229.37
578.24	278.52
578.40	334.70
578.56	409.59
578.72	407.25
578.88	421.30
579.04	428.32
579.21	367.46
579.37	348.74
579.53	355.76
579.69	374.49
579.85	395.55
580.01	461.09
580.17	428.32
580.33	479.81
580.49	444.70
580.65	374.49
580.82	433.00
580.98	433.00
581.14	390.87
581.30	402.57
581.46	433.00
581.62	594.50
581.78	592.16
581.94	564.07
582.10	517.26
582.26	430.66
582.42	486.83
582.58	505.56
582.74	447.04
582.90	512.58
583.06	550.03
583.22	489.17
583.38	543.00
583.54	547.69
583.70	617.90
583.86	636.63
584.02	702.16
584.18	873.02
584.34	1142.18
584.50	2373.30
584.66	16882.28
584.82	47407.55
584.98	59040.01
585.14	55908.38
585.30	38653.95
585.46	23580.90
585.62	14590.90
585.78	6930.33
585.94	2736.09
586.10	1439.43
586.26	959.62
586.42	830.89
586.58	730.25
586.74	617.90
586.90	645.99
587.06	725.57
587.22	629.60
587.38	629.60
587.54	1071.97
587.70	2878.86
587.86	4716.18
588.02	4983.00
588.18	3658.26
588.34	2455.22
588.49	1624.33
588.65	1090.69
588.81	617.90
588.97	470.45
589.13	327.68
589.29	463.43
589.45	416.62
589.61	430.66
589.77	491.51
589.93	489.17
590.08	477.47
590.24	491.51
590.40	554.71
590.56	517.26
590.72	362.78
590.88	369.80
591.04	414.27
591.20	351.08
591.35	369.80
591.51	404.91
591.67	362.78
591.83	367.46
591.99	442.36
592.15	334.70
592.31	430.66
592.46	402.57
592.62	400.23
592.78	365.12
592.94	465.77
593.10	374.49
593.26	411.93
593.41	388.53
593.57	500.87
593.73	620.24
593.89	2129.89
594.05	5668.78
594.20	8734.88
594.36	8086.55
594.52	5203.01
594.68	3391.44
594.84	2289.04
594.99	1378.58
595.15	812.17
595.31	477.47
595.47	379.17
595.62	440.02
595.78	402.57
595.94	383.85
596.10	367.46
596.25	367.46
596.41	381.51
596.57	299.59
596.73	383.85
596.88	543.00
597.04	1149.20
597.20	1865.41
597.36	2207.13
597.51	1746.04
597.67	1228.78
597.83	903.45
597.99	706.84
598.14	463.43
598.30	395.55
598.46	409.59
598.61	510.24
598.77	376.83
598.93	346.40
599.09	430.66
599.24	341.72
599.40	397.89
599.56	344.06
599.71	266.82
599.87	397.89
600.03	346.40
600.18	379.17
600.34	339.38
600.50	351.08
600.65	271.50
600.81	334.70
600.97	287.89
601.12	348.74
601.28	306.61
601.44	339.38
601.59	318.31
601.75	351.08
601.91	269.16
602.06	280.86
602.22	388.53
602.37	580.45
602.53	1458.15
602.69	2209.47
602.84	2317.13
603.00	1654.76
603.16	1280.27
603.31	858.98
603.47	610.88
603.62	376.83
603.78	395.55
603.94	416.62
604.09	367.46
604.25	414.27
604.40	285.55
604.56	315.97
604.71	306.61
604.87	273.84
605.03	285.55
605.18	283.20
605.34	308.95
605.49	292.57
605.65	423.64
605.80	280.86
605.96	337.04
606.12	334.70
606.27	397.89
606.43	353.42
606.58	395.55
606.74	746.63
606.89	2616.72
607.05	5497.92
607.20	7227.57
607.36	5827.93
607.51	4114.66
607.67	2785.24
607.82	1926.26
607.98	1188.99
608.13	704.50
608.29	512.58
608.44	510.24
608.60	465.77
608.75	603.86
608.91	933.87
609.06	4117.00
609.22	9425.34
609.37	12674.00
609.53	10902.22
609.68	7651.21
609.84	4908.10
609.99	3473.36
