SpectraSuite Data File
++++++++++++++++++++++++++++++++++++
Date: Fri Oct 04 11:34:02 GMT-05:00 2013
User: price-jones
Dark Spectrum Present: No
Reference Spectrum Present: No
Number of Sampled Component Spectra: 1
Spectrometers: USB2+H05261
Integration Time (usec): 100000 (USB2+H05261)
Spectra Averaged: 1 (USB2+H05261)
Boxcar Smoothing: 0 (USB2+H05261)
Correct for Electrical Dark: No (USB2+H05261)
Strobe/Lamp Enabled: No (USB2+H05261)
Correct for Detector Non-linearity: No (USB2+H05261)
Correct for Stray Light: No (USB2+H05261)
Number of Pixels in Processed Spectrum: 2048
>>>>>Begin Processed Spectral Data<<<<<
365.73	32.77
365.92	32.77
366.12	32.77
366.32	0.00
366.52	0.00
366.72	25.75
366.91	0.00
367.11	35.11
367.31	0.00
367.51	0.00
367.70	0.00
367.90	0.00
368.10	0.00
368.30	46.81
368.49	0.00
368.69	0.00
368.89	14.04
369.09	0.00
369.28	2.34
369.48	0.00
369.68	28.09
369.87	65.54
370.07	0.00
370.27	105.32
370.47	51.49
370.66	35.11
370.86	86.60
371.06	81.92
371.25	91.28
371.45	2.34
371.65	88.94
371.84	131.07
372.04	77.24
372.24	142.77
372.44	114.69
372.63	119.37
372.83	131.07
373.03	138.09
373.22	177.88
373.42	187.24
373.62	110.01
373.81	149.79
374.01	145.11
374.21	212.99
374.40	91.28
374.60	168.52
374.79	149.79
374.99	220.01
375.19	189.58
375.38	154.48
375.58	124.05
375.78	182.56
375.97	173.20
376.17	182.56
376.37	208.31
376.56	42.13
376.76	163.84
376.95	119.37
377.15	98.30
377.35	156.82
377.54	128.73
377.74	175.54
377.93	152.13
378.13	147.45
378.33	138.09
378.52	100.64
378.72	189.58
378.91	156.82
379.11	100.64
379.31	128.73
379.50	84.26
379.70	145.11
379.89	210.65
380.09	156.82
380.28	117.03
380.48	220.01
380.68	154.48
380.87	133.41
381.07	131.07
381.26	220.01
381.46	184.90
381.65	163.84
381.85	124.05
382.04	126.39
382.24	156.82
382.43	149.79
382.63	177.88
382.83	156.82
383.02	126.39
383.22	121.71
383.41	145.11
383.61	124.05
383.80	135.75
384.00	149.79
384.19	135.75
384.39	156.82
384.58	182.56
384.78	126.39
384.97	107.66
385.17	131.07
385.36	131.07
385.56	177.88
385.75	110.01
385.95	114.69
386.14	168.52
386.34	145.11
386.53	166.18
386.72	65.54
386.92	138.09
387.11	131.07
387.31	142.77
387.50	98.30
387.70	128.73
387.89	110.01
388.09	95.96
388.28	121.71
388.48	98.30
388.67	147.45
388.86	184.90
389.06	124.05
389.25	182.56
389.45	161.50
389.64	81.92
389.84	135.75
390.03	126.39
390.22	170.86
390.42	105.32
390.61	105.32
390.81	46.81
391.00	117.03
391.19	203.63
391.39	149.79
391.58	156.82
391.78	147.45
391.97	145.11
392.16	159.16
392.36	149.79
392.55	131.07
392.75	112.35
392.94	187.24
393.13	152.13
393.33	102.98
393.52	119.37
393.71	222.35
393.91	227.03
394.10	163.84
394.29	147.45
394.49	182.56
394.68	241.08
394.88	220.01
395.07	138.09
395.26	194.26
395.46	126.39
395.65	114.69
395.84	140.43
396.04	278.52
396.23	119.37
396.42	131.07
396.62	84.26
396.81	191.92
397.00	91.28
397.19	182.56
397.39	182.56
397.58	121.71
397.77	142.77
397.97	205.97
398.16	163.84
398.35	194.26
398.55	102.98
398.74	133.41
398.93	177.88
399.12	161.50
399.32	180.22
399.51	161.50
399.70	60.85
399.90	126.39
400.09	147.45
400.28	168.52
400.47	131.07
400.67	152.13
400.86	166.18
401.05	133.41
401.24	154.48
401.44	156.82
401.63	212.99
401.82	189.58
402.01	154.48
402.21	131.07
402.40	194.26
402.59	112.35
402.78	177.88
402.97	140.43
403.17	161.50
403.36	205.97
403.55	175.54
403.74	198.95
403.93	170.86
404.13	238.73
404.32	98.30
404.51	229.37
404.70	191.92
404.89	138.09
405.09	166.18
405.28	135.75
405.47	147.45
405.66	131.07
405.85	114.69
406.05	149.79
406.24	119.37
406.43	135.75
406.62	173.20
406.81	177.88
407.00	161.50
407.20	77.24
407.39	133.41
407.58	252.78
407.77	124.05
407.96	234.05
408.15	194.26
408.34	168.52
408.54	156.82
408.73	156.82
408.92	175.54
409.11	114.69
409.30	184.90
409.49	128.73
409.68	236.39
409.87	175.54
410.07	100.64
410.26	98.30
410.45	124.05
410.64	86.60
410.83	110.01
411.02	105.32
411.21	229.37
411.40	124.05
411.59	220.01
411.78	95.96
411.98	152.13
412.17	65.54
412.36	161.50
412.55	180.22
412.74	163.84
412.93	177.88
413.12	156.82
413.31	102.98
413.50	152.13
413.69	128.73
413.88	187.24
414.07	271.50
414.26	117.03
414.45	147.45
414.64	154.48
414.83	140.43
415.02	128.73
415.22	156.82
415.41	152.13
415.60	170.86
415.79	124.05
415.98	205.97
416.17	154.48
416.36	189.58
416.55	180.22
416.74	184.90
416.93	168.52
417.12	205.97
417.31	203.63
417.50	161.50
417.69	276.18
417.88	201.29
418.07	208.31
418.26	234.05
418.45	180.22
418.64	231.71
418.83	257.46
419.02	212.99
419.21	163.84
419.39	285.55
419.58	208.31
419.77	252.78
419.96	222.35
420.15	170.86
420.34	194.26
420.53	149.79
420.72	229.37
420.91	182.56
421.10	100.64
421.29	145.11
421.48	154.48
421.67	147.45
421.86	166.18
422.05	105.32
422.24	147.45
422.43	205.97
422.61	152.13
422.80	250.44
422.99	149.79
423.18	217.67
423.37	189.58
423.56	203.63
423.75	138.09
423.94	147.45
424.13	135.75
424.32	93.62
424.50	121.71
424.69	138.09
424.88	173.20
425.07	222.35
425.26	210.65
425.45	243.42
425.64	189.58
425.83	170.86
426.01	208.31
426.20	189.58
426.39	187.24
426.58	180.22
426.77	152.13
426.96	147.45
427.15	201.29
427.33	163.84
427.52	173.20
427.71	138.09
427.90	175.54
428.09	175.54
428.28	205.97
428.46	140.43
428.65	156.82
428.84	159.16
429.03	166.18
429.22	175.54
429.40	138.09
429.59	194.26
429.78	236.39
429.97	147.45
430.16	145.11
430.34	149.79
430.53	142.77
430.72	98.30
430.91	98.30
431.10	184.90
431.28	220.01
431.47	161.50
431.66	175.54
431.85	142.77
432.03	147.45
432.22	147.45
432.41	182.56
432.60	236.39
432.79	205.97
432.97	229.37
433.16	280.86
433.35	194.26
433.54	217.67
433.72	262.14
433.91	245.76
434.10	224.69
434.28	210.65
434.47	255.12
434.66	217.67
434.85	222.35
435.03	229.37
435.22	383.85
435.41	416.62
435.59	465.77
435.78	287.89
435.97	238.73
436.16	227.03
436.34	154.48
436.53	133.41
436.72	170.86
436.90	163.84
437.09	203.63
437.28	241.08
437.46	156.82
437.65	182.56
437.84	231.71
438.02	163.84
438.21	184.90
438.40	119.37
438.58	60.85
438.77	177.88
438.96	154.48
439.14	173.20
439.33	220.01
439.52	189.58
439.70	131.07
439.89	177.88
440.08	180.22
440.26	243.42
440.45	241.08
440.63	177.88
440.82	177.88
441.01	191.92
441.19	147.45
441.38	203.63
441.57	203.63
441.75	187.24
441.94	245.76
442.12	252.78
442.31	250.44
442.50	196.60
442.68	212.99
442.87	203.63
443.05	152.13
443.24	175.54
443.43	203.63
443.61	229.37
443.80	245.76
443.98	156.82
444.17	196.60
444.35	98.30
444.54	189.58
444.73	212.99
444.91	224.69
445.10	168.52
445.28	283.20
445.47	262.14
445.65	142.77
445.84	196.60
446.02	170.86
446.21	112.35
446.39	175.54
446.58	194.26
446.77	180.22
446.95	170.86
447.14	124.05
447.32	189.58
447.51	229.37
447.69	168.52
447.88	212.99
448.06	222.35
448.25	205.97
448.43	173.20
448.62	184.90
448.80	145.11
448.99	170.86
449.17	145.11
449.36	182.56
449.54	222.35
449.73	100.64
449.91	149.79
450.10	124.05
450.28	301.93
450.46	210.65
450.65	180.22
450.83	189.58
451.02	163.84
451.20	262.14
451.39	198.95
451.57	147.45
451.76	156.82
451.94	212.99
452.13	159.16
452.31	187.24
452.49	196.60
452.68	234.05
452.86	191.92
453.05	243.42
453.23	159.16
453.42	215.33
453.60	138.09
453.78	166.18
453.97	117.03
454.15	154.48
454.34	191.92
454.52	205.97
454.70	154.48
454.89	191.92
455.07	215.33
455.26	238.73
455.44	208.31
455.62	191.92
455.81	105.32
455.99	245.76
456.17	175.54
456.36	175.54
456.54	196.60
456.73	173.20
456.91	222.35
457.09	191.92
457.28	243.42
457.46	170.86
457.64	269.16
457.83	168.52
458.01	203.63
458.19	145.11
458.38	168.52
458.56	180.22
458.74	229.37
458.93	191.92
459.11	163.84
459.29	264.48
459.48	257.46
459.66	231.71
459.84	191.92
460.03	365.12
460.21	138.09
460.39	124.05
460.57	220.01
460.76	189.58
460.94	159.16
461.12	166.18
461.31	227.03
461.49	133.41
461.67	161.50
461.85	208.31
462.04	138.09
462.22	603.86
462.40	231.71
462.59	210.65
462.77	168.52
462.95	182.56
463.13	168.52
463.32	241.08
463.50	177.88
463.68	203.63
463.86	217.67
464.05	227.03
464.23	205.97
464.41	170.86
464.59	238.73
464.78	145.11
464.96	163.84
465.14	215.33
465.32	145.11
465.50	198.95
465.69	227.03
465.87	182.56
466.05	252.78
466.23	156.82
466.41	205.97
466.60	208.31
466.78	138.09
466.96	227.03
467.14	229.37
467.32	203.63
467.51	257.46
467.69	227.03
467.87	278.52
468.05	189.58
468.23	264.48
468.41	145.11
468.60	135.75
468.78	208.31
468.96	149.79
469.14	198.95
469.32	166.18
469.50	222.35
469.69	259.80
469.87	257.46
470.05	212.99
470.23	276.18
470.41	180.22
470.59	180.22
470.77	133.41
470.95	145.11
471.14	266.82
471.32	215.33
471.50	203.63
471.68	168.52
471.86	210.65
472.04	205.97
472.22	177.88
472.40	135.75
472.58	173.20
472.77	184.90
472.95	170.86
473.13	224.69
473.31	264.48
473.49	182.56
473.67	161.50
473.85	203.63
474.03	243.42
474.21	243.42
474.39	222.35
474.57	220.01
474.75	215.33
474.93	177.88
475.12	163.84
475.30	203.63
475.48	196.60
475.66	173.20
475.84	250.44
476.02	166.18
476.20	210.65
476.38	196.60
476.56	250.44
476.74	187.24
476.92	191.92
477.10	189.58
477.28	212.99
477.46	156.82
477.64	262.14
477.82	220.01
478.00	117.03
478.18	191.92
478.36	196.60
478.54	220.01
478.72	313.63
478.90	182.56
479.08	222.35
479.26	177.88
479.44	220.01
479.62	201.29
479.80	266.82
479.98	227.03
480.16	191.92
480.34	205.97
480.52	177.88
480.70	212.99
480.88	287.89
481.06	236.39
481.24	238.73
481.41	215.33
481.59	177.88
481.77	203.63
481.95	198.95
482.13	203.63
482.31	215.33
482.49	212.99
482.67	215.33
482.85	241.08
483.03	222.35
483.21	238.73
483.39	210.65
483.57	285.55
483.74	266.82
483.92	215.33
484.10	250.44
484.28	250.44
484.46	285.55
484.64	248.10
484.82	248.10
485.00	266.82
485.18	238.73
485.35	250.44
485.53	234.05
485.71	208.31
485.89	231.71
486.07	241.08
486.25	332.36
486.43	276.18
486.61	273.84
486.78	208.31
486.96	217.67
487.14	280.86
487.32	229.37
487.50	259.80
487.68	259.80
487.85	194.26
488.03	210.65
488.21	304.27
488.39	245.76
488.57	337.04
488.75	334.70
488.92	514.92
489.10	269.16
489.28	287.89
489.46	198.95
489.64	280.86
489.81	248.10
489.99	276.18
490.17	191.92
490.35	273.84
490.53	250.44
490.70	262.14
490.88	308.95
491.06	229.37
491.24	198.95
491.41	229.37
491.59	332.36
491.77	248.10
491.95	276.18
492.13	273.84
492.30	236.39
492.48	351.08
492.66	262.14
492.84	238.73
493.01	198.95
493.19	170.86
493.37	299.59
493.54	243.42
493.72	234.05
493.90	266.82
494.08	283.20
494.25	245.76
494.43	271.50
494.61	292.57
494.79	196.60
494.96	191.92
495.14	231.71
495.32	224.69
495.49	287.89
495.67	257.46
495.85	245.76
496.02	266.82
496.20	220.01
496.38	280.86
496.55	269.16
496.73	227.03
496.91	245.76
497.09	243.42
497.26	248.10
497.44	245.76
497.62	269.16
497.79	262.14
497.97	248.10
498.14	189.58
498.32	278.52
498.50	280.86
498.67	215.33
498.85	229.37
499.03	250.44
499.20	198.95
499.38	217.67
499.56	245.76
499.73	248.10
499.91	294.91
500.08	311.29
500.26	220.01
500.44	236.39
500.61	229.37
500.79	170.86
500.97	294.91
501.14	276.18
501.32	327.68
501.49	241.08
501.67	259.80
501.84	299.59
502.02	234.05
502.20	285.55
502.37	243.42
502.55	229.37
502.72	304.27
502.90	322.99
503.07	271.50
503.25	313.63
503.43	210.65
503.60	215.33
503.78	220.01
503.95	262.14
504.13	210.65
504.30	276.18
504.48	290.23
504.65	255.12
504.83	304.27
505.01	238.73
505.18	220.01
505.36	273.84
505.53	271.50
505.71	273.84
505.88	273.84
506.06	238.73
506.23	292.57
506.41	184.90
506.58	217.67
506.76	234.05
506.93	241.08
507.11	299.59
507.28	220.01
507.46	177.88
507.63	278.52
507.81	250.44
507.98	287.89
508.16	271.50
508.33	194.26
508.50	220.01
508.68	297.25
508.85	229.37
509.03	252.78
509.20	285.55
509.38	264.48
509.55	245.76
509.73	271.50
509.90	299.59
510.08	238.73
510.25	287.89
510.42	280.86
510.60	210.65
510.77	238.73
510.95	301.93
511.12	259.80
511.30	341.72
511.47	273.84
511.64	341.72
511.82	252.78
511.99	248.10
512.17	294.91
512.34	227.03
512.51	327.68
512.69	283.20
512.86	313.63
513.04	257.46
513.21	236.39
513.38	241.08
513.56	231.71
513.73	250.44
513.90	234.05
514.08	273.84
514.25	255.12
514.43	250.44
514.60	273.84
514.77	283.20
514.95	220.01
515.12	257.46
515.29	299.59
515.47	273.84
515.64	287.89
515.81	266.82
515.99	304.27
516.16	308.95
516.33	217.67
516.51	224.69
516.68	255.12
516.85	273.84
517.03	201.29
517.20	287.89
517.37	241.08
517.54	252.78
517.72	297.25
517.89	180.22
518.06	187.24
518.24	285.55
518.41	283.20
518.58	287.89
518.75	294.91
518.93	266.82
519.10	308.95
519.27	278.52
519.45	322.99
519.62	297.25
519.79	297.25
519.96	149.79
520.14	243.42
520.31	297.25
520.48	248.10
520.65	325.33
520.83	304.27
521.00	252.78
521.17	297.25
521.34	182.56
521.52	243.42
521.69	283.20
521.86	243.42
522.03	243.42
522.20	280.86
522.38	320.65
522.55	250.44
522.72	248.10
522.89	273.84
523.07	269.16
523.24	250.44
523.41	283.20
523.58	276.18
523.75	306.61
523.92	198.95
524.10	245.76
524.27	215.33
524.44	217.67
524.61	250.44
524.78	311.29
524.96	308.95
525.13	287.89
525.30	208.31
525.47	208.31
525.64	290.23
525.81	271.50
525.98	311.29
526.16	177.88
526.33	250.44
526.50	248.10
526.67	318.31
526.84	243.42
527.01	269.16
527.18	297.25
527.36	269.16
527.53	222.35
527.70	287.89
527.87	248.10
528.04	259.80
528.21	252.78
528.38	393.21
528.55	222.35
528.72	285.55
528.89	320.65
529.07	250.44
529.24	292.57
529.41	353.42
529.58	205.97
529.75	346.40
529.92	280.86
530.09	271.50
530.26	304.27
530.43	264.48
530.60	201.29
530.77	276.18
530.94	292.57
531.11	306.61
531.28	243.42
531.46	285.55
531.63	287.89
531.80	234.05
531.97	271.50
532.14	245.76
532.31	292.57
532.48	278.52
532.65	421.30
532.82	262.14
532.99	358.10
533.16	381.51
533.33	355.76
533.50	360.44
533.67	351.08
533.84	404.91
534.01	475.13
534.18	395.55
534.35	330.02
534.52	301.93
534.69	325.33
534.86	266.82
535.03	320.65
535.20	273.84
535.37	294.91
535.54	283.20
535.71	320.65
535.88	313.63
536.05	215.33
536.22	322.99
536.38	311.29
536.55	301.93
536.72	273.84
536.89	283.20
537.06	292.57
537.23	180.22
537.40	266.82
537.57	294.91
537.74	299.59
537.91	346.40
538.08	339.38
538.25	388.53
538.42	280.86
538.59	271.50
538.75	264.48
538.92	304.27
539.09	386.19
539.26	248.10
539.43	578.11
539.60	964.30
539.77	1355.17
539.94	1476.88
540.11	971.32
540.28	793.44
540.44	660.03
540.61	414.27
540.78	491.51
540.95	407.25
541.12	547.69
541.29	533.64
541.46	650.67
541.62	489.17
541.79	554.71
541.96	519.60
542.13	521.94
542.30	512.58
542.47	575.77
542.63	521.94
542.80	489.17
542.97	608.54
543.14	444.70
543.31	503.22
543.48	428.32
543.64	535.98
543.81	528.96
543.98	524.28
544.15	514.92
544.32	433.00
544.48	514.92
544.65	484.49
544.82	510.24
544.99	456.40
545.16	463.43
545.32	458.74
545.49	685.78
545.66	931.53
545.83	1067.28
546.00	938.55
546.16	755.99
546.33	681.10
546.50	634.29
546.67	458.74
546.83	475.13
547.00	411.93
547.17	414.27
547.34	400.23
547.50	381.51
547.67	381.51
547.84	341.72
548.00	423.64
548.17	397.89
548.34	313.63
548.51	479.81
548.67	418.96
548.84	456.40
549.01	369.80
549.18	367.46
549.34	411.93
549.51	351.08
549.68	337.04
549.84	372.15
550.01	306.61
550.18	461.09
550.34	418.96
550.51	269.16
550.68	404.91
550.84	311.29
551.01	278.52
551.18	318.31
551.34	430.66
551.51	339.38
551.68	327.68
551.84	337.04
552.01	301.93
552.18	322.99
552.34	330.02
552.51	252.78
552.68	290.23
552.84	318.31
553.01	334.70
553.18	297.25
553.34	250.44
553.51	320.65
553.67	318.31
553.84	325.33
554.01	292.57
554.17	287.89
554.34	299.59
554.51	311.29
554.67	358.10
554.84	273.84
555.00	353.42
555.17	269.16
555.33	276.18
555.50	339.38
555.67	334.70
555.83	341.72
556.00	322.99
556.16	376.83
556.33	330.02
556.50	271.50
556.66	308.95
556.83	308.95
556.99	285.55
557.16	271.50
557.32	259.80
557.49	252.78
557.65	308.95
557.82	315.97
557.98	264.48
558.15	290.23
558.32	262.14
558.48	243.42
558.65	215.33
558.81	355.76
558.98	255.12
559.14	365.12
559.31	224.69
559.47	266.82
559.64	278.52
559.80	301.93
559.97	196.60
560.13	238.73
560.30	205.97
560.46	212.99
560.63	264.48
560.79	276.18
560.96	236.39
561.12	257.46
561.29	238.73
561.45	173.20
561.61	283.20
561.78	374.49
561.94	255.12
562.11	271.50
562.27	215.33
562.44	287.89
562.60	231.71
562.77	196.60
562.93	418.96
563.10	299.59
563.26	241.08
563.42	271.50
563.59	276.18
563.75	224.69
563.92	339.38
564.08	271.50
564.24	348.74
564.41	341.72
564.57	308.95
564.74	250.44
564.90	273.84
565.07	325.33
565.23	351.08
565.39	264.48
565.56	301.93
565.72	332.36
565.88	255.12
566.05	222.35
566.21	271.50
566.38	229.37
566.54	229.37
566.70	285.55
566.87	266.82
567.03	236.39
567.19	234.05
567.36	320.65
567.52	315.97
567.68	278.52
567.85	194.26
568.01	166.18
568.17	273.84
568.34	220.01
568.50	278.52
568.66	252.78
568.83	341.72
568.99	177.88
569.15	229.37
569.32	257.46
569.48	210.65
569.64	269.16
569.81	255.12
569.97	292.57
570.13	248.10
570.30	189.58
570.46	238.73
570.62	220.01
570.78	189.58
570.95	208.31
571.11	315.97
571.27	320.65
571.43	212.99
571.60	271.50
571.76	229.37
571.92	266.82
572.09	252.78
572.25	215.33
572.41	322.99
572.57	285.55
572.74	344.06
572.90	271.50
573.06	259.80
573.22	245.76
573.38	306.61
573.55	362.78
573.71	269.16
573.87	318.31
574.03	269.16
574.20	257.46
574.36	351.08
574.52	428.32
574.68	292.57
574.84	332.36
575.01	161.50
575.17	276.18
575.33	236.39
575.49	339.38
575.65	266.82
575.82	332.36
575.98	538.32
576.14	692.80
576.30	657.69
576.46	622.58
576.62	524.28
576.79	528.96
576.95	425.98
577.11	313.63
577.27	283.20
577.43	278.52
577.59	278.52
577.75	327.68
577.92	318.31
578.08	311.29
578.24	290.23
578.40	294.91
578.56	404.91
578.72	486.83
578.88	479.81
579.04	365.12
579.21	404.91
579.37	337.04
579.53	308.95
579.69	365.12
579.85	388.53
580.01	400.23
580.17	365.12
580.33	404.91
580.49	379.17
580.65	358.10
580.82	372.15
580.98	376.83
581.14	397.89
581.30	362.78
581.46	428.32
581.62	559.39
581.78	617.90
581.94	667.05
582.10	540.66
582.26	554.71
582.42	458.74
582.58	442.36
582.74	437.68
582.90	451.72
583.06	493.85
583.22	561.73
583.38	566.41
583.54	510.24
583.70	641.31
583.86	718.54
584.02	709.18
584.18	894.08
584.34	1139.84
584.50	2623.74
584.66	19494.32
584.82	49710.64
584.98	59435.56
585.14	55681.34
585.30	38452.66
585.46	23417.06
585.62	14431.74
585.78	6778.19
585.94	2743.11
586.10	1364.53
586.26	959.62
586.42	816.85
586.58	660.03
586.74	667.05
586.90	596.84
587.06	631.94
587.22	638.97
587.38	606.20
587.54	1102.39
587.70	2963.12
587.86	4926.83
588.02	5114.07
588.18	3637.19
588.34	2375.64
588.49	1554.12
588.65	1050.90
588.81	526.62
588.97	440.02
589.13	334.70
589.29	330.02
589.45	327.68
589.61	395.55
589.77	376.83
589.93	489.17
590.08	482.15
590.24	477.47
590.40	442.36
590.56	430.66
590.72	433.00
590.88	449.38
591.04	376.83
591.20	386.19
591.35	381.51
591.51	440.02
591.67	409.59
591.83	299.59
591.99	351.08
592.15	372.15
592.31	400.23
592.46	344.06
592.62	381.51
592.78	308.95
592.94	285.55
593.10	407.25
593.26	318.31
593.41	362.78
593.57	407.25
593.73	571.09
593.89	2576.93
594.05	6415.41
594.20	8755.94
594.36	8318.26
594.52	5469.83
594.68	3522.51
594.84	2282.02
594.99	1397.30
595.15	702.16
595.31	510.24
595.47	517.26
595.62	332.36
595.78	397.89
595.94	379.17
596.10	425.98
596.25	358.10
596.41	372.15
596.57	365.12
596.73	386.19
596.88	622.58
597.04	1179.63
597.20	2024.56
597.36	2263.30
597.51	1680.50
597.67	1137.50
597.83	912.81
597.99	664.71
598.14	442.36
598.30	468.11
598.46	395.55
598.61	381.51
598.77	330.02
598.93	372.15
599.09	315.97
599.24	280.86
599.40	313.63
599.56	327.68
599.71	269.16
599.87	341.72
600.03	234.05
600.18	315.97
600.34	332.36
600.50	320.65
600.65	299.59
600.81	243.42
600.97	273.84
601.12	306.61
601.28	304.27
601.44	311.29
601.59	311.29
601.75	264.48
601.91	248.10
602.06	245.76
602.22	346.40
602.37	702.16
602.53	1589.22
602.69	2235.21
602.84	2324.15
603.00	1764.76
603.16	1263.89
603.31	999.41
603.47	695.14
603.62	449.38
603.78	390.87
603.94	374.49
604.09	339.38
604.25	315.97
604.40	294.91
604.56	313.63
604.71	341.72
604.87	266.82
605.03	313.63
605.18	348.74
605.34	386.19
605.49	348.74
605.65	341.72
605.80	299.59
605.96	332.36
606.12	376.83
606.27	355.76
606.43	320.65
606.58	437.68
606.74	809.83
606.89	2972.48
607.05	5856.02
607.20	7442.90
607.36	6003.47
607.51	4217.65
607.67	2789.92
607.82	2047.97
607.98	1266.23
608.13	667.05
608.29	533.64
608.44	489.17
608.60	517.26
608.75	582.79
608.91	1153.88
609.06	4833.21
609.22	9956.64
609.37	12933.80
609.53	11089.46
609.68	7489.71
609.84	5090.67
609.99	3452.29
610.15	2120.53
