SpectraSuite Data File
++++++++++++++++++++++++++++++++++++
Date: Fri Oct 04 11:33:53 GMT-05:00 2013
User: price-jones
Dark Spectrum Present: No
Reference Spectrum Present: No
Number of Sampled Component Spectra: 1
Spectrometers: USB2+H05261
Integration Time (usec): 100000 (USB2+H05261)
Spectra Averaged: 1 (USB2+H05261)
Boxcar Smoothing: 0 (USB2+H05261)
Correct for Electrical Dark: No (USB2+H05261)
Strobe/Lamp Enabled: No (USB2+H05261)
Correct for Detector Non-linearity: No (USB2+H05261)
Correct for Stray Light: No (USB2+H05261)
Number of Pixels in Processed Spectrum: 2048
>>>>>Begin Processed Spectral Data<<<<<
365.73	74.90
365.92	74.90
366.12	74.90
366.32	9.36
366.52	0.00
366.72	16.38
366.91	0.00
367.11	32.77
367.31	4.68
367.51	0.00
367.70	7.02
367.90	0.00
368.10	18.72
368.30	0.00
368.49	0.00
368.69	0.00
368.89	0.00
369.09	0.00
369.28	0.00
369.48	0.00
369.68	14.04
369.87	0.00
370.07	23.41
370.27	67.88
370.47	112.35
370.66	46.81
370.86	58.51
371.06	124.05
371.25	145.11
371.45	128.73
371.65	121.71
371.84	126.39
372.04	119.37
372.24	117.03
372.44	121.71
372.63	149.79
372.83	220.01
373.03	107.66
373.22	119.37
373.42	149.79
373.62	93.62
373.81	145.11
374.01	175.54
374.21	168.52
374.40	133.41
374.60	203.63
374.79	131.07
374.99	105.32
375.19	168.52
375.38	227.03
375.58	124.05
375.78	128.73
375.97	217.67
376.17	241.08
376.37	135.75
376.56	198.95
376.76	138.09
376.95	131.07
377.15	180.22
377.35	156.82
377.54	74.90
377.74	131.07
377.93	102.98
378.13	135.75
378.33	93.62
378.52	220.01
378.72	128.73
378.91	217.67
379.11	121.71
379.31	84.26
379.50	124.05
379.70	177.88
379.89	149.79
380.09	98.30
380.28	65.54
380.48	187.24
380.68	84.26
380.87	67.88
381.07	117.03
381.26	124.05
381.46	63.19
381.65	98.30
381.85	138.09
382.04	131.07
382.24	152.13
382.43	166.18
382.63	140.43
382.83	145.11
383.02	163.84
383.22	222.35
383.41	177.88
383.61	124.05
383.80	114.69
384.00	128.73
384.19	145.11
384.39	74.90
384.58	126.39
384.78	100.64
384.97	138.09
385.17	131.07
385.36	114.69
385.56	156.82
385.75	124.05
385.95	133.41
386.14	191.92
386.34	67.88
386.53	135.75
386.72	53.83
386.92	203.63
387.11	159.16
387.31	173.20
387.50	58.51
387.70	95.96
387.89	173.20
388.09	70.22
388.28	131.07
388.48	72.56
388.67	126.39
388.86	191.92
389.06	156.82
389.25	154.48
389.45	194.26
389.64	138.09
389.84	191.92
390.03	152.13
390.22	114.69
390.42	135.75
390.61	119.37
390.81	112.35
391.00	145.11
391.19	168.52
391.39	74.90
391.58	152.13
391.78	175.54
391.97	154.48
392.16	100.64
392.36	212.99
392.55	142.77
392.75	135.75
392.94	98.30
393.13	131.07
393.33	126.39
393.52	168.52
393.71	259.80
393.91	140.43
394.10	84.26
394.29	102.98
394.49	166.18
394.68	187.24
394.88	126.39
395.07	182.56
395.26	128.73
395.46	184.90
395.65	163.84
395.84	166.18
396.04	180.22
396.23	168.52
396.42	159.16
396.62	234.05
396.81	212.99
397.00	217.67
397.19	126.39
397.39	70.22
397.58	229.37
397.77	112.35
397.97	131.07
398.16	124.05
398.35	182.56
398.55	170.86
398.74	159.16
398.93	152.13
399.12	166.18
399.32	156.82
399.51	145.11
399.70	231.71
399.90	163.84
400.09	154.48
400.28	180.22
400.47	177.88
400.67	229.37
400.86	121.71
401.05	177.88
401.24	163.84
401.44	196.60
401.63	203.63
401.82	114.69
402.01	138.09
402.21	100.64
402.40	138.09
402.59	133.41
402.78	124.05
402.97	145.11
403.17	126.39
403.36	133.41
403.55	241.08
403.74	107.66
403.93	245.76
404.13	245.76
404.32	241.08
404.51	222.35
404.70	126.39
404.89	114.69
405.09	170.86
405.28	173.20
405.47	133.41
405.66	149.79
405.85	128.73
406.05	46.81
406.24	107.66
406.43	114.69
406.62	175.54
406.81	229.37
407.00	126.39
407.20	205.97
407.39	159.16
407.58	194.26
407.77	222.35
407.96	182.56
408.15	112.35
408.34	110.01
408.54	173.20
408.73	147.45
408.92	142.77
409.11	128.73
409.30	227.03
409.49	135.75
409.68	156.82
409.87	156.82
410.07	184.90
410.26	173.20
410.45	224.69
410.64	152.13
410.83	133.41
411.02	140.43
411.21	133.41
411.40	208.31
411.59	163.84
411.78	114.69
411.98	187.24
412.17	191.92
412.36	173.20
412.55	145.11
412.74	201.29
412.93	222.35
413.12	191.92
413.31	229.37
413.50	182.56
413.69	131.07
413.88	152.13
414.07	107.66
414.26	124.05
414.45	159.16
414.64	227.03
414.83	161.50
415.02	180.22
415.22	201.29
415.41	191.92
415.60	187.24
415.79	175.54
415.98	194.26
416.17	161.50
416.36	170.86
416.55	173.20
416.74	201.29
416.93	138.09
417.12	212.99
417.31	135.75
417.50	205.97
417.69	287.89
417.88	177.88
418.07	180.22
418.26	175.54
418.45	166.18
418.64	229.37
418.83	259.80
419.02	262.14
419.21	215.33
419.39	170.86
419.58	189.58
419.77	234.05
419.96	201.29
420.15	189.58
420.34	145.11
420.53	177.88
420.72	243.42
420.91	121.71
421.10	173.20
421.29	159.16
421.48	210.65
421.67	156.82
421.86	184.90
422.05	177.88
422.24	149.79
422.43	145.11
422.61	175.54
422.80	138.09
422.99	149.79
423.18	135.75
423.37	234.05
423.56	149.79
423.75	168.52
423.94	159.16
424.13	187.24
424.32	147.45
424.50	107.66
424.69	156.82
424.88	208.31
425.07	208.31
425.26	290.23
425.45	248.10
425.64	245.76
425.83	234.05
426.01	222.35
426.20	175.54
426.39	173.20
426.58	210.65
426.77	166.18
426.96	175.54
427.15	161.50
427.33	147.45
427.52	170.86
427.71	250.44
427.90	255.12
428.09	93.62
428.28	161.50
428.46	198.95
428.65	152.13
428.84	262.14
429.03	187.24
429.22	191.92
429.40	208.31
429.59	161.50
429.78	212.99
429.97	170.86
430.16	166.18
430.34	227.03
430.53	149.79
430.72	124.05
430.91	229.37
431.10	201.29
431.28	166.18
431.47	262.14
431.66	238.73
431.85	203.63
432.03	149.79
432.22	227.03
432.41	191.92
432.60	220.01
432.79	210.65
432.97	201.29
433.16	264.48
433.35	252.78
433.54	271.50
433.72	238.73
433.91	135.75
434.10	215.33
434.28	187.24
434.47	138.09
434.66	147.45
434.85	227.03
435.03	196.60
435.22	325.33
435.41	421.30
435.59	344.06
435.78	332.36
435.97	177.88
436.16	276.18
436.34	163.84
436.53	131.07
436.72	191.92
436.90	208.31
437.09	147.45
437.28	217.67
437.46	102.98
437.65	245.76
437.84	187.24
438.02	138.09
438.21	220.01
438.40	194.26
438.58	203.63
438.77	187.24
438.96	184.90
439.14	117.03
439.33	187.24
439.52	208.31
439.70	124.05
439.89	210.65
440.08	147.45
440.26	180.22
440.45	297.25
440.63	234.05
440.82	201.29
441.01	145.11
441.19	238.73
441.38	285.55
441.57	138.09
441.75	222.35
441.94	173.20
442.12	245.76
442.31	191.92
442.50	147.45
442.68	124.05
442.87	191.92
443.05	121.71
443.24	212.99
443.43	222.35
443.61	217.67
443.80	208.31
443.98	142.77
444.17	210.65
444.35	191.92
444.54	131.07
444.73	126.39
444.91	215.33
445.10	262.14
445.28	133.41
445.47	175.54
445.65	189.58
445.84	189.58
446.02	266.82
446.21	229.37
446.39	102.98
446.58	205.97
446.77	135.75
446.95	229.37
447.14	184.90
447.32	205.97
447.51	156.82
447.69	173.20
447.88	224.69
448.06	194.26
448.25	170.86
448.43	212.99
448.62	161.50
448.80	194.26
448.99	238.73
449.17	201.29
449.36	250.44
449.54	191.92
449.73	131.07
449.91	180.22
450.10	208.31
450.28	290.23
450.46	212.99
450.65	252.78
450.83	196.60
451.02	180.22
451.20	142.77
451.39	205.97
451.57	182.56
451.76	189.58
451.94	252.78
452.13	191.92
452.31	217.67
452.49	262.14
452.68	161.50
452.86	238.73
453.05	208.31
453.23	220.01
453.42	142.77
453.60	201.29
453.78	187.24
453.97	177.88
454.15	220.01
454.34	147.45
454.52	194.26
454.70	259.80
454.89	252.78
455.07	177.88
455.26	159.16
455.44	187.24
455.62	173.20
455.81	166.18
455.99	154.48
456.17	201.29
456.36	145.11
456.54	231.71
456.73	238.73
456.91	184.90
457.09	177.88
457.28	173.20
457.46	91.28
457.64	196.60
457.83	234.05
458.01	180.22
458.19	210.65
458.38	198.95
458.56	205.97
458.74	154.48
458.93	208.31
459.11	187.24
459.29	215.33
459.48	159.16
459.66	205.97
459.84	84.26
460.03	266.82
460.21	257.46
460.39	243.42
460.57	201.29
460.76	147.45
460.94	152.13
461.12	276.18
461.31	161.50
461.49	285.55
461.67	227.03
461.85	217.67
462.04	154.48
462.22	688.12
462.40	208.31
462.59	212.99
462.77	147.45
462.95	173.20
463.13	149.79
463.32	163.84
463.50	184.90
463.68	177.88
463.86	245.76
464.05	201.29
464.23	255.12
464.41	182.56
464.59	243.42
464.78	201.29
464.96	262.14
465.14	217.67
465.32	117.03
465.50	173.20
465.69	166.18
465.87	182.56
466.05	210.65
466.23	168.52
466.41	187.24
466.60	205.97
466.78	196.60
466.96	236.39
467.14	212.99
467.32	210.65
467.51	259.80
467.69	191.92
467.87	229.37
468.05	168.52
468.23	278.52
468.41	180.22
468.60	215.33
468.78	229.37
468.96	215.33
469.14	208.31
469.32	107.66
469.50	168.52
469.69	212.99
469.87	243.42
470.05	166.18
470.23	163.84
470.41	210.65
470.59	220.01
470.77	177.88
470.95	236.39
471.14	259.80
471.32	184.90
471.50	189.58
471.68	245.76
471.86	184.90
472.04	182.56
472.22	173.20
472.40	105.32
472.58	180.22
472.77	220.01
472.95	224.69
473.13	294.91
473.31	236.39
473.49	234.05
473.67	126.39
473.85	234.05
474.03	243.42
474.21	212.99
474.39	220.01
474.57	196.60
474.75	255.12
474.93	191.92
475.12	168.52
475.30	236.39
475.48	227.03
475.66	248.10
475.84	236.39
476.02	161.50
476.20	189.58
476.38	184.90
476.56	334.70
476.74	182.56
476.92	140.43
477.10	229.37
477.28	128.73
477.46	220.01
477.64	273.84
477.82	210.65
478.00	184.90
478.18	189.58
478.36	177.88
478.54	154.48
478.72	168.52
478.90	133.41
479.08	217.67
479.26	212.99
479.44	154.48
479.62	203.63
479.80	224.69
479.98	229.37
480.16	208.31
480.34	222.35
480.52	112.35
480.70	166.18
480.88	191.92
481.06	184.90
481.24	215.33
481.41	234.05
481.59	236.39
481.77	173.20
481.95	210.65
482.13	196.60
482.31	184.90
482.49	184.90
482.67	191.92
482.85	217.67
483.03	311.29
483.21	212.99
483.39	269.16
483.57	222.35
483.74	332.36
483.92	304.27
484.10	210.65
484.28	121.71
484.46	301.93
484.64	229.37
484.82	175.54
485.00	255.12
485.18	257.46
485.35	161.50
485.53	133.41
485.71	201.29
485.89	177.88
486.07	259.80
486.25	271.50
486.43	283.20
486.61	292.57
486.78	273.84
486.96	198.95
487.14	215.33
487.32	290.23
487.50	231.71
487.68	283.20
487.85	215.33
488.03	278.52
488.21	327.68
488.39	297.25
488.57	297.25
488.75	224.69
488.92	472.79
489.10	224.69
489.28	266.82
489.46	285.55
489.64	210.65
489.81	231.71
489.99	294.91
490.17	238.73
490.35	280.86
490.53	283.20
490.70	269.16
490.88	229.37
491.06	294.91
491.24	187.24
491.41	217.67
491.59	330.02
491.77	220.01
491.95	220.01
492.13	236.39
492.30	301.93
492.48	201.29
492.66	287.89
492.84	177.88
493.01	252.78
493.19	241.08
493.37	238.73
493.54	320.65
493.72	217.67
493.90	280.86
494.08	250.44
494.25	304.27
494.43	241.08
494.61	262.14
494.79	252.78
494.96	250.44
495.14	280.86
495.32	234.05
495.49	234.05
495.67	238.73
495.85	330.02
496.02	205.97
496.20	217.67
496.38	285.55
496.55	273.84
496.73	262.14
496.91	212.99
497.09	276.18
497.26	273.84
497.44	238.73
497.62	210.65
497.79	229.37
497.97	222.35
498.14	297.25
498.32	339.38
498.50	311.29
498.67	210.65
498.85	238.73
499.03	266.82
499.20	287.89
499.38	299.59
499.56	332.36
499.73	262.14
499.91	262.14
500.08	299.59
500.26	191.92
500.44	238.73
500.61	236.39
500.79	208.31
500.97	283.20
501.14	330.02
501.32	264.48
501.49	257.46
501.67	215.33
501.84	269.16
502.02	191.92
502.20	313.63
502.37	297.25
502.55	250.44
502.72	266.82
502.90	304.27
503.07	276.18
503.25	257.46
503.43	243.42
503.60	271.50
503.78	358.10
503.95	269.16
504.13	257.46
504.30	257.46
504.48	259.80
504.65	313.63
504.83	212.99
505.01	224.69
505.18	285.55
505.36	273.84
505.53	257.46
505.71	215.33
505.88	283.20
506.06	201.29
506.23	301.93
506.41	283.20
506.58	259.80
506.76	276.18
506.93	280.86
507.11	208.31
507.28	191.92
507.46	196.60
507.63	269.16
507.81	220.01
507.98	308.95
508.16	238.73
508.33	259.80
508.50	203.63
508.68	271.50
508.85	273.84
509.03	264.48
509.20	283.20
509.38	231.71
509.55	346.40
509.73	208.31
509.90	264.48
510.08	217.67
510.25	271.50
510.42	294.91
510.60	290.23
510.77	301.93
510.95	259.80
511.12	231.71
511.30	273.84
511.47	283.20
511.64	404.91
511.82	318.31
511.99	278.52
512.17	245.76
512.34	248.10
512.51	217.67
512.69	245.76
512.86	330.02
513.04	276.18
513.21	245.76
513.38	276.18
513.56	273.84
513.73	208.31
513.90	208.31
514.08	280.86
514.25	243.42
514.43	278.52
514.60	212.99
514.77	212.99
514.95	269.16
515.12	259.80
515.29	271.50
515.47	229.37
515.64	231.71
515.81	180.22
515.99	362.78
516.16	301.93
516.33	344.06
516.51	243.42
516.68	203.63
516.85	234.05
517.03	266.82
517.20	255.12
517.37	262.14
517.54	318.31
517.72	147.45
517.89	198.95
518.06	175.54
518.24	325.33
518.41	308.95
518.58	292.57
518.75	353.42
518.93	290.23
519.10	308.95
519.27	290.23
519.45	266.82
519.62	266.82
519.79	215.33
519.96	287.89
520.14	203.63
520.31	311.29
520.48	273.84
520.65	287.89
520.83	273.84
521.00	227.03
521.17	306.61
521.34	252.78
521.52	266.82
521.69	245.76
521.86	273.84
522.03	299.59
522.20	271.50
522.38	264.48
522.55	322.99
522.72	264.48
522.89	362.78
523.07	299.59
523.24	297.25
523.41	259.80
523.58	290.23
523.75	287.89
523.92	285.55
524.10	231.71
524.27	290.23
524.44	292.57
524.61	383.85
524.78	248.10
524.96	266.82
525.13	304.27
525.30	332.36
525.47	318.31
525.64	276.18
525.81	217.67
525.98	257.46
526.16	301.93
526.33	227.03
526.50	250.44
526.67	201.29
526.84	252.78
527.01	222.35
527.18	236.39
527.36	196.60
527.53	238.73
527.70	238.73
527.87	297.25
528.04	301.93
528.21	241.08
528.38	283.20
528.55	280.86
528.72	346.40
528.89	280.86
529.07	229.37
529.24	299.59
529.41	320.65
529.58	241.08
529.75	341.72
529.92	339.38
530.09	313.63
530.26	374.49
530.43	255.12
530.60	327.68
530.77	273.84
530.94	283.20
531.11	290.23
531.28	308.95
531.46	229.37
531.63	243.42
531.80	248.10
531.97	332.36
532.14	369.80
532.31	227.03
532.48	341.72
532.65	344.06
532.82	451.72
532.99	407.25
533.16	313.63
533.33	320.65
533.50	351.08
533.67	374.49
533.84	500.87
534.01	505.56
534.18	393.21
534.35	341.72
534.52	299.59
534.69	383.85
534.86	299.59
535.03	208.31
535.20	234.05
535.37	182.56
535.54	257.46
535.71	313.63
535.88	379.17
536.05	259.80
536.22	294.91
536.38	313.63
536.55	313.63
536.72	297.25
536.89	276.18
537.06	259.80
537.23	255.12
537.40	297.25
537.57	255.12
537.74	397.89
537.91	271.50
538.08	297.25
538.25	290.23
538.42	262.14
538.59	386.19
538.75	299.59
538.92	248.10
539.09	322.99
539.26	294.91
539.43	484.49
539.60	947.92
539.77	1621.99
539.94	1799.87
540.11	1233.46
540.28	800.46
540.44	650.67
540.61	484.49
540.78	397.89
540.95	482.15
541.12	512.58
541.29	573.43
541.46	559.39
541.62	486.83
541.79	454.06
541.96	437.68
542.13	517.26
542.30	433.00
542.47	402.57
542.63	510.24
542.80	498.53
542.97	552.37
543.14	510.24
543.31	484.49
543.48	482.15
543.64	440.02
543.81	451.72
543.98	418.96
544.15	423.64
544.32	416.62
544.48	433.00
544.65	447.04
544.82	407.25
544.99	369.80
545.16	365.12
545.32	461.09
545.49	669.39
545.66	725.57
545.83	807.48
546.00	662.37
546.16	678.76
546.33	517.26
546.50	475.13
546.67	433.00
546.83	411.93
547.00	416.62
547.17	386.19
547.34	322.99
547.50	381.51
547.67	318.31
547.84	456.40
548.00	362.78
548.17	353.42
548.34	334.70
548.51	458.74
548.67	278.52
548.84	397.89
549.01	379.17
549.18	351.08
549.34	381.51
549.51	393.21
549.68	348.74
549.84	337.04
550.01	320.65
550.18	379.17
550.34	409.59
550.51	308.95
550.68	400.23
550.84	365.12
551.01	369.80
551.18	337.04
551.34	292.57
551.51	320.65
551.68	297.25
551.84	372.15
552.01	353.42
552.18	315.97
552.34	325.33
552.51	271.50
552.68	334.70
552.84	304.27
553.01	320.65
553.18	269.16
553.34	306.61
553.51	374.49
553.67	290.23
553.84	304.27
554.01	332.36
554.17	308.95
554.34	332.36
554.51	278.52
554.67	360.44
554.84	386.19
555.00	266.82
555.17	210.65
555.33	278.52
555.50	285.55
555.67	330.02
555.83	287.89
556.00	280.86
556.16	458.74
556.33	355.76
556.50	271.50
556.66	264.48
556.83	297.25
556.99	243.42
557.16	222.35
557.32	271.50
557.49	241.08
557.65	234.05
557.82	330.02
557.98	259.80
558.15	259.80
558.32	250.44
558.48	255.12
558.65	280.86
558.81	306.61
558.98	292.57
559.14	259.80
559.31	259.80
559.47	252.78
559.64	243.42
559.80	269.16
559.97	208.31
560.13	259.80
560.30	245.76
560.46	304.27
560.63	278.52
560.79	262.14
560.96	280.86
561.12	243.42
561.29	236.39
561.45	262.14
561.61	269.16
561.78	341.72
561.94	229.37
562.11	238.73
562.27	383.85
562.44	292.57
562.60	243.42
562.77	259.80
562.93	332.36
563.10	231.71
563.26	285.55
563.42	353.42
563.59	346.40
563.75	283.20
563.92	290.23
564.08	259.80
564.24	257.46
564.41	351.08
564.57	278.52
564.74	248.10
564.90	304.27
565.07	294.91
565.23	315.97
565.39	315.97
565.56	278.52
565.72	273.84
565.88	308.95
566.05	355.76
566.21	259.80
566.38	276.18
566.54	294.91
566.70	224.69
566.87	227.03
567.03	294.91
567.19	301.93
567.36	210.65
567.52	248.10
567.68	238.73
567.85	294.91
568.01	250.44
568.17	238.73
568.34	334.70
568.50	351.08
568.66	271.50
568.83	306.61
568.99	273.84
569.15	236.39
569.32	252.78
569.48	264.48
569.64	154.48
569.81	304.27
569.97	234.05
570.13	259.80
570.30	231.71
570.46	262.14
570.62	287.89
570.78	215.33
570.95	194.26
571.11	297.25
571.27	252.78
571.43	236.39
571.60	315.97
571.76	259.80
571.92	287.89
572.09	234.05
572.25	273.84
572.41	201.29
572.57	264.48
572.74	269.16
572.90	360.44
573.06	372.15
573.22	273.84
573.38	297.25
573.55	294.91
573.71	280.86
573.87	301.93
574.03	262.14
574.20	241.08
574.36	411.93
574.52	360.44
574.68	390.87
574.84	341.72
575.01	297.25
575.17	327.68
575.33	294.91
575.49	306.61
575.65	322.99
575.82	360.44
575.98	617.90
576.14	638.97
576.30	737.27
576.46	634.29
576.62	629.60
576.79	496.19
576.95	395.55
577.11	339.38
577.27	322.99
577.43	308.95
577.59	271.50
577.75	297.25
577.92	250.44
578.08	283.20
578.24	259.80
578.40	351.08
578.56	456.40
578.72	458.74
578.88	404.91
579.04	311.29
579.21	308.95
579.37	301.93
579.53	257.46
579.69	367.46
579.85	369.80
580.01	421.30
580.17	355.76
580.33	425.98
580.49	437.68
580.65	456.40
580.82	308.95
580.98	379.17
581.14	325.33
581.30	369.80
581.46	500.87
581.62	657.69
581.78	758.33
581.94	739.61
582.10	493.85
582.26	550.03
582.42	447.04
582.58	519.60
582.74	500.87
582.90	458.74
583.06	451.72
583.22	540.66
583.38	543.00
583.54	550.03
583.70	706.84
583.86	781.74
584.02	814.51
584.18	985.37
584.34	1252.19
584.50	2733.75
584.66	18031.49
584.82	52172.88
584.98	65535.00
585.14	65535.00
585.30	52549.71
585.46	31208.70
585.62	19363.25
585.78	8954.89
585.94	3522.51
586.10	1685.19
586.26	1165.59
586.42	945.58
586.58	763.01
586.74	671.73
586.90	784.08
587.06	685.78
587.22	695.14
587.38	671.73
587.54	1118.78
587.70	2988.86
587.86	5905.17
588.02	7428.86
588.18	5350.46
588.34	3185.47
588.49	2024.56
588.65	1247.51
588.81	645.99
588.97	491.51
589.13	355.76
589.29	409.59
589.45	458.74
589.61	407.25
589.77	479.81
589.93	484.49
590.08	540.66
590.24	512.58
590.40	479.81
590.56	449.38
590.72	482.15
590.88	402.57
591.04	416.62
591.20	393.21
591.35	423.64
591.51	395.55
591.67	379.17
591.83	346.40
591.99	383.85
592.15	367.46
592.31	365.12
592.46	386.19
592.62	496.19
592.78	383.85
592.94	372.15
593.10	351.08
593.26	402.57
593.41	393.21
593.57	507.90
593.73	540.66
593.89	2225.85
594.05	6218.80
594.20	11089.46
594.36	11943.75
594.52	7744.83
594.68	4458.72
594.84	3077.80
594.99	1813.92
595.15	896.43
595.31	433.00
595.47	482.15
595.62	355.76
595.78	388.53
595.94	362.78
596.10	425.98
596.25	407.25
596.41	472.79
596.57	421.30
596.73	355.76
596.88	498.53
597.04	1306.02
597.20	2223.51
597.36	3035.67
597.51	2359.26
597.67	1568.16
597.83	1093.03
597.99	781.74
598.14	521.94
598.30	428.32
598.46	437.68
598.61	470.45
598.77	458.74
598.93	358.10
599.09	411.93
599.24	367.46
599.40	407.25
599.56	320.65
599.71	301.93
599.87	360.44
600.03	327.68
600.18	320.65
600.34	290.23
600.50	287.89
600.65	311.29
600.81	325.33
600.97	264.48
601.12	308.95
601.28	334.70
601.44	297.25
601.59	283.20
601.75	339.38
601.91	383.85
602.06	353.42
602.22	390.87
602.37	683.44
602.53	1607.95
602.69	2656.51
602.84	3185.47
603.00	2347.56
603.16	1621.99
603.31	1076.65
603.47	732.59
603.62	449.38
603.78	358.10
603.94	341.72
604.09	344.06
604.25	339.38
604.40	332.36
604.56	290.23
604.71	330.02
604.87	337.04
605.03	346.40
605.18	381.51
605.34	269.16
605.49	330.02
605.65	409.59
605.80	292.57
605.96	379.17
606.12	449.38
606.27	313.63
606.43	437.68
606.58	444.70
606.74	821.53
606.89	2780.56
607.05	6361.58
607.20	10204.74
607.36	8629.56
607.51	5671.12
607.67	3578.68
607.82	2459.90
607.98	1425.39
608.13	795.78
608.29	507.90
608.44	498.53
608.60	465.77
608.75	568.75
608.91	1086.01
609.06	4318.29
609.22	10860.09
609.37	17462.74
609.53	16252.68
609.68	10457.51
609.84	6633.08
609.99	4360.42
