SpectraSuite Data File
++++++++++++++++++++++++++++++++++++
Date: Fri Oct 04 11:33:48 GMT-05:00 2013
User: price-jones
Dark Spectrum Present: No
Reference Spectrum Present: No
Number of Sampled Component Spectra: 1
Spectrometers: USB2+H05261
Integration Time (usec): 100000 (USB2+H05261)
Spectra Averaged: 1 (USB2+H05261)
Boxcar Smoothing: 0 (USB2+H05261)
Correct for Electrical Dark: No (USB2+H05261)
Strobe/Lamp Enabled: No (USB2+H05261)
Correct for Detector Non-linearity: No (USB2+H05261)
Correct for Stray Light: No (USB2+H05261)
Number of Pixels in Processed Spectrum: 2048
>>>>>Begin Processed Spectral Data<<<<<
365.73	74.90
365.92	74.90
366.12	74.90
366.32	16.38
366.52	0.00
366.72	0.00
366.91	25.75
367.11	9.36
367.31	46.81
367.51	28.09
367.70	0.00
367.90	0.00
368.10	46.81
368.30	0.00
368.49	0.00
368.69	0.00
368.89	39.79
369.09	0.00
369.28	0.00
369.48	0.00
369.68	7.02
369.87	28.09
370.07	42.13
370.27	44.47
370.47	56.17
370.66	58.51
370.86	46.81
371.06	98.30
371.25	147.45
371.45	49.15
371.65	138.09
371.84	128.73
372.04	112.35
372.24	112.35
372.44	91.28
372.63	175.54
372.83	114.69
373.03	107.66
373.22	86.60
373.42	67.88
373.62	77.24
373.81	133.41
374.01	205.97
374.21	142.77
374.40	121.71
374.60	138.09
374.79	203.63
374.99	56.17
375.19	119.37
375.38	131.07
375.58	140.43
375.78	182.56
375.97	98.30
376.17	205.97
376.37	194.26
376.56	117.03
376.76	91.28
376.95	110.01
377.15	175.54
377.35	138.09
377.54	159.16
377.74	166.18
377.93	142.77
378.13	110.01
378.33	133.41
378.52	46.81
378.72	175.54
378.91	107.66
379.11	184.90
379.31	131.07
379.50	201.29
379.70	184.90
379.89	100.64
380.09	95.96
380.28	194.26
380.48	189.58
380.68	121.71
380.87	121.71
381.07	210.65
381.26	131.07
381.46	161.50
381.65	180.22
381.85	175.54
382.04	105.32
382.24	227.03
382.43	152.13
382.63	124.05
382.83	117.03
383.02	152.13
383.22	184.90
383.41	135.75
383.61	159.16
383.80	114.69
384.00	110.01
384.19	98.30
384.39	131.07
384.58	121.71
384.78	128.73
384.97	147.45
385.17	117.03
385.36	138.09
385.56	147.45
385.75	135.75
385.95	140.43
386.14	184.90
386.34	145.11
386.53	140.43
386.72	135.75
386.92	145.11
387.11	168.52
387.31	135.75
387.50	133.41
387.70	91.28
387.89	114.69
388.09	131.07
388.28	60.85
388.48	135.75
388.67	161.50
388.86	124.05
389.06	126.39
389.25	121.71
389.45	117.03
389.64	88.94
389.84	222.35
390.03	156.82
390.22	182.56
390.42	128.73
390.61	154.48
390.81	117.03
391.00	147.45
391.19	110.01
391.39	152.13
391.58	131.07
391.78	105.32
391.97	133.41
392.16	168.52
392.36	245.76
392.55	187.24
392.75	119.37
392.94	182.56
393.13	177.88
393.33	91.28
393.52	161.50
393.71	124.05
393.91	93.62
394.10	173.20
394.29	131.07
394.49	135.75
394.68	81.92
394.88	107.66
395.07	58.51
395.26	100.64
395.46	156.82
395.65	205.97
395.84	149.79
396.04	163.84
396.23	119.37
396.42	201.29
396.62	145.11
396.81	156.82
397.00	91.28
397.19	149.79
397.39	198.95
397.58	205.97
397.77	119.37
397.97	175.54
398.16	154.48
398.35	187.24
398.55	114.69
398.74	124.05
398.93	187.24
399.12	138.09
399.32	152.13
399.51	173.20
399.70	119.37
399.90	271.50
400.09	133.41
400.28	208.31
400.47	161.50
400.67	145.11
400.86	156.82
401.05	184.90
401.24	119.37
401.44	159.16
401.63	194.26
401.82	180.22
402.01	147.45
402.21	135.75
402.40	168.52
402.59	110.01
402.78	112.35
402.97	173.20
403.17	84.26
403.36	140.43
403.55	124.05
403.74	159.16
403.93	264.48
404.13	269.16
404.32	198.95
404.51	175.54
404.70	196.60
404.89	163.84
405.09	182.56
405.28	180.22
405.47	126.39
405.66	138.09
405.85	212.99
406.05	168.52
406.24	154.48
406.43	189.58
406.62	145.11
406.81	166.18
407.00	217.67
407.20	145.11
407.39	177.88
407.58	110.01
407.77	102.98
407.96	173.20
408.15	238.73
408.34	210.65
408.54	154.48
408.73	140.43
408.92	175.54
409.11	114.69
409.30	159.16
409.49	107.66
409.68	131.07
409.87	163.84
410.07	128.73
410.26	119.37
410.45	187.24
410.64	161.50
410.83	205.97
411.02	133.41
411.21	191.92
411.40	147.45
411.59	117.03
411.78	112.35
411.98	142.77
412.17	217.67
412.36	121.71
412.55	208.31
412.74	229.37
412.93	210.65
413.12	212.99
413.31	205.97
413.50	177.88
413.69	135.75
413.88	187.24
414.07	145.11
414.26	189.58
414.45	128.73
414.64	173.20
414.83	215.33
415.02	231.71
415.22	177.88
415.41	166.18
415.60	107.66
415.79	159.16
415.98	208.31
416.17	191.92
416.36	189.58
416.55	194.26
416.74	124.05
416.93	124.05
417.12	184.90
417.31	140.43
417.50	250.44
417.69	194.26
417.88	149.79
418.07	161.50
418.26	133.41
418.45	149.79
418.64	224.69
418.83	189.58
419.02	212.99
419.21	308.95
419.39	203.63
419.58	147.45
419.77	194.26
419.96	236.39
420.15	198.95
420.34	177.88
420.53	166.18
420.72	189.58
420.91	163.84
421.10	208.31
421.29	145.11
421.48	224.69
421.67	184.90
421.86	194.26
422.05	147.45
422.24	168.52
422.43	74.90
422.61	187.24
422.80	203.63
422.99	166.18
423.18	180.22
423.37	156.82
423.56	241.08
423.75	198.95
423.94	231.71
424.13	191.92
424.32	166.18
424.50	114.69
424.69	201.29
424.88	152.13
425.07	161.50
425.26	159.16
425.45	180.22
425.64	159.16
425.83	163.84
426.01	177.88
426.20	248.10
426.39	154.48
426.58	117.03
426.77	184.90
426.96	189.58
427.15	138.09
427.33	147.45
427.52	229.37
427.71	238.73
427.90	182.56
428.09	131.07
428.28	210.65
428.46	187.24
428.65	215.33
428.84	170.86
429.03	215.33
429.22	229.37
429.40	194.26
429.59	173.20
429.78	217.67
429.97	276.18
430.16	175.54
430.34	154.48
430.53	196.60
430.72	135.75
430.91	236.39
431.10	159.16
431.28	135.75
431.47	229.37
431.66	95.96
431.85	180.22
432.03	145.11
432.22	173.20
432.41	159.16
432.60	259.80
432.79	208.31
432.97	234.05
433.16	175.54
433.35	173.20
433.54	177.88
433.72	184.90
433.91	163.84
434.10	201.29
434.28	154.48
434.47	217.67
434.66	205.97
434.85	196.60
435.03	266.82
435.22	269.16
435.41	519.60
435.59	440.02
435.78	320.65
435.97	269.16
436.16	210.65
436.34	166.18
436.53	215.33
436.72	252.78
436.90	194.26
437.09	154.48
437.28	182.56
437.46	98.30
437.65	208.31
437.84	210.65
438.02	205.97
438.21	191.92
438.40	205.97
438.58	152.13
438.77	170.86
438.96	243.42
439.14	215.33
439.33	255.12
439.52	194.26
439.70	217.67
439.89	163.84
440.08	224.69
440.26	201.29
440.45	173.20
440.63	154.48
440.82	131.07
441.01	229.37
441.19	168.52
441.38	102.98
441.57	145.11
441.75	173.20
441.94	210.65
442.12	175.54
442.31	156.82
442.50	135.75
442.68	170.86
442.87	173.20
443.05	175.54
443.24	189.58
443.43	208.31
443.61	241.08
443.80	163.84
443.98	168.52
444.17	187.24
444.35	205.97
444.54	175.54
444.73	110.01
444.91	241.08
445.10	205.97
445.28	184.90
445.47	187.24
445.65	210.65
445.84	191.92
446.02	177.88
446.21	220.01
446.39	154.48
446.58	191.92
446.77	177.88
446.95	215.33
447.14	215.33
447.32	259.80
447.51	210.65
447.69	128.73
447.88	224.69
448.06	203.63
448.25	217.67
448.43	189.58
448.62	180.22
448.80	182.56
448.99	220.01
449.17	114.69
449.36	212.99
449.54	238.73
449.73	147.45
449.91	220.01
450.10	156.82
450.28	196.60
450.46	175.54
450.65	180.22
450.83	187.24
451.02	201.29
451.20	194.26
451.39	131.07
451.57	163.84
451.76	243.42
451.94	149.79
452.13	198.95
452.31	161.50
452.49	234.05
452.68	180.22
452.86	210.65
453.05	191.92
453.23	198.95
453.42	119.37
453.60	161.50
453.78	117.03
453.97	140.43
454.15	163.84
454.34	238.73
454.52	124.05
454.70	290.23
454.89	191.92
455.07	131.07
455.26	156.82
455.44	191.92
455.62	205.97
455.81	245.76
455.99	269.16
456.17	241.08
456.36	215.33
456.54	177.88
456.73	220.01
456.91	175.54
457.09	236.39
457.28	255.12
457.46	131.07
457.64	191.92
457.83	227.03
458.01	241.08
458.19	196.60
458.38	191.92
458.56	215.33
458.74	210.65
458.93	133.41
459.11	173.20
459.29	140.43
459.48	161.50
459.66	217.67
459.84	215.33
460.03	297.25
460.21	236.39
460.39	168.52
460.57	222.35
460.76	217.67
460.94	231.71
461.12	191.92
461.31	250.44
461.49	222.35
461.67	215.33
461.85	224.69
462.04	217.67
462.22	566.41
462.40	229.37
462.59	145.11
462.77	149.79
462.95	191.92
463.13	241.08
463.32	252.78
463.50	248.10
463.68	194.26
463.86	177.88
464.05	149.79
464.23	264.48
464.41	280.86
464.59	198.95
464.78	138.09
464.96	227.03
465.14	154.48
465.32	177.88
465.50	189.58
465.69	210.65
465.87	149.79
466.05	154.48
466.23	133.41
466.41	140.43
466.60	140.43
466.78	177.88
466.96	266.82
467.14	227.03
467.32	271.50
467.51	259.80
467.69	194.26
467.87	198.95
468.05	173.20
468.23	187.24
468.41	212.99
468.60	166.18
468.78	194.26
468.96	152.13
469.14	201.29
469.32	220.01
469.50	154.48
469.69	201.29
469.87	210.65
470.05	201.29
470.23	191.92
470.41	229.37
470.59	184.90
470.77	189.58
470.95	194.26
471.14	243.42
471.32	224.69
471.50	201.29
471.68	168.52
471.86	166.18
472.04	170.86
472.22	194.26
472.40	119.37
472.58	173.20
472.77	161.50
472.95	203.63
473.13	194.26
473.31	273.84
473.49	266.82
473.67	227.03
473.85	227.03
474.03	147.45
474.21	220.01
474.39	278.52
474.57	229.37
474.75	271.50
474.93	203.63
475.12	102.98
475.30	220.01
475.48	184.90
475.66	241.08
475.84	222.35
476.02	175.54
476.20	278.52
476.38	208.31
476.56	325.33
476.74	184.90
476.92	198.95
477.10	191.92
477.28	210.65
477.46	212.99
477.64	241.08
477.82	205.97
478.00	163.84
478.18	163.84
478.36	215.33
478.54	269.16
478.72	215.33
478.90	198.95
479.08	142.77
479.26	154.48
479.44	124.05
479.62	236.39
479.80	201.29
479.98	81.92
480.16	159.16
480.34	238.73
480.52	238.73
480.70	234.05
480.88	241.08
481.06	145.11
481.24	264.48
481.41	208.31
481.59	234.05
481.77	208.31
481.95	194.26
482.13	205.97
482.31	264.48
482.49	187.24
482.67	294.91
482.85	325.33
483.03	220.01
483.21	224.69
483.39	191.92
483.57	131.07
483.74	262.14
483.92	156.82
484.10	220.01
484.28	234.05
484.46	266.82
484.64	189.58
484.82	159.16
485.00	220.01
485.18	257.46
485.35	227.03
485.53	257.46
485.71	252.78
485.89	250.44
486.07	203.63
486.25	229.37
486.43	322.99
486.61	262.14
486.78	248.10
486.96	231.71
487.14	273.84
487.32	271.50
487.50	201.29
487.68	334.70
487.85	245.76
488.03	262.14
488.21	311.29
488.39	238.73
488.57	166.18
488.75	311.29
488.92	491.51
489.10	264.48
489.28	259.80
489.46	278.52
489.64	175.54
489.81	311.29
489.99	238.73
490.17	212.99
490.35	358.10
490.53	266.82
490.70	259.80
490.88	271.50
491.06	271.50
491.24	248.10
491.41	372.15
491.59	292.57
491.77	292.57
491.95	177.88
492.13	276.18
492.30	297.25
492.48	243.42
492.66	255.12
492.84	229.37
493.01	236.39
493.19	238.73
493.37	301.93
493.54	245.76
493.72	294.91
493.90	271.50
494.08	271.50
494.25	215.33
494.43	278.52
494.61	271.50
494.79	252.78
494.96	259.80
495.14	287.89
495.32	280.86
495.49	252.78
495.67	266.82
495.85	280.86
496.02	222.35
496.20	269.16
496.38	315.97
496.55	269.16
496.73	250.44
496.91	215.33
497.09	243.42
497.26	315.97
497.44	280.86
497.62	243.42
497.79	229.37
497.97	297.25
498.14	276.18
498.32	290.23
498.50	273.84
498.67	297.25
498.85	271.50
499.03	203.63
499.20	205.97
499.38	301.93
499.56	241.08
499.73	346.40
499.91	325.33
500.08	325.33
500.26	215.33
500.44	217.67
500.61	259.80
500.79	227.03
500.97	285.55
501.14	243.42
501.32	189.58
501.49	308.95
501.67	278.52
501.84	257.46
502.02	191.92
502.20	285.55
502.37	292.57
502.55	264.48
502.72	311.29
502.90	283.20
503.07	264.48
503.25	285.55
503.43	236.39
503.60	290.23
503.78	201.29
503.95	220.01
504.13	287.89
504.30	262.14
504.48	250.44
504.65	271.50
504.83	339.38
505.01	255.12
505.18	255.12
505.36	250.44
505.53	236.39
505.71	248.10
505.88	205.97
506.06	236.39
506.23	231.71
506.41	238.73
506.58	287.89
506.76	294.91
506.93	264.48
507.11	285.55
507.28	205.97
507.46	217.67
507.63	257.46
507.81	358.10
507.98	301.93
508.16	241.08
508.33	292.57
508.50	220.01
508.68	243.42
508.85	278.52
509.03	259.80
509.20	322.99
509.38	208.31
509.55	306.61
509.73	313.63
509.90	308.95
510.08	266.82
510.25	341.72
510.42	255.12
510.60	276.18
510.77	276.18
510.95	318.31
511.12	292.57
511.30	236.39
511.47	367.46
511.64	330.02
511.82	266.82
511.99	301.93
512.17	248.10
512.34	177.88
512.51	210.65
512.69	287.89
512.86	264.48
513.04	243.42
513.21	285.55
513.38	257.46
513.56	269.16
513.73	187.24
513.90	210.65
514.08	198.95
514.25	262.14
514.43	257.46
514.60	276.18
514.77	234.05
514.95	306.61
515.12	304.27
515.29	264.48
515.47	285.55
515.64	327.68
515.81	337.04
515.99	313.63
516.16	243.42
516.33	322.99
516.51	255.12
516.68	198.95
516.85	250.44
517.03	243.42
517.20	313.63
517.37	322.99
517.54	238.73
517.72	262.14
517.89	198.95
518.06	177.88
518.24	341.72
518.41	365.12
518.58	337.04
518.75	255.12
518.93	306.61
519.10	273.84
519.27	245.76
519.45	208.31
519.62	280.86
519.79	311.29
519.96	283.20
520.14	212.99
520.31	266.82
520.48	196.60
520.65	231.71
520.83	341.72
521.00	201.29
521.17	330.02
521.34	198.95
521.52	271.50
521.69	238.73
521.86	264.48
522.03	285.55
522.20	248.10
522.38	264.48
522.55	196.60
522.72	273.84
522.89	255.12
523.07	297.25
523.24	187.24
523.41	269.16
523.58	252.78
523.75	299.59
523.92	304.27
524.10	238.73
524.27	269.16
524.44	252.78
524.61	308.95
524.78	339.38
524.96	313.63
525.13	222.35
525.30	318.31
525.47	297.25
525.64	297.25
525.81	248.10
525.98	332.36
526.16	262.14
526.33	297.25
526.50	189.58
526.67	210.65
526.84	304.27
527.01	283.20
527.18	245.76
527.36	194.26
527.53	198.95
527.70	301.93
527.87	262.14
528.04	252.78
528.21	241.08
528.38	266.82
528.55	252.78
528.72	315.97
528.89	257.46
529.07	276.18
529.24	255.12
529.41	278.52
529.58	276.18
529.75	252.78
529.92	283.20
530.09	330.02
530.26	308.95
530.43	271.50
530.60	245.76
530.77	229.37
530.94	297.25
531.11	255.12
531.28	299.59
531.46	311.29
531.63	278.52
531.80	234.05
531.97	299.59
532.14	266.82
532.31	301.93
532.48	344.06
532.65	348.74
532.82	334.70
532.99	351.08
533.16	271.50
533.33	322.99
533.50	292.57
533.67	360.44
533.84	365.12
534.01	397.89
534.18	379.17
534.35	283.20
534.52	327.68
534.69	299.59
534.86	252.78
535.03	276.18
535.20	243.42
535.37	222.35
535.54	313.63
535.71	198.95
535.88	390.87
536.05	245.76
536.22	304.27
536.38	346.40
536.55	262.14
536.72	269.16
536.89	271.50
537.06	285.55
537.23	313.63
537.40	271.50
537.57	294.91
537.74	320.65
537.91	353.42
538.08	315.97
538.25	318.31
538.42	285.55
538.59	348.74
538.75	325.33
538.92	362.78
539.09	311.29
539.26	334.70
539.43	465.77
539.60	819.19
539.77	1200.69
539.94	1048.56
540.11	802.80
540.28	734.93
540.44	531.30
540.61	433.00
540.78	514.92
540.95	472.79
541.12	622.58
541.29	543.00
541.46	653.01
541.62	650.67
541.79	552.37
541.96	512.58
542.13	524.28
542.30	528.96
542.47	540.66
542.63	566.41
542.80	463.43
542.97	554.71
543.14	498.53
543.31	601.52
543.48	547.69
543.64	507.90
543.81	521.94
543.98	470.45
544.15	482.15
544.32	379.17
544.48	444.70
544.65	479.81
544.82	451.72
544.99	521.94
545.16	564.07
545.32	444.70
545.49	770.04
545.66	978.34
545.83	1062.60
546.00	952.60
546.16	676.41
546.33	589.82
546.50	517.26
546.67	484.49
546.83	470.45
547.00	386.19
547.17	456.40
547.34	454.06
547.50	374.49
547.67	411.93
547.84	351.08
548.00	367.46
548.17	451.72
548.34	372.15
548.51	402.57
548.67	400.23
548.84	397.89
549.01	470.45
549.18	444.70
549.34	376.83
549.51	400.23
549.68	374.49
549.84	344.06
550.01	351.08
550.18	414.27
550.34	369.80
550.51	351.08
550.68	404.91
550.84	395.55
551.01	315.97
551.18	313.63
551.34	369.80
551.51	362.78
551.68	346.40
551.84	301.93
552.01	337.04
552.18	344.06
552.34	238.73
552.51	292.57
552.68	351.08
552.84	348.74
553.01	320.65
553.18	334.70
553.34	278.52
553.51	304.27
553.67	358.10
553.84	311.29
554.01	259.80
554.17	308.95
554.34	313.63
554.51	318.31
554.67	344.06
554.84	243.42
555.00	278.52
555.17	346.40
555.33	294.91
555.50	292.57
555.67	346.40
555.83	245.76
556.00	308.95
556.16	435.34
556.33	334.70
556.50	297.25
556.66	283.20
556.83	294.91
556.99	245.76
557.16	285.55
557.32	299.59
557.49	308.95
557.65	266.82
557.82	280.86
557.98	245.76
558.15	229.37
558.32	215.33
558.48	252.78
558.65	287.89
558.81	252.78
558.98	327.68
559.14	304.27
559.31	311.29
559.47	294.91
559.64	346.40
559.80	234.05
559.97	231.71
560.13	238.73
560.30	238.73
560.46	301.93
560.63	308.95
560.79	217.67
560.96	255.12
561.12	283.20
561.29	264.48
561.45	269.16
561.61	301.93
561.78	306.61
561.94	315.97
562.11	290.23
562.27	243.42
562.44	292.57
562.60	304.27
562.77	276.18
562.93	334.70
563.10	208.31
563.26	234.05
563.42	374.49
563.59	330.02
563.75	262.14
563.92	304.27
564.08	271.50
564.24	257.46
564.41	269.16
564.57	259.80
564.74	224.69
564.90	152.13
565.07	262.14
565.23	318.31
565.39	325.33
565.56	322.99
565.72	241.08
565.88	266.82
566.05	280.86
566.21	285.55
566.38	257.46
566.54	236.39
566.70	344.06
566.87	224.69
567.03	297.25
567.19	341.72
567.36	243.42
567.52	212.99
567.68	290.23
567.85	301.93
568.01	273.84
568.17	236.39
568.34	283.20
568.50	280.86
568.66	236.39
568.83	334.70
568.99	248.10
569.15	266.82
569.32	227.03
569.48	271.50
569.64	215.33
569.81	248.10
569.97	271.50
570.13	266.82
570.30	259.80
570.46	276.18
570.62	287.89
570.78	217.67
570.95	243.42
571.11	320.65
571.27	304.27
571.43	234.05
571.60	327.68
571.76	234.05
571.92	294.91
572.09	250.44
572.25	299.59
572.41	215.33
572.57	266.82
572.74	369.80
572.90	332.36
573.06	173.20
573.22	280.86
573.38	327.68
573.55	292.57
573.71	301.93
573.87	285.55
574.03	266.82
574.20	269.16
574.36	255.12
574.52	327.68
574.68	330.02
574.84	283.20
575.01	252.78
575.17	318.31
575.33	229.37
575.49	341.72
575.65	299.59
575.82	400.23
575.98	498.53
576.14	447.04
576.30	545.34
576.46	568.75
576.62	451.72
576.79	498.53
576.95	449.38
577.11	341.72
577.27	297.25
577.43	339.38
577.59	313.63
577.75	339.38
577.92	231.71
578.08	313.63
578.24	327.68
578.40	334.70
578.56	360.44
578.72	393.21
578.88	416.62
579.04	449.38
579.21	418.96
579.37	414.27
579.53	346.40
579.69	344.06
579.85	297.25
580.01	418.96
580.17	327.68
580.33	344.06
580.49	285.55
580.65	386.19
580.82	330.02
580.98	402.57
581.14	353.42
581.30	430.66
581.46	454.06
581.62	472.79
581.78	507.90
581.94	479.81
582.10	454.06
582.26	421.30
582.42	421.30
582.58	472.79
582.74	465.77
582.90	451.72
583.06	477.47
583.22	418.96
583.38	475.13
583.54	440.02
583.70	573.43
583.86	587.47
584.02	629.60
584.18	564.07
584.34	870.68
584.50	1867.75
584.66	12507.82
584.82	35220.38
584.98	48854.00
585.14	43220.33
585.30	27358.52
585.46	16479.71
585.62	10544.11
585.78	4959.60
585.94	1977.75
586.10	1156.22
586.26	788.76
586.42	650.67
586.58	557.05
586.74	540.66
586.90	603.86
587.06	554.71
587.22	486.83
587.38	550.03
587.54	870.68
587.70	2139.25
587.86	3353.99
588.02	3721.45
588.18	2778.22
588.34	1851.36
588.49	1186.65
588.65	791.10
588.81	545.34
588.97	383.85
589.13	266.82
589.29	367.46
589.45	414.27
589.61	337.04
589.77	510.24
589.93	463.43
590.08	374.49
590.24	397.89
590.40	346.40
590.56	414.27
590.72	376.83
590.88	341.72
591.04	332.36
591.20	330.02
591.35	351.08
591.51	341.72
591.67	341.72
591.83	341.72
591.99	351.08
592.15	304.27
592.31	388.53
592.46	477.47
592.62	362.78
592.78	313.63
592.94	454.06
593.10	444.70
593.26	449.38
593.41	395.55
593.57	444.70
593.73	461.09
593.89	1696.89
594.05	4252.75
594.20	6129.86
594.36	5872.40
594.52	3831.46
594.68	2492.67
594.84	1708.59
594.99	968.98
595.15	587.47
595.31	395.55
595.47	325.33
595.62	332.36
595.78	369.80
595.94	264.48
596.10	353.42
596.25	280.86
596.41	365.12
596.57	339.38
596.73	287.89
596.88	409.59
597.04	1020.47
597.20	1474.54
597.36	1736.68
597.51	1259.21
597.67	964.30
597.83	767.70
597.99	547.69
598.14	421.30
598.30	454.06
598.46	320.65
598.61	341.72
598.77	334.70
598.93	386.19
599.09	386.19
599.24	287.89
599.40	388.53
599.56	395.55
599.71	344.06
599.87	325.33
600.03	395.55
600.18	301.93
600.34	283.20
600.50	248.10
600.65	294.91
600.81	273.84
600.97	301.93
601.12	334.70
601.28	299.59
601.44	304.27
601.59	290.23
601.75	224.69
601.91	294.91
602.06	337.04
602.22	358.10
602.37	550.03
602.53	1125.80
602.69	1617.31
602.84	1694.55
603.00	1350.49
603.16	929.19
603.31	667.05
603.47	564.07
603.62	360.44
603.78	348.74
603.94	353.42
604.09	376.83
604.25	337.04
604.40	308.95
604.56	294.91
604.71	252.78
604.87	374.49
605.03	285.55
605.18	320.65
605.34	397.89
605.49	437.68
605.65	306.61
605.80	374.49
605.96	381.51
606.12	320.65
606.27	362.78
606.43	341.72
606.58	458.74
606.74	681.10
606.89	1980.09
607.05	4060.83
607.20	5008.75
607.36	4313.61
607.51	2951.42
607.67	2148.61
607.82	1535.39
607.98	943.24
608.13	552.37
608.29	489.17
608.44	482.15
608.60	447.04
608.75	489.17
608.91	828.55
609.06	3075.46
609.22	6752.45
609.37	8889.35
609.53	7880.58
609.68	5397.28
609.84	3611.45
609.99	2574.59
610.15	1652.42
