SpectraSuite Data File
++++++++++++++++++++++++++++++++++++
Date: Fri Oct 04 11:34:04 GMT-05:00 2013
User: price-jones
Dark Spectrum Present: No
Reference Spectrum Present: No
Number of Sampled Component Spectra: 1
Spectrometers: USB2+H05261
Integration Time (usec): 100000 (USB2+H05261)
Spectra Averaged: 1 (USB2+H05261)
Boxcar Smoothing: 0 (USB2+H05261)
Correct for Electrical Dark: No (USB2+H05261)
Strobe/Lamp Enabled: No (USB2+H05261)
Correct for Detector Non-linearity: No (USB2+H05261)
Correct for Stray Light: No (USB2+H05261)
Number of Pixels in Processed Spectrum: 2048
>>>>>Begin Processed Spectral Data<<<<<
365.73	133.41
365.92	133.41
366.12	133.41
366.32	0.00
366.52	0.00
366.72	53.83
366.91	0.00
367.11	30.43
367.31	11.70
367.51	0.00
367.70	21.06
367.90	0.00
368.10	0.00
368.30	23.41
368.49	0.00
368.69	16.38
368.89	0.00
369.09	0.00
369.28	0.00
369.48	0.00
369.68	58.51
369.87	18.72
370.07	0.00
370.27	84.26
370.47	23.41
370.66	39.79
370.86	81.92
371.06	84.26
371.25	203.63
371.45	56.17
371.65	77.24
371.84	72.56
372.04	7.02
372.24	142.77
372.44	70.22
372.63	126.39
372.83	154.48
373.03	147.45
373.22	112.35
373.42	102.98
373.62	86.60
373.81	131.07
374.01	159.16
374.21	208.31
374.40	189.58
374.60	119.37
374.79	177.88
374.99	135.75
375.19	133.41
375.38	184.90
375.58	198.95
375.78	112.35
375.97	201.29
376.17	194.26
376.37	112.35
376.56	196.60
376.76	51.49
376.95	114.69
377.15	208.31
377.35	133.41
377.54	128.73
377.74	124.05
377.93	191.92
378.13	175.54
378.33	147.45
378.52	126.39
378.72	138.09
378.91	184.90
379.11	168.52
379.31	142.77
379.50	86.60
379.70	161.50
379.89	114.69
380.09	119.37
380.28	124.05
380.48	140.43
380.68	84.26
380.87	145.11
381.07	86.60
381.26	154.48
381.46	149.79
381.65	173.20
381.85	142.77
382.04	161.50
382.24	152.13
382.43	117.03
382.63	135.75
382.83	105.32
383.02	189.58
383.22	170.86
383.41	163.84
383.61	114.69
383.80	138.09
384.00	98.30
384.19	180.22
384.39	182.56
384.58	140.43
384.78	184.90
384.97	121.71
385.17	98.30
385.36	131.07
385.56	133.41
385.75	154.48
385.95	114.69
386.14	177.88
386.34	140.43
386.53	105.32
386.72	110.01
386.92	166.18
387.11	145.11
387.31	88.94
387.50	173.20
387.70	135.75
387.89	166.18
388.09	138.09
388.28	65.54
388.48	86.60
388.67	177.88
388.86	170.86
389.06	37.45
389.25	93.62
389.45	149.79
389.64	133.41
389.84	149.79
390.03	135.75
390.22	173.20
390.42	112.35
390.61	189.58
390.81	140.43
391.00	149.79
391.19	208.31
391.39	135.75
391.58	175.54
391.78	231.71
391.97	180.22
392.16	170.86
392.36	241.08
392.55	212.99
392.75	166.18
392.94	128.73
393.13	161.50
393.33	140.43
393.52	152.13
393.71	191.92
393.91	184.90
394.10	126.39
394.29	156.82
394.49	175.54
394.68	149.79
394.88	147.45
395.07	231.71
395.26	161.50
395.46	114.69
395.65	102.98
395.84	191.92
396.04	184.90
396.23	201.29
396.42	119.37
396.62	133.41
396.81	168.52
397.00	156.82
397.19	95.96
397.39	138.09
397.58	159.16
397.77	135.75
397.97	112.35
398.16	191.92
398.35	163.84
398.55	133.41
398.74	128.73
398.93	180.22
399.12	117.03
399.32	191.92
399.51	93.62
399.70	170.86
399.90	114.69
400.09	177.88
400.28	250.44
400.47	105.32
400.67	149.79
400.86	210.65
401.05	98.30
401.24	203.63
401.44	135.75
401.63	175.54
401.82	201.29
402.01	107.66
402.21	117.03
402.40	224.69
402.59	163.84
402.78	138.09
402.97	198.95
403.17	156.82
403.36	135.75
403.55	131.07
403.74	133.41
403.93	231.71
404.13	276.18
404.32	198.95
404.51	189.58
404.70	203.63
404.89	184.90
405.09	170.86
405.28	161.50
405.47	170.86
405.66	156.82
405.85	163.84
406.05	126.39
406.24	182.56
406.43	145.11
406.62	119.37
406.81	210.65
407.00	208.31
407.20	184.90
407.39	191.92
407.58	215.33
407.77	189.58
407.96	149.79
408.15	238.73
408.34	196.60
408.54	180.22
408.73	210.65
408.92	184.90
409.11	201.29
409.30	166.18
409.49	210.65
409.68	170.86
409.87	196.60
410.07	152.13
410.26	117.03
410.45	203.63
410.64	114.69
410.83	168.52
411.02	126.39
411.21	177.88
411.40	119.37
411.59	241.08
411.78	231.71
411.98	124.05
412.17	154.48
412.36	105.32
412.55	138.09
412.74	203.63
412.93	198.95
413.12	102.98
413.31	149.79
413.50	189.58
413.69	182.56
413.88	198.95
414.07	205.97
414.26	163.84
414.45	51.49
414.64	117.03
414.83	201.29
415.02	163.84
415.22	173.20
415.41	182.56
415.60	184.90
415.79	110.01
415.98	217.67
416.17	138.09
416.36	180.22
416.55	191.92
416.74	159.16
416.93	227.03
417.12	234.05
417.31	196.60
417.50	114.69
417.69	227.03
417.88	269.16
418.07	224.69
418.26	180.22
418.45	175.54
418.64	297.25
418.83	231.71
419.02	229.37
419.21	217.67
419.39	266.82
419.58	194.26
419.77	231.71
419.96	210.65
420.15	245.76
420.34	135.75
420.53	236.39
420.72	142.77
420.91	142.77
421.10	168.52
421.29	189.58
421.48	154.48
421.67	91.28
421.86	112.35
422.05	177.88
422.24	175.54
422.43	161.50
422.61	156.82
422.80	194.26
422.99	203.63
423.18	168.52
423.37	196.60
423.56	163.84
423.75	180.22
423.94	142.77
424.13	159.16
424.32	145.11
424.50	142.77
424.69	180.22
424.88	245.76
425.07	152.13
425.26	175.54
425.45	220.01
425.64	313.63
425.83	182.56
426.01	252.78
426.20	217.67
426.39	231.71
426.58	161.50
426.77	212.99
426.96	168.52
427.15	259.80
427.33	175.54
427.52	175.54
427.71	156.82
427.90	159.16
428.09	161.50
428.28	107.66
428.46	128.73
428.65	168.52
428.84	133.41
429.03	234.05
429.22	135.75
429.40	187.24
429.59	161.50
429.78	194.26
429.97	201.29
430.16	147.45
430.34	180.22
430.53	102.98
430.72	224.69
430.91	243.42
431.10	156.82
431.28	117.03
431.47	163.84
431.66	194.26
431.85	175.54
432.03	170.86
432.22	229.37
432.41	182.56
432.60	126.39
432.79	252.78
432.97	224.69
433.16	355.76
433.35	250.44
433.54	159.16
433.72	201.29
433.91	245.76
434.10	170.86
434.28	220.01
434.47	222.35
434.66	180.22
434.85	175.54
435.03	248.10
435.22	330.02
435.41	578.11
435.59	489.17
435.78	407.25
435.97	294.91
436.16	222.35
436.34	222.35
436.53	196.60
436.72	276.18
436.90	227.03
437.09	161.50
437.28	177.88
437.46	107.66
437.65	255.12
437.84	159.16
438.02	220.01
438.21	170.86
438.40	187.24
438.58	105.32
438.77	180.22
438.96	145.11
439.14	208.31
439.33	166.18
439.52	121.71
439.70	119.37
439.89	215.33
440.08	180.22
440.26	159.16
440.45	290.23
440.63	135.75
440.82	138.09
441.01	161.50
441.19	184.90
441.38	245.76
441.57	159.16
441.75	166.18
441.94	203.63
442.12	215.33
442.31	212.99
442.50	168.52
442.68	220.01
442.87	234.05
443.05	208.31
443.24	173.20
443.43	245.76
443.61	255.12
443.80	163.84
443.98	250.44
444.17	156.82
444.35	187.24
444.54	142.77
444.73	252.78
444.91	238.73
445.10	159.16
445.28	159.16
445.47	201.29
445.65	210.65
445.84	175.54
446.02	271.50
446.21	154.48
446.39	168.52
446.58	184.90
446.77	168.52
446.95	196.60
447.14	212.99
447.32	210.65
447.51	180.22
447.69	196.60
447.88	159.16
448.06	159.16
448.25	222.35
448.43	236.39
448.62	100.64
448.80	227.03
448.99	255.12
449.17	168.52
449.36	133.41
449.54	210.65
449.73	166.18
449.91	257.46
450.10	117.03
450.28	220.01
450.46	264.48
450.65	173.20
450.83	194.26
451.02	131.07
451.20	198.95
451.39	194.26
451.57	215.33
451.76	131.07
451.94	201.29
452.13	257.46
452.31	173.20
452.49	135.75
452.68	131.07
452.86	198.95
453.05	187.24
453.23	119.37
453.42	133.41
453.60	121.71
453.78	119.37
453.97	250.44
454.15	126.39
454.34	212.99
454.52	124.05
454.70	276.18
454.89	198.95
455.07	194.26
455.26	250.44
455.44	187.24
455.62	152.13
455.81	196.60
455.99	241.08
456.17	180.22
456.36	191.92
456.54	168.52
456.73	217.67
456.91	208.31
457.09	182.56
457.28	252.78
457.46	217.67
457.64	159.16
457.83	147.45
458.01	212.99
458.19	196.60
458.38	250.44
458.56	241.08
458.74	135.75
458.93	175.54
459.11	161.50
459.29	173.20
459.48	194.26
459.66	217.67
459.84	191.92
460.03	220.01
460.21	163.84
460.39	159.16
460.57	177.88
460.76	175.54
460.94	177.88
461.12	252.78
461.31	217.67
461.49	215.33
461.67	156.82
461.85	175.54
462.04	175.54
462.22	594.50
462.40	175.54
462.59	217.67
462.77	210.65
462.95	224.69
463.13	159.16
463.32	168.52
463.50	241.08
463.68	149.79
463.86	182.56
464.05	163.84
464.23	215.33
464.41	175.54
464.59	145.11
464.78	187.24
464.96	255.12
465.14	278.52
465.32	168.52
465.50	124.05
465.69	220.01
465.87	170.86
466.05	255.12
466.23	224.69
466.41	217.67
466.60	252.78
466.78	290.23
466.96	208.31
467.14	140.43
467.32	212.99
467.51	245.76
467.69	175.54
467.87	276.18
468.05	187.24
468.23	252.78
468.41	191.92
468.60	198.95
468.78	264.48
468.96	262.14
469.14	250.44
469.32	110.01
469.50	187.24
469.69	198.95
469.87	208.31
470.05	203.63
470.23	245.76
470.41	166.18
470.59	173.20
470.77	292.57
470.95	222.35
471.14	224.69
471.32	241.08
471.50	262.14
471.68	231.71
471.86	177.88
472.04	147.45
472.22	187.24
472.40	163.84
472.58	147.45
472.77	187.24
472.95	208.31
473.13	322.99
473.31	161.50
473.49	138.09
473.67	227.03
473.85	273.84
474.03	250.44
474.21	208.31
474.39	203.63
474.57	138.09
474.75	156.82
474.93	173.20
475.12	229.37
475.30	166.18
475.48	224.69
475.66	189.58
475.84	166.18
476.02	149.79
476.20	212.99
476.38	145.11
476.56	187.24
476.74	175.54
476.92	175.54
477.10	166.18
477.28	145.11
477.46	224.69
477.64	189.58
477.82	234.05
478.00	224.69
478.18	252.78
478.36	201.29
478.54	245.76
478.72	222.35
478.90	182.56
479.08	264.48
479.26	299.59
479.44	224.69
479.62	205.97
479.80	250.44
479.98	161.50
480.16	205.97
480.34	194.26
480.52	208.31
480.70	257.46
480.88	135.75
481.06	238.73
481.24	131.07
481.41	210.65
481.59	301.93
481.77	262.14
481.95	238.73
482.13	245.76
482.31	215.33
482.49	205.97
482.67	222.35
482.85	215.33
483.03	182.56
483.21	187.24
483.39	222.35
483.57	191.92
483.74	269.16
483.92	269.16
484.10	229.37
484.28	287.89
484.46	292.57
484.64	257.46
484.82	241.08
485.00	201.29
485.18	294.91
485.35	241.08
485.53	280.86
485.71	243.42
485.89	262.14
486.07	248.10
486.25	346.40
486.43	280.86
486.61	292.57
486.78	243.42
486.96	198.95
487.14	330.02
487.32	236.39
487.50	259.80
487.68	191.92
487.85	248.10
488.03	231.71
488.21	273.84
488.39	238.73
488.57	231.71
488.75	236.39
488.92	505.56
489.10	269.16
489.28	287.89
489.46	287.89
489.64	264.48
489.81	285.55
489.99	290.23
490.17	259.80
490.35	315.97
490.53	306.61
490.70	184.90
490.88	196.60
491.06	259.80
491.24	273.84
491.41	234.05
491.59	248.10
491.77	306.61
491.95	234.05
492.13	236.39
492.30	266.82
492.48	257.46
492.66	283.20
492.84	313.63
493.01	283.20
493.19	273.84
493.37	287.89
493.54	245.76
493.72	224.69
493.90	257.46
494.08	248.10
494.25	250.44
494.43	271.50
494.61	283.20
494.79	227.03
494.96	299.59
495.14	308.95
495.32	266.82
495.49	280.86
495.67	250.44
495.85	236.39
496.02	191.92
496.20	215.33
496.38	287.89
496.55	168.52
496.73	252.78
496.91	313.63
497.09	278.52
497.26	252.78
497.44	227.03
497.62	262.14
497.79	266.82
497.97	313.63
498.14	215.33
498.32	313.63
498.50	212.99
498.67	231.71
498.85	238.73
499.03	318.31
499.20	257.46
499.38	250.44
499.56	238.73
499.73	325.33
499.91	311.29
500.08	294.91
500.26	280.86
500.44	201.29
500.61	220.01
500.79	238.73
500.97	168.52
501.14	184.90
501.32	234.05
501.49	245.76
501.67	196.60
501.84	215.33
502.02	231.71
502.20	332.36
502.37	259.80
502.55	283.20
502.72	301.93
502.90	294.91
503.07	271.50
503.25	252.78
503.43	205.97
503.60	276.18
503.78	308.95
503.95	264.48
504.13	220.01
504.30	231.71
504.48	245.76
504.65	262.14
504.83	229.37
505.01	264.48
505.18	243.42
505.36	257.46
505.53	264.48
505.71	306.61
505.88	245.76
506.06	264.48
506.23	245.76
506.41	205.97
506.58	248.10
506.76	145.11
506.93	212.99
507.11	306.61
507.28	252.78
507.46	217.67
507.63	273.84
507.81	325.33
507.98	283.20
508.16	259.80
508.33	348.74
508.50	273.84
508.68	220.01
508.85	227.03
509.03	252.78
509.20	187.24
509.38	222.35
509.55	276.18
509.73	294.91
509.90	245.76
510.08	276.18
510.25	287.89
510.42	236.39
510.60	283.20
510.77	311.29
510.95	276.18
511.12	290.23
511.30	365.12
511.47	313.63
511.64	283.20
511.82	201.29
511.99	255.12
512.17	278.52
512.34	269.16
512.51	198.95
512.69	259.80
512.86	283.20
513.04	280.86
513.21	283.20
513.38	205.97
513.56	198.95
513.73	257.46
513.90	187.24
514.08	320.65
514.25	271.50
514.43	280.86
514.60	234.05
514.77	271.50
514.95	217.67
515.12	194.26
515.29	285.55
515.47	292.57
515.64	243.42
515.81	269.16
515.99	264.48
516.16	220.01
516.33	262.14
516.51	194.26
516.68	231.71
516.85	257.46
517.03	170.86
517.20	229.37
517.37	283.20
517.54	229.37
517.72	231.71
517.89	180.22
518.06	234.05
518.24	276.18
518.41	269.16
518.58	292.57
518.75	280.86
518.93	255.12
519.10	264.48
519.27	243.42
519.45	252.78
519.62	325.33
519.79	269.16
519.96	224.69
520.14	297.25
520.31	273.84
520.48	269.16
520.65	248.10
520.83	273.84
521.00	196.60
521.17	264.48
521.34	297.25
521.52	266.82
521.69	290.23
521.86	266.82
522.03	245.76
522.20	341.72
522.38	273.84
522.55	264.48
522.72	212.99
522.89	292.57
523.07	299.59
523.24	264.48
523.41	234.05
523.58	245.76
523.75	313.63
523.92	208.31
524.10	271.50
524.27	250.44
524.44	269.16
524.61	255.12
524.78	236.39
524.96	301.93
525.13	285.55
525.30	325.33
525.47	287.89
525.64	299.59
525.81	222.35
525.98	266.82
526.16	290.23
526.33	301.93
526.50	278.52
526.67	262.14
526.84	238.73
527.01	290.23
527.18	257.46
527.36	287.89
527.53	248.10
527.70	264.48
527.87	278.52
528.04	315.97
528.21	271.50
528.38	339.38
528.55	280.86
528.72	353.42
528.89	372.15
529.07	325.33
529.24	332.36
529.41	322.99
529.58	248.10
529.75	304.27
529.92	201.29
530.09	372.15
530.26	250.44
530.43	313.63
530.60	332.36
530.77	212.99
530.94	278.52
531.11	245.76
531.28	280.86
531.46	259.80
531.63	278.52
531.80	271.50
531.97	294.91
532.14	306.61
532.31	315.97
532.48	330.02
532.65	411.93
532.82	440.02
532.99	407.25
533.16	299.59
533.33	358.10
533.50	308.95
533.67	383.85
533.84	475.13
534.01	505.56
534.18	390.87
534.35	353.42
534.52	306.61
534.69	320.65
534.86	212.99
535.03	315.97
535.20	334.70
535.37	264.48
535.54	308.95
535.71	276.18
535.88	318.31
536.05	311.29
536.22	273.84
536.38	250.44
536.55	322.99
536.72	283.20
536.89	205.97
537.06	306.61
537.23	334.70
537.40	315.97
537.57	330.02
537.74	341.72
537.91	322.99
538.08	301.93
538.25	372.15
538.42	346.40
538.59	374.49
538.75	287.89
538.92	348.74
539.09	346.40
539.26	339.38
539.43	596.84
539.60	1123.46
539.77	1600.93
539.94	1607.95
540.11	1083.67
540.28	887.06
540.44	615.56
540.61	498.53
540.78	484.49
540.95	512.58
541.12	564.07
541.29	531.30
541.46	613.22
541.62	653.01
541.79	594.50
541.96	538.32
542.13	550.03
542.30	482.15
542.47	414.27
542.63	533.64
542.80	601.52
542.97	571.09
543.14	573.43
543.31	526.62
543.48	512.58
543.64	521.94
543.81	507.90
543.98	407.25
544.15	489.17
544.32	477.47
544.48	440.02
544.65	554.71
544.82	517.26
544.99	454.06
545.16	564.07
545.32	613.22
545.49	702.16
545.66	957.28
545.83	1111.75
546.00	1074.31
546.16	716.20
546.33	706.84
546.50	552.37
546.67	543.00
546.83	510.24
547.00	533.64
547.17	423.64
547.34	330.02
547.50	463.43
547.67	337.04
547.84	414.27
548.00	409.59
548.17	440.02
548.34	395.55
548.51	369.80
548.67	362.78
548.84	418.96
549.01	365.12
549.18	393.21
549.34	402.57
549.51	379.17
549.68	362.78
549.84	299.59
550.01	390.87
550.18	397.89
550.34	447.04
550.51	320.65
550.68	355.76
550.84	318.31
551.01	255.12
551.18	252.78
551.34	339.38
551.51	367.46
551.68	266.82
551.84	306.61
552.01	290.23
552.18	306.61
552.34	318.31
552.51	311.29
552.68	278.52
552.84	290.23
553.01	250.44
553.18	313.63
553.34	320.65
553.51	220.01
553.67	280.86
553.84	409.59
554.01	341.72
554.17	393.21
554.34	276.18
554.51	304.27
554.67	311.29
554.84	334.70
555.00	264.48
555.17	327.68
555.33	252.78
555.50	287.89
555.67	360.44
555.83	245.76
556.00	278.52
556.16	482.15
556.33	278.52
556.50	353.42
556.66	334.70
556.83	255.12
556.99	318.31
557.16	266.82
557.32	273.84
557.49	264.48
557.65	245.76
557.82	234.05
557.98	276.18
558.15	238.73
558.32	297.25
558.48	339.38
558.65	229.37
558.81	304.27
558.98	187.24
559.14	271.50
559.31	292.57
559.47	259.80
559.64	234.05
559.80	259.80
559.97	257.46
560.13	285.55
560.30	205.97
560.46	203.63
560.63	231.71
560.79	266.82
560.96	315.97
561.12	220.01
561.29	285.55
561.45	224.69
561.61	163.84
561.78	294.91
561.94	257.46
562.11	290.23
562.27	210.65
562.44	334.70
562.60	292.57
562.77	245.76
562.93	283.20
563.10	220.01
563.26	184.90
563.42	212.99
563.59	245.76
563.75	234.05
563.92	278.52
564.08	241.08
564.24	266.82
564.41	299.59
564.57	287.89
564.74	222.35
564.90	271.50
565.07	259.80
565.23	299.59
565.39	276.18
565.56	292.57
565.72	241.08
565.88	266.82
566.05	180.22
566.21	351.08
566.38	259.80
566.54	234.05
566.70	222.35
566.87	262.14
567.03	266.82
567.19	269.16
567.36	313.63
567.52	259.80
567.68	234.05
567.85	248.10
568.01	285.55
568.17	220.01
568.34	299.59
568.50	266.82
568.66	224.69
568.83	344.06
568.99	262.14
569.15	315.97
569.32	308.95
569.48	201.29
569.64	208.31
569.81	259.80
569.97	264.48
570.13	262.14
570.30	262.14
570.46	264.48
570.62	194.26
570.78	273.84
570.95	212.99
571.11	227.03
571.27	355.76
571.43	271.50
571.60	318.31
571.76	362.78
571.92	301.93
572.09	196.60
572.25	250.44
572.41	205.97
572.57	224.69
572.74	283.20
572.90	337.04
573.06	297.25
573.22	322.99
573.38	283.20
573.55	322.99
573.71	299.59
573.87	259.80
574.03	287.89
574.20	196.60
574.36	411.93
574.52	320.65
574.68	306.61
574.84	365.12
575.01	257.46
575.17	311.29
575.33	308.95
575.49	238.73
575.65	339.38
575.82	395.55
575.98	561.73
576.14	718.54
576.30	704.50
576.46	676.41
576.62	585.13
576.79	650.67
576.95	526.62
577.11	437.68
577.27	395.55
577.43	332.36
577.59	322.99
577.75	304.27
577.92	297.25
578.08	294.91
578.24	360.44
578.40	379.17
578.56	402.57
578.72	503.22
578.88	486.83
579.04	390.87
579.21	348.74
579.37	308.95
579.53	308.95
579.69	353.42
579.85	341.72
580.01	409.59
580.17	500.87
580.33	479.81
580.49	383.85
580.65	411.93
580.82	397.89
580.98	407.25
581.14	418.96
581.30	433.00
581.46	447.04
581.62	617.90
581.78	667.05
581.94	713.86
582.10	514.92
582.26	547.69
582.42	575.77
582.58	454.06
582.74	535.98
582.90	557.05
583.06	524.28
583.22	535.98
583.38	550.03
583.54	650.67
583.70	664.71
583.86	718.54
584.02	741.95
584.18	936.21
584.34	1165.59
584.50	2874.18
584.66	20776.94
584.82	53406.34
584.98	63730.45
585.14	60821.16
585.30	46370.69
585.46	27644.07
585.62	17287.20
585.78	8152.09
585.94	3290.79
586.10	1631.35
586.26	1015.79
586.42	964.30
586.58	786.42
586.74	779.40
586.90	697.48
587.06	627.26
587.22	634.29
587.38	615.56
587.54	1261.55
587.70	3288.45
587.86	5650.05
588.02	6113.48
588.18	4311.27
588.34	2754.81
588.49	1820.94
588.65	1172.61
588.81	709.18
588.97	510.24
589.13	444.70
589.29	402.57
589.45	355.76
589.61	414.27
589.77	442.36
589.93	475.13
590.08	517.26
590.24	486.83
590.40	524.28
590.56	468.11
590.72	484.49
590.88	383.85
591.04	486.83
591.20	435.34
591.35	402.57
591.51	400.23
591.67	425.98
591.83	428.32
591.99	440.02
592.15	433.00
592.31	386.19
592.46	425.98
592.62	409.59
592.78	376.83
592.94	421.30
593.10	470.45
593.26	437.68
593.41	407.25
593.57	416.62
593.73	629.60
593.89	2546.50
594.05	6820.32
594.20	10139.20
594.36	9874.72
594.52	6656.48
594.68	4039.76
594.84	2789.92
594.99	1542.41
595.15	784.08
595.31	491.51
595.47	400.23
595.62	313.63
595.78	379.17
595.94	383.85
596.10	367.46
596.25	414.27
596.41	414.27
596.57	372.15
596.73	374.49
596.88	634.29
597.04	1366.87
597.20	2230.53
597.36	2635.44
597.51	1954.35
597.67	1341.13
597.83	947.92
597.99	795.78
598.14	580.45
598.30	421.30
598.46	416.62
598.61	472.79
598.77	369.80
598.93	358.10
599.09	313.63
599.24	365.12
599.40	374.49
599.56	367.46
599.71	273.84
599.87	290.23
600.03	278.52
600.18	318.31
600.34	383.85
600.50	238.73
600.65	283.20
600.81	311.29
600.97	372.15
601.12	262.14
601.28	299.59
601.44	297.25
601.59	241.08
601.75	243.42
601.91	383.85
602.06	313.63
602.22	421.30
602.37	653.01
602.53	1572.84
602.69	2562.89
602.84	2663.53
603.00	2024.56
603.16	1338.79
603.31	1027.50
603.47	690.46
603.62	400.23
603.78	344.06
603.94	332.36
604.09	383.85
604.25	362.78
604.40	283.20
604.56	344.06
604.71	320.65
604.87	315.97
605.03	337.04
605.18	381.51
605.34	351.08
605.49	273.84
605.65	437.68
605.80	306.61
605.96	351.08
606.12	388.53
606.27	418.96
606.43	456.40
606.58	379.17
606.74	842.59
606.89	3007.59
607.05	6216.46
607.20	8552.32
607.36	7138.63
607.51	4985.34
607.67	3232.28
607.82	2293.72
607.98	1263.89
608.13	678.76
608.29	517.26
608.44	447.04
608.60	482.15
608.75	613.22
608.91	1219.42
609.06	4968.96
609.22	11157.33
609.37	15297.74
609.53	13673.41
609.68	9156.18
609.84	5900.49
609.99	4105.30
