SpectraSuite Data File
++++++++++++++++++++++++++++++++++++
Date: Fri Oct 04 12:13:55 GMT-05:00 2013
User: price-jones
Dark Spectrum Present: No
Reference Spectrum Present: No
Number of Sampled Component Spectra: 1
Spectrometers: USB2+H05261
Integration Time (usec): 1000000 (USB2+H05261)
Spectra Averaged: 1 (USB2+H05261)
Boxcar Smoothing: 0 (USB2+H05261)
Correct for Electrical Dark: No (USB2+H05261)
Strobe/Lamp Enabled: No (USB2+H05261)
Correct for Detector Non-linearity: No (USB2+H05261)
Correct for Stray Light: No (USB2+H05261)
Number of Pixels in Processed Spectrum: 2048
>>>>>Begin Processed Spectral Data<<<<<
365.73	0.00
365.92	0.00
366.12	0.00
366.32	0.00
366.52	0.00
366.72	269.16
366.91	35.11
367.11	255.12
367.31	205.97
367.51	290.23
367.70	397.89
367.90	517.26
368.10	322.99
368.30	400.23
368.49	142.77
368.69	503.22
368.89	351.08
369.09	159.16
369.28	334.70
369.48	128.73
369.68	180.22
369.87	308.95
370.07	217.67
370.27	585.13
370.47	332.36
370.66	330.02
370.86	519.60
371.06	657.69
371.25	903.45
371.45	390.87
371.65	702.16
371.84	320.65
372.04	297.25
372.24	540.66
372.44	461.09
372.63	585.13
372.83	889.40
373.03	472.79
373.22	381.51
373.42	390.87
373.62	465.77
373.81	524.28
374.01	730.25
374.21	723.23
374.40	454.06
374.60	739.61
374.79	547.69
374.99	510.24
375.19	535.98
375.38	608.54
375.58	564.07
375.78	725.57
375.97	617.90
376.17	1006.43
376.37	479.81
376.56	498.53
376.76	367.46
376.95	351.08
377.15	653.01
377.35	620.24
377.54	624.92
377.74	372.15
377.93	423.64
378.13	533.64
378.33	702.16
378.52	489.17
378.72	655.35
378.91	692.80
379.11	475.13
379.31	451.72
379.50	315.97
379.70	704.50
379.89	739.61
380.09	374.49
380.28	287.89
380.48	512.58
380.68	447.04
380.87	308.95
381.07	631.94
381.26	678.76
381.46	662.37
381.65	648.33
381.85	472.79
382.04	458.74
382.24	615.56
382.43	510.24
382.63	318.31
382.83	393.21
383.02	638.97
383.22	807.48
383.41	330.02
383.61	418.96
383.80	435.34
384.00	503.22
384.19	482.15
384.39	425.98
384.58	411.93
384.78	608.54
384.97	535.98
385.17	468.11
385.36	463.43
385.56	613.22
385.75	348.74
385.95	461.09
386.14	610.88
386.34	444.70
386.53	528.96
386.72	451.72
386.92	791.10
387.11	578.11
387.31	580.45
387.50	454.06
387.70	386.19
387.89	589.82
388.09	442.36
388.28	383.85
388.48	376.83
388.67	606.20
388.86	447.04
389.06	472.79
389.25	582.79
389.45	566.41
389.64	479.81
389.84	807.48
390.03	615.56
390.22	545.34
390.42	456.40
390.61	386.19
390.81	327.68
391.00	554.71
391.19	720.88
391.39	493.85
391.58	582.79
391.78	634.29
391.97	580.45
392.16	451.72
392.36	774.72
392.55	781.74
392.75	484.49
392.94	348.74
393.13	631.94
393.33	397.89
393.52	425.98
393.71	807.48
393.91	552.37
394.10	386.19
394.29	444.70
394.49	489.17
394.68	671.73
394.88	812.17
395.07	755.99
395.26	526.62
395.46	585.13
395.65	763.01
395.84	559.39
396.04	1139.84
396.23	543.00
396.42	409.59
396.62	662.37
396.81	669.39
397.00	608.54
397.19	592.16
397.39	510.24
397.58	793.44
397.77	465.77
397.97	599.18
398.16	603.86
398.35	627.26
398.55	407.25
398.74	566.41
398.93	716.20
399.12	538.32
399.32	683.44
399.51	465.77
399.70	741.95
399.90	650.67
400.09	601.52
400.28	784.08
400.47	521.94
400.67	676.41
400.86	582.79
401.05	744.29
401.24	692.80
401.44	622.58
401.63	734.93
401.82	802.80
402.01	486.83
402.21	615.56
402.40	662.37
402.59	496.19
402.78	470.45
402.97	423.64
403.17	674.07
403.36	674.07
403.55	592.16
403.74	589.82
403.93	587.47
404.13	924.51
404.32	491.51
404.51	493.85
404.70	821.53
404.89	603.86
405.09	1048.56
405.28	512.58
405.47	503.22
405.66	655.35
405.85	772.38
406.05	571.09
406.24	561.73
406.43	641.31
406.62	725.57
406.81	1100.05
407.00	716.20
407.20	636.63
407.39	594.50
407.58	493.85
407.77	723.23
407.96	866.00
408.15	833.23
408.34	809.83
408.54	702.16
408.73	713.86
408.92	566.41
409.11	716.20
409.30	828.55
409.49	540.66
409.68	580.45
409.87	739.61
410.07	496.19
410.26	688.12
410.45	580.45
410.64	524.28
410.83	695.14
411.02	627.26
411.21	805.14
411.40	798.12
411.59	671.73
411.78	610.88
411.98	603.86
412.17	578.11
412.36	592.16
412.55	582.79
412.74	777.06
412.93	1025.15
413.12	547.69
413.31	908.13
413.50	704.50
413.69	641.31
413.88	887.06
414.07	716.20
414.26	725.57
414.45	493.85
414.64	767.70
414.83	828.55
415.02	674.07
415.22	770.04
415.41	910.47
415.60	657.69
415.79	692.80
415.98	943.24
416.17	662.37
416.36	662.37
416.55	440.02
416.74	795.78
416.93	882.38
417.12	711.52
417.31	653.01
417.50	678.76
417.69	1205.38
417.88	816.85
418.07	676.41
418.26	753.65
418.45	692.80
418.64	1095.37
418.83	922.17
419.02	858.98
419.21	758.33
419.39	823.87
419.58	697.48
419.77	681.10
419.96	837.91
420.15	997.07
420.34	681.10
420.53	695.14
420.72	905.79
420.91	800.46
421.10	664.71
421.29	697.48
421.48	737.27
421.67	903.45
421.86	554.71
422.05	648.33
422.24	662.37
422.43	692.80
422.61	552.37
422.80	638.97
422.99	669.39
423.18	608.54
423.37	997.07
423.56	812.17
423.75	856.64
423.94	535.98
424.13	713.86
424.32	566.41
424.50	760.67
424.69	748.97
424.88	999.41
425.07	622.58
425.26	873.02
425.45	898.77
425.64	657.69
425.83	760.67
426.01	1114.10
426.20	819.19
426.39	608.54
426.58	627.26
426.77	727.91
426.96	844.93
427.15	823.87
427.33	617.90
427.52	685.78
427.71	643.65
427.90	774.72
428.09	699.82
428.28	587.47
428.46	650.67
428.65	812.17
428.84	809.83
429.03	1027.50
429.22	636.63
429.40	592.16
429.59	456.40
429.78	1069.62
429.97	622.58
430.16	484.49
430.34	606.20
430.53	615.56
430.72	571.09
430.91	870.68
431.10	587.47
431.28	744.29
431.47	898.77
431.66	816.85
431.85	617.90
432.03	681.10
432.22	1186.65
432.41	681.10
432.60	978.34
432.79	793.44
432.97	908.13
433.16	805.14
433.35	711.52
433.54	671.73
433.72	891.74
433.91	910.47
434.10	664.71
434.28	816.85
434.47	688.12
434.66	924.51
434.85	587.47
435.03	795.78
435.22	1125.80
435.41	1146.86
435.59	908.13
435.78	765.36
435.97	674.07
436.16	933.87
436.34	744.29
436.53	851.96
436.72	950.26
436.90	889.40
437.09	826.21
437.28	842.59
437.46	725.57
437.65	896.43
437.84	896.43
438.02	950.26
438.21	919.83
438.40	716.20
438.58	615.56
438.77	755.99
438.96	744.29
439.14	669.39
439.33	950.26
439.52	748.97
439.70	748.97
439.89	903.45
440.08	884.72
440.26	800.46
440.45	1137.50
440.63	840.25
440.82	858.98
441.01	887.06
441.19	786.42
441.38	828.55
441.57	861.32
441.75	1137.50
441.94	1050.90
442.12	837.91
442.31	793.44
442.50	828.55
442.68	660.03
442.87	844.93
443.05	802.80
443.24	964.30
443.43	1167.93
443.61	1123.46
443.80	840.25
443.98	709.18
444.17	851.96
444.35	952.60
444.54	795.78
444.73	863.66
444.91	1088.35
445.10	711.52
445.28	746.63
445.47	887.06
445.65	854.30
445.84	774.72
446.02	844.93
446.21	912.81
446.39	739.61
446.58	915.15
446.77	777.06
446.95	844.93
447.14	1039.20
447.32	1109.41
447.51	880.04
447.69	908.13
447.88	903.45
448.06	1121.12
448.25	1088.35
448.43	793.44
448.62	807.48
448.80	1006.43
448.99	954.94
449.17	807.48
449.36	805.14
449.54	954.94
449.73	800.46
449.91	1022.81
450.10	887.06
450.28	1458.15
450.46	1308.36
450.65	1132.82
450.83	1076.65
451.02	866.00
451.20	877.70
451.39	856.64
451.57	884.72
451.76	805.14
451.94	901.11
452.13	1048.56
452.31	1090.69
452.49	961.96
452.68	655.35
452.86	849.61
453.05	1371.55
453.23	875.36
453.42	809.83
453.60	847.27
453.78	968.98
453.97	819.19
454.15	725.57
454.34	793.44
454.52	777.06
454.70	1146.86
454.89	1036.86
455.07	786.42
455.26	1022.81
455.44	990.05
455.62	800.46
455.81	936.21
455.99	1015.79
456.17	1001.75
456.36	870.68
456.54	929.19
456.73	835.57
456.91	798.12
457.09	1015.79
457.28	1076.65
457.46	912.81
457.64	1181.97
457.83	922.17
458.01	854.30
458.19	954.94
458.38	849.61
458.56	971.32
458.74	779.40
458.93	1086.01
459.11	868.34
459.29	755.99
459.48	1116.44
459.66	1207.72
459.84	1118.78
460.03	1757.74
460.21	1118.78
460.39	884.72
460.57	1259.21
460.76	1046.22
460.94	938.55
461.12	1425.39
461.31	1306.02
461.49	891.74
461.67	882.38
461.85	1055.58
462.04	908.13
462.22	5905.17
462.40	1341.13
462.59	1156.22
462.77	800.46
462.95	997.07
463.13	807.48
463.32	1151.54
463.50	912.81
463.68	1100.05
463.86	908.13
464.05	945.58
464.23	1210.06
464.41	1107.07
464.59	826.21
464.78	861.32
464.96	781.74
465.14	968.98
465.32	877.70
465.50	1088.35
465.69	1102.39
465.87	758.33
466.05	1086.01
466.23	788.76
466.41	898.77
466.60	910.47
466.78	947.92
466.96	1135.16
467.14	1069.62
467.32	1167.93
467.51	1064.94
467.69	1036.86
467.87	1341.13
468.05	992.39
468.23	1423.05
468.41	1165.59
468.60	990.05
468.78	1060.26
468.96	1249.85
469.14	1020.47
469.32	763.01
469.50	805.14
469.69	987.71
469.87	1083.67
470.05	966.64
470.23	997.07
470.41	732.59
470.59	891.74
470.77	1090.69
470.95	990.05
471.14	1256.87
471.32	964.30
471.50	1338.79
471.68	1015.79
471.86	1097.71
472.04	924.51
472.22	1034.52
472.40	880.04
472.58	936.21
472.77	856.64
472.95	978.34
473.13	1394.96
473.31	1320.06
473.49	856.64
473.67	851.96
473.85	1135.16
474.03	1132.82
474.21	1039.20
474.39	1343.47
474.57	1409.00
474.75	1151.54
474.93	983.02
475.12	798.12
475.30	912.81
475.48	1048.56
475.66	992.39
475.84	992.39
476.02	940.90
476.20	1086.01
476.38	1015.79
476.56	1596.25
476.74	1039.20
476.92	1107.07
477.10	1081.33
477.28	1357.51
477.46	1046.22
477.64	1240.48
477.82	1111.75
478.00	1006.43
478.18	1069.62
478.36	1118.78
478.54	1004.09
478.72	884.72
478.90	1081.33
479.08	1179.63
479.26	1163.25
479.44	994.73
479.62	950.26
479.80	1020.47
479.98	952.60
480.16	1111.75
480.34	1301.34
480.52	1011.11
480.70	1226.44
480.88	978.34
481.06	924.51
481.24	997.07
481.41	1053.24
481.59	1221.76
481.77	1296.66
481.95	1184.31
482.13	1378.58
482.31	1128.14
482.49	1032.18
482.67	1348.15
482.85	1343.47
483.03	1259.21
483.21	1193.67
483.39	1071.97
483.57	1067.28
483.74	1394.96
483.92	1179.63
484.10	1057.92
484.28	1366.87
484.46	1757.74
484.64	1097.71
484.82	1100.05
485.00	997.07
485.18	1107.07
485.35	1167.93
485.53	971.32
485.71	1364.53
485.89	915.15
486.07	1032.18
486.25	1647.74
486.43	1289.64
486.61	1153.88
486.78	1249.85
486.96	1121.12
487.14	1130.48
487.32	1160.91
487.50	1198.35
487.68	1303.68
487.85	1076.65
488.03	1359.85
488.21	1530.71
488.39	1233.46
488.57	1383.26
488.75	1207.72
488.92	4021.04
489.10	1465.18
489.28	1720.29
489.46	1214.74
489.64	1273.25
489.81	1451.13
489.99	1401.98
490.17	1268.57
490.35	1942.64
490.53	1219.42
490.70	1153.88
490.88	1444.11
491.06	1226.44
491.24	1352.83
491.41	1654.76
491.59	1502.62
491.77	1083.67
491.95	1200.69
492.13	1228.78
492.30	1437.09
492.48	1364.53
492.66	1425.39
492.84	1249.85
493.01	1441.77
493.19	1275.59
493.37	1708.59
493.54	1469.86
493.72	1516.67
493.90	1364.53
494.08	1364.53
494.25	1612.63
494.43	1439.43
494.61	1418.36
494.79	1259.21
494.96	1324.74
495.14	1523.69
495.32	1451.13
495.49	1530.71
495.67	1514.33
495.85	1352.83
496.02	1350.49
496.20	1551.78
496.38	1570.50
496.55	1476.88
496.73	1544.75
496.91	1380.92
497.09	1671.14
497.26	1530.71
497.44	1528.37
497.62	1394.96
497.79	1392.62
497.97	1476.88
498.14	1675.82
498.32	1584.54
498.50	1556.46
498.67	1376.24
498.85	1652.42
499.03	1378.58
499.20	1404.32
499.38	1502.62
499.56	1483.90
499.73	1893.49
499.91	1549.43
500.08	1605.61
500.26	1472.20
500.44	1437.09
500.61	1509.65
500.79	1324.74
500.97	1570.50
501.14	1750.72
501.32	1516.67
501.49	1816.26
501.67	1497.94
501.84	1575.18
502.02	1345.81
502.20	1799.87
502.37	1621.99
502.55	1439.43
502.72	1427.73
502.90	1650.08
503.07	1519.01
503.25	1547.09
503.43	1418.36
503.60	1446.45
503.78	1582.20
503.95	1411.34
504.13	1331.76
504.30	1617.31
504.48	1830.30
504.65	1837.32
504.83	1652.42
505.01	1563.48
505.18	1542.41
505.36	1537.73
505.53	1401.98
505.71	1458.15
505.88	1849.02
506.06	1521.35
506.23	1486.24
506.41	1458.15
506.58	1629.01
506.76	1570.50
506.93	1511.99
507.11	1664.12
507.28	1359.85
507.46	1371.55
507.63	1638.38
507.81	1467.52
507.98	1516.67
508.16	1476.88
508.33	1680.50
508.50	1781.15
508.68	1551.78
508.85	1715.61
509.03	1486.24
509.20	1509.65
509.38	1694.55
509.55	1811.57
509.73	1654.76
509.90	1912.22
510.08	1490.92
510.25	1734.34
510.42	1488.58
510.60	1626.67
510.77	1755.40
510.95	1792.85
511.12	1558.80
511.30	1732.00
511.47	1732.00
511.64	2036.27
511.82	1689.87
511.99	1537.73
512.17	1593.90
512.34	1350.49
512.51	1490.92
512.69	1551.78
512.86	1802.21
513.04	1542.41
513.21	1706.25
513.38	1519.01
513.56	1439.43
513.73	1476.88
513.90	1366.87
514.08	1352.83
514.25	1563.48
514.43	1554.12
514.60	1556.46
514.77	1572.84
514.95	1650.08
515.12	1500.28
515.29	1685.19
515.47	1631.35
515.64	1579.86
515.81	1603.27
515.99	1879.45
516.16	1654.76
516.33	1776.47
516.51	1380.92
516.68	1385.60
516.85	1401.98
517.03	1448.79
517.20	1621.99
517.37	1640.72
517.54	1675.82
517.72	1497.94
517.89	1252.19
518.06	1399.64
518.24	1973.07
518.41	1930.94
518.58	1701.57
518.75	1451.13
518.93	1593.90
519.10	1652.42
519.27	1533.05
519.45	1706.25
519.62	1685.19
519.79	1673.48
519.96	1376.24
520.14	1689.87
520.31	1905.20
520.48	1664.12
520.65	1736.68
520.83	1694.55
521.00	1657.10
521.17	1741.36
521.34	1549.43
521.52	1687.53
521.69	1703.91
521.86	1710.93
522.03	1849.02
522.20	2017.54
522.38	1556.46
522.55	1701.57
522.72	1376.24
522.89	1818.60
523.07	2040.95
523.24	1666.46
523.41	1671.14
523.58	1612.63
523.75	1582.20
523.92	1528.37
524.10	1760.08
524.27	1607.95
524.44	1699.23
524.61	1989.46
524.78	1654.76
524.96	1834.98
525.13	1734.34
525.30	1959.03
525.47	1888.81
525.64	1757.74
525.81	1750.72
525.98	1621.99
526.16	1533.05
526.33	1458.15
526.50	1448.79
526.67	1371.55
526.84	1401.98
527.01	1458.15
527.18	1776.47
527.36	1689.87
527.53	1586.88
527.70	1863.07
527.87	1717.95
528.04	2045.63
528.21	1570.50
528.38	1975.41
528.55	1994.14
528.72	2012.86
528.89	2101.80
529.07	1575.18
529.24	1839.66
529.41	2118.18
529.58	1706.25
529.75	1647.74
529.92	1818.60
530.09	1713.27
530.26	1909.88
530.43	1825.62
530.60	1755.40
530.77	1846.68
530.94	1914.56
531.11	1795.19
531.28	1692.21
531.46	1593.90
531.63	1624.33
531.80	1776.47
531.97	1771.79
532.14	1790.51
532.31	1629.01
532.48	1687.53
532.65	1865.41
532.82	1842.00
532.99	1813.92
533.16	1856.04
533.33	1790.51
533.50	1657.10
533.67	1699.23
533.84	2059.67
534.01	2033.93
534.18	1881.79
534.35	1783.49
534.52	1809.23
534.69	2085.42
534.86	1666.46
535.03	1640.72
535.20	1699.23
535.37	1912.22
535.54	1867.75
535.71	1713.27
535.88	2066.69
536.05	1682.85
536.22	1687.53
536.38	1638.38
536.55	1727.32
536.72	2001.16
536.89	1624.33
537.06	1643.06
537.23	1504.96
537.40	1605.61
537.57	1556.46
537.74	1886.47
537.91	1842.00
538.08	1666.46
538.25	1849.02
538.42	1612.63
538.59	1860.73
538.75	1682.85
538.92	1675.82
539.09	1944.99
539.26	1650.08
539.43	2347.56
539.60	3117.59
539.77	3829.12
539.94	3361.01
540.11	2822.69
540.28	2537.14
540.44	2218.83
540.61	1694.55
540.78	1563.48
540.95	1411.34
541.12	2005.84
541.29	1533.05
541.46	2090.10
541.62	1717.95
541.79	1551.78
541.96	1600.93
542.13	1577.52
542.30	1514.33
542.47	1842.00
542.63	1542.41
542.80	1624.33
542.97	1900.52
543.14	1696.89
543.31	1792.85
543.48	1746.04
543.64	1804.55
543.81	1675.82
543.98	1479.22
544.15	1497.94
544.32	1570.50
544.48	1643.06
544.65	1614.97
544.82	1472.20
544.99	1610.29
545.16	1959.03
545.32	1584.54
545.49	1760.08
545.66	1746.04
545.83	1535.39
546.00	1476.88
546.16	1610.29
546.33	1617.31
546.50	1687.53
546.67	1872.43
546.83	1743.70
547.00	1673.48
547.17	1617.31
547.34	1493.26
547.50	1533.05
547.67	1575.18
547.84	1509.65
548.00	1837.32
548.17	1551.78
548.34	1638.38
548.51	1944.99
548.67	1900.52
548.84	1647.74
549.01	1699.23
549.18	1682.85
549.34	1734.34
549.51	1722.63
549.68	1722.63
549.84	1699.23
550.01	1509.65
550.18	2623.74
550.34	2267.98
550.51	1729.66
550.68	2165.00
550.84	1621.99
551.01	1636.03
551.18	1827.96
551.34	1696.89
551.51	1652.42
551.68	1638.38
551.84	1893.49
552.01	1626.67
552.18	1535.39
552.34	1668.80
552.51	1680.50
552.68	1795.19
552.84	1600.93
553.01	1572.84
553.18	1750.72
553.34	1495.60
553.51	1483.90
553.67	1788.17
553.84	2003.50
554.01	1816.26
554.17	1774.13
554.34	1474.54
554.51	1717.95
554.67	1949.67
554.84	1914.56
555.00	1668.80
555.17	1729.66
555.33	1905.20
555.50	1675.82
555.67	1757.74
555.83	1593.90
556.00	1708.59
556.16	3236.96
556.33	1781.15
556.50	1673.48
556.66	1621.99
556.83	1579.86
556.99	1472.20
557.16	1645.40
557.32	1582.20
557.49	1493.26
557.65	1584.54
557.82	1493.26
557.98	1643.06
558.15	1596.25
558.32	1490.92
558.48	1488.58
558.65	1416.02
558.81	1757.74
558.98	1469.86
559.14	1795.19
559.31	1537.73
559.47	1722.63
559.64	1507.30
559.80	1650.08
559.97	1549.43
560.13	1584.54
560.30	1441.77
560.46	1535.39
560.63	1577.52
560.79	1640.72
560.96	1551.78
561.12	1547.09
561.29	1694.55
561.45	1617.31
561.61	1582.20
561.78	2424.80
561.94	1586.88
562.11	1490.92
562.27	1565.82
562.44	1420.71
562.60	1612.63
562.77	1605.61
562.93	2150.95
563.10	1643.06
563.26	1533.05
563.42	1706.25
563.59	1675.82
563.75	1413.68
563.92	1865.41
564.08	1783.49
564.24	1764.76
564.41	2008.18
564.57	1357.51
564.74	1591.56
564.90	1692.21
565.07	1734.34
565.23	1767.10
565.39	1537.73
565.56	1605.61
565.72	1462.83
565.88	1460.49
566.05	1497.94
566.21	1511.99
566.38	1584.54
566.54	1678.16
566.70	1526.03
566.87	1476.88
567.03	1418.36
567.19	1493.26
567.36	1694.55
567.52	1603.27
567.68	1748.38
567.85	1561.14
568.01	1362.19
568.17	1310.70
568.34	1467.52
568.50	1937.96
568.66	1397.30
568.83	2108.82
568.99	1490.92
569.15	1811.57
569.32	1467.52
569.48	1504.96
569.64	1362.19
569.81	1448.79
569.97	1455.81
570.13	1685.19
570.30	1409.00
570.46	1488.58
570.62	1406.66
570.78	1460.49
570.95	1252.19
571.11	1834.98
571.27	1947.33
571.43	1296.66
571.60	1678.16
571.76	1465.18
571.92	1626.67
572.09	1497.94
572.25	1488.58
572.41	1488.58
572.57	1416.02
572.74	1926.26
572.90	1783.49
573.06	1710.93
573.22	1572.84
573.38	1774.13
573.55	1736.68
573.71	1682.85
573.87	1631.35
574.03	1308.36
574.20	1514.33
574.36	1830.30
574.52	1739.02
574.68	1610.29
574.84	1631.35
575.01	1441.77
575.17	1629.01
575.33	1453.47
575.49	1713.27
575.65	1778.81
575.82	1830.30
575.98	2532.46
576.14	2270.32
576.30	2183.72
576.46	1867.75
576.62	1867.75
576.79	1750.72
576.95	1799.87
577.11	1551.78
577.27	1387.94
577.43	1820.94
577.59	1849.02
577.75	1650.08
577.92	1437.09
578.08	1533.05
578.24	1448.79
578.40	1708.59
578.56	1863.07
578.72	1839.66
578.88	1741.36
579.04	1420.71
579.21	1636.03
579.37	1544.75
579.53	1530.71
579.69	1813.92
579.85	1462.83
580.01	1792.85
580.17	1568.16
580.33	1561.14
580.49	1706.25
580.65	1825.62
580.82	1556.46
580.98	1568.16
581.14	1629.01
581.30	1937.96
581.46	1818.60
581.62	2104.14
581.78	2052.65
581.94	2153.29
582.10	1776.47
582.26	1870.09
582.42	1729.66
582.58	1898.17
582.74	1717.95
582.90	1818.60
583.06	1816.26
583.22	1717.95
583.38	1795.19
583.54	1853.70
583.70	2340.54
583.86	2307.77
584.02	2326.49
584.18	2949.08
584.34	3030.99
584.50	7379.71
584.66	48142.48
584.82	65535.00
584.98	65535.00
585.14	65535.00
585.30	64114.29
585.46	44676.15
585.62	27831.31
585.78	13722.56
585.94	6015.18
586.10	3510.80
586.26	2715.02
586.42	2719.70
586.58	2195.42
586.74	1961.37
586.90	2132.23
587.06	2122.87
587.22	1923.92
587.38	1806.89
587.54	3213.56
587.70	7662.91
587.86	10796.89
588.02	10256.23
588.18	7758.88
588.34	5345.78
588.49	3499.10
588.65	2607.36
588.81	1830.30
588.97	1317.72
589.13	1425.39
589.29	1448.79
589.45	1703.91
589.61	1521.35
589.77	1928.60
589.93	1682.85
590.08	1563.48
590.24	1561.14
590.40	1563.48
590.56	1715.61
590.72	1643.06
590.88	1352.83
591.04	1607.95
591.20	1535.39
591.35	1839.66
591.51	1329.42
591.67	1401.98
591.83	1423.05
591.99	1586.88
592.15	1540.07
592.31	1397.30
592.46	1359.85
592.62	1673.48
592.78	1341.13
592.94	1359.85
593.10	1329.42
593.26	1299.00
593.41	1708.59
593.57	1666.46
593.73	1921.58
593.89	6794.58
594.05	14672.82
594.20	18537.04
594.36	16704.40
594.52	11026.26
594.68	7466.31
594.84	5526.00
594.99	3604.42
595.15	2211.81
595.31	1860.73
595.47	2001.16
595.62	1605.61
595.78	1540.07
595.94	1406.66
596.10	1750.72
596.25	1636.03
596.41	1699.23
596.57	1448.79
596.73	1437.09
596.88	1973.07
597.04	3611.45
597.20	4685.75
597.36	4994.70
597.51	3946.14
597.67	2909.29
597.83	2377.98
597.99	2258.62
598.14	1748.38
598.30	1872.43
598.46	1511.99
598.61	1685.19
598.77	1633.69
598.93	1364.53
599.09	1462.83
599.24	1533.05
599.40	1586.88
599.56	1479.22
599.71	1446.45
599.87	1397.30
600.03	1455.81
600.18	1369.21
600.34	1432.41
600.50	1310.70
600.65	1263.89
600.81	1689.87
600.97	1317.72
