SpectraSuite Data File
++++++++++++++++++++++++++++++++++++
Date: Fri Oct 04 11:33:54 GMT-05:00 2013
User: price-jones
Dark Spectrum Present: No
Reference Spectrum Present: No
Number of Sampled Component Spectra: 1
Spectrometers: USB2+H05261
Integration Time (usec): 100000 (USB2+H05261)
Spectra Averaged: 1 (USB2+H05261)
Boxcar Smoothing: 0 (USB2+H05261)
Correct for Electrical Dark: No (USB2+H05261)
Strobe/Lamp Enabled: No (USB2+H05261)
Correct for Detector Non-linearity: No (USB2+H05261)
Correct for Stray Light: No (USB2+H05261)
Number of Pixels in Processed Spectrum: 2048
>>>>>Begin Processed Spectral Data<<<<<
365.73	42.13
365.92	42.13
366.12	42.13
366.32	0.00
366.52	0.00
366.72	0.00
366.91	32.77
367.11	0.00
367.31	0.00
367.51	0.00
367.70	0.00
367.90	0.00
368.10	0.00
368.30	0.00
368.49	0.00
368.69	0.00
368.89	0.00
369.09	0.00
369.28	25.75
369.48	0.00
369.68	30.43
369.87	0.00
370.07	0.00
370.27	65.54
370.47	0.00
370.66	35.11
370.86	72.56
371.06	102.98
371.25	126.39
371.45	81.92
371.65	117.03
371.84	37.45
372.04	23.41
372.24	149.79
372.44	156.82
372.63	140.43
372.83	91.28
373.03	138.09
373.22	229.37
373.42	119.37
373.62	88.94
373.81	152.13
374.01	201.29
374.21	133.41
374.40	58.51
374.60	177.88
374.79	133.41
374.99	145.11
375.19	138.09
375.38	124.05
375.58	128.73
375.78	177.88
375.97	187.24
376.17	189.58
376.37	154.48
376.56	180.22
376.76	91.28
376.95	205.97
377.15	117.03
377.35	224.69
377.54	184.90
377.74	182.56
377.93	156.82
378.13	140.43
378.33	166.18
378.52	212.99
378.72	145.11
378.91	142.77
379.11	175.54
379.31	110.01
379.50	133.41
379.70	121.71
379.89	117.03
380.09	126.39
380.28	173.20
380.48	140.43
380.68	156.82
380.87	149.79
381.07	133.41
381.26	117.03
381.46	205.97
381.65	156.82
381.85	91.28
382.04	112.35
382.24	201.29
382.43	168.52
382.63	198.95
382.83	56.17
383.02	117.03
383.22	145.11
383.41	126.39
383.61	166.18
383.80	191.92
384.00	142.77
384.19	98.30
384.39	154.48
384.58	98.30
384.78	194.26
384.97	93.62
385.17	133.41
385.36	189.58
385.56	177.88
385.75	114.69
385.95	159.16
386.14	163.84
386.34	119.37
386.53	105.32
386.72	81.92
386.92	156.82
387.11	205.97
387.31	133.41
387.50	112.35
387.70	161.50
387.89	215.33
388.09	156.82
388.28	65.54
388.48	121.71
388.67	124.05
388.86	93.62
389.06	102.98
389.25	140.43
389.45	168.52
389.64	133.41
389.84	196.60
390.03	156.82
390.22	175.54
390.42	70.22
390.61	119.37
390.81	114.69
391.00	168.52
391.19	201.29
391.39	149.79
391.58	205.97
391.78	163.84
391.97	70.22
392.16	152.13
392.36	182.56
392.55	128.73
392.75	149.79
392.94	159.16
393.13	152.13
393.33	124.05
393.52	110.01
393.71	126.39
393.91	149.79
394.10	102.98
394.29	145.11
394.49	124.05
394.68	238.73
394.88	208.31
395.07	255.12
395.26	124.05
395.46	147.45
395.65	229.37
395.84	124.05
396.04	196.60
396.23	198.95
396.42	114.69
396.62	131.07
396.81	161.50
397.00	107.66
397.19	177.88
397.39	194.26
397.58	187.24
397.77	65.54
397.97	170.86
398.16	177.88
398.35	126.39
398.55	149.79
398.74	95.96
398.93	147.45
399.12	173.20
399.32	173.20
399.51	161.50
399.70	112.35
399.90	138.09
400.09	117.03
400.28	222.35
400.47	212.99
400.67	168.52
400.86	88.94
401.05	166.18
401.24	166.18
401.44	156.82
401.63	203.63
401.82	208.31
402.01	175.54
402.21	196.60
402.40	121.71
402.59	65.54
402.78	60.85
402.97	114.69
403.17	145.11
403.36	170.86
403.55	187.24
403.74	159.16
403.93	191.92
404.13	280.86
404.32	238.73
404.51	231.71
404.70	205.97
404.89	133.41
405.09	224.69
405.28	173.20
405.47	184.90
405.66	170.86
405.85	177.88
406.05	238.73
406.24	142.77
406.43	182.56
406.62	222.35
406.81	187.24
407.00	182.56
407.20	229.37
407.39	112.35
407.58	173.20
407.77	114.69
407.96	217.67
408.15	175.54
408.34	117.03
408.54	128.73
408.73	133.41
408.92	145.11
409.11	196.60
409.30	205.97
409.49	189.58
409.68	170.86
409.87	170.86
410.07	133.41
410.26	91.28
410.45	95.96
410.64	119.37
410.83	117.03
411.02	161.50
411.21	227.03
411.40	161.50
411.59	121.71
411.78	105.32
411.98	91.28
412.17	234.05
412.36	152.13
412.55	128.73
412.74	238.73
412.93	201.29
413.12	231.71
413.31	229.37
413.50	220.01
413.69	198.95
413.88	154.48
414.07	227.03
414.26	168.52
414.45	201.29
414.64	234.05
414.83	145.11
415.02	170.86
415.22	163.84
415.41	168.52
415.60	147.45
415.79	201.29
415.98	238.73
416.17	161.50
416.36	217.67
416.55	119.37
416.74	170.86
416.93	189.58
417.12	147.45
417.31	187.24
417.50	215.33
417.69	189.58
417.88	264.48
418.07	229.37
418.26	194.26
418.45	210.65
418.64	238.73
418.83	184.90
419.02	205.97
419.21	198.95
419.39	278.52
419.58	189.58
419.77	159.16
419.96	283.20
420.15	212.99
420.34	215.33
420.53	182.56
420.72	180.22
420.91	147.45
421.10	205.97
421.29	184.90
421.48	145.11
421.67	133.41
421.86	133.41
422.05	194.26
422.24	191.92
422.43	95.96
422.61	88.94
422.80	163.84
422.99	175.54
423.18	142.77
423.37	227.03
423.56	215.33
423.75	173.20
423.94	112.35
424.13	86.60
424.32	149.79
424.50	191.92
424.69	231.71
424.88	170.86
425.07	182.56
425.26	210.65
425.45	280.86
425.64	287.89
425.83	234.05
426.01	264.48
426.20	166.18
426.39	182.56
426.58	180.22
426.77	191.92
426.96	227.03
427.15	184.90
427.33	241.08
427.52	175.54
427.71	128.73
427.90	238.73
428.09	215.33
428.28	229.37
428.46	175.54
428.65	184.90
428.84	175.54
429.03	189.58
429.22	107.66
429.40	145.11
429.59	124.05
429.78	201.29
429.97	203.63
430.16	191.92
430.34	217.67
430.53	98.30
430.72	117.03
430.91	159.16
431.10	187.24
431.28	161.50
431.47	152.13
431.66	189.58
431.85	196.60
432.03	93.62
432.22	205.97
432.41	198.95
432.60	264.48
432.79	236.39
432.97	245.76
433.16	210.65
433.35	189.58
433.54	250.44
433.72	248.10
433.91	166.18
434.10	205.97
434.28	187.24
434.47	189.58
434.66	255.12
434.85	163.84
435.03	266.82
435.22	353.42
435.41	376.83
435.59	381.51
435.78	327.68
435.97	306.61
436.16	283.20
436.34	147.45
436.53	212.99
436.72	227.03
436.90	222.35
437.09	175.54
437.28	147.45
437.46	131.07
437.65	187.24
437.84	152.13
438.02	229.37
438.21	177.88
438.40	180.22
438.58	182.56
438.77	163.84
438.96	159.16
439.14	170.86
439.33	168.52
439.52	166.18
439.70	112.35
439.89	175.54
440.08	149.79
440.26	128.73
440.45	194.26
440.63	175.54
440.82	93.62
441.01	145.11
441.19	182.56
441.38	110.01
441.57	215.33
441.75	203.63
441.94	264.48
442.12	175.54
442.31	184.90
442.50	102.98
442.68	159.16
442.87	170.86
443.05	149.79
443.24	196.60
443.43	145.11
443.61	248.10
443.80	173.20
443.98	194.26
444.17	248.10
444.35	198.95
444.54	208.31
444.73	243.42
444.91	177.88
445.10	180.22
445.28	231.71
445.47	161.50
445.65	205.97
445.84	187.24
446.02	191.92
446.21	156.82
446.39	236.39
446.58	252.78
446.77	208.31
446.95	257.46
447.14	236.39
447.32	217.67
447.51	212.99
447.69	175.54
447.88	241.08
448.06	133.41
448.25	203.63
448.43	220.01
448.62	198.95
448.80	173.20
448.99	224.69
449.17	140.43
449.36	198.95
449.54	259.80
449.73	168.52
449.91	234.05
450.10	173.20
450.28	308.95
450.46	248.10
450.65	250.44
450.83	203.63
451.02	159.16
451.20	229.37
451.39	133.41
451.57	266.82
451.76	191.92
451.94	201.29
452.13	236.39
452.31	220.01
452.49	198.95
452.68	175.54
452.86	128.73
453.05	236.39
453.23	222.35
453.42	177.88
453.60	161.50
453.78	278.52
453.97	124.05
454.15	105.32
454.34	170.86
454.52	135.75
454.70	238.73
454.89	149.79
455.07	201.29
455.26	173.20
455.44	205.97
455.62	196.60
455.81	142.77
455.99	187.24
456.17	133.41
456.36	173.20
456.54	110.01
456.73	243.42
456.91	173.20
457.09	187.24
457.28	290.23
457.46	212.99
457.64	229.37
457.83	184.90
458.01	255.12
458.19	191.92
458.38	170.86
458.56	142.77
458.74	142.77
458.93	231.71
459.11	220.01
459.29	243.42
459.48	212.99
459.66	236.39
459.84	201.29
460.03	276.18
460.21	156.82
460.39	285.55
460.57	236.39
460.76	196.60
460.94	210.65
461.12	250.44
461.31	220.01
461.49	163.84
461.67	227.03
461.85	227.03
462.04	184.90
462.22	681.10
462.40	210.65
462.59	276.18
462.77	189.58
462.95	215.33
463.13	215.33
463.32	273.84
463.50	210.65
463.68	187.24
463.86	156.82
464.05	177.88
464.23	243.42
464.41	227.03
464.59	222.35
464.78	222.35
464.96	257.46
465.14	224.69
465.32	212.99
465.50	152.13
465.69	182.56
465.87	201.29
466.05	208.31
466.23	236.39
466.41	215.33
466.60	189.58
466.78	196.60
466.96	262.14
467.14	166.18
467.32	224.69
467.51	205.97
467.69	227.03
467.87	313.63
468.05	196.60
468.23	255.12
468.41	208.31
468.60	212.99
468.78	201.29
468.96	217.67
469.14	121.71
469.32	201.29
469.50	117.03
469.69	201.29
469.87	196.60
470.05	177.88
470.23	236.39
470.41	198.95
470.59	194.26
470.77	292.57
470.95	191.92
471.14	205.97
471.32	154.48
471.50	269.16
471.68	205.97
471.86	201.29
472.04	208.31
472.22	241.08
472.40	180.22
472.58	269.16
472.77	147.45
472.95	215.33
473.13	205.97
473.31	196.60
473.49	224.69
473.67	147.45
473.85	105.32
474.03	273.84
474.21	269.16
474.39	210.65
474.57	257.46
474.75	229.37
474.93	264.48
475.12	203.63
475.30	250.44
475.48	276.18
475.66	205.97
475.84	133.41
476.02	175.54
476.20	224.69
476.38	243.42
476.56	217.67
476.74	198.95
476.92	205.97
477.10	189.58
477.28	205.97
477.46	170.86
477.64	280.86
477.82	177.88
478.00	271.50
478.18	243.42
478.36	245.76
478.54	234.05
478.72	257.46
478.90	156.82
479.08	201.29
479.26	255.12
479.44	161.50
479.62	203.63
479.80	140.43
479.98	255.12
480.16	259.80
480.34	236.39
480.52	147.45
480.70	241.08
480.88	224.69
481.06	220.01
481.24	285.55
481.41	198.95
481.59	262.14
481.77	255.12
481.95	191.92
482.13	290.23
482.31	238.73
482.49	177.88
482.67	182.56
482.85	292.57
483.03	234.05
483.21	245.76
483.39	271.50
483.57	198.95
483.74	257.46
483.92	217.67
484.10	231.71
484.28	280.86
484.46	215.33
484.64	285.55
484.82	208.31
485.00	180.22
485.18	234.05
485.35	231.71
485.53	250.44
485.71	280.86
485.89	168.52
486.07	229.37
486.25	278.52
486.43	306.61
486.61	290.23
486.78	236.39
486.96	184.90
487.14	227.03
487.32	264.48
487.50	269.16
487.68	210.65
487.85	231.71
488.03	297.25
488.21	269.16
488.39	262.14
488.57	234.05
488.75	177.88
488.92	461.09
489.10	252.78
489.28	332.36
489.46	222.35
489.64	259.80
489.81	248.10
489.99	278.52
490.17	287.89
490.35	308.95
490.53	227.03
490.70	191.92
490.88	252.78
491.06	229.37
491.24	311.29
491.41	264.48
491.59	334.70
491.77	262.14
491.95	173.20
492.13	227.03
492.30	264.48
492.48	360.44
492.66	259.80
492.84	241.08
493.01	227.03
493.19	250.44
493.37	325.33
493.54	227.03
493.72	283.20
493.90	234.05
494.08	241.08
494.25	269.16
494.43	236.39
494.61	224.69
494.79	285.55
494.96	266.82
495.14	353.42
495.32	266.82
495.49	306.61
495.67	229.37
495.85	315.97
496.02	306.61
496.20	280.86
496.38	337.04
496.55	318.31
496.73	315.97
496.91	210.65
497.09	255.12
497.26	243.42
497.44	271.50
497.62	306.61
497.79	245.76
497.97	283.20
498.14	276.18
498.32	250.44
498.50	241.08
498.67	297.25
498.85	311.29
499.03	154.48
499.20	269.16
499.38	250.44
499.56	273.84
499.73	283.20
499.91	236.39
500.08	245.76
500.26	191.92
500.44	297.25
500.61	325.33
500.79	243.42
500.97	243.42
501.14	290.23
501.32	259.80
501.49	266.82
501.67	330.02
501.84	220.01
502.02	205.97
502.20	269.16
502.37	224.69
502.55	294.91
502.72	276.18
502.90	285.55
503.07	287.89
503.25	252.78
503.43	241.08
503.60	285.55
503.78	241.08
503.95	318.31
504.13	241.08
504.30	285.55
504.48	327.68
504.65	313.63
504.83	297.25
505.01	257.46
505.18	353.42
505.36	189.58
505.53	271.50
505.71	266.82
505.88	297.25
506.06	217.67
506.23	308.95
506.41	203.63
506.58	194.26
506.76	280.86
506.93	224.69
507.11	315.97
507.28	238.73
507.46	271.50
507.63	273.84
507.81	180.22
507.98	229.37
508.16	299.59
508.33	257.46
508.50	255.12
508.68	238.73
508.85	250.44
509.03	290.23
509.20	287.89
509.38	318.31
509.55	330.02
509.73	308.95
509.90	278.52
510.08	294.91
510.25	292.57
510.42	231.71
510.60	318.31
510.77	210.65
510.95	290.23
511.12	278.52
511.30	278.52
511.47	334.70
511.64	255.12
511.82	262.14
511.99	250.44
512.17	229.37
512.34	222.35
512.51	224.69
512.69	271.50
512.86	308.95
513.04	283.20
513.21	306.61
513.38	280.86
513.56	255.12
513.73	278.52
513.90	315.97
514.08	212.99
514.25	259.80
514.43	376.83
514.60	250.44
514.77	257.46
514.95	337.04
515.12	245.76
515.29	264.48
515.47	229.37
515.64	304.27
515.81	276.18
515.99	308.95
516.16	285.55
516.33	341.72
516.51	276.18
516.68	205.97
516.85	294.91
517.03	252.78
517.20	292.57
517.37	278.52
517.54	322.99
517.72	271.50
517.89	271.50
518.06	177.88
518.24	297.25
518.41	311.29
518.58	255.12
518.75	250.44
518.93	283.20
519.10	278.52
519.27	283.20
519.45	245.76
519.62	245.76
519.79	231.71
519.96	234.05
520.14	236.39
520.31	278.52
520.48	287.89
520.65	212.99
520.83	339.38
521.00	283.20
521.17	280.86
521.34	294.91
521.52	269.16
521.69	259.80
521.86	273.84
522.03	285.55
522.20	402.57
522.38	238.73
522.55	346.40
522.72	238.73
522.89	266.82
523.07	313.63
523.24	353.42
523.41	262.14
523.58	229.37
523.75	266.82
523.92	266.82
524.10	365.12
524.27	297.25
524.44	252.78
524.61	273.84
524.78	238.73
524.96	222.35
525.13	220.01
525.30	313.63
525.47	337.04
525.64	259.80
525.81	367.46
525.98	238.73
526.16	266.82
526.33	278.52
526.50	304.27
526.67	243.42
526.84	255.12
527.01	280.86
527.18	308.95
527.36	257.46
527.53	280.86
527.70	367.46
527.87	283.20
528.04	276.18
528.21	264.48
528.38	271.50
528.55	259.80
528.72	271.50
528.89	255.12
529.07	262.14
529.24	294.91
529.41	271.50
529.58	383.85
529.75	248.10
529.92	290.23
530.09	308.95
530.26	308.95
530.43	264.48
530.60	266.82
530.77	369.80
530.94	283.20
531.11	315.97
531.28	205.97
531.46	283.20
531.63	241.08
531.80	320.65
531.97	271.50
532.14	287.89
532.31	259.80
532.48	290.23
532.65	325.33
532.82	313.63
532.99	414.27
533.16	327.68
533.33	271.50
533.50	337.04
533.67	386.19
533.84	472.79
534.01	472.79
534.18	435.34
534.35	322.99
534.52	351.08
534.69	365.12
534.86	339.38
535.03	294.91
535.20	294.91
535.37	334.70
535.54	285.55
535.71	283.20
535.88	290.23
536.05	276.18
536.22	327.68
536.38	318.31
536.55	330.02
536.72	301.93
536.89	276.18
537.06	278.52
537.23	325.33
537.40	339.38
537.57	290.23
537.74	337.04
537.91	276.18
538.08	308.95
538.25	365.12
538.42	313.63
538.59	362.78
538.75	390.87
538.92	325.33
539.09	294.91
539.26	332.36
539.43	458.74
539.60	828.55
539.77	1249.85
539.94	1439.43
540.11	1086.01
540.28	669.39
540.44	543.00
540.61	423.64
540.78	386.19
540.95	486.83
541.12	517.26
541.29	533.64
541.46	594.50
541.62	540.66
541.79	521.94
541.96	475.13
542.13	470.45
542.30	449.38
542.47	498.53
542.63	484.49
542.80	491.51
542.97	484.49
543.14	451.72
543.31	456.40
543.48	423.64
543.64	409.59
543.81	409.59
543.98	442.36
544.15	428.32
544.32	456.40
544.48	393.21
544.65	421.30
544.82	491.51
544.99	486.83
545.16	440.02
545.32	535.98
545.49	751.31
545.66	882.38
545.83	915.15
546.00	772.38
546.16	697.48
546.33	592.16
546.50	503.22
546.67	465.77
546.83	498.53
547.00	430.66
547.17	334.70
547.34	386.19
547.50	397.89
547.67	365.12
547.84	334.70
548.00	351.08
548.17	393.21
548.34	330.02
548.51	393.21
548.67	409.59
548.84	383.85
549.01	346.40
549.18	351.08
549.34	411.93
549.51	362.78
549.68	395.55
549.84	411.93
550.01	327.68
550.18	442.36
550.34	395.55
550.51	358.10
550.68	376.83
550.84	301.93
551.01	334.70
551.18	369.80
551.34	311.29
551.51	344.06
551.68	271.50
551.84	358.10
552.01	299.59
552.18	257.46
552.34	339.38
552.51	320.65
552.68	278.52
552.84	269.16
553.01	355.76
553.18	299.59
553.34	255.12
553.51	367.46
553.67	416.62
553.84	304.27
554.01	301.93
554.17	341.72
554.34	248.10
554.51	341.72
554.67	327.68
554.84	313.63
555.00	283.20
555.17	313.63
555.33	320.65
555.50	222.35
555.67	337.04
555.83	292.57
556.00	243.42
556.16	442.36
556.33	285.55
556.50	271.50
556.66	217.67
556.83	271.50
556.99	393.21
557.16	325.33
557.32	224.69
557.49	243.42
557.65	231.71
557.82	212.99
557.98	278.52
558.15	222.35
558.32	311.29
558.48	175.54
558.65	262.14
558.81	341.72
558.98	187.24
559.14	287.89
559.31	252.78
559.47	248.10
559.64	252.78
559.80	259.80
559.97	280.86
560.13	285.55
560.30	313.63
560.46	215.33
560.63	318.31
560.79	325.33
560.96	177.88
561.12	304.27
561.29	362.78
561.45	297.25
561.61	337.04
561.78	365.12
561.94	257.46
562.11	266.82
562.27	262.14
562.44	297.25
562.60	271.50
562.77	217.67
562.93	290.23
563.10	236.39
563.26	210.65
563.42	299.59
563.59	306.61
563.75	346.40
563.92	292.57
564.08	292.57
564.24	283.20
564.41	355.76
564.57	194.26
564.74	318.31
564.90	238.73
565.07	304.27
565.23	351.08
565.39	241.08
565.56	306.61
565.72	255.12
565.88	217.67
566.05	231.71
566.21	252.78
566.38	264.48
566.54	301.93
566.70	252.78
566.87	292.57
567.03	210.65
567.19	280.86
567.36	262.14
567.52	212.99
567.68	320.65
567.85	194.26
568.01	241.08
568.17	210.65
568.34	217.67
568.50	339.38
568.66	299.59
568.83	334.70
568.99	266.82
569.15	360.44
569.32	358.10
569.48	285.55
569.64	262.14
569.81	262.14
569.97	182.56
570.13	271.50
570.30	301.93
570.46	210.65
570.62	283.20
570.78	278.52
570.95	301.93
571.11	304.27
571.27	299.59
571.43	304.27
571.60	315.97
571.76	273.84
571.92	304.27
572.09	236.39
572.25	292.57
572.41	255.12
572.57	248.10
572.74	330.02
572.90	255.12
573.06	250.44
573.22	297.25
573.38	334.70
573.55	292.57
573.71	351.08
573.87	271.50
574.03	161.50
574.20	259.80
574.36	280.86
574.52	271.50
574.68	400.23
574.84	376.83
575.01	315.97
575.17	257.46
575.33	191.92
575.49	241.08
575.65	334.70
575.82	346.40
575.98	493.85
576.14	599.18
576.30	671.73
576.46	617.90
576.62	540.66
576.79	489.17
576.95	552.37
577.11	297.25
577.27	308.95
577.43	257.46
577.59	306.61
577.75	252.78
577.92	308.95
578.08	266.82
578.24	308.95
578.40	304.27
578.56	287.89
578.72	435.34
578.88	344.06
579.04	327.68
579.21	355.76
579.37	327.68
579.53	355.76
579.69	383.85
579.85	409.59
580.01	402.57
580.17	386.19
580.33	437.68
580.49	407.25
580.65	320.65
580.82	360.44
580.98	358.10
581.14	388.53
581.30	421.30
581.46	461.09
581.62	538.32
581.78	540.66
581.94	617.90
582.10	461.09
582.26	533.64
582.42	440.02
582.58	526.62
582.74	390.87
582.90	449.38
583.06	451.72
583.22	435.34
583.38	543.00
583.54	456.40
583.70	582.79
583.86	669.39
584.02	669.39
584.18	812.17
584.34	978.34
584.50	1933.28
584.66	13226.37
584.82	40287.64
584.98	59112.57
585.14	59016.61
585.30	41146.62
585.46	23056.62
585.62	14171.94
585.78	6810.96
585.94	2757.15
586.10	1315.38
586.26	936.21
586.42	793.44
586.58	683.44
586.74	645.99
586.90	690.46
587.06	650.67
587.22	683.44
587.38	477.47
587.54	868.34
587.70	2324.15
587.86	4444.68
588.02	5671.12
588.18	3906.35
588.34	2448.20
588.49	1591.56
588.65	1064.94
588.81	603.86
588.97	383.85
589.13	414.27
589.29	365.12
589.45	365.12
589.61	334.70
589.77	365.12
589.93	416.62
590.08	456.40
590.24	402.57
590.40	404.91
590.56	421.30
590.72	337.04
590.88	362.78
591.04	468.11
591.20	362.78
591.35	388.53
591.51	346.40
591.67	285.55
591.83	358.10
591.99	348.74
592.15	358.10
592.31	376.83
592.46	395.55
592.62	402.57
592.78	386.19
592.94	409.59
593.10	381.51
593.26	332.36
593.41	409.59
593.57	507.90
593.73	540.66
593.89	1797.53
594.05	4812.14
594.20	8475.08
594.36	9329.38
594.52	5804.53
594.68	3468.67
594.84	2312.45
594.99	1406.66
595.15	624.92
595.31	524.28
595.47	418.96
595.62	341.72
595.78	376.83
595.94	330.02
596.10	421.30
596.25	393.21
596.41	372.15
596.57	344.06
596.73	330.02
596.88	503.22
597.04	1046.22
597.20	1778.81
597.36	2462.24
597.51	1846.68
597.67	1217.08
597.83	877.70
597.99	671.73
598.14	456.40
598.30	404.91
598.46	322.99
598.61	353.42
598.77	376.83
598.93	346.40
599.09	386.19
599.24	276.18
599.40	355.76
599.56	313.63
599.71	353.42
599.87	353.42
600.03	334.70
600.18	418.96
600.34	271.50
600.50	360.44
600.65	294.91
600.81	264.48
600.97	339.38
601.12	311.29
601.28	409.59
601.44	332.36
601.59	238.73
601.75	290.23
601.91	227.03
602.06	280.86
602.22	379.17
602.37	543.00
602.53	1306.02
602.69	2230.53
602.84	2539.48
603.00	1811.57
603.16	1249.85
603.31	854.30
603.47	559.39
603.62	365.12
603.78	395.55
603.94	327.68
604.09	346.40
604.25	304.27
604.40	379.17
604.56	341.72
604.71	308.95
604.87	330.02
605.03	411.93
605.18	255.12
605.34	362.78
605.49	304.27
605.65	344.06
605.80	337.04
605.96	397.89
606.12	360.44
606.27	458.74
606.43	395.55
606.58	411.93
606.74	676.41
606.89	2237.55
607.05	5025.13
607.20	7908.67
607.36	6696.27
607.51	4421.27
607.67	2792.26
607.82	1893.49
607.98	1121.12
608.13	711.52
608.29	465.77
608.44	491.51
608.60	388.53
608.75	540.66
608.91	917.49
609.06	3304.84
609.22	8166.13
609.37	13493.19
609.53	12662.30
609.68	8285.50
609.84	5034.49
609.99	3506.12
610.15	2087.76
610.30	1153.88
