SpectraSuite Data File
++++++++++++++++++++++++++++++++++++
Date: Fri Oct 04 11:33:55 GMT-05:00 2013
User: price-jones
Dark Spectrum Present: No
Reference Spectrum Present: No
Number of Sampled Component Spectra: 1
Spectrometers: USB2+H05261
Integration Time (usec): 100000 (USB2+H05261)
Spectra Averaged: 1 (USB2+H05261)
Boxcar Smoothing: 0 (USB2+H05261)
Correct for Electrical Dark: No (USB2+H05261)
Strobe/Lamp Enabled: No (USB2+H05261)
Correct for Detector Non-linearity: No (USB2+H05261)
Correct for Stray Light: No (USB2+H05261)
Number of Pixels in Processed Spectrum: 2048
>>>>>Begin Processed Spectral Data<<<<<
365.73	0.00
365.92	0.00
366.12	0.00
366.32	0.00
366.52	32.77
366.72	21.06
366.91	0.00
367.11	21.06
367.31	0.00
367.51	0.00
367.70	0.00
367.90	0.00
368.10	0.00
368.30	0.00
368.49	0.00
368.69	0.00
368.89	0.00
369.09	0.00
369.28	0.00
369.48	0.00
369.68	28.09
369.87	53.83
370.07	65.54
370.27	21.06
370.47	53.83
370.66	0.00
370.86	70.22
371.06	86.60
371.25	93.62
371.45	67.88
371.65	142.77
371.84	79.58
372.04	147.45
372.24	138.09
372.44	88.94
372.63	128.73
372.83	140.43
373.03	177.88
373.22	98.30
373.42	138.09
373.62	187.24
373.81	133.41
374.01	173.20
374.21	208.31
374.40	133.41
374.60	124.05
374.79	168.52
374.99	156.82
375.19	163.84
375.38	168.52
375.58	138.09
375.78	194.26
375.97	194.26
376.17	231.71
376.37	194.26
376.56	203.63
376.76	145.11
376.95	100.64
377.15	168.52
377.35	131.07
377.54	166.18
377.74	44.47
377.93	140.43
378.13	88.94
378.33	140.43
378.52	166.18
378.72	135.75
378.91	161.50
379.11	107.66
379.31	163.84
379.50	128.73
379.70	175.54
379.89	175.54
380.09	102.98
380.28	135.75
380.48	140.43
380.68	189.58
380.87	119.37
381.07	194.26
381.26	117.03
381.46	91.28
381.65	201.29
381.85	156.82
382.04	98.30
382.24	210.65
382.43	114.69
382.63	88.94
382.83	166.18
383.02	154.48
383.22	227.03
383.41	142.77
383.61	140.43
383.80	189.58
384.00	205.97
384.19	154.48
384.39	189.58
384.58	114.69
384.78	140.43
384.97	166.18
385.17	175.54
385.36	201.29
385.56	140.43
385.75	114.69
385.95	152.13
386.14	191.92
386.34	163.84
386.53	114.69
386.72	126.39
386.92	126.39
387.11	72.56
387.31	86.60
387.50	180.22
387.70	110.01
387.89	145.11
388.09	72.56
388.28	107.66
388.48	105.32
388.67	163.84
388.86	142.77
389.06	145.11
389.25	102.98
389.45	107.66
389.64	114.69
389.84	173.20
390.03	156.82
390.22	168.52
390.42	77.24
390.61	110.01
390.81	191.92
391.00	182.56
391.19	231.71
391.39	117.03
391.58	217.67
391.78	117.03
391.97	98.30
392.16	58.51
392.36	119.37
392.55	163.84
392.75	93.62
392.94	138.09
393.13	119.37
393.33	112.35
393.52	152.13
393.71	112.35
393.91	128.73
394.10	152.13
394.29	161.50
394.49	177.88
394.68	170.86
394.88	212.99
395.07	205.97
395.26	201.29
395.46	121.71
395.65	119.37
395.84	84.26
396.04	147.45
396.23	196.60
396.42	175.54
396.62	107.66
396.81	184.90
397.00	81.92
397.19	187.24
397.39	154.48
397.58	187.24
397.77	196.60
397.97	170.86
398.16	117.03
398.35	222.35
398.55	149.79
398.74	142.77
398.93	159.16
399.12	152.13
399.32	114.69
399.51	159.16
399.70	205.97
399.90	161.50
400.09	117.03
400.28	170.86
400.47	208.31
400.67	173.20
400.86	124.05
401.05	231.71
401.24	229.37
401.44	140.43
401.63	187.24
401.82	198.95
402.01	156.82
402.21	173.20
402.40	74.90
402.59	114.69
402.78	138.09
402.97	107.66
403.17	227.03
403.36	227.03
403.55	133.41
403.74	241.08
403.93	212.99
404.13	266.82
404.32	217.67
404.51	205.97
404.70	231.71
404.89	147.45
405.09	241.08
405.28	142.77
405.47	114.69
405.66	227.03
405.85	220.01
406.05	98.30
406.24	67.88
406.43	170.86
406.62	156.82
406.81	191.92
407.00	224.69
407.20	163.84
407.39	128.73
407.58	126.39
407.77	156.82
407.96	105.32
408.15	236.39
408.34	161.50
408.54	152.13
408.73	126.39
408.92	95.96
409.11	220.01
409.30	175.54
409.49	95.96
409.68	149.79
409.87	117.03
410.07	112.35
410.26	161.50
410.45	145.11
410.64	86.60
410.83	191.92
411.02	184.90
411.21	145.11
411.40	175.54
411.59	201.29
411.78	142.77
411.98	227.03
412.17	156.82
412.36	126.39
412.55	196.60
412.74	154.48
412.93	173.20
413.12	124.05
413.31	184.90
413.50	156.82
413.69	163.84
413.88	161.50
414.07	149.79
414.26	184.90
414.45	182.56
414.64	105.32
414.83	198.95
415.02	128.73
415.22	170.86
415.41	271.50
415.60	147.45
415.79	184.90
415.98	224.69
416.17	170.86
416.36	166.18
416.55	170.86
416.74	149.79
416.93	156.82
417.12	154.48
417.31	205.97
417.50	238.73
417.69	248.10
417.88	245.76
418.07	198.95
418.26	234.05
418.45	194.26
418.64	215.33
418.83	229.37
419.02	177.88
419.21	177.88
419.39	210.65
419.58	266.82
419.77	262.14
419.96	196.60
420.15	238.73
420.34	201.29
420.53	128.73
420.72	203.63
420.91	203.63
421.10	182.56
421.29	124.05
421.48	217.67
421.67	194.26
421.86	105.32
422.05	161.50
422.24	180.22
422.43	210.65
422.61	135.75
422.80	187.24
422.99	175.54
423.18	117.03
423.37	163.84
423.56	173.20
423.75	234.05
423.94	98.30
424.13	201.29
424.32	112.35
424.50	257.46
424.69	163.84
424.88	189.58
425.07	182.56
425.26	112.35
425.45	304.27
425.64	278.52
425.83	264.48
426.01	170.86
426.20	231.71
426.39	180.22
426.58	156.82
426.77	77.24
426.96	175.54
427.15	243.42
427.33	81.92
427.52	173.20
427.71	229.37
427.90	77.24
428.09	131.07
428.28	126.39
428.46	114.69
428.65	142.77
428.84	217.67
429.03	140.43
429.22	86.60
429.40	212.99
429.59	189.58
429.78	266.82
429.97	156.82
430.16	191.92
430.34	222.35
430.53	138.09
430.72	163.84
430.91	95.96
431.10	131.07
431.28	163.84
431.47	152.13
431.66	117.03
431.85	187.24
432.03	124.05
432.22	234.05
432.41	191.92
432.60	304.27
432.79	234.05
432.97	325.33
433.16	238.73
433.35	241.08
433.54	229.37
433.72	180.22
433.91	177.88
434.10	231.71
434.28	238.73
434.47	227.03
434.66	205.97
434.85	220.01
435.03	196.60
435.22	301.93
435.41	447.04
435.59	332.36
435.78	346.40
435.97	280.86
436.16	245.76
436.34	119.37
436.53	198.95
436.72	140.43
436.90	227.03
437.09	166.18
437.28	112.35
437.46	152.13
437.65	241.08
437.84	142.77
438.02	255.12
438.21	241.08
438.40	201.29
438.58	166.18
438.77	154.48
438.96	154.48
439.14	119.37
439.33	196.60
439.52	126.39
439.70	184.90
439.89	292.57
440.08	166.18
440.26	175.54
440.45	229.37
440.63	149.79
440.82	156.82
441.01	243.42
441.19	184.90
441.38	124.05
441.57	234.05
441.75	241.08
441.94	222.35
442.12	208.31
442.31	117.03
442.50	126.39
442.68	220.01
442.87	196.60
443.05	124.05
443.24	184.90
443.43	189.58
443.61	168.52
443.80	170.86
443.98	166.18
444.17	238.73
444.35	198.95
444.54	238.73
444.73	227.03
444.91	180.22
445.10	135.75
445.28	138.09
445.47	159.16
445.65	175.54
445.84	152.13
446.02	161.50
446.21	198.95
446.39	187.24
446.58	194.26
446.77	184.90
446.95	187.24
447.14	229.37
447.32	189.58
447.51	201.29
447.69	201.29
447.88	222.35
448.06	187.24
448.25	170.86
448.43	177.88
448.62	180.22
448.80	220.01
448.99	152.13
449.17	124.05
449.36	187.24
449.54	196.60
449.73	102.98
449.91	170.86
450.10	196.60
450.28	292.57
450.46	180.22
450.65	227.03
450.83	238.73
451.02	161.50
451.20	220.01
451.39	222.35
451.57	217.67
451.76	168.52
451.94	208.31
452.13	168.52
452.31	224.69
452.49	133.41
452.68	126.39
452.86	227.03
453.05	257.46
453.23	248.10
453.42	140.43
453.60	166.18
453.78	191.92
453.97	196.60
454.15	215.33
454.34	194.26
454.52	236.39
454.70	252.78
454.89	236.39
455.07	177.88
455.26	175.54
455.44	210.65
455.62	110.01
455.81	126.39
455.99	271.50
456.17	273.84
456.36	205.97
456.54	159.16
456.73	187.24
456.91	168.52
457.09	222.35
457.28	180.22
457.46	180.22
457.64	166.18
457.83	177.88
458.01	187.24
458.19	205.97
458.38	194.26
458.56	194.26
458.74	166.18
458.93	182.56
459.11	187.24
459.29	184.90
459.48	203.63
459.66	227.03
459.84	163.84
460.03	212.99
460.21	175.54
460.39	234.05
460.57	224.69
460.76	182.56
460.94	215.33
461.12	182.56
461.31	175.54
461.49	156.82
461.67	182.56
461.85	245.76
462.04	227.03
462.22	582.79
462.40	126.39
462.59	215.33
462.77	152.13
462.95	203.63
463.13	229.37
463.32	189.58
463.50	166.18
463.68	191.92
463.86	156.82
464.05	234.05
464.23	227.03
464.41	252.78
464.59	175.54
464.78	100.64
464.96	248.10
465.14	262.14
465.32	229.37
465.50	259.80
465.69	278.52
465.87	194.26
466.05	227.03
466.23	168.52
466.41	177.88
466.60	227.03
466.78	208.31
466.96	201.29
467.14	138.09
467.32	194.26
467.51	203.63
467.69	175.54
467.87	187.24
468.05	210.65
468.23	236.39
468.41	189.58
468.60	215.33
468.78	201.29
468.96	222.35
469.14	196.60
469.32	140.43
469.50	205.97
469.69	210.65
469.87	180.22
470.05	191.92
470.23	266.82
470.41	208.31
470.59	212.99
470.77	175.54
470.95	173.20
471.14	229.37
471.32	126.39
471.50	259.80
471.68	222.35
471.86	182.56
472.04	147.45
472.22	229.37
472.40	131.07
472.58	241.08
472.77	205.97
472.95	241.08
473.13	229.37
473.31	203.63
473.49	215.33
473.67	177.88
473.85	217.67
474.03	269.16
474.21	133.41
474.39	252.78
474.57	266.82
474.75	243.42
474.93	138.09
475.12	161.50
475.30	194.26
475.48	208.31
475.66	203.63
475.84	142.77
476.02	212.99
476.20	189.58
476.38	273.84
476.56	175.54
476.74	187.24
476.92	159.16
477.10	252.78
477.28	205.97
477.46	166.18
477.64	257.46
477.82	234.05
478.00	161.50
478.18	149.79
478.36	231.71
478.54	184.90
478.72	180.22
478.90	149.79
479.08	311.29
479.26	243.42
479.44	194.26
479.62	105.32
479.80	189.58
479.98	102.98
480.16	191.92
480.34	215.33
480.52	222.35
480.70	222.35
480.88	231.71
481.06	156.82
481.24	177.88
481.41	222.35
481.59	220.01
481.77	269.16
481.95	252.78
482.13	306.61
482.31	224.69
482.49	161.50
482.67	245.76
482.85	234.05
483.03	243.42
483.21	236.39
483.39	262.14
483.57	198.95
483.74	276.18
483.92	259.80
484.10	152.13
484.28	271.50
484.46	243.42
484.64	191.92
484.82	145.11
485.00	222.35
485.18	285.55
485.35	196.60
485.53	297.25
485.71	308.95
485.89	236.39
486.07	262.14
486.25	269.16
486.43	276.18
486.61	210.65
486.78	196.60
486.96	306.61
487.14	205.97
487.32	248.10
487.50	231.71
487.68	273.84
487.85	327.68
488.03	278.52
488.21	236.39
488.39	269.16
488.57	322.99
488.75	231.71
488.92	425.98
489.10	285.55
489.28	234.05
489.46	234.05
489.64	187.24
489.81	306.61
489.99	306.61
490.17	241.08
490.35	353.42
490.53	292.57
490.70	271.50
490.88	222.35
491.06	290.23
491.24	334.70
491.41	273.84
491.59	234.05
491.77	227.03
491.95	210.65
492.13	304.27
492.30	229.37
492.48	271.50
492.66	292.57
492.84	198.95
493.01	224.69
493.19	252.78
493.37	297.25
493.54	205.97
493.72	266.82
493.90	259.80
494.08	231.71
494.25	299.59
494.43	273.84
494.61	250.44
494.79	252.78
494.96	236.39
495.14	198.95
495.32	227.03
495.49	273.84
495.67	234.05
495.85	262.14
496.02	182.56
496.20	255.12
496.38	250.44
496.55	229.37
496.73	315.97
496.91	264.48
497.09	245.76
497.26	269.16
497.44	344.06
497.62	264.48
497.79	217.67
497.97	245.76
498.14	250.44
498.32	229.37
498.50	264.48
498.67	248.10
498.85	297.25
499.03	248.10
499.20	269.16
499.38	264.48
499.56	262.14
499.73	325.33
499.91	273.84
500.08	259.80
500.26	252.78
500.44	273.84
500.61	236.39
500.79	245.76
500.97	271.50
501.14	280.86
501.32	236.39
501.49	269.16
501.67	191.92
501.84	269.16
502.02	215.33
502.20	252.78
502.37	231.71
502.55	191.92
502.72	215.33
502.90	287.89
503.07	236.39
503.25	262.14
503.43	245.76
503.60	264.48
503.78	315.97
503.95	227.03
504.13	292.57
504.30	252.78
504.48	243.42
504.65	334.70
504.83	292.57
505.01	266.82
505.18	182.56
505.36	266.82
505.53	290.23
505.71	201.29
505.88	304.27
506.06	273.84
506.23	234.05
506.41	250.44
506.58	290.23
506.76	269.16
506.93	255.12
507.11	217.67
507.28	231.71
507.46	187.24
507.63	220.01
507.81	273.84
507.98	287.89
508.16	283.20
508.33	198.95
508.50	290.23
508.68	245.76
508.85	245.76
509.03	259.80
509.20	304.27
509.38	264.48
509.55	271.50
509.73	271.50
509.90	262.14
510.08	177.88
510.25	257.46
510.42	241.08
510.60	203.63
510.77	297.25
510.95	322.99
511.12	205.97
511.30	381.51
511.47	362.78
511.64	311.29
511.82	273.84
511.99	250.44
512.17	306.61
512.34	250.44
512.51	191.92
512.69	276.18
512.86	304.27
513.04	290.23
513.21	245.76
513.38	257.46
513.56	259.80
513.73	229.37
513.90	355.76
514.08	283.20
514.25	327.68
514.43	346.40
514.60	203.63
514.77	330.02
514.95	308.95
515.12	236.39
515.29	297.25
515.47	290.23
515.64	297.25
515.81	290.23
515.99	313.63
516.16	301.93
516.33	201.29
516.51	196.60
516.68	273.84
516.85	187.24
517.03	212.99
517.20	313.63
517.37	250.44
517.54	248.10
517.72	208.31
517.89	294.91
518.06	238.73
518.24	304.27
518.41	327.68
518.58	285.55
518.75	222.35
518.93	273.84
519.10	243.42
519.27	259.80
519.45	297.25
519.62	287.89
519.79	358.10
519.96	243.42
520.14	255.12
520.31	327.68
520.48	238.73
520.65	271.50
520.83	262.14
521.00	308.95
521.17	250.44
521.34	234.05
521.52	215.33
521.69	273.84
521.86	264.48
522.03	262.14
522.20	327.68
522.38	234.05
522.55	257.46
522.72	262.14
522.89	301.93
523.07	341.72
523.24	234.05
523.41	215.33
523.58	269.16
523.75	222.35
523.92	248.10
524.10	224.69
524.27	283.20
524.44	311.29
524.61	215.33
524.78	248.10
524.96	308.95
525.13	330.02
525.30	304.27
525.47	301.93
525.64	245.76
525.81	236.39
525.98	278.52
526.16	243.42
526.33	147.45
526.50	248.10
526.67	212.99
526.84	285.55
527.01	248.10
527.18	250.44
527.36	271.50
527.53	243.42
527.70	304.27
527.87	290.23
528.04	278.52
528.21	252.78
528.38	325.33
528.55	287.89
528.72	332.36
528.89	325.33
529.07	315.97
529.24	318.31
529.41	301.93
529.58	245.76
529.75	231.71
529.92	238.73
530.09	271.50
530.26	278.52
530.43	245.76
530.60	217.67
530.77	238.73
530.94	278.52
531.11	306.61
531.28	297.25
531.46	271.50
531.63	280.86
531.80	308.95
531.97	280.86
532.14	241.08
532.31	285.55
532.48	386.19
532.65	442.36
532.82	472.79
532.99	414.27
533.16	402.57
533.33	318.31
533.50	411.93
533.67	461.09
533.84	465.77
534.01	491.51
534.18	386.19
534.35	472.79
534.52	346.40
534.69	313.63
534.86	325.33
535.03	285.55
535.20	308.95
535.37	402.57
535.54	365.12
535.71	264.48
535.88	383.85
536.05	262.14
536.22	278.52
536.38	264.48
536.55	346.40
536.72	344.06
536.89	264.48
537.06	358.10
537.23	320.65
537.40	283.20
537.57	320.65
537.74	404.91
537.91	388.53
538.08	334.70
538.25	285.55
538.42	325.33
538.59	273.84
538.75	330.02
538.92	339.38
539.09	437.68
539.26	313.63
539.43	596.84
539.60	1282.61
539.77	2104.14
539.94	2064.35
540.11	1437.09
540.28	950.26
540.44	779.40
540.61	463.43
540.78	451.72
540.95	440.02
541.12	491.51
541.29	510.24
541.46	552.37
541.62	533.64
541.79	596.84
541.96	512.58
542.13	540.66
542.30	430.66
542.47	458.74
542.63	475.13
542.80	404.91
542.97	491.51
543.14	493.85
543.31	528.96
543.48	465.77
543.64	519.60
543.81	500.87
543.98	461.09
544.15	418.96
544.32	510.24
544.48	465.77
544.65	433.00
544.82	430.66
544.99	519.60
545.16	451.72
545.32	472.79
545.49	697.48
545.66	842.59
545.83	844.93
546.00	741.95
546.16	592.16
546.33	521.94
546.50	435.34
546.67	395.55
546.83	435.34
547.00	388.53
547.17	397.89
547.34	393.21
547.50	423.64
547.67	372.15
547.84	367.46
548.00	411.93
548.17	374.49
548.34	330.02
548.51	369.80
548.67	404.91
548.84	369.80
549.01	362.78
549.18	418.96
549.34	418.96
549.51	360.44
549.68	301.93
549.84	374.49
550.01	304.27
550.18	407.25
550.34	315.97
550.51	341.72
550.68	433.00
550.84	320.65
551.01	365.12
551.18	311.29
551.34	278.52
551.51	297.25
551.68	360.44
551.84	198.95
552.01	294.91
552.18	299.59
552.34	285.55
552.51	334.70
552.68	283.20
552.84	304.27
553.01	365.12
553.18	320.65
553.34	320.65
553.51	262.14
553.67	273.84
553.84	266.82
554.01	294.91
554.17	234.05
554.34	337.04
554.51	262.14
554.67	250.44
554.84	334.70
555.00	322.99
555.17	322.99
555.33	313.63
555.50	306.61
555.67	341.72
555.83	271.50
556.00	376.83
556.16	468.11
556.33	271.50
556.50	273.84
556.66	238.73
556.83	255.12
556.99	330.02
557.16	322.99
557.32	243.42
557.49	337.04
557.65	297.25
557.82	325.33
557.98	271.50
558.15	271.50
558.32	266.82
558.48	250.44
558.65	220.01
558.81	250.44
558.98	257.46
559.14	257.46
559.31	290.23
559.47	243.42
559.64	234.05
559.80	290.23
559.97	208.31
560.13	198.95
560.30	250.44
560.46	367.46
560.63	299.59
560.79	280.86
560.96	257.46
561.12	292.57
561.29	271.50
561.45	292.57
561.61	280.86
561.78	365.12
561.94	311.29
562.11	229.37
562.27	290.23
562.44	280.86
562.60	222.35
562.77	262.14
562.93	355.76
563.10	283.20
563.26	234.05
563.42	245.76
563.59	311.29
563.75	205.97
563.92	301.93
564.08	294.91
564.24	348.74
564.41	315.97
564.57	257.46
564.74	227.03
564.90	238.73
565.07	355.76
565.23	243.42
565.39	337.04
565.56	290.23
565.72	283.20
565.88	198.95
566.05	346.40
566.21	287.89
566.38	243.42
566.54	383.85
566.70	266.82
566.87	238.73
567.03	234.05
567.19	210.65
567.36	290.23
567.52	306.61
567.68	285.55
567.85	250.44
568.01	236.39
568.17	271.50
568.34	280.86
568.50	299.59
568.66	290.23
568.83	322.99
568.99	330.02
569.15	257.46
569.32	220.01
569.48	283.20
569.64	304.27
569.81	264.48
569.97	264.48
570.13	227.03
570.30	255.12
570.46	208.31
570.62	224.69
570.78	245.76
570.95	290.23
571.11	339.38
571.27	257.46
571.43	203.63
571.60	320.65
571.76	334.70
571.92	330.02
572.09	313.63
572.25	297.25
572.41	271.50
572.57	292.57
572.74	365.12
572.90	292.57
573.06	262.14
573.22	241.08
573.38	297.25
573.55	297.25
573.71	266.82
573.87	212.99
574.03	257.46
574.20	269.16
574.36	397.89
574.52	344.06
574.68	425.98
574.84	360.44
575.01	262.14
575.17	301.93
575.33	299.59
575.49	397.89
575.65	339.38
575.82	388.53
575.98	643.65
576.14	798.12
576.30	938.55
576.46	788.76
576.62	650.67
576.79	645.99
576.95	547.69
577.11	337.04
577.27	374.49
577.43	383.85
577.59	332.36
577.75	360.44
577.92	348.74
578.08	355.76
578.24	320.65
578.40	322.99
578.56	365.12
578.72	430.66
578.88	479.81
579.04	393.21
579.21	414.27
579.37	423.64
579.53	381.51
579.69	395.55
579.85	369.80
580.01	416.62
580.17	428.32
580.33	503.22
580.49	447.04
580.65	444.70
580.82	500.87
580.98	437.68
581.14	484.49
581.30	341.72
581.46	575.77
581.62	695.14
581.78	812.17
581.94	821.53
582.10	557.05
582.26	643.65
582.42	568.75
582.58	594.50
582.74	573.43
582.90	573.43
583.06	624.92
583.22	552.37
583.38	568.75
583.54	678.76
583.70	793.44
583.86	905.79
584.02	983.02
584.18	1144.52
584.34	1493.26
584.50	3852.52
584.66	27756.41
584.82	61834.61
584.98	65535.00
585.14	65535.00
585.30	62979.14
585.46	40079.33
585.62	24926.71
585.78	11566.93
585.94	4496.17
586.10	2122.87
586.26	1420.71
586.42	1071.97
586.58	826.21
586.74	826.21
586.90	758.33
587.06	802.80
587.22	807.48
587.38	664.71
587.54	1343.47
587.70	4311.27
587.86	7478.01
588.02	8943.19
588.18	6214.12
588.34	3915.72
588.49	2471.61
588.65	1549.43
588.81	901.11
588.97	594.50
589.13	493.85
589.29	472.79
589.45	468.11
589.61	430.66
589.77	585.13
589.93	627.26
590.08	557.05
590.24	550.03
590.40	571.09
590.56	491.51
590.72	514.92
590.88	428.32
591.04	440.02
591.20	409.59
591.35	468.11
591.51	479.81
591.67	423.64
591.83	442.36
591.99	376.83
592.15	447.04
592.31	414.27
592.46	411.93
592.62	425.98
592.78	414.27
592.94	409.59
593.10	404.91
593.26	498.53
593.41	435.34
593.57	465.77
593.73	704.50
593.89	3440.59
594.05	9142.13
594.20	14757.08
594.36	14604.94
594.52	9488.53
594.68	5755.38
594.84	3763.58
594.99	2155.63
595.15	905.79
595.31	631.94
595.47	505.56
595.62	461.09
595.78	470.45
595.94	477.47
596.10	400.23
596.25	517.26
596.41	435.34
596.57	430.66
596.73	414.27
596.88	697.48
597.04	1619.65
597.20	2944.39
597.36	3714.43
597.51	2799.28
597.67	1851.36
597.83	1224.10
597.99	936.21
598.14	599.18
598.30	526.62
598.46	433.00
598.61	475.13
598.77	475.13
598.93	433.00
599.09	428.32
599.24	374.49
599.40	318.31
599.56	325.33
599.71	362.78
599.87	325.33
600.03	294.91
600.18	308.95
600.34	376.83
600.50	259.80
600.65	250.44
600.81	362.78
600.97	266.82
601.12	231.71
601.28	299.59
601.44	334.70
601.59	315.97
601.75	428.32
601.91	351.08
602.06	353.42
602.22	461.09
602.37	802.80
602.53	2174.36
602.69	3496.76
602.84	3836.14
603.00	2864.82
603.16	1877.11
603.31	1373.89
603.47	837.91
603.62	465.77
603.78	440.02
603.94	318.31
604.09	339.38
604.25	304.27
604.40	304.27
604.56	318.31
604.71	341.72
604.87	320.65
605.03	348.74
605.18	346.40
605.34	348.74
605.49	292.57
605.65	386.19
605.80	360.44
605.96	332.36
606.12	416.62
606.27	393.21
606.43	425.98
606.58	482.15
606.74	1025.15
606.89	3999.98
607.05	8896.38
607.20	12882.31
607.36	10726.68
607.51	7267.36
607.67	4449.36
607.82	3091.85
607.98	1692.21
608.13	917.49
608.29	641.31
608.44	557.05
608.60	573.43
608.75	660.03
608.91	1476.88
609.06	6242.21
609.22	15288.38
609.37	22438.72
609.53	20032.65
609.68	13018.06
609.84	8367.42
609.99	5528.35
610.15	3094.19
