SpectraSuite Data File
++++++++++++++++++++++++++++++++++++
Date: Fri Oct 04 11:34:00 GMT-05:00 2013
User: price-jones
Dark Spectrum Present: No
Reference Spectrum Present: No
Number of Sampled Component Spectra: 1
Spectrometers: USB2+H05261
Integration Time (usec): 100000 (USB2+H05261)
Spectra Averaged: 1 (USB2+H05261)
Boxcar Smoothing: 0 (USB2+H05261)
Correct for Electrical Dark: No (USB2+H05261)
Strobe/Lamp Enabled: No (USB2+H05261)
Correct for Detector Non-linearity: No (USB2+H05261)
Correct for Stray Light: No (USB2+H05261)
Number of Pixels in Processed Spectrum: 2048
>>>>>Begin Processed Spectral Data<<<<<
365.73	77.24
365.92	77.24
366.12	77.24
366.32	16.38
366.52	0.00
366.72	0.00
366.91	0.00
367.11	0.00
367.31	0.00
367.51	0.00
367.70	0.00
367.90	0.00
368.10	4.68
368.30	37.45
368.49	0.00
368.69	37.45
368.89	2.34
369.09	0.00
369.28	46.81
369.48	0.00
369.68	0.00
369.87	32.77
370.07	42.13
370.27	49.15
370.47	79.58
370.66	72.56
370.86	74.90
371.06	81.92
371.25	215.33
371.45	67.88
371.65	170.86
371.84	98.30
372.04	30.43
372.24	110.01
372.44	121.71
372.63	95.96
372.83	187.24
373.03	154.48
373.22	135.75
373.42	140.43
373.62	156.82
373.81	128.73
374.01	131.07
374.21	177.88
374.40	159.16
374.60	187.24
374.79	147.45
374.99	161.50
375.19	189.58
375.38	173.20
375.58	142.77
375.78	159.16
375.97	95.96
376.17	168.52
376.37	205.97
376.56	166.18
376.76	117.03
376.95	119.37
377.15	180.22
377.35	156.82
377.54	194.26
377.74	138.09
377.93	124.05
378.13	51.49
378.33	205.97
378.52	203.63
378.72	128.73
378.91	135.75
379.11	187.24
379.31	98.30
379.50	159.16
379.70	149.79
379.89	74.90
380.09	124.05
380.28	131.07
380.48	147.45
380.68	145.11
380.87	124.05
381.07	79.58
381.26	121.71
381.46	142.77
381.65	88.94
381.85	138.09
382.04	149.79
382.24	175.54
382.43	168.52
382.63	65.54
382.83	133.41
383.02	119.37
383.22	196.60
383.41	124.05
383.61	70.22
383.80	95.96
384.00	131.07
384.19	88.94
384.39	79.58
384.58	107.66
384.78	117.03
384.97	205.97
385.17	154.48
385.36	138.09
385.56	131.07
385.75	138.09
385.95	102.98
386.14	229.37
386.34	142.77
386.53	187.24
386.72	117.03
386.92	191.92
387.11	102.98
387.31	166.18
387.50	126.39
387.70	126.39
387.89	74.90
388.09	112.35
388.28	114.69
388.48	163.84
388.67	163.84
388.86	100.64
389.06	163.84
389.25	133.41
389.45	154.48
389.64	46.81
389.84	196.60
390.03	224.69
390.22	161.50
390.42	95.96
390.61	154.48
390.81	138.09
391.00	88.94
391.19	124.05
391.39	126.39
391.58	105.32
391.78	159.16
391.97	147.45
392.16	70.22
392.36	205.97
392.55	166.18
392.75	168.52
392.94	187.24
393.13	105.32
393.33	173.20
393.52	124.05
393.71	126.39
393.91	126.39
394.10	114.69
394.29	81.92
394.49	138.09
394.68	154.48
394.88	128.73
395.07	154.48
395.26	105.32
395.46	156.82
395.65	175.54
395.84	84.26
396.04	248.10
396.23	112.35
396.42	133.41
396.62	91.28
396.81	98.30
397.00	184.90
397.19	156.82
397.39	126.39
397.58	173.20
397.77	86.60
397.97	177.88
398.16	168.52
398.35	217.67
398.55	161.50
398.74	154.48
398.93	161.50
399.12	67.88
399.32	105.32
399.51	173.20
399.70	234.05
399.90	170.86
400.09	121.71
400.28	177.88
400.47	201.29
400.67	159.16
400.86	147.45
401.05	184.90
401.24	152.13
401.44	126.39
401.63	205.97
401.82	198.95
402.01	145.11
402.21	166.18
402.40	166.18
402.59	229.37
402.78	154.48
402.97	170.86
403.17	241.08
403.36	149.79
403.55	175.54
403.74	210.65
403.93	191.92
404.13	250.44
404.32	245.76
404.51	114.69
404.70	191.92
404.89	166.18
405.09	184.90
405.28	182.56
405.47	107.66
405.66	180.22
405.85	145.11
406.05	131.07
406.24	154.48
406.43	135.75
406.62	175.54
406.81	161.50
407.00	175.54
407.20	133.41
407.39	194.26
407.58	140.43
407.77	142.77
407.96	198.95
408.15	121.71
408.34	166.18
408.54	138.09
408.73	135.75
408.92	117.03
409.11	175.54
409.30	142.77
409.49	84.26
409.68	124.05
409.87	105.32
410.07	121.71
410.26	194.26
410.45	131.07
410.64	135.75
410.83	105.32
411.02	142.77
411.21	154.48
411.40	194.26
411.59	107.66
411.78	220.01
411.98	128.73
412.17	170.86
412.36	147.45
412.55	110.01
412.74	180.22
412.93	154.48
413.12	70.22
413.31	180.22
413.50	124.05
413.69	163.84
413.88	217.67
414.07	131.07
414.26	205.97
414.45	140.43
414.64	124.05
414.83	156.82
415.02	119.37
415.22	189.58
415.41	126.39
415.60	91.28
415.79	161.50
415.98	135.75
416.17	163.84
416.36	180.22
416.55	93.62
416.74	149.79
416.93	173.20
417.12	124.05
417.31	191.92
417.50	166.18
417.69	182.56
417.88	191.92
418.07	177.88
418.26	124.05
418.45	173.20
418.64	173.20
418.83	196.60
419.02	170.86
419.21	84.26
419.39	177.88
419.58	149.79
419.77	114.69
419.96	105.32
420.15	184.90
420.34	177.88
420.53	222.35
420.72	210.65
420.91	184.90
421.10	140.43
421.29	187.24
421.48	191.92
421.67	152.13
421.86	119.37
422.05	208.31
422.24	187.24
422.43	170.86
422.61	196.60
422.80	126.39
422.99	152.13
423.18	124.05
423.37	154.48
423.56	135.75
423.75	168.52
423.94	145.11
424.13	51.49
424.32	170.86
424.50	149.79
424.69	166.18
424.88	166.18
425.07	121.71
425.26	205.97
425.45	133.41
425.64	173.20
425.83	133.41
426.01	180.22
426.20	152.13
426.39	135.75
426.58	140.43
426.77	201.29
426.96	201.29
427.15	138.09
427.33	133.41
427.52	112.35
427.71	133.41
427.90	212.99
428.09	149.79
428.28	138.09
428.46	124.05
428.65	177.88
428.84	149.79
429.03	210.65
429.22	212.99
429.40	159.16
429.59	107.66
429.78	180.22
429.97	166.18
430.16	119.37
430.34	182.56
430.53	107.66
430.72	138.09
430.91	140.43
431.10	168.52
431.28	224.69
431.47	203.63
431.66	154.48
431.85	220.01
432.03	173.20
432.22	205.97
432.41	184.90
432.60	182.56
432.79	145.11
432.97	191.92
433.16	191.92
433.35	182.56
433.54	194.26
433.72	131.07
433.91	128.73
434.10	147.45
434.28	222.35
434.47	145.11
434.66	102.98
434.85	168.52
435.03	170.86
435.22	299.59
435.41	393.21
435.59	311.29
435.78	255.12
435.97	128.73
436.16	198.95
436.34	168.52
436.53	196.60
436.72	173.20
436.90	187.24
437.09	175.54
437.28	131.07
437.46	142.77
437.65	180.22
437.84	234.05
438.02	191.92
438.21	210.65
438.40	184.90
438.58	77.24
438.77	189.58
438.96	147.45
439.14	88.94
439.33	180.22
439.52	152.13
439.70	170.86
439.89	135.75
440.08	166.18
440.26	140.43
440.45	163.84
440.63	201.29
440.82	156.82
441.01	180.22
441.19	177.88
441.38	222.35
441.57	173.20
441.75	184.90
441.94	205.97
442.12	191.92
442.31	177.88
442.50	145.11
442.68	180.22
442.87	201.29
443.05	196.60
443.24	252.78
443.43	159.16
443.61	166.18
443.80	184.90
443.98	168.52
444.17	105.32
444.35	215.33
444.54	187.24
444.73	220.01
444.91	203.63
445.10	196.60
445.28	238.73
445.47	224.69
445.65	173.20
445.84	238.73
446.02	147.45
446.21	177.88
446.39	177.88
446.58	182.56
446.77	196.60
446.95	217.67
447.14	196.60
447.32	173.20
447.51	154.48
447.69	234.05
447.88	168.52
448.06	248.10
448.25	220.01
448.43	152.13
448.62	147.45
448.80	124.05
448.99	191.92
449.17	203.63
449.36	194.26
449.54	245.76
449.73	220.01
449.91	212.99
450.10	238.73
450.28	238.73
450.46	212.99
450.65	215.33
450.83	224.69
451.02	255.12
451.20	205.97
451.39	175.54
451.57	234.05
451.76	205.97
451.94	156.82
452.13	330.02
452.31	168.52
452.49	203.63
452.68	135.75
452.86	229.37
453.05	220.01
453.23	152.13
453.42	245.76
453.60	173.20
453.78	196.60
453.97	166.18
454.15	170.86
454.34	166.18
454.52	147.45
454.70	212.99
454.89	229.37
455.07	227.03
455.26	205.97
455.44	154.48
455.62	184.90
455.81	224.69
455.99	182.56
456.17	198.95
456.36	217.67
456.54	180.22
456.73	117.03
456.91	177.88
457.09	208.31
457.28	210.65
457.46	189.58
457.64	187.24
457.83	173.20
458.01	168.52
458.19	163.84
458.38	170.86
458.56	210.65
458.74	112.35
458.93	156.82
459.11	142.77
459.29	152.13
459.48	117.03
459.66	227.03
459.84	182.56
460.03	259.80
460.21	243.42
460.39	177.88
460.57	198.95
460.76	173.20
460.94	264.48
461.12	201.29
461.31	142.77
461.49	315.97
461.67	217.67
461.85	238.73
462.04	166.18
462.22	638.97
462.40	159.16
462.59	250.44
462.77	161.50
462.95	180.22
463.13	210.65
463.32	182.56
463.50	243.42
463.68	145.11
463.86	224.69
464.05	131.07
464.23	212.99
464.41	166.18
464.59	184.90
464.78	196.60
464.96	124.05
465.14	227.03
465.32	166.18
465.50	203.63
465.69	163.84
465.87	194.26
466.05	180.22
466.23	168.52
466.41	257.46
466.60	161.50
466.78	189.58
466.96	280.86
467.14	159.16
467.32	177.88
467.51	201.29
467.69	177.88
467.87	238.73
468.05	133.41
468.23	203.63
468.41	271.50
468.60	208.31
468.78	145.11
468.96	257.46
469.14	168.52
469.32	189.58
469.50	184.90
469.69	198.95
469.87	208.31
470.05	182.56
470.23	231.71
470.41	131.07
470.59	159.16
470.77	205.97
470.95	196.60
471.14	198.95
471.32	147.45
471.50	266.82
471.68	166.18
471.86	166.18
472.04	105.32
472.22	215.33
472.40	170.86
472.58	229.37
472.77	191.92
472.95	191.92
473.13	278.52
473.31	201.29
473.49	227.03
473.67	152.13
473.85	198.95
474.03	259.80
474.21	126.39
474.39	210.65
474.57	203.63
474.75	201.29
474.93	184.90
475.12	175.54
475.30	201.29
475.48	194.26
475.66	126.39
475.84	159.16
476.02	222.35
476.20	222.35
476.38	222.35
476.56	327.68
476.74	285.55
476.92	198.95
477.10	283.20
477.28	257.46
477.46	149.79
477.64	168.52
477.82	229.37
478.00	189.58
478.18	180.22
478.36	182.56
478.54	180.22
478.72	189.58
478.90	201.29
479.08	152.13
479.26	184.90
479.44	161.50
479.62	135.75
479.80	262.14
479.98	245.76
480.16	154.48
480.34	217.67
480.52	255.12
480.70	196.60
480.88	173.20
481.06	145.11
481.24	184.90
481.41	175.54
481.59	241.08
481.77	194.26
481.95	227.03
482.13	234.05
482.31	217.67
482.49	217.67
482.67	152.13
482.85	269.16
483.03	224.69
483.21	231.71
483.39	210.65
483.57	220.01
483.74	276.18
483.92	238.73
484.10	205.97
484.28	234.05
484.46	269.16
484.64	173.20
484.82	278.52
485.00	177.88
485.18	245.76
485.35	297.25
485.53	184.90
485.71	287.89
485.89	215.33
486.07	210.65
486.25	285.55
486.43	243.42
486.61	243.42
486.78	259.80
486.96	248.10
487.14	194.26
487.32	189.58
487.50	229.37
487.68	236.39
487.85	236.39
488.03	301.93
488.21	238.73
488.39	212.99
488.57	203.63
488.75	187.24
488.92	463.43
489.10	241.08
489.28	259.80
489.46	248.10
489.64	278.52
489.81	191.92
489.99	245.76
490.17	227.03
490.35	215.33
490.53	201.29
490.70	259.80
490.88	252.78
491.06	210.65
491.24	297.25
491.41	313.63
491.59	287.89
491.77	245.76
491.95	269.16
492.13	194.26
492.30	252.78
492.48	231.71
492.66	182.56
492.84	264.48
493.01	252.78
493.19	248.10
493.37	297.25
493.54	224.69
493.72	222.35
493.90	229.37
494.08	315.97
494.25	262.14
494.43	217.67
494.61	189.58
494.79	222.35
494.96	245.76
495.14	276.18
495.32	250.44
495.49	189.58
495.67	252.78
495.85	187.24
496.02	220.01
496.20	271.50
496.38	245.76
496.55	294.91
496.73	248.10
496.91	306.61
497.09	252.78
497.26	285.55
497.44	250.44
497.62	208.31
497.79	280.86
497.97	245.76
498.14	264.48
498.32	227.03
498.50	278.52
498.67	194.26
498.85	231.71
499.03	255.12
499.20	227.03
499.38	262.14
499.56	243.42
499.73	320.65
499.91	287.89
500.08	292.57
500.26	124.05
500.44	220.01
500.61	259.80
500.79	191.92
500.97	236.39
501.14	280.86
501.32	271.50
501.49	280.86
501.67	224.69
501.84	227.03
502.02	163.84
502.20	292.57
502.37	301.93
502.55	203.63
502.72	241.08
502.90	276.18
503.07	236.39
503.25	252.78
503.43	187.24
503.60	177.88
503.78	273.84
503.95	250.44
504.13	163.84
504.30	271.50
504.48	234.05
504.65	271.50
504.83	259.80
505.01	273.84
505.18	229.37
505.36	269.16
505.53	252.78
505.71	318.31
505.88	266.82
506.06	280.86
506.23	262.14
506.41	203.63
506.58	266.82
506.76	201.29
506.93	191.92
507.11	276.18
507.28	262.14
507.46	126.39
507.63	262.14
507.81	248.10
507.98	264.48
508.16	217.67
508.33	285.55
508.50	215.33
508.68	201.29
508.85	276.18
509.03	241.08
509.20	250.44
509.38	231.71
509.55	241.08
509.73	266.82
509.90	266.82
510.08	255.12
510.25	278.52
510.42	182.56
510.60	212.99
510.77	315.97
510.95	259.80
511.12	224.69
511.30	234.05
511.47	269.16
511.64	287.89
511.82	252.78
511.99	198.95
512.17	252.78
512.34	175.54
512.51	264.48
512.69	248.10
512.86	322.99
513.04	217.67
513.21	222.35
513.38	266.82
513.56	227.03
513.73	294.91
513.90	273.84
514.08	315.97
514.25	285.55
514.43	269.16
514.60	290.23
514.77	212.99
514.95	238.73
515.12	245.76
515.29	175.54
515.47	301.93
515.64	292.57
515.81	273.84
515.99	271.50
516.16	273.84
516.33	341.72
516.51	194.26
516.68	168.52
516.85	292.57
517.03	236.39
517.20	315.97
517.37	278.52
517.54	220.01
517.72	217.67
517.89	210.65
518.06	205.97
518.24	243.42
518.41	351.08
518.58	280.86
518.75	299.59
518.93	306.61
519.10	271.50
519.27	262.14
519.45	243.42
519.62	283.20
519.79	227.03
519.96	177.88
520.14	220.01
520.31	224.69
520.48	241.08
520.65	205.97
520.83	320.65
521.00	308.95
521.17	229.37
521.34	252.78
521.52	365.12
521.69	266.82
521.86	259.80
522.03	276.18
522.20	290.23
522.38	217.67
522.55	201.29
522.72	182.56
522.89	299.59
523.07	259.80
523.24	215.33
523.41	220.01
523.58	236.39
523.75	299.59
523.92	168.52
524.10	301.93
524.27	283.20
524.44	215.33
524.61	346.40
524.78	285.55
524.96	245.76
525.13	259.80
525.30	344.06
525.47	269.16
525.64	222.35
525.81	212.99
525.98	229.37
526.16	131.07
526.33	203.63
526.50	271.50
526.67	248.10
526.84	248.10
527.01	234.05
527.18	299.59
527.36	306.61
527.53	231.71
527.70	262.14
527.87	248.10
528.04	313.63
528.21	320.65
528.38	222.35
528.55	285.55
528.72	287.89
528.89	322.99
529.07	262.14
529.24	215.33
529.41	301.93
529.58	217.67
529.75	243.42
529.92	278.52
530.09	330.02
530.26	259.80
530.43	315.97
530.60	297.25
530.77	236.39
530.94	241.08
531.11	290.23
531.28	227.03
531.46	259.80
531.63	262.14
531.80	227.03
531.97	297.25
532.14	205.97
532.31	241.08
532.48	301.93
532.65	386.19
532.82	215.33
532.99	264.48
533.16	201.29
533.33	330.02
533.50	271.50
533.67	135.75
533.84	346.40
534.01	280.86
534.18	294.91
534.35	283.20
534.52	252.78
534.69	283.20
534.86	299.59
535.03	276.18
535.20	259.80
535.37	262.14
535.54	236.39
535.71	227.03
535.88	362.78
536.05	318.31
536.22	269.16
536.38	227.03
536.55	234.05
536.72	294.91
536.89	203.63
537.06	224.69
537.23	290.23
537.40	294.91
537.57	273.84
537.74	322.99
537.91	299.59
538.08	271.50
538.25	292.57
538.42	259.80
538.59	306.61
538.75	304.27
538.92	299.59
539.09	322.99
539.26	205.97
539.43	353.42
539.60	365.12
539.77	334.70
539.94	400.23
540.11	353.42
540.28	372.15
540.44	397.89
540.61	318.31
540.78	320.65
540.95	475.13
541.12	533.64
541.29	484.49
541.46	477.47
541.62	472.79
541.79	449.38
541.96	423.64
542.13	477.47
542.30	402.57
542.47	484.49
542.63	468.11
542.80	388.53
542.97	533.64
543.14	416.62
543.31	475.13
543.48	477.47
543.64	409.59
543.81	430.66
543.98	400.23
544.15	327.68
544.32	526.62
544.48	397.89
544.65	428.32
544.82	407.25
544.99	397.89
545.16	395.55
545.32	374.49
545.49	636.63
545.66	744.29
545.83	844.93
546.00	627.26
546.16	505.56
546.33	447.04
546.50	381.51
546.67	346.40
546.83	428.32
547.00	362.78
547.17	369.80
547.34	416.62
547.50	334.70
547.67	393.21
547.84	301.93
548.00	381.51
548.17	346.40
548.34	362.78
548.51	383.85
548.67	353.42
548.84	348.74
549.01	311.29
549.18	285.55
549.34	351.08
549.51	278.52
549.68	313.63
549.84	280.86
550.01	304.27
550.18	409.59
550.34	360.44
550.51	285.55
550.68	376.83
550.84	365.12
551.01	248.10
551.18	390.87
551.34	306.61
551.51	334.70
551.68	358.10
551.84	269.16
552.01	308.95
552.18	257.46
552.34	278.52
552.51	287.89
552.68	292.57
552.84	297.25
553.01	259.80
553.18	231.71
553.34	327.68
553.51	292.57
553.67	266.82
553.84	325.33
554.01	248.10
554.17	290.23
554.34	255.12
554.51	337.04
554.67	285.55
554.84	327.68
555.00	278.52
555.17	262.14
555.33	313.63
555.50	245.76
555.67	283.20
555.83	184.90
556.00	301.93
556.16	339.38
556.33	271.50
556.50	259.80
556.66	304.27
556.83	285.55
556.99	259.80
557.16	259.80
557.32	243.42
557.49	285.55
557.65	243.42
557.82	292.57
557.98	259.80
558.15	229.37
558.32	308.95
558.48	334.70
558.65	262.14
558.81	292.57
558.98	243.42
559.14	318.31
559.31	248.10
559.47	297.25
559.64	283.20
559.80	212.99
559.97	203.63
560.13	170.86
560.30	243.42
560.46	318.31
560.63	210.65
560.79	262.14
560.96	315.97
561.12	187.24
561.29	259.80
561.45	264.48
561.61	271.50
561.78	360.44
561.94	278.52
562.11	205.97
562.27	182.56
562.44	280.86
562.60	255.12
562.77	276.18
562.93	280.86
563.10	266.82
563.26	187.24
563.42	229.37
563.59	301.93
563.75	294.91
563.92	255.12
564.08	234.05
564.24	241.08
564.41	294.91
564.57	220.01
564.74	250.44
564.90	255.12
565.07	259.80
565.23	241.08
565.39	257.46
565.56	255.12
565.72	285.55
565.88	245.76
566.05	212.99
566.21	212.99
566.38	280.86
566.54	290.23
566.70	308.95
566.87	220.01
567.03	255.12
567.19	229.37
567.36	236.39
567.52	304.27
567.68	238.73
567.85	306.61
568.01	217.67
568.17	203.63
568.34	245.76
568.50	273.84
568.66	217.67
568.83	393.21
568.99	283.20
569.15	271.50
569.32	292.57
569.48	198.95
569.64	248.10
569.81	220.01
569.97	248.10
570.13	248.10
570.30	259.80
570.46	203.63
570.62	262.14
570.78	175.54
570.95	243.42
571.11	299.59
571.27	304.27
571.43	217.67
571.60	212.99
571.76	283.20
571.92	257.46
572.09	203.63
572.25	248.10
572.41	250.44
572.57	252.78
572.74	315.97
572.90	252.78
573.06	234.05
573.22	266.82
573.38	292.57
573.55	198.95
573.71	231.71
573.87	262.14
574.03	248.10
574.20	266.82
574.36	276.18
574.52	255.12
574.68	238.73
574.84	266.82
575.01	245.76
575.17	259.80
575.33	215.33
575.49	238.73
575.65	297.25
575.82	266.82
575.98	294.91
576.14	229.37
576.30	318.31
576.46	311.29
576.62	327.68
576.79	344.06
576.95	341.72
577.11	259.80
577.27	276.18
577.43	255.12
577.59	273.84
577.75	266.82
577.92	299.59
578.08	227.03
578.24	220.01
578.40	266.82
578.56	353.42
578.72	334.70
578.88	318.31
579.04	379.17
579.21	337.04
579.37	327.68
579.53	292.57
579.69	341.72
579.85	297.25
580.01	313.63
580.17	262.14
580.33	294.91
580.49	299.59
580.65	224.69
580.82	224.69
580.98	311.29
581.14	252.78
581.30	280.86
581.46	269.16
581.62	337.04
581.78	273.84
581.94	330.02
582.10	276.18
582.26	297.25
582.42	290.23
582.58	304.27
582.74	264.48
582.90	327.68
583.06	217.67
583.22	264.48
583.38	374.49
583.54	252.78
583.70	318.31
583.86	264.48
584.02	360.44
584.18	386.19
584.34	315.97
584.50	407.25
584.66	1205.38
584.82	2513.74
584.98	3393.78
585.14	3117.59
585.30	2118.18
585.46	1366.87
585.62	919.83
585.78	594.50
585.94	381.51
586.10	388.53
586.26	299.59
586.42	308.95
586.58	339.38
586.74	315.97
586.90	337.04
587.06	332.36
587.22	355.76
587.38	306.61
587.54	388.53
587.70	449.38
587.86	552.37
588.02	477.47
588.18	543.00
588.34	358.10
588.49	259.80
588.65	271.50
588.81	283.20
588.97	266.82
589.13	287.89
589.29	360.44
589.45	222.35
589.61	248.10
589.77	285.55
589.93	234.05
590.08	215.33
590.24	276.18
590.40	252.78
590.56	287.89
590.72	283.20
590.88	220.01
591.04	224.69
591.20	318.31
591.35	320.65
591.51	264.48
591.67	299.59
591.83	217.67
591.99	360.44
592.15	304.27
592.31	264.48
592.46	220.01
592.62	318.31
592.78	285.55
592.94	381.51
593.10	344.06
593.26	273.84
593.41	273.84
593.57	257.46
593.73	297.25
593.89	407.25
594.05	491.51
594.20	655.35
594.36	585.13
594.52	454.06
594.68	376.83
594.84	423.64
594.99	292.57
595.15	292.57
595.31	252.78
595.47	224.69
595.62	248.10
595.78	311.29
595.94	292.57
596.10	248.10
596.25	285.55
596.41	273.84
596.57	189.58
596.73	227.03
596.88	290.23
597.04	315.97
597.20	287.89
597.36	297.25
597.51	308.95
597.67	353.42
597.83	322.99
597.99	280.86
598.14	255.12
598.30	376.83
598.46	259.80
598.61	257.46
598.77	250.44
598.93	259.80
599.09	297.25
599.24	313.63
599.40	353.42
599.56	203.63
599.71	327.68
599.87	294.91
600.03	259.80
600.18	220.01
600.34	290.23
600.50	248.10
600.65	250.44
600.81	271.50
600.97	220.01
601.12	276.18
601.28	276.18
601.44	294.91
601.59	184.90
601.75	234.05
601.91	220.01
602.06	285.55
602.22	248.10
602.37	227.03
602.53	318.31
602.69	379.17
602.84	341.72
603.00	301.93
603.16	311.29
603.31	327.68
603.47	283.20
603.62	259.80
603.78	266.82
603.94	287.89
604.09	194.26
604.25	332.36
604.40	339.38
604.56	222.35
604.71	313.63
604.87	306.61
605.03	297.25
605.18	278.52
605.34	220.01
605.49	231.71
605.65	220.01
605.80	212.99
605.96	194.26
606.12	215.33
606.27	229.37
606.43	234.05
606.58	348.74
606.74	346.40
606.89	383.85
607.05	608.54
607.20	636.63
607.36	547.69
607.51	533.64
607.67	304.27
607.82	280.86
607.98	376.83
608.13	348.74
608.29	252.78
608.44	325.33
608.60	280.86
608.75	362.78
608.91	365.12
609.06	517.26
609.22	849.61
609.37	917.49
609.53	875.36
609.68	599.18
609.84	550.03
609.99	456.40
610.15	421.30
610.30	500.87
610.46	521.94
610.61	554.71
610.76	692.80
610.92	664.71
