SpectraSuite Data File
++++++++++++++++++++++++++++++++++++
Date: Fri Oct 04 12:13:33 GMT-05:00 2013
User: price-jones
Dark Spectrum Present: No
Reference Spectrum Present: No
Number of Sampled Component Spectra: 1
Spectrometers: USB2+H05261
Integration Time (usec): 10000 (USB2+H05261)
Spectra Averaged: 1 (USB2+H05261)
Boxcar Smoothing: 0 (USB2+H05261)
Correct for Electrical Dark: No (USB2+H05261)
Strobe/Lamp Enabled: No (USB2+H05261)
Correct for Detector Non-linearity: No (USB2+H05261)
Correct for Stray Light: No (USB2+H05261)
Number of Pixels in Processed Spectrum: 2048
>>>>>Begin Processed Spectral Data<<<<<
365.73	0.00
365.92	0.00
366.12	0.00
366.32	0.00
366.52	0.00
366.72	0.00
366.91	0.00
367.11	0.00
367.31	0.00
367.51	0.00
367.70	0.00
367.90	0.00
368.10	0.00
368.30	0.00
368.49	0.00
368.69	0.00
368.89	0.00
369.09	0.00
369.28	0.00
369.48	0.00
369.68	0.00
369.87	0.00
370.07	0.00
370.27	0.00
370.47	16.38
370.66	23.41
370.86	70.22
371.06	4.68
371.25	0.00
371.45	35.11
371.65	0.00
371.84	42.13
372.04	21.06
372.24	46.81
372.44	28.09
372.63	72.56
372.83	35.11
373.03	93.62
373.22	7.02
373.42	58.51
373.62	86.60
373.81	142.77
374.01	133.41
374.21	124.05
374.40	147.45
374.60	65.54
374.79	60.85
374.99	156.82
375.19	156.82
375.38	107.66
375.58	203.63
375.78	67.88
375.97	166.18
376.17	149.79
376.37	65.54
376.56	154.48
376.76	98.30
376.95	110.01
377.15	121.71
377.35	79.58
377.54	100.64
377.74	119.37
377.93	110.01
378.13	138.09
378.33	124.05
378.52	135.75
378.72	93.62
378.91	102.98
379.11	95.96
379.31	74.90
379.50	65.54
379.70	110.01
379.89	53.83
380.09	117.03
380.28	208.31
380.48	72.56
380.68	138.09
380.87	105.32
381.07	67.88
381.26	110.01
381.46	67.88
381.65	112.35
381.85	84.26
382.04	163.84
382.24	72.56
382.43	53.83
382.63	42.13
382.83	138.09
383.02	88.94
383.22	67.88
383.41	16.38
383.61	56.17
383.80	53.83
384.00	67.88
384.19	72.56
384.39	105.32
384.58	95.96
384.78	77.24
384.97	142.77
385.17	114.69
385.36	98.30
385.56	74.90
385.75	114.69
385.95	159.16
386.14	173.20
386.34	124.05
386.53	124.05
386.72	58.51
386.92	138.09
387.11	119.37
387.31	170.86
387.50	112.35
387.70	51.49
387.89	133.41
388.09	88.94
388.28	133.41
388.48	112.35
388.67	110.01
388.86	117.03
389.06	110.01
389.25	159.16
389.45	180.22
389.64	208.31
389.84	161.50
390.03	191.92
390.22	154.48
390.42	140.43
390.61	91.28
390.81	114.69
391.00	194.26
391.19	161.50
391.39	227.03
391.58	189.58
391.78	145.11
391.97	191.92
392.16	140.43
392.36	145.11
392.55	86.60
392.75	105.32
392.94	117.03
393.13	121.71
393.33	124.05
393.52	159.16
393.71	133.41
393.91	166.18
394.10	142.77
394.29	131.07
394.49	159.16
394.68	238.73
394.88	163.84
395.07	149.79
395.26	187.24
395.46	163.84
395.65	117.03
395.84	149.79
396.04	117.03
396.23	142.77
396.42	42.13
396.62	51.49
396.81	203.63
397.00	131.07
397.19	170.86
397.39	184.90
397.58	203.63
397.77	234.05
397.97	166.18
398.16	252.78
398.35	250.44
398.55	259.80
398.74	257.46
398.93	227.03
399.12	243.42
399.32	248.10
399.51	257.46
399.70	234.05
399.90	243.42
400.09	227.03
400.28	278.52
400.47	215.33
400.67	266.82
400.86	344.06
401.05	224.69
401.24	170.86
401.44	325.33
401.63	276.18
401.82	280.86
402.01	301.93
402.21	344.06
402.40	215.33
402.59	212.99
402.78	276.18
402.97	245.76
403.17	248.10
403.36	250.44
403.55	306.61
403.74	241.08
403.93	276.18
404.13	243.42
404.32	255.12
404.51	234.05
404.70	196.60
404.89	259.80
405.09	283.20
405.28	301.93
405.47	273.84
405.66	255.12
405.85	180.22
406.05	264.48
406.24	287.89
406.43	271.50
406.62	315.97
406.81	292.57
407.00	262.14
407.20	308.95
407.39	294.91
407.58	283.20
407.77	297.25
407.96	266.82
408.15	320.65
408.34	311.29
408.54	285.55
408.73	255.12
408.92	231.71
409.11	280.86
409.30	297.25
409.49	318.31
409.68	154.48
409.87	166.18
410.07	283.20
410.26	294.91
410.45	264.48
410.64	245.76
410.83	346.40
411.02	301.93
411.21	285.55
411.40	297.25
411.59	311.29
411.78	285.55
411.98	292.57
412.17	325.33
412.36	313.63
412.55	269.16
412.74	348.74
412.93	280.86
413.12	334.70
413.31	339.38
413.50	367.46
413.69	372.15
413.88	376.83
414.07	353.42
414.26	372.15
414.45	266.82
414.64	325.33
414.83	341.72
415.02	332.36
415.22	276.18
415.41	294.91
415.60	358.10
415.79	365.12
415.98	451.72
416.17	374.49
416.36	362.78
416.55	346.40
416.74	376.83
416.93	344.06
417.12	351.08
417.31	360.44
417.50	355.76
417.69	360.44
417.88	390.87
418.07	325.33
418.26	372.15
418.45	358.10
418.64	344.06
418.83	365.12
419.02	325.33
419.21	386.19
419.39	341.72
419.58	372.15
419.77	360.44
419.96	332.36
420.15	383.85
420.34	320.65
420.53	386.19
420.72	390.87
420.91	374.49
421.10	367.46
421.29	346.40
421.48	360.44
421.67	341.72
421.86	327.68
422.05	337.04
422.24	330.02
422.43	311.29
422.61	353.42
422.80	322.99
422.99	456.40
423.18	306.61
423.37	428.32
423.56	327.68
423.75	334.70
423.94	393.21
424.13	362.78
424.32	358.10
424.50	320.65
424.69	367.46
424.88	362.78
425.07	322.99
425.26	285.55
425.45	362.78
425.64	241.08
425.83	264.48
426.01	248.10
426.20	339.38
426.39	337.04
426.58	299.59
426.77	271.50
426.96	332.36
427.15	313.63
427.33	379.17
427.52	320.65
427.71	355.76
427.90	383.85
428.09	337.04
428.28	341.72
428.46	358.10
428.65	362.78
428.84	299.59
429.03	287.89
429.22	308.95
429.40	344.06
429.59	210.65
429.78	334.70
429.97	250.44
430.16	250.44
430.34	290.23
430.53	241.08
430.72	259.80
430.91	276.18
431.10	339.38
431.28	334.70
431.47	444.70
431.66	304.27
431.85	369.80
432.03	348.74
432.22	315.97
432.41	404.91
432.60	411.93
432.79	344.06
432.97	470.45
433.16	404.91
433.35	372.15
433.54	311.29
433.72	264.48
433.91	292.57
434.10	304.27
434.28	433.00
434.47	348.74
434.66	397.89
434.85	416.62
435.03	367.46
435.22	358.10
435.41	418.96
435.59	379.17
435.78	505.56
435.97	386.19
436.16	393.21
436.34	435.34
436.53	402.57
436.72	395.55
436.90	367.46
437.09	367.46
437.28	383.85
437.46	395.55
437.65	276.18
437.84	322.99
438.02	376.83
438.21	369.80
438.40	367.46
438.58	322.99
438.77	365.12
438.96	362.78
439.14	400.23
439.33	470.45
439.52	348.74
439.70	437.68
439.89	423.64
440.08	301.93
440.26	386.19
440.45	395.55
440.63	425.98
440.82	461.09
441.01	400.23
441.19	463.43
441.38	470.45
441.57	512.58
441.75	528.96
441.94	402.57
442.12	477.47
442.31	475.13
442.50	517.26
442.68	465.77
442.87	449.38
443.05	465.77
443.24	475.13
443.43	472.79
443.61	482.15
443.80	472.79
443.98	463.43
444.17	489.17
444.35	461.09
444.54	444.70
444.73	482.15
444.91	482.15
445.10	414.27
445.28	348.74
445.47	397.89
445.65	461.09
445.84	442.36
446.02	458.74
446.21	496.19
446.39	411.93
446.58	425.98
446.77	498.53
446.95	353.42
447.14	517.26
447.32	531.30
447.51	442.36
447.69	482.15
447.88	449.38
448.06	465.77
448.25	379.17
448.43	458.74
448.62	477.47
448.80	526.62
448.99	421.30
449.17	498.53
449.36	475.13
449.54	489.17
449.73	454.06
449.91	468.11
450.10	465.77
450.28	524.28
450.46	552.37
450.65	528.96
450.83	510.24
451.02	482.15
451.20	528.96
451.39	566.41
451.57	482.15
451.76	589.82
451.94	482.15
452.13	505.56
452.31	531.30
452.49	437.68
452.68	425.98
452.86	475.13
453.05	442.36
453.23	547.69
453.42	500.87
453.60	533.64
453.78	496.19
453.97	531.30
454.15	507.90
454.34	463.43
454.52	521.94
454.70	444.70
454.89	463.43
455.07	521.94
455.26	503.22
455.44	554.71
455.62	496.19
455.81	538.32
455.99	454.06
456.17	524.28
456.36	514.92
456.54	571.09
456.73	573.43
456.91	545.34
457.09	566.41
457.28	540.66
457.46	578.11
457.64	620.24
457.83	505.56
458.01	454.06
458.19	521.94
458.38	519.60
458.56	470.45
458.74	456.40
458.93	498.53
459.11	547.69
459.29	512.58
459.48	533.64
459.66	552.37
459.84	535.98
460.03	554.71
460.21	557.05
460.39	517.26
460.57	517.26
460.76	552.37
460.94	540.66
461.12	589.82
461.31	568.75
461.49	538.32
461.67	535.98
461.85	535.98
462.04	545.34
462.22	617.90
462.40	482.15
462.59	411.93
462.77	566.41
462.95	587.47
463.13	550.03
463.32	601.52
463.50	512.58
463.68	538.32
463.86	517.26
464.05	517.26
464.23	493.85
464.41	447.04
464.59	510.24
464.78	552.37
464.96	561.73
465.14	528.96
465.32	571.09
465.50	561.73
465.69	573.43
465.87	510.24
466.05	510.24
466.23	580.45
466.41	528.96
466.60	575.77
466.78	503.22
466.96	554.71
467.14	559.39
467.32	524.28
467.51	519.60
467.69	496.19
467.87	514.92
468.05	554.71
468.23	526.62
468.41	517.26
468.60	528.96
468.78	559.39
468.96	543.00
469.14	648.33
469.32	585.13
469.50	540.66
469.69	505.56
469.87	479.81
470.05	608.54
470.23	470.45
470.41	533.64
470.59	507.90
470.77	573.43
470.95	528.96
471.14	540.66
471.32	521.94
471.50	638.97
471.68	543.00
471.86	493.85
472.04	594.50
472.22	620.24
472.40	543.00
472.58	594.50
472.77	547.69
472.95	573.43
473.13	575.77
473.31	566.41
473.49	554.71
473.67	559.39
473.85	535.98
474.03	573.43
474.21	599.18
474.39	594.50
474.57	559.39
474.75	662.37
474.93	552.37
475.12	550.03
475.30	564.07
475.48	608.54
475.66	538.32
475.84	526.62
476.02	575.77
476.20	519.60
476.38	524.28
476.56	603.86
476.74	617.90
476.92	538.32
477.10	573.43
477.28	643.65
477.46	582.79
477.64	636.63
477.82	678.76
478.00	643.65
478.18	585.13
478.36	594.50
478.54	561.73
478.72	690.46
478.90	587.47
479.08	615.56
479.26	688.12
479.44	601.52
479.62	664.71
479.80	650.67
479.98	585.13
480.16	697.48
480.34	683.44
480.52	671.73
480.70	732.59
480.88	645.99
481.06	716.20
481.24	662.37
481.41	702.16
481.59	664.71
481.77	716.20
481.95	674.07
482.13	685.78
482.31	674.07
482.49	674.07
482.67	692.80
482.85	748.97
483.03	730.25
483.21	713.86
483.39	685.78
483.57	760.67
483.74	671.73
483.92	748.97
484.10	706.84
484.28	706.84
484.46	795.78
484.64	788.76
484.82	741.95
485.00	713.86
485.18	741.95
485.35	648.33
485.53	657.69
485.71	587.47
485.89	547.69
486.07	601.52
486.25	582.79
486.43	664.71
486.61	674.07
486.78	702.16
486.96	723.23
487.14	706.84
487.32	653.01
487.50	741.95
487.68	809.83
487.85	753.65
488.03	821.53
488.21	837.91
488.39	816.85
488.57	802.80
488.75	718.54
488.92	807.48
489.10	784.08
489.28	833.23
489.46	917.49
489.64	847.27
489.81	851.96
489.99	905.79
490.17	870.68
490.35	809.83
490.53	805.14
490.70	793.44
490.88	887.06
491.06	868.34
491.24	777.06
491.41	870.68
491.59	851.96
491.77	854.30
491.95	861.32
492.13	788.76
492.30	891.74
492.48	858.98
492.66	901.11
492.84	880.04
493.01	894.08
493.19	835.57
493.37	917.49
493.54	910.47
493.72	929.19
493.90	961.96
494.08	952.60
494.25	973.66
494.43	936.21
494.61	896.43
494.79	973.66
494.96	959.62
495.14	903.45
495.32	999.41
495.49	889.40
495.67	901.11
495.85	931.53
496.02	924.51
496.20	1025.15
496.38	964.30
496.55	966.64
496.73	910.47
496.91	929.19
497.09	1107.07
497.26	954.94
497.44	938.55
497.62	945.58
497.79	940.90
497.97	1004.09
498.14	990.05
498.32	1032.18
498.50	947.92
498.67	1004.09
498.85	994.73
499.03	961.96
499.20	1015.79
499.38	943.24
499.56	1032.18
499.73	917.49
499.91	1046.22
500.08	994.73
500.26	926.85
500.44	861.32
500.61	1006.43
500.79	1060.26
500.97	917.49
501.14	936.21
501.32	1025.15
501.49	983.02
501.67	950.26
501.84	971.32
502.02	945.58
502.20	983.02
502.37	961.96
502.55	976.00
502.72	987.71
502.90	1039.20
503.07	1036.86
503.25	931.53
503.43	968.98
503.60	877.70
503.78	868.34
503.95	887.06
504.13	1008.77
504.30	992.39
504.48	978.34
504.65	1046.22
504.83	983.02
505.01	1048.56
505.18	1029.84
505.36	1139.84
505.53	1029.84
505.71	1025.15
505.88	1053.24
506.06	1100.05
506.23	990.05
506.41	1062.60
506.58	943.24
506.76	1001.75
506.93	1001.75
507.11	1053.24
507.28	1057.92
507.46	1034.52
507.63	983.02
507.81	1032.18
507.98	1050.90
508.16	966.64
508.33	994.73
508.50	1097.71
508.68	992.39
508.85	1095.37
509.03	1088.35
509.20	1093.03
509.38	1008.77
509.55	1048.56
509.73	1011.11
509.90	1088.35
510.08	1062.60
510.25	1029.84
510.42	1004.09
510.60	952.60
510.77	1083.67
510.95	1039.20
511.12	1130.48
511.30	983.02
511.47	1144.52
511.64	1100.05
511.82	1100.05
511.99	1081.33
512.17	990.05
512.34	1083.67
512.51	1015.79
512.69	1011.11
512.86	1006.43
513.04	1062.60
513.21	1036.86
513.38	1078.99
513.56	1097.71
513.73	959.62
513.90	1069.62
514.08	1013.45
514.25	1001.75
514.43	1116.44
514.60	957.28
514.77	1057.92
514.95	1100.05
515.12	931.53
515.29	1025.15
515.47	1158.57
515.64	1018.13
515.81	1004.09
515.99	1093.03
516.16	1039.20
516.33	961.96
516.51	868.34
516.68	908.13
516.85	807.48
517.03	903.45
517.20	882.38
517.37	917.49
517.54	1088.35
517.72	1100.05
517.89	943.24
518.06	957.28
518.24	854.30
518.41	889.40
518.58	931.53
518.75	1039.20
518.93	882.38
519.10	976.00
519.27	1057.92
519.45	919.83
519.62	1067.28
519.79	1142.18
519.96	1032.18
520.14	1123.46
520.31	983.02
520.48	931.53
520.65	1069.62
520.83	1074.31
521.00	1011.11
521.17	1060.26
521.34	997.07
521.52	971.32
521.69	1020.47
521.86	1064.94
522.03	1191.33
522.20	945.58
522.38	1036.86
522.55	1041.54
522.72	1090.69
522.89	1074.31
523.07	1008.77
523.24	1144.52
523.41	1093.03
523.58	1020.47
523.75	1015.79
523.92	1111.75
524.10	1050.90
524.27	1036.86
524.44	1048.56
524.61	1130.48
524.78	1102.39
524.96	1125.80
525.13	1076.65
525.30	1107.07
525.47	1088.35
525.64	1165.59
525.81	1107.07
525.98	1050.90
526.16	999.41
526.33	957.28
526.50	917.49
526.67	947.92
526.84	891.74
527.01	952.60
527.18	1048.56
527.36	1018.13
527.53	1039.20
527.70	1153.88
527.87	1018.13
528.04	1081.33
528.21	1137.50
528.38	1102.39
528.55	1039.20
528.72	1034.52
528.89	1184.31
529.07	1109.41
529.24	1074.31
529.41	1104.73
529.58	908.13
529.75	987.71
529.92	1020.47
530.09	1142.18
530.26	1139.84
530.43	1088.35
530.60	1137.50
530.77	1078.99
530.94	1188.99
531.11	1071.97
531.28	1071.97
531.46	1104.73
531.63	1086.01
531.80	997.07
531.97	1025.15
532.14	1050.90
532.31	1069.62
532.48	976.00
532.65	966.64
532.82	1100.05
532.99	1043.88
533.16	1081.33
533.33	1027.50
533.50	1015.79
533.67	1029.84
533.84	992.39
534.01	1097.71
534.18	1034.52
534.35	1114.10
534.52	1102.39
534.69	1039.20
534.86	1076.65
535.03	1067.28
535.20	1102.39
535.37	1111.75
535.54	1174.95
535.71	1064.94
535.88	1032.18
536.05	1064.94
536.22	992.39
536.38	983.02
536.55	1022.81
536.72	1071.97
536.89	1015.79
537.06	1041.54
537.23	1053.24
537.40	1060.26
537.57	1074.31
537.74	1090.69
537.91	1027.50
538.08	1088.35
538.25	1130.48
538.42	1008.77
538.59	1048.56
538.75	1071.97
538.92	1050.90
539.09	1027.50
539.26	1011.11
539.43	933.87
539.60	1055.58
539.77	1020.47
539.94	1053.24
540.11	959.62
540.28	1128.14
540.44	1015.79
540.61	983.02
540.78	1034.52
540.95	1048.56
541.12	919.83
541.29	1057.92
541.46	1100.05
541.62	992.39
541.79	1100.05
541.96	1020.47
542.13	1032.18
542.30	1020.47
542.47	1039.20
542.63	999.41
542.80	1055.58
542.97	1029.84
543.14	959.62
543.31	997.07
543.48	1015.79
543.64	1025.15
543.81	1090.69
543.98	1050.90
544.15	1020.47
544.32	1013.45
544.48	1020.47
544.65	919.83
544.82	1137.50
544.99	1078.99
545.16	1088.35
545.32	1083.67
545.49	968.98
545.66	1020.47
545.83	1025.15
546.00	1050.90
546.16	985.37
546.33	1015.79
546.50	1104.73
546.67	997.07
546.83	1060.26
547.00	936.21
547.17	1006.43
547.34	1008.77
547.50	1055.58
547.67	924.51
547.84	950.26
548.00	997.07
548.17	1020.47
548.34	1004.09
548.51	1090.69
548.67	1036.86
548.84	980.68
549.01	1027.50
549.18	1011.11
549.34	1123.46
549.51	985.37
549.68	1083.67
549.84	1069.62
550.01	1011.11
550.18	1032.18
550.34	992.39
550.51	976.00
550.68	992.39
550.84	929.19
551.01	1013.45
551.18	983.02
551.34	931.53
551.51	1069.62
551.68	915.15
551.84	952.60
552.01	1046.22
552.18	1088.35
552.34	983.02
552.51	966.64
552.68	1036.86
552.84	994.73
553.01	1055.58
553.18	1008.77
553.34	1060.26
553.51	973.66
553.67	1088.35
553.84	1050.90
554.01	1015.79
554.17	943.24
554.34	999.41
554.51	1053.24
554.67	1025.15
554.84	1053.24
555.00	1013.45
555.17	896.43
555.33	1006.43
555.50	915.15
555.67	997.07
555.83	997.07
556.00	1015.79
556.16	1034.52
556.33	1071.97
556.50	929.19
556.66	961.96
556.83	1006.43
556.99	1022.81
557.16	929.19
557.32	954.94
557.49	1050.90
557.65	1006.43
557.82	945.58
557.98	954.94
558.15	980.68
558.32	947.92
558.48	938.55
558.65	898.77
558.81	945.58
558.98	924.51
559.14	917.49
559.31	915.15
559.47	957.28
559.64	1057.92
559.80	957.28
559.97	933.87
560.13	882.38
560.30	866.00
560.46	1090.69
560.63	905.79
560.79	936.21
560.96	1053.24
561.12	976.00
561.29	863.66
561.45	933.87
561.61	919.83
561.78	1057.92
561.94	950.26
562.11	926.85
562.27	931.53
562.44	887.06
562.60	1025.15
562.77	957.28
562.93	985.37
563.10	957.28
563.26	952.60
563.42	1064.94
563.59	849.61
563.75	945.58
563.92	933.87
564.08	889.40
564.24	994.73
564.41	933.87
564.57	987.71
564.74	903.45
564.90	1046.22
565.07	947.92
565.23	889.40
565.39	1032.18
565.56	851.96
565.72	767.70
565.88	873.02
566.05	959.62
566.21	983.02
566.38	973.66
566.54	971.32
566.70	931.53
566.87	924.51
567.03	896.43
567.19	910.47
567.36	947.92
567.52	929.19
567.68	868.34
567.85	866.00
568.01	816.85
568.17	800.46
568.34	873.02
568.50	891.74
568.66	856.64
568.83	868.34
568.99	805.14
569.15	837.91
569.32	823.87
569.48	828.55
569.64	793.44
569.81	866.00
569.97	851.96
570.13	802.80
570.30	800.46
570.46	903.45
570.62	755.99
570.78	835.57
570.95	863.66
571.11	835.57
571.27	910.47
571.43	840.25
571.60	940.90
571.76	884.72
571.92	851.96
572.09	870.68
572.25	884.72
572.41	858.98
572.57	844.93
572.74	835.57
572.90	891.74
573.06	898.77
573.22	809.83
573.38	915.15
573.55	863.66
573.71	891.74
573.87	901.11
574.03	842.59
574.20	952.60
574.36	952.60
574.52	828.55
574.68	777.06
574.84	795.78
575.01	856.64
575.17	866.00
575.33	816.85
575.49	791.10
575.65	875.36
575.82	812.17
575.98	901.11
576.14	842.59
576.30	812.17
576.46	805.14
576.62	816.85
576.79	835.57
576.95	877.70
577.11	807.48
577.27	809.83
577.43	856.64
577.59	795.78
577.75	842.59
577.92	823.87
578.08	781.74
578.24	807.48
578.40	805.14
578.56	875.36
578.72	814.51
578.88	896.43
579.04	873.02
579.21	837.91
579.37	849.61
579.53	835.57
579.69	844.93
579.85	819.19
580.01	877.70
580.17	741.95
580.33	847.27
580.49	807.48
580.65	833.23
580.82	777.06
580.98	912.81
581.14	863.66
581.30	795.78
581.46	823.87
581.62	884.72
581.78	896.43
581.94	889.40
582.10	833.23
582.26	798.12
582.42	884.72
582.58	849.61
582.74	823.87
582.90	905.79
583.06	887.06
583.22	891.74
583.38	840.25
583.54	863.66
583.70	875.36
583.86	812.17
584.02	847.27
584.18	884.72
584.34	896.43
584.50	800.46
584.66	842.59
584.82	767.70
584.98	730.25
585.14	816.85
585.30	877.70
585.46	772.38
585.62	812.17
585.78	763.01
585.94	805.14
586.10	833.23
586.26	770.04
586.42	784.08
586.58	826.21
586.74	830.89
586.90	777.06
587.06	795.78
587.22	704.50
587.38	753.65
587.54	765.36
587.70	784.08
587.86	716.20
588.02	713.86
588.18	643.65
588.34	713.86
588.49	594.50
588.65	594.50
588.81	545.34
588.97	622.58
589.13	683.44
589.29	568.75
589.45	627.26
589.61	631.94
589.77	585.13
589.93	580.45
590.08	772.38
590.24	681.10
590.40	643.65
590.56	704.50
590.72	704.50
590.88	631.94
591.04	697.48
591.20	702.16
591.35	699.82
591.51	702.16
591.67	671.73
591.83	688.12
591.99	650.67
592.15	723.23
592.31	641.31
592.46	695.14
592.62	734.93
592.78	671.73
592.94	732.59
593.10	667.05
593.26	807.48
593.41	774.72
593.57	755.99
593.73	720.88
593.89	653.01
594.05	636.63
594.20	585.13
594.36	589.82
594.52	641.31
594.68	648.33
594.84	641.31
594.99	697.48
595.15	624.92
595.31	720.88
595.47	744.29
595.62	662.37
595.78	641.31
595.94	713.86
596.10	744.29
596.25	692.80
596.41	744.29
596.57	634.29
596.73	704.50
596.88	753.65
597.04	688.12
597.20	699.82
597.36	676.41
597.51	723.23
597.67	697.48
597.83	753.65
597.99	746.63
598.14	784.08
598.30	716.20
598.46	664.71
598.61	657.69
598.77	685.78
598.93	688.12
599.09	676.41
599.24	751.31
599.40	716.20
599.56	723.23
599.71	702.16
599.87	737.27
600.03	741.95
600.18	802.80
600.34	690.46
600.50	774.72
600.65	650.67
600.81	784.08
600.97	706.84
601.12	723.23
601.28	716.20
601.44	716.20
601.59	713.86
601.75	716.20
601.91	758.33
602.06	716.20
602.22	690.46
602.37	695.14
602.53	767.70
602.69	760.67
602.84	657.69
603.00	718.54
603.16	716.20
603.31	711.52
603.47	664.71
603.62	770.04
603.78	695.14
603.94	683.44
604.09	695.14
604.25	755.99
604.40	685.78
604.56	674.07
604.71	854.30
604.87	781.74
605.03	713.86
605.18	774.72
605.34	784.08
605.49	711.52
605.65	660.03
605.80	720.88
605.96	760.67
606.12	716.20
606.27	718.54
606.43	669.39
606.58	720.88
606.74	748.97
606.89	770.04
607.05	760.67
607.20	702.16
607.36	739.61
607.51	755.99
607.67	741.95
607.82	627.26
607.98	697.48
608.13	711.52
608.29	643.65
608.44	676.41
608.60	725.57
