SpectraSuite Data File
++++++++++++++++++++++++++++++++++++
Date: Fri Oct 04 11:33:53 GMT-05:00 2013
User: price-jones
Dark Spectrum Present: No
Reference Spectrum Present: No
Number of Sampled Component Spectra: 1
Spectrometers: USB2+H05261
Integration Time (usec): 100000 (USB2+H05261)
Spectra Averaged: 1 (USB2+H05261)
Boxcar Smoothing: 0 (USB2+H05261)
Correct for Electrical Dark: No (USB2+H05261)
Strobe/Lamp Enabled: No (USB2+H05261)
Correct for Detector Non-linearity: No (USB2+H05261)
Correct for Stray Light: No (USB2+H05261)
Number of Pixels in Processed Spectrum: 2048
>>>>>Begin Processed Spectral Data<<<<<
365.73	81.92
365.92	81.92
366.12	81.92
366.32	0.00
366.52	0.00
366.72	35.11
366.91	0.00
367.11	0.00
367.31	0.00
367.51	0.00
367.70	0.00
367.90	0.00
368.10	0.00
368.30	0.00
368.49	0.00
368.69	0.00
368.89	0.00
369.09	14.04
369.28	35.11
369.48	0.00
369.68	0.00
369.87	53.83
370.07	0.00
370.27	86.60
370.47	7.02
370.66	74.90
370.86	60.85
371.06	131.07
371.25	84.26
371.45	23.41
371.65	173.20
371.84	100.64
372.04	119.37
372.24	107.66
372.44	37.45
372.63	102.98
372.83	114.69
373.03	81.92
373.22	81.92
373.42	110.01
373.62	138.09
373.81	124.05
374.01	175.54
374.21	107.66
374.40	161.50
374.60	140.43
374.79	161.50
374.99	145.11
375.19	163.84
375.38	140.43
375.58	147.45
375.78	175.54
375.97	145.11
376.17	184.90
376.37	79.58
376.56	142.77
376.76	163.84
376.95	147.45
377.15	173.20
377.35	184.90
377.54	177.88
377.74	177.88
377.93	117.03
378.13	175.54
378.33	177.88
378.52	67.88
378.72	168.52
378.91	210.65
379.11	152.13
379.31	117.03
379.50	84.26
379.70	156.82
379.89	154.48
380.09	161.50
380.28	163.84
380.48	177.88
380.68	79.58
380.87	74.90
381.07	198.95
381.26	234.05
381.46	163.84
381.65	168.52
381.85	107.66
382.04	170.86
382.24	161.50
382.43	173.20
382.63	100.64
382.83	131.07
383.02	142.77
383.22	203.63
383.41	67.88
383.61	124.05
383.80	166.18
384.00	170.86
384.19	98.30
384.39	147.45
384.58	133.41
384.78	152.13
384.97	140.43
385.17	110.01
385.36	131.07
385.56	184.90
385.75	88.94
385.95	95.96
386.14	182.56
386.34	119.37
386.53	161.50
386.72	210.65
386.92	182.56
387.11	145.11
387.31	135.75
387.50	140.43
387.70	138.09
387.89	128.73
388.09	149.79
388.28	133.41
388.48	145.11
388.67	98.30
388.86	114.69
389.06	84.26
389.25	201.29
389.45	131.07
389.64	196.60
389.84	243.42
390.03	187.24
390.22	156.82
390.42	100.64
390.61	51.49
390.81	98.30
391.00	65.54
391.19	163.84
391.39	133.41
391.58	140.43
391.78	131.07
391.97	49.15
392.16	142.77
392.36	140.43
392.55	159.16
392.75	154.48
392.94	231.71
393.13	168.52
393.33	107.66
393.52	95.96
393.71	133.41
393.91	152.13
394.10	170.86
394.29	194.26
394.49	119.37
394.68	163.84
394.88	198.95
395.07	145.11
395.26	131.07
395.46	126.39
395.65	145.11
395.84	159.16
396.04	201.29
396.23	121.71
396.42	133.41
396.62	124.05
396.81	95.96
397.00	95.96
397.19	117.03
397.39	166.18
397.58	154.48
397.77	177.88
397.97	154.48
398.16	152.13
398.35	159.16
398.55	135.75
398.74	145.11
398.93	140.43
399.12	147.45
399.32	117.03
399.51	128.73
399.70	180.22
399.90	81.92
400.09	196.60
400.28	166.18
400.47	163.84
400.67	145.11
400.86	201.29
401.05	236.39
401.24	168.52
401.44	201.29
401.63	72.56
401.82	175.54
402.01	142.77
402.21	159.16
402.40	142.77
402.59	229.37
402.78	114.69
402.97	201.29
403.17	191.92
403.36	81.92
403.55	184.90
403.74	184.90
403.93	163.84
404.13	278.52
404.32	280.86
404.51	208.31
404.70	234.05
404.89	189.58
405.09	245.76
405.28	170.86
405.47	208.31
405.66	184.90
405.85	135.75
406.05	84.26
406.24	170.86
406.43	131.07
406.62	187.24
406.81	287.89
407.00	138.09
407.20	114.69
407.39	77.24
407.58	138.09
407.77	222.35
407.96	203.63
408.15	196.60
408.34	208.31
408.54	121.71
408.73	156.82
408.92	180.22
409.11	175.54
409.30	149.79
409.49	126.39
409.68	140.43
409.87	173.20
410.07	114.69
410.26	208.31
410.45	161.50
410.64	189.58
410.83	119.37
411.02	250.44
411.21	273.84
411.40	234.05
411.59	156.82
411.78	184.90
411.98	180.22
412.17	173.20
412.36	201.29
412.55	156.82
412.74	180.22
412.93	126.39
413.12	166.18
413.31	152.13
413.50	114.69
413.69	173.20
413.88	198.95
414.07	149.79
414.26	182.56
414.45	182.56
414.64	198.95
414.83	138.09
415.02	142.77
415.22	224.69
415.41	159.16
415.60	156.82
415.79	112.35
415.98	241.08
416.17	138.09
416.36	205.97
416.55	161.50
416.74	145.11
416.93	243.42
417.12	184.90
417.31	175.54
417.50	93.62
417.69	280.86
417.88	212.99
418.07	241.08
418.26	161.50
418.45	250.44
418.64	299.59
418.83	278.52
419.02	201.29
419.21	166.18
419.39	189.58
419.58	128.73
419.77	187.24
419.96	201.29
420.15	161.50
420.34	159.16
420.53	117.03
420.72	168.52
420.91	205.97
421.10	163.84
421.29	198.95
421.48	173.20
421.67	196.60
421.86	135.75
422.05	124.05
422.24	208.31
422.43	189.58
422.61	95.96
422.80	170.86
422.99	184.90
423.18	149.79
423.37	98.30
423.56	138.09
423.75	182.56
423.94	126.39
424.13	182.56
424.32	161.50
424.50	156.82
424.69	191.92
424.88	224.69
425.07	191.92
425.26	243.42
425.45	283.20
425.64	224.69
425.83	248.10
426.01	238.73
426.20	163.84
426.39	147.45
426.58	220.01
426.77	243.42
426.96	241.08
427.15	154.48
427.33	175.54
427.52	215.33
427.71	168.52
427.90	208.31
428.09	142.77
428.28	154.48
428.46	234.05
428.65	191.92
428.84	220.01
429.03	189.58
429.22	112.35
429.40	180.22
429.59	182.56
429.78	210.65
429.97	133.41
430.16	187.24
430.34	198.95
430.53	149.79
430.72	163.84
430.91	262.14
431.10	203.63
431.28	124.05
431.47	201.29
431.66	231.71
431.85	149.79
432.03	182.56
432.22	217.67
432.41	198.95
432.60	231.71
432.79	222.35
432.97	276.18
433.16	299.59
433.35	271.50
433.54	212.99
433.72	210.65
433.91	163.84
434.10	173.20
434.28	241.08
434.47	255.12
434.66	231.71
434.85	184.90
435.03	196.60
435.22	285.55
435.41	428.32
435.59	353.42
435.78	278.52
435.97	243.42
436.16	248.10
436.34	175.54
436.53	152.13
436.72	187.24
436.90	234.05
437.09	175.54
437.28	152.13
437.46	194.26
437.65	184.90
437.84	140.43
438.02	184.90
438.21	231.71
438.40	191.92
438.58	98.30
438.77	173.20
438.96	255.12
439.14	142.77
439.33	196.60
439.52	189.58
439.70	182.56
439.89	154.48
440.08	152.13
440.26	203.63
440.45	184.90
440.63	205.97
440.82	173.20
441.01	205.97
441.19	196.60
441.38	191.92
441.57	180.22
441.75	191.92
441.94	180.22
442.12	173.20
442.31	187.24
442.50	194.26
442.68	138.09
442.87	119.37
443.05	217.67
443.24	222.35
443.43	231.71
443.61	222.35
443.80	236.39
443.98	217.67
444.17	140.43
444.35	194.26
444.54	156.82
444.73	180.22
444.91	220.01
445.10	152.13
445.28	135.75
445.47	266.82
445.65	156.82
445.84	168.52
446.02	166.18
446.21	177.88
446.39	124.05
446.58	234.05
446.77	131.07
446.95	189.58
447.14	259.80
447.32	215.33
447.51	170.86
447.69	154.48
447.88	124.05
448.06	273.84
448.25	198.95
448.43	149.79
448.62	191.92
448.80	180.22
448.99	163.84
449.17	154.48
449.36	140.43
449.54	208.31
449.73	161.50
449.91	112.35
450.10	266.82
450.28	210.65
450.46	259.80
450.65	191.92
450.83	208.31
451.02	290.23
451.20	168.52
451.39	182.56
451.57	170.86
451.76	189.58
451.94	194.26
452.13	234.05
452.31	191.92
452.49	156.82
452.68	170.86
452.86	152.13
453.05	191.92
453.23	224.69
453.42	147.45
453.60	220.01
453.78	175.54
453.97	175.54
454.15	215.33
454.34	159.16
454.52	128.73
454.70	175.54
454.89	203.63
455.07	205.97
455.26	245.76
455.44	173.20
455.62	177.88
455.81	224.69
455.99	241.08
456.17	215.33
456.36	121.71
456.54	156.82
456.73	184.90
456.91	124.05
457.09	149.79
457.28	220.01
457.46	227.03
457.64	238.73
457.83	145.11
458.01	210.65
458.19	278.52
458.38	238.73
458.56	231.71
458.74	203.63
458.93	255.12
459.11	198.95
459.29	163.84
459.48	212.99
459.66	252.78
459.84	252.78
460.03	308.95
460.21	124.05
460.39	138.09
460.57	187.24
460.76	196.60
460.94	170.86
461.12	241.08
461.31	177.88
461.49	180.22
461.67	215.33
461.85	234.05
462.04	241.08
462.22	648.33
462.40	259.80
462.59	184.90
462.77	191.92
462.95	175.54
463.13	222.35
463.32	217.67
463.50	175.54
463.68	215.33
463.86	203.63
464.05	187.24
464.23	236.39
464.41	243.42
464.59	142.77
464.78	234.05
464.96	191.92
465.14	201.29
465.32	114.69
465.50	201.29
465.69	166.18
465.87	156.82
466.05	205.97
466.23	142.77
466.41	187.24
466.60	142.77
466.78	145.11
466.96	187.24
467.14	189.58
467.32	217.67
467.51	220.01
467.69	175.54
467.87	227.03
468.05	222.35
468.23	215.33
468.41	220.01
468.60	250.44
468.78	205.97
468.96	191.92
469.14	217.67
469.32	133.41
469.50	152.13
469.69	205.97
469.87	191.92
470.05	215.33
470.23	196.60
470.41	205.97
470.59	215.33
470.77	201.29
470.95	238.73
471.14	215.33
471.32	182.56
471.50	243.42
471.68	198.95
471.86	189.58
472.04	229.37
472.22	191.92
472.40	140.43
472.58	184.90
472.77	227.03
472.95	147.45
473.13	159.16
473.31	238.73
473.49	149.79
473.67	173.20
473.85	173.20
474.03	257.46
474.21	98.30
474.39	252.78
474.57	278.52
474.75	215.33
474.93	170.86
475.12	173.20
475.30	227.03
475.48	168.52
475.66	243.42
475.84	189.58
476.02	224.69
476.20	182.56
476.38	149.79
476.56	355.76
476.74	187.24
476.92	217.67
477.10	201.29
477.28	196.60
477.46	194.26
477.64	271.50
477.82	220.01
478.00	264.48
478.18	248.10
478.36	271.50
478.54	224.69
478.72	189.58
478.90	212.99
479.08	266.82
479.26	238.73
479.44	126.39
479.62	175.54
479.80	201.29
479.98	205.97
480.16	147.45
480.34	184.90
480.52	196.60
480.70	273.84
480.88	227.03
481.06	238.73
481.24	191.92
481.41	210.65
481.59	187.24
481.77	229.37
481.95	184.90
482.13	210.65
482.31	203.63
482.49	156.82
482.67	175.54
482.85	276.18
483.03	196.60
483.21	252.78
483.39	154.48
483.57	252.78
483.74	252.78
483.92	201.29
484.10	238.73
484.28	234.05
484.46	257.46
484.64	287.89
484.82	196.60
485.00	273.84
485.18	161.50
485.35	220.01
485.53	196.60
485.71	280.86
485.89	278.52
486.07	285.55
486.25	332.36
486.43	311.29
486.61	248.10
486.78	252.78
486.96	196.60
487.14	168.52
487.32	287.89
487.50	191.92
487.68	294.91
487.85	227.03
488.03	187.24
488.21	222.35
488.39	241.08
488.57	283.20
488.75	245.76
488.92	475.13
489.10	280.86
489.28	292.57
489.46	227.03
489.64	220.01
489.81	264.48
489.99	301.93
490.17	243.42
490.35	287.89
490.53	189.58
490.70	248.10
490.88	222.35
491.06	224.69
491.24	266.82
491.41	175.54
491.59	297.25
491.77	175.54
491.95	259.80
492.13	255.12
492.30	266.82
492.48	271.50
492.66	318.31
492.84	276.18
493.01	231.71
493.19	264.48
493.37	297.25
493.54	262.14
493.72	311.29
493.90	280.86
494.08	304.27
494.25	297.25
494.43	252.78
494.61	217.67
494.79	252.78
494.96	182.56
495.14	205.97
495.32	220.01
495.49	290.23
495.67	301.93
495.85	266.82
496.02	245.76
496.20	208.31
496.38	159.16
496.55	234.05
496.73	327.68
496.91	236.39
497.09	278.52
497.26	299.59
497.44	257.46
497.62	203.63
497.79	210.65
497.97	124.05
498.14	229.37
498.32	262.14
498.50	238.73
498.67	252.78
498.85	243.42
499.03	217.67
499.20	337.04
499.38	255.12
499.56	234.05
499.73	346.40
499.91	245.76
500.08	283.20
500.26	255.12
500.44	255.12
500.61	196.60
500.79	205.97
500.97	271.50
501.14	299.59
501.32	215.33
501.49	215.33
501.67	210.65
501.84	250.44
502.02	217.67
502.20	229.37
502.37	245.76
502.55	191.92
502.72	297.25
502.90	285.55
503.07	241.08
503.25	215.33
503.43	285.55
503.60	271.50
503.78	257.46
503.95	273.84
504.13	236.39
504.30	227.03
504.48	334.70
504.65	248.10
504.83	283.20
505.01	257.46
505.18	285.55
505.36	238.73
505.53	259.80
505.71	283.20
505.88	290.23
506.06	229.37
506.23	255.12
506.41	147.45
506.58	224.69
506.76	182.56
506.93	301.93
507.11	299.59
507.28	315.97
507.46	196.60
507.63	255.12
507.81	255.12
507.98	337.04
508.16	280.86
508.33	280.86
508.50	322.99
508.68	278.52
508.85	205.97
509.03	245.76
509.20	264.48
509.38	308.95
509.55	215.33
509.73	327.68
509.90	365.12
510.08	231.71
510.25	229.37
510.42	297.25
510.60	245.76
510.77	276.18
510.95	229.37
511.12	306.61
511.30	334.70
511.47	294.91
511.64	337.04
511.82	248.10
511.99	311.29
512.17	201.29
512.34	285.55
512.51	189.58
512.69	252.78
512.86	365.12
513.04	222.35
513.21	325.33
513.38	266.82
513.56	243.42
513.73	234.05
513.90	224.69
514.08	290.23
514.25	297.25
514.43	285.55
514.60	252.78
514.77	306.61
514.95	294.91
515.12	308.95
515.29	292.57
515.47	301.93
515.64	285.55
515.81	325.33
515.99	250.44
516.16	287.89
516.33	196.60
516.51	203.63
516.68	241.08
516.85	334.70
517.03	231.71
517.20	241.08
517.37	306.61
517.54	269.16
517.72	252.78
517.89	229.37
518.06	184.90
518.24	322.99
518.41	320.65
518.58	339.38
518.75	210.65
518.93	299.59
519.10	327.68
519.27	210.65
519.45	269.16
519.62	334.70
519.79	252.78
519.96	280.86
520.14	285.55
520.31	290.23
520.48	250.44
520.65	306.61
520.83	346.40
521.00	264.48
521.17	320.65
521.34	262.14
521.52	243.42
521.69	325.33
521.86	339.38
522.03	334.70
522.20	299.59
522.38	177.88
522.55	238.73
522.72	294.91
522.89	269.16
523.07	266.82
523.24	250.44
523.41	276.18
523.58	266.82
523.75	278.52
523.92	311.29
524.10	308.95
524.27	215.33
524.44	285.55
524.61	301.93
524.78	236.39
524.96	372.15
525.13	259.80
525.30	264.48
525.47	280.86
525.64	241.08
525.81	222.35
525.98	271.50
526.16	234.05
526.33	201.29
526.50	278.52
526.67	231.71
526.84	241.08
527.01	217.67
527.18	229.37
527.36	294.91
527.53	266.82
527.70	372.15
527.87	224.69
528.04	299.59
528.21	234.05
528.38	308.95
528.55	351.08
528.72	304.27
528.89	308.95
529.07	252.78
529.24	271.50
529.41	287.89
529.58	341.72
529.75	234.05
529.92	231.71
530.09	266.82
530.26	313.63
530.43	351.08
530.60	269.16
530.77	346.40
530.94	266.82
531.11	344.06
531.28	301.93
531.46	285.55
531.63	297.25
531.80	301.93
531.97	287.89
532.14	222.35
532.31	280.86
532.48	334.70
532.65	433.00
532.82	388.53
532.99	444.70
533.16	320.65
533.33	339.38
533.50	299.59
533.67	313.63
533.84	458.74
534.01	437.68
534.18	365.12
534.35	393.21
534.52	257.46
534.69	285.55
534.86	241.08
535.03	304.27
535.20	248.10
535.37	339.38
535.54	332.36
535.71	330.02
535.88	365.12
536.05	299.59
536.22	360.44
536.38	255.12
536.55	313.63
536.72	285.55
536.89	217.67
537.06	248.10
537.23	266.82
537.40	344.06
537.57	271.50
537.74	355.76
537.91	355.76
538.08	304.27
538.25	273.84
538.42	273.84
538.59	297.25
538.75	255.12
538.92	353.42
539.09	421.30
539.26	266.82
539.43	470.45
539.60	868.34
539.77	1502.62
539.94	1657.10
540.11	1086.01
540.28	851.96
540.44	622.58
540.61	425.98
540.78	437.68
540.95	465.77
541.12	528.96
541.29	397.89
541.46	552.37
541.62	456.40
541.79	491.51
541.96	505.56
542.13	388.53
542.30	486.83
542.47	440.02
542.63	468.11
542.80	528.96
542.97	489.17
543.14	491.51
543.31	524.28
543.48	425.98
543.64	461.09
543.81	470.45
543.98	367.46
544.15	383.85
544.32	503.22
544.48	524.28
544.65	491.51
544.82	477.47
544.99	404.91
545.16	475.13
545.32	503.22
545.49	744.29
545.66	861.32
545.83	814.51
546.00	800.46
546.16	648.33
546.33	486.83
546.50	416.62
546.67	465.77
546.83	458.74
547.00	447.04
547.17	404.91
547.34	423.64
547.50	454.06
547.67	308.95
547.84	388.53
548.00	365.12
548.17	327.68
548.34	372.15
548.51	395.55
548.67	341.72
548.84	414.27
549.01	386.19
549.18	397.89
549.34	376.83
549.51	388.53
549.68	388.53
549.84	308.95
550.01	290.23
550.18	383.85
550.34	383.85
550.51	381.51
550.68	304.27
550.84	346.40
551.01	339.38
551.18	280.86
551.34	325.33
551.51	287.89
551.68	271.50
551.84	269.16
552.01	283.20
552.18	376.83
552.34	334.70
552.51	346.40
552.68	395.55
552.84	339.38
553.01	301.93
553.18	318.31
553.34	306.61
553.51	285.55
553.67	334.70
553.84	332.36
554.01	313.63
554.17	290.23
554.34	257.46
554.51	238.73
554.67	414.27
554.84	292.57
555.00	264.48
555.17	290.23
555.33	313.63
555.50	259.80
555.67	358.10
555.83	276.18
556.00	257.46
556.16	421.30
556.33	339.38
556.50	257.46
556.66	245.76
556.83	315.97
556.99	313.63
557.16	271.50
557.32	294.91
557.49	203.63
557.65	227.03
557.82	250.44
557.98	262.14
558.15	341.72
558.32	304.27
558.48	276.18
558.65	297.25
558.81	294.91
558.98	339.38
559.14	290.23
559.31	362.78
559.47	250.44
559.64	304.27
559.80	299.59
559.97	276.18
560.13	184.90
560.30	238.73
560.46	285.55
560.63	297.25
560.79	259.80
560.96	259.80
561.12	187.24
561.29	313.63
561.45	229.37
561.61	285.55
561.78	374.49
561.94	299.59
562.11	299.59
562.27	245.76
562.44	234.05
562.60	287.89
562.77	215.33
562.93	243.42
563.10	315.97
563.26	271.50
563.42	231.71
563.59	243.42
563.75	308.95
563.92	301.93
564.08	285.55
564.24	297.25
564.41	339.38
564.57	290.23
564.74	294.91
564.90	339.38
565.07	257.46
565.23	308.95
565.39	299.59
565.56	308.95
565.72	285.55
565.88	257.46
566.05	290.23
566.21	313.63
566.38	341.72
566.54	227.03
566.70	266.82
566.87	283.20
567.03	320.65
567.19	276.18
567.36	236.39
567.52	297.25
567.68	308.95
567.85	299.59
568.01	320.65
568.17	271.50
568.34	264.48
568.50	313.63
568.66	273.84
568.83	301.93
568.99	301.93
569.15	273.84
569.32	250.44
569.48	222.35
569.64	259.80
569.81	222.35
569.97	285.55
570.13	304.27
570.30	318.31
570.46	299.59
570.62	264.48
570.78	201.29
570.95	184.90
571.11	266.82
571.27	285.55
571.43	290.23
571.60	262.14
571.76	234.05
571.92	205.97
572.09	308.95
572.25	222.35
572.41	264.48
572.57	351.08
572.74	346.40
572.90	337.04
573.06	304.27
573.22	322.99
573.38	285.55
573.55	313.63
573.71	287.89
573.87	320.65
574.03	299.59
574.20	271.50
574.36	325.33
574.52	414.27
574.68	402.57
574.84	351.08
575.01	311.29
575.17	299.59
575.33	259.80
575.49	276.18
575.65	397.89
575.82	346.40
575.98	514.92
576.14	592.16
576.30	791.10
576.46	744.29
576.62	486.83
576.79	493.85
576.95	390.87
577.11	238.73
577.27	395.55
577.43	411.93
577.59	360.44
577.75	273.84
577.92	290.23
578.08	252.78
578.24	290.23
578.40	348.74
578.56	418.96
578.72	447.04
578.88	461.09
579.04	341.72
579.21	407.25
579.37	358.10
579.53	327.68
579.69	468.11
579.85	315.97
580.01	465.77
580.17	423.64
580.33	433.00
580.49	402.57
580.65	423.64
580.82	425.98
580.98	369.80
581.14	395.55
581.30	454.06
581.46	489.17
581.62	589.82
581.78	631.94
581.94	706.84
582.10	608.54
582.26	517.26
582.42	463.43
582.58	461.09
582.74	557.05
582.90	496.19
583.06	533.64
583.22	482.15
583.38	524.28
583.54	610.88
583.70	622.58
583.86	671.73
584.02	795.78
584.18	917.49
584.34	1062.60
584.50	2417.77
584.66	16184.80
584.82	47971.62
584.98	64062.80
585.14	63973.86
585.30	49064.65
585.46	27957.70
585.62	17448.69
585.78	8145.06
585.94	3368.03
586.10	1629.01
586.26	1048.56
586.42	917.49
586.58	760.67
586.74	667.05
586.90	739.61
587.06	711.52
587.22	709.18
587.38	667.05
587.54	1022.81
587.70	2775.88
587.86	5151.52
588.02	6935.01
588.18	4739.58
588.34	2768.85
588.49	1823.28
588.65	1226.44
588.81	718.54
588.97	477.47
589.13	442.36
589.29	344.06
589.45	367.46
589.61	376.83
589.77	428.32
589.93	463.43
590.08	510.24
590.24	437.68
590.40	444.70
590.56	484.49
590.72	482.15
590.88	351.08
591.04	433.00
591.20	442.36
591.35	449.38
591.51	379.17
591.67	372.15
591.83	395.55
591.99	344.06
592.15	416.62
592.31	435.34
592.46	362.78
592.62	383.85
592.78	430.66
592.94	306.61
593.10	404.91
593.26	414.27
593.41	477.47
593.57	514.92
593.73	601.52
593.89	2052.65
594.05	5661.76
594.20	10326.44
594.36	10651.78
594.52	7007.56
594.68	4067.85
594.84	2754.81
594.99	1575.18
595.15	760.67
595.31	533.64
595.47	472.79
595.62	388.53
595.78	318.31
595.94	346.40
596.10	442.36
596.25	444.70
596.41	449.38
596.57	353.42
596.73	383.85
596.88	411.93
597.04	1130.48
597.20	2054.99
597.36	2796.94
597.51	2078.40
597.67	1509.65
597.83	964.30
597.99	690.46
598.14	550.03
598.30	379.17
598.46	393.21
598.61	407.25
598.77	353.42
598.93	222.35
599.09	362.78
599.24	362.78
599.40	365.12
599.56	297.25
599.71	299.59
599.87	294.91
600.03	355.76
600.18	346.40
600.34	351.08
600.50	266.82
600.65	362.78
600.81	341.72
600.97	283.20
601.12	311.29
601.28	278.52
601.44	273.84
601.59	248.10
601.75	311.29
601.91	313.63
602.06	280.86
602.22	418.96
602.37	638.97
602.53	1469.86
602.69	2525.44
602.84	2911.63
603.00	2052.65
603.16	1535.39
603.31	1050.90
603.47	741.95
603.62	383.85
603.78	315.97
603.94	386.19
604.09	365.12
604.25	322.99
604.40	318.31
604.56	355.76
604.71	273.84
604.87	383.85
605.03	273.84
605.18	367.46
605.34	315.97
605.49	386.19
605.65	325.33
605.80	271.50
605.96	334.70
606.12	430.66
606.27	388.53
606.43	362.78
606.58	465.77
606.74	774.72
606.89	2483.31
607.05	6054.97
607.20	9373.85
607.36	7791.64
607.51	5198.33
607.67	3293.13
607.82	2253.94
607.98	1282.61
608.13	704.50
608.29	538.32
608.44	519.60
608.60	500.87
608.75	564.07
608.91	891.74
609.06	3765.92
609.22	9612.58
609.37	15908.62
609.53	14572.18
609.68	9624.28
609.84	5954.32
609.99	4042.11
610.15	2279.68
