SpectraSuite Data File
++++++++++++++++++++++++++++++++++++
Date: Fri Oct 04 11:33:49 GMT-05:00 2013
User: price-jones
Dark Spectrum Present: No
Reference Spectrum Present: No
Number of Sampled Component Spectra: 1
Spectrometers: USB2+H05261
Integration Time (usec): 100000 (USB2+H05261)
Spectra Averaged: 1 (USB2+H05261)
Boxcar Smoothing: 0 (USB2+H05261)
Correct for Electrical Dark: No (USB2+H05261)
Strobe/Lamp Enabled: No (USB2+H05261)
Correct for Detector Non-linearity: No (USB2+H05261)
Correct for Stray Light: No (USB2+H05261)
Number of Pixels in Processed Spectrum: 2048
>>>>>Begin Processed Spectral Data<<<<<
365.73	112.35
365.92	112.35
366.12	112.35
366.32	0.00
366.52	60.85
366.72	2.34
366.91	0.00
367.11	0.00
367.31	0.00
367.51	4.68
367.70	0.00
367.90	23.41
368.10	0.00
368.30	0.00
368.49	0.00
368.69	0.00
368.89	0.00
369.09	0.00
369.28	0.00
369.48	0.00
369.68	7.02
369.87	4.68
370.07	39.79
370.27	117.03
370.47	11.70
370.66	49.15
370.86	110.01
371.06	138.09
371.25	91.28
371.45	117.03
371.65	88.94
371.84	81.92
372.04	46.81
372.24	91.28
372.44	65.54
372.63	95.96
372.83	215.33
373.03	119.37
373.22	140.43
373.42	110.01
373.62	117.03
373.81	110.01
374.01	177.88
374.21	229.37
374.40	117.03
374.60	154.48
374.79	114.69
374.99	215.33
375.19	170.86
375.38	135.75
375.58	117.03
375.78	79.58
375.97	119.37
376.17	210.65
376.37	147.45
376.56	154.48
376.76	117.03
376.95	154.48
377.15	154.48
377.35	201.29
377.54	65.54
377.74	128.73
377.93	133.41
378.13	196.60
378.33	173.20
378.52	131.07
378.72	187.24
378.91	175.54
379.11	156.82
379.31	147.45
379.50	84.26
379.70	124.05
379.89	154.48
380.09	112.35
380.28	70.22
380.48	77.24
380.68	53.83
380.87	72.56
381.07	220.01
381.26	175.54
381.46	154.48
381.65	133.41
381.85	124.05
382.04	159.16
382.24	142.77
382.43	42.13
382.63	72.56
382.83	161.50
383.02	205.97
383.22	147.45
383.41	72.56
383.61	147.45
383.80	112.35
384.00	107.66
384.19	86.60
384.39	166.18
384.58	95.96
384.78	149.79
384.97	102.98
385.17	121.71
385.36	114.69
385.56	177.88
385.75	98.30
385.95	159.16
386.14	124.05
386.34	100.64
386.53	184.90
386.72	191.92
386.92	173.20
387.11	112.35
387.31	189.58
387.50	161.50
387.70	138.09
387.89	163.84
388.09	117.03
388.28	110.01
388.48	112.35
388.67	189.58
388.86	182.56
389.06	117.03
389.25	135.75
389.45	196.60
389.64	182.56
389.84	177.88
390.03	77.24
390.22	128.73
390.42	84.26
390.61	152.13
390.81	140.43
391.00	217.67
391.19	107.66
391.39	121.71
391.58	168.52
391.78	159.16
391.97	184.90
392.16	170.86
392.36	117.03
392.55	170.86
392.75	145.11
392.94	161.50
393.13	81.92
393.33	124.05
393.52	154.48
393.71	140.43
393.91	133.41
394.10	110.01
394.29	168.52
394.49	184.90
394.68	126.39
394.88	196.60
395.07	170.86
395.26	149.79
395.46	126.39
395.65	124.05
395.84	203.63
396.04	245.76
396.23	159.16
396.42	187.24
396.62	128.73
396.81	191.92
397.00	37.45
397.19	205.97
397.39	231.71
397.58	156.82
397.77	121.71
397.97	154.48
398.16	49.15
398.35	154.48
398.55	105.32
398.74	138.09
398.93	156.82
399.12	95.96
399.32	105.32
399.51	203.63
399.70	138.09
399.90	100.64
400.09	121.71
400.28	210.65
400.47	205.97
400.67	191.92
400.86	84.26
401.05	168.52
401.24	208.31
401.44	147.45
401.63	81.92
401.82	168.52
402.01	156.82
402.21	140.43
402.40	163.84
402.59	145.11
402.78	140.43
402.97	234.05
403.17	163.84
403.36	217.67
403.55	128.73
403.74	177.88
403.93	266.82
404.13	243.42
404.32	194.26
404.51	210.65
404.70	208.31
404.89	187.24
405.09	212.99
405.28	182.56
405.47	180.22
405.66	147.45
405.85	248.10
406.05	131.07
406.24	135.75
406.43	205.97
406.62	147.45
406.81	205.97
407.00	175.54
407.20	16.38
407.39	182.56
407.58	168.52
407.77	170.86
407.96	128.73
408.15	154.48
408.34	142.77
408.54	149.79
408.73	182.56
408.92	156.82
409.11	245.76
409.30	184.90
409.49	135.75
409.68	189.58
409.87	161.50
410.07	131.07
410.26	154.48
410.45	180.22
410.64	173.20
410.83	105.32
411.02	177.88
411.21	98.30
411.40	229.37
411.59	156.82
411.78	196.60
411.98	212.99
412.17	222.35
412.36	182.56
412.55	163.84
412.74	205.97
412.93	173.20
413.12	152.13
413.31	112.35
413.50	198.95
413.69	163.84
413.88	168.52
414.07	173.20
414.26	163.84
414.45	119.37
414.64	173.20
414.83	156.82
415.02	220.01
415.22	154.48
415.41	201.29
415.60	173.20
415.79	222.35
415.98	222.35
416.17	198.95
416.36	119.37
416.55	161.50
416.74	149.79
416.93	166.18
417.12	189.58
417.31	203.63
417.50	187.24
417.69	346.40
417.88	262.14
418.07	187.24
418.26	161.50
418.45	241.08
418.64	290.23
418.83	212.99
419.02	198.95
419.21	287.89
419.39	208.31
419.58	229.37
419.77	205.97
419.96	224.69
420.15	236.39
420.34	147.45
420.53	201.29
420.72	175.54
420.91	133.41
421.10	98.30
421.29	159.16
421.48	138.09
421.67	191.92
421.86	145.11
422.05	163.84
422.24	154.48
422.43	210.65
422.61	72.56
422.80	100.64
422.99	154.48
423.18	210.65
423.37	201.29
423.56	203.63
423.75	184.90
423.94	166.18
424.13	177.88
424.32	180.22
424.50	105.32
424.69	173.20
424.88	156.82
425.07	138.09
425.26	217.67
425.45	259.80
425.64	241.08
425.83	238.73
426.01	332.36
426.20	187.24
426.39	161.50
426.58	131.07
426.77	98.30
426.96	205.97
427.15	236.39
427.33	138.09
427.52	133.41
427.71	180.22
427.90	189.58
428.09	220.01
428.28	145.11
428.46	154.48
428.65	140.43
428.84	142.77
429.03	180.22
429.22	161.50
429.40	110.01
429.59	147.45
429.78	154.48
429.97	112.35
430.16	110.01
430.34	168.52
430.53	191.92
430.72	177.88
430.91	220.01
431.10	145.11
431.28	152.13
431.47	170.86
431.66	121.71
431.85	126.39
432.03	252.78
432.22	243.42
432.41	182.56
432.60	184.90
432.79	304.27
432.97	325.33
433.16	264.48
433.35	290.23
433.54	203.63
433.72	220.01
433.91	252.78
434.10	229.37
434.28	252.78
434.47	201.29
434.66	117.03
434.85	196.60
435.03	238.73
435.22	339.38
435.41	442.36
435.59	351.08
435.78	374.49
435.97	191.92
436.16	238.73
436.34	180.22
436.53	234.05
436.72	184.90
436.90	229.37
437.09	177.88
437.28	180.22
437.46	128.73
437.65	161.50
437.84	100.64
438.02	142.77
438.21	217.67
438.40	170.86
438.58	74.90
438.77	140.43
438.96	159.16
439.14	187.24
439.33	198.95
439.52	156.82
439.70	166.18
439.89	194.26
440.08	152.13
440.26	121.71
440.45	203.63
440.63	198.95
440.82	175.54
441.01	149.79
441.19	84.26
441.38	121.71
441.57	166.18
441.75	196.60
441.94	229.37
442.12	168.52
442.31	187.24
442.50	201.29
442.68	119.37
442.87	147.45
443.05	149.79
443.24	182.56
443.43	203.63
443.61	224.69
443.80	175.54
443.98	128.73
444.17	124.05
444.35	201.29
444.54	189.58
444.73	128.73
444.91	234.05
445.10	131.07
445.28	177.88
445.47	220.01
445.65	217.67
445.84	248.10
446.02	182.56
446.21	238.73
446.39	152.13
446.58	255.12
446.77	198.95
446.95	79.58
447.14	222.35
447.32	238.73
447.51	147.45
447.69	208.31
447.88	187.24
448.06	180.22
448.25	203.63
448.43	196.60
448.62	234.05
448.80	126.39
448.99	184.90
449.17	215.33
449.36	168.52
449.54	140.43
449.73	126.39
449.91	154.48
450.10	229.37
450.28	210.65
450.46	236.39
450.65	194.26
450.83	196.60
451.02	182.56
451.20	234.05
451.39	170.86
451.57	201.29
451.76	131.07
451.94	149.79
452.13	175.54
452.31	161.50
452.49	201.29
452.68	215.33
452.86	210.65
453.05	196.60
453.23	201.29
453.42	95.96
453.60	224.69
453.78	86.60
453.97	131.07
454.15	135.75
454.34	163.84
454.52	131.07
454.70	227.03
454.89	159.16
455.07	177.88
455.26	201.29
455.44	163.84
455.62	149.79
455.81	102.98
455.99	191.92
456.17	191.92
456.36	191.92
456.54	161.50
456.73	135.75
456.91	133.41
457.09	149.79
457.28	147.45
457.46	191.92
457.64	243.42
457.83	205.97
458.01	140.43
458.19	187.24
458.38	168.52
458.56	177.88
458.74	187.24
458.93	170.86
459.11	159.16
459.29	189.58
459.48	163.84
459.66	161.50
459.84	194.26
460.03	248.10
460.21	224.69
460.39	203.63
460.57	159.16
460.76	161.50
460.94	168.52
461.12	208.31
461.31	217.67
461.49	222.35
461.67	177.88
461.85	205.97
462.04	180.22
462.22	575.77
462.40	135.75
462.59	208.31
462.77	177.88
462.95	168.52
463.13	166.18
463.32	255.12
463.50	180.22
463.68	243.42
463.86	198.95
464.05	208.31
464.23	180.22
464.41	180.22
464.59	189.58
464.78	201.29
464.96	168.52
465.14	184.90
465.32	191.92
465.50	191.92
465.69	234.05
465.87	168.52
466.05	124.05
466.23	131.07
466.41	107.66
466.60	170.86
466.78	271.50
466.96	224.69
467.14	163.84
467.32	198.95
467.51	182.56
467.69	238.73
467.87	250.44
468.05	227.03
468.23	210.65
468.41	243.42
468.60	222.35
468.78	201.29
468.96	201.29
469.14	210.65
469.32	145.11
469.50	168.52
469.69	217.67
469.87	196.60
470.05	191.92
470.23	241.08
470.41	191.92
470.59	257.46
470.77	212.99
470.95	229.37
471.14	271.50
471.32	243.42
471.50	152.13
471.68	212.99
471.86	273.84
472.04	117.03
472.22	196.60
472.40	131.07
472.58	201.29
472.77	182.56
472.95	229.37
473.13	215.33
473.31	238.73
473.49	114.69
473.67	194.26
473.85	259.80
474.03	182.56
474.21	198.95
474.39	170.86
474.57	255.12
474.75	287.89
474.93	156.82
475.12	180.22
475.30	203.63
475.48	201.29
475.66	217.67
475.84	222.35
476.02	180.22
476.20	236.39
476.38	187.24
476.56	269.16
476.74	210.65
476.92	212.99
477.10	194.26
477.28	159.16
477.46	215.33
477.64	175.54
477.82	208.31
478.00	196.60
478.18	238.73
478.36	243.42
478.54	250.44
478.72	276.18
478.90	124.05
479.08	182.56
479.26	187.24
479.44	220.01
479.62	231.71
479.80	175.54
479.98	250.44
480.16	229.37
480.34	175.54
480.52	187.24
480.70	245.76
480.88	154.48
481.06	175.54
481.24	177.88
481.41	241.08
481.59	243.42
481.77	184.90
481.95	234.05
482.13	250.44
482.31	248.10
482.49	266.82
482.67	198.95
482.85	234.05
483.03	175.54
483.21	177.88
483.39	191.92
483.57	191.92
483.74	245.76
483.92	194.26
484.10	231.71
484.28	236.39
484.46	285.55
484.64	198.95
484.82	220.01
485.00	250.44
485.18	257.46
485.35	252.78
485.53	273.84
485.71	250.44
485.89	191.92
486.07	252.78
486.25	379.17
486.43	231.71
486.61	292.57
486.78	236.39
486.96	205.97
487.14	220.01
487.32	248.10
487.50	163.84
487.68	215.33
487.85	276.18
488.03	294.91
488.21	229.37
488.39	266.82
488.57	208.31
488.75	201.29
488.92	543.00
489.10	362.78
489.28	290.23
489.46	215.33
489.64	290.23
489.81	283.20
489.99	173.20
490.17	285.55
490.35	330.02
490.53	224.69
490.70	304.27
490.88	236.39
491.06	262.14
491.24	285.55
491.41	273.84
491.59	280.86
491.77	248.10
491.95	245.76
492.13	208.31
492.30	133.41
492.48	196.60
492.66	182.56
492.84	280.86
493.01	238.73
493.19	198.95
493.37	325.33
493.54	280.86
493.72	301.93
493.90	208.31
494.08	170.86
494.25	248.10
494.43	287.89
494.61	304.27
494.79	210.65
494.96	215.33
495.14	252.78
495.32	234.05
495.49	292.57
495.67	278.52
495.85	227.03
496.02	271.50
496.20	306.61
496.38	238.73
496.55	271.50
496.73	248.10
496.91	234.05
497.09	266.82
497.26	285.55
497.44	266.82
497.62	241.08
497.79	264.48
497.97	196.60
498.14	257.46
498.32	217.67
498.50	266.82
498.67	273.84
498.85	189.58
499.03	238.73
499.20	259.80
499.38	201.29
499.56	294.91
499.73	374.49
499.91	255.12
500.08	236.39
500.26	203.63
500.44	255.12
500.61	280.86
500.79	280.86
500.97	269.16
501.14	285.55
501.32	250.44
501.49	269.16
501.67	243.42
501.84	285.55
502.02	201.29
502.20	269.16
502.37	180.22
502.55	351.08
502.72	215.33
502.90	243.42
503.07	231.71
503.25	203.63
503.43	273.84
503.60	236.39
503.78	308.95
503.95	262.14
504.13	177.88
504.30	315.97
504.48	344.06
504.65	245.76
504.83	259.80
505.01	264.48
505.18	252.78
505.36	269.16
505.53	238.73
505.71	248.10
505.88	294.91
506.06	278.52
506.23	285.55
506.41	224.69
506.58	259.80
506.76	229.37
506.93	250.44
507.11	325.33
507.28	234.05
507.46	229.37
507.63	348.74
507.81	259.80
507.98	280.86
508.16	252.78
508.33	290.23
508.50	290.23
508.68	198.95
508.85	231.71
509.03	224.69
509.20	201.29
509.38	255.12
509.55	229.37
509.73	236.39
509.90	339.38
510.08	212.99
510.25	283.20
510.42	248.10
510.60	273.84
510.77	285.55
510.95	236.39
511.12	245.76
511.30	362.78
511.47	360.44
511.64	360.44
511.82	259.80
511.99	325.33
512.17	285.55
512.34	255.12
512.51	243.42
512.69	227.03
512.86	308.95
513.04	292.57
513.21	290.23
513.38	318.31
513.56	208.31
513.73	220.01
513.90	248.10
514.08	245.76
514.25	313.63
514.43	313.63
514.60	292.57
514.77	292.57
514.95	250.44
515.12	283.20
515.29	229.37
515.47	238.73
515.64	201.29
515.81	278.52
515.99	278.52
516.16	217.67
516.33	294.91
516.51	259.80
516.68	241.08
516.85	191.92
517.03	234.05
517.20	262.14
517.37	259.80
517.54	273.84
517.72	245.76
517.89	245.76
518.06	224.69
518.24	271.50
518.41	234.05
518.58	304.27
518.75	255.12
518.93	294.91
519.10	255.12
519.27	266.82
519.45	248.10
519.62	234.05
519.79	353.42
519.96	327.68
520.14	271.50
520.31	285.55
520.48	290.23
520.65	290.23
520.83	271.50
521.00	283.20
521.17	252.78
521.34	304.27
521.52	306.61
521.69	332.36
521.86	250.44
522.03	236.39
522.20	311.29
522.38	287.89
522.55	322.99
522.72	187.24
522.89	330.02
523.07	201.29
523.24	269.16
523.41	280.86
523.58	229.37
523.75	248.10
523.92	191.92
524.10	177.88
524.27	280.86
524.44	285.55
524.61	318.31
524.78	205.97
524.96	222.35
525.13	266.82
525.30	330.02
525.47	344.06
525.64	248.10
525.81	257.46
525.98	220.01
526.16	266.82
526.33	198.95
526.50	315.97
526.67	248.10
526.84	276.18
527.01	212.99
527.18	304.27
527.36	299.59
527.53	234.05
527.70	332.36
527.87	299.59
528.04	283.20
528.21	285.55
528.38	325.33
528.55	320.65
528.72	294.91
528.89	339.38
529.07	198.95
529.24	273.84
529.41	308.95
529.58	262.14
529.75	306.61
529.92	264.48
530.09	285.55
530.26	297.25
530.43	269.16
530.60	304.27
530.77	257.46
530.94	273.84
531.11	304.27
531.28	252.78
531.46	255.12
531.63	229.37
531.80	243.42
531.97	306.61
532.14	278.52
532.31	266.82
532.48	301.93
532.65	358.10
532.82	407.25
532.99	393.21
533.16	433.00
533.33	407.25
533.50	367.46
533.67	358.10
533.84	472.79
534.01	594.50
534.18	472.79
534.35	400.23
534.52	376.83
534.69	362.78
534.86	308.95
535.03	308.95
535.20	269.16
535.37	315.97
535.54	304.27
535.71	315.97
535.88	341.72
536.05	276.18
536.22	348.74
536.38	248.10
536.55	252.78
536.72	358.10
536.89	278.52
537.06	318.31
537.23	215.33
537.40	280.86
537.57	217.67
537.74	308.95
537.91	344.06
538.08	322.99
538.25	297.25
538.42	311.29
538.59	355.76
538.75	290.23
538.92	320.65
539.09	318.31
539.26	376.83
539.43	526.62
539.60	1270.91
539.77	2015.20
539.94	2160.31
540.11	1483.90
540.28	940.90
540.44	730.25
540.61	533.64
540.78	482.15
540.95	505.56
541.12	566.41
541.29	547.69
541.46	573.43
541.62	498.53
541.79	475.13
541.96	491.51
542.13	491.51
542.30	423.64
542.47	507.90
542.63	526.62
542.80	421.30
542.97	468.11
543.14	442.36
543.31	517.26
543.48	444.70
543.64	423.64
543.81	369.80
543.98	503.22
544.15	531.30
544.32	444.70
544.48	484.49
544.65	496.19
544.82	440.02
544.99	416.62
545.16	512.58
545.32	486.83
545.49	634.29
545.66	952.60
545.83	767.70
546.00	788.76
546.16	622.58
546.33	449.38
546.50	442.36
546.67	358.10
546.83	409.59
547.00	388.53
547.17	383.85
547.34	409.59
547.50	351.08
547.67	348.74
547.84	346.40
548.00	458.74
548.17	365.12
548.34	330.02
548.51	367.46
548.67	337.04
548.84	372.15
549.01	348.74
549.18	344.06
549.34	327.68
549.51	393.21
549.68	322.99
549.84	285.55
550.01	330.02
550.18	341.72
550.34	388.53
550.51	330.02
550.68	358.10
550.84	341.72
551.01	297.25
551.18	346.40
551.34	285.55
551.51	365.12
551.68	285.55
551.84	294.91
552.01	304.27
552.18	334.70
552.34	292.57
552.51	372.15
552.68	280.86
552.84	262.14
553.01	322.99
553.18	294.91
553.34	299.59
553.51	229.37
553.67	334.70
553.84	262.14
554.01	327.68
554.17	250.44
554.34	287.89
554.51	271.50
554.67	283.20
554.84	301.93
555.00	290.23
555.17	313.63
555.33	304.27
555.50	292.57
555.67	297.25
555.83	252.78
556.00	365.12
556.16	414.27
556.33	262.14
556.50	283.20
556.66	273.84
556.83	231.71
556.99	308.95
557.16	304.27
557.32	259.80
557.49	248.10
557.65	304.27
557.82	238.73
557.98	271.50
558.15	264.48
558.32	280.86
558.48	231.71
558.65	248.10
558.81	236.39
558.98	292.57
559.14	271.50
559.31	283.20
559.47	304.27
559.64	208.31
559.80	257.46
559.97	273.84
560.13	215.33
560.30	215.33
560.46	234.05
560.63	276.18
560.79	271.50
560.96	255.12
561.12	266.82
561.29	287.89
561.45	238.73
561.61	236.39
561.78	369.80
561.94	276.18
562.11	280.86
562.27	290.23
562.44	229.37
562.60	262.14
562.77	287.89
562.93	327.68
563.10	271.50
563.26	297.25
563.42	252.78
563.59	229.37
563.75	271.50
563.92	318.31
564.08	234.05
564.24	322.99
564.41	365.12
564.57	252.78
564.74	273.84
564.90	236.39
565.07	273.84
565.23	297.25
565.39	351.08
565.56	308.95
565.72	311.29
565.88	259.80
566.05	304.27
566.21	222.35
566.38	248.10
566.54	341.72
566.70	248.10
566.87	290.23
567.03	257.46
567.19	215.33
567.36	292.57
567.52	353.42
567.68	227.03
567.85	299.59
568.01	196.60
568.17	252.78
568.34	250.44
568.50	236.39
568.66	252.78
568.83	362.78
568.99	259.80
569.15	283.20
569.32	262.14
569.48	241.08
569.64	327.68
569.81	255.12
569.97	252.78
570.13	287.89
570.30	238.73
570.46	264.48
570.62	222.35
570.78	208.31
570.95	297.25
571.11	320.65
571.27	376.83
571.43	264.48
571.60	280.86
571.76	278.52
571.92	278.52
572.09	287.89
572.25	276.18
572.41	262.14
572.57	320.65
572.74	332.36
572.90	269.16
573.06	273.84
573.22	269.16
573.38	278.52
573.55	273.84
573.71	273.84
573.87	290.23
574.03	257.46
574.20	308.95
574.36	353.42
574.52	332.36
574.68	463.43
574.84	372.15
575.01	283.20
575.17	330.02
575.33	304.27
575.49	276.18
575.65	372.15
575.82	379.17
575.98	603.86
576.14	875.36
576.30	952.60
576.46	856.64
576.62	617.90
576.79	613.22
576.95	507.90
577.11	472.79
577.27	304.27
577.43	339.38
577.59	337.04
577.75	365.12
577.92	367.46
578.08	325.33
578.24	332.36
578.40	353.42
578.56	388.53
578.72	428.32
578.88	456.40
579.04	372.15
579.21	320.65
579.37	454.06
579.53	428.32
579.69	390.87
579.85	454.06
580.01	414.27
580.17	449.38
580.33	505.56
580.49	472.79
580.65	463.43
580.82	421.30
580.98	463.43
581.14	440.02
581.30	395.55
581.46	545.34
581.62	734.93
581.78	833.23
581.94	716.20
582.10	697.48
582.26	622.58
582.42	545.34
582.58	564.07
582.74	566.41
582.90	557.05
583.06	545.34
583.22	578.11
583.38	669.39
583.54	615.56
583.70	678.76
583.86	896.43
584.02	950.26
584.18	1198.35
584.34	1554.12
584.50	3494.42
584.66	24772.23
584.82	60151.77
584.98	65535.00
585.14	65535.00
585.30	63391.07
585.46	40236.15
585.62	25160.76
585.78	11529.48
585.94	4507.87
586.10	2069.03
586.26	1390.28
586.42	1053.24
586.58	933.87
586.74	812.17
586.90	866.00
587.06	819.19
587.22	844.93
587.38	683.44
587.54	1350.49
587.70	3896.99
587.86	7360.98
588.02	8940.85
588.18	6253.91
588.34	3932.10
588.49	2565.23
588.65	1591.56
588.81	926.85
588.97	568.75
589.13	454.06
589.29	437.68
589.45	397.89
589.61	430.66
589.77	454.06
589.93	594.50
590.08	603.86
590.24	641.31
590.40	524.28
590.56	589.82
590.72	489.17
590.88	491.51
591.04	468.11
591.20	337.04
591.35	449.38
591.51	404.91
591.67	425.98
591.83	463.43
591.99	416.62
592.15	465.77
592.31	344.06
592.46	421.30
592.62	355.76
592.78	369.80
592.94	376.83
593.10	454.06
593.26	472.79
593.41	489.17
593.57	477.47
593.73	550.03
593.89	2995.89
594.05	8599.13
594.20	14525.36
594.36	15012.20
594.52	9586.83
594.68	5776.44
594.84	3815.07
594.99	2176.70
595.15	978.34
595.31	559.39
595.47	362.78
595.62	435.34
595.78	367.46
595.94	400.23
596.10	416.62
596.25	442.36
596.41	477.47
596.57	418.96
596.73	365.12
596.88	620.24
597.04	1619.65
597.20	2832.05
597.36	3719.11
597.51	2850.77
597.67	2003.50
597.83	1329.42
597.99	931.53
598.14	571.09
598.30	456.40
598.46	458.74
598.61	461.09
598.77	400.23
598.93	430.66
599.09	386.19
599.24	327.68
599.40	283.20
599.56	341.72
599.71	346.40
599.87	330.02
600.03	304.27
600.18	407.25
600.34	332.36
600.50	315.97
600.65	257.46
600.81	306.61
600.97	276.18
601.12	262.14
601.28	313.63
601.44	271.50
601.59	355.76
601.75	278.52
601.91	285.55
602.06	322.99
602.22	468.11
602.37	763.01
602.53	2052.65
602.69	3463.99
602.84	4088.92
603.00	2911.63
603.16	1839.66
603.31	1369.21
603.47	919.83
603.62	517.26
603.78	423.64
603.94	320.65
604.09	337.04
604.25	330.02
604.40	304.27
604.56	330.02
604.71	365.12
604.87	348.74
605.03	255.12
605.18	381.51
605.34	362.78
605.49	409.59
605.65	400.23
605.80	360.44
605.96	325.33
606.12	397.89
606.27	416.62
606.43	451.72
606.58	507.90
606.74	985.37
606.89	3794.01
607.05	8587.43
607.20	12924.44
607.36	10841.36
607.51	7178.42
607.67	4540.64
607.82	3110.57
607.98	1813.92
608.13	917.49
608.29	629.60
608.44	592.16
608.60	543.00
608.75	674.07
608.91	1299.00
609.06	5846.66
609.22	14497.28
609.37	22473.82
609.53	19960.09
609.68	13041.46
609.84	8301.88
609.99	5568.13
610.15	3052.06
