SpectraSuite Data File
++++++++++++++++++++++++++++++++++++
Date: Fri Oct 04 11:33:45 GMT-05:00 2013
User: price-jones
Dark Spectrum Present: No
Reference Spectrum Present: No
Number of Sampled Component Spectra: 1
Spectrometers: USB2+H05261
Integration Time (usec): 100000 (USB2+H05261)
Spectra Averaged: 1 (USB2+H05261)
Boxcar Smoothing: 0 (USB2+H05261)
Correct for Electrical Dark: No (USB2+H05261)
Strobe/Lamp Enabled: No (USB2+H05261)
Correct for Detector Non-linearity: No (USB2+H05261)
Correct for Stray Light: No (USB2+H05261)
Number of Pixels in Processed Spectrum: 2048
>>>>>Begin Processed Spectral Data<<<<<
365.73	81.92
365.92	81.92
366.12	81.92
366.32	16.38
366.52	0.00
366.72	84.26
366.91	0.00
367.11	0.00
367.31	0.00
367.51	0.00
367.70	0.00
367.90	0.00
368.10	0.00
368.30	0.00
368.49	0.00
368.69	4.68
368.89	0.00
369.09	0.00
369.28	4.68
369.48	81.92
369.68	42.13
369.87	2.34
370.07	21.06
370.27	126.39
370.47	44.47
370.66	0.00
370.86	114.69
371.06	88.94
371.25	107.66
371.45	42.13
371.65	170.86
371.84	133.41
372.04	107.66
372.24	154.48
372.44	56.17
372.63	133.41
372.83	166.18
373.03	156.82
373.22	152.13
373.42	49.15
373.62	98.30
373.81	102.98
374.01	126.39
374.21	156.82
374.40	184.90
374.60	170.86
374.79	126.39
374.99	142.77
375.19	131.07
375.38	201.29
375.58	114.69
375.78	128.73
375.97	220.01
376.17	117.03
376.37	177.88
376.56	205.97
376.76	152.13
376.95	170.86
377.15	196.60
377.35	159.16
377.54	224.69
377.74	124.05
377.93	161.50
378.13	203.63
378.33	166.18
378.52	170.86
378.72	142.77
378.91	177.88
379.11	166.18
379.31	173.20
379.50	163.84
379.70	112.35
379.89	210.65
380.09	147.45
380.28	152.13
380.48	128.73
380.68	124.05
380.87	121.71
381.07	142.77
381.26	121.71
381.46	217.67
381.65	243.42
381.85	177.88
382.04	105.32
382.24	138.09
382.43	166.18
382.63	149.79
382.83	131.07
383.02	163.84
383.22	163.84
383.41	117.03
383.61	119.37
383.80	145.11
384.00	88.94
384.19	114.69
384.39	147.45
384.58	191.92
384.78	163.84
384.97	114.69
385.17	194.26
385.36	177.88
385.56	168.52
385.75	182.56
385.95	142.77
386.14	138.09
386.34	177.88
386.53	140.43
386.72	84.26
386.92	180.22
387.11	138.09
387.31	102.98
387.50	198.95
387.70	161.50
387.89	161.50
388.09	154.48
388.28	131.07
388.48	166.18
388.67	126.39
388.86	201.29
389.06	95.96
389.25	156.82
389.45	175.54
389.64	142.77
389.84	142.77
390.03	215.33
390.22	98.30
390.42	152.13
390.61	152.13
390.81	149.79
391.00	163.84
391.19	173.20
391.39	110.01
391.58	135.75
391.78	159.16
391.97	175.54
392.16	98.30
392.36	184.90
392.55	175.54
392.75	91.28
392.94	110.01
393.13	175.54
393.33	135.75
393.52	159.16
393.71	105.32
393.91	142.77
394.10	152.13
394.29	166.18
394.49	163.84
394.68	175.54
394.88	177.88
395.07	149.79
395.26	175.54
395.46	163.84
395.65	32.77
395.84	175.54
396.04	187.24
396.23	133.41
396.42	70.22
396.62	138.09
396.81	133.41
397.00	131.07
397.19	142.77
397.39	189.58
397.58	133.41
397.77	142.77
397.97	170.86
398.16	121.71
398.35	215.33
398.55	133.41
398.74	175.54
398.93	220.01
399.12	215.33
399.32	145.11
399.51	112.35
399.70	142.77
399.90	124.05
400.09	215.33
400.28	145.11
400.47	152.13
400.67	182.56
400.86	166.18
401.05	135.75
401.24	154.48
401.44	149.79
401.63	154.48
401.82	98.30
402.01	187.24
402.21	142.77
402.40	231.71
402.59	135.75
402.78	173.20
402.97	121.71
403.17	175.54
403.36	182.56
403.55	140.43
403.74	177.88
403.93	224.69
404.13	222.35
404.32	187.24
404.51	182.56
404.70	182.56
404.89	117.03
405.09	135.75
405.28	133.41
405.47	189.58
405.66	217.67
405.85	173.20
406.05	126.39
406.24	77.24
406.43	135.75
406.62	110.01
406.81	180.22
407.00	243.42
407.20	168.52
407.39	145.11
407.58	168.52
407.77	220.01
407.96	187.24
408.15	133.41
408.34	182.56
408.54	196.60
408.73	173.20
408.92	147.45
409.11	147.45
409.30	133.41
409.49	140.43
409.68	126.39
409.87	124.05
410.07	117.03
410.26	161.50
410.45	159.16
410.64	166.18
410.83	107.66
411.02	227.03
411.21	182.56
411.40	241.08
411.59	170.86
411.78	173.20
411.98	79.58
412.17	112.35
412.36	255.12
412.55	145.11
412.74	121.71
412.93	191.92
413.12	212.99
413.31	217.67
413.50	208.31
413.69	133.41
413.88	114.69
414.07	189.58
414.26	187.24
414.45	180.22
414.64	128.73
414.83	170.86
415.02	163.84
415.22	135.75
415.41	259.80
415.60	128.73
415.79	224.69
415.98	170.86
416.17	161.50
416.36	194.26
416.55	126.39
416.74	210.65
416.93	276.18
417.12	187.24
417.31	201.29
417.50	184.90
417.69	227.03
417.88	203.63
418.07	187.24
418.26	210.65
418.45	208.31
418.64	248.10
418.83	297.25
419.02	152.13
419.21	215.33
419.39	229.37
419.58	182.56
419.77	112.35
419.96	224.69
420.15	248.10
420.34	156.82
420.53	86.60
420.72	203.63
420.91	166.18
421.10	140.43
421.29	140.43
421.48	166.18
421.67	140.43
421.86	63.19
422.05	177.88
422.24	203.63
422.43	184.90
422.61	166.18
422.80	231.71
422.99	114.69
423.18	203.63
423.37	231.71
423.56	173.20
423.75	201.29
423.94	156.82
424.13	227.03
424.32	168.52
424.50	133.41
424.69	182.56
424.88	212.99
425.07	205.97
425.26	227.03
425.45	217.67
425.64	184.90
425.83	229.37
426.01	198.95
426.20	191.92
426.39	145.11
426.58	126.39
426.77	154.48
426.96	229.37
427.15	205.97
427.33	152.13
427.52	205.97
427.71	245.76
427.90	117.03
428.09	210.65
428.28	140.43
428.46	187.24
428.65	187.24
428.84	184.90
429.03	234.05
429.22	140.43
429.40	133.41
429.59	147.45
429.78	168.52
429.97	184.90
430.16	84.26
430.34	194.26
430.53	182.56
430.72	187.24
430.91	182.56
431.10	131.07
431.28	189.58
431.47	168.52
431.66	180.22
431.85	245.76
432.03	170.86
432.22	194.26
432.41	147.45
432.60	271.50
432.79	191.92
432.97	311.29
433.16	271.50
433.35	315.97
433.54	203.63
433.72	163.84
433.91	191.92
434.10	231.71
434.28	187.24
434.47	170.86
434.66	243.42
434.85	215.33
435.03	180.22
435.22	318.31
435.41	386.19
435.59	362.78
435.78	346.40
435.97	236.39
436.16	271.50
436.34	205.97
436.53	152.13
436.72	182.56
436.90	124.05
437.09	152.13
437.28	110.01
437.46	163.84
437.65	280.86
437.84	133.41
438.02	149.79
438.21	203.63
438.40	224.69
438.58	121.71
438.77	229.37
438.96	95.96
439.14	184.90
439.33	177.88
439.52	196.60
439.70	163.84
439.89	208.31
440.08	135.75
440.26	168.52
440.45	184.90
440.63	170.86
440.82	163.84
441.01	222.35
441.19	187.24
441.38	187.24
441.57	248.10
441.75	210.65
441.94	208.31
442.12	86.60
442.31	173.20
442.50	203.63
442.68	124.05
442.87	266.82
443.05	173.20
443.24	154.48
443.43	220.01
443.61	224.69
443.80	147.45
443.98	131.07
444.17	194.26
444.35	180.22
444.54	147.45
444.73	156.82
444.91	191.92
445.10	156.82
445.28	198.95
445.47	163.84
445.65	156.82
445.84	184.90
446.02	156.82
446.21	205.97
446.39	234.05
446.58	205.97
446.77	168.52
446.95	173.20
447.14	203.63
447.32	257.46
447.51	241.08
447.69	205.97
447.88	182.56
448.06	198.95
448.25	135.75
448.43	135.75
448.62	177.88
448.80	177.88
448.99	224.69
449.17	138.09
449.36	175.54
449.54	229.37
449.73	138.09
449.91	210.65
450.10	177.88
450.28	280.86
450.46	203.63
450.65	170.86
450.83	236.39
451.02	224.69
451.20	182.56
451.39	131.07
451.57	191.92
451.76	124.05
451.94	229.37
452.13	138.09
452.31	180.22
452.49	208.31
452.68	236.39
452.86	205.97
453.05	269.16
453.23	182.56
453.42	182.56
453.60	243.42
453.78	173.20
453.97	163.84
454.15	135.75
454.34	163.84
454.52	201.29
454.70	196.60
454.89	145.11
455.07	177.88
455.26	217.67
455.44	215.33
455.62	203.63
455.81	196.60
455.99	243.42
456.17	222.35
456.36	217.67
456.54	224.69
456.73	154.48
456.91	126.39
457.09	166.18
457.28	168.52
457.46	224.69
457.64	196.60
457.83	180.22
458.01	135.75
458.19	184.90
458.38	191.92
458.56	184.90
458.74	170.86
458.93	170.86
459.11	163.84
459.29	252.78
459.48	163.84
459.66	234.05
459.84	196.60
460.03	224.69
460.21	191.92
460.39	180.22
460.57	229.37
460.76	149.79
460.94	191.92
461.12	222.35
461.31	210.65
461.49	212.99
461.67	189.58
461.85	266.82
462.04	222.35
462.22	624.92
462.40	278.52
462.59	191.92
462.77	135.75
462.95	217.67
463.13	205.97
463.32	175.54
463.50	220.01
463.68	154.48
463.86	138.09
464.05	166.18
464.23	222.35
464.41	238.73
464.59	210.65
464.78	191.92
464.96	161.50
465.14	234.05
465.32	173.20
465.50	191.92
465.69	196.60
465.87	203.63
466.05	173.20
466.23	208.31
466.41	184.90
466.60	227.03
466.78	182.56
466.96	205.97
467.14	166.18
467.32	222.35
467.51	203.63
467.69	198.95
467.87	294.91
468.05	191.92
468.23	252.78
468.41	236.39
468.60	212.99
468.78	166.18
468.96	212.99
469.14	175.54
469.32	93.62
469.50	107.66
469.69	248.10
469.87	138.09
470.05	217.67
470.23	145.11
470.41	196.60
470.59	180.22
470.77	243.42
470.95	175.54
471.14	184.90
471.32	203.63
471.50	234.05
471.68	117.03
471.86	180.22
472.04	238.73
472.22	191.92
472.40	238.73
472.58	217.67
472.77	163.84
472.95	180.22
473.13	217.67
473.31	212.99
473.49	297.25
473.67	163.84
473.85	201.29
474.03	184.90
474.21	182.56
474.39	283.20
474.57	276.18
474.75	224.69
474.93	175.54
475.12	187.24
475.30	163.84
475.48	229.37
475.66	212.99
475.84	175.54
476.02	238.73
476.20	224.69
476.38	262.14
476.56	259.80
476.74	229.37
476.92	166.18
477.10	276.18
477.28	182.56
477.46	234.05
477.64	194.26
477.82	229.37
478.00	177.88
478.18	170.86
478.36	220.01
478.54	210.65
478.72	189.58
478.90	154.48
479.08	203.63
479.26	205.97
479.44	215.33
479.62	147.45
479.80	215.33
479.98	210.65
480.16	175.54
480.34	201.29
480.52	212.99
480.70	217.67
480.88	322.99
481.06	259.80
481.24	145.11
481.41	220.01
481.59	231.71
481.77	250.44
481.95	205.97
482.13	273.84
482.31	215.33
482.49	203.63
482.67	224.69
482.85	217.67
483.03	201.29
483.21	266.82
483.39	250.44
483.57	252.78
483.74	257.46
483.92	241.08
484.10	241.08
484.28	231.71
484.46	262.14
484.64	241.08
484.82	231.71
485.00	215.33
485.18	234.05
485.35	276.18
485.53	210.65
485.71	264.48
485.89	264.48
486.07	248.10
486.25	306.61
486.43	196.60
486.61	212.99
486.78	315.97
486.96	220.01
487.14	297.25
487.32	201.29
487.50	252.78
487.68	269.16
487.85	196.60
488.03	231.71
488.21	266.82
488.39	229.37
488.57	231.71
488.75	264.48
488.92	437.68
489.10	280.86
489.28	299.59
489.46	287.89
489.64	311.29
489.81	327.68
489.99	217.67
490.17	285.55
490.35	299.59
490.53	243.42
490.70	294.91
490.88	348.74
491.06	287.89
491.24	250.44
491.41	339.38
491.59	241.08
491.77	133.41
491.95	201.29
492.13	252.78
492.30	224.69
492.48	292.57
492.66	234.05
492.84	292.57
493.01	271.50
493.19	273.84
493.37	376.83
493.54	238.73
493.72	283.20
493.90	280.86
494.08	212.99
494.25	271.50
494.43	238.73
494.61	283.20
494.79	266.82
494.96	203.63
495.14	318.31
495.32	269.16
495.49	208.31
495.67	266.82
495.85	269.16
496.02	271.50
496.20	262.14
496.38	262.14
496.55	255.12
496.73	264.48
496.91	280.86
497.09	301.93
497.26	243.42
497.44	285.55
497.62	215.33
497.79	191.92
497.97	315.97
498.14	234.05
498.32	250.44
498.50	243.42
498.67	278.52
498.85	318.31
499.03	252.78
499.20	271.50
499.38	210.65
499.56	299.59
499.73	344.06
499.91	248.10
500.08	217.67
500.26	229.37
500.44	259.80
500.61	184.90
500.79	238.73
500.97	320.65
501.14	269.16
501.32	304.27
501.49	252.78
501.67	224.69
501.84	271.50
502.02	259.80
502.20	292.57
502.37	231.71
502.55	196.60
502.72	224.69
502.90	245.76
503.07	266.82
503.25	217.67
503.43	292.57
503.60	297.25
503.78	250.44
503.95	238.73
504.13	241.08
504.30	285.55
504.48	301.93
504.65	369.80
504.83	283.20
505.01	227.03
505.18	189.58
505.36	201.29
505.53	276.18
505.71	154.48
505.88	255.12
506.06	238.73
506.23	227.03
506.41	257.46
506.58	229.37
506.76	259.80
506.93	259.80
507.11	224.69
507.28	269.16
507.46	311.29
507.63	257.46
507.81	292.57
507.98	332.36
508.16	271.50
508.33	252.78
508.50	201.29
508.68	264.48
508.85	229.37
509.03	189.58
509.20	184.90
509.38	271.50
509.55	236.39
509.73	238.73
509.90	285.55
510.08	290.23
510.25	248.10
510.42	201.29
510.60	220.01
510.77	234.05
510.95	283.20
511.12	318.31
511.30	278.52
511.47	339.38
511.64	308.95
511.82	292.57
511.99	339.38
512.17	222.35
512.34	220.01
512.51	290.23
512.69	259.80
512.86	248.10
513.04	259.80
513.21	292.57
513.38	259.80
513.56	313.63
513.73	241.08
513.90	231.71
514.08	231.71
514.25	334.70
514.43	276.18
514.60	241.08
514.77	252.78
514.95	313.63
515.12	255.12
515.29	236.39
515.47	250.44
515.64	208.31
515.81	215.33
515.99	304.27
516.16	325.33
516.33	313.63
516.51	250.44
516.68	187.24
516.85	196.60
517.03	308.95
517.20	229.37
517.37	184.90
517.54	205.97
517.72	266.82
517.89	231.71
518.06	245.76
518.24	355.76
518.41	334.70
518.58	283.20
518.75	220.01
518.93	238.73
519.10	285.55
519.27	203.63
519.45	313.63
519.62	234.05
519.79	255.12
519.96	161.50
520.14	362.78
520.31	311.29
520.48	294.91
520.65	283.20
520.83	325.33
521.00	320.65
521.17	236.39
521.34	159.16
521.52	311.29
521.69	194.26
521.86	346.40
522.03	320.65
522.20	294.91
522.38	294.91
522.55	250.44
522.72	360.44
522.89	287.89
523.07	271.50
523.24	278.52
523.41	313.63
523.58	252.78
523.75	250.44
523.92	259.80
524.10	353.42
524.27	299.59
524.44	217.67
524.61	315.97
524.78	252.78
524.96	290.23
525.13	269.16
525.30	304.27
525.47	241.08
525.64	252.78
525.81	241.08
525.98	264.48
526.16	264.48
526.33	222.35
526.50	299.59
526.67	184.90
526.84	283.20
527.01	292.57
527.18	292.57
527.36	297.25
527.53	266.82
527.70	327.68
527.87	241.08
528.04	315.97
528.21	241.08
528.38	301.93
528.55	330.02
528.72	266.82
528.89	299.59
529.07	360.44
529.24	212.99
529.41	411.93
529.58	292.57
529.75	280.86
529.92	255.12
530.09	266.82
530.26	294.91
530.43	304.27
530.60	313.63
530.77	252.78
530.94	327.68
531.11	308.95
531.28	353.42
531.46	196.60
531.63	259.80
531.80	339.38
531.97	294.91
532.14	294.91
532.31	315.97
532.48	234.05
532.65	332.36
532.82	395.55
532.99	337.04
533.16	397.89
533.33	341.72
533.50	327.68
533.67	273.84
533.84	379.17
534.01	407.25
534.18	325.33
534.35	351.08
534.52	327.68
534.69	327.68
534.86	306.61
535.03	227.03
535.20	315.97
535.37	306.61
535.54	259.80
535.71	294.91
535.88	308.95
536.05	341.72
536.22	315.97
536.38	327.68
536.55	311.29
536.72	294.91
536.89	299.59
537.06	322.99
537.23	334.70
537.40	332.36
537.57	217.67
537.74	337.04
537.91	325.33
538.08	280.86
538.25	280.86
538.42	334.70
538.59	344.06
538.75	290.23
538.92	327.68
539.09	332.36
539.26	400.23
539.43	360.44
539.60	723.23
539.77	1102.39
539.94	1050.90
540.11	908.13
540.28	657.69
540.44	554.71
540.61	482.15
540.78	435.34
540.95	463.43
541.12	514.92
541.29	524.28
541.46	538.32
541.62	538.32
541.79	486.83
541.96	575.77
542.13	444.70
542.30	449.38
542.47	458.74
542.63	435.34
542.80	519.60
542.97	524.28
543.14	503.22
543.31	545.34
543.48	411.93
543.64	486.83
543.81	449.38
543.98	468.11
544.15	486.83
544.32	447.04
544.48	451.72
544.65	447.04
544.82	428.32
544.99	468.11
545.16	425.98
545.32	493.85
545.49	610.88
545.66	851.96
545.83	933.87
546.00	786.42
546.16	561.73
546.33	540.66
546.50	482.15
546.67	477.47
546.83	407.25
547.00	386.19
547.17	369.80
547.34	320.65
547.50	425.98
547.67	376.83
547.84	416.62
548.00	393.21
548.17	322.99
548.34	327.68
548.51	465.77
548.67	337.04
548.84	395.55
549.01	428.32
549.18	346.40
549.34	437.68
549.51	259.80
549.68	346.40
549.84	273.84
550.01	346.40
550.18	519.60
550.34	372.15
550.51	458.74
550.68	421.30
550.84	262.14
551.01	266.82
551.18	358.10
551.34	397.89
551.51	395.55
551.68	334.70
551.84	341.72
552.01	327.68
552.18	248.10
552.34	255.12
552.51	292.57
552.68	362.78
552.84	341.72
553.01	313.63
553.18	341.72
553.34	264.48
553.51	191.92
553.67	327.68
553.84	332.36
554.01	322.99
554.17	318.31
554.34	255.12
554.51	271.50
554.67	304.27
554.84	257.46
555.00	358.10
555.17	271.50
555.33	320.65
555.50	252.78
555.67	255.12
555.83	299.59
556.00	292.57
556.16	407.25
556.33	351.08
556.50	306.61
556.66	297.25
556.83	280.86
556.99	290.23
557.16	318.31
557.32	318.31
557.49	318.31
557.65	229.37
557.82	278.52
557.98	306.61
558.15	337.04
558.32	278.52
558.48	306.61
558.65	241.08
558.81	294.91
558.98	245.76
559.14	201.29
559.31	262.14
559.47	285.55
559.64	203.63
559.80	229.37
559.97	283.20
560.13	294.91
560.30	306.61
560.46	290.23
560.63	262.14
560.79	332.36
560.96	313.63
561.12	243.42
561.29	360.44
561.45	290.23
561.61	292.57
561.78	358.10
561.94	245.76
562.11	210.65
562.27	311.29
562.44	252.78
562.60	250.44
562.77	248.10
562.93	318.31
563.10	271.50
563.26	273.84
563.42	287.89
563.59	231.71
563.75	238.73
563.92	318.31
564.08	280.86
564.24	276.18
564.41	362.78
564.57	198.95
564.74	184.90
564.90	264.48
565.07	334.70
565.23	381.51
565.39	252.78
565.56	297.25
565.72	315.97
565.88	297.25
566.05	322.99
566.21	231.71
566.38	332.36
566.54	330.02
566.70	276.18
566.87	304.27
567.03	220.01
567.19	294.91
567.36	294.91
567.52	236.39
567.68	224.69
567.85	269.16
568.01	280.86
568.17	273.84
568.34	191.92
568.50	304.27
568.66	294.91
568.83	320.65
568.99	264.48
569.15	306.61
569.32	255.12
569.48	287.89
569.64	264.48
569.81	217.67
569.97	248.10
570.13	280.86
570.30	252.78
570.46	304.27
570.62	227.03
570.78	259.80
570.95	266.82
571.11	257.46
571.27	283.20
571.43	264.48
571.60	320.65
571.76	283.20
571.92	334.70
572.09	306.61
572.25	315.97
572.41	287.89
572.57	215.33
572.74	327.68
572.90	433.00
573.06	231.71
573.22	271.50
573.38	238.73
573.55	318.31
573.71	205.97
573.87	304.27
574.03	257.46
574.20	325.33
574.36	360.44
574.52	276.18
574.68	334.70
574.84	276.18
575.01	245.76
575.17	294.91
575.33	266.82
575.49	271.50
575.65	320.65
575.82	301.93
575.98	451.72
576.14	543.00
576.30	552.37
576.46	559.39
576.62	559.39
576.79	435.34
576.95	395.55
577.11	379.17
577.27	325.33
577.43	325.33
577.59	304.27
577.75	337.04
577.92	273.84
578.08	355.76
578.24	344.06
578.40	320.65
578.56	332.36
578.72	411.93
578.88	362.78
579.04	447.04
579.21	365.12
579.37	322.99
579.53	311.29
579.69	308.95
579.85	320.65
580.01	411.93
580.17	433.00
580.33	344.06
580.49	404.91
580.65	379.17
580.82	355.76
580.98	313.63
581.14	306.61
581.30	475.13
581.46	344.06
581.62	437.68
581.78	458.74
581.94	526.62
582.10	477.47
582.26	409.59
582.42	372.15
582.58	362.78
582.74	409.59
582.90	423.64
583.06	400.23
583.22	388.53
583.38	428.32
583.54	423.64
583.70	543.00
583.86	559.39
584.02	587.47
584.18	709.18
584.34	805.14
584.50	1654.76
584.66	9944.94
584.82	29572.67
584.98	46625.81
585.14	43180.54
585.30	27159.58
585.46	15754.15
585.62	9790.46
585.78	4760.65
585.94	2001.16
586.10	1041.54
586.26	704.50
586.42	589.82
586.58	594.50
586.74	521.94
586.90	519.60
587.06	543.00
587.22	524.28
587.38	456.40
587.54	755.99
587.70	1888.81
587.86	3206.53
588.02	3599.74
588.18	2698.64
588.34	1781.15
588.49	1121.12
588.65	784.08
588.81	482.15
588.97	365.12
589.13	313.63
589.29	341.72
589.45	299.59
589.61	320.65
589.77	341.72
589.93	393.21
590.08	411.93
590.24	362.78
590.40	339.38
590.56	383.85
590.72	341.72
590.88	285.55
591.04	287.89
591.20	315.97
591.35	337.04
591.51	367.46
591.67	404.91
591.83	322.99
591.99	250.44
592.15	348.74
592.31	318.31
592.46	322.99
592.62	381.51
592.78	372.15
592.94	435.34
593.10	362.78
593.26	318.31
593.41	374.49
593.57	433.00
593.73	475.13
593.89	1334.11
594.05	3634.85
594.20	5832.62
594.36	5874.74
594.52	3915.72
594.68	2635.44
594.84	1750.72
594.99	999.41
595.15	552.37
595.31	493.85
595.47	372.15
595.62	238.73
595.78	276.18
595.94	341.72
596.10	400.23
596.25	395.55
596.41	362.78
596.57	362.78
596.73	278.52
596.88	440.02
597.04	835.57
597.20	1390.28
597.36	1633.69
597.51	1343.47
597.67	929.19
597.83	650.67
597.99	538.32
598.14	414.27
598.30	355.76
598.46	322.99
598.61	376.83
598.77	320.65
598.93	339.38
599.09	369.80
599.24	367.46
599.40	339.38
599.56	301.93
599.71	330.02
599.87	341.72
600.03	290.23
600.18	271.50
600.34	292.57
600.50	299.59
600.65	292.57
600.81	353.42
600.97	266.82
601.12	259.80
601.28	360.44
601.44	248.10
601.59	271.50
601.75	301.93
601.91	241.08
602.06	327.68
602.22	318.31
602.37	538.32
602.53	1006.43
602.69	1629.01
602.84	1692.21
603.00	1249.85
603.16	868.34
603.31	727.91
603.47	589.82
603.62	374.49
603.78	241.08
603.94	301.93
604.09	301.93
604.25	299.59
604.40	365.12
604.56	283.20
604.71	283.20
604.87	301.93
605.03	322.99
605.18	322.99
605.34	304.27
605.49	320.65
605.65	355.76
605.80	243.42
605.96	280.86
606.12	283.20
606.27	337.04
606.43	311.29
606.58	409.59
606.74	594.50
606.89	1788.17
607.05	3552.93
607.20	4861.29
607.36	4346.37
607.51	3045.04
607.67	2026.90
607.82	1437.09
607.98	898.77
608.13	592.16
608.29	444.70
608.44	416.62
608.60	411.93
608.75	416.62
608.91	650.67
609.06	2502.03
609.22	6207.10
609.37	8571.04
609.53	7641.85
609.68	5273.23
609.84	3400.80
609.99	2385.01
610.15	1554.12
610.30	961.96
