SpectraSuite Data File
++++++++++++++++++++++++++++++++++++
Date: Fri Oct 04 12:13:33 GMT-05:00 2013
User: price-jones
Dark Spectrum Present: No
Reference Spectrum Present: No
Number of Sampled Component Spectra: 1
Spectrometers: USB2+H05261
Integration Time (usec): 10000 (USB2+H05261)
Spectra Averaged: 1 (USB2+H05261)
Boxcar Smoothing: 0 (USB2+H05261)
Correct for Electrical Dark: No (USB2+H05261)
Strobe/Lamp Enabled: No (USB2+H05261)
Correct for Detector Non-linearity: No (USB2+H05261)
Correct for Stray Light: No (USB2+H05261)
Number of Pixels in Processed Spectrum: 2048
>>>>>Begin Processed Spectral Data<<<<<
365.73	0.00
365.92	0.00
366.12	0.00
366.32	0.00
366.52	0.00
366.72	0.00
366.91	0.00
367.11	0.00
367.31	0.00
367.51	0.00
367.70	0.00
367.90	0.00
368.10	0.00
368.30	0.00
368.49	0.00
368.69	0.00
368.89	0.00
369.09	0.00
369.28	0.00
369.48	0.00
369.68	0.00
369.87	0.00
370.07	0.00
370.27	0.00
370.47	0.00
370.66	4.68
370.86	114.69
371.06	0.00
371.25	58.51
371.45	18.72
371.65	60.85
371.84	46.81
372.04	60.85
372.24	63.19
372.44	0.00
372.63	0.00
372.83	70.22
373.03	84.26
373.22	117.03
373.42	0.00
373.62	72.56
373.81	93.62
374.01	93.62
374.21	131.07
374.40	121.71
374.60	84.26
374.79	63.19
374.99	79.58
375.19	140.43
375.38	187.24
375.58	79.58
375.78	138.09
375.97	93.62
376.17	142.77
376.37	154.48
376.56	124.05
376.76	84.26
376.95	28.09
377.15	81.92
377.35	39.79
377.54	138.09
377.74	70.22
377.93	93.62
378.13	154.48
378.33	124.05
378.52	93.62
378.72	91.28
378.91	124.05
379.11	72.56
379.31	95.96
379.50	180.22
379.70	74.90
379.89	77.24
380.09	72.56
380.28	121.71
380.48	37.45
380.68	114.69
380.87	142.77
381.07	163.84
381.26	65.54
381.46	81.92
381.65	102.98
381.85	91.28
382.04	110.01
382.24	35.11
382.43	133.41
382.63	58.51
382.83	32.77
383.02	79.58
383.22	65.54
383.41	102.98
383.61	91.28
383.80	11.70
384.00	84.26
384.19	32.77
384.39	21.06
384.58	39.79
384.78	79.58
384.97	84.26
385.17	135.75
385.36	30.43
385.56	95.96
385.75	114.69
385.95	145.11
386.14	117.03
386.34	93.62
386.53	88.94
386.72	42.13
386.92	175.54
387.11	88.94
387.31	81.92
387.50	121.71
387.70	95.96
387.89	70.22
388.09	145.11
388.28	88.94
388.48	107.66
388.67	145.11
388.86	184.90
389.06	161.50
389.25	107.66
389.45	102.98
389.64	212.99
389.84	44.47
390.03	154.48
390.22	100.64
390.42	145.11
390.61	163.84
390.81	159.16
391.00	156.82
391.19	161.50
391.39	149.79
391.58	114.69
391.78	86.60
391.97	133.41
392.16	37.45
392.36	133.41
392.55	114.69
392.75	49.15
392.94	58.51
393.13	81.92
393.33	135.75
393.52	159.16
393.71	84.26
393.91	100.64
394.10	126.39
394.29	72.56
394.49	95.96
394.68	117.03
394.88	142.77
395.07	163.84
395.26	177.88
395.46	131.07
395.65	110.01
395.84	121.71
396.04	77.24
396.23	93.62
396.42	133.41
396.62	37.45
396.81	93.62
397.00	205.97
397.19	100.64
397.39	161.50
397.58	208.31
397.77	231.71
397.97	175.54
398.16	161.50
398.35	161.50
398.55	203.63
398.74	194.26
398.93	269.16
399.12	231.71
399.32	273.84
399.51	217.67
399.70	243.42
399.90	210.65
400.09	208.31
400.28	222.35
400.47	191.92
400.67	266.82
400.86	255.12
401.05	229.37
401.24	276.18
401.44	250.44
401.63	212.99
401.82	299.59
402.01	337.04
402.21	252.78
402.40	210.65
402.59	231.71
402.78	248.10
402.97	212.99
403.17	177.88
403.36	297.25
403.55	166.18
403.74	203.63
403.93	266.82
404.13	180.22
404.32	271.50
404.51	203.63
404.70	259.80
404.89	294.91
405.09	224.69
405.28	175.54
405.47	182.56
405.66	177.88
405.85	220.01
406.05	203.63
406.24	177.88
406.43	220.01
406.62	220.01
406.81	231.71
407.00	271.50
407.20	196.60
407.39	285.55
407.58	306.61
407.77	262.14
407.96	238.73
408.15	299.59
408.34	306.61
408.54	283.20
408.73	187.24
408.92	243.42
409.11	304.27
409.30	201.29
409.49	234.05
409.68	227.03
409.87	238.73
410.07	276.18
410.26	243.42
410.45	252.78
410.64	283.20
410.83	297.25
411.02	318.31
411.21	322.99
411.40	252.78
411.59	358.10
411.78	334.70
411.98	266.82
412.17	262.14
412.36	339.38
412.55	269.16
412.74	201.29
412.93	278.52
413.12	241.08
413.31	269.16
413.50	306.61
413.69	287.89
413.88	308.95
414.07	315.97
414.26	322.99
414.45	390.87
414.64	337.04
414.83	250.44
415.02	273.84
415.22	266.82
415.41	285.55
415.60	238.73
415.79	283.20
415.98	266.82
416.17	334.70
416.36	292.57
416.55	299.59
416.74	402.57
416.93	290.23
417.12	358.10
417.31	245.76
417.50	315.97
417.69	332.36
417.88	337.04
418.07	320.65
418.26	280.86
418.45	330.02
418.64	339.38
418.83	332.36
419.02	290.23
419.21	348.74
419.39	292.57
419.58	315.97
419.77	248.10
419.96	238.73
420.15	334.70
420.34	395.55
420.53	299.59
420.72	318.31
420.91	341.72
421.10	348.74
421.29	327.68
421.48	311.29
421.67	332.36
421.86	290.23
422.05	341.72
422.24	271.50
422.43	294.91
422.61	315.97
422.80	339.38
422.99	334.70
423.18	330.02
423.37	449.38
423.56	337.04
423.75	248.10
423.94	255.12
424.13	339.38
424.32	334.70
424.50	320.65
424.69	255.12
424.88	297.25
425.07	308.95
425.26	334.70
425.45	339.38
425.64	283.20
425.83	334.70
426.01	285.55
426.20	327.68
426.39	423.64
426.58	301.93
426.77	266.82
426.96	255.12
427.15	259.80
427.33	372.15
427.52	318.31
427.71	325.33
427.90	301.93
428.09	257.46
428.28	327.68
428.46	306.61
428.65	257.46
428.84	374.49
429.03	306.61
429.22	304.27
429.40	297.25
429.59	280.86
429.78	222.35
429.97	234.05
430.16	205.97
430.34	280.86
430.53	222.35
430.72	330.02
430.91	315.97
431.10	315.97
431.28	311.29
431.47	379.17
431.66	435.34
431.85	315.97
432.03	248.10
432.22	348.74
432.41	276.18
432.60	365.12
432.79	346.40
432.97	313.63
433.16	374.49
433.35	344.06
433.54	334.70
433.72	313.63
433.91	308.95
434.10	313.63
434.28	287.89
434.47	313.63
434.66	311.29
434.85	330.02
435.03	313.63
435.22	315.97
435.41	355.76
435.59	383.85
435.78	418.96
435.97	461.09
436.16	402.57
436.34	327.68
436.53	341.72
436.72	353.42
436.90	353.42
437.09	292.57
437.28	322.99
437.46	311.29
437.65	292.57
437.84	360.44
438.02	351.08
438.21	322.99
438.40	337.04
438.58	376.83
438.77	367.46
438.96	395.55
439.14	311.29
439.33	374.49
439.52	332.36
439.70	376.83
439.89	388.53
440.08	367.46
440.26	367.46
440.45	442.36
440.63	414.27
440.82	397.89
441.01	379.17
441.19	433.00
441.38	491.51
441.57	348.74
441.75	461.09
441.94	402.57
442.12	451.72
442.31	442.36
442.50	337.04
442.68	409.59
442.87	379.17
443.05	374.49
443.24	411.93
443.43	433.00
443.61	475.13
443.80	608.54
443.98	395.55
444.17	369.80
444.35	425.98
444.54	425.98
444.73	475.13
444.91	374.49
445.10	273.84
445.28	421.30
445.47	414.27
445.65	372.15
445.84	421.30
446.02	435.34
446.21	360.44
446.39	404.91
446.58	433.00
446.77	409.59
446.95	402.57
447.14	512.58
447.32	458.74
447.51	435.34
447.69	402.57
447.88	442.36
448.06	454.06
448.25	425.98
448.43	477.47
448.62	365.12
448.80	418.96
448.99	489.17
449.17	428.32
449.36	404.91
449.54	479.81
449.73	444.70
449.91	498.53
450.10	510.24
450.28	369.80
450.46	470.45
450.65	430.66
450.83	470.45
451.02	489.17
451.20	411.93
451.39	484.49
451.57	428.32
451.76	479.81
451.94	430.66
452.13	498.53
452.31	433.00
452.49	358.10
452.68	395.55
452.86	341.72
453.05	454.06
453.23	430.66
453.42	472.79
453.60	447.04
453.78	496.19
453.97	531.30
454.15	566.41
454.34	379.17
454.52	479.81
454.70	463.43
454.89	372.15
455.07	400.23
455.26	447.04
455.44	528.96
455.62	458.74
455.81	461.09
455.99	461.09
456.17	454.06
456.36	479.81
456.54	421.30
456.73	468.11
456.91	500.87
457.09	458.74
457.28	463.43
457.46	440.02
457.64	491.51
457.83	540.66
458.01	416.62
458.19	451.72
458.38	418.96
458.56	433.00
458.74	463.43
458.93	514.92
459.11	461.09
459.29	411.93
459.48	435.34
459.66	479.81
459.84	393.21
460.03	428.32
460.21	458.74
460.39	486.83
460.57	444.70
460.76	472.79
460.94	498.53
461.12	421.30
461.31	477.47
461.49	496.19
461.67	437.68
461.85	435.34
462.04	489.17
462.22	550.03
462.40	503.22
462.59	470.45
462.77	404.91
462.95	519.60
463.13	484.49
463.32	507.90
463.50	482.15
463.68	505.56
463.86	447.04
464.05	496.19
464.23	514.92
464.41	449.38
464.59	416.62
464.78	500.87
464.96	451.72
465.14	458.74
465.32	463.43
465.50	503.22
465.69	498.53
465.87	538.32
466.05	503.22
466.23	465.77
466.41	545.34
466.60	472.79
466.78	524.28
466.96	472.79
467.14	533.64
467.32	479.81
467.51	491.51
467.69	461.09
467.87	472.79
468.05	475.13
468.23	505.56
468.41	528.96
468.60	510.24
468.78	444.70
468.96	465.77
469.14	468.11
469.32	472.79
469.50	475.13
469.69	463.43
469.87	482.15
470.05	475.13
470.23	517.26
470.41	468.11
470.59	472.79
470.77	489.17
470.95	491.51
471.14	498.53
471.32	454.06
471.50	479.81
471.68	528.96
471.86	596.84
472.04	496.19
472.22	575.77
472.40	528.96
472.58	440.02
472.77	479.81
472.95	514.92
473.13	543.00
473.31	517.26
473.49	491.51
473.67	519.60
473.85	596.84
474.03	557.05
474.21	543.00
474.39	442.36
474.57	545.34
474.75	554.71
474.93	543.00
475.12	517.26
475.30	500.87
475.48	545.34
475.66	535.98
475.84	514.92
476.02	535.98
476.20	517.26
476.38	535.98
476.56	596.84
476.74	589.82
476.92	575.77
477.10	613.22
477.28	538.32
477.46	554.71
477.64	514.92
477.82	533.64
478.00	540.66
478.18	552.37
478.36	582.79
478.54	617.90
478.72	613.22
478.90	587.47
479.08	578.11
479.26	587.47
479.44	648.33
479.62	599.18
479.80	634.29
479.98	603.86
480.16	554.71
480.34	636.63
480.52	606.20
480.70	681.10
480.88	664.71
481.06	580.45
481.24	622.58
481.41	620.24
481.59	697.48
481.77	608.54
481.95	617.90
482.13	657.69
482.31	573.43
482.49	610.88
482.67	617.90
482.85	697.48
483.03	648.33
483.21	685.78
483.39	643.65
483.57	690.46
483.74	678.76
483.92	709.18
484.10	671.73
484.28	655.35
484.46	638.97
484.64	634.29
484.82	627.26
485.00	655.35
485.18	627.26
485.35	566.41
485.53	617.90
485.71	550.03
485.89	521.94
486.07	620.24
486.25	557.05
486.43	674.07
486.61	608.54
486.78	748.97
486.96	667.05
487.14	697.48
487.32	660.03
487.50	739.61
487.68	755.99
487.85	741.95
488.03	667.05
488.21	657.69
488.39	723.23
488.57	755.99
488.75	772.38
488.92	720.88
489.10	723.23
489.28	837.91
489.46	830.89
489.64	763.01
489.81	833.23
489.99	961.96
490.17	805.14
490.35	711.52
490.53	737.27
490.70	760.67
490.88	770.04
491.06	812.17
491.24	683.44
491.41	821.53
491.59	777.06
491.77	723.23
491.95	711.52
492.13	795.78
492.30	795.78
492.48	784.08
492.66	786.42
492.84	873.02
493.01	929.19
493.19	915.15
493.37	800.46
493.54	755.99
493.72	828.55
493.90	887.06
494.08	861.32
494.25	840.25
494.43	837.91
494.61	809.83
494.79	821.53
494.96	891.74
495.14	884.72
495.32	873.02
495.49	819.19
495.67	828.55
495.85	828.55
496.02	861.32
496.20	802.80
496.38	915.15
496.55	915.15
496.73	954.94
496.91	959.62
497.09	875.36
497.26	882.38
497.44	882.38
497.62	870.68
497.79	814.51
497.97	816.85
498.14	842.59
498.32	873.02
498.50	894.08
498.67	992.39
498.85	1043.88
499.03	968.98
499.20	1039.20
499.38	945.58
499.56	896.43
499.73	924.51
499.91	880.04
500.08	844.93
500.26	894.08
500.44	866.00
500.61	954.94
500.79	786.42
500.97	830.89
501.14	866.00
501.32	950.26
501.49	854.30
501.67	877.70
501.84	828.55
502.02	905.79
502.20	889.40
502.37	912.81
502.55	863.66
502.72	896.43
502.90	877.70
503.07	961.96
503.25	919.83
503.43	835.57
503.60	830.89
503.78	774.72
503.95	826.21
504.13	908.13
504.30	964.30
504.48	889.40
504.65	866.00
504.83	851.96
505.01	929.19
505.18	933.87
505.36	877.70
505.53	976.00
505.71	1076.65
505.88	868.34
506.06	915.15
506.23	896.43
506.41	903.45
506.58	950.26
506.76	875.36
506.93	952.60
507.11	929.19
507.28	889.40
507.46	894.08
507.63	884.72
507.81	866.00
507.98	851.96
508.16	912.81
508.33	976.00
508.50	940.90
508.68	896.43
508.85	980.68
509.03	1041.54
509.20	964.30
509.38	912.81
509.55	917.49
509.73	905.79
509.90	870.68
510.08	898.77
510.25	978.34
510.42	957.28
510.60	1025.15
510.77	936.21
510.95	990.05
511.12	973.66
511.30	999.41
511.47	1088.35
511.64	1081.33
511.82	994.73
511.99	985.37
512.17	954.94
512.34	936.21
512.51	933.87
512.69	910.47
512.86	922.17
513.04	1018.13
513.21	1043.88
513.38	952.60
513.56	943.24
513.73	868.34
513.90	985.37
514.08	884.72
514.25	870.68
514.43	917.49
514.60	968.98
514.77	858.98
514.95	976.00
515.12	1036.86
515.29	987.71
515.47	1036.86
515.64	954.94
515.81	964.30
515.99	929.19
516.16	919.83
516.33	828.55
516.51	798.12
516.68	760.67
516.85	777.06
517.03	809.83
517.20	844.93
517.37	940.90
517.54	1004.09
517.72	863.66
517.89	950.26
518.06	835.57
518.24	758.33
518.41	788.76
518.58	945.58
518.75	947.92
518.93	847.27
519.10	915.15
519.27	908.13
519.45	968.98
519.62	966.64
519.79	905.79
519.96	1039.20
520.14	931.53
520.31	933.87
520.48	903.45
520.65	973.66
520.83	964.30
521.00	933.87
521.17	922.17
521.34	1006.43
521.52	1018.13
521.69	973.66
521.86	950.26
522.03	992.39
522.20	971.32
522.38	976.00
522.55	833.23
522.72	840.25
522.89	933.87
523.07	943.24
523.24	980.68
523.41	1053.24
523.58	947.92
523.75	1022.81
523.92	917.49
524.10	947.92
524.27	1020.47
524.44	1032.18
524.61	973.66
524.78	976.00
524.96	990.05
525.13	915.15
525.30	973.66
525.47	1048.56
525.64	971.32
525.81	1015.79
525.98	1001.75
526.16	983.02
526.33	896.43
526.50	814.51
526.67	898.77
526.84	837.91
527.01	898.77
527.18	976.00
527.36	999.41
527.53	959.62
527.70	1064.94
527.87	1053.24
528.04	1001.75
528.21	1013.45
528.38	1041.54
528.55	1076.65
528.72	1060.26
528.89	1050.90
529.07	1001.75
529.24	1097.71
529.41	1011.11
529.58	973.66
529.75	952.60
529.92	997.07
530.09	997.07
530.26	1041.54
530.43	1004.09
530.60	1004.09
530.77	945.58
530.94	1097.71
531.11	1008.77
531.28	877.70
531.46	957.28
531.63	1041.54
531.80	1074.31
531.97	912.81
532.14	903.45
532.31	903.45
532.48	961.96
532.65	945.58
532.82	978.34
532.99	887.06
533.16	1001.75
533.33	917.49
533.50	950.26
533.67	929.19
533.84	917.49
534.01	945.58
534.18	959.62
534.35	898.77
534.52	861.32
534.69	999.41
534.86	990.05
535.03	1013.45
535.20	1004.09
535.37	1029.84
535.54	1011.11
535.71	968.98
535.88	1027.50
536.05	994.73
536.22	1008.77
536.38	1001.75
536.55	980.68
536.72	971.32
536.89	940.90
537.06	992.39
537.23	936.21
537.40	945.58
537.57	964.30
537.74	964.30
537.91	1004.09
538.08	978.34
538.25	994.73
538.42	983.02
538.59	1025.15
538.75	961.96
538.92	957.28
539.09	908.13
539.26	1001.75
539.43	898.77
539.60	940.90
539.77	987.71
539.94	929.19
540.11	910.47
540.28	882.38
540.44	926.85
540.61	905.79
540.78	903.45
540.95	873.02
541.12	880.04
541.29	898.77
541.46	1064.94
541.62	985.37
541.79	971.32
541.96	1013.45
542.13	964.30
542.30	915.15
542.47	980.68
542.63	1041.54
542.80	915.15
542.97	901.11
543.14	959.62
543.31	908.13
543.48	940.90
543.64	908.13
543.81	1046.22
543.98	973.66
544.15	1081.33
544.32	938.55
544.48	943.24
544.65	926.85
544.82	947.92
544.99	987.71
545.16	1006.43
545.32	933.87
545.49	985.37
545.66	936.21
545.83	947.92
546.00	966.64
546.16	968.98
546.33	868.34
546.50	840.25
546.67	1018.13
546.83	940.90
547.00	931.53
547.17	854.30
547.34	954.94
547.50	952.60
547.67	936.21
547.84	950.26
548.00	926.85
548.17	957.28
548.34	968.98
548.51	985.37
548.67	887.06
548.84	966.64
549.01	924.51
549.18	992.39
549.34	940.90
549.51	968.98
549.68	980.68
549.84	924.51
550.01	964.30
550.18	1020.47
550.34	938.55
550.51	938.55
550.68	940.90
550.84	933.87
551.01	959.62
551.18	968.98
551.34	952.60
551.51	1020.47
551.68	894.08
551.84	938.55
552.01	966.64
552.18	901.11
552.34	987.71
552.51	861.32
552.68	903.45
552.84	896.43
553.01	877.70
553.18	851.96
553.34	985.37
553.51	964.30
553.67	971.32
553.84	947.92
554.01	891.74
554.17	828.55
554.34	882.38
554.51	973.66
554.67	978.34
554.84	922.17
555.00	919.83
555.17	924.51
555.33	947.92
555.50	903.45
555.67	894.08
555.83	905.79
556.00	945.58
556.16	875.36
556.33	959.62
556.50	945.58
556.66	968.98
556.83	837.91
556.99	903.45
557.16	1032.18
557.32	961.96
557.49	915.15
557.65	898.77
557.82	915.15
557.98	945.58
558.15	926.85
558.32	809.83
558.48	873.02
558.65	849.61
558.81	851.96
558.98	777.06
559.14	954.94
559.31	903.45
559.47	931.53
559.64	889.40
559.80	891.74
559.97	854.30
560.13	805.14
560.30	887.06
560.46	931.53
560.63	919.83
560.79	896.43
560.96	880.04
561.12	847.27
561.29	765.36
561.45	835.57
561.61	858.98
561.78	926.85
561.94	877.70
562.11	877.70
562.27	889.40
562.44	795.78
562.60	821.53
562.77	1008.77
562.93	880.04
563.10	919.83
563.26	870.68
563.42	908.13
563.59	959.62
563.75	884.72
563.92	861.32
564.08	816.85
564.24	828.55
564.41	802.80
564.57	819.19
564.74	842.59
564.90	835.57
565.07	894.08
565.23	866.00
565.39	800.46
565.56	840.25
565.72	816.85
565.88	905.79
566.05	807.48
566.21	814.51
566.38	781.74
566.54	800.46
566.70	800.46
566.87	908.13
567.03	959.62
567.19	830.89
567.36	884.72
567.52	917.49
567.68	830.89
567.85	798.12
568.01	821.53
568.17	786.42
568.34	732.59
568.50	795.78
568.66	819.19
568.83	889.40
568.99	767.70
569.15	821.53
569.32	774.72
569.48	814.51
569.64	814.51
569.81	814.51
569.97	814.51
570.13	854.30
570.30	894.08
570.46	840.25
570.62	800.46
570.78	730.25
570.95	765.36
571.11	739.61
571.27	777.06
571.43	812.17
571.60	842.59
571.76	748.97
571.92	814.51
572.09	870.68
572.25	835.57
572.41	880.04
572.57	753.65
572.74	784.08
572.90	814.51
573.06	765.36
573.22	763.01
573.38	833.23
573.55	805.14
573.71	877.70
573.87	770.04
574.03	772.38
574.20	786.42
574.36	835.57
574.52	807.48
574.68	814.51
574.84	734.93
575.01	763.01
575.17	753.65
575.33	791.10
575.49	711.52
575.65	823.87
575.82	826.21
575.98	851.96
576.14	706.84
576.30	812.17
576.46	812.17
576.62	770.04
576.79	732.59
576.95	791.10
577.11	746.63
577.27	758.33
577.43	737.27
577.59	741.95
577.75	723.23
577.92	851.96
578.08	737.27
578.24	835.57
578.40	753.65
578.56	734.93
578.72	760.67
578.88	809.83
579.04	730.25
579.21	709.18
579.37	767.70
579.53	784.08
579.69	807.48
579.85	739.61
580.01	683.44
580.17	737.27
580.33	777.06
580.49	734.93
580.65	802.80
580.82	779.40
580.98	765.36
581.14	905.79
581.30	800.46
581.46	713.86
581.62	702.16
581.78	730.25
581.94	711.52
582.10	828.55
582.26	795.78
582.42	685.78
582.58	767.70
582.74	732.59
582.90	697.48
583.06	805.14
583.22	828.55
583.38	767.70
583.54	732.59
583.70	777.06
583.86	688.12
584.02	793.44
584.18	814.51
584.34	765.36
584.50	629.60
584.66	739.61
584.82	720.88
584.98	692.80
585.14	760.67
585.30	695.14
585.46	716.20
585.62	760.67
585.78	734.93
585.94	788.76
586.10	720.88
586.26	734.93
586.42	814.51
586.58	723.23
586.74	723.23
586.90	741.95
587.06	795.78
587.22	833.23
587.38	699.82
587.54	734.93
587.70	683.44
587.86	624.92
588.02	683.44
588.18	706.84
588.34	685.78
588.49	601.52
588.65	655.35
588.81	557.05
588.97	561.73
589.13	531.30
589.29	519.60
589.45	568.75
589.61	568.75
589.77	629.60
589.93	613.22
590.08	664.71
590.24	610.88
590.40	603.86
590.56	723.23
590.72	657.69
590.88	664.71
591.04	582.79
591.20	660.03
591.35	638.97
591.51	594.50
591.67	674.07
591.83	573.43
591.99	641.31
592.15	655.35
592.31	664.71
592.46	592.16
592.62	730.25
592.78	617.90
592.94	641.31
593.10	587.47
593.26	627.26
593.41	692.80
593.57	629.60
593.73	613.22
593.89	596.84
594.05	641.31
594.20	617.90
594.36	620.24
594.52	580.45
594.68	568.75
594.84	636.63
594.99	601.52
595.15	592.16
595.31	578.11
595.47	610.88
595.62	727.91
595.78	582.79
595.94	627.26
596.10	636.63
596.25	720.88
596.41	662.37
596.57	678.76
596.73	692.80
596.88	575.77
597.04	624.92
597.20	641.31
597.36	702.16
597.51	624.92
597.67	655.35
597.83	674.07
597.99	627.26
598.14	634.29
598.30	624.92
598.46	648.33
598.61	688.12
598.77	608.54
598.93	732.59
599.09	709.18
599.24	695.14
599.40	706.84
599.56	650.67
599.71	657.69
599.87	669.39
600.03	624.92
600.18	660.03
600.34	601.52
600.50	601.52
600.65	629.60
600.81	674.07
600.97	667.05
601.12	690.46
601.28	688.12
601.44	706.84
601.59	692.80
601.75	580.45
601.91	669.39
602.06	671.73
602.22	674.07
602.37	692.80
602.53	699.82
602.69	695.14
602.84	648.33
603.00	669.39
603.16	697.48
603.31	678.76
603.47	631.94
603.62	671.73
603.78	709.18
603.94	622.58
604.09	720.88
604.25	688.12
604.40	627.26
604.56	613.22
604.71	692.80
604.87	725.57
605.03	615.56
605.18	678.76
605.34	641.31
605.49	650.67
605.65	578.11
605.80	711.52
605.96	667.05
606.12	669.39
606.27	692.80
606.43	664.71
606.58	650.67
606.74	627.26
606.89	653.01
607.05	585.13
607.20	641.31
607.36	671.73
607.51	664.71
607.67	566.41
607.82	645.99
607.98	648.33
608.13	643.65
608.29	702.16
608.44	580.45
608.60	648.33
608.75	631.94
608.91	678.76
609.06	568.75
609.22	601.52
609.37	655.35
609.53	617.90
609.68	564.07
609.84	657.69
609.99	615.56
610.15	601.52
610.30	617.90
610.46	554.71
610.61	664.71
610.76	580.45
610.92	706.84
