SpectraSuite Data File
++++++++++++++++++++++++++++++++++++
Date: Fri Oct 04 11:34:09 GMT-05:00 2013
User: price-jones
Dark Spectrum Present: No
Reference Spectrum Present: No
Number of Sampled Component Spectra: 1
Spectrometers: USB2+H05261
Integration Time (usec): 100000 (USB2+H05261)
Spectra Averaged: 1 (USB2+H05261)
Boxcar Smoothing: 0 (USB2+H05261)
Correct for Electrical Dark: No (USB2+H05261)
Strobe/Lamp Enabled: No (USB2+H05261)
Correct for Detector Non-linearity: No (USB2+H05261)
Correct for Stray Light: No (USB2+H05261)
Number of Pixels in Processed Spectrum: 2048
>>>>>Begin Processed Spectral Data<<<<<
365.73	63.19
365.92	63.19
366.12	63.19
366.32	25.75
366.52	4.68
366.72	0.00
366.91	0.00
367.11	0.00
367.31	35.11
367.51	0.00
367.70	0.00
367.90	18.72
368.10	0.00
368.30	0.00
368.49	0.00
368.69	0.00
368.89	0.00
369.09	7.02
369.28	14.04
369.48	0.00
369.68	0.00
369.87	0.00
370.07	21.06
370.27	53.83
370.47	30.43
370.66	39.79
370.86	84.26
371.06	81.92
371.25	107.66
371.45	131.07
371.65	46.81
371.84	42.13
372.04	102.98
372.24	163.84
372.44	128.73
372.63	124.05
372.83	187.24
373.03	166.18
373.22	81.92
373.42	156.82
373.62	135.75
373.81	84.26
374.01	112.35
374.21	210.65
374.40	154.48
374.60	152.13
374.79	138.09
374.99	201.29
375.19	168.52
375.38	81.92
375.58	173.20
375.78	173.20
375.97	159.16
376.17	142.77
376.37	198.95
376.56	198.95
376.76	140.43
376.95	142.77
377.15	147.45
377.35	166.18
377.54	135.75
377.74	154.48
377.93	91.28
378.13	135.75
378.33	170.86
378.52	124.05
378.72	215.33
378.91	154.48
379.11	65.54
379.31	114.69
379.50	86.60
379.70	180.22
379.89	184.90
380.09	159.16
380.28	145.11
380.48	128.73
380.68	93.62
380.87	128.73
381.07	168.52
381.26	189.58
381.46	180.22
381.65	95.96
381.85	117.03
382.04	121.71
382.24	203.63
382.43	84.26
382.63	166.18
382.83	159.16
383.02	128.73
383.22	173.20
383.41	182.56
383.61	102.98
383.80	84.26
384.00	147.45
384.19	152.13
384.39	124.05
384.58	140.43
384.78	133.41
384.97	124.05
385.17	84.26
385.36	135.75
385.56	180.22
385.75	138.09
385.95	175.54
386.14	166.18
386.34	161.50
386.53	142.77
386.72	198.95
386.92	154.48
387.11	168.52
387.31	201.29
387.50	145.11
387.70	156.82
387.89	110.01
388.09	140.43
388.28	117.03
388.48	95.96
388.67	140.43
388.86	182.56
389.06	126.39
389.25	102.98
389.45	133.41
389.64	154.48
389.84	152.13
390.03	203.63
390.22	154.48
390.42	114.69
390.61	152.13
390.81	112.35
391.00	156.82
391.19	152.13
391.39	189.58
391.58	182.56
391.78	182.56
391.97	100.64
392.16	88.94
392.36	163.84
392.55	191.92
392.75	119.37
392.94	131.07
393.13	138.09
393.33	149.79
393.52	112.35
393.71	154.48
393.91	112.35
394.10	154.48
394.29	145.11
394.49	163.84
394.68	210.65
394.88	227.03
395.07	173.20
395.26	112.35
395.46	163.84
395.65	156.82
395.84	191.92
396.04	222.35
396.23	58.51
396.42	168.52
396.62	187.24
396.81	107.66
397.00	217.67
397.19	84.26
397.39	149.79
397.58	152.13
397.77	70.22
397.97	161.50
398.16	152.13
398.35	119.37
398.55	182.56
398.74	163.84
398.93	177.88
399.12	138.09
399.32	194.26
399.51	177.88
399.70	187.24
399.90	107.66
400.09	163.84
400.28	182.56
400.47	140.43
400.67	250.44
400.86	142.77
401.05	149.79
401.24	126.39
401.44	131.07
401.63	198.95
401.82	222.35
402.01	135.75
402.21	227.03
402.40	196.60
402.59	128.73
402.78	198.95
402.97	147.45
403.17	191.92
403.36	91.28
403.55	173.20
403.74	168.52
403.93	229.37
404.13	346.40
404.32	264.48
404.51	217.67
404.70	210.65
404.89	180.22
405.09	245.76
405.28	163.84
405.47	98.30
405.66	128.73
405.85	210.65
406.05	198.95
406.24	180.22
406.43	222.35
406.62	154.48
406.81	243.42
407.00	140.43
407.20	187.24
407.39	173.20
407.58	189.58
407.77	140.43
407.96	210.65
408.15	231.71
408.34	198.95
408.54	53.83
408.73	168.52
408.92	184.90
409.11	147.45
409.30	128.73
409.49	105.32
409.68	159.16
409.87	161.50
410.07	133.41
410.26	128.73
410.45	182.56
410.64	121.71
410.83	147.45
411.02	180.22
411.21	105.32
411.40	177.88
411.59	119.37
411.78	126.39
411.98	142.77
412.17	65.54
412.36	114.69
412.55	175.54
412.74	152.13
412.93	203.63
413.12	128.73
413.31	180.22
413.50	156.82
413.69	156.82
413.88	177.88
414.07	131.07
414.26	170.86
414.45	149.79
414.64	196.60
414.83	177.88
415.02	166.18
415.22	161.50
415.41	159.16
415.60	86.60
415.79	152.13
415.98	227.03
416.17	152.13
416.36	147.45
416.55	117.03
416.74	175.54
416.93	173.20
417.12	156.82
417.31	198.95
417.50	259.80
417.69	208.31
417.88	269.16
418.07	135.75
418.26	173.20
418.45	229.37
418.64	299.59
418.83	266.82
419.02	283.20
419.21	217.67
419.39	222.35
419.58	238.73
419.77	234.05
419.96	154.48
420.15	191.92
420.34	154.48
420.53	135.75
420.72	182.56
420.91	175.54
421.10	175.54
421.29	201.29
421.48	182.56
421.67	191.92
421.86	194.26
422.05	140.43
422.24	168.52
422.43	138.09
422.61	182.56
422.80	201.29
422.99	126.39
423.18	191.92
423.37	229.37
423.56	173.20
423.75	203.63
423.94	84.26
424.13	110.01
424.32	196.60
424.50	175.54
424.69	217.67
424.88	238.73
425.07	152.13
425.26	266.82
425.45	189.58
425.64	287.89
425.83	250.44
426.01	215.33
426.20	133.41
426.39	208.31
426.58	163.84
426.77	145.11
426.96	278.52
427.15	187.24
427.33	180.22
427.52	149.79
427.71	175.54
427.90	194.26
428.09	187.24
428.28	187.24
428.46	133.41
428.65	187.24
428.84	182.56
429.03	205.97
429.22	177.88
429.40	140.43
429.59	196.60
429.78	166.18
429.97	74.90
430.16	208.31
430.34	102.98
430.53	182.56
430.72	161.50
430.91	142.77
431.10	184.90
431.28	128.73
431.47	173.20
431.66	166.18
431.85	138.09
432.03	131.07
432.22	175.54
432.41	227.03
432.60	229.37
432.79	227.03
432.97	248.10
433.16	290.23
433.35	257.46
433.54	283.20
433.72	194.26
433.91	152.13
434.10	217.67
434.28	236.39
434.47	210.65
434.66	210.65
434.85	180.22
435.03	198.95
435.22	418.96
435.41	461.09
435.59	456.40
435.78	355.76
435.97	175.54
436.16	262.14
436.34	208.31
436.53	107.66
436.72	210.65
436.90	105.32
437.09	191.92
437.28	182.56
437.46	128.73
437.65	231.71
437.84	128.73
438.02	131.07
438.21	147.45
438.40	152.13
438.58	168.52
438.77	147.45
438.96	156.82
439.14	124.05
439.33	187.24
439.52	189.58
439.70	163.84
439.89	177.88
440.08	182.56
440.26	220.01
440.45	257.46
440.63	159.16
440.82	187.24
441.01	173.20
441.19	210.65
441.38	191.92
441.57	159.16
441.75	212.99
441.94	159.16
442.12	173.20
442.31	154.48
442.50	175.54
442.68	194.26
442.87	163.84
443.05	154.48
443.24	196.60
443.43	168.52
443.61	196.60
443.80	184.90
443.98	182.56
444.17	110.01
444.35	198.95
444.54	220.01
444.73	231.71
444.91	196.60
445.10	187.24
445.28	224.69
445.47	177.88
445.65	201.29
445.84	252.78
446.02	182.56
446.21	140.43
446.39	124.05
446.58	184.90
446.77	175.54
446.95	198.95
447.14	234.05
447.32	212.99
447.51	203.63
447.69	224.69
447.88	177.88
448.06	191.92
448.25	198.95
448.43	191.92
448.62	189.58
448.80	243.42
448.99	145.11
449.17	145.11
449.36	245.76
449.54	203.63
449.73	234.05
449.91	198.95
450.10	234.05
450.28	210.65
450.46	234.05
450.65	201.29
450.83	243.42
451.02	152.13
451.20	152.13
451.39	147.45
451.57	170.86
451.76	166.18
451.94	248.10
452.13	198.95
452.31	212.99
452.49	173.20
452.68	201.29
452.86	250.44
453.05	280.86
453.23	173.20
453.42	100.64
453.60	74.90
453.78	140.43
453.97	170.86
454.15	187.24
454.34	156.82
454.52	163.84
454.70	180.22
454.89	147.45
455.07	168.52
455.26	131.07
455.44	203.63
455.62	191.92
455.81	156.82
455.99	208.31
456.17	276.18
456.36	210.65
456.54	203.63
456.73	180.22
456.91	217.67
457.09	191.92
457.28	180.22
457.46	191.92
457.64	241.08
457.83	191.92
458.01	175.54
458.19	177.88
458.38	222.35
458.56	168.52
458.74	203.63
458.93	241.08
459.11	217.67
459.29	294.91
459.48	220.01
459.66	236.39
459.84	210.65
460.03	294.91
460.21	259.80
460.39	210.65
460.57	187.24
460.76	257.46
460.94	215.33
461.12	224.69
461.31	297.25
461.49	161.50
461.67	238.73
461.85	184.90
462.04	154.48
462.22	360.44
462.40	170.86
462.59	271.50
462.77	220.01
462.95	252.78
463.13	217.67
463.32	196.60
463.50	187.24
463.68	236.39
463.86	182.56
464.05	201.29
464.23	264.48
464.41	255.12
464.59	241.08
464.78	198.95
464.96	222.35
465.14	217.67
465.32	131.07
465.50	276.18
465.69	311.29
465.87	222.35
466.05	252.78
466.23	194.26
466.41	184.90
466.60	170.86
466.78	194.26
466.96	224.69
467.14	184.90
467.32	243.42
467.51	227.03
467.69	182.56
467.87	231.71
468.05	189.58
468.23	283.20
468.41	212.99
468.60	273.84
468.78	231.71
468.96	208.31
469.14	212.99
469.32	166.18
469.50	145.11
469.69	170.86
469.87	248.10
470.05	266.82
470.23	229.37
470.41	156.82
470.59	210.65
470.77	285.55
470.95	262.14
471.14	248.10
471.32	191.92
471.50	266.82
471.68	189.58
471.86	191.92
472.04	203.63
472.22	229.37
472.40	238.73
472.58	161.50
472.77	215.33
472.95	229.37
473.13	322.99
473.31	180.22
473.49	154.48
473.67	177.88
473.85	161.50
474.03	170.86
474.21	212.99
474.39	229.37
474.57	168.52
474.75	266.82
474.93	196.60
475.12	189.58
475.30	161.50
475.48	196.60
475.66	243.42
475.84	191.92
476.02	217.67
476.20	234.05
476.38	88.94
476.56	315.97
476.74	189.58
476.92	177.88
477.10	257.46
477.28	224.69
477.46	227.03
477.64	222.35
477.82	198.95
478.00	224.69
478.18	245.76
478.36	187.24
478.54	182.56
478.72	170.86
478.90	180.22
479.08	304.27
479.26	231.71
479.44	126.39
479.62	191.92
479.80	283.20
479.98	128.73
480.16	215.33
480.34	266.82
480.52	182.56
480.70	273.84
480.88	227.03
481.06	257.46
481.24	301.93
481.41	227.03
481.59	276.18
481.77	217.67
481.95	220.01
482.13	276.18
482.31	208.31
482.49	234.05
482.67	311.29
482.85	283.20
483.03	229.37
483.21	313.63
483.39	217.67
483.57	196.60
483.74	238.73
483.92	259.80
484.10	201.29
484.28	280.86
484.46	404.91
484.64	222.35
484.82	138.09
485.00	255.12
485.18	224.69
485.35	241.08
485.53	257.46
485.71	224.69
485.89	262.14
486.07	271.50
486.25	318.31
486.43	299.59
486.61	269.16
486.78	205.97
486.96	287.89
487.14	287.89
487.32	290.23
487.50	241.08
487.68	280.86
487.85	227.03
488.03	220.01
488.21	257.46
488.39	248.10
488.57	238.73
488.75	201.29
488.92	484.49
489.10	301.93
489.28	327.68
489.46	215.33
489.64	273.84
489.81	327.68
489.99	212.99
490.17	266.82
490.35	381.51
490.53	187.24
490.70	250.44
490.88	283.20
491.06	217.67
491.24	262.14
491.41	285.55
491.59	320.65
491.77	287.89
491.95	266.82
492.13	245.76
492.30	297.25
492.48	210.65
492.66	283.20
492.84	220.01
493.01	280.86
493.19	220.01
493.37	313.63
493.54	231.71
493.72	266.82
493.90	238.73
494.08	273.84
494.25	304.27
494.43	259.80
494.61	194.26
494.79	252.78
494.96	220.01
495.14	306.61
495.32	318.31
495.49	294.91
495.67	217.67
495.85	306.61
496.02	224.69
496.20	297.25
496.38	301.93
496.55	292.57
496.73	290.23
496.91	278.52
497.09	259.80
497.26	266.82
497.44	250.44
497.62	259.80
497.79	330.02
497.97	227.03
498.14	227.03
498.32	311.29
498.50	224.69
498.67	306.61
498.85	271.50
499.03	250.44
499.20	266.82
499.38	231.71
499.56	252.78
499.73	304.27
499.91	262.14
500.08	227.03
500.26	297.25
500.44	262.14
500.61	262.14
500.79	290.23
500.97	355.76
501.14	198.95
501.32	245.76
501.49	294.91
501.67	215.33
501.84	252.78
502.02	243.42
502.20	297.25
502.37	196.60
502.55	304.27
502.72	248.10
502.90	224.69
503.07	248.10
503.25	292.57
503.43	287.89
503.60	290.23
503.78	304.27
503.95	280.86
504.13	287.89
504.30	234.05
504.48	248.10
504.65	227.03
504.83	250.44
505.01	273.84
505.18	248.10
505.36	252.78
505.53	220.01
505.71	205.97
505.88	224.69
506.06	198.95
506.23	243.42
506.41	236.39
506.58	304.27
506.76	227.03
506.93	259.80
507.11	285.55
507.28	231.71
507.46	278.52
507.63	308.95
507.81	320.65
507.98	269.16
508.16	306.61
508.33	339.38
508.50	287.89
508.68	231.71
508.85	348.74
509.03	163.84
509.20	205.97
509.38	220.01
509.55	229.37
509.73	304.27
509.90	250.44
510.08	217.67
510.25	273.84
510.42	348.74
510.60	224.69
510.77	278.52
510.95	341.72
511.12	241.08
511.30	353.42
511.47	306.61
511.64	290.23
511.82	308.95
511.99	290.23
512.17	294.91
512.34	250.44
512.51	217.67
512.69	269.16
512.86	322.99
513.04	227.03
513.21	262.14
513.38	257.46
513.56	241.08
513.73	217.67
513.90	248.10
514.08	252.78
514.25	311.29
514.43	299.59
514.60	245.76
514.77	280.86
514.95	348.74
515.12	245.76
515.29	208.31
515.47	292.57
515.64	332.36
515.81	257.46
515.99	252.78
516.16	311.29
516.33	301.93
516.51	152.13
516.68	222.35
516.85	236.39
517.03	248.10
517.20	238.73
517.37	266.82
517.54	236.39
517.72	283.20
517.89	205.97
518.06	248.10
518.24	376.83
518.41	285.55
518.58	290.23
518.75	245.76
518.93	290.23
519.10	308.95
519.27	292.57
519.45	287.89
519.62	287.89
519.79	294.91
519.96	273.84
520.14	276.18
520.31	318.31
520.48	273.84
520.65	327.68
520.83	241.08
521.00	264.48
521.17	287.89
521.34	259.80
521.52	299.59
521.69	262.14
521.86	220.01
522.03	285.55
522.20	283.20
522.38	287.89
522.55	196.60
522.72	205.97
522.89	262.14
523.07	315.97
523.24	297.25
523.41	271.50
523.58	276.18
523.75	290.23
523.92	229.37
524.10	283.20
524.27	264.48
524.44	257.46
524.61	283.20
524.78	315.97
524.96	241.08
525.13	290.23
525.30	318.31
525.47	262.14
525.64	280.86
525.81	304.27
525.98	252.78
526.16	257.46
526.33	210.65
526.50	212.99
526.67	285.55
526.84	252.78
527.01	236.39
527.18	271.50
527.36	332.36
527.53	294.91
527.70	283.20
527.87	313.63
528.04	344.06
528.21	170.86
528.38	322.99
528.55	234.05
528.72	351.08
528.89	369.80
529.07	238.73
529.24	180.22
529.41	315.97
529.58	276.18
529.75	241.08
529.92	318.31
530.09	283.20
530.26	236.39
530.43	353.42
530.60	271.50
530.77	287.89
530.94	227.03
531.11	273.84
531.28	297.25
531.46	212.99
531.63	210.65
531.80	330.02
531.97	287.89
532.14	332.36
532.31	306.61
532.48	306.61
532.65	388.53
532.82	390.87
532.99	386.19
533.16	369.80
533.33	388.53
533.50	278.52
533.67	386.19
533.84	454.06
534.01	484.49
534.18	428.32
534.35	372.15
534.52	313.63
534.69	416.62
534.86	334.70
535.03	271.50
535.20	297.25
535.37	318.31
535.54	341.72
535.71	330.02
535.88	383.85
536.05	299.59
536.22	308.95
536.38	320.65
536.55	243.42
536.72	339.38
536.89	344.06
537.06	318.31
537.23	379.17
537.40	311.29
537.57	304.27
537.74	287.89
537.91	273.84
538.08	318.31
538.25	346.40
538.42	374.49
538.59	304.27
538.75	315.97
538.92	360.44
539.09	386.19
539.26	365.12
539.43	596.84
539.60	1146.86
539.77	1689.87
539.94	1694.55
540.11	1254.53
540.28	910.47
540.44	669.39
540.61	514.92
540.78	472.79
540.95	566.41
541.12	578.11
541.29	587.47
541.46	580.45
541.62	676.41
541.79	554.71
541.96	554.71
542.13	573.43
542.30	543.00
542.47	514.92
542.63	500.87
542.80	573.43
542.97	629.60
543.14	482.15
543.31	575.77
543.48	503.22
543.64	564.07
543.81	507.90
543.98	528.96
544.15	575.77
544.32	437.68
544.48	550.03
544.65	528.96
544.82	564.07
544.99	477.47
545.16	489.17
545.32	559.39
545.49	753.65
545.66	968.98
545.83	1156.22
546.00	1029.84
546.16	704.50
546.33	667.05
546.50	535.98
546.67	496.19
546.83	435.34
547.00	383.85
547.17	465.77
547.34	360.44
547.50	386.19
547.67	402.57
547.84	383.85
548.00	484.49
548.17	437.68
548.34	475.13
548.51	425.98
548.67	404.91
548.84	381.51
549.01	397.89
549.18	339.38
549.34	425.98
549.51	393.21
549.68	395.55
549.84	353.42
550.01	369.80
550.18	447.04
550.34	430.66
550.51	304.27
550.68	365.12
550.84	315.97
551.01	327.68
551.18	327.68
551.34	353.42
551.51	388.53
551.68	304.27
551.84	304.27
552.01	283.20
552.18	353.42
552.34	304.27
552.51	322.99
552.68	325.33
552.84	327.68
553.01	402.57
553.18	346.40
553.34	365.12
553.51	344.06
553.67	325.33
553.84	353.42
554.01	269.16
554.17	276.18
554.34	292.57
554.51	318.31
554.67	318.31
554.84	297.25
555.00	276.18
555.17	234.05
555.33	334.70
555.50	344.06
555.67	355.76
555.83	299.59
556.00	234.05
556.16	472.79
556.33	325.33
556.50	332.36
556.66	280.86
556.83	287.89
556.99	259.80
557.16	318.31
557.32	278.52
557.49	210.65
557.65	301.93
557.82	290.23
557.98	231.71
558.15	287.89
558.32	327.68
558.48	234.05
558.65	224.69
558.81	294.91
558.98	273.84
559.14	301.93
559.31	372.15
559.47	292.57
559.64	318.31
559.80	283.20
559.97	290.23
560.13	330.02
560.30	285.55
560.46	259.80
560.63	236.39
560.79	301.93
560.96	210.65
561.12	231.71
561.29	262.14
561.45	278.52
561.61	304.27
561.78	292.57
561.94	313.63
562.11	234.05
562.27	215.33
562.44	231.71
562.60	276.18
562.77	283.20
562.93	308.95
563.10	294.91
563.26	304.27
563.42	220.01
563.59	337.04
563.75	290.23
563.92	262.14
564.08	257.46
564.24	243.42
564.41	248.10
564.57	280.86
564.74	266.82
564.90	315.97
565.07	264.48
565.23	262.14
565.39	290.23
565.56	372.15
565.72	255.12
565.88	290.23
566.05	339.38
566.21	198.95
566.38	311.29
566.54	208.31
566.70	299.59
566.87	311.29
567.03	283.20
567.19	238.73
567.36	234.05
567.52	248.10
567.68	337.04
567.85	292.57
568.01	255.12
568.17	276.18
568.34	262.14
568.50	311.29
568.66	266.82
568.83	341.72
568.99	215.33
569.15	376.83
569.32	301.93
569.48	175.54
569.64	250.44
569.81	266.82
569.97	203.63
570.13	241.08
570.30	252.78
570.46	243.42
570.62	304.27
570.78	234.05
570.95	280.86
571.11	322.99
571.27	365.12
571.43	215.33
571.60	311.29
571.76	273.84
571.92	308.95
572.09	285.55
572.25	266.82
572.41	292.57
572.57	222.35
572.74	367.46
572.90	287.89
573.06	273.84
573.22	292.57
573.38	294.91
573.55	292.57
573.71	313.63
573.87	315.97
574.03	348.74
574.20	311.29
574.36	402.57
574.52	313.63
574.68	376.83
574.84	381.51
575.01	311.29
575.17	322.99
575.33	241.08
575.49	313.63
575.65	376.83
575.82	395.55
575.98	627.26
576.14	814.51
576.30	760.67
576.46	800.46
576.62	643.65
576.79	606.20
576.95	421.30
577.11	388.53
577.27	227.03
577.43	308.95
577.59	358.10
577.75	346.40
577.92	290.23
578.08	334.70
578.24	325.33
578.40	372.15
578.56	425.98
578.72	566.41
578.88	554.71
579.04	447.04
579.21	379.17
579.37	381.51
579.53	341.72
579.69	416.62
579.85	390.87
580.01	514.92
580.17	433.00
580.33	407.25
580.49	362.78
580.65	430.66
580.82	337.04
580.98	360.44
581.14	339.38
581.30	477.47
581.46	465.77
581.62	627.26
581.78	760.67
581.94	641.31
582.10	594.50
582.26	559.39
582.42	486.83
582.58	566.41
582.74	552.37
582.90	585.13
583.06	500.87
583.22	533.64
583.38	550.03
583.54	571.09
583.70	730.25
583.86	755.99
584.02	828.55
584.18	1050.90
584.34	1423.05
584.50	3258.03
584.66	24201.14
584.82	56577.77
584.98	65474.15
585.14	62513.37
585.30	48119.07
585.46	29762.25
585.62	18452.78
585.78	8528.91
585.94	3297.81
586.10	1764.76
586.26	1041.54
586.42	915.15
586.58	791.10
586.74	744.29
586.90	725.57
587.06	697.48
587.22	685.78
587.38	699.82
587.54	1299.00
587.70	3534.21
587.86	5820.91
588.02	6443.49
588.18	4559.36
588.34	2944.39
588.49	1987.11
588.65	1228.78
588.81	697.48
588.97	437.68
589.13	454.06
589.29	376.83
589.45	358.10
589.61	393.21
589.77	505.56
589.93	475.13
590.08	514.92
590.24	566.41
590.40	503.22
590.56	454.06
590.72	484.49
590.88	465.77
591.04	444.70
591.20	433.00
591.35	440.02
591.51	458.74
591.67	339.38
591.83	383.85
591.99	332.36
592.15	423.64
592.31	393.21
592.46	353.42
592.62	411.93
592.78	433.00
592.94	376.83
593.10	416.62
593.26	433.00
593.41	454.06
593.57	484.49
593.73	657.69
593.89	3021.63
594.05	7494.40
594.20	11171.38
594.36	10501.98
594.52	6899.90
594.68	4379.14
594.84	2946.73
594.99	1720.29
595.15	898.77
595.31	540.66
595.47	526.62
595.62	381.51
595.78	327.68
595.94	379.17
596.10	423.64
596.25	404.91
596.41	425.98
596.57	395.55
596.73	402.57
596.88	580.45
597.04	1643.06
597.20	2497.35
597.36	2818.00
597.51	2221.17
597.67	1423.05
597.83	987.71
597.99	781.74
598.14	585.13
598.30	372.15
598.46	435.34
598.61	414.27
598.77	383.85
598.93	437.68
599.09	383.85
599.24	252.78
599.40	341.72
599.56	322.99
599.71	379.17
599.87	332.36
600.03	290.23
600.18	264.48
600.34	327.68
600.50	297.25
600.65	313.63
600.81	325.33
600.97	231.71
601.12	280.86
601.28	248.10
601.44	346.40
601.59	278.52
601.75	332.36
601.91	252.78
602.06	306.61
602.22	414.27
602.37	765.36
602.53	1774.13
602.69	2839.07
602.84	2832.05
603.00	2136.91
603.16	1549.43
603.31	1132.82
603.47	858.98
603.62	498.53
603.78	402.57
603.94	301.93
604.09	306.61
604.25	346.40
604.40	264.48
604.56	299.59
604.71	360.44
604.87	379.17
605.03	379.17
605.18	383.85
605.34	411.93
605.49	400.23
605.65	397.89
605.80	315.97
605.96	341.72
606.12	386.19
606.27	444.70
606.43	383.85
606.58	493.85
606.74	903.45
606.89	3482.72
607.05	7232.26
607.20	9207.67
607.36	7740.15
607.51	5252.16
607.67	3321.22
607.82	2368.62
607.98	1357.51
608.13	741.95
608.29	561.73
608.44	528.96
608.60	550.03
608.75	727.91
608.91	1233.46
609.06	5682.82
609.22	12505.48
609.37	16367.37
609.53	14511.32
609.68	9750.67
609.84	6335.83
609.99	4266.80
