SpectraSuite Data File
++++++++++++++++++++++++++++++++++++
Date: Fri Oct 04 11:33:57 GMT-05:00 2013
User: price-jones
Dark Spectrum Present: No
Reference Spectrum Present: No
Number of Sampled Component Spectra: 1
Spectrometers: USB2+H05261
Integration Time (usec): 100000 (USB2+H05261)
Spectra Averaged: 1 (USB2+H05261)
Boxcar Smoothing: 0 (USB2+H05261)
Correct for Electrical Dark: No (USB2+H05261)
Strobe/Lamp Enabled: No (USB2+H05261)
Correct for Detector Non-linearity: No (USB2+H05261)
Correct for Stray Light: No (USB2+H05261)
Number of Pixels in Processed Spectrum: 2048
>>>>>Begin Processed Spectral Data<<<<<
365.73	37.45
365.92	37.45
366.12	37.45
366.32	28.09
366.52	0.00
366.72	0.00
366.91	0.00
367.11	11.70
367.31	0.00
367.51	0.00
367.70	2.34
367.90	0.00
368.10	0.00
368.30	37.45
368.49	0.00
368.69	0.00
368.89	0.00
369.09	2.34
369.28	105.32
369.48	9.36
369.68	0.00
369.87	46.81
370.07	46.81
370.27	112.35
370.47	117.03
370.66	7.02
370.86	98.30
371.06	84.26
371.25	124.05
371.45	67.88
371.65	173.20
371.84	100.64
372.04	84.26
372.24	117.03
372.44	142.77
372.63	159.16
372.83	163.84
373.03	124.05
373.22	203.63
373.42	135.75
373.62	124.05
373.81	149.79
374.01	105.32
374.21	166.18
374.40	119.37
374.60	184.90
374.79	182.56
374.99	30.43
375.19	154.48
375.38	229.37
375.58	163.84
375.78	194.26
375.97	163.84
376.17	273.84
376.37	201.29
376.56	128.73
376.76	180.22
376.95	126.39
377.15	159.16
377.35	184.90
377.54	65.54
377.74	142.77
377.93	114.69
378.13	100.64
378.33	145.11
378.52	121.71
378.72	208.31
378.91	180.22
379.11	117.03
379.31	152.13
379.50	145.11
379.70	173.20
379.89	117.03
380.09	128.73
380.28	170.86
380.48	131.07
380.68	102.98
380.87	145.11
381.07	154.48
381.26	156.82
381.46	95.96
381.65	168.52
381.85	128.73
382.04	119.37
382.24	119.37
382.43	142.77
382.63	117.03
382.83	77.24
383.02	133.41
383.22	184.90
383.41	173.20
383.61	117.03
383.80	163.84
384.00	173.20
384.19	156.82
384.39	124.05
384.58	152.13
384.78	112.35
384.97	156.82
385.17	110.01
385.36	131.07
385.56	163.84
385.75	105.32
385.95	107.66
386.14	65.54
386.34	133.41
386.53	149.79
386.72	112.35
386.92	161.50
387.11	189.58
387.31	121.71
387.50	142.77
387.70	70.22
387.89	198.95
388.09	107.66
388.28	128.73
388.48	145.11
388.67	198.95
388.86	79.58
389.06	208.31
389.25	166.18
389.45	140.43
389.64	124.05
389.84	166.18
390.03	170.86
390.22	128.73
390.42	131.07
390.61	119.37
390.81	126.39
391.00	100.64
391.19	149.79
391.39	173.20
391.58	201.29
391.78	105.32
391.97	177.88
392.16	124.05
392.36	180.22
392.55	210.65
392.75	79.58
392.94	159.16
393.13	196.60
393.33	117.03
393.52	170.86
393.71	170.86
393.91	154.48
394.10	88.94
394.29	182.56
394.49	163.84
394.68	194.26
394.88	189.58
395.07	189.58
395.26	208.31
395.46	229.37
395.65	114.69
395.84	131.07
396.04	205.97
396.23	124.05
396.42	107.66
396.62	107.66
396.81	166.18
397.00	140.43
397.19	102.98
397.39	163.84
397.58	133.41
397.77	152.13
397.97	126.39
398.16	177.88
398.35	124.05
398.55	194.26
398.74	81.92
398.93	184.90
399.12	159.16
399.32	124.05
399.51	86.60
399.70	220.01
399.90	182.56
400.09	168.52
400.28	114.69
400.47	154.48
400.67	121.71
400.86	161.50
401.05	182.56
401.24	133.41
401.44	173.20
401.63	156.82
401.82	149.79
402.01	161.50
402.21	105.32
402.40	154.48
402.59	117.03
402.78	117.03
402.97	77.24
403.17	196.60
403.36	231.71
403.55	173.20
403.74	117.03
403.93	154.48
404.13	189.58
404.32	215.33
404.51	194.26
404.70	198.95
404.89	208.31
405.09	264.48
405.28	152.13
405.47	152.13
405.66	161.50
405.85	133.41
406.05	112.35
406.24	149.79
406.43	175.54
406.62	135.75
406.81	142.77
407.00	177.88
407.20	161.50
407.39	105.32
407.58	159.16
407.77	163.84
407.96	194.26
408.15	159.16
408.34	163.84
408.54	156.82
408.73	121.71
408.92	154.48
409.11	210.65
409.30	170.86
409.49	170.86
409.68	168.52
409.87	217.67
410.07	147.45
410.26	212.99
410.45	152.13
410.64	133.41
410.83	100.64
411.02	124.05
411.21	156.82
411.40	175.54
411.59	159.16
411.78	135.75
411.98	145.11
412.17	154.48
412.36	142.77
412.55	156.82
412.74	138.09
412.93	224.69
413.12	91.28
413.31	163.84
413.50	168.52
413.69	126.39
413.88	194.26
414.07	105.32
414.26	175.54
414.45	152.13
414.64	159.16
414.83	114.69
415.02	133.41
415.22	294.91
415.41	248.10
415.60	166.18
415.79	133.41
415.98	236.39
416.17	161.50
416.36	114.69
416.55	128.73
416.74	170.86
416.93	131.07
417.12	131.07
417.31	173.20
417.50	189.58
417.69	149.79
417.88	161.50
418.07	163.84
418.26	114.69
418.45	231.71
418.64	313.63
418.83	177.88
419.02	257.46
419.21	222.35
419.39	133.41
419.58	135.75
419.77	220.01
419.96	163.84
420.15	322.99
420.34	198.95
420.53	173.20
420.72	205.97
420.91	149.79
421.10	117.03
421.29	220.01
421.48	140.43
421.67	142.77
421.86	117.03
422.05	187.24
422.24	201.29
422.43	257.46
422.61	163.84
422.80	124.05
422.99	131.07
423.18	222.35
423.37	187.24
423.56	147.45
423.75	189.58
423.94	110.01
424.13	110.01
424.32	121.71
424.50	159.16
424.69	161.50
424.88	168.52
425.07	142.77
425.26	156.82
425.45	285.55
425.64	269.16
425.83	135.75
426.01	217.67
426.20	196.60
426.39	93.62
426.58	128.73
426.77	203.63
426.96	273.84
427.15	145.11
427.33	175.54
427.52	255.12
427.71	133.41
427.90	163.84
428.09	198.95
428.28	107.66
428.46	243.42
428.65	273.84
428.84	145.11
429.03	203.63
429.22	166.18
429.40	156.82
429.59	60.85
429.78	220.01
429.97	175.54
430.16	138.09
430.34	203.63
430.53	163.84
430.72	170.86
430.91	194.26
431.10	138.09
431.28	154.48
431.47	140.43
431.66	187.24
431.85	159.16
432.03	168.52
432.22	262.14
432.41	140.43
432.60	257.46
432.79	138.09
432.97	248.10
433.16	255.12
433.35	264.48
433.54	212.99
433.72	252.78
433.91	138.09
434.10	166.18
434.28	203.63
434.47	245.76
434.66	212.99
434.85	138.09
435.03	229.37
435.22	341.72
435.41	353.42
435.59	454.06
435.78	388.53
435.97	231.71
436.16	203.63
436.34	198.95
436.53	222.35
436.72	173.20
436.90	196.60
437.09	243.42
437.28	166.18
437.46	198.95
437.65	159.16
437.84	142.77
438.02	95.96
438.21	198.95
438.40	142.77
438.58	222.35
438.77	269.16
438.96	196.60
439.14	241.08
439.33	203.63
439.52	177.88
439.70	152.13
439.89	152.13
440.08	159.16
440.26	98.30
440.45	203.63
440.63	135.75
440.82	154.48
441.01	175.54
441.19	140.43
441.38	140.43
441.57	117.03
441.75	184.90
441.94	177.88
442.12	227.03
442.31	269.16
442.50	243.42
442.68	257.46
442.87	135.75
443.05	170.86
443.24	198.95
443.43	194.26
443.61	217.67
443.80	177.88
443.98	187.24
444.17	203.63
444.35	182.56
444.54	133.41
444.73	205.97
444.91	159.16
445.10	210.65
445.28	220.01
445.47	222.35
445.65	168.52
445.84	175.54
446.02	131.07
446.21	212.99
446.39	259.80
446.58	187.24
446.77	231.71
446.95	154.48
447.14	182.56
447.32	198.95
447.51	229.37
447.69	112.35
447.88	152.13
448.06	198.95
448.25	194.26
448.43	152.13
448.62	224.69
448.80	182.56
448.99	208.31
449.17	159.16
449.36	201.29
449.54	215.33
449.73	180.22
449.91	311.29
450.10	131.07
450.28	212.99
450.46	215.33
450.65	191.92
450.83	173.20
451.02	166.18
451.20	241.08
451.39	241.08
451.57	191.92
451.76	198.95
451.94	227.03
452.13	205.97
452.31	121.71
452.49	222.35
452.68	224.69
452.86	119.37
453.05	271.50
453.23	248.10
453.42	189.58
453.60	194.26
453.78	201.29
453.97	142.77
454.15	166.18
454.34	175.54
454.52	138.09
454.70	166.18
454.89	217.67
455.07	170.86
455.26	205.97
455.44	201.29
455.62	210.65
455.81	259.80
455.99	182.56
456.17	163.84
456.36	159.16
456.54	177.88
456.73	163.84
456.91	166.18
457.09	215.33
457.28	201.29
457.46	107.66
457.64	222.35
457.83	168.52
458.01	140.43
458.19	173.20
458.38	224.69
458.56	212.99
458.74	222.35
458.93	187.24
459.11	210.65
459.29	128.73
459.48	128.73
459.66	208.31
459.84	220.01
460.03	372.15
460.21	187.24
460.39	203.63
460.57	208.31
460.76	145.11
460.94	177.88
461.12	234.05
461.31	252.78
461.49	212.99
461.67	201.29
461.85	175.54
462.04	205.97
462.22	685.78
462.40	205.97
462.59	250.44
462.77	187.24
462.95	142.77
463.13	154.48
463.32	255.12
463.50	252.78
463.68	238.73
463.86	175.54
464.05	168.52
464.23	205.97
464.41	238.73
464.59	177.88
464.78	227.03
464.96	149.79
465.14	243.42
465.32	196.60
465.50	166.18
465.69	201.29
465.87	231.71
466.05	238.73
466.23	98.30
466.41	180.22
466.60	135.75
466.78	159.16
466.96	255.12
467.14	175.54
467.32	210.65
467.51	245.76
467.69	166.18
467.87	198.95
468.05	114.69
468.23	224.69
468.41	217.67
468.60	175.54
468.78	205.97
468.96	173.20
469.14	182.56
469.32	173.20
469.50	194.26
469.69	182.56
469.87	217.67
470.05	191.92
470.23	238.73
470.41	166.18
470.59	166.18
470.77	159.16
470.95	220.01
471.14	224.69
471.32	215.33
471.50	245.76
471.68	257.46
471.86	177.88
472.04	184.90
472.22	154.48
472.40	142.77
472.58	238.73
472.77	184.90
472.95	152.13
473.13	173.20
473.31	234.05
473.49	177.88
473.67	126.39
473.85	142.77
474.03	187.24
474.21	198.95
474.39	208.31
474.57	198.95
474.75	163.84
474.93	145.11
475.12	182.56
475.30	142.77
475.48	161.50
475.66	210.65
475.84	142.77
476.02	159.16
476.20	149.79
476.38	187.24
476.56	248.10
476.74	194.26
476.92	217.67
477.10	217.67
477.28	250.44
477.46	220.01
477.64	255.12
477.82	227.03
478.00	147.45
478.18	173.20
478.36	238.73
478.54	248.10
478.72	182.56
478.90	217.67
479.08	189.58
479.26	187.24
479.44	227.03
479.62	182.56
479.80	212.99
479.98	259.80
480.16	227.03
480.34	290.23
480.52	231.71
480.70	175.54
480.88	205.97
481.06	238.73
481.24	175.54
481.41	187.24
481.59	283.20
481.77	210.65
481.95	236.39
482.13	278.52
482.31	262.14
482.49	243.42
482.67	248.10
482.85	201.29
483.03	238.73
483.21	217.67
483.39	191.92
483.57	245.76
483.74	346.40
483.92	252.78
484.10	229.37
484.28	224.69
484.46	292.57
484.64	283.20
484.82	159.16
485.00	250.44
485.18	210.65
485.35	245.76
485.53	238.73
485.71	278.52
485.89	212.99
486.07	222.35
486.25	280.86
486.43	318.31
486.61	257.46
486.78	278.52
486.96	285.55
487.14	248.10
487.32	243.42
487.50	285.55
487.68	269.16
487.85	184.90
488.03	208.31
488.21	308.95
488.39	238.73
488.57	205.97
488.75	187.24
488.92	491.51
489.10	243.42
489.28	294.91
489.46	301.93
489.64	262.14
489.81	173.20
489.99	208.31
490.17	257.46
490.35	322.99
490.53	243.42
490.70	266.82
490.88	259.80
491.06	264.48
491.24	220.01
491.41	257.46
491.59	273.84
491.77	222.35
491.95	264.48
492.13	259.80
492.30	229.37
492.48	252.78
492.66	231.71
492.84	215.33
493.01	266.82
493.19	215.33
493.37	252.78
493.54	257.46
493.72	227.03
493.90	201.29
494.08	222.35
494.25	313.63
494.43	278.52
494.61	241.08
494.79	177.88
494.96	126.39
495.14	250.44
495.32	262.14
495.49	252.78
495.67	365.12
495.85	250.44
496.02	271.50
496.20	231.71
496.38	241.08
496.55	255.12
496.73	229.37
496.91	252.78
497.09	215.33
497.26	236.39
497.44	278.52
497.62	227.03
497.79	278.52
497.97	208.31
498.14	224.69
498.32	264.48
498.50	236.39
498.67	262.14
498.85	294.91
499.03	259.80
499.20	269.16
499.38	304.27
499.56	252.78
499.73	301.93
499.91	327.68
500.08	283.20
500.26	173.20
500.44	229.37
500.61	205.97
500.79	294.91
500.97	287.89
501.14	264.48
501.32	248.10
501.49	273.84
501.67	212.99
501.84	297.25
502.02	262.14
502.20	222.35
502.37	231.71
502.55	215.33
502.72	271.50
502.90	278.52
503.07	238.73
503.25	266.82
503.43	278.52
503.60	248.10
503.78	227.03
503.95	271.50
504.13	236.39
504.30	205.97
504.48	273.84
504.65	212.99
504.83	327.68
505.01	201.29
505.18	140.43
505.36	222.35
505.53	259.80
505.71	280.86
505.88	271.50
506.06	252.78
506.23	255.12
506.41	191.92
506.58	266.82
506.76	264.48
506.93	287.89
507.11	259.80
507.28	285.55
507.46	257.46
507.63	220.01
507.81	231.71
507.98	266.82
508.16	220.01
508.33	250.44
508.50	250.44
508.68	266.82
508.85	250.44
509.03	217.67
509.20	248.10
509.38	273.84
509.55	304.27
509.73	304.27
509.90	241.08
510.08	234.05
510.25	332.36
510.42	191.92
510.60	283.20
510.77	351.08
510.95	315.97
511.12	306.61
511.30	299.59
511.47	372.15
511.64	280.86
511.82	278.52
511.99	250.44
512.17	217.67
512.34	266.82
512.51	236.39
512.69	262.14
512.86	278.52
513.04	217.67
513.21	273.84
513.38	224.69
513.56	252.78
513.73	259.80
513.90	250.44
514.08	227.03
514.25	259.80
514.43	248.10
514.60	187.24
514.77	215.33
514.95	238.73
515.12	217.67
515.29	245.76
515.47	276.18
515.64	271.50
515.81	276.18
515.99	252.78
516.16	297.25
516.33	231.71
516.51	276.18
516.68	231.71
516.85	175.54
517.03	308.95
517.20	222.35
517.37	248.10
517.54	285.55
517.72	353.42
517.89	105.32
518.06	175.54
518.24	252.78
518.41	269.16
518.58	285.55
518.75	231.71
518.93	294.91
519.10	280.86
519.27	297.25
519.45	271.50
519.62	229.37
519.79	376.83
519.96	245.76
520.14	220.01
520.31	287.89
520.48	322.99
520.65	243.42
520.83	351.08
521.00	269.16
521.17	266.82
521.34	290.23
521.52	156.82
521.69	273.84
521.86	210.65
522.03	262.14
522.20	330.02
522.38	224.69
522.55	304.27
522.72	224.69
522.89	259.80
523.07	285.55
523.24	337.04
523.41	280.86
523.58	255.12
523.75	278.52
523.92	297.25
524.10	337.04
524.27	269.16
524.44	182.56
524.61	287.89
524.78	257.46
524.96	301.93
525.13	224.69
525.30	234.05
525.47	290.23
525.64	224.69
525.81	320.65
525.98	205.97
526.16	257.46
526.33	278.52
526.50	234.05
526.67	306.61
526.84	259.80
527.01	266.82
527.18	222.35
527.36	243.42
527.53	271.50
527.70	351.08
527.87	241.08
528.04	290.23
528.21	276.18
528.38	273.84
528.55	262.14
528.72	297.25
528.89	285.55
529.07	212.99
529.24	285.55
529.41	325.33
529.58	325.33
529.75	294.91
529.92	252.78
530.09	224.69
530.26	313.63
530.43	299.59
530.60	245.76
530.77	276.18
530.94	301.93
531.11	264.48
531.28	290.23
531.46	266.82
531.63	236.39
531.80	191.92
531.97	297.25
532.14	290.23
532.31	322.99
532.48	257.46
532.65	308.95
532.82	327.68
532.99	376.83
533.16	252.78
533.33	315.97
533.50	332.36
533.67	266.82
533.84	339.38
534.01	395.55
534.18	315.97
534.35	346.40
534.52	327.68
534.69	315.97
534.86	264.48
535.03	327.68
535.20	266.82
535.37	372.15
535.54	243.42
535.71	297.25
535.88	290.23
536.05	262.14
536.22	325.33
536.38	330.02
536.55	353.42
536.72	362.78
536.89	292.57
537.06	299.59
537.23	184.90
537.40	297.25
537.57	222.35
537.74	259.80
537.91	318.31
538.08	362.78
538.25	250.44
538.42	348.74
538.59	369.80
538.75	360.44
538.92	255.12
539.09	414.27
539.26	388.53
539.43	472.79
539.60	973.66
539.77	1191.33
539.94	1039.20
540.11	805.14
540.28	620.24
540.44	472.79
540.61	463.43
540.78	402.57
540.95	477.47
541.12	507.90
541.29	484.49
541.46	571.09
541.62	610.88
541.79	514.92
541.96	449.38
542.13	521.94
542.30	526.62
542.47	535.98
542.63	477.47
542.80	477.47
542.97	395.55
543.14	400.23
543.31	465.77
543.48	496.19
543.64	507.90
543.81	547.69
543.98	507.90
544.15	381.51
544.32	505.56
544.48	404.91
544.65	482.15
544.82	538.32
544.99	402.57
545.16	493.85
545.32	411.93
545.49	629.60
545.66	875.36
545.83	940.90
546.00	826.21
546.16	662.37
546.33	557.05
546.50	526.62
546.67	428.32
546.83	404.91
547.00	430.66
547.17	423.64
547.34	409.59
547.50	381.51
547.67	362.78
547.84	311.29
548.00	428.32
548.17	437.68
548.34	482.15
548.51	311.29
548.67	440.02
548.84	390.87
549.01	411.93
549.18	358.10
549.34	334.70
549.51	325.33
549.68	358.10
549.84	353.42
550.01	311.29
550.18	458.74
550.34	341.72
550.51	402.57
550.68	425.98
550.84	285.55
551.01	351.08
551.18	318.31
551.34	304.27
551.51	381.51
551.68	271.50
551.84	325.33
552.01	290.23
552.18	287.89
552.34	301.93
552.51	311.29
552.68	311.29
552.84	285.55
553.01	278.52
553.18	292.57
553.34	292.57
553.51	341.72
553.67	205.97
553.84	372.15
554.01	292.57
554.17	327.68
554.34	238.73
554.51	287.89
554.67	212.99
554.84	318.31
555.00	322.99
555.17	322.99
555.33	313.63
555.50	297.25
555.67	337.04
555.83	248.10
556.00	308.95
556.16	351.08
556.33	271.50
556.50	248.10
556.66	311.29
556.83	255.12
556.99	262.14
557.16	269.16
557.32	285.55
557.49	220.01
557.65	243.42
557.82	259.80
557.98	297.25
558.15	257.46
558.32	301.93
558.48	269.16
558.65	262.14
558.81	308.95
558.98	234.05
559.14	327.68
559.31	222.35
559.47	287.89
559.64	182.56
559.80	243.42
559.97	278.52
560.13	266.82
560.30	229.37
560.46	262.14
560.63	241.08
560.79	280.86
560.96	250.44
561.12	252.78
561.29	271.50
561.45	278.52
561.61	294.91
561.78	285.55
561.94	264.48
562.11	252.78
562.27	292.57
562.44	212.99
562.60	243.42
562.77	252.78
562.93	365.12
563.10	210.65
563.26	287.89
563.42	353.42
563.59	252.78
563.75	208.31
563.92	264.48
564.08	273.84
564.24	299.59
564.41	280.86
564.57	205.97
564.74	271.50
564.90	297.25
565.07	220.01
565.23	255.12
565.39	355.76
565.56	320.65
565.72	259.80
565.88	255.12
566.05	236.39
566.21	330.02
566.38	255.12
566.54	294.91
566.70	189.58
566.87	266.82
567.03	308.95
567.19	280.86
567.36	334.70
567.52	297.25
567.68	245.76
567.85	273.84
568.01	273.84
568.17	243.42
568.34	227.03
568.50	297.25
568.66	280.86
568.83	355.76
568.99	238.73
569.15	358.10
569.32	191.92
569.48	262.14
569.64	212.99
569.81	294.91
569.97	220.01
570.13	287.89
570.30	273.84
570.46	252.78
570.62	285.55
570.78	236.39
570.95	191.92
571.11	224.69
571.27	170.86
571.43	217.67
571.60	283.20
571.76	348.74
571.92	367.46
572.09	294.91
572.25	306.61
572.41	229.37
572.57	313.63
572.74	313.63
572.90	285.55
573.06	280.86
573.22	271.50
573.38	208.31
573.55	262.14
573.71	266.82
573.87	234.05
574.03	245.76
574.20	304.27
574.36	390.87
574.52	325.33
574.68	379.17
574.84	278.52
575.01	308.95
575.17	297.25
575.33	266.82
575.49	322.99
575.65	252.78
575.82	369.80
575.98	470.45
576.14	545.34
576.30	599.18
576.46	568.75
576.62	500.87
576.79	500.87
576.95	418.96
577.11	365.12
577.27	318.31
577.43	294.91
577.59	355.76
577.75	292.57
577.92	278.52
578.08	252.78
578.24	278.52
578.40	334.70
578.56	402.57
578.72	444.70
578.88	397.89
579.04	393.21
579.21	365.12
579.37	273.84
579.53	276.18
579.69	322.99
579.85	290.23
580.01	383.85
580.17	299.59
580.33	411.93
580.49	358.10
580.65	383.85
580.82	348.74
580.98	372.15
581.14	365.12
581.30	383.85
581.46	428.32
581.62	505.56
581.78	411.93
581.94	594.50
582.10	409.59
582.26	411.93
582.42	447.04
582.58	484.49
582.74	538.32
582.90	360.44
583.06	393.21
583.22	411.93
583.38	472.79
583.54	447.04
583.70	561.73
583.86	596.84
584.02	575.77
584.18	739.61
584.34	926.85
584.50	2181.38
584.66	15077.73
584.82	38492.45
584.98	49958.73
585.14	45289.37
585.30	28573.26
585.46	17238.05
585.62	10834.34
585.78	4978.32
585.94	2143.93
586.10	1132.82
586.26	828.55
586.42	737.27
586.58	559.39
586.74	599.18
586.90	571.09
587.06	629.60
587.22	538.32
587.38	479.81
587.54	940.90
587.70	2340.54
587.86	3499.10
588.02	3805.71
588.18	2670.55
588.34	1804.55
588.49	1289.64
588.65	816.85
588.81	526.62
588.97	449.38
589.13	337.04
589.29	327.68
589.45	376.83
589.61	397.89
589.77	367.46
589.93	304.27
590.08	379.17
590.24	374.49
590.40	433.00
590.56	390.87
590.72	344.06
590.88	358.10
591.04	334.70
591.20	327.68
591.35	372.15
591.51	266.82
591.67	365.12
591.83	337.04
591.99	351.08
592.15	353.42
592.31	332.36
592.46	341.72
592.62	339.38
592.78	348.74
592.94	341.72
593.10	393.21
593.26	351.08
593.41	411.93
593.57	491.51
593.73	444.70
593.89	1970.73
594.05	4699.80
594.20	6415.41
594.36	6118.16
594.52	4060.83
594.68	2602.68
594.84	1727.32
594.99	1015.79
595.15	582.79
595.31	430.66
595.47	407.25
595.62	330.02
595.78	294.91
595.94	365.12
596.10	304.27
596.25	379.17
596.41	379.17
596.57	348.74
596.73	386.19
596.88	484.49
597.04	1046.22
597.20	1516.67
597.36	1682.85
597.51	1242.82
597.67	961.96
597.83	683.44
597.99	638.97
598.14	444.70
598.30	374.49
598.46	325.33
598.61	262.14
598.77	320.65
598.93	311.29
599.09	372.15
599.24	379.17
599.40	325.33
599.56	372.15
599.71	299.59
599.87	283.20
600.03	299.59
600.18	292.57
600.34	332.36
600.50	273.84
600.65	269.16
600.81	292.57
600.97	269.16
601.12	257.46
601.28	346.40
601.44	320.65
601.59	245.76
601.75	397.89
601.91	304.27
602.06	264.48
602.22	381.51
602.37	566.41
602.53	1212.40
602.69	1739.02
602.84	1626.67
603.00	1352.83
603.16	1043.88
603.31	755.99
603.47	468.11
603.62	325.33
603.78	395.55
603.94	287.89
604.09	304.27
604.25	290.23
604.40	304.27
604.56	297.25
604.71	236.39
604.87	304.27
605.03	388.53
605.18	243.42
605.34	283.20
605.49	327.68
605.65	308.95
605.80	238.73
605.96	290.23
606.12	358.10
606.27	372.15
606.43	344.06
606.58	423.64
606.74	671.73
606.89	2282.02
607.05	4444.68
607.20	5673.46
607.36	4571.07
607.51	3227.60
607.67	2087.76
607.82	1483.90
607.98	849.61
608.13	552.37
608.29	475.13
608.44	451.72
608.60	425.98
608.75	397.89
608.91	999.41
609.06	3576.34
609.22	7368.01
609.37	9415.98
609.53	7995.27
609.68	5556.43
609.84	3747.20
609.99	2569.91
610.15	1528.37
