SpectraSuite Data File
++++++++++++++++++++++++++++++++++++
Date: Fri Oct 04 11:33:49 GMT-05:00 2013
User: price-jones
Dark Spectrum Present: No
Reference Spectrum Present: No
Number of Sampled Component Spectra: 1
Spectrometers: USB2+H05261
Integration Time (usec): 100000 (USB2+H05261)
Spectra Averaged: 1 (USB2+H05261)
Boxcar Smoothing: 0 (USB2+H05261)
Correct for Electrical Dark: No (USB2+H05261)
Strobe/Lamp Enabled: No (USB2+H05261)
Correct for Detector Non-linearity: No (USB2+H05261)
Correct for Stray Light: No (USB2+H05261)
Number of Pixels in Processed Spectrum: 2048
>>>>>Begin Processed Spectral Data<<<<<
365.73	79.58
365.92	79.58
366.12	79.58
366.32	0.00
366.52	0.00
366.72	0.00
366.91	0.00
367.11	21.06
367.31	9.36
367.51	0.00
367.70	14.04
367.90	0.00
368.10	0.00
368.30	0.00
368.49	0.00
368.69	0.00
368.89	0.00
369.09	49.15
369.28	14.04
369.48	0.00
369.68	9.36
369.87	23.41
370.07	23.41
370.27	84.26
370.47	23.41
370.66	35.11
370.86	112.35
371.06	166.18
371.25	133.41
371.45	98.30
371.65	72.56
371.84	70.22
372.04	84.26
372.24	152.13
372.44	56.17
372.63	126.39
372.83	168.52
373.03	124.05
373.22	70.22
373.42	154.48
373.62	114.69
373.81	107.66
374.01	138.09
374.21	105.32
374.40	163.84
374.60	231.71
374.79	140.43
374.99	131.07
375.19	131.07
375.38	114.69
375.58	133.41
375.78	180.22
375.97	224.69
376.17	177.88
376.37	65.54
376.56	163.84
376.76	110.01
376.95	145.11
377.15	177.88
377.35	142.77
377.54	224.69
377.74	128.73
377.93	177.88
378.13	124.05
378.33	142.77
378.52	128.73
378.72	212.99
378.91	124.05
379.11	145.11
379.31	166.18
379.50	131.07
379.70	159.16
379.89	114.69
380.09	126.39
380.28	32.77
380.48	175.54
380.68	147.45
380.87	124.05
381.07	121.71
381.26	138.09
381.46	184.90
381.65	107.66
381.85	168.52
382.04	147.45
382.24	138.09
382.43	163.84
382.63	156.82
382.83	135.75
383.02	177.88
383.22	196.60
383.41	110.01
383.61	191.92
383.80	159.16
384.00	105.32
384.19	98.30
384.39	140.43
384.58	124.05
384.78	208.31
384.97	152.13
385.17	170.86
385.36	220.01
385.56	217.67
385.75	72.56
385.95	142.77
386.14	198.95
386.34	131.07
386.53	91.28
386.72	112.35
386.92	154.48
387.11	231.71
387.31	140.43
387.50	126.39
387.70	124.05
387.89	201.29
388.09	133.41
388.28	133.41
388.48	102.98
388.67	131.07
388.86	126.39
389.06	100.64
389.25	154.48
389.45	170.86
389.64	131.07
389.84	173.20
390.03	149.79
390.22	145.11
390.42	119.37
390.61	149.79
390.81	86.60
391.00	173.20
391.19	147.45
391.39	159.16
391.58	147.45
391.78	149.79
391.97	147.45
392.16	187.24
392.36	184.90
392.55	100.64
392.75	180.22
392.94	79.58
393.13	175.54
393.33	119.37
393.52	124.05
393.71	133.41
393.91	126.39
394.10	168.52
394.29	205.97
394.49	227.03
394.68	250.44
394.88	154.48
395.07	159.16
395.26	142.77
395.46	177.88
395.65	135.75
395.84	159.16
396.04	222.35
396.23	163.84
396.42	154.48
396.62	142.77
396.81	147.45
397.00	114.69
397.19	95.96
397.39	166.18
397.58	81.92
397.77	203.63
397.97	149.79
398.16	147.45
398.35	128.73
398.55	133.41
398.74	117.03
398.93	203.63
399.12	184.90
399.32	182.56
399.51	180.22
399.70	131.07
399.90	154.48
400.09	135.75
400.28	140.43
400.47	210.65
400.67	156.82
400.86	138.09
401.05	145.11
401.24	189.58
401.44	175.54
401.63	93.62
401.82	191.92
402.01	98.30
402.21	114.69
402.40	145.11
402.59	154.48
402.78	173.20
402.97	182.56
403.17	194.26
403.36	112.35
403.55	135.75
403.74	177.88
403.93	140.43
404.13	234.05
404.32	227.03
404.51	163.84
404.70	205.97
404.89	156.82
405.09	163.84
405.28	147.45
405.47	102.98
405.66	191.92
405.85	145.11
406.05	175.54
406.24	191.92
406.43	154.48
406.62	159.16
406.81	299.59
407.00	177.88
407.20	131.07
407.39	142.77
407.58	126.39
407.77	154.48
407.96	184.90
408.15	126.39
408.34	135.75
408.54	191.92
408.73	145.11
408.92	138.09
409.11	175.54
409.30	266.82
409.49	147.45
409.68	95.96
409.87	131.07
410.07	145.11
410.26	227.03
410.45	210.65
410.64	166.18
410.83	203.63
411.02	100.64
411.21	198.95
411.40	203.63
411.59	112.35
411.78	170.86
411.98	215.33
412.17	117.03
412.36	154.48
412.55	163.84
412.74	208.31
412.93	145.11
413.12	170.86
413.31	205.97
413.50	198.95
413.69	145.11
413.88	264.48
414.07	140.43
414.26	168.52
414.45	173.20
414.64	210.65
414.83	70.22
415.02	208.31
415.22	126.39
415.41	250.44
415.60	217.67
415.79	138.09
415.98	222.35
416.17	189.58
416.36	133.41
416.55	138.09
416.74	159.16
416.93	154.48
417.12	131.07
417.31	159.16
417.50	173.20
417.69	306.61
417.88	234.05
418.07	208.31
418.26	191.92
418.45	128.73
418.64	191.92
418.83	159.16
419.02	231.71
419.21	152.13
419.39	278.52
419.58	210.65
419.77	222.35
419.96	217.67
420.15	224.69
420.34	163.84
420.53	210.65
420.72	194.26
420.91	161.50
421.10	177.88
421.29	175.54
421.48	205.97
421.67	198.95
421.86	168.52
422.05	180.22
422.24	194.26
422.43	112.35
422.61	72.56
422.80	182.56
422.99	196.60
423.18	161.50
423.37	170.86
423.56	255.12
423.75	100.64
423.94	107.66
424.13	100.64
424.32	56.17
424.50	175.54
424.69	128.73
424.88	175.54
425.07	142.77
425.26	187.24
425.45	271.50
425.64	257.46
425.83	168.52
426.01	243.42
426.20	168.52
426.39	154.48
426.58	170.86
426.77	173.20
426.96	198.95
427.15	259.80
427.33	217.67
427.52	182.56
427.71	140.43
427.90	189.58
428.09	140.43
428.28	159.16
428.46	215.33
428.65	180.22
428.84	191.92
429.03	220.01
429.22	142.77
429.40	131.07
429.59	131.07
429.78	196.60
429.97	189.58
430.16	187.24
430.34	126.39
430.53	135.75
430.72	170.86
430.91	210.65
431.10	215.33
431.28	234.05
431.47	105.32
431.66	166.18
431.85	212.99
432.03	170.86
432.22	210.65
432.41	149.79
432.60	189.58
432.79	210.65
432.97	285.55
433.16	290.23
433.35	264.48
433.54	201.29
433.72	152.13
433.91	191.92
434.10	112.35
434.28	191.92
434.47	187.24
434.66	238.73
434.85	159.16
435.03	196.60
435.22	376.83
435.41	393.21
435.59	346.40
435.78	341.72
435.97	149.79
436.16	248.10
436.34	196.60
436.53	173.20
436.72	285.55
436.90	266.82
437.09	238.73
437.28	208.31
437.46	131.07
437.65	203.63
437.84	196.60
438.02	276.18
438.21	189.58
438.40	131.07
438.58	149.79
438.77	102.98
438.96	163.84
439.14	231.71
439.33	194.26
439.52	210.65
439.70	91.28
439.89	212.99
440.08	159.16
440.26	135.75
440.45	180.22
440.63	187.24
440.82	147.45
441.01	227.03
441.19	208.31
441.38	177.88
441.57	227.03
441.75	238.73
441.94	198.95
442.12	224.69
442.31	198.95
442.50	166.18
442.68	170.86
442.87	180.22
443.05	177.88
443.24	177.88
443.43	234.05
443.61	234.05
443.80	196.60
443.98	121.71
444.17	182.56
444.35	222.35
444.54	177.88
444.73	163.84
444.91	224.69
445.10	156.82
445.28	166.18
445.47	198.95
445.65	205.97
445.84	170.86
446.02	182.56
446.21	110.01
446.39	131.07
446.58	217.67
446.77	173.20
446.95	124.05
447.14	140.43
447.32	212.99
447.51	138.09
447.69	131.07
447.88	173.20
448.06	205.97
448.25	154.48
448.43	173.20
448.62	217.67
448.80	198.95
448.99	205.97
449.17	152.13
449.36	152.13
449.54	175.54
449.73	145.11
449.91	201.29
450.10	222.35
450.28	283.20
450.46	276.18
450.65	236.39
450.83	187.24
451.02	220.01
451.20	175.54
451.39	166.18
451.57	170.86
451.76	184.90
451.94	220.01
452.13	234.05
452.31	208.31
452.49	201.29
452.68	138.09
452.86	262.14
453.05	248.10
453.23	149.79
453.42	196.60
453.60	241.08
453.78	180.22
453.97	191.92
454.15	173.20
454.34	168.52
454.52	198.95
454.70	210.65
454.89	154.48
455.07	243.42
455.26	215.33
455.44	227.03
455.62	220.01
455.81	191.92
455.99	224.69
456.17	201.29
456.36	175.54
456.54	166.18
456.73	234.05
456.91	163.84
457.09	271.50
457.28	222.35
457.46	142.77
457.64	252.78
457.83	191.92
458.01	191.92
458.19	264.48
458.38	166.18
458.56	250.44
458.74	126.39
458.93	208.31
459.11	278.52
459.29	191.92
459.48	222.35
459.66	180.22
459.84	308.95
460.03	332.36
460.21	304.27
460.39	166.18
460.57	259.80
460.76	177.88
460.94	166.18
461.12	205.97
461.31	257.46
461.49	121.71
461.67	255.12
461.85	241.08
462.04	128.73
462.22	528.96
462.40	248.10
462.59	229.37
462.77	201.29
462.95	210.65
463.13	173.20
463.32	177.88
463.50	234.05
463.68	248.10
463.86	217.67
464.05	163.84
464.23	182.56
464.41	245.76
464.59	152.13
464.78	205.97
464.96	210.65
465.14	224.69
465.32	187.24
465.50	203.63
465.69	163.84
465.87	203.63
466.05	173.20
466.23	170.86
466.41	161.50
466.60	203.63
466.78	203.63
466.96	248.10
467.14	187.24
467.32	196.60
467.51	231.71
467.69	140.43
467.87	252.78
468.05	203.63
468.23	220.01
468.41	203.63
468.60	175.54
468.78	187.24
468.96	231.71
469.14	194.26
469.32	187.24
469.50	208.31
469.69	215.33
469.87	283.20
470.05	210.65
470.23	180.22
470.41	229.37
470.59	203.63
470.77	215.33
470.95	210.65
471.14	231.71
471.32	271.50
471.50	170.86
471.68	194.26
471.86	177.88
472.04	241.08
472.22	208.31
472.40	177.88
472.58	243.42
472.77	245.76
472.95	156.82
473.13	217.67
473.31	166.18
473.49	234.05
473.67	177.88
473.85	210.65
474.03	252.78
474.21	184.90
474.39	184.90
474.57	276.18
474.75	236.39
474.93	152.13
475.12	170.86
475.30	280.86
475.48	245.76
475.66	154.48
475.84	173.20
476.02	203.63
476.20	121.71
476.38	222.35
476.56	220.01
476.74	212.99
476.92	212.99
477.10	243.42
477.28	229.37
477.46	161.50
477.64	198.95
477.82	257.46
478.00	187.24
478.18	229.37
478.36	241.08
478.54	220.01
478.72	168.52
478.90	105.32
479.08	231.71
479.26	231.71
479.44	196.60
479.62	236.39
479.80	191.92
479.98	124.05
480.16	168.52
480.34	234.05
480.52	117.03
480.70	227.03
480.88	208.31
481.06	210.65
481.24	238.73
481.41	217.67
481.59	212.99
481.77	222.35
481.95	278.52
482.13	276.18
482.31	210.65
482.49	210.65
482.67	212.99
482.85	208.31
483.03	245.76
483.21	203.63
483.39	220.01
483.57	227.03
483.74	196.60
483.92	177.88
484.10	184.90
484.28	266.82
484.46	222.35
484.64	278.52
484.82	198.95
485.00	201.29
485.18	241.08
485.35	177.88
485.53	180.22
485.71	229.37
485.89	241.08
486.07	257.46
486.25	320.65
486.43	220.01
486.61	177.88
486.78	217.67
486.96	212.99
487.14	236.39
487.32	231.71
487.50	224.69
487.68	241.08
487.85	187.24
488.03	280.86
488.21	227.03
488.39	259.80
488.57	210.65
488.75	238.73
488.92	447.04
489.10	241.08
489.28	276.18
489.46	236.39
489.64	294.91
489.81	285.55
489.99	285.55
490.17	238.73
490.35	304.27
490.53	198.95
490.70	259.80
490.88	278.52
491.06	220.01
491.24	248.10
491.41	255.12
491.59	224.69
491.77	271.50
491.95	264.48
492.13	248.10
492.30	280.86
492.48	182.56
492.66	154.48
492.84	208.31
493.01	217.67
493.19	126.39
493.37	306.61
493.54	208.31
493.72	238.73
493.90	208.31
494.08	168.52
494.25	315.97
494.43	273.84
494.61	238.73
494.79	217.67
494.96	243.42
495.14	259.80
495.32	259.80
495.49	297.25
495.67	301.93
495.85	184.90
496.02	264.48
496.20	264.48
496.38	227.03
496.55	248.10
496.73	194.26
496.91	177.88
497.09	245.76
497.26	255.12
497.44	243.42
497.62	332.36
497.79	243.42
497.97	325.33
498.14	369.80
498.32	278.52
498.50	294.91
498.67	250.44
498.85	273.84
499.03	294.91
499.20	313.63
499.38	163.84
499.56	238.73
499.73	266.82
499.91	257.46
500.08	280.86
500.26	201.29
500.44	215.33
500.61	285.55
500.79	212.99
500.97	311.29
501.14	276.18
501.32	266.82
501.49	262.14
501.67	191.92
501.84	224.69
502.02	250.44
502.20	180.22
502.37	220.01
502.55	290.23
502.72	283.20
502.90	297.25
503.07	259.80
503.25	241.08
503.43	271.50
503.60	332.36
503.78	238.73
503.95	252.78
504.13	229.37
504.30	257.46
504.48	191.92
504.65	250.44
504.83	290.23
505.01	269.16
505.18	264.48
505.36	276.18
505.53	346.40
505.71	189.58
505.88	311.29
506.06	271.50
506.23	255.12
506.41	259.80
506.58	330.02
506.76	201.29
506.93	196.60
507.11	278.52
507.28	269.16
507.46	241.08
507.63	255.12
507.81	241.08
507.98	327.68
508.16	292.57
508.33	222.35
508.50	297.25
508.68	196.60
508.85	227.03
509.03	189.58
509.20	168.52
509.38	299.59
509.55	243.42
509.73	285.55
509.90	315.97
510.08	262.14
510.25	297.25
510.42	154.48
510.60	238.73
510.77	248.10
510.95	358.10
511.12	276.18
511.30	264.48
511.47	360.44
511.64	393.21
511.82	255.12
511.99	255.12
512.17	255.12
512.34	257.46
512.51	287.89
512.69	215.33
512.86	255.12
513.04	194.26
513.21	252.78
513.38	243.42
513.56	264.48
513.73	290.23
513.90	252.78
514.08	287.89
514.25	301.93
514.43	308.95
514.60	287.89
514.77	243.42
514.95	294.91
515.12	283.20
515.29	264.48
515.47	269.16
515.64	241.08
515.81	236.39
515.99	322.99
516.16	285.55
516.33	227.03
516.51	241.08
516.68	189.58
516.85	262.14
517.03	269.16
517.20	252.78
517.37	222.35
517.54	322.99
517.72	322.99
517.89	229.37
518.06	266.82
518.24	301.93
518.41	304.27
518.58	250.44
518.75	180.22
518.93	248.10
519.10	322.99
519.27	273.84
519.45	278.52
519.62	294.91
519.79	266.82
519.96	184.90
520.14	337.04
520.31	351.08
520.48	236.39
520.65	257.46
520.83	297.25
521.00	264.48
521.17	252.78
521.34	205.97
521.52	278.52
521.69	248.10
521.86	262.14
522.03	313.63
522.20	304.27
522.38	325.33
522.55	306.61
522.72	238.73
522.89	245.76
523.07	304.27
523.24	287.89
523.41	311.29
523.58	294.91
523.75	243.42
523.92	257.46
524.10	285.55
524.27	346.40
524.44	224.69
524.61	285.55
524.78	285.55
524.96	278.52
525.13	248.10
525.30	278.52
525.47	280.86
525.64	238.73
525.81	229.37
525.98	236.39
526.16	271.50
526.33	205.97
526.50	280.86
526.67	161.50
526.84	252.78
527.01	297.25
527.18	320.65
527.36	287.89
527.53	156.82
527.70	313.63
527.87	255.12
528.04	311.29
528.21	257.46
528.38	278.52
528.55	273.84
528.72	255.12
528.89	280.86
529.07	212.99
529.24	205.97
529.41	332.36
529.58	308.95
529.75	217.67
529.92	322.99
530.09	283.20
530.26	264.48
530.43	320.65
530.60	212.99
530.77	299.59
530.94	266.82
531.11	259.80
531.28	257.46
531.46	203.63
531.63	283.20
531.80	285.55
531.97	234.05
532.14	248.10
532.31	283.20
532.48	362.78
532.65	374.49
532.82	451.72
532.99	369.80
533.16	315.97
533.33	355.76
533.50	278.52
533.67	362.78
533.84	400.23
534.01	440.02
534.18	411.93
534.35	379.17
534.52	292.57
534.69	285.55
534.86	337.04
535.03	346.40
535.20	266.82
535.37	294.91
535.54	320.65
535.71	322.99
535.88	292.57
536.05	266.82
536.22	227.03
536.38	250.44
536.55	327.68
536.72	269.16
536.89	311.29
537.06	341.72
537.23	194.26
537.40	287.89
537.57	306.61
537.74	334.70
537.91	360.44
538.08	271.50
538.25	374.49
538.42	290.23
538.59	346.40
538.75	369.80
538.92	287.89
539.09	355.76
539.26	381.51
539.43	585.13
539.60	1097.71
539.77	1816.26
539.94	1980.09
540.11	1338.79
540.28	915.15
540.44	634.29
540.61	514.92
540.78	482.15
540.95	524.28
541.12	601.52
541.29	568.75
541.46	559.39
541.62	524.28
541.79	535.98
541.96	454.06
542.13	440.02
542.30	463.43
542.47	587.47
542.63	543.00
542.80	421.30
542.97	526.62
543.14	540.66
543.31	461.09
543.48	557.05
543.64	519.60
543.81	514.92
543.98	475.13
544.15	425.98
544.32	451.72
544.48	524.28
544.65	400.23
544.82	491.51
544.99	444.70
545.16	470.45
545.32	550.03
545.49	699.82
545.66	870.68
545.83	987.71
546.00	840.25
546.16	636.63
546.33	496.19
546.50	568.75
546.67	503.22
546.83	461.09
547.00	437.68
547.17	386.19
547.34	407.25
547.50	390.87
547.67	308.95
547.84	348.74
548.00	444.70
548.17	449.38
548.34	400.23
548.51	454.06
548.67	433.00
548.84	365.12
549.01	325.33
549.18	409.59
549.34	362.78
549.51	353.42
549.68	358.10
549.84	451.72
550.01	397.89
550.18	435.34
550.34	472.79
550.51	315.97
550.68	383.85
550.84	273.84
551.01	325.33
551.18	379.17
551.34	304.27
551.51	320.65
551.68	311.29
551.84	337.04
552.01	339.38
552.18	280.86
552.34	315.97
552.51	315.97
552.68	297.25
552.84	337.04
553.01	308.95
553.18	285.55
553.34	322.99
553.51	344.06
553.67	318.31
553.84	311.29
554.01	301.93
554.17	306.61
554.34	248.10
554.51	259.80
554.67	306.61
554.84	290.23
555.00	367.46
555.17	201.29
555.33	250.44
555.50	276.18
555.67	255.12
555.83	266.82
556.00	306.61
556.16	526.62
556.33	290.23
556.50	285.55
556.66	252.78
556.83	257.46
556.99	276.18
557.16	290.23
557.32	198.95
557.49	220.01
557.65	315.97
557.82	257.46
557.98	222.35
558.15	222.35
558.32	285.55
558.48	238.73
558.65	217.67
558.81	238.73
558.98	210.65
559.14	264.48
559.31	269.16
559.47	294.91
559.64	269.16
559.80	248.10
559.97	273.84
560.13	294.91
560.30	322.99
560.46	212.99
560.63	271.50
560.79	234.05
560.96	224.69
561.12	280.86
561.29	301.93
561.45	255.12
561.61	299.59
561.78	313.63
561.94	222.35
562.11	308.95
562.27	327.68
562.44	252.78
562.60	264.48
562.77	210.65
562.93	320.65
563.10	292.57
563.26	283.20
563.42	341.72
563.59	297.25
563.75	320.65
563.92	255.12
564.08	259.80
564.24	283.20
564.41	322.99
564.57	287.89
564.74	227.03
564.90	325.33
565.07	278.52
565.23	337.04
565.39	301.93
565.56	327.68
565.72	292.57
565.88	238.73
566.05	273.84
566.21	266.82
566.38	334.70
566.54	266.82
566.70	203.63
566.87	238.73
567.03	292.57
567.19	175.54
567.36	320.65
567.52	262.14
567.68	203.63
567.85	299.59
568.01	196.60
568.17	252.78
568.34	297.25
568.50	248.10
568.66	250.44
568.83	320.65
568.99	318.31
569.15	287.89
569.32	236.39
569.48	255.12
569.64	311.29
569.81	262.14
569.97	266.82
570.13	280.86
570.30	252.78
570.46	339.38
570.62	266.82
570.78	217.67
570.95	234.05
571.11	339.38
571.27	313.63
571.43	210.65
571.60	255.12
571.76	304.27
571.92	236.39
572.09	212.99
572.25	215.33
572.41	313.63
572.57	266.82
572.74	276.18
572.90	280.86
573.06	318.31
573.22	299.59
573.38	236.39
573.55	236.39
573.71	322.99
573.87	372.15
574.03	262.14
574.20	276.18
574.36	351.08
574.52	367.46
574.68	444.70
574.84	294.91
575.01	330.02
575.17	294.91
575.33	184.90
575.49	332.36
575.65	341.72
575.82	435.34
575.98	641.31
576.14	863.66
576.30	938.55
576.46	660.03
576.62	636.63
576.79	552.37
576.95	517.26
577.11	351.08
577.27	266.82
577.43	351.08
577.59	318.31
577.75	304.27
577.92	334.70
578.08	294.91
578.24	411.93
578.40	416.62
578.56	447.04
578.72	468.11
578.88	372.15
579.04	402.57
579.21	425.98
579.37	337.04
579.53	320.65
579.69	479.81
579.85	374.49
580.01	503.22
580.17	547.69
580.33	507.90
580.49	451.72
580.65	425.98
580.82	421.30
580.98	444.70
581.14	395.55
581.30	409.59
581.46	550.03
581.62	606.20
581.78	777.06
581.94	678.76
582.10	622.58
582.26	575.77
582.42	498.53
582.58	505.56
582.74	493.85
582.90	512.58
583.06	496.19
583.22	461.09
583.38	533.64
583.54	554.71
583.70	767.70
583.86	849.61
584.02	912.81
584.18	1043.88
584.34	1446.45
584.50	3143.34
584.66	21607.83
584.82	57712.93
584.98	65535.00
585.14	65535.00
585.30	56505.21
585.46	34902.07
585.62	22064.23
585.78	10178.99
585.94	3925.08
586.10	2005.84
586.26	1172.61
586.42	971.32
586.58	856.64
586.74	751.31
586.90	772.38
587.06	683.44
587.22	678.76
587.38	777.06
587.54	1238.14
587.70	3414.84
587.86	6649.46
588.02	7712.07
588.18	5575.16
588.34	3473.36
588.49	2279.68
588.65	1409.00
588.81	737.27
588.97	559.39
589.13	404.91
589.29	428.32
589.45	409.59
589.61	322.99
589.77	346.40
589.93	521.94
590.08	571.09
590.24	521.94
590.40	578.11
590.56	547.69
590.72	454.06
590.88	447.04
591.04	444.70
591.20	414.27
591.35	468.11
591.51	409.59
591.67	381.51
591.83	383.85
591.99	407.25
592.15	416.62
592.31	381.51
592.46	393.21
592.62	444.70
592.78	362.78
592.94	376.83
593.10	491.51
593.26	465.77
593.41	496.19
593.57	430.66
593.73	645.99
593.89	2619.06
594.05	7625.47
594.20	13111.68
594.36	12650.60
594.52	8271.45
594.68	4957.25
594.84	3344.63
594.99	1860.73
595.15	858.98
595.31	500.87
595.47	461.09
595.62	341.72
595.78	409.59
595.94	365.12
596.10	468.11
596.25	449.38
596.41	393.21
596.57	440.02
596.73	395.55
596.88	603.86
597.04	1483.90
597.20	2537.14
597.36	3353.99
597.51	2487.99
597.67	1659.44
597.83	1144.52
597.99	821.53
598.14	535.98
598.30	484.49
598.46	437.68
598.61	435.34
598.77	397.89
598.93	395.55
599.09	358.10
599.24	346.40
599.40	351.08
599.56	315.97
599.71	365.12
599.87	311.29
600.03	388.53
600.18	271.50
600.34	257.46
600.50	311.29
600.65	285.55
600.81	339.38
600.97	262.14
601.12	243.42
601.28	339.38
601.44	362.78
601.59	374.49
601.75	379.17
601.91	264.48
602.06	355.76
602.22	493.85
602.37	753.65
602.53	1825.62
602.69	3033.33
602.84	3417.18
603.00	2546.50
603.16	1568.16
603.31	1270.91
603.47	889.40
603.62	449.38
603.78	322.99
603.94	337.04
604.09	341.72
604.25	301.93
604.40	304.27
604.56	374.49
604.71	362.78
604.87	315.97
605.03	276.18
605.18	332.36
605.34	290.23
605.49	433.00
605.65	376.83
605.80	297.25
605.96	376.83
606.12	320.65
606.27	360.44
606.43	400.23
606.58	444.70
606.74	877.70
606.89	3456.97
607.05	7892.29
607.20	10951.37
607.36	9160.86
607.51	6139.23
607.67	4121.68
607.82	2703.32
607.98	1607.95
608.13	842.59
608.29	643.65
608.44	573.43
608.60	645.99
608.75	578.11
608.91	1170.27
609.06	5228.76
609.22	12594.42
609.37	19456.87
609.53	17053.14
609.68	11325.85
609.84	7382.05
609.99	4978.32
