SpectraSuite Data File
++++++++++++++++++++++++++++++++++++
Date: Fri Oct 04 11:33:56 GMT-05:00 2013
User: price-jones
Dark Spectrum Present: No
Reference Spectrum Present: No
Number of Sampled Component Spectra: 1
Spectrometers: USB2+H05261
Integration Time (usec): 100000 (USB2+H05261)
Spectra Averaged: 1 (USB2+H05261)
Boxcar Smoothing: 0 (USB2+H05261)
Correct for Electrical Dark: No (USB2+H05261)
Strobe/Lamp Enabled: No (USB2+H05261)
Correct for Detector Non-linearity: No (USB2+H05261)
Correct for Stray Light: No (USB2+H05261)
Number of Pixels in Processed Spectrum: 2048
>>>>>Begin Processed Spectral Data<<<<<
365.73	95.96
365.92	95.96
366.12	95.96
366.32	14.04
366.52	0.00
366.72	0.00
366.91	0.00
367.11	0.00
367.31	30.43
367.51	0.00
367.70	0.00
367.90	0.00
368.10	0.00
368.30	0.00
368.49	11.70
368.69	60.85
368.89	0.00
369.09	0.00
369.28	0.00
369.48	0.00
369.68	23.41
369.87	51.49
370.07	4.68
370.27	49.15
370.47	84.26
370.66	93.62
370.86	81.92
371.06	112.35
371.25	121.71
371.45	77.24
371.65	145.11
371.84	63.19
372.04	102.98
372.24	177.88
372.44	91.28
372.63	98.30
372.83	117.03
373.03	145.11
373.22	107.66
373.42	140.43
373.62	163.84
373.81	187.24
374.01	194.26
374.21	138.09
374.40	124.05
374.60	215.33
374.79	196.60
374.99	180.22
375.19	208.31
375.38	191.92
375.58	77.24
375.78	159.16
375.97	177.88
376.17	252.78
376.37	170.86
376.56	222.35
376.76	91.28
376.95	124.05
377.15	112.35
377.35	154.48
377.54	114.69
377.74	166.18
377.93	138.09
378.13	161.50
378.33	210.65
378.52	166.18
378.72	250.44
378.91	154.48
379.11	110.01
379.31	131.07
379.50	135.75
379.70	79.58
379.89	248.10
380.09	133.41
380.28	49.15
380.48	175.54
380.68	184.90
380.87	138.09
381.07	112.35
381.26	107.66
381.46	159.16
381.65	124.05
381.85	91.28
382.04	100.64
382.24	131.07
382.43	107.66
382.63	133.41
382.83	140.43
383.02	255.12
383.22	142.77
383.41	168.52
383.61	152.13
383.80	81.92
384.00	74.90
384.19	114.69
384.39	110.01
384.58	135.75
384.78	110.01
384.97	210.65
385.17	205.97
385.36	147.45
385.56	205.97
385.75	128.73
385.95	187.24
386.14	205.97
386.34	91.28
386.53	147.45
386.72	112.35
386.92	112.35
387.11	159.16
387.31	152.13
387.50	81.92
387.70	133.41
387.89	154.48
388.09	168.52
388.28	91.28
388.48	124.05
388.67	70.22
388.86	100.64
389.06	173.20
389.25	198.95
389.45	133.41
389.64	124.05
389.84	175.54
390.03	189.58
390.22	93.62
390.42	77.24
390.61	121.71
390.81	121.71
391.00	184.90
391.19	112.35
391.39	95.96
391.58	189.58
391.78	154.48
391.97	135.75
392.16	138.09
392.36	215.33
392.55	166.18
392.75	128.73
392.94	126.39
393.13	184.90
393.33	114.69
393.52	102.98
393.71	212.99
393.91	170.86
394.10	175.54
394.29	147.45
394.49	142.77
394.68	114.69
394.88	184.90
395.07	149.79
395.26	201.29
395.46	135.75
395.65	161.50
395.84	131.07
396.04	250.44
396.23	175.54
396.42	170.86
396.62	163.84
396.81	147.45
397.00	187.24
397.19	203.63
397.39	74.90
397.58	166.18
397.77	95.96
397.97	95.96
398.16	74.90
398.35	163.84
398.55	145.11
398.74	138.09
398.93	131.07
399.12	72.56
399.32	79.58
399.51	102.98
399.70	191.92
399.90	170.86
400.09	168.52
400.28	119.37
400.47	126.39
400.67	98.30
400.86	119.37
401.05	159.16
401.24	215.33
401.44	124.05
401.63	117.03
401.82	145.11
402.01	93.62
402.21	91.28
402.40	124.05
402.59	133.41
402.78	126.39
402.97	159.16
403.17	147.45
403.36	133.41
403.55	133.41
403.74	140.43
403.93	198.95
404.13	280.86
404.32	271.50
404.51	168.52
404.70	81.92
404.89	156.82
405.09	184.90
405.28	138.09
405.47	168.52
405.66	170.86
405.85	145.11
406.05	163.84
406.24	86.60
406.43	196.60
406.62	182.56
406.81	210.65
407.00	187.24
407.20	227.03
407.39	175.54
407.58	175.54
407.77	81.92
407.96	135.75
408.15	107.66
408.34	248.10
408.54	191.92
408.73	175.54
408.92	166.18
409.11	196.60
409.30	161.50
409.49	135.75
409.68	163.84
409.87	145.11
410.07	145.11
410.26	119.37
410.45	79.58
410.64	135.75
410.83	191.92
411.02	107.66
411.21	131.07
411.40	184.90
411.59	175.54
411.78	212.99
411.98	86.60
412.17	93.62
412.36	196.60
412.55	201.29
412.74	170.86
412.93	205.97
413.12	121.71
413.31	196.60
413.50	194.26
413.69	112.35
413.88	255.12
414.07	170.86
414.26	159.16
414.45	173.20
414.64	184.90
414.83	187.24
415.02	201.29
415.22	117.03
415.41	166.18
415.60	159.16
415.79	215.33
415.98	163.84
416.17	149.79
416.36	145.11
416.55	170.86
416.74	177.88
416.93	212.99
417.12	198.95
417.31	140.43
417.50	198.95
417.69	231.71
417.88	138.09
418.07	238.73
418.26	194.26
418.45	220.01
418.64	163.84
418.83	227.03
419.02	175.54
419.21	248.10
419.39	245.76
419.58	250.44
419.77	203.63
419.96	173.20
420.15	194.26
420.34	259.80
420.53	173.20
420.72	180.22
420.91	194.26
421.10	149.79
421.29	201.29
421.48	166.18
421.67	220.01
421.86	210.65
422.05	133.41
422.24	224.69
422.43	187.24
422.61	100.64
422.80	180.22
422.99	203.63
423.18	212.99
423.37	159.16
423.56	229.37
423.75	187.24
423.94	102.98
424.13	140.43
424.32	159.16
424.50	163.84
424.69	173.20
424.88	236.39
425.07	180.22
425.26	236.39
425.45	229.37
425.64	196.60
425.83	224.69
426.01	224.69
426.20	156.82
426.39	177.88
426.58	142.77
426.77	145.11
426.96	170.86
427.15	182.56
427.33	142.77
427.52	208.31
427.71	177.88
427.90	203.63
428.09	154.48
428.28	170.86
428.46	168.52
428.65	168.52
428.84	231.71
429.03	184.90
429.22	138.09
429.40	196.60
429.59	152.13
429.78	217.67
429.97	173.20
430.16	184.90
430.34	205.97
430.53	128.73
430.72	182.56
430.91	149.79
431.10	140.43
431.28	133.41
431.47	250.44
431.66	224.69
431.85	212.99
432.03	198.95
432.22	252.78
432.41	166.18
432.60	163.84
432.79	283.20
432.97	248.10
433.16	217.67
433.35	184.90
433.54	168.52
433.72	175.54
433.91	196.60
434.10	224.69
434.28	166.18
434.47	177.88
434.66	189.58
434.85	166.18
435.03	231.71
435.22	365.12
435.41	423.64
435.59	381.51
435.78	337.04
435.97	177.88
436.16	180.22
436.34	215.33
436.53	142.77
436.72	255.12
436.90	224.69
437.09	131.07
437.28	177.88
437.46	156.82
437.65	238.73
437.84	154.48
438.02	170.86
438.21	198.95
438.40	180.22
438.58	184.90
438.77	154.48
438.96	194.26
439.14	163.84
439.33	215.33
439.52	145.11
439.70	159.16
439.89	159.16
440.08	208.31
440.26	229.37
440.45	215.33
440.63	149.79
440.82	177.88
441.01	187.24
441.19	189.58
441.38	198.95
441.57	133.41
441.75	262.14
441.94	236.39
442.12	220.01
442.31	203.63
442.50	170.86
442.68	138.09
442.87	119.37
443.05	208.31
443.24	163.84
443.43	222.35
443.61	180.22
443.80	145.11
443.98	121.71
444.17	245.76
444.35	187.24
444.54	212.99
444.73	156.82
444.91	135.75
445.10	105.32
445.28	236.39
445.47	208.31
445.65	184.90
445.84	142.77
446.02	210.65
446.21	163.84
446.39	161.50
446.58	184.90
446.77	191.92
446.95	166.18
447.14	149.79
447.32	248.10
447.51	196.60
447.69	222.35
447.88	175.54
448.06	145.11
448.25	198.95
448.43	168.52
448.62	166.18
448.80	194.26
448.99	203.63
449.17	191.92
449.36	102.98
449.54	203.63
449.73	128.73
449.91	227.03
450.10	215.33
450.28	217.67
450.46	208.31
450.65	154.48
450.83	194.26
451.02	180.22
451.20	191.92
451.39	161.50
451.57	161.50
451.76	156.82
451.94	201.29
452.13	266.82
452.31	156.82
452.49	173.20
452.68	173.20
452.86	100.64
453.05	241.08
453.23	159.16
453.42	194.26
453.60	121.71
453.78	212.99
453.97	212.99
454.15	187.24
454.34	222.35
454.52	189.58
454.70	252.78
454.89	210.65
455.07	107.66
455.26	159.16
455.44	201.29
455.62	177.88
455.81	166.18
455.99	222.35
456.17	187.24
456.36	210.65
456.54	147.45
456.73	117.03
456.91	220.01
457.09	257.46
457.28	229.37
457.46	245.76
457.64	191.92
457.83	159.16
458.01	210.65
458.19	227.03
458.38	180.22
458.56	152.13
458.74	133.41
458.93	217.67
459.11	205.97
459.29	133.41
459.48	222.35
459.66	231.71
459.84	203.63
460.03	208.31
460.21	175.54
460.39	212.99
460.57	234.05
460.76	217.67
460.94	238.73
461.12	189.58
461.31	208.31
461.49	177.88
461.67	203.63
461.85	243.42
462.04	201.29
462.22	678.76
462.40	238.73
462.59	287.89
462.77	170.86
462.95	177.88
463.13	156.82
463.32	220.01
463.50	205.97
463.68	278.52
463.86	198.95
464.05	229.37
464.23	222.35
464.41	229.37
464.59	198.95
464.78	212.99
464.96	156.82
465.14	170.86
465.32	161.50
465.50	236.39
465.69	212.99
465.87	131.07
466.05	257.46
466.23	187.24
466.41	191.92
466.60	217.67
466.78	187.24
466.96	126.39
467.14	170.86
467.32	184.90
467.51	138.09
467.69	229.37
467.87	177.88
468.05	168.52
468.23	227.03
468.41	212.99
468.60	168.52
468.78	229.37
468.96	177.88
469.14	243.42
469.32	187.24
469.50	194.26
469.69	177.88
469.87	175.54
470.05	224.69
470.23	194.26
470.41	191.92
470.59	163.84
470.77	191.92
470.95	217.67
471.14	280.86
471.32	257.46
471.50	187.24
471.68	229.37
471.86	264.48
472.04	175.54
472.22	255.12
472.40	276.18
472.58	203.63
472.77	217.67
472.95	212.99
473.13	243.42
473.31	243.42
473.49	205.97
473.67	210.65
473.85	196.60
474.03	280.86
474.21	198.95
474.39	191.92
474.57	208.31
474.75	166.18
474.93	248.10
475.12	182.56
475.30	241.08
475.48	194.26
475.66	187.24
475.84	196.60
476.02	210.65
476.20	273.84
476.38	194.26
476.56	245.76
476.74	241.08
476.92	175.54
477.10	142.77
477.28	234.05
477.46	243.42
477.64	196.60
477.82	159.16
478.00	224.69
478.18	187.24
478.36	198.95
478.54	217.67
478.72	184.90
478.90	170.86
479.08	287.89
479.26	208.31
479.44	166.18
479.62	189.58
479.80	194.26
479.98	248.10
480.16	166.18
480.34	194.26
480.52	201.29
480.70	205.97
480.88	142.77
481.06	124.05
481.24	145.11
481.41	194.26
481.59	262.14
481.77	229.37
481.95	210.65
482.13	273.84
482.31	276.18
482.49	203.63
482.67	238.73
482.85	280.86
483.03	264.48
483.21	227.03
483.39	173.20
483.57	292.57
483.74	215.33
483.92	276.18
484.10	227.03
484.28	283.20
484.46	264.48
484.64	245.76
484.82	297.25
485.00	187.24
485.18	243.42
485.35	287.89
485.53	182.56
485.71	229.37
485.89	152.13
486.07	229.37
486.25	227.03
486.43	189.58
486.61	255.12
486.78	248.10
486.96	196.60
487.14	243.42
487.32	177.88
487.50	266.82
487.68	315.97
487.85	269.16
488.03	292.57
488.21	280.86
488.39	203.63
488.57	330.02
488.75	292.57
488.92	477.47
489.10	229.37
489.28	334.70
489.46	220.01
489.64	198.95
489.81	215.33
489.99	285.55
490.17	255.12
490.35	248.10
490.53	292.57
490.70	224.69
490.88	304.27
491.06	201.29
491.24	304.27
491.41	332.36
491.59	257.46
491.77	269.16
491.95	187.24
492.13	203.63
492.30	194.26
492.48	231.71
492.66	217.67
492.84	208.31
493.01	259.80
493.19	222.35
493.37	315.97
493.54	266.82
493.72	257.46
493.90	248.10
494.08	280.86
494.25	290.23
494.43	262.14
494.61	234.05
494.79	304.27
494.96	271.50
495.14	224.69
495.32	248.10
495.49	278.52
495.67	241.08
495.85	285.55
496.02	250.44
496.20	215.33
496.38	308.95
496.55	217.67
496.73	292.57
496.91	205.97
497.09	248.10
497.26	205.97
497.44	287.89
497.62	184.90
497.79	215.33
497.97	259.80
498.14	252.78
498.32	191.92
498.50	369.80
498.67	313.63
498.85	198.95
499.03	217.67
499.20	255.12
499.38	294.91
499.56	210.65
499.73	313.63
499.91	243.42
500.08	255.12
500.26	205.97
500.44	315.97
500.61	257.46
500.79	264.48
500.97	238.73
501.14	229.37
501.32	215.33
501.49	322.99
501.67	243.42
501.84	283.20
502.02	177.88
502.20	266.82
502.37	252.78
502.55	229.37
502.72	168.52
502.90	236.39
503.07	330.02
503.25	224.69
503.43	227.03
503.60	278.52
503.78	231.71
503.95	266.82
504.13	168.52
504.30	262.14
504.48	276.18
504.65	257.46
504.83	299.59
505.01	311.29
505.18	248.10
505.36	243.42
505.53	234.05
505.71	231.71
505.88	273.84
506.06	313.63
506.23	245.76
506.41	217.67
506.58	238.73
506.76	252.78
506.93	262.14
507.11	189.58
507.28	259.80
507.46	220.01
507.63	294.91
507.81	241.08
507.98	280.86
508.16	292.57
508.33	205.97
508.50	341.72
508.68	241.08
508.85	175.54
509.03	248.10
509.20	187.24
509.38	297.25
509.55	264.48
509.73	243.42
509.90	262.14
510.08	276.18
510.25	210.65
510.42	294.91
510.60	245.76
510.77	252.78
510.95	311.29
511.12	327.68
511.30	224.69
511.47	334.70
511.64	276.18
511.82	334.70
511.99	290.23
512.17	290.23
512.34	175.54
512.51	161.50
512.69	283.20
512.86	262.14
513.04	311.29
513.21	290.23
513.38	271.50
513.56	229.37
513.73	220.01
513.90	283.20
514.08	177.88
514.25	304.27
514.43	283.20
514.60	308.95
514.77	271.50
514.95	161.50
515.12	205.97
515.29	248.10
515.47	210.65
515.64	229.37
515.81	224.69
515.99	294.91
516.16	257.46
516.33	259.80
516.51	273.84
516.68	269.16
516.85	231.71
517.03	231.71
517.20	248.10
517.37	243.42
517.54	245.76
517.72	292.57
517.89	271.50
518.06	208.31
518.24	250.44
518.41	231.71
518.58	299.59
518.75	257.46
518.93	184.90
519.10	334.70
519.27	234.05
519.45	234.05
519.62	187.24
519.79	241.08
519.96	243.42
520.14	266.82
520.31	278.52
520.48	203.63
520.65	234.05
520.83	231.71
521.00	334.70
521.17	306.61
521.34	283.20
521.52	313.63
521.69	266.82
521.86	334.70
522.03	278.52
522.20	299.59
522.38	245.76
522.55	229.37
522.72	227.03
522.89	325.33
523.07	283.20
523.24	292.57
523.41	308.95
523.58	280.86
523.75	306.61
523.92	220.01
524.10	241.08
524.27	222.35
524.44	224.69
524.61	266.82
524.78	294.91
524.96	299.59
525.13	327.68
525.30	353.42
525.47	346.40
525.64	278.52
525.81	248.10
525.98	276.18
526.16	280.86
526.33	182.56
526.50	283.20
526.67	299.59
526.84	271.50
527.01	294.91
527.18	285.55
527.36	231.71
527.53	222.35
527.70	248.10
527.87	241.08
528.04	266.82
528.21	245.76
528.38	311.29
528.55	346.40
528.72	238.73
528.89	334.70
529.07	299.59
529.24	304.27
529.41	367.46
529.58	252.78
529.75	276.18
529.92	276.18
530.09	264.48
530.26	376.83
530.43	245.76
530.60	292.57
530.77	271.50
530.94	299.59
531.11	248.10
531.28	231.71
531.46	175.54
531.63	269.16
531.80	292.57
531.97	301.93
532.14	245.76
532.31	355.76
532.48	280.86
532.65	308.95
532.82	351.08
532.99	365.12
533.16	313.63
533.33	409.59
533.50	299.59
533.67	344.06
533.84	339.38
534.01	409.59
534.18	430.66
534.35	383.85
534.52	262.14
534.69	322.99
534.86	337.04
535.03	318.31
535.20	259.80
535.37	308.95
535.54	297.25
535.71	262.14
535.88	264.48
536.05	327.68
536.22	292.57
536.38	189.58
536.55	264.48
536.72	341.72
536.89	285.55
537.06	332.36
537.23	365.12
537.40	348.74
537.57	348.74
537.74	287.89
537.91	379.17
538.08	325.33
538.25	383.85
538.42	294.91
538.59	320.65
538.75	306.61
538.92	341.72
539.09	437.68
539.26	367.46
539.43	596.84
539.60	983.02
539.77	1352.83
539.94	1287.29
540.11	947.92
540.28	748.97
540.44	571.09
540.61	475.13
540.78	538.32
540.95	472.79
541.12	528.96
541.29	500.87
541.46	550.03
541.62	505.56
541.79	526.62
541.96	510.24
542.13	550.03
542.30	447.04
542.47	472.79
542.63	449.38
542.80	472.79
542.97	491.51
543.14	489.17
543.31	540.66
543.48	484.49
543.64	414.27
543.81	486.83
543.98	458.74
544.15	505.56
544.32	433.00
544.48	400.23
544.65	526.62
544.82	491.51
544.99	528.96
545.16	461.09
545.32	500.87
545.49	610.88
545.66	884.72
545.83	936.21
546.00	844.93
546.16	641.31
546.33	589.82
546.50	493.85
546.67	503.22
546.83	447.04
547.00	447.04
547.17	353.42
547.34	374.49
547.50	320.65
547.67	341.72
547.84	367.46
548.00	304.27
548.17	425.98
548.34	318.31
548.51	294.91
548.67	440.02
548.84	348.74
549.01	390.87
549.18	276.18
549.34	386.19
549.51	337.04
549.68	313.63
549.84	379.17
550.01	273.84
550.18	418.96
550.34	358.10
550.51	332.36
550.68	383.85
550.84	341.72
551.01	320.65
551.18	372.15
551.34	355.76
551.51	250.44
551.68	259.80
551.84	306.61
552.01	301.93
552.18	355.76
552.34	322.99
552.51	311.29
552.68	292.57
552.84	339.38
553.01	294.91
553.18	257.46
553.34	266.82
553.51	299.59
553.67	337.04
553.84	430.66
554.01	372.15
554.17	271.50
554.34	269.16
554.51	269.16
554.67	266.82
554.84	311.29
555.00	252.78
555.17	287.89
555.33	245.76
555.50	327.68
555.67	301.93
555.83	241.08
556.00	299.59
556.16	479.81
556.33	297.25
556.50	278.52
556.66	306.61
556.83	269.16
556.99	168.52
557.16	262.14
557.32	297.25
557.49	276.18
557.65	248.10
557.82	271.50
557.98	227.03
558.15	278.52
558.32	351.08
558.48	290.23
558.65	224.69
558.81	355.76
558.98	257.46
559.14	301.93
559.31	278.52
559.47	322.99
559.64	241.08
559.80	285.55
559.97	189.58
560.13	238.73
560.30	241.08
560.46	180.22
560.63	297.25
560.79	297.25
560.96	308.95
561.12	255.12
561.29	283.20
561.45	280.86
561.61	236.39
561.78	304.27
561.94	234.05
562.11	187.24
562.27	264.48
562.44	229.37
562.60	339.38
562.77	217.67
562.93	332.36
563.10	205.97
563.26	189.58
563.42	243.42
563.59	243.42
563.75	257.46
563.92	276.18
564.08	191.92
564.24	241.08
564.41	351.08
564.57	250.44
564.74	264.48
564.90	273.84
565.07	262.14
565.23	346.40
565.39	273.84
565.56	344.06
565.72	210.65
565.88	243.42
566.05	266.82
566.21	311.29
566.38	290.23
566.54	262.14
566.70	238.73
566.87	278.52
567.03	135.75
567.19	245.76
567.36	325.33
567.52	194.26
567.68	334.70
567.85	248.10
568.01	273.84
568.17	236.39
568.34	301.93
568.50	334.70
568.66	315.97
568.83	318.31
568.99	330.02
569.15	276.18
569.32	243.42
569.48	266.82
569.64	248.10
569.81	285.55
569.97	322.99
570.13	259.80
570.30	276.18
570.46	278.52
570.62	290.23
570.78	177.88
570.95	222.35
571.11	327.68
571.27	198.95
571.43	243.42
571.60	283.20
571.76	273.84
571.92	304.27
572.09	245.76
572.25	203.63
572.41	255.12
572.57	278.52
572.74	327.68
572.90	353.42
573.06	290.23
573.22	290.23
573.38	351.08
573.55	280.86
573.71	290.23
573.87	327.68
574.03	264.48
574.20	229.37
574.36	299.59
574.52	351.08
574.68	332.36
574.84	297.25
575.01	262.14
575.17	362.78
575.33	308.95
575.49	313.63
575.65	304.27
575.82	358.10
575.98	575.77
576.14	550.03
576.30	746.63
576.46	667.05
576.62	470.45
576.79	463.43
576.95	376.83
577.11	409.59
577.27	271.50
577.43	344.06
577.59	344.06
577.75	348.74
577.92	271.50
578.08	327.68
578.24	220.01
578.40	318.31
578.56	397.89
578.72	484.49
578.88	402.57
579.04	318.31
579.21	393.21
579.37	301.93
579.53	353.42
579.69	292.57
579.85	367.46
580.01	365.12
580.17	407.25
580.33	461.09
580.49	358.10
580.65	437.68
580.82	264.48
580.98	358.10
581.14	402.57
581.30	393.21
581.46	411.93
581.62	524.28
581.78	564.07
581.94	580.45
582.10	404.91
582.26	507.90
582.42	327.68
582.58	407.25
582.74	374.49
582.90	503.22
583.06	486.83
583.22	479.81
583.38	416.62
583.54	498.53
583.70	589.82
583.86	601.52
584.02	739.61
584.18	814.51
584.34	1004.09
584.50	2621.40
584.66	18689.18
584.82	46625.81
584.98	57272.91
585.14	53668.48
585.30	36081.70
585.46	21387.82
585.62	12957.21
585.78	6202.42
585.94	2537.14
586.10	1261.55
586.26	863.66
586.42	812.17
586.58	622.58
586.74	587.47
586.90	580.45
587.06	554.71
587.22	643.65
587.38	566.41
587.54	1025.15
587.70	2670.55
587.86	4287.86
588.02	4655.33
588.18	3349.31
588.34	2204.78
588.49	1533.05
588.65	903.45
588.81	566.41
588.97	411.93
589.13	339.38
589.29	208.31
589.45	358.10
589.61	355.76
589.77	428.32
589.93	451.72
590.08	470.45
590.24	435.34
590.40	470.45
590.56	411.93
590.72	358.10
590.88	407.25
591.04	386.19
591.20	407.25
591.35	262.14
591.51	346.40
591.67	353.42
591.83	341.72
591.99	351.08
592.15	358.10
592.31	397.89
592.46	454.06
592.62	425.98
592.78	404.91
592.94	372.15
593.10	320.65
593.26	442.36
593.41	341.72
593.57	414.27
593.73	517.26
593.89	2375.64
594.05	5724.95
594.20	8107.62
594.36	7590.36
594.52	5085.98
594.68	3171.43
594.84	2176.70
594.99	1341.13
595.15	662.37
595.31	479.81
595.47	386.19
595.62	388.53
595.78	337.04
595.94	308.95
596.10	365.12
596.25	334.70
596.41	372.15
596.57	299.59
596.73	315.97
596.88	493.85
597.04	1074.31
597.20	1818.60
597.36	2118.18
597.51	1699.23
597.67	1123.46
597.83	774.72
597.99	592.16
598.14	451.72
598.30	435.34
598.46	351.08
598.61	437.68
598.77	358.10
598.93	353.42
599.09	376.83
599.24	374.49
599.40	341.72
599.56	318.31
599.71	365.12
599.87	344.06
600.03	315.97
600.18	287.89
600.34	376.83
600.50	217.67
600.65	297.25
600.81	287.89
600.97	259.80
601.12	285.55
601.28	327.68
601.44	306.61
601.59	346.40
601.75	334.70
601.91	299.59
602.06	304.27
602.22	362.78
602.37	610.88
602.53	1301.34
602.69	2146.27
602.84	2045.63
603.00	1577.52
603.16	1252.19
603.31	807.48
603.47	594.50
603.62	397.89
603.78	397.89
603.94	325.33
604.09	280.86
604.25	388.53
604.40	330.02
604.56	311.29
604.71	304.27
604.87	299.59
605.03	278.52
605.18	318.31
605.34	337.04
605.49	287.89
605.65	322.99
605.80	320.65
605.96	308.95
606.12	280.86
606.27	327.68
606.43	362.78
606.58	437.68
606.74	774.72
606.89	2736.09
607.05	5296.63
607.20	6944.37
607.36	5657.07
607.51	3798.69
607.67	2630.76
607.82	1820.94
607.98	1109.41
608.13	688.12
608.29	456.40
608.44	393.21
608.60	447.04
608.75	540.66
608.91	1083.67
609.06	4187.22
609.22	8994.68
609.37	11531.82
609.53	10310.06
609.68	7028.63
609.84	4683.41
609.99	3108.23
610.15	1877.11
