SpectraSuite Data File
++++++++++++++++++++++++++++++++++++
Date: Fri Oct 04 12:14:51 GMT-05:00 2013
User: price-jones
Dark Spectrum Present: No
Reference Spectrum Present: No
Number of Sampled Component Spectra: 1
Spectrometers: USB2+H05261
Integration Time (usec): 10000000 (USB2+H05261)
Spectra Averaged: 1 (USB2+H05261)
Boxcar Smoothing: 0 (USB2+H05261)
Correct for Electrical Dark: No (USB2+H05261)
Strobe/Lamp Enabled: No (USB2+H05261)
Correct for Detector Non-linearity: No (USB2+H05261)
Correct for Stray Light: No (USB2+H05261)
Number of Pixels in Processed Spectrum: 2048
>>>>>Begin Processed Spectral Data<<<<<
365.73	0.00
365.92	0.00
366.12	0.00
366.32	0.00
366.52	0.00
366.72	4355.74
366.91	2251.60
367.11	4201.26
367.31	3723.79
367.51	4152.11
367.70	5064.92
367.90	6656.48
368.10	4615.54
368.30	4922.15
368.49	2544.16
368.69	6298.38
368.89	4241.05
369.09	2787.58
369.28	3939.12
369.48	2370.96
369.68	3421.86
369.87	4484.47
370.07	2984.18
370.27	6682.23
370.47	4662.35
370.66	3801.03
370.86	5509.62
371.06	7815.05
371.25	9813.87
371.45	4264.46
371.65	7007.56
371.84	3550.59
372.04	3110.57
372.24	5041.51
372.44	3981.25
372.63	5530.69
372.83	8779.35
373.03	4435.32
373.22	3442.93
373.42	3609.11
373.62	4533.62
373.81	5458.13
374.01	6927.99
374.21	6633.08
374.40	4327.65
374.60	7206.51
374.79	4608.51
374.99	4414.25
375.19	5420.68
375.38	5797.51
375.58	5123.43
375.78	6864.79
375.97	6326.47
376.17	9884.08
376.37	4784.06
376.56	5841.98
376.76	3716.77
376.95	3623.15
377.15	6071.35
377.35	5694.52
377.54	5731.97
377.74	3871.25
377.93	4065.51
378.13	5413.66
378.33	7040.33
378.52	4732.56
378.72	7194.81
378.91	6445.84
379.11	4227.01
379.31	4292.54
379.50	3176.11
379.70	6977.14
379.89	6820.32
380.09	4250.41
380.28	3370.37
380.48	4793.42
380.68	3840.82
380.87	3267.39
381.07	5280.25
381.26	7669.94
381.46	6424.77
381.65	6111.14
381.85	4093.60
382.04	4610.86
382.24	5643.03
382.43	4622.56
382.63	3485.06
382.83	4383.82
383.02	6752.45
383.22	7765.90
383.41	3679.32
383.61	5018.11
383.80	4627.24
384.00	4692.77
384.19	4306.59
384.39	5219.39
384.58	4339.35
384.78	5863.04
384.97	5460.47
385.17	4903.42
385.36	4177.86
385.56	6441.15
385.75	3213.56
385.95	4716.18
386.14	6558.18
386.34	4348.72
386.53	5390.25
386.72	4086.58
386.92	7756.54
387.11	5954.32
387.31	5919.21
387.50	3882.95
387.70	3342.28
387.89	5235.78
388.09	3911.04
388.28	3660.60
388.48	3875.93
388.67	6736.06
388.86	4711.50
389.06	4545.32
389.25	5797.51
389.45	5507.28
389.64	4973.64
389.84	7398.43
390.03	6239.87
390.22	5441.75
390.42	4550.00
390.61	3590.38
390.81	3258.03
391.00	4990.02
391.19	7267.36
391.39	4814.48
391.58	6239.87
391.78	5146.84
391.97	5451.11
392.16	3588.04
392.36	7782.28
392.55	7201.83
392.75	4961.94
392.94	4131.05
393.13	6291.36
393.33	3351.65
393.52	4142.75
393.71	7662.91
393.91	5228.76
394.10	3716.77
394.29	4416.59
394.49	4709.16
394.68	6054.97
394.88	7552.91
395.07	7283.75
395.26	5282.59
395.46	5263.86
395.65	7382.05
395.84	5975.39
396.04	11754.17
396.23	4943.21
396.42	4304.25
396.62	5734.31
396.81	5994.11
397.00	5383.23
397.19	5605.58
397.39	4809.80
397.58	7981.23
397.77	4739.58
397.97	5317.70
398.16	5064.92
398.35	6726.70
398.55	4128.70
398.74	5369.19
398.93	7321.20
399.12	4716.18
399.32	6726.70
399.51	5233.44
399.70	6846.07
399.90	6293.70
400.09	6342.85
400.28	7531.84
400.47	5043.85
400.67	7253.32
400.86	5781.12
401.05	6794.58
401.24	7777.60
401.44	6909.26
401.63	7014.59
401.82	7726.11
402.01	4484.47
402.21	6106.46
402.40	6214.12
402.59	5235.78
402.78	5231.10
402.97	5249.82
403.17	5907.51
403.36	6347.53
403.55	5610.26
403.74	5380.89
403.93	5682.82
404.13	8510.19
404.32	5078.96
404.51	4966.62
404.70	7655.89
404.89	5371.53
405.09	10176.65
405.28	5865.38
405.47	4376.80
405.66	6883.52
405.85	7494.40
406.05	5792.83
406.24	5523.66
406.43	6417.75
406.62	6874.15
406.81	10640.08
407.00	7981.23
407.20	6174.33
407.39	5844.32
407.58	5350.46
407.77	6881.18
407.96	8695.09
408.15	7784.62
408.34	7007.56
408.54	6427.11
408.73	6408.39
408.92	6200.08
409.11	7314.17
409.30	8521.89
409.49	4875.34
409.68	5624.31
409.87	6214.12
410.07	4898.74
410.26	6389.66
410.45	5771.76
410.64	5025.13
410.83	6298.38
411.02	5549.41
411.21	7506.10
411.40	7887.61
411.59	6012.84
411.78	5570.48
411.98	6195.40
412.17	4823.84
412.36	5713.25
412.55	5600.90
412.74	7604.40
412.93	10026.86
413.12	5362.17
413.31	8699.77
413.50	7171.40
413.69	6223.48
413.88	9202.99
414.07	6981.82
414.26	6787.55
414.45	5469.83
414.64	7705.04
414.83	7440.56
415.02	7089.48
415.22	8067.83
415.41	9202.99
415.60	5825.59
415.79	6490.31
415.98	9423.00
416.17	6806.28
416.36	6883.52
416.55	5720.27
416.74	7983.57
416.93	8889.35
417.12	6548.82
417.31	6546.48
417.50	6726.70
417.69	10925.62
417.88	7283.75
418.07	5675.80
418.26	7021.61
418.45	6562.86
418.64	10602.63
418.83	8276.13
419.02	8065.49
419.21	7309.49
419.39	7522.48
419.58	6190.72
419.77	6211.78
419.96	9397.25
420.15	10251.55
420.34	6871.81
420.53	7634.83
420.72	8903.40
420.91	7487.37
421.10	7059.06
421.29	7466.31
421.48	8191.88
421.67	8730.20
421.86	6286.68
422.05	6651.80
422.24	6485.62
422.43	7232.26
422.61	5359.83
422.80	6466.90
422.99	7117.57
423.18	6284.34
423.37	10017.49
423.56	7969.52
423.75	8203.58
423.94	5530.69
424.13	6743.08
424.32	5872.40
424.50	7236.94
424.69	6768.83
424.88	9706.20
425.07	6277.32
425.26	8102.93
425.45	8676.37
425.64	6590.95
425.83	7194.81
426.01	9806.84
426.20	7880.58
426.39	6712.66
426.58	6375.62
426.77	7211.19
426.96	8894.04
427.15	7588.02
427.33	6214.12
427.52	7250.98
427.71	7391.41
427.90	7527.16
428.09	6380.30
428.28	5664.10
428.46	6525.41
428.65	8182.51
428.84	8837.86
429.03	10546.45
429.22	6195.40
429.40	5476.85
429.59	5212.37
429.78	11166.70
429.97	6370.94
430.16	5736.65
430.34	6221.14
430.53	5886.45
430.72	6258.59
430.91	8910.42
431.10	5481.53
431.28	7152.68
431.47	8947.87
431.66	8283.16
431.85	6511.37
432.03	7243.96
432.22	12430.59
432.41	7185.44
432.60	10193.03
432.79	6785.21
432.97	8840.20
433.16	8053.78
433.35	6841.39
433.54	6766.49
433.72	8645.94
433.91	9270.86
434.10	6761.81
434.28	8360.39
434.47	7049.69
434.66	9263.84
434.85	6918.62
435.03	7693.34
435.22	10939.66
435.41	11587.99
435.59	9104.68
435.78	8255.07
435.97	6871.81
436.16	9465.13
436.34	7480.35
436.53	8449.33
436.72	10228.14
436.90	9242.78
437.09	8610.83
437.28	7819.73
437.46	7016.93
437.65	9006.38
437.84	8774.67
438.02	8313.58
438.21	8709.13
438.40	6771.17
438.58	6183.70
438.77	8170.81
438.96	8028.04
439.14	6904.58
439.33	9383.21
439.52	7485.03
439.70	7892.29
439.89	9591.52
440.08	8402.52
440.26	8248.05
440.45	11482.67
440.63	8664.66
440.82	8299.54
441.01	8613.17
441.19	7735.47
441.38	7772.92
441.57	8018.68
441.75	10888.17
441.94	10841.36
442.12	8533.59
442.31	7875.90
442.50	8028.04
442.68	7964.84
442.87	8720.84
443.05	8131.02
443.24	8755.94
443.43	11073.07
443.61	11461.60
443.80	8596.79
443.98	7665.25
444.17	7999.95
444.35	10216.44
444.54	8161.45
444.73	8060.80
444.91	11220.53
445.10	6965.43
445.28	7131.61
445.47	8568.70
445.65	8409.54
445.84	7456.95
446.02	8664.66
446.21	7896.97
446.39	8025.70
446.58	9329.38
446.77	7920.37
446.95	8587.43
447.14	9540.02
447.32	11887.58
447.51	8781.69
447.69	9062.55
447.88	9083.62
448.06	12301.86
448.25	9664.07
448.43	7382.05
448.62	7206.51
448.80	9731.95
448.99	10471.56
449.17	7658.23
449.36	7861.86
449.54	10349.85
449.73	7445.24
449.91	9851.31
450.10	8336.99
450.28	14413.02
450.46	13444.04
450.65	11007.54
450.83	9603.22
451.02	8950.21
451.20	8929.14
451.39	8952.55
451.57	8477.42
451.76	8016.33
451.94	8877.65
452.13	10092.39
452.31	10974.77
452.49	9846.63
452.68	7169.06
452.86	9483.85
453.05	12762.94
453.23	8872.97
453.42	7098.84
453.60	8774.67
453.78	9678.12
453.97	7508.44
454.15	7417.16
454.34	8208.26
454.52	7641.85
454.70	11932.05
454.89	10342.83
455.07	8116.98
455.26	9982.38
455.44	10665.82
455.62	8404.86
455.81	9596.20
455.99	9916.85
456.17	10436.45
456.36	8711.47
456.54	8781.69
456.73	8362.73
456.91	8428.27
457.09	9870.04
457.28	11751.83
457.46	9235.75
457.64	11386.71
457.83	8755.94
458.01	8276.13
458.19	9736.63
458.38	8461.04
458.56	9668.75
458.74	7581.00
458.93	9987.07
459.11	9322.35
459.29	7971.86
459.48	10619.01
459.66	12774.64
459.84	10848.38
460.03	18043.19
460.21	11044.99
460.39	9156.18
460.57	11714.38
460.76	9984.73
460.94	9593.86
461.12	13263.82
461.31	12439.95
461.49	9036.81
461.67	8868.29
461.85	9994.09
462.04	9191.28
462.22	32257.26
462.40	10356.87
462.59	11983.54
462.77	8730.20
462.95	10139.20
463.13	7733.13
463.32	11447.56
463.50	9888.76
463.68	10553.48
463.86	9860.68
464.05	8964.25
464.23	11843.11
464.41	11059.03
464.59	8276.13
464.78	8858.93
464.96	7946.12
465.14	9795.14
465.32	8617.85
465.50	10630.71
465.69	10895.19
465.87	7826.75
466.05	10413.04
466.23	7751.85
466.41	8699.77
466.60	9050.85
466.78	9418.32
466.96	11510.75
467.14	10066.64
467.32	11918.01
467.51	10057.28
467.69	10820.30
467.87	13050.83
468.05	9537.68
468.23	13987.04
468.41	11384.37
468.60	9104.68
468.78	10106.43
468.96	12067.80
469.14	10661.14
469.32	7489.71
469.50	7988.25
469.69	10710.29
469.87	9781.10
470.05	10010.47
470.23	9186.60
470.41	8208.26
470.59	8573.38
470.77	10310.06
470.95	9521.30
471.14	12156.74
471.32	9488.53
471.50	13144.45
471.68	9942.60
471.86	10682.20
472.04	8669.34
472.22	10129.84
472.40	8081.87
472.58	8990.00
472.77	8245.71
472.95	9846.63
473.13	14277.27
473.31	12571.02
473.49	8245.71
473.67	8688.07
473.85	11119.89
474.03	11531.82
474.21	10132.18
474.39	12772.30
474.57	13954.27
474.75	10892.85
474.93	8992.34
475.12	8236.35
475.30	9212.35
475.48	10157.92
475.66	10331.12
475.84	10111.11
476.02	9813.87
476.20	11517.78
476.38	10312.40
476.56	15925.00
476.74	9954.30
476.92	9856.00
477.10	10242.18
477.28	12105.25
477.46	10054.94
477.64	11847.79
477.82	10548.79
478.00	10008.13
478.18	11066.05
478.36	10530.07
478.54	9493.21
478.72	9745.99
478.90	10654.12
479.08	11735.45
479.26	10565.18
479.44	10169.63
479.62	9495.55
479.80	9954.30
479.98	9460.45
480.16	10047.92
480.34	12856.56
480.52	9879.40
480.70	12255.04
480.88	9991.75
481.06	10005.79
481.24	10099.41
481.41	10949.03
481.59	12470.37
481.77	11805.66
481.95	10827.32
482.13	14623.67
482.31	11580.97
482.49	10200.05
482.67	12468.03
482.85	13069.55
483.03	12241.00
483.21	11920.35
483.39	10876.47
483.57	11239.25
483.74	14736.01
483.92	11470.97
484.10	10225.80
484.28	13544.68
484.46	17186.55
484.64	11089.46
484.82	11969.50
485.00	11098.82
485.18	11658.21
485.35	11702.68
485.53	9041.49
485.71	13289.56
485.89	8557.00
486.07	10338.15
486.25	16545.25
486.43	12800.39
486.61	13032.10
486.78	12711.45
486.96	9893.44
487.14	11789.28
487.32	11550.54
487.50	11487.35
487.68	13729.58
487.85	10977.11
488.03	13411.27
488.21	15580.95
488.39	12245.68
488.57	13600.85
488.75	11602.04
488.92	38726.50
489.10	13121.04
489.28	17446.35
489.46	11723.74
489.64	12959.55
489.81	13191.26
489.99	14494.94
490.17	12933.80
490.35	19772.85
490.53	12844.86
490.70	11754.17
490.88	14951.34
491.06	12664.64
491.24	14618.99
491.41	16526.52
491.59	14260.88
491.77	11555.22
491.95	11772.89
492.13	12119.29
492.30	13647.66
492.48	13102.32
492.66	13963.64
492.84	12552.29
493.01	14129.81
493.19	12891.67
493.37	17687.43
493.54	15290.72
493.72	14841.34
493.90	13315.31
494.08	13118.70
494.25	15428.81
494.43	14686.86
494.61	13724.90
494.79	12723.15
494.96	12931.46
495.14	15398.38
495.32	13905.12
495.49	14707.93
495.67	15023.90
495.85	13694.47
496.02	13324.67
496.20	16290.13
496.38	15606.69
496.55	14883.47
496.73	15468.60
496.91	13348.08
497.09	16563.97
497.26	14609.62
497.44	14551.11
497.62	14188.33
497.79	14438.76
497.97	15325.83
498.14	15529.45
498.32	15328.17
498.50	15520.09
498.67	13844.27
498.85	15379.66
499.03	14541.75
499.20	15077.73
499.38	14764.10
499.56	14764.10
499.73	19152.60
499.91	16484.39
500.08	16367.37
500.26	14462.17
500.44	13699.16
500.61	15468.60
500.79	13734.26
500.97	16109.91
501.14	18026.81
501.32	15002.83
501.49	17593.81
501.67	14658.78
501.84	15861.81
502.02	13341.05
502.20	18733.65
502.37	15899.26
502.55	14537.07
502.72	14913.89
502.90	16783.98
503.07	15426.47
503.25	15861.81
503.43	13317.65
503.60	14139.18
503.78	15225.18
503.95	14494.94
504.13	14284.29
504.30	16442.26
504.48	17326.99
504.65	18389.59
504.83	16950.16
505.01	14546.43
505.18	15646.48
505.36	15353.91
505.53	15119.86
505.71	14775.80
505.88	18480.87
506.06	15314.13
506.23	15594.99
506.41	14675.16
506.58	16365.03
506.76	15882.88
506.93	14939.64
507.11	16531.20
507.28	13919.17
507.46	14267.91
507.63	15749.46
507.81	14120.45
507.98	15351.57
508.16	15372.64
508.33	16292.47
508.50	17088.25
508.68	16027.99
508.85	16149.70
509.03	15157.31
509.20	14977.09
509.38	16992.29
509.55	17970.63
509.73	17752.96
509.90	18862.38
510.08	14635.37
510.25	17579.76
510.42	14757.08
510.60	16123.95
510.77	17715.51
510.95	18375.55
511.12	15543.50
511.30	17949.57
511.47	17994.04
511.64	20346.28
511.82	15896.92
511.99	15910.96
512.17	15459.24
512.34	14511.32
512.51	15468.60
512.69	15382.00
512.86	18661.09
513.04	14698.56
513.21	16498.44
513.38	15068.37
513.56	15169.01
513.73	15047.30
513.90	14284.29
514.08	14174.28
514.25	16650.57
514.43	16751.21
514.60	14342.80
514.77	15147.95
514.95	16528.86
515.12	14841.34
515.29	16891.65
515.47	16987.61
515.64	16690.36
515.81	16149.70
515.99	19484.96
516.16	16673.98
516.33	17163.15
516.51	13888.74
516.68	12723.15
516.85	13982.36
517.03	14319.40
517.20	16613.12
517.37	16842.50
517.54	17483.80
517.72	15044.96
517.89	12996.99
518.06	13448.72
518.24	20023.28
518.41	19910.94
518.58	17493.16
518.75	14691.54
518.93	16411.84
519.10	16365.03
519.27	15473.28
519.45	16720.79
519.62	16910.37
519.79	17495.50
519.96	14913.89
520.14	16744.19
520.31	19103.45
520.48	16500.78
520.65	16903.35
520.83	18382.57
521.00	17991.70
521.17	17364.43
521.34	15960.11
521.52	16957.18
521.69	16704.40
521.86	16814.41
522.03	18132.13
522.20	20634.16
522.38	15536.48
522.55	17226.34
522.72	14494.94
522.89	18396.61
523.07	21282.49
523.24	17050.80
523.41	16322.90
523.58	16493.76
523.75	16720.79
523.92	15730.74
524.10	17769.35
524.27	16922.07
524.44	16238.64
524.61	19906.26
524.78	16325.24
524.96	18473.85
525.13	17408.90
525.30	19651.14
525.47	18754.71
525.64	17294.22
525.81	17380.82
525.98	16945.48
526.16	15515.41
526.33	14824.95
526.50	14118.11
526.67	13811.50
526.84	14099.39
527.01	14703.25
527.18	17366.78
527.36	16858.88
527.53	15861.81
527.70	19463.90
527.87	16863.56
528.04	20648.21
528.21	15969.48
528.38	19726.04
528.55	19917.96
528.72	20561.61
528.89	22473.82
529.07	17427.63
529.24	17507.21
529.41	20851.83
529.58	17247.41
529.75	16379.07
529.92	18562.79
530.09	17418.27
530.26	19323.46
530.43	18225.75
530.60	17525.93
530.77	17537.63
530.94	19112.81
531.11	18757.05
531.28	17032.08
531.46	15913.30
531.63	17490.82
531.80	18033.83
531.97	18087.66
532.14	16872.92
532.31	17160.81
532.48	17481.46
532.65	18288.95
532.82	16105.23
532.99	17268.47
533.16	17336.35
533.33	17764.67
533.50	17343.37
533.67	16339.28
533.84	19201.76
534.01	18462.15
534.18	17610.19
534.35	17778.71
534.52	18239.79
534.69	22684.47
534.86	17254.43
535.03	16966.54
535.20	17165.49
535.37	19838.38
535.54	18221.07
535.71	17209.96
535.88	21041.42
536.05	16760.58
536.22	18352.14
536.38	16582.70
536.55	17467.42
536.72	19372.61
536.89	15330.51
537.06	16285.45
537.23	16170.76
537.40	16453.97
537.57	16245.66
537.74	18934.93
537.91	18944.30
538.08	17261.45
538.25	18223.41
538.42	16362.69
538.59	17348.05
538.75	16709.08
538.92	17266.13
539.09	19124.52
539.26	16477.37
539.43	22338.07
539.60	24577.97
539.77	28945.41
539.94	27599.60
540.11	24194.12
540.28	23475.57
540.44	21352.71
540.61	16854.20
540.78	16292.47
540.95	15199.44
541.12	20709.06
541.29	15882.88
541.46	20669.27
541.62	17568.06
541.79	15915.64
541.96	15480.30
542.13	16292.47
542.30	15627.76
542.47	18806.20
542.63	16430.56
542.80	17488.48
542.97	19337.51
543.14	16634.19
543.31	18066.60
543.48	16882.28
543.64	18090.00
543.81	17301.24
543.98	15929.69
544.15	15325.83
544.32	16704.40
544.48	16711.42
544.65	16645.89
544.82	15826.70
544.99	16711.42
545.16	19499.00
545.32	16009.26
545.49	17982.34
545.66	16882.28
545.83	15756.49
546.00	15068.37
546.16	15805.64
546.33	16458.65
546.50	16793.34
546.67	19609.01
546.83	18562.79
547.00	17305.92
547.17	15201.78
547.34	15012.20
547.50	16430.56
547.67	16397.79
547.84	15573.92
548.00	18860.04
548.17	16009.26
548.34	16376.73
548.51	20662.25
548.67	19194.73
548.84	16521.84
549.01	17467.42
549.18	17699.13
549.34	17823.18
549.51	17191.23
549.68	17769.35
549.84	16992.29
550.01	15234.55
550.18	27037.87
550.34	23426.42
550.51	17317.62
550.68	21341.00
550.84	15903.94
551.01	17102.29
551.18	18284.26
551.34	16938.46
551.51	16681.00
551.68	16599.08
551.84	18621.30
552.01	15438.17
552.18	16163.74
552.34	16940.80
552.51	16879.94
552.68	18125.11
552.84	16306.51
553.01	17312.94
553.18	18845.99
553.34	16343.96
553.51	15140.93
553.67	18331.08
553.84	21766.98
554.01	18333.42
554.17	18321.71
554.34	15662.86
554.51	18017.44
554.67	19278.99
554.84	18707.90
555.00	17827.86
555.17	17607.85
555.33	19398.36
555.50	17172.51
555.67	17696.79
555.83	15314.13
556.00	16945.48
556.16	33996.28
556.33	17041.44
556.50	16697.38
556.66	16533.54
556.83	15772.87
556.99	15758.83
557.16	16791.00
557.32	15424.13
557.49	15824.36
557.65	15679.25
557.82	15440.51
557.98	16662.27
558.15	15192.42
558.32	16074.80
558.48	15328.17
558.65	15793.94
558.81	17462.74
558.98	15161.99
559.14	17511.89
559.31	16451.63
559.47	17797.43
559.64	14984.11
559.80	18085.32
559.97	14331.10
560.13	15985.86
560.30	14520.68
560.46	15786.91
560.63	16084.16
560.79	16507.80
560.96	16505.46
561.12	14916.23
561.29	16819.09
561.45	15311.78
561.61	16039.69
561.78	25029.69
561.94	15594.99
562.11	15143.27
562.27	16489.07
562.44	14616.65
562.60	15655.84
562.77	15892.24
562.93	22445.74
563.10	16673.98
563.26	16229.27
563.42	18237.45
563.59	16264.38
563.75	14888.15
563.92	19246.23
564.08	16833.13
564.24	18047.87
564.41	20563.95
564.57	14249.18
564.74	15126.88
564.90	16681.00
565.07	17444.01
565.23	17884.03
565.39	15384.34
565.56	16933.78
565.72	14684.52
565.88	15330.51
566.05	14925.60
566.21	14974.75
566.38	16898.67
566.54	15915.64
566.70	15379.66
566.87	15255.61
567.03	13631.28
567.19	15793.94
567.36	16709.08
567.52	15286.04
567.68	16980.59
567.85	16610.78
568.01	14740.69
568.17	13465.10
568.34	14710.27
568.50	18132.13
568.66	13713.20
568.83	22485.53
568.99	14134.50
569.15	18298.31
569.32	14869.42
569.48	14841.34
569.64	13710.86
569.81	15176.03
569.97	14061.94
570.13	16542.91
570.30	14555.79
570.46	14611.96
570.62	14668.14
570.78	14445.79
570.95	12685.70
571.11	18637.69
571.27	18827.27
571.43	13348.08
571.60	16922.07
571.76	14476.21
571.92	15056.67
572.09	14829.63
572.25	15171.35
572.41	15398.38
572.57	14728.99
572.74	19688.59
572.90	17092.93
573.06	17151.45
573.22	16336.94
573.38	17942.55
573.55	17228.68
573.71	17518.91
573.87	16793.34
574.03	13781.07
574.20	14768.78
574.36	18288.95
574.52	15012.20
574.68	15325.83
574.84	16545.25
575.01	15012.20
575.17	16395.45
575.33	14314.72
575.49	17118.68
575.65	17469.76
575.82	18141.49
575.98	22883.42
576.14	19007.49
576.30	18747.69
576.46	17593.81
576.62	16833.13
576.79	17090.59
576.95	18546.40
577.11	14043.21
577.27	13776.39
577.43	18279.58
577.59	18338.10
577.75	16346.30
577.92	14670.48
578.08	14097.05
578.24	13600.85
578.40	17458.06
578.56	17984.68
578.72	18375.55
578.88	17060.16
579.04	14714.95
579.21	16175.44
579.37	14995.81
579.53	15241.57
579.69	17954.25
579.85	14054.92
580.01	17032.08
580.17	15021.56
580.33	15339.87
580.49	16376.73
580.65	16924.41
580.82	16105.23
580.98	14562.81
581.14	14974.75
581.30	18881.10
581.46	17153.79
581.62	20269.04
581.78	17448.69
581.94	19250.91
582.10	15197.10
582.26	16622.48
582.42	15737.76
582.58	17493.16
582.74	15971.82
582.90	17114.00
583.06	17813.82
583.22	15667.55
583.38	16374.39
583.54	16376.73
583.70	21120.99
583.86	19353.89
584.02	19396.02
584.18	24477.32
584.34	23264.92
584.50	45722.37
584.66	65535.00
584.82	65535.00
584.98	65535.00
585.14	65535.00
585.30	65535.00
585.46	65535.00
585.62	65535.00
585.78	59875.58
585.94	37354.95
586.10	25317.57
586.26	21610.17
586.42	23314.08
586.58	19637.09
586.74	17610.19
586.90	17530.61
587.06	18424.70
587.22	17385.50
587.38	15353.91
587.54	23428.76
587.70	45846.41
587.86	54892.58
588.02	54525.12
