SpectraSuite Data File
++++++++++++++++++++++++++++++++++++
Date: Fri Oct 04 11:33:48 GMT-05:00 2013
User: price-jones
Dark Spectrum Present: No
Reference Spectrum Present: No
Number of Sampled Component Spectra: 1
Spectrometers: USB2+H05261
Integration Time (usec): 100000 (USB2+H05261)
Spectra Averaged: 1 (USB2+H05261)
Boxcar Smoothing: 0 (USB2+H05261)
Correct for Electrical Dark: No (USB2+H05261)
Strobe/Lamp Enabled: No (USB2+H05261)
Correct for Detector Non-linearity: No (USB2+H05261)
Correct for Stray Light: No (USB2+H05261)
Number of Pixels in Processed Spectrum: 2048
>>>>>Begin Processed Spectral Data<<<<<
365.73	65.54
365.92	65.54
366.12	65.54
366.32	0.00
366.52	0.00
366.72	0.00
366.91	0.00
367.11	0.00
367.31	0.00
367.51	0.00
367.70	0.00
367.90	0.00
368.10	0.00
368.30	77.24
368.49	0.00
368.69	0.00
368.89	0.00
369.09	56.17
369.28	0.00
369.48	37.45
369.68	7.02
369.87	25.75
370.07	0.00
370.27	119.37
370.47	25.75
370.66	46.81
370.86	79.58
371.06	72.56
371.25	117.03
371.45	166.18
371.65	93.62
371.84	110.01
372.04	67.88
372.24	117.03
372.44	166.18
372.63	156.82
372.83	156.82
373.03	194.26
373.22	105.32
373.42	107.66
373.62	170.86
373.81	159.16
374.01	177.88
374.21	175.54
374.40	124.05
374.60	215.33
374.79	184.90
374.99	191.92
375.19	208.31
375.38	177.88
375.58	124.05
375.78	217.67
375.97	208.31
376.17	241.08
376.37	163.84
376.56	154.48
376.76	198.95
376.95	196.60
377.15	112.35
377.35	112.35
377.54	107.66
377.74	128.73
377.93	95.96
378.13	194.26
378.33	227.03
378.52	142.77
378.72	196.60
378.91	168.52
379.11	131.07
379.31	154.48
379.50	156.82
379.70	140.43
379.89	138.09
380.09	170.86
380.28	147.45
380.48	159.16
380.68	182.56
380.87	147.45
381.07	77.24
381.26	177.88
381.46	138.09
381.65	149.79
381.85	147.45
382.04	152.13
382.24	149.79
382.43	140.43
382.63	147.45
382.83	107.66
383.02	77.24
383.22	142.77
383.41	149.79
383.61	102.98
383.80	177.88
384.00	173.20
384.19	152.13
384.39	156.82
384.58	95.96
384.78	112.35
384.97	170.86
385.17	124.05
385.36	95.96
385.56	147.45
385.75	140.43
385.95	161.50
386.14	124.05
386.34	163.84
386.53	9.36
386.72	208.31
386.92	124.05
387.11	154.48
387.31	187.24
387.50	131.07
387.70	161.50
387.89	189.58
388.09	124.05
388.28	77.24
388.48	161.50
388.67	133.41
388.86	163.84
389.06	128.73
389.25	154.48
389.45	161.50
389.64	135.75
389.84	128.73
390.03	119.37
390.22	93.62
390.42	135.75
390.61	102.98
390.81	102.98
391.00	163.84
391.19	170.86
391.39	168.52
391.58	182.56
391.78	198.95
391.97	131.07
392.16	114.69
392.36	161.50
392.55	175.54
392.75	56.17
392.94	182.56
393.13	126.39
393.33	63.19
393.52	205.97
393.71	126.39
393.91	201.29
394.10	114.69
394.29	156.82
394.49	149.79
394.68	140.43
394.88	140.43
395.07	173.20
395.26	156.82
395.46	168.52
395.65	198.95
395.84	189.58
396.04	245.76
396.23	194.26
396.42	152.13
396.62	220.01
396.81	182.56
397.00	110.01
397.19	140.43
397.39	215.33
397.58	196.60
397.77	163.84
397.97	117.03
398.16	121.71
398.35	189.58
398.55	142.77
398.74	124.05
398.93	173.20
399.12	173.20
399.32	191.92
399.51	177.88
399.70	140.43
399.90	128.73
400.09	128.73
400.28	168.52
400.47	124.05
400.67	140.43
400.86	182.56
401.05	175.54
401.24	170.86
401.44	175.54
401.63	198.95
401.82	126.39
402.01	135.75
402.21	175.54
402.40	149.79
402.59	91.28
402.78	124.05
402.97	234.05
403.17	140.43
403.36	166.18
403.55	205.97
403.74	166.18
403.93	156.82
404.13	238.73
404.32	222.35
404.51	177.88
404.70	227.03
404.89	124.05
405.09	154.48
405.28	128.73
405.47	159.16
405.66	152.13
405.85	119.37
406.05	161.50
406.24	117.03
406.43	149.79
406.62	205.97
406.81	224.69
407.00	138.09
407.20	119.37
407.39	194.26
407.58	180.22
407.77	152.13
407.96	252.78
408.15	229.37
408.34	220.01
408.54	124.05
408.73	159.16
408.92	203.63
409.11	177.88
409.30	140.43
409.49	187.24
409.68	217.67
409.87	175.54
410.07	156.82
410.26	196.60
410.45	203.63
410.64	98.30
410.83	67.88
411.02	173.20
411.21	131.07
411.40	145.11
411.59	131.07
411.78	177.88
411.98	135.75
412.17	102.98
412.36	86.60
412.55	91.28
412.74	241.08
412.93	194.26
413.12	119.37
413.31	208.31
413.50	203.63
413.69	194.26
413.88	114.69
414.07	182.56
414.26	152.13
414.45	138.09
414.64	152.13
414.83	248.10
415.02	187.24
415.22	110.01
415.41	191.92
415.60	198.95
415.79	110.01
415.98	201.29
416.17	189.58
416.36	100.64
416.55	152.13
416.74	201.29
416.93	140.43
417.12	121.71
417.31	119.37
417.50	184.90
417.69	306.61
417.88	177.88
418.07	147.45
418.26	138.09
418.45	126.39
418.64	222.35
418.83	220.01
419.02	238.73
419.21	208.31
419.39	245.76
419.58	285.55
419.77	177.88
419.96	191.92
420.15	177.88
420.34	198.95
420.53	175.54
420.72	154.48
420.91	126.39
421.10	128.73
421.29	212.99
421.48	191.92
421.67	257.46
421.86	145.11
422.05	166.18
422.24	159.16
422.43	212.99
422.61	170.86
422.80	184.90
422.99	252.78
423.18	138.09
423.37	149.79
423.56	147.45
423.75	217.67
423.94	121.71
424.13	138.09
424.32	149.79
424.50	147.45
424.69	100.64
424.88	163.84
425.07	248.10
425.26	266.82
425.45	170.86
425.64	175.54
425.83	191.92
426.01	194.26
426.20	140.43
426.39	170.86
426.58	121.71
426.77	100.64
426.96	212.99
427.15	180.22
427.33	220.01
427.52	161.50
427.71	163.84
427.90	220.01
428.09	105.32
428.28	86.60
428.46	112.35
428.65	182.56
428.84	196.60
429.03	210.65
429.22	196.60
429.40	173.20
429.59	140.43
429.78	182.56
429.97	229.37
430.16	234.05
430.34	149.79
430.53	105.32
430.72	128.73
430.91	189.58
431.10	149.79
431.28	166.18
431.47	173.20
431.66	198.95
431.85	142.77
432.03	177.88
432.22	205.97
432.41	147.45
432.60	180.22
432.79	187.24
432.97	285.55
433.16	280.86
433.35	189.58
433.54	170.86
433.72	149.79
433.91	215.33
434.10	215.33
434.28	182.56
434.47	231.71
434.66	255.12
434.85	166.18
435.03	234.05
435.22	369.80
435.41	397.89
435.59	379.17
435.78	299.59
435.97	231.71
436.16	187.24
436.34	212.99
436.53	220.01
436.72	220.01
436.90	168.52
437.09	175.54
437.28	208.31
437.46	135.75
437.65	229.37
437.84	177.88
438.02	135.75
438.21	264.48
438.40	217.67
438.58	93.62
438.77	222.35
438.96	217.67
439.14	189.58
439.33	191.92
439.52	161.50
439.70	182.56
439.89	208.31
440.08	163.84
440.26	198.95
440.45	264.48
440.63	133.41
440.82	180.22
441.01	194.26
441.19	266.82
441.38	203.63
441.57	145.11
441.75	159.16
441.94	156.82
442.12	205.97
442.31	168.52
442.50	180.22
442.68	163.84
442.87	217.67
443.05	196.60
443.24	205.97
443.43	191.92
443.61	234.05
443.80	205.97
443.98	166.18
444.17	161.50
444.35	229.37
444.54	203.63
444.73	196.60
444.91	182.56
445.10	112.35
445.28	198.95
445.47	135.75
445.65	203.63
445.84	182.56
446.02	217.67
446.21	152.13
446.39	189.58
446.58	128.73
446.77	152.13
446.95	196.60
447.14	241.08
447.32	271.50
447.51	234.05
447.69	133.41
447.88	234.05
448.06	255.12
448.25	140.43
448.43	208.31
448.62	161.50
448.80	198.95
448.99	227.03
449.17	196.60
449.36	201.29
449.54	135.75
449.73	210.65
449.91	231.71
450.10	86.60
450.28	173.20
450.46	250.44
450.65	227.03
450.83	201.29
451.02	210.65
451.20	217.67
451.39	152.13
451.57	215.33
451.76	212.99
451.94	191.92
452.13	217.67
452.31	234.05
452.49	182.56
452.68	250.44
452.86	121.71
453.05	205.97
453.23	173.20
453.42	208.31
453.60	196.60
453.78	227.03
453.97	215.33
454.15	222.35
454.34	196.60
454.52	149.79
454.70	220.01
454.89	166.18
455.07	166.18
455.26	161.50
455.44	173.20
455.62	191.92
455.81	194.26
455.99	124.05
456.17	180.22
456.36	234.05
456.54	203.63
456.73	147.45
456.91	212.99
457.09	180.22
457.28	243.42
457.46	212.99
457.64	222.35
457.83	182.56
458.01	182.56
458.19	210.65
458.38	262.14
458.56	290.23
458.74	107.66
458.93	196.60
459.11	135.75
459.29	203.63
459.48	238.73
459.66	145.11
459.84	182.56
460.03	245.76
460.21	217.67
460.39	205.97
460.57	229.37
460.76	198.95
460.94	238.73
461.12	170.86
461.31	182.56
461.49	168.52
461.67	276.18
461.85	229.37
462.04	210.65
462.22	601.52
462.40	203.63
462.59	194.26
462.77	170.86
462.95	198.95
463.13	227.03
463.32	220.01
463.50	224.69
463.68	196.60
463.86	201.29
464.05	241.08
464.23	191.92
464.41	255.12
464.59	215.33
464.78	220.01
464.96	128.73
465.14	238.73
465.32	147.45
465.50	105.32
465.69	163.84
465.87	201.29
466.05	236.39
466.23	236.39
466.41	175.54
466.60	156.82
466.78	205.97
466.96	126.39
467.14	166.18
467.32	208.31
467.51	173.20
467.69	245.76
467.87	229.37
468.05	203.63
468.23	194.26
468.41	220.01
468.60	168.52
468.78	224.69
468.96	250.44
469.14	255.12
469.32	243.42
469.50	198.95
469.69	220.01
469.87	208.31
470.05	308.95
470.23	220.01
470.41	124.05
470.59	145.11
470.77	210.65
470.95	238.73
471.14	189.58
471.32	182.56
471.50	187.24
471.68	152.13
471.86	198.95
472.04	229.37
472.22	241.08
472.40	168.52
472.58	273.84
472.77	182.56
472.95	187.24
473.13	283.20
473.31	280.86
473.49	215.33
473.67	180.22
473.85	241.08
474.03	210.65
474.21	182.56
474.39	271.50
474.57	175.54
474.75	135.75
474.93	173.20
475.12	177.88
475.30	159.16
475.48	184.90
475.66	173.20
475.84	210.65
476.02	210.65
476.20	210.65
476.38	168.52
476.56	236.39
476.74	212.99
476.92	156.82
477.10	231.71
477.28	180.22
477.46	147.45
477.64	203.63
477.82	205.97
478.00	180.22
478.18	131.07
478.36	248.10
478.54	196.60
478.72	189.58
478.90	152.13
479.08	250.44
479.26	194.26
479.44	161.50
479.62	161.50
479.80	173.20
479.98	154.48
480.16	196.60
480.34	177.88
480.52	198.95
480.70	236.39
480.88	170.86
481.06	163.84
481.24	241.08
481.41	215.33
481.59	208.31
481.77	227.03
481.95	294.91
482.13	322.99
482.31	156.82
482.49	210.65
482.67	222.35
482.85	205.97
483.03	187.24
483.21	264.48
483.39	224.69
483.57	264.48
483.74	285.55
483.92	212.99
484.10	198.95
484.28	168.52
484.46	217.67
484.64	313.63
484.82	276.18
485.00	182.56
485.18	297.25
485.35	299.59
485.53	184.90
485.71	222.35
485.89	173.20
486.07	234.05
486.25	280.86
486.43	231.71
486.61	276.18
486.78	306.61
486.96	229.37
487.14	205.97
487.32	264.48
487.50	187.24
487.68	299.59
487.85	205.97
488.03	278.52
488.21	217.67
488.39	205.97
488.57	224.69
488.75	259.80
488.92	552.37
489.10	325.33
489.28	245.76
489.46	262.14
489.64	271.50
489.81	241.08
489.99	252.78
490.17	257.46
490.35	273.84
490.53	222.35
490.70	234.05
490.88	222.35
491.06	231.71
491.24	264.48
491.41	294.91
491.59	220.01
491.77	257.46
491.95	257.46
492.13	264.48
492.30	227.03
492.48	285.55
492.66	294.91
492.84	217.67
493.01	238.73
493.19	231.71
493.37	262.14
493.54	252.78
493.72	175.54
493.90	149.79
494.08	184.90
494.25	297.25
494.43	255.12
494.61	311.29
494.79	252.78
494.96	238.73
495.14	330.02
495.32	269.16
495.49	304.27
495.67	313.63
495.85	287.89
496.02	212.99
496.20	276.18
496.38	231.71
496.55	238.73
496.73	283.20
496.91	212.99
497.09	234.05
497.26	297.25
497.44	243.42
497.62	280.86
497.79	191.92
497.97	194.26
498.14	306.61
498.32	241.08
498.50	189.58
498.67	238.73
498.85	194.26
499.03	184.90
499.20	308.95
499.38	271.50
499.56	346.40
499.73	283.20
499.91	278.52
500.08	266.82
500.26	341.72
500.44	285.55
500.61	322.99
500.79	215.33
500.97	259.80
501.14	224.69
501.32	243.42
501.49	215.33
501.67	313.63
501.84	238.73
502.02	182.56
502.20	257.46
502.37	212.99
502.55	210.65
502.72	222.35
502.90	264.48
503.07	234.05
503.25	266.82
503.43	250.44
503.60	287.89
503.78	212.99
503.95	259.80
504.13	257.46
504.30	248.10
504.48	259.80
504.65	369.80
504.83	264.48
505.01	191.92
505.18	259.80
505.36	238.73
505.53	215.33
505.71	262.14
505.88	257.46
506.06	287.89
506.23	273.84
506.41	301.93
506.58	248.10
506.76	194.26
506.93	271.50
507.11	264.48
507.28	215.33
507.46	273.84
507.63	290.23
507.81	304.27
507.98	255.12
508.16	297.25
508.33	234.05
508.50	198.95
508.68	224.69
508.85	243.42
509.03	191.92
509.20	283.20
509.38	322.99
509.55	241.08
509.73	255.12
509.90	299.59
510.08	191.92
510.25	243.42
510.42	189.58
510.60	252.78
510.77	276.18
510.95	325.33
511.12	231.71
511.30	306.61
511.47	313.63
511.64	322.99
511.82	285.55
511.99	266.82
512.17	238.73
512.34	255.12
512.51	250.44
512.69	182.56
512.86	262.14
513.04	273.84
513.21	269.16
513.38	330.02
513.56	271.50
513.73	299.59
513.90	184.90
514.08	208.31
514.25	280.86
514.43	292.57
514.60	220.01
514.77	283.20
514.95	271.50
515.12	271.50
515.29	283.20
515.47	262.14
515.64	208.31
515.81	271.50
515.99	250.44
516.16	259.80
516.33	290.23
516.51	234.05
516.68	220.01
516.85	243.42
517.03	212.99
517.20	227.03
517.37	311.29
517.54	266.82
517.72	318.31
517.89	220.01
518.06	208.31
518.24	252.78
518.41	283.20
518.58	252.78
518.75	280.86
518.93	231.71
519.10	241.08
519.27	320.65
519.45	362.78
519.62	320.65
519.79	264.48
519.96	241.08
520.14	266.82
520.31	269.16
520.48	306.61
520.65	318.31
520.83	301.93
521.00	227.03
521.17	290.23
521.34	322.99
521.52	315.97
521.69	259.80
521.86	217.67
522.03	285.55
522.20	257.46
522.38	250.44
522.55	262.14
522.72	212.99
522.89	339.38
523.07	332.36
523.24	346.40
523.41	245.76
523.58	259.80
523.75	271.50
523.92	332.36
524.10	271.50
524.27	262.14
524.44	250.44
524.61	358.10
524.78	264.48
524.96	332.36
525.13	271.50
525.30	264.48
525.47	269.16
525.64	224.69
525.81	280.86
525.98	278.52
526.16	273.84
526.33	294.91
526.50	222.35
526.67	208.31
526.84	248.10
527.01	276.18
527.18	262.14
527.36	243.42
527.53	255.12
527.70	234.05
527.87	255.12
528.04	320.65
528.21	227.03
528.38	299.59
528.55	320.65
528.72	353.42
528.89	390.87
529.07	245.76
529.24	311.29
529.41	264.48
529.58	318.31
529.75	276.18
529.92	217.67
530.09	266.82
530.26	205.97
530.43	248.10
530.60	276.18
530.77	294.91
530.94	290.23
531.11	255.12
531.28	231.71
531.46	245.76
531.63	313.63
531.80	386.19
531.97	315.97
532.14	294.91
532.31	322.99
532.48	325.33
532.65	306.61
532.82	447.04
532.99	468.11
533.16	330.02
533.33	308.95
533.50	278.52
533.67	386.19
533.84	407.25
534.01	447.04
534.18	411.93
534.35	416.62
534.52	334.70
534.69	355.76
534.86	360.44
535.03	231.71
535.20	248.10
535.37	332.36
535.54	313.63
535.71	290.23
535.88	390.87
536.05	332.36
536.22	252.78
536.38	379.17
536.55	315.97
536.72	327.68
536.89	241.08
537.06	322.99
537.23	283.20
537.40	332.36
537.57	299.59
537.74	299.59
537.91	353.42
538.08	348.74
538.25	313.63
538.42	358.10
538.59	290.23
538.75	304.27
538.92	330.02
539.09	372.15
539.26	381.51
539.43	437.68
539.60	1006.43
539.77	1420.71
539.94	1671.14
540.11	1135.16
540.28	723.23
540.44	629.60
540.61	482.15
540.78	407.25
540.95	437.68
541.12	468.11
541.29	538.32
541.46	496.19
541.62	538.32
541.79	561.73
541.96	437.68
542.13	442.36
542.30	461.09
542.47	472.79
542.63	519.60
542.80	475.13
542.97	435.34
543.14	519.60
543.31	484.49
543.48	538.32
543.64	500.87
543.81	433.00
543.98	493.85
544.15	479.81
544.32	458.74
544.48	528.96
544.65	442.36
544.82	463.43
544.99	365.12
545.16	606.20
545.32	566.41
545.49	695.14
545.66	884.72
545.83	856.64
546.00	779.40
546.16	645.99
546.33	491.51
546.50	479.81
546.67	430.66
546.83	393.21
547.00	360.44
547.17	334.70
547.34	411.93
547.50	341.72
547.67	322.99
547.84	437.68
548.00	442.36
548.17	379.17
548.34	322.99
548.51	416.62
548.67	372.15
548.84	308.95
549.01	355.76
549.18	341.72
549.34	386.19
549.51	367.46
549.68	372.15
549.84	252.78
550.01	259.80
550.18	388.53
550.34	379.17
550.51	367.46
550.68	311.29
550.84	306.61
551.01	337.04
551.18	365.12
551.34	379.17
551.51	269.16
551.68	283.20
551.84	372.15
552.01	315.97
552.18	318.31
552.34	294.91
552.51	301.93
552.68	339.38
552.84	337.04
553.01	264.48
553.18	334.70
553.34	262.14
553.51	276.18
553.67	421.30
553.84	367.46
554.01	292.57
554.17	379.17
554.34	215.33
554.51	383.85
554.67	308.95
554.84	215.33
555.00	283.20
555.17	313.63
555.33	280.86
555.50	271.50
555.67	248.10
555.83	283.20
556.00	320.65
556.16	428.32
556.33	297.25
556.50	290.23
556.66	273.84
556.83	318.31
556.99	252.78
557.16	250.44
557.32	297.25
557.49	257.46
557.65	194.26
557.82	290.23
557.98	325.33
558.15	278.52
558.32	271.50
558.48	238.73
558.65	299.59
558.81	238.73
558.98	227.03
559.14	245.76
559.31	290.23
559.47	220.01
559.64	259.80
559.80	271.50
559.97	264.48
560.13	243.42
560.30	238.73
560.46	231.71
560.63	241.08
560.79	266.82
560.96	259.80
561.12	236.39
561.29	262.14
561.45	285.55
561.61	255.12
561.78	304.27
561.94	243.42
562.11	210.65
562.27	273.84
562.44	248.10
562.60	252.78
562.77	313.63
562.93	318.31
563.10	276.18
563.26	264.48
563.42	236.39
563.59	280.86
563.75	283.20
563.92	325.33
564.08	318.31
564.24	264.48
564.41	306.61
564.57	184.90
564.74	217.67
564.90	290.23
565.07	250.44
565.23	332.36
565.39	276.18
565.56	255.12
565.72	308.95
565.88	299.59
566.05	271.50
566.21	231.71
566.38	280.86
566.54	212.99
566.70	283.20
566.87	276.18
567.03	271.50
567.19	243.42
567.36	252.78
567.52	271.50
567.68	266.82
567.85	215.33
568.01	269.16
568.17	257.46
568.34	215.33
568.50	315.97
568.66	287.89
568.83	456.40
568.99	252.78
569.15	287.89
569.32	264.48
569.48	257.46
569.64	229.37
569.81	248.10
569.97	229.37
570.13	266.82
570.30	215.33
570.46	327.68
570.62	292.57
570.78	269.16
570.95	184.90
571.11	208.31
571.27	287.89
571.43	269.16
571.60	194.26
571.76	337.04
571.92	212.99
572.09	231.71
572.25	313.63
572.41	262.14
572.57	262.14
572.74	287.89
572.90	292.57
573.06	250.44
573.22	294.91
573.38	276.18
573.55	262.14
573.71	330.02
573.87	248.10
574.03	196.60
574.20	266.82
574.36	252.78
574.52	358.10
574.68	358.10
574.84	332.36
575.01	222.35
575.17	283.20
575.33	243.42
575.49	337.04
575.65	299.59
575.82	369.80
575.98	603.86
576.14	643.65
576.30	734.93
576.46	594.50
576.62	617.90
576.79	517.26
576.95	444.70
577.11	353.42
577.27	351.08
577.43	285.55
577.59	330.02
577.75	334.70
577.92	297.25
578.08	334.70
578.24	353.42
578.40	381.51
578.56	458.74
578.72	454.06
578.88	372.15
579.04	411.93
579.21	372.15
579.37	390.87
579.53	299.59
579.69	390.87
579.85	325.33
580.01	379.17
580.17	346.40
580.33	468.11
580.49	451.72
580.65	472.79
580.82	390.87
580.98	346.40
581.14	381.51
581.30	454.06
581.46	444.70
581.62	589.82
581.78	746.63
581.94	638.97
582.10	531.30
582.26	594.50
582.42	461.09
582.58	447.04
582.74	496.19
582.90	484.49
583.06	496.19
583.22	510.24
583.38	512.58
583.54	533.64
583.70	603.86
583.86	692.80
584.02	767.70
584.18	854.30
584.34	1156.22
584.50	2633.10
584.66	18356.82
584.82	51473.06
584.98	63636.83
585.14	61488.21
585.30	46092.17
585.46	27976.42
585.62	17226.34
585.78	8175.49
585.94	3183.13
586.10	1544.75
586.26	1104.73
586.42	849.61
586.58	739.61
586.74	716.20
586.90	734.93
587.06	645.99
587.22	641.31
587.38	624.92
587.54	1170.27
587.70	2970.14
587.86	5240.46
588.02	6038.58
588.18	4297.22
588.34	2696.30
588.49	1872.43
588.65	1135.16
588.81	713.86
588.97	477.47
589.13	404.91
589.29	360.44
589.45	360.44
589.61	280.86
589.77	397.89
589.93	477.47
590.08	407.25
590.24	496.19
590.40	543.00
590.56	486.83
590.72	440.02
590.88	458.74
591.04	486.83
591.20	360.44
591.35	440.02
591.51	374.49
591.67	369.80
591.83	390.87
591.99	421.30
592.15	440.02
592.31	423.64
592.46	313.63
592.62	348.74
592.78	365.12
592.94	407.25
593.10	351.08
593.26	386.19
593.41	470.45
593.57	433.00
593.73	624.92
593.89	2345.22
594.05	6370.94
594.20	10090.05
594.36	10003.45
594.52	6684.57
594.68	4077.21
594.84	2675.23
594.99	1537.73
595.15	772.38
595.31	505.56
595.47	409.59
595.62	407.25
595.78	379.17
595.94	325.33
596.10	402.57
596.25	425.98
596.41	423.64
596.57	376.83
596.73	353.42
596.88	573.43
597.04	1268.57
597.20	2052.65
597.36	2590.97
597.51	1949.67
597.67	1366.87
597.83	936.21
597.99	767.70
598.14	517.26
598.30	463.43
598.46	423.64
598.61	447.04
598.77	404.91
598.93	339.38
599.09	402.57
599.24	266.82
599.40	299.59
599.56	327.68
599.71	365.12
599.87	355.76
600.03	330.02
600.18	273.84
600.34	325.33
600.50	245.76
600.65	283.20
600.81	355.76
600.97	269.16
601.12	337.04
601.28	318.31
601.44	339.38
601.59	280.86
601.75	278.52
601.91	280.86
602.06	287.89
602.22	435.34
602.37	603.86
602.53	1647.74
602.69	2572.25
602.84	2647.15
603.00	2003.50
603.16	1350.49
603.31	1025.15
603.47	692.80
603.62	447.04
603.78	402.57
603.94	280.86
604.09	266.82
604.25	379.17
604.40	360.44
604.56	313.63
604.71	280.86
604.87	280.86
605.03	337.04
605.18	255.12
605.34	311.29
605.49	367.46
605.65	388.53
605.80	227.03
605.96	341.72
606.12	379.17
606.27	358.10
606.43	435.34
606.58	400.23
606.74	800.46
606.89	2916.31
607.05	6485.62
607.20	8723.18
607.36	7372.69
607.51	4814.48
607.67	3309.52
607.82	2312.45
607.98	1348.15
608.13	791.10
608.29	493.85
608.44	540.66
608.60	411.93
608.75	592.16
608.91	1135.16
609.06	4491.49
609.22	10270.27
609.37	15063.69
609.53	13146.79
609.68	8856.59
609.84	5741.33
609.99	3892.31
