SpectraSuite Data File
++++++++++++++++++++++++++++++++++++
Date: Fri Oct 04 11:34:05 GMT-05:00 2013
User: price-jones
Dark Spectrum Present: No
Reference Spectrum Present: No
Number of Sampled Component Spectra: 1
Spectrometers: USB2+H05261
Integration Time (usec): 100000 (USB2+H05261)
Spectra Averaged: 1 (USB2+H05261)
Boxcar Smoothing: 0 (USB2+H05261)
Correct for Electrical Dark: No (USB2+H05261)
Strobe/Lamp Enabled: No (USB2+H05261)
Correct for Detector Non-linearity: No (USB2+H05261)
Correct for Stray Light: No (USB2+H05261)
Number of Pixels in Processed Spectrum: 2048
>>>>>Begin Processed Spectral Data<<<<<
365.73	121.71
365.92	121.71
366.12	121.71
366.32	67.88
366.52	0.00
366.72	0.00
366.91	2.34
367.11	0.00
367.31	0.00
367.51	0.00
367.70	0.00
367.90	0.00
368.10	0.00
368.30	0.00
368.49	0.00
368.69	9.36
368.89	53.83
369.09	0.00
369.28	0.00
369.48	0.00
369.68	0.00
369.87	37.45
370.07	28.09
370.27	98.30
370.47	11.70
370.66	56.17
370.86	16.38
371.06	100.64
371.25	147.45
371.45	79.58
371.65	131.07
371.84	100.64
372.04	161.50
372.24	53.83
372.44	142.77
372.63	159.16
372.83	140.43
373.03	126.39
373.22	201.29
373.42	100.64
373.62	159.16
373.81	126.39
374.01	184.90
374.21	131.07
374.40	102.98
374.60	170.86
374.79	180.22
374.99	142.77
375.19	131.07
375.38	145.11
375.58	112.35
375.78	159.16
375.97	145.11
376.17	166.18
376.37	147.45
376.56	117.03
376.76	42.13
376.95	126.39
377.15	182.56
377.35	180.22
377.54	170.86
377.74	170.86
377.93	126.39
378.13	124.05
378.33	177.88
378.52	21.06
378.72	170.86
378.91	184.90
379.11	110.01
379.31	156.82
379.50	98.30
379.70	189.58
379.89	175.54
380.09	156.82
380.28	149.79
380.48	117.03
380.68	100.64
380.87	7.02
381.07	131.07
381.26	156.82
381.46	124.05
381.65	98.30
381.85	117.03
382.04	161.50
382.24	152.13
382.43	119.37
382.63	131.07
382.83	142.77
383.02	182.56
383.22	210.65
383.41	166.18
383.61	124.05
383.80	131.07
384.00	133.41
384.19	133.41
384.39	131.07
384.58	84.26
384.78	152.13
384.97	107.66
385.17	184.90
385.36	152.13
385.56	93.62
385.75	135.75
385.95	159.16
386.14	128.73
386.34	128.73
386.53	159.16
386.72	93.62
386.92	187.24
387.11	210.65
387.31	159.16
387.50	84.26
387.70	110.01
387.89	124.05
388.09	182.56
388.28	147.45
388.48	81.92
388.67	152.13
388.86	159.16
389.06	91.28
389.25	142.77
389.45	112.35
389.64	201.29
389.84	133.41
390.03	194.26
390.22	163.84
390.42	229.37
390.61	114.69
390.81	133.41
391.00	145.11
391.19	149.79
391.39	117.03
391.58	58.51
391.78	147.45
391.97	147.45
392.16	100.64
392.36	138.09
392.55	149.79
392.75	159.16
392.94	124.05
393.13	131.07
393.33	140.43
393.52	154.48
393.71	131.07
393.91	133.41
394.10	161.50
394.29	149.79
394.49	128.73
394.68	126.39
394.88	217.67
395.07	166.18
395.26	177.88
395.46	175.54
395.65	135.75
395.84	168.52
396.04	266.82
396.23	128.73
396.42	170.86
396.62	163.84
396.81	177.88
397.00	203.63
397.19	154.48
397.39	121.71
397.58	187.24
397.77	93.62
397.97	189.58
398.16	154.48
398.35	201.29
398.55	138.09
398.74	180.22
398.93	138.09
399.12	203.63
399.32	161.50
399.51	131.07
399.70	191.92
399.90	177.88
400.09	170.86
400.28	189.58
400.47	131.07
400.67	117.03
400.86	163.84
401.05	100.64
401.24	205.97
401.44	210.65
401.63	187.24
401.82	142.77
402.01	184.90
402.21	142.77
402.40	121.71
402.59	105.32
402.78	170.86
402.97	117.03
403.17	170.86
403.36	180.22
403.55	100.64
403.74	210.65
403.93	133.41
404.13	227.03
404.32	189.58
404.51	161.50
404.70	161.50
404.89	63.19
405.09	135.75
405.28	86.60
405.47	138.09
405.66	140.43
405.85	121.71
406.05	126.39
406.24	180.22
406.43	229.37
406.62	114.69
406.81	126.39
407.00	102.98
407.20	147.45
407.39	110.01
407.58	124.05
407.77	194.26
407.96	128.73
408.15	112.35
408.34	241.08
408.54	215.33
408.73	215.33
408.92	138.09
409.11	175.54
409.30	182.56
409.49	117.03
409.68	145.11
409.87	159.16
410.07	156.82
410.26	152.13
410.45	140.43
410.64	159.16
410.83	128.73
411.02	201.29
411.21	210.65
411.40	154.48
411.59	142.77
411.78	196.60
411.98	74.90
412.17	142.77
412.36	182.56
412.55	149.79
412.74	145.11
412.93	170.86
413.12	117.03
413.31	112.35
413.50	180.22
413.69	191.92
413.88	161.50
414.07	154.48
414.26	227.03
414.45	98.30
414.64	86.60
414.83	177.88
415.02	133.41
415.22	217.67
415.41	170.86
415.60	140.43
415.79	112.35
415.98	182.56
416.17	142.77
416.36	173.20
416.55	173.20
416.74	191.92
416.93	154.48
417.12	187.24
417.31	126.39
417.50	163.84
417.69	180.22
417.88	138.09
418.07	145.11
418.26	243.42
418.45	187.24
418.64	154.48
418.83	145.11
419.02	170.86
419.21	182.56
419.39	194.26
419.58	140.43
419.77	152.13
419.96	145.11
420.15	208.31
420.34	145.11
420.53	180.22
420.72	126.39
420.91	224.69
421.10	175.54
421.29	149.79
421.48	110.01
421.67	180.22
421.86	140.43
422.05	119.37
422.24	152.13
422.43	161.50
422.61	102.98
422.80	203.63
422.99	212.99
423.18	133.41
423.37	147.45
423.56	152.13
423.75	177.88
423.94	156.82
424.13	135.75
424.32	152.13
424.50	93.62
424.69	126.39
424.88	224.69
425.07	140.43
425.26	194.26
425.45	124.05
425.64	135.75
425.83	133.41
426.01	187.24
426.20	163.84
426.39	203.63
426.58	191.92
426.77	156.82
426.96	177.88
427.15	163.84
427.33	126.39
427.52	102.98
427.71	128.73
427.90	154.48
428.09	126.39
428.28	145.11
428.46	177.88
428.65	243.42
428.84	147.45
429.03	212.99
429.22	121.71
429.40	105.32
429.59	100.64
429.78	222.35
429.97	142.77
430.16	147.45
430.34	133.41
430.53	159.16
430.72	149.79
430.91	182.56
431.10	138.09
431.28	184.90
431.47	198.95
431.66	177.88
431.85	173.20
432.03	124.05
432.22	191.92
432.41	133.41
432.60	283.20
432.79	189.58
432.97	184.90
433.16	187.24
433.35	161.50
433.54	145.11
433.72	140.43
433.91	133.41
434.10	124.05
434.28	198.95
434.47	126.39
434.66	201.29
434.85	163.84
435.03	224.69
435.22	287.89
435.41	339.38
435.59	308.95
435.78	255.12
435.97	180.22
436.16	191.92
436.34	119.37
436.53	152.13
436.72	229.37
436.90	196.60
437.09	133.41
437.28	170.86
437.46	194.26
437.65	152.13
437.84	102.98
438.02	175.54
438.21	177.88
438.40	180.22
438.58	147.45
438.77	159.16
438.96	156.82
439.14	180.22
439.33	210.65
439.52	205.97
439.70	159.16
439.89	175.54
440.08	147.45
440.26	105.32
440.45	173.20
440.63	180.22
440.82	114.69
441.01	187.24
441.19	145.11
441.38	100.64
441.57	180.22
441.75	234.05
441.94	166.18
442.12	220.01
442.31	208.31
442.50	224.69
442.68	133.41
442.87	161.50
443.05	147.45
443.24	177.88
443.43	180.22
443.61	168.52
443.80	175.54
443.98	177.88
444.17	170.86
444.35	182.56
444.54	198.95
444.73	100.64
444.91	220.01
445.10	194.26
445.28	119.37
445.47	210.65
445.65	161.50
445.84	170.86
446.02	175.54
446.21	182.56
446.39	248.10
446.58	173.20
446.77	173.20
446.95	215.33
447.14	191.92
447.32	210.65
447.51	184.90
447.69	187.24
447.88	215.33
448.06	210.65
448.25	187.24
448.43	189.58
448.62	156.82
448.80	168.52
448.99	229.37
449.17	145.11
449.36	131.07
449.54	182.56
449.73	133.41
449.91	191.92
450.10	163.84
450.28	215.33
450.46	276.18
450.65	159.16
450.83	154.48
451.02	159.16
451.20	126.39
451.39	187.24
451.57	182.56
451.76	205.97
451.94	227.03
452.13	196.60
452.31	198.95
452.49	131.07
452.68	110.01
452.86	180.22
453.05	212.99
453.23	140.43
453.42	175.54
453.60	198.95
453.78	191.92
453.97	156.82
454.15	91.28
454.34	229.37
454.52	140.43
454.70	201.29
454.89	133.41
455.07	205.97
455.26	250.44
455.44	191.92
455.62	163.84
455.81	168.52
455.99	234.05
456.17	154.48
456.36	201.29
456.54	140.43
456.73	184.90
456.91	177.88
457.09	203.63
457.28	203.63
457.46	149.79
457.64	163.84
457.83	154.48
458.01	147.45
458.19	170.86
458.38	198.95
458.56	198.95
458.74	112.35
458.93	210.65
459.11	163.84
459.29	262.14
459.48	173.20
459.66	203.63
459.84	241.08
460.03	252.78
460.21	210.65
460.39	88.94
460.57	191.92
460.76	177.88
460.94	147.45
461.12	198.95
461.31	220.01
461.49	208.31
461.67	159.16
461.85	229.37
462.04	170.86
462.22	592.16
462.40	184.90
462.59	205.97
462.77	166.18
462.95	280.86
463.13	210.65
463.32	231.71
463.50	168.52
463.68	196.60
463.86	138.09
464.05	196.60
464.23	250.44
464.41	194.26
464.59	241.08
464.78	182.56
464.96	196.60
465.14	194.26
465.32	145.11
465.50	220.01
465.69	147.45
465.87	234.05
466.05	166.18
466.23	86.60
466.41	173.20
466.60	168.52
466.78	198.95
466.96	215.33
467.14	220.01
467.32	177.88
467.51	222.35
467.69	189.58
467.87	166.18
468.05	203.63
468.23	208.31
468.41	201.29
468.60	189.58
468.78	168.52
468.96	180.22
469.14	133.41
469.32	196.60
469.50	166.18
469.69	175.54
469.87	203.63
470.05	208.31
470.23	196.60
470.41	147.45
470.59	175.54
470.77	175.54
470.95	198.95
471.14	201.29
471.32	168.52
471.50	229.37
471.68	210.65
471.86	220.01
472.04	177.88
472.22	126.39
472.40	121.71
472.58	147.45
472.77	156.82
472.95	166.18
473.13	203.63
473.31	287.89
473.49	201.29
473.67	191.92
473.85	210.65
474.03	201.29
474.21	191.92
474.39	170.86
474.57	259.80
474.75	210.65
474.93	173.20
475.12	173.20
475.30	245.76
475.48	191.92
475.66	208.31
475.84	205.97
476.02	170.86
476.20	170.86
476.38	175.54
476.56	236.39
476.74	217.67
476.92	194.26
477.10	149.79
477.28	201.29
477.46	163.84
477.64	208.31
477.82	159.16
478.00	168.52
478.18	231.71
478.36	163.84
478.54	173.20
478.72	231.71
478.90	189.58
479.08	222.35
479.26	220.01
479.44	191.92
479.62	107.66
479.80	262.14
479.98	201.29
480.16	264.48
480.34	231.71
480.52	170.86
480.70	166.18
480.88	205.97
481.06	222.35
481.24	283.20
481.41	250.44
481.59	215.33
481.77	147.45
481.95	243.42
482.13	222.35
482.31	229.37
482.49	182.56
482.67	248.10
482.85	196.60
483.03	278.52
483.21	231.71
483.39	135.75
483.57	168.52
483.74	234.05
483.92	205.97
484.10	184.90
484.28	252.78
484.46	217.67
484.64	234.05
484.82	184.90
485.00	241.08
485.18	243.42
485.35	222.35
485.53	138.09
485.71	215.33
485.89	243.42
486.07	198.95
486.25	236.39
486.43	255.12
486.61	163.84
486.78	184.90
486.96	241.08
487.14	224.69
487.32	177.88
487.50	187.24
487.68	210.65
487.85	173.20
488.03	280.86
488.21	184.90
488.39	238.73
488.57	208.31
488.75	227.03
488.92	500.87
489.10	156.82
489.28	290.23
489.46	166.18
489.64	252.78
489.81	280.86
489.99	229.37
490.17	184.90
490.35	287.89
490.53	184.90
490.70	229.37
490.88	252.78
491.06	205.97
491.24	229.37
491.41	201.29
491.59	234.05
491.77	330.02
491.95	259.80
492.13	159.16
492.30	208.31
492.48	266.82
492.66	255.12
492.84	301.93
493.01	231.71
493.19	290.23
493.37	278.52
493.54	248.10
493.72	194.26
493.90	243.42
494.08	229.37
494.25	273.84
494.43	259.80
494.61	210.65
494.79	269.16
494.96	255.12
495.14	306.61
495.32	231.71
495.49	236.39
495.67	215.33
495.85	231.71
496.02	173.20
496.20	276.18
496.38	252.78
496.55	217.67
496.73	294.91
496.91	224.69
497.09	205.97
497.26	203.63
497.44	294.91
497.62	205.97
497.79	285.55
497.97	250.44
498.14	259.80
498.32	210.65
498.50	217.67
498.67	234.05
498.85	259.80
499.03	306.61
499.20	191.92
499.38	276.18
499.56	208.31
499.73	266.82
499.91	315.97
500.08	238.73
500.26	217.67
500.44	227.03
500.61	248.10
500.79	257.46
500.97	187.24
501.14	271.50
501.32	273.84
501.49	229.37
501.67	196.60
501.84	198.95
502.02	184.90
502.20	243.42
502.37	285.55
502.55	210.65
502.72	241.08
502.90	154.48
503.07	175.54
503.25	234.05
503.43	215.33
503.60	266.82
503.78	243.42
503.95	231.71
504.13	175.54
504.30	182.56
504.48	241.08
504.65	292.57
504.83	283.20
505.01	255.12
505.18	313.63
505.36	248.10
505.53	220.01
505.71	238.73
505.88	287.89
506.06	187.24
506.23	234.05
506.41	257.46
506.58	327.68
506.76	220.01
506.93	161.50
507.11	278.52
507.28	243.42
507.46	290.23
507.63	224.69
507.81	212.99
507.98	236.39
508.16	257.46
508.33	236.39
508.50	304.27
508.68	297.25
508.85	215.33
509.03	259.80
509.20	231.71
509.38	229.37
509.55	241.08
509.73	220.01
509.90	299.59
510.08	166.18
510.25	285.55
510.42	222.35
510.60	220.01
510.77	241.08
510.95	276.18
511.12	325.33
511.30	215.33
511.47	229.37
511.64	205.97
511.82	212.99
511.99	257.46
512.17	264.48
512.34	236.39
512.51	241.08
512.69	271.50
512.86	266.82
513.04	241.08
513.21	250.44
513.38	262.14
513.56	224.69
513.73	203.63
513.90	273.84
514.08	194.26
514.25	191.92
514.43	184.90
514.60	215.33
514.77	222.35
514.95	215.33
515.12	245.76
515.29	250.44
515.47	215.33
515.64	259.80
515.81	212.99
515.99	231.71
516.16	241.08
516.33	278.52
516.51	212.99
516.68	304.27
516.85	215.33
517.03	175.54
517.20	252.78
517.37	222.35
517.54	245.76
517.72	184.90
517.89	259.80
518.06	238.73
518.24	227.03
518.41	320.65
518.58	189.58
518.75	243.42
518.93	334.70
519.10	163.84
519.27	243.42
519.45	285.55
519.62	276.18
519.79	299.59
519.96	227.03
520.14	248.10
520.31	252.78
520.48	170.86
520.65	290.23
520.83	280.86
521.00	224.69
521.17	311.29
521.34	252.78
521.52	257.46
521.69	304.27
521.86	276.18
522.03	311.29
522.20	290.23
522.38	210.65
522.55	177.88
522.72	205.97
522.89	269.16
523.07	337.04
523.24	245.76
523.41	217.67
523.58	187.24
523.75	245.76
523.92	255.12
524.10	245.76
524.27	227.03
524.44	149.79
524.61	299.59
524.78	252.78
524.96	283.20
525.13	306.61
525.30	220.01
525.47	234.05
525.64	276.18
525.81	271.50
525.98	285.55
526.16	166.18
526.33	248.10
526.50	280.86
526.67	241.08
526.84	294.91
527.01	210.65
527.18	234.05
527.36	255.12
527.53	259.80
527.70	285.55
527.87	283.20
528.04	311.29
528.21	287.89
528.38	285.55
528.55	234.05
528.72	227.03
528.89	320.65
529.07	236.39
529.24	294.91
529.41	231.71
529.58	241.08
529.75	177.88
529.92	229.37
530.09	198.95
530.26	222.35
530.43	278.52
530.60	311.29
530.77	264.48
530.94	264.48
531.11	266.82
531.28	196.60
531.46	318.31
531.63	280.86
531.80	365.12
531.97	220.01
532.14	287.89
532.31	241.08
532.48	217.67
532.65	231.71
532.82	262.14
532.99	259.80
533.16	229.37
533.33	243.42
533.50	222.35
533.67	341.72
533.84	236.39
534.01	231.71
534.18	250.44
534.35	229.37
534.52	271.50
534.69	266.82
534.86	276.18
535.03	238.73
535.20	264.48
535.37	306.61
535.54	241.08
535.71	271.50
535.88	308.95
536.05	276.18
536.22	266.82
536.38	325.33
536.55	273.84
536.72	266.82
536.89	248.10
537.06	262.14
537.23	306.61
537.40	252.78
537.57	182.56
537.74	262.14
537.91	322.99
538.08	224.69
538.25	257.46
538.42	276.18
538.59	341.72
538.75	301.93
538.92	257.46
539.09	318.31
539.26	264.48
539.43	327.68
539.60	276.18
539.77	266.82
539.94	346.40
540.11	339.38
540.28	341.72
540.44	372.15
540.61	276.18
540.78	379.17
540.95	383.85
541.12	456.40
541.29	386.19
541.46	454.06
541.62	418.96
541.79	425.98
541.96	451.72
542.13	383.85
542.30	402.57
542.47	435.34
542.63	393.21
542.80	395.55
542.97	416.62
543.14	386.19
543.31	344.06
543.48	477.47
543.64	404.91
543.81	306.61
543.98	379.17
544.15	386.19
544.32	393.21
544.48	362.78
544.65	400.23
544.82	325.33
544.99	418.96
545.16	442.36
545.32	433.00
545.49	554.71
545.66	692.80
545.83	610.88
546.00	613.22
546.16	493.85
546.33	393.21
546.50	402.57
546.67	395.55
546.83	400.23
547.00	346.40
547.17	325.33
547.34	311.29
547.50	273.84
547.67	299.59
547.84	327.68
548.00	334.70
548.17	318.31
548.34	393.21
548.51	386.19
548.67	334.70
548.84	369.80
549.01	285.55
549.18	299.59
549.34	208.31
549.51	334.70
549.68	280.86
549.84	332.36
550.01	330.02
550.18	372.15
550.34	421.30
550.51	283.20
550.68	337.04
550.84	290.23
551.01	344.06
551.18	311.29
551.34	353.42
551.51	318.31
551.68	264.48
551.84	313.63
552.01	259.80
552.18	278.52
552.34	269.16
552.51	341.72
552.68	264.48
552.84	248.10
553.01	234.05
553.18	273.84
553.34	299.59
553.51	243.42
553.67	248.10
553.84	278.52
554.01	292.57
554.17	325.33
554.34	308.95
554.51	224.69
554.67	266.82
554.84	238.73
555.00	299.59
555.17	262.14
555.33	271.50
555.50	297.25
555.67	234.05
555.83	365.12
556.00	243.42
556.16	386.19
556.33	262.14
556.50	269.16
556.66	238.73
556.83	198.95
556.99	262.14
557.16	227.03
557.32	191.92
557.49	238.73
557.65	250.44
557.82	248.10
557.98	259.80
558.15	283.20
558.32	287.89
558.48	227.03
558.65	238.73
558.81	276.18
558.98	217.67
559.14	287.89
559.31	259.80
559.47	243.42
559.64	217.67
559.80	241.08
559.97	175.54
560.13	241.08
560.30	189.58
560.46	252.78
560.63	264.48
560.79	245.76
560.96	257.46
561.12	292.57
561.29	283.20
561.45	255.12
561.61	306.61
561.78	269.16
561.94	184.90
562.11	180.22
562.27	243.42
562.44	234.05
562.60	280.86
562.77	227.03
562.93	311.29
563.10	231.71
563.26	236.39
563.42	337.04
563.59	201.29
563.75	191.92
563.92	292.57
564.08	269.16
564.24	341.72
564.41	245.76
564.57	236.39
564.74	287.89
564.90	276.18
565.07	241.08
565.23	170.86
565.39	217.67
565.56	299.59
565.72	203.63
565.88	191.92
566.05	245.76
566.21	252.78
566.38	283.20
566.54	220.01
566.70	184.90
566.87	334.70
567.03	248.10
567.19	201.29
567.36	243.42
567.52	259.80
567.68	224.69
567.85	208.31
568.01	177.88
568.17	215.33
568.34	196.60
568.50	227.03
568.66	227.03
568.83	276.18
568.99	205.97
569.15	217.67
569.32	330.02
569.48	290.23
569.64	229.37
569.81	252.78
569.97	285.55
570.13	287.89
570.30	299.59
570.46	292.57
570.62	245.76
570.78	177.88
570.95	203.63
571.11	294.91
571.27	262.14
571.43	238.73
571.60	252.78
571.76	238.73
571.92	304.27
572.09	173.20
572.25	191.92
572.41	257.46
572.57	161.50
572.74	224.69
572.90	306.61
573.06	212.99
573.22	248.10
573.38	241.08
573.55	180.22
573.71	227.03
573.87	191.92
574.03	177.88
574.20	229.37
574.36	264.48
574.52	248.10
574.68	334.70
574.84	231.71
575.01	222.35
575.17	266.82
575.33	290.23
575.49	337.04
575.65	229.37
575.82	287.89
575.98	351.08
576.14	252.78
576.30	198.95
576.46	266.82
576.62	271.50
576.79	346.40
576.95	332.36
577.11	236.39
577.27	224.69
577.43	348.74
577.59	315.97
577.75	203.63
577.92	285.55
578.08	278.52
578.24	159.16
578.40	332.36
578.56	252.78
578.72	311.29
578.88	332.36
579.04	285.55
579.21	297.25
579.37	266.82
579.53	304.27
579.69	358.10
579.85	285.55
580.01	306.61
580.17	276.18
580.33	224.69
580.49	337.04
580.65	248.10
580.82	264.48
580.98	278.52
581.14	248.10
581.30	299.59
581.46	184.90
581.62	222.35
581.78	229.37
581.94	290.23
582.10	177.88
582.26	273.84
582.42	255.12
582.58	318.31
582.74	266.82
582.90	294.91
583.06	266.82
583.22	297.25
583.38	250.44
583.54	276.18
583.70	255.12
583.86	290.23
584.02	287.89
584.18	381.51
584.34	271.50
584.50	227.03
584.66	264.48
584.82	313.63
584.98	241.08
585.14	250.44
585.30	311.29
585.46	269.16
585.62	308.95
585.78	252.78
585.94	341.72
586.10	292.57
586.26	241.08
586.42	297.25
586.58	264.48
586.74	315.97
586.90	332.36
587.06	351.08
587.22	297.25
587.38	285.55
587.54	255.12
587.70	311.29
587.86	322.99
588.02	252.78
588.18	212.99
588.34	290.23
588.49	245.76
588.65	234.05
588.81	334.70
588.97	285.55
589.13	198.95
589.29	212.99
589.45	241.08
589.61	217.67
589.77	306.61
589.93	255.12
590.08	189.58
590.24	231.71
590.40	220.01
590.56	320.65
590.72	189.58
590.88	194.26
591.04	273.84
591.20	266.82
591.35	271.50
591.51	273.84
591.67	238.73
591.83	194.26
591.99	290.23
592.15	273.84
592.31	220.01
592.46	304.27
592.62	344.06
592.78	215.33
592.94	257.46
593.10	210.65
593.26	262.14
593.41	271.50
593.57	344.06
593.73	299.59
593.89	245.76
594.05	208.31
594.20	262.14
594.36	290.23
594.52	250.44
594.68	245.76
594.84	229.37
594.99	269.16
595.15	269.16
595.31	215.33
595.47	348.74
595.62	196.60
595.78	299.59
595.94	250.44
596.10	255.12
596.25	220.01
596.41	287.89
596.57	262.14
596.73	243.42
596.88	227.03
597.04	243.42
597.20	273.84
597.36	325.33
597.51	266.82
597.67	210.65
597.83	229.37
597.99	255.12
598.14	297.25
598.30	299.59
598.46	243.42
598.61	264.48
598.77	297.25
598.93	236.39
599.09	238.73
599.24	339.38
599.40	257.46
599.56	224.69
599.71	234.05
599.87	266.82
600.03	299.59
600.18	243.42
600.34	276.18
600.50	243.42
600.65	236.39
600.81	334.70
600.97	205.97
601.12	231.71
601.28	231.71
601.44	196.60
601.59	217.67
601.75	184.90
601.91	252.78
602.06	227.03
602.22	245.76
602.37	252.78
602.53	161.50
602.69	271.50
602.84	236.39
603.00	201.29
603.16	229.37
603.31	287.89
603.47	250.44
603.62	224.69
603.78	231.71
603.94	243.42
604.09	210.65
604.25	224.69
604.40	227.03
604.56	208.31
604.71	222.35
604.87	208.31
605.03	238.73
605.18	334.70
605.34	306.61
605.49	315.97
605.65	344.06
605.80	243.42
605.96	290.23
606.12	283.20
606.27	224.69
606.43	222.35
606.58	236.39
606.74	262.14
606.89	243.42
607.05	327.68
607.20	210.65
607.36	313.63
607.51	264.48
607.67	306.61
607.82	255.12
607.98	262.14
608.13	234.05
608.29	355.76
608.44	301.93
608.60	273.84
608.75	292.57
608.91	308.95
609.06	297.25
609.22	306.61
609.37	334.70
609.53	334.70
609.68	276.18
609.84	280.86
609.99	301.93
610.15	388.53
610.30	437.68
610.46	524.28
610.61	552.37
610.76	571.09
