SpectraSuite Data File
++++++++++++++++++++++++++++++++++++
Date: Fri Oct 04 11:34:11 GMT-05:00 2013
User: price-jones
Dark Spectrum Present: No
Reference Spectrum Present: No
Number of Sampled Component Spectra: 1
Spectrometers: USB2+H05261
Integration Time (usec): 100000 (USB2+H05261)
Spectra Averaged: 1 (USB2+H05261)
Boxcar Smoothing: 0 (USB2+H05261)
Correct for Electrical Dark: No (USB2+H05261)
Strobe/Lamp Enabled: No (USB2+H05261)
Correct for Detector Non-linearity: No (USB2+H05261)
Correct for Stray Light: No (USB2+H05261)
Number of Pixels in Processed Spectrum: 2048
>>>>>Begin Processed Spectral Data<<<<<
365.73	117.03
365.92	117.03
366.12	117.03
366.32	0.00
366.52	28.09
366.72	0.00
366.91	0.00
367.11	0.00
367.31	0.00
367.51	0.00
367.70	18.72
367.90	0.00
368.10	0.00
368.30	4.68
368.49	0.00
368.69	0.00
368.89	0.00
369.09	9.36
369.28	0.00
369.48	0.00
369.68	42.13
369.87	0.00
370.07	0.00
370.27	81.92
370.47	37.45
370.66	0.00
370.86	98.30
371.06	70.22
371.25	180.22
371.45	81.92
371.65	88.94
371.84	44.47
372.04	133.41
372.24	93.62
372.44	74.90
372.63	168.52
372.83	191.92
373.03	51.49
373.22	67.88
373.42	161.50
373.62	149.79
373.81	168.52
374.01	201.29
374.21	182.56
374.40	163.84
374.60	212.99
374.79	133.41
374.99	107.66
375.19	212.99
375.38	112.35
375.58	110.01
375.78	205.97
375.97	182.56
376.17	182.56
376.37	198.95
376.56	152.13
376.76	124.05
376.95	124.05
377.15	114.69
377.35	152.13
377.54	161.50
377.74	140.43
377.93	147.45
378.13	110.01
378.33	110.01
378.52	140.43
378.72	154.48
378.91	173.20
379.11	142.77
379.31	161.50
379.50	67.88
379.70	173.20
379.89	147.45
380.09	105.32
380.28	112.35
380.48	161.50
380.68	196.60
380.87	189.58
381.07	133.41
381.26	168.52
381.46	182.56
381.65	175.54
381.85	145.11
382.04	184.90
382.24	145.11
382.43	147.45
382.63	98.30
382.83	147.45
383.02	191.92
383.22	135.75
383.41	65.54
383.61	156.82
383.80	124.05
384.00	170.86
384.19	124.05
384.39	149.79
384.58	128.73
384.78	126.39
384.97	140.43
385.17	159.16
385.36	93.62
385.56	117.03
385.75	72.56
385.95	39.79
386.14	142.77
386.34	58.51
386.53	177.88
386.72	124.05
386.92	135.75
387.11	205.97
387.31	156.82
387.50	198.95
387.70	107.66
387.89	177.88
388.09	149.79
388.28	161.50
388.48	203.63
388.67	154.48
388.86	205.97
389.06	154.48
389.25	86.60
389.45	126.39
389.64	205.97
389.84	175.54
390.03	191.92
390.22	203.63
390.42	112.35
390.61	184.90
390.81	154.48
391.00	156.82
391.19	100.64
391.39	126.39
391.58	86.60
391.78	191.92
391.97	91.28
392.16	152.13
392.36	182.56
392.55	135.75
392.75	107.66
392.94	170.86
393.13	131.07
393.33	65.54
393.52	145.11
393.71	112.35
393.91	154.48
394.10	142.77
394.29	182.56
394.49	117.03
394.68	217.67
394.88	147.45
395.07	100.64
395.26	191.92
395.46	147.45
395.65	124.05
395.84	142.77
396.04	163.84
396.23	102.98
396.42	67.88
396.62	173.20
396.81	152.13
397.00	107.66
397.19	110.01
397.39	145.11
397.58	135.75
397.77	191.92
397.97	182.56
398.16	156.82
398.35	81.92
398.55	152.13
398.74	117.03
398.93	187.24
399.12	77.24
399.32	196.60
399.51	175.54
399.70	159.16
399.90	100.64
400.09	180.22
400.28	170.86
400.47	133.41
400.67	124.05
400.86	126.39
401.05	145.11
401.24	189.58
401.44	175.54
401.63	131.07
401.82	128.73
402.01	119.37
402.21	180.22
402.40	170.86
402.59	161.50
402.78	149.79
402.97	124.05
403.17	131.07
403.36	119.37
403.55	147.45
403.74	168.52
403.93	180.22
404.13	208.31
404.32	166.18
404.51	166.18
404.70	208.31
404.89	117.03
405.09	241.08
405.28	140.43
405.47	107.66
405.66	58.51
405.85	114.69
406.05	194.26
406.24	117.03
406.43	112.35
406.62	205.97
406.81	166.18
407.00	145.11
407.20	161.50
407.39	138.09
407.58	140.43
407.77	201.29
407.96	177.88
408.15	119.37
408.34	133.41
408.54	163.84
408.73	215.33
408.92	187.24
409.11	102.98
409.30	152.13
409.49	86.60
409.68	163.84
409.87	184.90
410.07	124.05
410.26	128.73
410.45	91.28
410.64	180.22
410.83	112.35
411.02	170.86
411.21	177.88
411.40	149.79
411.59	201.29
411.78	170.86
411.98	131.07
412.17	159.16
412.36	173.20
412.55	98.30
412.74	163.84
412.93	168.52
413.12	100.64
413.31	194.26
413.50	159.16
413.69	182.56
413.88	180.22
414.07	119.37
414.26	173.20
414.45	205.97
414.64	110.01
414.83	147.45
415.02	177.88
415.22	248.10
415.41	191.92
415.60	95.96
415.79	203.63
415.98	170.86
416.17	100.64
416.36	159.16
416.55	163.84
416.74	224.69
416.93	224.69
417.12	222.35
417.31	175.54
417.50	147.45
417.69	156.82
417.88	126.39
418.07	133.41
418.26	140.43
418.45	159.16
418.64	236.39
418.83	194.26
419.02	128.73
419.21	138.09
419.39	227.03
419.58	142.77
419.77	194.26
419.96	156.82
420.15	241.08
420.34	166.18
420.53	189.58
420.72	212.99
420.91	138.09
421.10	177.88
421.29	205.97
421.48	98.30
421.67	180.22
421.86	220.01
422.05	133.41
422.24	161.50
422.43	100.64
422.61	93.62
422.80	159.16
422.99	194.26
423.18	124.05
423.37	187.24
423.56	205.97
423.75	212.99
423.94	170.86
424.13	131.07
424.32	121.71
424.50	163.84
424.69	166.18
424.88	184.90
425.07	184.90
425.26	184.90
425.45	133.41
425.64	177.88
425.83	147.45
426.01	196.60
426.20	196.60
426.39	215.33
426.58	154.48
426.77	205.97
426.96	166.18
427.15	189.58
427.33	161.50
427.52	173.20
427.71	138.09
427.90	166.18
428.09	147.45
428.28	159.16
428.46	166.18
428.65	126.39
428.84	227.03
429.03	187.24
429.22	159.16
429.40	145.11
429.59	163.84
429.78	229.37
429.97	170.86
430.16	131.07
430.34	175.54
430.53	177.88
430.72	100.64
430.91	210.65
431.10	191.92
431.28	149.79
431.47	180.22
431.66	131.07
431.85	140.43
432.03	117.03
432.22	224.69
432.41	182.56
432.60	173.20
432.79	180.22
432.97	205.97
433.16	189.58
433.35	145.11
433.54	208.31
433.72	208.31
433.91	217.67
434.10	142.77
434.28	168.52
434.47	145.11
434.66	201.29
434.85	201.29
435.03	210.65
435.22	315.97
435.41	428.32
435.59	369.80
435.78	175.54
435.97	215.33
436.16	283.20
436.34	224.69
436.53	159.16
436.72	126.39
436.90	208.31
437.09	187.24
437.28	318.31
437.46	161.50
437.65	208.31
437.84	191.92
438.02	161.50
438.21	126.39
438.40	170.86
438.58	156.82
438.77	191.92
438.96	191.92
439.14	133.41
439.33	168.52
439.52	201.29
439.70	177.88
439.89	241.08
440.08	177.88
440.26	177.88
440.45	212.99
440.63	182.56
440.82	250.44
441.01	110.01
441.19	210.65
441.38	278.52
441.57	198.95
441.75	166.18
441.94	215.33
442.12	168.52
442.31	124.05
442.50	177.88
442.68	220.01
442.87	159.16
443.05	152.13
443.24	196.60
443.43	175.54
443.61	175.54
443.80	133.41
443.98	194.26
444.17	161.50
444.35	121.71
444.54	212.99
444.73	203.63
444.91	173.20
445.10	173.20
445.28	88.94
445.47	168.52
445.65	161.50
445.84	140.43
446.02	145.11
446.21	182.56
446.39	128.73
446.58	222.35
446.77	203.63
446.95	215.33
447.14	184.90
447.32	86.60
447.51	166.18
447.69	215.33
447.88	161.50
448.06	250.44
448.25	191.92
448.43	149.79
448.62	222.35
448.80	156.82
448.99	203.63
449.17	177.88
449.36	175.54
449.54	208.31
449.73	196.60
449.91	255.12
450.10	159.16
450.28	248.10
450.46	262.14
450.65	285.55
450.83	187.24
451.02	187.24
451.20	229.37
451.39	189.58
451.57	126.39
451.76	159.16
451.94	184.90
452.13	205.97
452.31	215.33
452.49	236.39
452.68	114.69
452.86	217.67
453.05	222.35
453.23	259.80
453.42	198.95
453.60	154.48
453.78	234.05
453.97	156.82
454.15	161.50
454.34	142.77
454.52	140.43
454.70	147.45
454.89	140.43
455.07	175.54
455.26	180.22
455.44	131.07
455.62	166.18
455.81	245.76
455.99	187.24
456.17	166.18
456.36	147.45
456.54	180.22
456.73	170.86
456.91	149.79
457.09	264.48
457.28	280.86
457.46	229.37
457.64	201.29
457.83	154.48
458.01	187.24
458.19	168.52
458.38	208.31
458.56	229.37
458.74	191.92
458.93	201.29
459.11	166.18
459.29	180.22
459.48	238.73
459.66	133.41
459.84	166.18
460.03	306.61
460.21	229.37
460.39	135.75
460.57	184.90
460.76	159.16
460.94	152.13
461.12	229.37
461.31	198.95
461.49	177.88
461.67	201.29
461.85	205.97
462.04	154.48
462.22	641.31
462.40	212.99
462.59	203.63
462.77	159.16
462.95	128.73
463.13	182.56
463.32	198.95
463.50	145.11
463.68	156.82
463.86	161.50
464.05	138.09
464.23	205.97
464.41	248.10
464.59	124.05
464.78	159.16
464.96	135.75
465.14	250.44
465.32	187.24
465.50	154.48
465.69	177.88
465.87	191.92
466.05	131.07
466.23	191.92
466.41	215.33
466.60	175.54
466.78	173.20
466.96	250.44
467.14	198.95
467.32	243.42
467.51	198.95
467.69	166.18
467.87	212.99
468.05	187.24
468.23	318.31
468.41	238.73
468.60	196.60
468.78	212.99
468.96	182.56
469.14	189.58
469.32	177.88
469.50	133.41
469.69	273.84
469.87	215.33
470.05	184.90
470.23	117.03
470.41	159.16
470.59	187.24
470.77	142.77
470.95	231.71
471.14	229.37
471.32	182.56
471.50	147.45
471.68	166.18
471.86	170.86
472.04	196.60
472.22	168.52
472.40	121.71
472.58	205.97
472.77	138.09
472.95	210.65
473.13	220.01
473.31	227.03
473.49	212.99
473.67	173.20
473.85	170.86
474.03	229.37
474.21	208.31
474.39	236.39
474.57	250.44
474.75	215.33
474.93	187.24
475.12	203.63
475.30	182.56
475.48	145.11
475.66	212.99
475.84	220.01
476.02	227.03
476.20	196.60
476.38	173.20
476.56	212.99
476.74	212.99
476.92	102.98
477.10	170.86
477.28	201.29
477.46	217.67
477.64	196.60
477.82	191.92
478.00	184.90
478.18	191.92
478.36	243.42
478.54	224.69
478.72	177.88
478.90	189.58
479.08	135.75
479.26	255.12
479.44	220.01
479.62	156.82
479.80	133.41
479.98	156.82
480.16	236.39
480.34	203.63
480.52	166.18
480.70	180.22
480.88	224.69
481.06	222.35
481.24	182.56
481.41	194.26
481.59	161.50
481.77	140.43
481.95	173.20
482.13	318.31
482.31	250.44
482.49	208.31
482.67	177.88
482.85	231.71
483.03	170.86
483.21	163.84
483.39	238.73
483.57	191.92
483.74	238.73
483.92	177.88
484.10	170.86
484.28	191.92
484.46	271.50
484.64	210.65
484.82	229.37
485.00	201.29
485.18	250.44
485.35	170.86
485.53	135.75
485.71	255.12
485.89	166.18
486.07	259.80
486.25	271.50
486.43	231.71
486.61	285.55
486.78	269.16
486.96	196.60
487.14	215.33
487.32	198.95
487.50	271.50
487.68	227.03
487.85	201.29
488.03	220.01
488.21	276.18
488.39	215.33
488.57	327.68
488.75	201.29
488.92	538.32
489.10	234.05
489.28	285.55
489.46	180.22
489.64	231.71
489.81	297.25
489.99	262.14
490.17	271.50
490.35	278.52
490.53	283.20
490.70	238.73
490.88	290.23
491.06	276.18
491.24	222.35
491.41	273.84
491.59	184.90
491.77	255.12
491.95	280.86
492.13	236.39
492.30	285.55
492.48	152.13
492.66	238.73
492.84	210.65
493.01	210.65
493.19	292.57
493.37	292.57
493.54	325.33
493.72	337.04
493.90	266.82
494.08	182.56
494.25	248.10
494.43	177.88
494.61	255.12
494.79	234.05
494.96	175.54
495.14	313.63
495.32	257.46
495.49	222.35
495.67	224.69
495.85	264.48
496.02	236.39
496.20	255.12
496.38	180.22
496.55	248.10
496.73	266.82
496.91	259.80
497.09	191.92
497.26	245.76
497.44	304.27
497.62	252.78
497.79	245.76
497.97	215.33
498.14	236.39
498.32	241.08
498.50	238.73
498.67	262.14
498.85	266.82
499.03	245.76
499.20	322.99
499.38	173.20
499.56	252.78
499.73	236.39
499.91	264.48
500.08	283.20
500.26	243.42
500.44	147.45
500.61	252.78
500.79	271.50
500.97	257.46
501.14	294.91
501.32	236.39
501.49	306.61
501.67	229.37
501.84	191.92
502.02	220.01
502.20	196.60
502.37	241.08
502.55	285.55
502.72	227.03
502.90	255.12
503.07	264.48
503.25	201.29
503.43	234.05
503.60	266.82
503.78	337.04
503.95	166.18
504.13	210.65
504.30	222.35
504.48	175.54
504.65	283.20
504.83	243.42
505.01	262.14
505.18	212.99
505.36	180.22
505.53	252.78
505.71	205.97
505.88	238.73
506.06	243.42
506.23	264.48
506.41	215.33
506.58	313.63
506.76	248.10
506.93	241.08
507.11	290.23
507.28	196.60
507.46	229.37
507.63	236.39
507.81	255.12
507.98	184.90
508.16	180.22
508.33	257.46
508.50	257.46
508.68	231.71
508.85	250.44
509.03	327.68
509.20	252.78
509.38	299.59
509.55	327.68
509.73	224.69
509.90	255.12
510.08	220.01
510.25	299.59
510.42	271.50
510.60	285.55
510.77	252.78
510.95	273.84
511.12	292.57
511.30	259.80
511.47	208.31
511.64	301.93
511.82	252.78
511.99	191.92
512.17	278.52
512.34	250.44
512.51	294.91
512.69	292.57
512.86	269.16
513.04	231.71
513.21	187.24
513.38	194.26
513.56	327.68
513.73	238.73
513.90	215.33
514.08	266.82
514.25	182.56
514.43	231.71
514.60	257.46
514.77	187.24
514.95	243.42
515.12	315.97
515.29	320.65
515.47	222.35
515.64	241.08
515.81	184.90
515.99	276.18
516.16	297.25
516.33	243.42
516.51	198.95
516.68	243.42
516.85	227.03
517.03	283.20
517.20	229.37
517.37	217.67
517.54	245.76
517.72	264.48
517.89	264.48
518.06	241.08
518.24	262.14
518.41	285.55
518.58	301.93
518.75	168.52
518.93	224.69
519.10	264.48
519.27	271.50
519.45	252.78
519.62	212.99
519.79	241.08
519.96	220.01
520.14	266.82
520.31	365.12
520.48	269.16
520.65	231.71
520.83	262.14
521.00	262.14
521.17	285.55
521.34	266.82
521.52	257.46
521.69	271.50
521.86	362.78
522.03	299.59
522.20	327.68
522.38	180.22
522.55	257.46
522.72	238.73
522.89	248.10
523.07	311.29
523.24	236.39
523.41	238.73
523.58	280.86
523.75	180.22
523.92	194.26
524.10	304.27
524.27	234.05
524.44	224.69
524.61	241.08
524.78	234.05
524.96	220.01
525.13	269.16
525.30	262.14
525.47	313.63
525.64	222.35
525.81	243.42
525.98	280.86
526.16	234.05
526.33	248.10
526.50	217.67
526.67	224.69
526.84	236.39
527.01	266.82
527.18	271.50
527.36	215.33
527.53	236.39
527.70	205.97
527.87	196.60
528.04	306.61
528.21	196.60
528.38	266.82
528.55	292.57
528.72	294.91
528.89	264.48
529.07	283.20
529.24	287.89
529.41	264.48
529.58	276.18
529.75	278.52
529.92	236.39
530.09	248.10
530.26	252.78
530.43	306.61
530.60	278.52
530.77	327.68
530.94	212.99
531.11	191.92
531.28	245.76
531.46	215.33
531.63	294.91
531.80	280.86
531.97	205.97
532.14	278.52
532.31	173.20
532.48	229.37
532.65	308.95
532.82	231.71
532.99	243.42
533.16	320.65
533.33	299.59
533.50	297.25
533.67	311.29
533.84	292.57
534.01	332.36
534.18	273.84
534.35	346.40
534.52	234.05
534.69	313.63
534.86	245.76
535.03	318.31
535.20	259.80
535.37	266.82
535.54	266.82
535.71	313.63
535.88	255.12
536.05	182.56
536.22	315.97
536.38	255.12
536.55	271.50
536.72	292.57
536.89	287.89
537.06	285.55
537.23	339.38
537.40	278.52
537.57	341.72
537.74	311.29
537.91	346.40
538.08	353.42
538.25	292.57
538.42	264.48
538.59	351.08
538.75	227.03
538.92	306.61
539.09	320.65
539.26	252.78
539.43	313.63
539.60	355.76
539.77	369.80
539.94	360.44
540.11	379.17
540.28	451.72
540.44	435.34
540.61	407.25
540.78	306.61
540.95	402.57
541.12	425.98
541.29	468.11
541.46	524.28
541.62	369.80
541.79	421.30
541.96	425.98
542.13	463.43
542.30	479.81
542.47	475.13
542.63	425.98
542.80	416.62
542.97	430.66
543.14	411.93
543.31	404.91
543.48	402.57
543.64	442.36
543.81	416.62
543.98	447.04
544.15	440.02
544.32	447.04
544.48	465.77
544.65	416.62
544.82	400.23
544.99	440.02
545.16	421.30
545.32	430.66
545.49	629.60
545.66	734.93
545.83	741.95
546.00	657.69
546.16	554.71
546.33	517.26
546.50	423.64
546.67	341.72
546.83	376.83
547.00	301.93
547.17	351.08
547.34	353.42
547.50	327.68
547.67	374.49
547.84	315.97
548.00	276.18
548.17	322.99
548.34	360.44
548.51	337.04
548.67	276.18
548.84	362.78
549.01	308.95
549.18	327.68
549.34	362.78
549.51	360.44
549.68	308.95
549.84	318.31
550.01	224.69
550.18	393.21
550.34	355.76
550.51	308.95
550.68	360.44
550.84	278.52
551.01	222.35
551.18	322.99
551.34	299.59
551.51	278.52
551.68	313.63
551.84	322.99
552.01	241.08
552.18	236.39
552.34	283.20
552.51	271.50
552.68	301.93
552.84	220.01
553.01	304.27
553.18	215.33
553.34	299.59
553.51	285.55
553.67	353.42
553.84	322.99
554.01	351.08
554.17	255.12
554.34	222.35
554.51	264.48
554.67	257.46
554.84	304.27
555.00	236.39
555.17	243.42
555.33	264.48
555.50	280.86
555.67	262.14
555.83	227.03
556.00	229.37
556.16	393.21
556.33	297.25
556.50	245.76
556.66	273.84
556.83	220.01
556.99	301.93
557.16	278.52
557.32	231.71
557.49	262.14
557.65	315.97
557.82	259.80
557.98	241.08
558.15	257.46
558.32	198.95
558.48	203.63
558.65	306.61
558.81	311.29
558.98	273.84
559.14	294.91
559.31	308.95
559.47	231.71
559.64	252.78
559.80	315.97
559.97	234.05
560.13	315.97
560.30	278.52
560.46	287.89
560.63	248.10
560.79	290.23
560.96	245.76
561.12	299.59
561.29	276.18
561.45	257.46
561.61	248.10
561.78	276.18
561.94	236.39
562.11	250.44
562.27	227.03
562.44	257.46
562.60	252.78
562.77	220.01
562.93	344.06
563.10	299.59
563.26	234.05
563.42	304.27
563.59	210.65
563.75	257.46
563.92	255.12
564.08	248.10
564.24	287.89
564.41	318.31
564.57	257.46
564.74	283.20
564.90	283.20
565.07	266.82
565.23	273.84
565.39	234.05
565.56	241.08
565.72	227.03
565.88	252.78
566.05	241.08
566.21	241.08
566.38	189.58
566.54	189.58
566.70	273.84
566.87	266.82
567.03	170.86
567.19	252.78
567.36	191.92
567.52	264.48
567.68	255.12
567.85	196.60
568.01	248.10
568.17	177.88
568.34	311.29
568.50	271.50
568.66	224.69
568.83	299.59
568.99	273.84
569.15	257.46
569.32	189.58
569.48	238.73
569.64	250.44
569.81	255.12
569.97	224.69
570.13	269.16
570.30	238.73
570.46	182.56
570.62	273.84
570.78	250.44
570.95	234.05
571.11	402.57
571.27	276.18
571.43	238.73
571.60	297.25
571.76	210.65
571.92	220.01
572.09	248.10
572.25	194.26
572.41	297.25
572.57	264.48
572.74	266.82
572.90	248.10
573.06	266.82
573.22	215.33
573.38	248.10
573.55	227.03
573.71	297.25
573.87	297.25
574.03	287.89
574.20	215.33
574.36	273.84
574.52	133.41
574.68	203.63
574.84	224.69
575.01	271.50
575.17	269.16
575.33	262.14
575.49	311.29
575.65	308.95
575.82	245.76
575.98	241.08
576.14	262.14
576.30	264.48
576.46	330.02
576.62	334.70
576.79	337.04
576.95	294.91
577.11	257.46
577.27	259.80
577.43	313.63
577.59	250.44
577.75	334.70
577.92	215.33
578.08	222.35
578.24	297.25
578.40	287.89
578.56	304.27
578.72	341.72
578.88	294.91
579.04	304.27
579.21	276.18
579.37	248.10
579.53	229.37
579.69	360.44
579.85	280.86
580.01	311.29
580.17	248.10
580.33	287.89
580.49	362.78
580.65	262.14
580.82	252.78
580.98	304.27
581.14	297.25
581.30	308.95
581.46	238.73
581.62	299.59
581.78	276.18
581.94	259.80
582.10	241.08
582.26	248.10
582.42	271.50
582.58	231.71
582.74	327.68
582.90	280.86
583.06	283.20
583.22	212.99
583.38	285.55
583.54	318.31
583.70	294.91
583.86	334.70
584.02	301.93
584.18	292.57
584.34	299.59
584.50	374.49
584.66	894.08
584.82	1909.88
584.98	2597.99
585.14	2581.61
585.30	1687.53
585.46	1100.05
585.62	746.63
585.78	547.69
585.94	320.65
586.10	313.63
586.26	367.46
586.42	421.30
586.58	372.15
586.74	248.10
586.90	330.02
587.06	332.36
587.22	327.68
587.38	318.31
587.54	264.48
587.70	299.59
587.86	437.68
588.02	491.51
588.18	416.62
588.34	294.91
588.49	280.86
588.65	297.25
588.81	180.22
588.97	245.76
589.13	264.48
589.29	257.46
589.45	271.50
589.61	280.86
589.77	301.93
589.93	208.31
590.08	191.92
590.24	248.10
590.40	250.44
590.56	215.33
590.72	215.33
590.88	220.01
591.04	229.37
591.20	292.57
591.35	255.12
591.51	332.36
591.67	269.16
591.83	227.03
591.99	292.57
592.15	224.69
592.31	306.61
592.46	271.50
592.62	322.99
592.78	264.48
592.94	208.31
593.10	348.74
593.26	234.05
593.41	194.26
593.57	243.42
593.73	243.42
593.89	325.33
594.05	437.68
594.20	575.77
594.36	573.43
594.52	379.17
594.68	365.12
594.84	346.40
594.99	379.17
595.15	266.82
595.31	297.25
595.47	280.86
595.62	208.31
595.78	262.14
595.94	297.25
596.10	210.65
596.25	215.33
596.41	201.29
596.57	299.59
596.73	276.18
596.88	217.67
597.04	365.12
597.20	301.93
597.36	344.06
597.51	334.70
597.67	271.50
597.83	259.80
597.99	358.10
598.14	283.20
598.30	217.67
598.46	327.68
598.61	332.36
598.77	351.08
598.93	238.73
599.09	196.60
599.24	248.10
599.40	269.16
599.56	259.80
599.71	271.50
599.87	259.80
600.03	250.44
600.18	243.42
600.34	304.27
600.50	238.73
600.65	245.76
600.81	234.05
600.97	175.54
601.12	252.78
601.28	320.65
601.44	227.03
601.59	320.65
601.75	252.78
601.91	285.55
602.06	241.08
602.22	339.38
602.37	222.35
602.53	325.33
602.69	308.95
602.84	297.25
603.00	320.65
603.16	255.12
603.31	224.69
603.47	227.03
603.62	287.89
603.78	280.86
603.94	245.76
604.09	208.31
604.25	313.63
604.40	315.97
604.56	334.70
604.71	255.12
604.87	166.18
605.03	229.37
605.18	245.76
605.34	320.65
605.49	255.12
605.65	306.61
605.80	210.65
605.96	248.10
606.12	203.63
606.27	262.14
606.43	292.57
606.58	224.69
606.74	229.37
606.89	351.08
607.05	463.43
607.20	526.62
607.36	535.98
607.51	390.87
607.67	346.40
607.82	301.93
607.98	346.40
608.13	315.97
608.29	234.05
608.44	346.40
608.60	262.14
608.75	285.55
608.91	241.08
609.06	489.17
609.22	641.31
609.37	734.93
609.53	748.97
609.68	531.30
609.84	461.09
609.99	477.47
610.15	514.92
610.30	505.56
610.46	575.77
610.61	561.73
610.76	690.46
610.92	802.80
