SpectraSuite Data File
++++++++++++++++++++++++++++++++++++
Date: Fri Oct 04 11:34:01 GMT-05:00 2013
User: price-jones
Dark Spectrum Present: No
Reference Spectrum Present: No
Number of Sampled Component Spectra: 1
Spectrometers: USB2+H05261
Integration Time (usec): 100000 (USB2+H05261)
Spectra Averaged: 1 (USB2+H05261)
Boxcar Smoothing: 0 (USB2+H05261)
Correct for Electrical Dark: No (USB2+H05261)
Strobe/Lamp Enabled: No (USB2+H05261)
Correct for Detector Non-linearity: No (USB2+H05261)
Correct for Stray Light: No (USB2+H05261)
Number of Pixels in Processed Spectrum: 2048
>>>>>Begin Processed Spectral Data<<<<<
365.73	74.90
365.92	74.90
366.12	74.90
366.32	51.49
366.52	0.00
366.72	0.00
366.91	0.00
367.11	0.00
367.31	0.00
367.51	0.00
367.70	32.77
367.90	4.68
368.10	0.00
368.30	0.00
368.49	0.00
368.69	0.00
368.89	18.72
369.09	0.00
369.28	0.00
369.48	14.04
369.68	7.02
369.87	0.00
370.07	0.00
370.27	23.41
370.47	42.13
370.66	49.15
370.86	63.19
371.06	128.73
371.25	124.05
371.45	86.60
371.65	135.75
371.84	121.71
372.04	70.22
372.24	77.24
372.44	86.60
372.63	79.58
372.83	154.48
373.03	124.05
373.22	163.84
373.42	79.58
373.62	44.47
373.81	147.45
374.01	152.13
374.21	110.01
374.40	140.43
374.60	149.79
374.79	159.16
374.99	100.64
375.19	138.09
375.38	170.86
375.58	161.50
375.78	112.35
375.97	180.22
376.17	196.60
376.37	166.18
376.56	131.07
376.76	135.75
376.95	180.22
377.15	194.26
377.35	163.84
377.54	196.60
377.74	44.47
377.93	107.66
378.13	184.90
378.33	208.31
378.52	119.37
378.72	126.39
378.91	114.69
379.11	182.56
379.31	70.22
379.50	79.58
379.70	177.88
379.89	177.88
380.09	126.39
380.28	91.28
380.48	152.13
380.68	51.49
380.87	156.82
381.07	161.50
381.26	238.73
381.46	222.35
381.65	112.35
381.85	72.56
382.04	119.37
382.24	100.64
382.43	124.05
382.63	74.90
382.83	124.05
383.02	166.18
383.22	133.41
383.41	159.16
383.61	86.60
383.80	131.07
384.00	124.05
384.19	100.64
384.39	184.90
384.58	110.01
384.78	117.03
384.97	100.64
385.17	60.85
385.36	77.24
385.56	161.50
385.75	93.62
385.95	107.66
386.14	100.64
386.34	121.71
386.53	194.26
386.72	170.86
386.92	177.88
387.11	124.05
387.31	147.45
387.50	182.56
387.70	95.96
387.89	95.96
388.09	152.13
388.28	95.96
388.48	100.64
388.67	138.09
388.86	166.18
389.06	168.52
389.25	196.60
389.45	138.09
389.64	201.29
389.84	126.39
390.03	168.52
390.22	81.92
390.42	182.56
390.61	166.18
390.81	154.48
391.00	156.82
391.19	159.16
391.39	126.39
391.58	140.43
391.78	170.86
391.97	100.64
392.16	63.19
392.36	227.03
392.55	182.56
392.75	126.39
392.94	114.69
393.13	229.37
393.33	119.37
393.52	140.43
393.71	205.97
393.91	149.79
394.10	86.60
394.29	147.45
394.49	131.07
394.68	187.24
394.88	234.05
395.07	177.88
395.26	187.24
395.46	175.54
395.65	201.29
395.84	79.58
396.04	189.58
396.23	140.43
396.42	126.39
396.62	98.30
396.81	112.35
397.00	138.09
397.19	210.65
397.39	159.16
397.58	250.44
397.77	107.66
397.97	152.13
398.16	147.45
398.35	107.66
398.55	177.88
398.74	138.09
398.93	154.48
399.12	182.56
399.32	189.58
399.51	212.99
399.70	177.88
399.90	168.52
400.09	124.05
400.28	163.84
400.47	119.37
400.67	184.90
400.86	173.20
401.05	224.69
401.24	147.45
401.44	184.90
401.63	175.54
401.82	187.24
402.01	91.28
402.21	173.20
402.40	124.05
402.59	131.07
402.78	135.75
402.97	147.45
403.17	100.64
403.36	194.26
403.55	79.58
403.74	243.42
403.93	234.05
404.13	276.18
404.32	222.35
404.51	152.13
404.70	156.82
404.89	182.56
405.09	184.90
405.28	161.50
405.47	152.13
405.66	173.20
405.85	147.45
406.05	133.41
406.24	170.86
406.43	140.43
406.62	191.92
406.81	203.63
407.00	191.92
407.20	124.05
407.39	119.37
407.58	154.48
407.77	163.84
407.96	250.44
408.15	227.03
408.34	208.31
408.54	175.54
408.73	133.41
408.92	102.98
409.11	159.16
409.30	210.65
409.49	175.54
409.68	149.79
409.87	194.26
410.07	152.13
410.26	173.20
410.45	180.22
410.64	156.82
410.83	145.11
411.02	168.52
411.21	173.20
411.40	135.75
411.59	187.24
411.78	161.50
411.98	224.69
412.17	170.86
412.36	168.52
412.55	110.01
412.74	189.58
412.93	227.03
413.12	203.63
413.31	191.92
413.50	220.01
413.69	131.07
413.88	145.11
414.07	196.60
414.26	147.45
414.45	124.05
414.64	161.50
414.83	149.79
415.02	159.16
415.22	203.63
415.41	191.92
415.60	203.63
415.79	212.99
415.98	205.97
416.17	194.26
416.36	229.37
416.55	173.20
416.74	198.95
416.93	208.31
417.12	112.35
417.31	170.86
417.50	131.07
417.69	245.76
417.88	212.99
418.07	250.44
418.26	133.41
418.45	177.88
418.64	287.89
418.83	248.10
419.02	205.97
419.21	170.86
419.39	140.43
419.58	212.99
419.77	215.33
419.96	217.67
420.15	215.33
420.34	159.16
420.53	210.65
420.72	166.18
420.91	119.37
421.10	152.13
421.29	124.05
421.48	131.07
421.67	135.75
421.86	81.92
422.05	140.43
422.24	149.79
422.43	133.41
422.61	138.09
422.80	161.50
422.99	168.52
423.18	184.90
423.37	222.35
423.56	100.64
423.75	180.22
423.94	152.13
424.13	112.35
424.32	79.58
424.50	105.32
424.69	220.01
424.88	203.63
425.07	133.41
425.26	224.69
425.45	292.57
425.64	198.95
425.83	306.61
426.01	229.37
426.20	180.22
426.39	175.54
426.58	212.99
426.77	205.97
426.96	264.48
427.15	196.60
427.33	168.52
427.52	227.03
427.71	212.99
427.90	187.24
428.09	131.07
428.28	189.58
428.46	248.10
428.65	201.29
428.84	203.63
429.03	222.35
429.22	149.79
429.40	203.63
429.59	149.79
429.78	236.39
429.97	168.52
430.16	140.43
430.34	145.11
430.53	189.58
430.72	170.86
430.91	147.45
431.10	175.54
431.28	147.45
431.47	159.16
431.66	177.88
431.85	175.54
432.03	262.14
432.22	285.55
432.41	156.82
432.60	271.50
432.79	203.63
432.97	273.84
433.16	243.42
433.35	292.57
433.54	182.56
433.72	208.31
433.91	217.67
434.10	212.99
434.28	203.63
434.47	149.79
434.66	196.60
434.85	196.60
435.03	243.42
435.22	407.25
435.41	489.17
435.59	440.02
435.78	409.59
435.97	205.97
436.16	203.63
436.34	187.24
436.53	245.76
436.72	208.31
436.90	252.78
437.09	152.13
437.28	168.52
437.46	156.82
437.65	191.92
437.84	241.08
438.02	149.79
438.21	119.37
438.40	119.37
438.58	154.48
438.77	128.73
438.96	175.54
439.14	138.09
439.33	222.35
439.52	238.73
439.70	264.48
439.89	234.05
440.08	170.86
440.26	131.07
440.45	182.56
440.63	175.54
440.82	177.88
441.01	241.08
441.19	224.69
441.38	112.35
441.57	152.13
441.75	201.29
441.94	154.48
442.12	229.37
442.31	212.99
442.50	241.08
442.68	205.97
442.87	187.24
443.05	189.58
443.24	191.92
443.43	201.29
443.61	198.95
443.80	189.58
443.98	161.50
444.17	220.01
444.35	182.56
444.54	182.56
444.73	170.86
444.91	208.31
445.10	114.69
445.28	154.48
445.47	173.20
445.65	154.48
445.84	170.86
446.02	191.92
446.21	173.20
446.39	126.39
446.58	287.89
446.77	210.65
446.95	161.50
447.14	187.24
447.32	161.50
447.51	156.82
447.69	131.07
447.88	217.67
448.06	182.56
448.25	131.07
448.43	187.24
448.62	166.18
448.80	187.24
448.99	208.31
449.17	196.60
449.36	163.84
449.54	198.95
449.73	198.95
449.91	266.82
450.10	205.97
450.28	191.92
450.46	215.33
450.65	210.65
450.83	205.97
451.02	212.99
451.20	191.92
451.39	194.26
451.57	208.31
451.76	138.09
451.94	224.69
452.13	173.20
452.31	255.12
452.49	189.58
452.68	191.92
452.86	184.90
453.05	243.42
453.23	163.84
453.42	205.97
453.60	173.20
453.78	91.28
453.97	182.56
454.15	180.22
454.34	215.33
454.52	168.52
454.70	191.92
454.89	198.95
455.07	194.26
455.26	252.78
455.44	205.97
455.62	182.56
455.81	142.77
455.99	133.41
456.17	231.71
456.36	173.20
456.54	168.52
456.73	250.44
456.91	227.03
457.09	145.11
457.28	187.24
457.46	217.67
457.64	210.65
457.83	154.48
458.01	210.65
458.19	175.54
458.38	180.22
458.56	229.37
458.74	187.24
458.93	292.57
459.11	220.01
459.29	182.56
459.48	114.69
459.66	227.03
459.84	241.08
460.03	243.42
460.21	198.95
460.39	180.22
460.57	177.88
460.76	189.58
460.94	156.82
461.12	243.42
461.31	222.35
461.49	203.63
461.67	152.13
461.85	198.95
462.04	210.65
462.22	709.18
462.40	290.23
462.59	191.92
462.77	255.12
462.95	229.37
463.13	229.37
463.32	215.33
463.50	217.67
463.68	194.26
463.86	266.82
464.05	131.07
464.23	280.86
464.41	238.73
464.59	203.63
464.78	177.88
464.96	184.90
465.14	166.18
465.32	182.56
465.50	187.24
465.69	250.44
465.87	198.95
466.05	203.63
466.23	212.99
466.41	231.71
466.60	210.65
466.78	276.18
466.96	212.99
467.14	255.12
467.32	177.88
467.51	184.90
467.69	184.90
467.87	177.88
468.05	248.10
468.23	271.50
468.41	173.20
468.60	145.11
468.78	208.31
468.96	208.31
469.14	229.37
469.32	205.97
469.50	241.08
469.69	198.95
469.87	140.43
470.05	262.14
470.23	234.05
470.41	217.67
470.59	201.29
470.77	175.54
470.95	234.05
471.14	168.52
471.32	187.24
471.50	220.01
471.68	269.16
471.86	154.48
472.04	227.03
472.22	131.07
472.40	210.65
472.58	273.84
472.77	191.92
472.95	210.65
473.13	294.91
473.31	276.18
473.49	177.88
473.67	224.69
473.85	259.80
474.03	236.39
474.21	203.63
474.39	210.65
474.57	308.95
474.75	217.67
474.93	224.69
475.12	140.43
475.30	217.67
475.48	252.78
475.66	248.10
475.84	182.56
476.02	154.48
476.20	217.67
476.38	201.29
476.56	250.44
476.74	231.71
476.92	173.20
477.10	283.20
477.28	208.31
477.46	131.07
477.64	243.42
477.82	163.84
478.00	210.65
478.18	294.91
478.36	159.16
478.54	180.22
478.72	248.10
478.90	205.97
479.08	278.52
479.26	243.42
479.44	210.65
479.62	173.20
479.80	180.22
479.98	135.75
480.16	100.64
480.34	217.67
480.52	177.88
480.70	191.92
480.88	201.29
481.06	138.09
481.24	114.69
481.41	191.92
481.59	243.42
481.77	278.52
481.95	170.86
482.13	234.05
482.31	231.71
482.49	250.44
482.67	215.33
482.85	250.44
483.03	236.39
483.21	191.92
483.39	229.37
483.57	224.69
483.74	292.57
483.92	308.95
484.10	161.50
484.28	245.76
484.46	280.86
484.64	229.37
484.82	198.95
485.00	227.03
485.18	205.97
485.35	212.99
485.53	194.26
485.71	257.46
485.89	189.58
486.07	287.89
486.25	271.50
486.43	217.67
486.61	231.71
486.78	220.01
486.96	187.24
487.14	243.42
487.32	262.14
487.50	215.33
487.68	182.56
487.85	245.76
488.03	351.08
488.21	299.59
488.39	264.48
488.57	287.89
488.75	140.43
488.92	444.70
489.10	236.39
489.28	245.76
489.46	248.10
489.64	255.12
489.81	243.42
489.99	308.95
490.17	266.82
490.35	337.04
490.53	252.78
490.70	227.03
490.88	224.69
491.06	255.12
491.24	294.91
491.41	245.76
491.59	227.03
491.77	215.33
491.95	229.37
492.13	215.33
492.30	243.42
492.48	191.92
492.66	245.76
492.84	257.46
493.01	234.05
493.19	283.20
493.37	243.42
493.54	308.95
493.72	285.55
493.90	180.22
494.08	184.90
494.25	252.78
494.43	271.50
494.61	203.63
494.79	236.39
494.96	255.12
495.14	285.55
495.32	276.18
495.49	285.55
495.67	252.78
495.85	259.80
496.02	241.08
496.20	264.48
496.38	238.73
496.55	315.97
496.73	224.69
496.91	236.39
497.09	273.84
497.26	264.48
497.44	175.54
497.62	182.56
497.79	229.37
497.97	241.08
498.14	250.44
498.32	203.63
498.50	278.52
498.67	327.68
498.85	327.68
499.03	250.44
499.20	271.50
499.38	271.50
499.56	273.84
499.73	271.50
499.91	311.29
500.08	369.80
500.26	257.46
500.44	217.67
500.61	231.71
500.79	252.78
500.97	224.69
501.14	374.49
501.32	217.67
501.49	250.44
501.67	210.65
501.84	245.76
502.02	231.71
502.20	257.46
502.37	234.05
502.55	252.78
502.72	285.55
502.90	264.48
503.07	280.86
503.25	245.76
503.43	229.37
503.60	269.16
503.78	252.78
503.95	285.55
504.13	205.97
504.30	238.73
504.48	210.65
504.65	292.57
504.83	208.31
505.01	222.35
505.18	252.78
505.36	294.91
505.53	280.86
505.71	292.57
505.88	301.93
506.06	147.45
506.23	220.01
506.41	292.57
506.58	257.46
506.76	252.78
506.93	250.44
507.11	222.35
507.28	177.88
507.46	292.57
507.63	355.76
507.81	243.42
507.98	208.31
508.16	271.50
508.33	220.01
508.50	241.08
508.68	203.63
508.85	257.46
509.03	264.48
509.20	266.82
509.38	304.27
509.55	264.48
509.73	220.01
509.90	287.89
510.08	222.35
510.25	257.46
510.42	208.31
510.60	264.48
510.77	224.69
510.95	236.39
511.12	257.46
511.30	374.49
511.47	351.08
511.64	332.36
511.82	306.61
511.99	222.35
512.17	322.99
512.34	229.37
512.51	273.84
512.69	227.03
512.86	283.20
513.04	145.11
513.21	245.76
513.38	224.69
513.56	243.42
513.73	290.23
513.90	236.39
514.08	252.78
514.25	271.50
514.43	215.33
514.60	264.48
514.77	210.65
514.95	203.63
515.12	234.05
515.29	285.55
515.47	259.80
515.64	241.08
515.81	315.97
515.99	220.01
516.16	212.99
516.33	266.82
516.51	159.16
516.68	196.60
516.85	241.08
517.03	245.76
517.20	212.99
517.37	257.46
517.54	215.33
517.72	250.44
517.89	227.03
518.06	215.33
518.24	271.50
518.41	311.29
518.58	273.84
518.75	308.95
518.93	259.80
519.10	266.82
519.27	269.16
519.45	276.18
519.62	250.44
519.79	215.33
519.96	297.25
520.14	290.23
520.31	294.91
520.48	173.20
520.65	238.73
520.83	245.76
521.00	262.14
521.17	287.89
521.34	227.03
521.52	301.93
521.69	220.01
521.86	294.91
522.03	344.06
522.20	234.05
522.38	203.63
522.55	248.10
522.72	243.42
522.89	301.93
523.07	369.80
523.24	250.44
523.41	315.97
523.58	229.37
523.75	297.25
523.92	327.68
524.10	290.23
524.27	194.26
524.44	273.84
524.61	322.99
524.78	224.69
524.96	215.33
525.13	351.08
525.30	287.89
525.47	229.37
525.64	220.01
525.81	257.46
525.98	294.91
526.16	262.14
526.33	198.95
526.50	201.29
526.67	177.88
526.84	234.05
527.01	236.39
527.18	264.48
527.36	262.14
527.53	290.23
527.70	308.95
527.87	320.65
528.04	262.14
528.21	269.16
528.38	322.99
528.55	224.69
528.72	330.02
528.89	292.57
529.07	330.02
529.24	252.78
529.41	346.40
529.58	299.59
529.75	227.03
529.92	257.46
530.09	250.44
530.26	271.50
530.43	311.29
530.60	297.25
530.77	250.44
530.94	222.35
531.11	262.14
531.28	205.97
531.46	238.73
531.63	299.59
531.80	280.86
531.97	313.63
532.14	269.16
532.31	255.12
532.48	308.95
532.65	414.27
532.82	376.83
532.99	451.72
533.16	386.19
533.33	348.74
533.50	264.48
533.67	376.83
533.84	425.98
534.01	472.79
534.18	383.85
534.35	400.23
534.52	334.70
534.69	390.87
534.86	280.86
535.03	255.12
535.20	306.61
535.37	304.27
535.54	308.95
535.71	353.42
535.88	393.21
536.05	255.12
536.22	327.68
536.38	330.02
536.55	369.80
536.72	304.27
536.89	304.27
537.06	334.70
537.23	294.91
537.40	313.63
537.57	325.33
537.74	400.23
537.91	337.04
538.08	306.61
538.25	367.46
538.42	313.63
538.59	346.40
538.75	365.12
538.92	327.68
539.09	353.42
539.26	390.87
539.43	575.77
539.60	1165.59
539.77	1685.19
539.94	1664.12
540.11	1219.42
540.28	812.17
540.44	690.46
540.61	486.83
540.78	376.83
540.95	484.49
541.12	627.26
541.29	585.13
541.46	620.24
541.62	603.86
541.79	615.56
541.96	557.05
542.13	606.20
542.30	472.79
542.47	580.45
542.63	491.51
542.80	533.64
542.97	472.79
543.14	477.47
543.31	486.83
543.48	510.24
543.64	461.09
543.81	484.49
543.98	505.56
544.15	465.77
544.32	465.77
544.48	545.34
544.65	435.34
544.82	526.62
544.99	514.92
545.16	454.06
545.32	543.00
545.49	692.80
545.66	912.81
545.83	1036.86
546.00	968.98
546.16	723.23
546.33	655.35
546.50	493.85
546.67	493.85
546.83	477.47
547.00	402.57
547.17	372.15
547.34	402.57
547.50	423.64
547.67	491.51
547.84	409.59
548.00	425.98
548.17	369.80
548.34	353.42
548.51	428.32
548.67	395.55
548.84	402.57
549.01	430.66
549.18	386.19
549.34	423.64
549.51	423.64
549.68	325.33
549.84	330.02
550.01	369.80
550.18	435.34
550.34	500.87
550.51	318.31
550.68	365.12
550.84	290.23
551.01	353.42
551.18	325.33
551.34	395.55
551.51	243.42
551.68	330.02
551.84	362.78
552.01	313.63
552.18	383.85
552.34	299.59
552.51	271.50
552.68	374.49
552.84	388.53
553.01	285.55
553.18	355.76
553.34	241.08
553.51	283.20
553.67	381.51
553.84	299.59
554.01	271.50
554.17	308.95
554.34	259.80
554.51	341.72
554.67	301.93
554.84	320.65
555.00	348.74
555.17	276.18
555.33	304.27
555.50	266.82
555.67	294.91
555.83	402.57
556.00	280.86
556.16	559.39
556.33	306.61
556.50	234.05
556.66	276.18
556.83	278.52
556.99	262.14
557.16	285.55
557.32	269.16
557.49	299.59
557.65	271.50
557.82	278.52
557.98	234.05
558.15	212.99
558.32	234.05
558.48	203.63
558.65	278.52
558.81	224.69
558.98	212.99
559.14	285.55
559.31	299.59
559.47	257.46
559.64	224.69
559.80	301.93
559.97	294.91
560.13	217.67
560.30	287.89
560.46	271.50
560.63	294.91
560.79	262.14
560.96	241.08
561.12	264.48
561.29	304.27
561.45	259.80
561.61	276.18
561.78	290.23
561.94	269.16
562.11	252.78
562.27	308.95
562.44	283.20
562.60	271.50
562.77	248.10
562.93	269.16
563.10	285.55
563.26	250.44
563.42	294.91
563.59	243.42
563.75	208.31
563.92	339.38
564.08	313.63
564.24	271.50
564.41	327.68
564.57	243.42
564.74	264.48
564.90	205.97
565.07	334.70
565.23	315.97
565.39	292.57
565.56	299.59
565.72	304.27
565.88	320.65
566.05	290.23
566.21	266.82
566.38	355.76
566.54	276.18
566.70	264.48
566.87	252.78
567.03	283.20
567.19	304.27
567.36	320.65
567.52	229.37
567.68	299.59
567.85	208.31
568.01	231.71
568.17	161.50
568.34	273.84
568.50	278.52
568.66	304.27
568.83	334.70
568.99	276.18
569.15	332.36
569.32	243.42
569.48	212.99
569.64	266.82
569.81	278.52
569.97	234.05
570.13	234.05
570.30	252.78
570.46	264.48
570.62	278.52
570.78	224.69
570.95	222.35
571.11	280.86
571.27	369.80
571.43	280.86
571.60	264.48
571.76	290.23
571.92	327.68
572.09	182.56
572.25	273.84
572.41	269.16
572.57	238.73
572.74	311.29
572.90	322.99
573.06	292.57
573.22	301.93
573.38	327.68
573.55	299.59
573.71	376.83
573.87	304.27
574.03	278.52
574.20	276.18
574.36	290.23
574.52	407.25
574.68	388.53
574.84	315.97
575.01	294.91
575.17	341.72
575.33	285.55
575.49	196.60
575.65	292.57
575.82	306.61
575.98	631.94
576.14	870.68
576.30	807.48
576.46	613.22
576.62	615.56
576.79	538.32
576.95	496.19
577.11	400.23
577.27	346.40
577.43	362.78
577.59	397.89
577.75	334.70
577.92	292.57
578.08	276.18
578.24	248.10
578.40	334.70
578.56	447.04
578.72	538.32
578.88	465.77
579.04	379.17
579.21	444.70
579.37	360.44
579.53	355.76
579.69	390.87
579.85	465.77
580.01	454.06
580.17	454.06
580.33	418.96
580.49	463.43
580.65	416.62
580.82	421.30
580.98	437.68
581.14	423.64
581.30	454.06
581.46	498.53
581.62	653.01
581.78	702.16
581.94	727.91
582.10	599.18
582.26	547.69
582.42	491.51
582.58	531.30
582.74	493.85
582.90	510.24
583.06	477.47
583.22	461.09
583.38	573.43
583.54	554.71
583.70	711.52
583.86	795.78
584.02	931.53
584.18	1020.47
584.34	1235.80
584.50	3080.14
584.66	22223.39
584.82	56226.69
584.98	65535.00
585.14	63749.17
585.30	50817.71
585.46	31204.02
585.62	19267.29
585.78	9055.53
585.94	3592.72
586.10	1729.66
586.26	1231.12
586.42	854.30
586.58	898.77
586.74	709.18
586.90	692.80
587.06	763.01
587.22	723.23
587.38	657.69
587.54	1156.22
587.70	3548.25
587.86	5940.28
588.02	6705.63
588.18	4669.37
588.34	3075.46
588.49	2078.40
588.65	1299.00
588.81	697.48
588.97	500.87
589.13	418.96
589.29	400.23
589.45	381.51
589.61	346.40
589.77	510.24
589.93	540.66
590.08	507.90
590.24	545.34
590.40	533.64
590.56	482.15
590.72	484.49
590.88	379.17
591.04	468.11
591.20	468.11
591.35	407.25
591.51	430.66
591.67	348.74
591.83	372.15
591.99	330.02
592.15	440.02
592.31	348.74
592.46	411.93
592.62	365.12
592.78	346.40
592.94	393.21
593.10	444.70
593.26	393.21
593.41	404.91
593.57	491.51
593.73	620.24
593.89	2825.03
594.05	7391.41
594.20	11187.76
594.36	10813.28
594.52	7140.97
594.68	4606.17
594.84	3173.77
594.99	1647.74
595.15	854.30
595.31	573.43
595.47	465.77
595.62	315.97
595.78	358.10
595.94	369.80
596.10	437.68
596.25	425.98
596.41	437.68
596.57	365.12
596.73	409.59
596.88	552.37
597.04	1359.85
597.20	2485.65
597.36	2846.09
597.51	2188.40
597.67	1500.28
597.83	1097.71
597.99	697.48
598.14	491.51
598.30	390.87
598.46	390.87
598.61	444.70
598.77	458.74
598.93	367.46
599.09	407.25
599.24	463.43
599.40	353.42
599.56	304.27
599.71	332.36
599.87	299.59
600.03	255.12
600.18	306.61
600.34	290.23
600.50	259.80
600.65	332.36
600.81	337.04
600.97	301.93
601.12	313.63
601.28	360.44
601.44	301.93
601.59	248.10
601.75	348.74
601.91	346.40
602.06	306.61
602.22	442.36
602.37	784.08
602.53	1769.44
602.69	2803.96
602.84	3030.99
603.00	2225.85
603.16	1607.95
603.31	1071.97
603.47	805.14
603.62	543.00
603.78	351.08
603.94	322.99
604.09	327.68
604.25	341.72
604.40	308.95
604.56	311.29
604.71	212.99
604.87	301.93
605.03	341.72
605.18	344.06
605.34	327.68
605.49	358.10
605.65	393.21
605.80	337.04
605.96	379.17
606.12	400.23
606.27	454.06
606.43	421.30
606.58	524.28
606.74	950.26
606.89	3293.13
607.05	7091.82
607.20	9687.48
607.36	8116.98
607.51	5708.57
607.67	3747.20
607.82	2415.43
607.98	1507.30
608.13	697.48
608.29	449.38
608.44	500.87
608.60	496.19
608.75	622.58
608.91	1174.95
609.06	5268.55
609.22	12255.04
609.37	17259.11
609.53	15101.14
609.68	10190.69
609.84	6604.99
609.99	4512.55
610.15	2691.62
