SpectraSuite Data File
++++++++++++++++++++++++++++++++++++
Date: Fri Oct 04 11:33:49 GMT-05:00 2013
User: price-jones
Dark Spectrum Present: No
Reference Spectrum Present: No
Number of Sampled Component Spectra: 1
Spectrometers: USB2+H05261
Integration Time (usec): 100000 (USB2+H05261)
Spectra Averaged: 1 (USB2+H05261)
Boxcar Smoothing: 0 (USB2+H05261)
Correct for Electrical Dark: No (USB2+H05261)
Strobe/Lamp Enabled: No (USB2+H05261)
Correct for Detector Non-linearity: No (USB2+H05261)
Correct for Stray Light: No (USB2+H05261)
Number of Pixels in Processed Spectrum: 2048
>>>>>Begin Processed Spectral Data<<<<<
365.73	88.94
365.92	88.94
366.12	88.94
366.32	0.00
366.52	0.00
366.72	0.00
366.91	0.00
367.11	0.00
367.31	0.00
367.51	0.00
367.70	0.00
367.90	0.00
368.10	0.00
368.30	0.00
368.49	0.00
368.69	21.06
368.89	0.00
369.09	25.75
369.28	9.36
369.48	9.36
369.68	0.00
369.87	35.11
370.07	0.00
370.27	105.32
370.47	70.22
370.66	88.94
370.86	84.26
371.06	110.01
371.25	168.52
371.45	91.28
371.65	112.35
371.84	102.98
372.04	119.37
372.24	124.05
372.44	70.22
372.63	126.39
372.83	187.24
373.03	124.05
373.22	126.39
373.42	86.60
373.62	105.32
373.81	147.45
374.01	184.90
374.21	156.82
374.40	124.05
374.60	203.63
374.79	128.73
374.99	194.26
375.19	191.92
375.38	159.16
375.58	159.16
375.78	180.22
375.97	203.63
376.17	170.86
376.37	135.75
376.56	180.22
376.76	135.75
376.95	131.07
377.15	205.97
377.35	161.50
377.54	163.84
377.74	152.13
377.93	152.13
378.13	124.05
378.33	184.90
378.52	201.29
378.72	159.16
378.91	196.60
379.11	56.17
379.31	145.11
379.50	140.43
379.70	133.41
379.89	124.05
380.09	135.75
380.28	121.71
380.48	117.03
380.68	156.82
380.87	161.50
381.07	220.01
381.26	131.07
381.46	184.90
381.65	142.77
381.85	177.88
382.04	189.58
382.24	177.88
382.43	166.18
382.63	126.39
382.83	44.47
383.02	128.73
383.22	189.58
383.41	170.86
383.61	112.35
383.80	203.63
384.00	149.79
384.19	163.84
384.39	131.07
384.58	84.26
384.78	175.54
384.97	133.41
385.17	124.05
385.36	182.56
385.56	187.24
385.75	114.69
385.95	182.56
386.14	222.35
386.34	117.03
386.53	184.90
386.72	182.56
386.92	159.16
387.11	166.18
387.31	191.92
387.50	102.98
387.70	114.69
387.89	110.01
388.09	159.16
388.28	88.94
388.48	114.69
388.67	131.07
388.86	135.75
389.06	205.97
389.25	173.20
389.45	142.77
389.64	93.62
389.84	126.39
390.03	161.50
390.22	74.90
390.42	147.45
390.61	175.54
390.81	135.75
391.00	133.41
391.19	205.97
391.39	110.01
391.58	131.07
391.78	180.22
391.97	133.41
392.16	177.88
392.36	248.10
392.55	245.76
392.75	156.82
392.94	142.77
393.13	168.52
393.33	60.85
393.52	81.92
393.71	152.13
393.91	131.07
394.10	135.75
394.29	170.86
394.49	154.48
394.68	210.65
394.88	140.43
395.07	177.88
395.26	84.26
395.46	105.32
395.65	114.69
395.84	133.41
396.04	231.71
396.23	117.03
396.42	149.79
396.62	56.17
396.81	205.97
397.00	189.58
397.19	124.05
397.39	138.09
397.58	208.31
397.77	149.79
397.97	154.48
398.16	142.77
398.35	187.24
398.55	177.88
398.74	133.41
398.93	117.03
399.12	102.98
399.32	177.88
399.51	131.07
399.70	180.22
399.90	124.05
400.09	135.75
400.28	166.18
400.47	163.84
400.67	191.92
400.86	131.07
401.05	128.73
401.24	168.52
401.44	149.79
401.63	161.50
401.82	217.67
402.01	196.60
402.21	98.30
402.40	110.01
402.59	107.66
402.78	135.75
402.97	124.05
403.17	170.86
403.36	121.71
403.55	177.88
403.74	102.98
403.93	191.92
404.13	238.73
404.32	105.32
404.51	201.29
404.70	187.24
404.89	140.43
405.09	205.97
405.28	194.26
405.47	147.45
405.66	117.03
405.85	152.13
406.05	168.52
406.24	168.52
406.43	166.18
406.62	145.11
406.81	234.05
407.00	154.48
407.20	131.07
407.39	147.45
407.58	161.50
407.77	138.09
407.96	133.41
408.15	194.26
408.34	154.48
408.54	168.52
408.73	119.37
408.92	119.37
409.11	112.35
409.30	154.48
409.49	154.48
409.68	161.50
409.87	131.07
410.07	147.45
410.26	168.52
410.45	156.82
410.64	117.03
410.83	166.18
411.02	140.43
411.21	194.26
411.40	191.92
411.59	177.88
411.78	147.45
411.98	105.32
412.17	138.09
412.36	154.48
412.55	205.97
412.74	217.67
412.93	278.52
413.12	173.20
413.31	198.95
413.50	177.88
413.69	163.84
413.88	198.95
414.07	159.16
414.26	156.82
414.45	163.84
414.64	175.54
414.83	210.65
415.02	140.43
415.22	231.71
415.41	203.63
415.60	119.37
415.79	241.08
415.98	252.78
416.17	184.90
416.36	189.58
416.55	154.48
416.74	98.30
416.93	140.43
417.12	196.60
417.31	147.45
417.50	142.77
417.69	168.52
417.88	149.79
418.07	203.63
418.26	182.56
418.45	175.54
418.64	264.48
418.83	273.84
419.02	182.56
419.21	184.90
419.39	187.24
419.58	170.86
419.77	110.01
419.96	241.08
420.15	187.24
420.34	189.58
420.53	142.77
420.72	128.73
420.91	187.24
421.10	201.29
421.29	131.07
421.48	161.50
421.67	159.16
421.86	140.43
422.05	196.60
422.24	163.84
422.43	231.71
422.61	156.82
422.80	138.09
422.99	166.18
423.18	177.88
423.37	264.48
423.56	191.92
423.75	266.82
423.94	177.88
424.13	180.22
424.32	175.54
424.50	114.69
424.69	168.52
424.88	187.24
425.07	224.69
425.26	168.52
425.45	126.39
425.64	175.54
425.83	236.39
426.01	269.16
426.20	257.46
426.39	215.33
426.58	152.13
426.77	182.56
426.96	229.37
427.15	163.84
427.33	147.45
427.52	184.90
427.71	166.18
427.90	273.84
428.09	215.33
428.28	182.56
428.46	142.77
428.65	234.05
428.84	163.84
429.03	102.98
429.22	212.99
429.40	224.69
429.59	149.79
429.78	191.92
429.97	159.16
430.16	140.43
430.34	191.92
430.53	163.84
430.72	173.20
430.91	145.11
431.10	93.62
431.28	182.56
431.47	187.24
431.66	182.56
431.85	170.86
432.03	210.65
432.22	257.46
432.41	208.31
432.60	149.79
432.79	257.46
432.97	224.69
433.16	250.44
433.35	187.24
433.54	210.65
433.72	222.35
433.91	224.69
434.10	203.63
434.28	191.92
434.47	203.63
434.66	187.24
434.85	149.79
435.03	184.90
435.22	252.78
435.41	320.65
435.59	290.23
435.78	313.63
435.97	177.88
436.16	248.10
436.34	194.26
436.53	168.52
436.72	194.26
436.90	201.29
437.09	191.92
437.28	189.58
437.46	220.01
437.65	119.37
437.84	163.84
438.02	236.39
438.21	163.84
438.40	180.22
438.58	163.84
438.77	194.26
438.96	210.65
439.14	201.29
439.33	149.79
439.52	173.20
439.70	245.76
439.89	224.69
440.08	184.90
440.26	234.05
440.45	248.10
440.63	220.01
440.82	154.48
441.01	205.97
441.19	166.18
441.38	133.41
441.57	112.35
441.75	187.24
441.94	220.01
442.12	147.45
442.31	93.62
442.50	168.52
442.68	105.32
442.87	175.54
443.05	152.13
443.24	180.22
443.43	222.35
443.61	121.71
443.80	124.05
443.98	170.86
444.17	126.39
444.35	203.63
444.54	203.63
444.73	198.95
444.91	100.64
445.10	152.13
445.28	175.54
445.47	156.82
445.65	248.10
445.84	210.65
446.02	212.99
446.21	72.56
446.39	147.45
446.58	173.20
446.77	191.92
446.95	128.73
447.14	252.78
447.32	154.48
447.51	182.56
447.69	124.05
447.88	222.35
448.06	184.90
448.25	234.05
448.43	196.60
448.62	229.37
448.80	119.37
448.99	217.67
449.17	175.54
449.36	198.95
449.54	266.82
449.73	124.05
449.91	180.22
450.10	159.16
450.28	271.50
450.46	215.33
450.65	222.35
450.83	198.95
451.02	198.95
451.20	203.63
451.39	159.16
451.57	180.22
451.76	248.10
451.94	163.84
452.13	145.11
452.31	231.71
452.49	287.89
452.68	131.07
452.86	191.92
453.05	283.20
453.23	212.99
453.42	177.88
453.60	224.69
453.78	278.52
453.97	231.71
454.15	196.60
454.34	168.52
454.52	147.45
454.70	189.58
454.89	184.90
455.07	140.43
455.26	114.69
455.44	131.07
455.62	175.54
455.81	166.18
455.99	198.95
456.17	248.10
456.36	102.98
456.54	187.24
456.73	229.37
456.91	194.26
457.09	196.60
457.28	201.29
457.46	203.63
457.64	224.69
457.83	177.88
458.01	243.42
458.19	168.52
458.38	259.80
458.56	222.35
458.74	201.29
458.93	74.90
459.11	238.73
459.29	224.69
459.48	222.35
459.66	196.60
459.84	159.16
460.03	297.25
460.21	243.42
460.39	175.54
460.57	173.20
460.76	201.29
460.94	173.20
461.12	138.09
461.31	184.90
461.49	187.24
461.67	212.99
461.85	203.63
462.04	180.22
462.22	653.01
462.40	152.13
462.59	198.95
462.77	191.92
462.95	159.16
463.13	194.26
463.32	154.48
463.50	283.20
463.68	217.67
463.86	224.69
464.05	217.67
464.23	212.99
464.41	229.37
464.59	173.20
464.78	194.26
464.96	198.95
465.14	117.03
465.32	168.52
465.50	170.86
465.69	177.88
465.87	142.77
466.05	184.90
466.23	182.56
466.41	184.90
466.60	248.10
466.78	229.37
466.96	203.63
467.14	175.54
467.32	217.67
467.51	215.33
467.69	161.50
467.87	203.63
468.05	191.92
468.23	245.76
468.41	222.35
468.60	196.60
468.78	234.05
468.96	273.84
469.14	234.05
469.32	117.03
469.50	184.90
469.69	205.97
469.87	187.24
470.05	182.56
470.23	175.54
470.41	191.92
470.59	182.56
470.77	154.48
470.95	173.20
471.14	224.69
471.32	238.73
471.50	264.48
471.68	215.33
471.86	187.24
472.04	156.82
472.22	283.20
472.40	208.31
472.58	297.25
472.77	182.56
472.95	252.78
473.13	273.84
473.31	262.14
473.49	212.99
473.67	184.90
473.85	191.92
474.03	194.26
474.21	168.52
474.39	224.69
474.57	285.55
474.75	234.05
474.93	168.52
475.12	257.46
475.30	196.60
475.48	161.50
475.66	245.76
475.84	135.75
476.02	255.12
476.20	208.31
476.38	227.03
476.56	283.20
476.74	208.31
476.92	212.99
477.10	224.69
477.28	243.42
477.46	168.52
477.64	238.73
477.82	203.63
478.00	166.18
478.18	217.67
478.36	173.20
478.54	196.60
478.72	142.77
478.90	231.71
479.08	236.39
479.26	182.56
479.44	217.67
479.62	182.56
479.80	182.56
479.98	168.52
480.16	159.16
480.34	212.99
480.52	201.29
480.70	285.55
480.88	121.71
481.06	166.18
481.24	133.41
481.41	222.35
481.59	205.97
481.77	217.67
481.95	224.69
482.13	212.99
482.31	227.03
482.49	212.99
482.67	259.80
482.85	227.03
483.03	273.84
483.21	189.58
483.39	175.54
483.57	299.59
483.74	311.29
483.92	262.14
484.10	215.33
484.28	243.42
484.46	250.44
484.64	278.52
484.82	243.42
485.00	194.26
485.18	238.73
485.35	201.29
485.53	231.71
485.71	252.78
485.89	217.67
486.07	327.68
486.25	262.14
486.43	238.73
486.61	301.93
486.78	220.01
486.96	245.76
487.14	243.42
487.32	184.90
487.50	278.52
487.68	222.35
487.85	255.12
488.03	250.44
488.21	222.35
488.39	243.42
488.57	257.46
488.75	294.91
488.92	475.13
489.10	222.35
489.28	243.42
489.46	301.93
489.64	124.05
489.81	245.76
489.99	238.73
490.17	191.92
490.35	365.12
490.53	222.35
490.70	175.54
490.88	236.39
491.06	210.65
491.24	222.35
491.41	273.84
491.59	327.68
491.77	236.39
491.95	243.42
492.13	229.37
492.30	257.46
492.48	250.44
492.66	191.92
492.84	224.69
493.01	299.59
493.19	301.93
493.37	320.65
493.54	201.29
493.72	266.82
493.90	280.86
494.08	238.73
494.25	322.99
494.43	212.99
494.61	234.05
494.79	161.50
494.96	238.73
495.14	271.50
495.32	245.76
495.49	217.67
495.67	231.71
495.85	262.14
496.02	231.71
496.20	273.84
496.38	276.18
496.55	220.01
496.73	294.91
496.91	238.73
497.09	231.71
497.26	292.57
497.44	205.97
497.62	250.44
497.79	266.82
497.97	140.43
498.14	297.25
498.32	315.97
498.50	287.89
498.67	234.05
498.85	273.84
499.03	259.80
499.20	292.57
499.38	262.14
499.56	266.82
499.73	243.42
499.91	250.44
500.08	210.65
500.26	189.58
500.44	205.97
500.61	315.97
500.79	259.80
500.97	189.58
501.14	294.91
501.32	234.05
501.49	313.63
501.67	287.89
501.84	198.95
502.02	227.03
502.20	266.82
502.37	224.69
502.55	273.84
502.72	208.31
502.90	287.89
503.07	203.63
503.25	306.61
503.43	318.31
503.60	184.90
503.78	250.44
503.95	234.05
504.13	236.39
504.30	210.65
504.48	248.10
504.65	330.02
504.83	278.52
505.01	257.46
505.18	273.84
505.36	301.93
505.53	224.69
505.71	229.37
505.88	276.18
506.06	269.16
506.23	173.20
506.41	210.65
506.58	266.82
506.76	252.78
506.93	212.99
507.11	313.63
507.28	264.48
507.46	159.16
507.63	262.14
507.81	227.03
507.98	276.18
508.16	299.59
508.33	238.73
508.50	215.33
508.68	339.38
508.85	276.18
509.03	234.05
509.20	184.90
509.38	222.35
509.55	238.73
509.73	224.69
509.90	205.97
510.08	255.12
510.25	287.89
510.42	250.44
510.60	205.97
510.77	285.55
510.95	245.76
511.12	280.86
511.30	353.42
511.47	269.16
511.64	330.02
511.82	264.48
511.99	243.42
512.17	217.67
512.34	198.95
512.51	283.20
512.69	287.89
512.86	224.69
513.04	273.84
513.21	252.78
513.38	264.48
513.56	222.35
513.73	220.01
513.90	231.71
514.08	315.97
514.25	304.27
514.43	273.84
514.60	259.80
514.77	283.20
514.95	222.35
515.12	294.91
515.29	210.65
515.47	273.84
515.64	255.12
515.81	304.27
515.99	280.86
516.16	245.76
516.33	280.86
516.51	182.56
516.68	337.04
516.85	220.01
517.03	271.50
517.20	276.18
517.37	241.08
517.54	252.78
517.72	163.84
517.89	149.79
518.06	262.14
518.24	330.02
518.41	311.29
518.58	299.59
518.75	241.08
518.93	308.95
519.10	341.72
519.27	252.78
519.45	220.01
519.62	248.10
519.79	229.37
519.96	208.31
520.14	227.03
520.31	318.31
520.48	243.42
520.65	262.14
520.83	355.76
521.00	294.91
521.17	294.91
521.34	262.14
521.52	234.05
521.69	269.16
521.86	332.36
522.03	262.14
522.20	308.95
522.38	257.46
522.55	222.35
522.72	156.82
522.89	203.63
523.07	332.36
523.24	182.56
523.41	201.29
523.58	273.84
523.75	299.59
523.92	266.82
524.10	304.27
524.27	259.80
524.44	287.89
524.61	337.04
524.78	198.95
524.96	337.04
525.13	236.39
525.30	311.29
525.47	248.10
525.64	231.71
525.81	290.23
525.98	255.12
526.16	273.84
526.33	271.50
526.50	257.46
526.67	170.86
526.84	217.67
527.01	259.80
527.18	243.42
527.36	241.08
527.53	271.50
527.70	332.36
527.87	227.03
528.04	339.38
528.21	257.46
528.38	217.67
528.55	191.92
528.72	337.04
528.89	292.57
529.07	250.44
529.24	287.89
529.41	269.16
529.58	262.14
529.75	255.12
529.92	278.52
530.09	273.84
530.26	318.31
530.43	306.61
530.60	215.33
530.77	196.60
530.94	238.73
531.11	236.39
531.28	287.89
531.46	271.50
531.63	330.02
531.80	217.67
531.97	334.70
532.14	290.23
532.31	252.78
532.48	229.37
532.65	369.80
532.82	348.74
532.99	257.46
533.16	276.18
533.33	301.93
533.50	395.55
533.67	330.02
533.84	304.27
534.01	344.06
534.18	355.76
534.35	327.68
534.52	285.55
534.69	322.99
534.86	287.89
535.03	215.33
535.20	264.48
535.37	283.20
535.54	325.33
535.71	259.80
535.88	313.63
536.05	229.37
536.22	266.82
536.38	285.55
536.55	257.46
536.72	301.93
536.89	243.42
537.06	313.63
537.23	224.69
537.40	308.95
537.57	259.80
537.74	299.59
537.91	379.17
538.08	276.18
538.25	318.31
538.42	351.08
538.59	255.12
538.75	283.20
538.92	245.76
539.09	362.78
539.26	369.80
539.43	477.47
539.60	791.10
539.77	1221.76
539.94	1036.86
540.11	739.61
540.28	615.56
540.44	489.17
540.61	313.63
540.78	397.89
540.95	353.42
541.12	414.27
541.29	447.04
541.46	505.56
541.62	451.72
541.79	428.32
541.96	414.27
542.13	496.19
542.30	493.85
542.47	418.96
542.63	543.00
542.80	402.57
542.97	550.03
543.14	461.09
543.31	383.85
543.48	390.87
543.64	376.83
543.81	437.68
543.98	456.40
544.15	304.27
544.32	386.19
544.48	372.15
544.65	393.21
544.82	337.04
544.99	421.30
545.16	463.43
545.32	489.17
545.49	643.65
545.66	723.23
545.83	814.51
546.00	657.69
546.16	596.84
546.33	498.53
546.50	407.25
546.67	416.62
546.83	327.68
547.00	379.17
547.17	402.57
547.34	355.76
547.50	369.80
547.67	308.95
547.84	315.97
548.00	355.76
548.17	294.91
548.34	320.65
548.51	393.21
548.67	435.34
548.84	355.76
549.01	362.78
549.18	241.08
549.34	355.76
549.51	315.97
549.68	362.78
549.84	271.50
550.01	269.16
550.18	430.66
550.34	306.61
550.51	311.29
550.68	339.38
550.84	243.42
551.01	301.93
551.18	334.70
551.34	290.23
551.51	320.65
551.68	330.02
551.84	334.70
552.01	250.44
552.18	355.76
552.34	259.80
552.51	330.02
552.68	313.63
552.84	297.25
553.01	311.29
553.18	266.82
553.34	238.73
553.51	264.48
553.67	278.52
553.84	351.08
554.01	306.61
554.17	259.80
554.34	250.44
554.51	273.84
554.67	379.17
554.84	203.63
555.00	278.52
555.17	334.70
555.33	313.63
555.50	318.31
555.67	285.55
555.83	220.01
556.00	353.42
556.16	367.46
556.33	236.39
556.50	222.35
556.66	290.23
556.83	250.44
556.99	238.73
557.16	334.70
557.32	229.37
557.49	292.57
557.65	318.31
557.82	152.13
557.98	259.80
558.15	220.01
558.32	224.69
558.48	198.95
558.65	290.23
558.81	311.29
558.98	339.38
559.14	322.99
559.31	252.78
559.47	262.14
559.64	252.78
559.80	255.12
559.97	287.89
560.13	266.82
560.30	222.35
560.46	269.16
560.63	243.42
560.79	252.78
560.96	224.69
561.12	269.16
561.29	283.20
561.45	292.57
561.61	278.52
561.78	330.02
561.94	227.03
562.11	257.46
562.27	248.10
562.44	175.54
562.60	311.29
562.77	276.18
562.93	320.65
563.10	320.65
563.26	372.15
563.42	215.33
563.59	311.29
563.75	255.12
563.92	278.52
564.08	245.76
564.24	231.71
564.41	248.10
564.57	292.57
564.74	217.67
564.90	339.38
565.07	285.55
565.23	252.78
565.39	236.39
565.56	287.89
565.72	264.48
565.88	259.80
566.05	306.61
566.21	220.01
566.38	156.82
566.54	308.95
566.70	184.90
566.87	280.86
567.03	177.88
567.19	269.16
567.36	159.16
567.52	252.78
567.68	264.48
567.85	224.69
568.01	252.78
568.17	234.05
568.34	229.37
568.50	313.63
568.66	248.10
568.83	315.97
568.99	283.20
569.15	358.10
569.32	287.89
569.48	294.91
569.64	217.67
569.81	208.31
569.97	257.46
570.13	283.20
570.30	217.67
570.46	294.91
570.62	224.69
570.78	191.92
570.95	306.61
571.11	299.59
571.27	318.31
571.43	238.73
571.60	276.18
571.76	250.44
571.92	290.23
572.09	287.89
572.25	280.86
572.41	250.44
572.57	287.89
572.74	292.57
572.90	269.16
573.06	280.86
573.22	168.52
573.38	248.10
573.55	245.76
573.71	273.84
573.87	257.46
574.03	262.14
574.20	294.91
574.36	273.84
574.52	297.25
574.68	315.97
574.84	320.65
575.01	266.82
575.17	271.50
575.33	273.84
575.49	360.44
575.65	290.23
575.82	337.04
575.98	543.00
576.14	512.58
576.30	561.73
576.46	552.37
576.62	447.04
576.79	475.13
576.95	414.27
577.11	337.04
577.27	245.76
577.43	306.61
577.59	278.52
577.75	311.29
577.92	294.91
578.08	390.87
578.24	337.04
578.40	330.02
578.56	346.40
578.72	418.96
578.88	337.04
579.04	259.80
579.21	397.89
579.37	362.78
579.53	383.85
579.69	383.85
579.85	332.36
580.01	409.59
580.17	388.53
580.33	393.21
580.49	388.53
580.65	400.23
580.82	318.31
580.98	381.51
581.14	306.61
581.30	390.87
581.46	383.85
581.62	491.51
581.78	491.51
581.94	521.94
582.10	372.15
582.26	369.80
582.42	400.23
582.58	430.66
582.74	386.19
582.90	498.53
583.06	402.57
583.22	442.36
583.38	479.81
583.54	489.17
583.70	498.53
583.86	568.75
584.02	650.67
584.18	692.80
584.34	791.10
584.50	1996.48
584.66	13341.05
584.82	35519.97
584.98	51999.68
585.14	46358.99
585.30	29682.67
585.46	17792.75
585.62	10827.32
585.78	5254.50
585.94	2148.61
586.10	1121.12
586.26	725.57
586.42	741.95
586.58	575.77
586.74	503.22
586.90	552.37
587.06	594.50
587.22	526.62
587.38	437.68
587.54	748.97
587.70	2165.00
587.86	3646.55
588.02	3843.16
588.18	2899.92
588.34	1959.03
588.49	1310.70
588.65	814.51
588.81	510.24
588.97	437.68
589.13	334.70
589.29	306.61
589.45	400.23
589.61	344.06
589.77	390.87
589.93	390.87
590.08	479.81
590.24	351.08
590.40	400.23
590.56	397.89
590.72	390.87
590.88	304.27
591.04	358.10
591.20	365.12
591.35	430.66
591.51	332.36
591.67	341.72
591.83	205.97
591.99	339.38
592.15	337.04
592.31	280.86
592.46	346.40
592.62	334.70
592.78	313.63
592.94	311.29
593.10	294.91
593.26	374.49
593.41	358.10
593.57	365.12
593.73	479.81
593.89	1743.70
594.05	4369.78
594.20	6459.88
594.36	6274.98
594.52	4241.05
594.68	2640.12
594.84	1804.55
594.99	1121.12
595.15	594.50
595.31	355.76
595.47	374.49
595.62	320.65
595.78	299.59
595.94	365.12
596.10	362.78
596.25	311.29
596.41	395.55
596.57	351.08
596.73	294.91
596.88	470.45
597.04	924.51
597.20	1472.20
597.36	1720.29
597.51	1411.34
597.67	964.30
597.83	765.36
597.99	554.71
598.14	477.47
598.30	388.53
598.46	332.36
598.61	351.08
598.77	365.12
598.93	334.70
599.09	353.42
599.24	304.27
599.40	262.14
599.56	257.46
599.71	184.90
599.87	330.02
600.03	269.16
600.18	355.76
600.34	334.70
600.50	308.95
600.65	311.29
600.81	287.89
600.97	224.69
601.12	285.55
601.28	337.04
601.44	297.25
601.59	280.86
601.75	271.50
601.91	252.78
602.06	248.10
602.22	306.61
602.37	552.37
602.53	1071.97
602.69	1776.47
602.84	1837.32
603.00	1409.00
603.16	1001.75
603.31	837.91
603.47	528.96
603.62	318.31
603.78	351.08
603.94	327.68
604.09	285.55
604.25	339.38
604.40	301.93
604.56	224.69
604.71	308.95
604.87	255.12
605.03	245.76
605.18	212.99
605.34	315.97
605.49	320.65
605.65	334.70
605.80	259.80
605.96	276.18
606.12	287.89
606.27	362.78
606.43	292.57
606.58	313.63
606.74	641.31
606.89	2050.31
607.05	4259.78
607.20	5490.90
607.36	4685.75
607.51	3199.51
607.67	2197.76
607.82	1614.97
607.98	959.62
608.13	566.41
608.29	425.98
608.44	388.53
608.60	348.74
608.75	425.98
608.91	840.25
609.06	3286.11
609.22	7227.57
609.37	9280.22
609.53	8238.69
609.68	5659.42
609.84	3763.58
609.99	2602.68
610.15	1561.14
