SpectraSuite Data File
++++++++++++++++++++++++++++++++++++
Date: Fri Oct 04 12:14:06 GMT-05:00 2013
User: price-jones
Dark Spectrum Present: No
Reference Spectrum Present: No
Number of Sampled Component Spectra: 1
Spectrometers: USB2+H05261
Integration Time (usec): 1000000 (USB2+H05261)
Spectra Averaged: 1 (USB2+H05261)
Boxcar Smoothing: 0 (USB2+H05261)
Correct for Electrical Dark: No (USB2+H05261)
Strobe/Lamp Enabled: No (USB2+H05261)
Correct for Detector Non-linearity: No (USB2+H05261)
Correct for Stray Light: No (USB2+H05261)
Number of Pixels in Processed Spectrum: 2048
>>>>>Begin Processed Spectral Data<<<<<
365.73	9.36
365.92	9.36
366.12	9.36
366.32	37.45
366.52	0.00
366.72	285.55
366.91	117.03
367.11	308.95
367.31	264.48
367.51	234.05
367.70	365.12
367.90	505.56
368.10	318.31
368.30	348.74
368.49	65.54
368.69	470.45
368.89	252.78
369.09	191.92
369.28	299.59
369.48	56.17
369.68	196.60
369.87	355.76
370.07	227.03
370.27	575.77
370.47	435.34
370.66	360.44
370.86	566.41
371.06	744.29
371.25	973.66
371.45	479.81
371.65	690.46
371.84	397.89
372.04	299.59
372.24	486.83
372.44	393.21
372.63	514.92
372.83	863.66
373.03	482.15
373.22	346.40
373.42	404.91
373.62	418.96
373.81	540.66
374.01	667.05
374.21	716.20
374.40	454.06
374.60	697.48
374.79	451.72
374.99	397.89
375.19	538.32
375.38	643.65
375.58	526.62
375.78	716.20
375.97	620.24
376.17	990.05
376.37	454.06
376.56	704.50
376.76	397.89
376.95	428.32
377.15	655.35
377.35	653.01
377.54	627.26
377.74	379.17
377.93	440.02
378.13	521.94
378.33	716.20
378.52	416.62
378.72	713.86
378.91	601.52
379.11	390.87
379.31	458.74
379.50	327.68
379.70	636.63
379.89	720.88
380.09	348.74
380.28	346.40
380.48	482.15
380.68	416.62
380.87	313.63
381.07	526.62
381.26	779.40
381.46	645.99
381.65	643.65
381.85	535.98
382.04	383.85
382.24	479.81
382.43	447.04
382.63	360.44
382.83	475.13
383.02	741.95
383.22	835.57
383.41	397.89
383.61	528.96
383.80	407.25
384.00	468.11
384.19	535.98
384.39	493.85
384.58	477.47
384.78	589.82
384.97	543.00
385.17	388.53
385.36	409.59
385.56	622.58
385.75	388.53
385.95	514.92
386.14	671.73
386.34	472.79
386.53	543.00
386.72	365.12
386.92	772.38
387.11	592.16
387.31	638.97
387.50	381.51
387.70	318.31
387.89	571.09
388.09	435.34
388.28	315.97
388.48	423.64
388.67	681.10
388.86	528.96
389.06	414.27
389.25	557.05
389.45	528.96
389.64	484.49
389.84	755.99
390.03	627.26
390.22	465.77
390.42	468.11
390.61	351.08
390.81	367.46
391.00	489.17
391.19	706.84
391.39	409.59
391.58	634.29
391.78	547.69
391.97	575.77
392.16	318.31
392.36	774.72
392.55	779.40
392.75	561.73
392.94	444.70
393.13	643.65
393.33	409.59
393.52	491.51
393.71	880.04
393.91	535.98
394.10	362.78
394.29	498.53
394.49	458.74
394.68	606.20
394.88	777.06
395.07	711.52
395.26	531.30
395.46	484.49
395.65	725.57
395.84	629.60
396.04	1181.97
396.23	477.47
396.42	402.57
396.62	631.94
396.81	617.90
397.00	535.98
397.19	573.43
397.39	554.71
397.58	795.78
397.77	566.41
397.97	528.96
398.16	592.16
398.35	608.54
398.55	388.53
398.74	500.87
398.93	723.23
399.12	498.53
399.32	634.29
399.51	503.22
399.70	709.18
399.90	608.54
400.09	660.03
400.28	718.54
400.47	528.96
400.67	662.37
400.86	500.87
401.05	676.41
401.24	823.87
401.44	748.97
401.63	760.67
401.82	812.17
402.01	444.70
402.21	702.16
402.40	615.56
402.59	573.43
402.78	514.92
402.97	587.47
403.17	594.50
403.36	643.65
403.55	538.32
403.74	568.75
403.93	578.11
404.13	858.98
404.32	550.03
404.51	554.71
404.70	692.80
404.89	617.90
405.09	980.68
405.28	629.60
405.47	430.66
405.66	772.38
405.85	774.72
406.05	559.39
406.24	561.73
406.43	730.25
406.62	727.91
406.81	1055.58
407.00	842.59
407.20	566.41
407.39	538.32
407.58	500.87
407.77	683.44
407.96	854.30
408.15	753.65
408.34	697.48
408.54	711.52
408.73	678.76
408.92	603.86
409.11	692.80
409.30	793.44
409.49	510.24
409.68	475.13
409.87	627.26
410.07	519.60
410.26	676.41
410.45	606.20
410.64	526.62
410.83	676.41
411.02	638.97
411.21	739.61
411.40	770.04
411.59	538.32
411.78	566.41
411.98	613.22
412.17	566.41
412.36	547.69
412.55	594.50
412.74	695.14
412.93	1041.54
413.12	552.37
413.31	880.04
413.50	734.93
413.69	587.47
413.88	840.25
414.07	683.44
414.26	730.25
414.45	681.10
414.64	711.52
414.83	720.88
415.02	718.54
415.22	786.42
415.41	917.49
415.60	559.39
415.79	723.23
415.98	1011.11
416.17	660.03
416.36	678.76
416.55	535.98
416.74	767.70
416.93	830.89
417.12	674.07
417.31	713.86
417.50	676.41
417.69	1078.99
417.88	760.67
418.07	543.00
418.26	713.86
418.45	720.88
418.64	1060.26
418.83	765.36
419.02	884.72
419.21	725.57
419.39	807.48
419.58	575.77
419.77	566.41
419.96	1013.45
420.15	1102.39
420.34	685.78
420.53	791.10
420.72	908.13
420.91	746.63
421.10	671.73
421.29	758.33
421.48	791.10
421.67	894.08
421.86	660.03
422.05	683.44
422.24	671.73
422.43	688.12
422.61	479.81
422.80	599.18
422.99	706.84
423.18	608.54
423.37	964.30
423.56	830.89
423.75	844.93
423.94	526.62
424.13	557.05
424.32	674.07
424.50	692.80
424.69	615.56
424.88	968.98
425.07	676.41
425.26	814.51
425.45	800.46
425.64	737.27
425.83	732.59
426.01	1057.92
426.20	821.53
426.39	599.18
426.58	547.69
426.77	784.08
426.96	901.11
427.15	798.12
427.33	629.60
427.52	718.54
427.71	641.31
427.90	716.20
428.09	631.94
428.28	573.43
428.46	697.48
428.65	880.04
428.84	926.85
429.03	1043.88
429.22	704.50
429.40	575.77
429.59	435.34
429.78	1057.92
429.97	667.05
430.16	629.60
430.34	660.03
430.53	650.67
430.72	702.16
430.91	891.74
431.10	491.51
431.28	695.14
431.47	896.43
431.66	791.10
431.85	716.20
432.03	688.12
432.22	1249.85
432.41	746.63
432.60	1004.09
432.79	734.93
432.97	856.64
433.16	922.17
433.35	688.12
433.54	720.88
433.72	870.68
433.91	847.27
434.10	648.33
434.28	798.12
434.47	765.36
434.66	926.85
434.85	737.27
435.03	781.74
435.22	1076.65
435.41	1100.05
435.59	898.77
435.78	823.87
435.97	723.23
436.16	884.72
436.34	767.70
436.53	915.15
436.72	992.39
436.90	1004.09
437.09	924.51
437.28	774.72
437.46	643.65
437.65	837.91
437.84	866.00
438.02	814.51
438.21	889.40
438.40	711.52
438.58	643.65
438.77	755.99
438.96	830.89
439.14	648.33
439.33	880.04
439.52	711.52
439.70	772.38
439.89	1004.09
440.08	830.89
440.26	791.10
440.45	1015.79
440.63	866.00
440.82	901.11
441.01	833.23
441.19	793.44
441.38	835.57
441.57	835.57
441.75	1074.31
441.94	1118.78
442.12	823.87
442.31	793.44
442.50	863.66
442.68	779.40
442.87	849.61
443.05	828.55
443.24	870.68
443.43	1135.16
443.61	1184.31
443.80	912.81
443.98	732.59
444.17	692.80
444.35	990.05
444.54	833.23
444.73	753.65
444.91	1090.69
445.10	730.25
445.28	671.73
445.47	826.21
445.65	751.31
445.84	774.72
446.02	891.74
446.21	716.20
446.39	812.17
446.58	992.39
446.77	837.91
446.95	863.66
447.14	917.49
447.32	1186.65
447.51	875.36
447.69	819.19
447.88	945.58
448.06	1240.48
448.25	894.08
448.43	713.86
448.62	683.44
448.80	1088.35
448.99	1057.92
449.17	695.14
449.36	847.27
449.54	1046.22
449.73	786.42
449.91	961.96
450.10	835.57
450.28	1453.47
450.46	1310.70
450.65	1170.27
450.83	992.39
451.02	842.59
451.20	823.87
451.39	945.58
451.57	833.23
451.76	891.74
451.94	861.32
452.13	1078.99
452.31	1097.71
452.49	917.49
452.68	760.67
452.86	926.85
453.05	1378.58
453.23	1025.15
453.42	758.33
453.60	866.00
453.78	908.13
453.97	741.95
454.15	753.65
454.34	863.66
454.52	807.48
454.70	1210.06
454.89	994.73
455.07	908.13
455.26	901.11
455.44	1050.90
455.62	809.83
455.81	1015.79
455.99	985.37
456.17	1025.15
456.36	851.96
456.54	896.43
456.73	760.67
456.91	940.90
457.09	891.74
457.28	1221.76
457.46	821.53
457.64	1046.22
457.83	833.23
458.01	816.85
458.19	992.39
458.38	826.21
458.56	945.58
458.74	720.88
458.93	947.92
459.11	901.11
459.29	802.80
459.48	1118.78
459.66	1334.11
459.84	1039.20
460.03	1813.92
460.21	1233.46
460.39	908.13
460.57	1151.54
460.76	940.90
460.94	903.45
461.12	1287.29
461.31	1284.95
461.49	887.06
461.67	847.27
461.85	912.81
462.04	870.68
462.22	5856.02
462.40	1191.33
462.59	1196.01
462.77	877.70
462.95	994.73
463.13	809.83
463.32	1217.08
463.50	999.41
463.68	1020.47
463.86	938.55
464.05	994.73
464.23	1249.85
464.41	1062.60
464.59	807.48
464.78	847.27
464.96	758.33
465.14	915.15
465.32	875.36
465.50	1053.24
465.69	1104.73
465.87	828.55
466.05	1090.69
466.23	744.29
466.41	870.68
466.60	990.05
466.78	954.94
466.96	1142.18
467.14	976.00
467.32	1214.74
467.51	1060.26
467.69	929.19
467.87	1324.74
468.05	950.26
468.23	1385.60
468.41	1191.33
468.60	898.77
468.78	884.72
468.96	1306.02
469.14	1167.93
469.32	779.40
469.50	802.80
469.69	1083.67
469.87	1039.20
470.05	994.73
470.23	898.77
470.41	814.51
470.59	830.89
470.77	983.02
470.95	896.43
471.14	1177.29
471.32	910.47
471.50	1235.80
471.68	966.64
471.86	1074.31
472.04	788.76
472.22	1053.24
472.40	816.85
472.58	915.15
472.77	873.02
472.95	938.55
473.13	1411.34
473.31	1252.19
473.49	807.48
473.67	880.04
473.85	1139.84
474.03	1137.50
474.21	1090.69
474.39	1294.32
474.57	1439.43
474.75	1132.82
474.93	919.83
475.12	741.95
475.30	968.98
475.48	1067.28
475.66	950.26
475.84	1043.88
476.02	931.53
476.20	1123.46
476.38	1067.28
476.56	1589.22
476.74	976.00
476.92	1032.18
477.10	961.96
477.28	1151.54
477.46	1022.81
477.64	1174.95
477.82	1039.20
478.00	971.32
478.18	1114.10
478.36	1060.26
478.54	985.37
478.72	1011.11
478.90	1067.28
479.08	1219.42
479.26	1053.24
479.44	1071.97
479.62	966.64
479.80	1022.81
479.98	1025.15
480.16	973.66
480.34	1235.80
480.52	919.83
480.70	1109.41
480.88	957.28
481.06	1074.31
481.24	1043.88
481.41	1102.39
481.59	1261.55
481.77	1048.56
481.95	1006.43
482.13	1362.19
482.31	1100.05
482.49	1011.11
482.67	1193.67
482.85	1299.00
483.03	1137.50
483.21	1231.12
483.39	1111.75
483.57	1203.04
483.74	1437.09
483.92	1156.22
484.10	976.00
484.28	1310.70
484.46	1687.53
484.64	1128.14
484.82	1235.80
485.00	1027.50
485.18	1165.59
485.35	1212.40
485.53	894.08
485.71	1219.42
485.89	842.59
486.07	1015.79
486.25	1680.50
486.43	1231.12
486.61	1254.53
486.78	1212.40
486.96	1041.54
487.14	1170.27
487.32	1074.31
487.50	1095.37
487.68	1385.60
487.85	1160.91
488.03	1266.23
488.21	1458.15
488.39	1235.80
488.57	1348.15
488.75	1177.29
488.92	3925.08
489.10	1516.67
489.28	1717.95
489.46	1212.40
489.64	1231.12
489.81	1299.00
489.99	1432.41
490.17	1282.61
490.35	1825.62
490.53	1270.91
490.70	1132.82
490.88	1448.79
491.06	1289.64
491.24	1324.74
491.41	1650.08
491.59	1380.92
491.77	1174.95
491.95	1053.24
492.13	1289.64
492.30	1317.72
492.48	1277.93
492.66	1224.10
492.84	1282.61
493.01	1364.53
493.19	1221.76
493.37	1621.99
493.54	1514.33
493.72	1434.75
493.90	1287.29
494.08	1266.23
494.25	1549.43
494.43	1423.05
494.61	1416.02
494.79	1306.02
494.96	1177.29
495.14	1547.09
495.32	1306.02
495.49	1371.55
495.67	1430.07
495.85	1371.55
496.02	1359.85
496.20	1490.92
496.38	1570.50
496.55	1371.55
496.73	1551.78
496.91	1486.24
497.09	1624.33
497.26	1427.73
497.44	1446.45
497.62	1350.49
497.79	1476.88
497.97	1554.12
498.14	1664.12
498.32	1542.41
498.50	1551.78
498.67	1458.15
498.85	1467.52
499.03	1425.39
499.20	1467.52
499.38	1430.07
499.56	1444.11
499.73	1926.26
499.91	1626.67
500.08	1612.63
500.26	1320.06
500.44	1320.06
500.61	1504.96
500.79	1345.81
500.97	1497.94
501.14	1781.15
501.32	1511.99
501.49	1687.53
501.67	1565.82
501.84	1462.83
502.02	1341.13
502.20	1844.34
502.37	1600.93
502.55	1392.62
502.72	1462.83
502.90	1633.69
503.07	1540.07
503.25	1631.35
503.43	1352.83
503.60	1394.96
503.78	1495.60
503.95	1432.41
504.13	1401.98
504.30	1645.40
504.48	1685.19
504.65	1905.20
504.83	1736.68
505.01	1502.62
505.18	1617.31
505.36	1439.43
505.53	1486.24
505.71	1413.68
505.88	1806.89
506.06	1549.43
506.23	1409.00
506.41	1383.26
506.58	1631.35
506.76	1530.71
506.93	1453.47
507.11	1661.78
507.28	1385.60
507.46	1432.41
507.63	1547.09
507.81	1383.26
507.98	1488.58
508.16	1533.05
508.33	1479.22
508.50	1689.87
508.68	1561.14
508.85	1586.88
509.03	1516.67
509.20	1401.98
509.38	1600.93
509.55	1652.42
509.73	1755.40
509.90	1884.13
510.08	1465.18
510.25	1715.61
510.42	1357.51
510.60	1507.30
510.77	1661.78
510.95	1966.05
511.12	1586.88
511.30	1813.92
511.47	1842.00
511.64	2017.54
511.82	1607.95
511.99	1561.14
512.17	1526.03
512.34	1401.98
512.51	1383.26
512.69	1528.37
512.86	1825.62
513.04	1509.65
513.21	1598.59
513.38	1460.49
513.56	1441.77
513.73	1465.18
513.90	1313.04
514.08	1411.34
514.25	1678.16
514.43	1708.59
514.60	1432.41
514.77	1481.56
514.95	1624.33
515.12	1423.05
515.29	1636.03
515.47	1516.67
515.64	1614.97
515.81	1636.03
515.99	1902.86
516.16	1713.27
516.33	1748.38
516.51	1338.79
516.68	1165.59
516.85	1383.26
517.03	1376.24
517.20	1589.22
517.37	1687.53
517.54	1692.21
517.72	1467.52
517.89	1287.29
518.06	1350.49
518.24	1846.68
518.41	1849.02
518.58	1699.23
518.75	1416.02
518.93	1462.83
519.10	1666.46
519.27	1556.46
519.45	1673.48
519.62	1568.16
519.79	1783.49
519.96	1486.24
520.14	1582.20
520.31	1909.88
520.48	1561.14
520.65	1600.93
520.83	1797.53
521.00	1750.72
521.17	1722.63
521.34	1551.78
521.52	1647.74
521.69	1654.76
521.86	1614.97
522.03	1818.60
522.20	1928.60
522.38	1446.45
522.55	1605.61
522.72	1453.47
522.89	1818.60
523.07	1998.82
523.24	1668.80
523.41	1540.07
523.58	1591.56
523.75	1533.05
523.92	1523.69
524.10	1743.70
524.27	1582.20
524.44	1612.63
524.61	1844.34
524.78	1598.59
524.96	1631.35
525.13	1624.33
525.30	1919.24
525.47	1748.38
525.64	1724.97
525.81	1607.95
525.98	1661.78
526.16	1441.77
526.33	1488.58
526.50	1324.74
526.67	1343.47
526.84	1462.83
527.01	1605.61
527.18	1720.29
527.36	1682.85
527.53	1502.62
527.70	1966.05
527.87	1720.29
528.04	2155.63
528.21	1600.93
528.38	1870.09
528.55	1923.92
528.72	1935.62
528.89	1956.69
529.07	1687.53
529.24	1750.72
529.41	2052.65
529.58	1757.74
529.75	1589.22
529.92	1886.47
530.09	1645.40
530.26	1935.62
530.43	1743.70
530.60	1621.99
530.77	1753.06
530.94	1877.11
531.11	1839.66
531.28	1603.27
531.46	1671.14
531.63	1659.44
531.80	1664.12
531.97	1696.89
532.14	1614.97
532.31	1694.55
532.48	1755.40
532.65	1769.44
532.82	1666.46
532.99	1757.74
533.16	1724.97
533.33	1806.89
533.50	1736.68
533.67	1675.82
533.84	2024.56
534.01	1905.20
534.18	1792.85
534.35	1729.66
534.52	1823.28
534.69	2167.34
534.86	1762.42
535.03	1638.38
535.20	1689.87
535.37	1923.92
535.54	1736.68
535.71	1533.05
535.88	2015.20
536.05	1600.93
536.22	1703.91
536.38	1575.18
536.55	1650.08
536.72	1888.81
536.89	1486.24
537.06	1575.18
537.23	1514.33
537.40	1626.67
537.57	1521.35
537.74	1937.96
537.91	1778.81
538.08	1624.33
538.25	1734.34
538.42	1600.93
538.59	1792.85
538.75	1694.55
538.92	1680.50
539.09	1912.22
539.26	1636.03
539.43	2354.58
539.60	3045.04
539.77	3873.59
539.94	3574.00
540.11	2860.13
540.28	2504.37
540.44	2279.68
540.61	1750.72
540.78	1664.12
540.95	1488.58
541.12	2069.03
541.29	1579.86
541.46	1937.96
541.62	1739.02
541.79	1502.62
541.96	1565.82
542.13	1577.52
542.30	1479.22
542.47	1900.52
542.63	1701.57
542.80	1610.29
542.97	1937.96
543.14	1577.52
543.31	1790.51
543.48	1689.87
543.64	1703.91
543.81	1657.10
543.98	1462.83
544.15	1523.69
544.32	1544.75
544.48	1657.10
544.65	1551.78
544.82	1511.99
544.99	1596.25
545.16	1856.04
545.32	1542.41
545.49	1657.10
545.66	1619.65
545.83	1493.26
546.00	1387.94
546.16	1563.48
546.33	1605.61
546.50	1565.82
546.67	1881.79
546.83	1912.22
547.00	1631.35
547.17	1444.11
547.34	1430.07
547.50	1561.14
547.67	1654.76
547.84	1561.14
548.00	1837.32
548.17	1593.90
548.34	1582.20
548.51	1912.22
548.67	1991.80
548.84	1645.40
549.01	1659.44
549.18	1760.08
549.34	1741.36
549.51	1687.53
549.68	1652.42
549.84	1619.65
550.01	1376.24
550.18	2544.16
550.34	2167.34
550.51	1666.46
550.68	2050.31
550.84	1579.86
551.01	1666.46
551.18	1792.85
551.34	1687.53
551.51	1591.56
551.68	1659.44
551.84	1755.40
552.01	1511.99
552.18	1528.37
552.34	1666.46
552.51	1668.80
552.68	1734.34
552.84	1533.05
553.01	1664.12
553.18	1682.85
553.34	1624.33
553.51	1631.35
553.67	1743.70
553.84	1928.60
554.01	1720.29
554.17	1788.17
554.34	1488.58
554.51	1762.42
554.67	1977.75
554.84	1839.66
555.00	1739.02
555.17	1755.40
555.33	1804.55
555.50	1739.02
555.67	1729.66
555.83	1430.07
556.00	1654.76
556.16	3215.90
556.33	1795.19
556.50	1621.99
556.66	1558.80
556.83	1486.24
556.99	1568.16
557.16	1673.48
557.32	1551.78
557.49	1516.67
557.65	1476.88
557.82	1453.47
557.98	1565.82
558.15	1469.86
558.32	1514.33
558.48	1509.65
558.65	1507.30
558.81	1682.85
558.98	1519.01
559.14	1685.19
559.31	1685.19
559.47	1682.85
559.64	1507.30
559.80	1703.91
559.97	1404.32
560.13	1607.95
560.30	1366.87
560.46	1474.54
560.63	1416.02
560.79	1589.22
560.96	1605.61
561.12	1448.79
561.29	1652.42
561.45	1605.61
561.61	1612.63
561.78	2314.79
561.94	1568.16
562.11	1399.64
562.27	1570.50
562.44	1495.60
562.60	1488.58
562.77	1458.15
562.93	2174.36
563.10	1603.27
563.26	1577.52
563.42	1888.81
563.59	1659.44
563.75	1488.58
563.92	1813.92
564.08	1624.33
564.24	1699.23
564.41	2057.33
564.57	1423.05
564.74	1551.78
564.90	1596.25
565.07	1607.95
565.23	1689.87
565.39	1497.94
565.56	1734.34
565.72	1439.43
565.88	1453.47
566.05	1446.45
566.21	1406.66
566.38	1687.53
566.54	1605.61
566.70	1444.11
566.87	1500.28
567.03	1350.49
567.19	1519.01
567.36	1664.12
567.52	1575.18
567.68	1678.16
567.85	1664.12
568.01	1423.05
568.17	1315.38
568.34	1488.58
568.50	1668.80
568.66	1273.25
568.83	2188.40
568.99	1432.41
569.15	1795.19
569.32	1476.88
569.48	1476.88
569.64	1308.36
569.81	1490.92
569.97	1411.34
570.13	1542.41
570.30	1331.76
570.46	1348.15
570.62	1455.81
570.78	1486.24
570.95	1219.42
571.11	1860.73
571.27	1870.09
571.43	1308.36
571.60	1659.44
571.76	1434.75
571.92	1397.30
572.09	1462.83
572.25	1331.76
572.41	1526.03
572.57	1394.96
572.74	1788.17
572.90	1607.95
573.06	1750.72
573.22	1687.53
573.38	1685.19
573.55	1804.55
573.71	1717.95
573.87	1636.03
574.03	1343.47
574.20	1385.60
574.36	1811.57
574.52	1626.67
574.68	1500.28
574.84	1675.82
575.01	1521.35
575.17	1598.59
575.33	1444.11
575.49	1706.25
575.65	1783.49
575.82	1682.85
575.98	2356.92
576.14	2139.25
576.30	2069.03
576.46	1919.24
576.62	1888.81
576.79	1823.28
576.95	1865.41
577.11	1507.30
577.27	1362.19
577.43	1778.81
577.59	1858.39
577.75	1614.97
577.92	1584.54
578.08	1409.00
578.24	1423.05
578.40	1668.80
578.56	1877.11
578.72	1980.09
578.88	1736.68
579.04	1558.80
579.21	1636.03
579.37	1469.86
579.53	1448.79
579.69	1842.00
579.85	1488.58
580.01	1694.55
580.17	1729.66
580.33	1631.35
580.49	1657.10
580.65	1689.87
580.82	1579.86
580.98	1565.82
581.14	1511.99
581.30	1874.77
581.46	1867.75
581.62	2286.70
581.78	2001.16
581.94	2172.02
582.10	1713.27
582.26	1820.94
582.42	1682.85
582.58	1935.62
582.74	1708.59
582.90	1830.30
583.06	1916.90
583.22	1764.76
583.38	1781.15
583.54	1781.15
583.70	2335.85
583.86	2190.74
584.02	2239.89
584.18	2913.97
584.34	2890.56
584.50	6864.79
584.66	42494.77
584.82	65535.00
584.98	65535.00
585.14	65535.00
585.30	64678.36
585.46	45361.92
585.62	28470.28
585.78	13724.90
585.94	6115.82
586.10	3592.72
586.26	2712.68
586.42	2782.90
586.58	2202.44
586.74	1895.83
586.90	2057.33
587.06	1952.01
587.22	1907.54
587.38	1729.66
587.54	3183.13
587.70	7096.50
587.86	10370.91
588.02	11059.03
588.18	7957.82
588.34	5472.17
588.49	3522.51
588.65	2731.41
588.81	1881.79
588.97	1359.85
589.13	1322.40
589.29	1401.98
589.45	1577.52
589.61	1413.68
589.77	1853.70
589.93	1526.03
590.08	1692.21
590.24	1514.33
590.40	1556.46
590.56	1717.95
590.72	1607.95
590.88	1327.08
591.04	1556.46
591.20	1383.26
591.35	1865.41
591.51	1502.62
591.67	1280.27
591.83	1413.68
591.99	1540.07
592.15	1593.90
592.31	1474.54
592.46	1404.32
592.62	1633.69
592.78	1301.34
592.94	1423.05
593.10	1427.73
593.26	1350.49
593.41	1692.21
593.57	1521.35
593.73	1905.20
593.89	6171.99
594.05	13439.36
594.20	18436.40
594.36	16926.75
594.52	11410.11
594.68	7370.35
594.84	5645.37
594.99	3632.51
595.15	2214.15
595.31	1865.41
595.47	1984.77
595.62	1439.43
595.78	1507.30
595.94	1390.28
596.10	1720.29
596.25	1600.93
596.41	1657.10
596.57	1394.96
596.73	1458.15
596.88	1998.82
597.04	3243.98
597.20	4465.74
597.36	5149.18
597.51	4205.94
597.67	2904.60
597.83	2417.77
597.99	2195.42
598.14	1664.12
598.30	1813.92
598.46	1469.86
598.61	1685.19
598.77	1638.38
598.93	1390.28
599.09	1465.18
599.24	1465.18
599.40	1727.32
599.56	1376.24
599.71	1373.89
599.87	1303.68
600.03	1490.92
600.18	1359.85
600.34	1528.37
600.50	1317.72
600.65	1233.46
600.81	1495.60
600.97	1350.49
