SpectraSuite Data File
++++++++++++++++++++++++++++++++++++
Date: Fri Oct 04 11:33:50 GMT-05:00 2013
User: price-jones
Dark Spectrum Present: No
Reference Spectrum Present: No
Number of Sampled Component Spectra: 1
Spectrometers: USB2+H05261
Integration Time (usec): 100000 (USB2+H05261)
Spectra Averaged: 1 (USB2+H05261)
Boxcar Smoothing: 0 (USB2+H05261)
Correct for Electrical Dark: No (USB2+H05261)
Strobe/Lamp Enabled: No (USB2+H05261)
Correct for Detector Non-linearity: No (USB2+H05261)
Correct for Stray Light: No (USB2+H05261)
Number of Pixels in Processed Spectrum: 2048
>>>>>Begin Processed Spectral Data<<<<<
365.73	67.88
365.92	67.88
366.12	67.88
366.32	0.00
366.52	9.36
366.72	7.02
366.91	37.45
367.11	0.00
367.31	0.00
367.51	0.00
367.70	0.00
367.90	37.45
368.10	0.00
368.30	0.00
368.49	0.00
368.69	0.00
368.89	0.00
369.09	0.00
369.28	2.34
369.48	0.00
369.68	0.00
369.87	53.83
370.07	0.00
370.27	35.11
370.47	23.41
370.66	58.51
370.86	112.35
371.06	110.01
371.25	95.96
371.45	196.60
371.65	142.77
371.84	102.98
372.04	93.62
372.24	46.81
372.44	175.54
372.63	133.41
372.83	180.22
373.03	145.11
373.22	79.58
373.42	163.84
373.62	191.92
373.81	107.66
374.01	201.29
374.21	131.07
374.40	100.64
374.60	198.95
374.79	140.43
374.99	100.64
375.19	180.22
375.38	161.50
375.58	110.01
375.78	168.52
375.97	159.16
376.17	149.79
376.37	79.58
376.56	156.82
376.76	135.75
376.95	159.16
377.15	152.13
377.35	177.88
377.54	117.03
377.74	224.69
377.93	184.90
378.13	131.07
378.33	142.77
378.52	126.39
378.72	234.05
378.91	110.01
379.11	135.75
379.31	131.07
379.50	126.39
379.70	187.24
379.89	142.77
380.09	124.05
380.28	154.48
380.48	110.01
380.68	119.37
380.87	138.09
381.07	58.51
381.26	142.77
381.46	166.18
381.65	166.18
381.85	124.05
382.04	182.56
382.24	161.50
382.43	126.39
382.63	95.96
382.83	84.26
383.02	142.77
383.22	138.09
383.41	161.50
383.61	212.99
383.80	173.20
384.00	147.45
384.19	102.98
384.39	124.05
384.58	145.11
384.78	166.18
384.97	177.88
385.17	154.48
385.36	119.37
385.56	182.56
385.75	124.05
385.95	177.88
386.14	175.54
386.34	102.98
386.53	102.98
386.72	72.56
386.92	159.16
387.11	187.24
387.31	154.48
387.50	145.11
387.70	210.65
387.89	110.01
388.09	133.41
388.28	107.66
388.48	128.73
388.67	156.82
388.86	119.37
389.06	131.07
389.25	105.32
389.45	180.22
389.64	100.64
389.84	170.86
390.03	135.75
390.22	196.60
390.42	166.18
390.61	110.01
390.81	142.77
391.00	147.45
391.19	110.01
391.39	124.05
391.58	105.32
391.78	121.71
391.97	156.82
392.16	79.58
392.36	212.99
392.55	105.32
392.75	117.03
392.94	105.32
393.13	166.18
393.33	163.84
393.52	74.90
393.71	114.69
393.91	112.35
394.10	4.68
394.29	198.95
394.49	220.01
394.68	182.56
394.88	227.03
395.07	170.86
395.26	119.37
395.46	133.41
395.65	112.35
395.84	117.03
396.04	208.31
396.23	168.52
396.42	112.35
396.62	91.28
396.81	117.03
397.00	142.77
397.19	166.18
397.39	149.79
397.58	168.52
397.77	112.35
397.97	152.13
398.16	117.03
398.35	215.33
398.55	177.88
398.74	161.50
398.93	238.73
399.12	184.90
399.32	163.84
399.51	107.66
399.70	189.58
399.90	203.63
400.09	168.52
400.28	114.69
400.47	205.97
400.67	182.56
400.86	198.95
401.05	177.88
401.24	154.48
401.44	180.22
401.63	191.92
401.82	121.71
402.01	140.43
402.21	124.05
402.40	170.86
402.59	180.22
402.78	180.22
402.97	166.18
403.17	133.41
403.36	175.54
403.55	177.88
403.74	173.20
403.93	152.13
404.13	217.67
404.32	299.59
404.51	196.60
404.70	138.09
404.89	124.05
405.09	205.97
405.28	205.97
405.47	135.75
405.66	184.90
405.85	163.84
406.05	170.86
406.24	110.01
406.43	182.56
406.62	198.95
406.81	208.31
407.00	198.95
407.20	173.20
407.39	156.82
407.58	114.69
407.77	159.16
407.96	124.05
408.15	166.18
408.34	142.77
408.54	140.43
408.73	168.52
408.92	117.03
409.11	161.50
409.30	250.44
409.49	173.20
409.68	142.77
409.87	152.13
410.07	189.58
410.26	173.20
410.45	126.39
410.64	124.05
410.83	121.71
411.02	60.85
411.21	182.56
411.40	203.63
411.59	222.35
411.78	138.09
411.98	210.65
412.17	128.73
412.36	84.26
412.55	131.07
412.74	117.03
412.93	170.86
413.12	138.09
413.31	154.48
413.50	114.69
413.69	170.86
413.88	159.16
414.07	264.48
414.26	149.79
414.45	166.18
414.64	189.58
414.83	194.26
415.02	177.88
415.22	184.90
415.41	184.90
415.60	182.56
415.79	112.35
415.98	191.92
416.17	131.07
416.36	117.03
416.55	119.37
416.74	93.62
416.93	231.71
417.12	98.30
417.31	95.96
417.50	217.67
417.69	318.31
417.88	252.78
418.07	227.03
418.26	189.58
418.45	222.35
418.64	234.05
418.83	283.20
419.02	229.37
419.21	220.01
419.39	220.01
419.58	259.80
419.77	191.92
419.96	163.84
420.15	283.20
420.34	215.33
420.53	210.65
420.72	224.69
420.91	128.73
421.10	145.11
421.29	119.37
421.48	273.84
421.67	156.82
421.86	128.73
422.05	182.56
422.24	145.11
422.43	149.79
422.61	201.29
422.80	114.69
422.99	191.92
423.18	159.16
423.37	156.82
423.56	140.43
423.75	227.03
423.94	170.86
424.13	182.56
424.32	224.69
424.50	112.35
424.69	198.95
424.88	212.99
425.07	156.82
425.26	156.82
425.45	304.27
425.64	241.08
425.83	290.23
426.01	245.76
426.20	198.95
426.39	163.84
426.58	184.90
426.77	177.88
426.96	212.99
427.15	208.31
427.33	154.48
427.52	161.50
427.71	156.82
427.90	184.90
428.09	198.95
428.28	100.64
428.46	196.60
428.65	93.62
428.84	140.43
429.03	161.50
429.22	217.67
429.40	133.41
429.59	161.50
429.78	231.71
429.97	145.11
430.16	126.39
430.34	133.41
430.53	205.97
430.72	154.48
430.91	180.22
431.10	231.71
431.28	184.90
431.47	149.79
431.66	201.29
431.85	241.08
432.03	170.86
432.22	231.71
432.41	140.43
432.60	217.67
432.79	152.13
432.97	196.60
433.16	332.36
433.35	346.40
433.54	201.29
433.72	187.24
433.91	189.58
434.10	163.84
434.28	255.12
434.47	196.60
434.66	210.65
434.85	201.29
435.03	238.73
435.22	351.08
435.41	337.04
435.59	318.31
435.78	208.31
435.97	170.86
436.16	205.97
436.34	189.58
436.53	124.05
436.72	196.60
436.90	212.99
437.09	241.08
437.28	93.62
437.46	266.82
437.65	161.50
437.84	224.69
438.02	184.90
438.21	187.24
438.40	156.82
438.58	166.18
438.77	191.92
438.96	128.73
439.14	212.99
439.33	191.92
439.52	173.20
439.70	131.07
439.89	124.05
440.08	177.88
440.26	182.56
440.45	217.67
440.63	163.84
440.82	128.73
441.01	203.63
441.19	159.16
441.38	234.05
441.57	184.90
441.75	236.39
441.94	177.88
442.12	205.97
442.31	91.28
442.50	142.77
442.68	203.63
442.87	159.16
443.05	187.24
443.24	140.43
443.43	241.08
443.61	217.67
443.80	182.56
443.98	145.11
444.17	187.24
444.35	147.45
444.54	201.29
444.73	124.05
444.91	182.56
445.10	147.45
445.28	208.31
445.47	203.63
445.65	163.84
445.84	166.18
446.02	224.69
446.21	220.01
446.39	210.65
446.58	166.18
446.77	201.29
446.95	182.56
447.14	191.92
447.32	208.31
447.51	266.82
447.69	248.10
447.88	170.86
448.06	194.26
448.25	215.33
448.43	189.58
448.62	126.39
448.80	168.52
448.99	215.33
449.17	121.71
449.36	140.43
449.54	234.05
449.73	135.75
449.91	182.56
450.10	231.71
450.28	234.05
450.46	264.48
450.65	166.18
450.83	163.84
451.02	222.35
451.20	224.69
451.39	135.75
451.57	205.97
451.76	168.52
451.94	145.11
452.13	196.60
452.31	227.03
452.49	210.65
452.68	145.11
452.86	166.18
453.05	187.24
453.23	100.64
453.42	196.60
453.60	201.29
453.78	191.92
453.97	166.18
454.15	198.95
454.34	182.56
454.52	269.16
454.70	220.01
454.89	135.75
455.07	133.41
455.26	189.58
455.44	217.67
455.62	243.42
455.81	255.12
455.99	238.73
456.17	198.95
456.36	191.92
456.54	182.56
456.73	177.88
456.91	147.45
457.09	245.76
457.28	138.09
457.46	138.09
457.64	220.01
457.83	159.16
458.01	154.48
458.19	180.22
458.38	131.07
458.56	177.88
458.74	238.73
458.93	229.37
459.11	271.50
459.29	175.54
459.48	203.63
459.66	245.76
459.84	266.82
460.03	269.16
460.21	196.60
460.39	212.99
460.57	241.08
460.76	149.79
460.94	161.50
461.12	205.97
461.31	198.95
461.49	248.10
461.67	252.78
461.85	198.95
462.04	100.64
462.22	671.73
462.40	306.61
462.59	243.42
462.77	177.88
462.95	259.80
463.13	159.16
463.32	227.03
463.50	196.60
463.68	107.66
463.86	224.69
464.05	212.99
464.23	196.60
464.41	159.16
464.59	161.50
464.78	163.84
464.96	163.84
465.14	159.16
465.32	156.82
465.50	203.63
465.69	175.54
465.87	182.56
466.05	271.50
466.23	142.77
466.41	156.82
466.60	156.82
466.78	124.05
466.96	234.05
467.14	161.50
467.32	224.69
467.51	201.29
467.69	205.97
467.87	166.18
468.05	224.69
468.23	224.69
468.41	159.16
468.60	229.37
468.78	245.76
468.96	283.20
469.14	194.26
469.32	128.73
469.50	140.43
469.69	243.42
469.87	252.78
470.05	236.39
470.23	140.43
470.41	131.07
470.59	182.56
470.77	166.18
470.95	184.90
471.14	248.10
471.32	227.03
471.50	224.69
471.68	177.88
471.86	173.20
472.04	201.29
472.22	217.67
472.40	100.64
472.58	114.69
472.77	156.82
472.95	133.41
473.13	236.39
473.31	205.97
473.49	149.79
473.67	196.60
473.85	229.37
474.03	201.29
474.21	161.50
474.39	220.01
474.57	255.12
474.75	166.18
474.93	191.92
475.12	138.09
475.30	177.88
475.48	147.45
475.66	138.09
475.84	229.37
476.02	189.58
476.20	177.88
476.38	149.79
476.56	243.42
476.74	196.60
476.92	245.76
477.10	147.45
477.28	259.80
477.46	269.16
477.64	208.31
477.82	173.20
478.00	187.24
478.18	241.08
478.36	161.50
478.54	198.95
478.72	215.33
478.90	224.69
479.08	201.29
479.26	301.93
479.44	259.80
479.62	238.73
479.80	159.16
479.98	182.56
480.16	203.63
480.34	175.54
480.52	262.14
480.70	250.44
480.88	276.18
481.06	252.78
481.24	224.69
481.41	210.65
481.59	173.20
481.77	210.65
481.95	217.67
482.13	248.10
482.31	301.93
482.49	229.37
482.67	203.63
482.85	245.76
483.03	257.46
483.21	229.37
483.39	187.24
483.57	234.05
483.74	231.71
483.92	208.31
484.10	299.59
484.28	217.67
484.46	271.50
484.64	241.08
484.82	201.29
485.00	236.39
485.18	196.60
485.35	201.29
485.53	205.97
485.71	264.48
485.89	205.97
486.07	175.54
486.25	322.99
486.43	227.03
486.61	255.12
486.78	198.95
486.96	241.08
487.14	236.39
487.32	318.31
487.50	248.10
487.68	264.48
487.85	205.97
488.03	241.08
488.21	257.46
488.39	177.88
488.57	224.69
488.75	212.99
488.92	528.96
489.10	294.91
489.28	308.95
489.46	245.76
489.64	269.16
489.81	241.08
489.99	234.05
490.17	250.44
490.35	322.99
490.53	271.50
490.70	231.71
490.88	212.99
491.06	271.50
491.24	280.86
491.41	245.76
491.59	259.80
491.77	280.86
491.95	222.35
492.13	234.05
492.30	287.89
492.48	222.35
492.66	177.88
492.84	168.52
493.01	278.52
493.19	276.18
493.37	252.78
493.54	313.63
493.72	222.35
493.90	203.63
494.08	205.97
494.25	184.90
494.43	189.58
494.61	271.50
494.79	229.37
494.96	217.67
495.14	236.39
495.32	191.92
495.49	283.20
495.67	273.84
495.85	259.80
496.02	168.52
496.20	287.89
496.38	201.29
496.55	229.37
496.73	304.27
496.91	194.26
497.09	245.76
497.26	306.61
497.44	248.10
497.62	266.82
497.79	234.05
497.97	238.73
498.14	238.73
498.32	252.78
498.50	276.18
498.67	180.22
498.85	337.04
499.03	255.12
499.20	269.16
499.38	241.08
499.56	229.37
499.73	248.10
499.91	191.92
500.08	222.35
500.26	304.27
500.44	208.31
500.61	217.67
500.79	184.90
500.97	236.39
501.14	248.10
501.32	280.86
501.49	259.80
501.67	259.80
501.84	269.16
502.02	177.88
502.20	250.44
502.37	238.73
502.55	322.99
502.72	360.44
502.90	306.61
503.07	278.52
503.25	276.18
503.43	287.89
503.60	304.27
503.78	348.74
503.95	208.31
504.13	276.18
504.30	290.23
504.48	273.84
504.65	271.50
504.83	248.10
505.01	194.26
505.18	283.20
505.36	217.67
505.53	257.46
505.71	273.84
505.88	236.39
506.06	264.48
506.23	278.52
506.41	348.74
506.58	238.73
506.76	241.08
506.93	276.18
507.11	238.73
507.28	301.93
507.46	229.37
507.63	252.78
507.81	262.14
507.98	264.48
508.16	292.57
508.33	285.55
508.50	273.84
508.68	269.16
508.85	227.03
509.03	243.42
509.20	154.48
509.38	259.80
509.55	285.55
509.73	280.86
509.90	287.89
510.08	191.92
510.25	290.23
510.42	238.73
510.60	177.88
510.77	262.14
510.95	351.08
511.12	299.59
511.30	308.95
511.47	294.91
511.64	325.33
511.82	285.55
511.99	241.08
512.17	271.50
512.34	238.73
512.51	234.05
512.69	262.14
512.86	266.82
513.04	205.97
513.21	187.24
513.38	224.69
513.56	264.48
513.73	297.25
513.90	280.86
514.08	266.82
514.25	294.91
514.43	292.57
514.60	322.99
514.77	276.18
514.95	229.37
515.12	210.65
515.29	241.08
515.47	236.39
515.64	227.03
515.81	283.20
515.99	320.65
516.16	271.50
516.33	234.05
516.51	222.35
516.68	205.97
516.85	177.88
517.03	180.22
517.20	238.73
517.37	222.35
517.54	318.31
517.72	250.44
517.89	205.97
518.06	227.03
518.24	330.02
518.41	346.40
518.58	262.14
518.75	292.57
518.93	248.10
519.10	297.25
519.27	220.01
519.45	266.82
519.62	269.16
519.79	229.37
519.96	250.44
520.14	236.39
520.31	320.65
520.48	292.57
520.65	229.37
520.83	313.63
521.00	250.44
521.17	318.31
521.34	224.69
521.52	234.05
521.69	231.71
521.86	264.48
522.03	271.50
522.20	351.08
522.38	299.59
522.55	327.68
522.72	271.50
522.89	334.70
523.07	337.04
523.24	266.82
523.41	276.18
523.58	255.12
523.75	308.95
523.92	180.22
524.10	245.76
524.27	339.38
524.44	196.60
524.61	227.03
524.78	243.42
524.96	283.20
525.13	280.86
525.30	285.55
525.47	292.57
525.64	297.25
525.81	292.57
525.98	320.65
526.16	231.71
526.33	248.10
526.50	280.86
526.67	299.59
526.84	245.76
527.01	266.82
527.18	283.20
527.36	287.89
527.53	203.63
527.70	278.52
527.87	292.57
528.04	306.61
528.21	287.89
528.38	301.93
528.55	327.68
528.72	358.10
528.89	304.27
529.07	283.20
529.24	271.50
529.41	257.46
529.58	287.89
529.75	252.78
529.92	220.01
530.09	198.95
530.26	313.63
530.43	250.44
530.60	243.42
530.77	290.23
530.94	320.65
531.11	355.76
531.28	346.40
531.46	313.63
531.63	243.42
531.80	290.23
531.97	273.84
532.14	231.71
532.31	236.39
532.48	327.68
532.65	430.66
532.82	463.43
532.99	451.72
533.16	402.57
533.33	313.63
533.50	280.86
533.67	379.17
533.84	468.11
534.01	390.87
534.18	414.27
534.35	421.30
534.52	301.93
534.69	330.02
534.86	287.89
535.03	194.26
535.20	234.05
535.37	330.02
535.54	250.44
535.71	269.16
535.88	351.08
536.05	271.50
536.22	332.36
536.38	229.37
536.55	252.78
536.72	250.44
536.89	252.78
537.06	315.97
537.23	402.57
537.40	269.16
537.57	381.51
537.74	322.99
537.91	332.36
538.08	311.29
538.25	339.38
538.42	351.08
538.59	285.55
538.75	273.84
538.92	269.16
539.09	442.36
539.26	337.04
539.43	550.03
539.60	997.07
539.77	1579.86
539.94	1743.70
540.11	1090.69
540.28	809.83
540.44	657.69
540.61	472.79
540.78	456.40
540.95	451.72
541.12	571.09
541.29	503.22
541.46	519.60
541.62	599.18
541.79	538.32
541.96	514.92
542.13	484.49
542.30	325.33
542.47	465.77
542.63	465.77
542.80	458.74
542.97	435.34
543.14	472.79
543.31	454.06
543.48	465.77
543.64	524.28
543.81	440.02
543.98	402.57
544.15	423.64
544.32	414.27
544.48	425.98
544.65	437.68
544.82	517.26
544.99	482.15
545.16	486.83
545.32	430.66
545.49	648.33
545.66	826.21
545.83	837.91
546.00	791.10
546.16	575.77
546.33	461.09
546.50	411.93
546.67	477.47
546.83	442.36
547.00	428.32
547.17	428.32
547.34	351.08
547.50	402.57
547.67	341.72
547.84	322.99
548.00	425.98
548.17	383.85
548.34	337.04
548.51	395.55
548.67	327.68
548.84	311.29
549.01	299.59
549.18	381.51
549.34	304.27
549.51	421.30
549.68	351.08
549.84	400.23
550.01	360.44
550.18	437.68
550.34	327.68
550.51	341.72
550.68	337.04
550.84	325.33
551.01	381.51
551.18	365.12
551.34	393.21
551.51	236.39
551.68	278.52
551.84	341.72
552.01	248.10
552.18	344.06
552.34	304.27
552.51	358.10
552.68	318.31
552.84	304.27
553.01	376.83
553.18	287.89
553.34	243.42
553.51	294.91
553.67	306.61
553.84	327.68
554.01	266.82
554.17	271.50
554.34	184.90
554.51	332.36
554.67	231.71
554.84	414.27
555.00	255.12
555.17	243.42
555.33	301.93
555.50	238.73
555.67	245.76
555.83	299.59
556.00	245.76
556.16	454.06
556.33	308.95
556.50	276.18
556.66	306.61
556.83	250.44
556.99	278.52
557.16	255.12
557.32	313.63
557.49	348.74
557.65	322.99
557.82	241.08
557.98	294.91
558.15	257.46
558.32	241.08
558.48	318.31
558.65	252.78
558.81	355.76
558.98	266.82
559.14	271.50
559.31	313.63
559.47	238.73
559.64	264.48
559.80	285.55
559.97	294.91
560.13	299.59
560.30	308.95
560.46	273.84
560.63	278.52
560.79	210.65
560.96	259.80
561.12	245.76
561.29	306.61
561.45	208.31
561.61	161.50
561.78	280.86
561.94	259.80
562.11	234.05
562.27	252.78
562.44	287.89
562.60	318.31
562.77	334.70
562.93	369.80
563.10	313.63
563.26	222.35
563.42	227.03
563.59	243.42
563.75	227.03
563.92	290.23
564.08	278.52
564.24	264.48
564.41	320.65
564.57	210.65
564.74	285.55
564.90	276.18
565.07	259.80
565.23	285.55
565.39	341.72
565.56	280.86
565.72	318.31
565.88	297.25
566.05	290.23
566.21	262.14
566.38	234.05
566.54	297.25
566.70	334.70
566.87	262.14
567.03	276.18
567.19	262.14
567.36	248.10
567.52	205.97
567.68	325.33
567.85	264.48
568.01	234.05
568.17	215.33
568.34	313.63
568.50	315.97
568.66	224.69
568.83	266.82
568.99	299.59
569.15	381.51
569.32	292.57
569.48	250.44
569.64	269.16
569.81	276.18
569.97	208.31
570.13	285.55
570.30	189.58
570.46	248.10
570.62	248.10
570.78	271.50
570.95	248.10
571.11	383.85
571.27	280.86
571.43	189.58
571.60	290.23
571.76	299.59
571.92	287.89
572.09	257.46
572.25	313.63
572.41	259.80
572.57	243.42
572.74	264.48
572.90	224.69
573.06	182.56
573.22	248.10
573.38	250.44
573.55	344.06
573.71	304.27
573.87	348.74
574.03	259.80
574.20	262.14
574.36	276.18
574.52	400.23
574.68	409.59
574.84	376.83
575.01	283.20
575.17	252.78
575.33	322.99
575.49	315.97
575.65	348.74
575.82	358.10
575.98	564.07
576.14	720.88
576.30	828.55
576.46	706.84
576.62	521.94
576.79	557.05
576.95	451.72
577.11	374.49
577.27	231.71
577.43	428.32
577.59	351.08
577.75	262.14
577.92	292.57
578.08	304.27
578.24	262.14
578.40	320.65
578.56	325.33
578.72	411.93
578.88	400.23
579.04	402.57
579.21	388.53
579.37	402.57
579.53	386.19
579.69	372.15
579.85	341.72
580.01	425.98
580.17	454.06
580.33	411.93
580.49	369.80
580.65	395.55
580.82	425.98
580.98	428.32
581.14	376.83
581.30	458.74
581.46	442.36
581.62	610.88
581.78	667.05
581.94	650.67
582.10	564.07
582.26	543.00
582.42	521.94
582.58	484.49
582.74	437.68
582.90	477.47
583.06	470.45
583.22	484.49
583.38	514.92
583.54	566.41
583.70	664.71
583.86	737.27
584.02	786.42
584.18	968.98
584.34	1102.39
584.50	2789.92
584.66	19360.91
584.82	53036.54
584.98	65535.00
585.14	64732.20
585.30	51264.75
585.46	30553.35
585.62	18782.80
585.78	8610.83
585.94	3412.50
586.10	1708.59
586.26	1172.61
586.42	908.13
586.58	758.33
586.74	746.63
586.90	709.18
587.06	587.47
587.22	692.80
587.38	617.90
587.54	1104.73
587.70	3059.08
587.86	5743.67
588.02	6935.01
588.18	4903.42
588.34	3096.53
588.49	2047.97
588.65	1336.45
588.81	793.44
588.97	404.91
589.13	437.68
589.29	379.17
589.45	404.91
589.61	367.46
589.77	493.85
589.93	503.22
590.08	498.53
590.24	447.04
590.40	451.72
590.56	379.17
590.72	437.68
590.88	409.59
591.04	470.45
591.20	388.53
591.35	369.80
591.51	327.68
591.67	337.04
591.83	322.99
591.99	425.98
592.15	498.53
592.31	365.12
592.46	365.12
592.62	376.83
592.78	418.96
592.94	383.85
593.10	353.42
593.26	327.68
593.41	353.42
593.57	428.32
593.73	540.66
593.89	2282.02
594.05	6581.59
594.20	10867.11
594.36	11066.05
594.52	7311.83
594.68	4329.99
594.84	3021.63
594.99	1696.89
595.15	791.10
595.31	559.39
595.47	449.38
595.62	362.78
595.78	327.68
595.94	379.17
596.10	458.74
596.25	421.30
596.41	479.81
596.57	376.83
596.73	381.51
596.88	552.37
597.04	1294.32
597.20	2317.13
597.36	3005.25
597.51	2202.44
597.67	1479.22
597.83	1153.88
597.99	753.65
598.14	538.32
598.30	372.15
598.46	372.15
598.61	404.91
598.77	411.93
598.93	337.04
599.09	311.29
599.24	362.78
599.40	381.51
599.56	334.70
599.71	290.23
599.87	386.19
600.03	276.18
600.18	257.46
600.34	390.87
600.50	264.48
600.65	135.75
600.81	264.48
600.97	290.23
601.12	376.83
601.28	269.16
601.44	276.18
601.59	313.63
601.75	304.27
601.91	301.93
602.06	287.89
602.22	376.83
602.37	692.80
602.53	1671.14
602.69	2733.75
602.84	3023.97
603.00	2399.05
603.16	1579.86
603.31	1029.84
603.47	847.27
603.62	437.68
603.78	404.91
603.94	259.80
604.09	308.95
604.25	304.27
604.40	360.44
604.56	334.70
604.71	330.02
604.87	278.52
605.03	315.97
605.18	320.65
605.34	339.38
605.49	381.51
605.65	416.62
605.80	327.68
605.96	400.23
606.12	372.15
606.27	440.02
606.43	351.08
606.58	428.32
606.74	842.59
606.89	3026.31
607.05	6867.13
607.20	9935.57
607.36	8283.16
607.51	5614.95
607.67	3421.86
607.82	2370.96
607.98	1462.83
608.13	784.08
608.29	491.51
608.44	610.88
608.60	463.43
608.75	592.16
608.91	1088.35
609.06	4505.53
609.22	11220.53
609.37	17303.58
609.53	15307.10
609.68	10019.83
609.84	6387.32
609.99	4372.12
