SpectraSuite Data File
++++++++++++++++++++++++++++++++++++
Date: Fri Oct 04 12:15:11 GMT-05:00 2013
User: price-jones
Dark Spectrum Present: No
Reference Spectrum Present: No
Number of Sampled Component Spectra: 1
Spectrometers: USB2+H05261
Integration Time (usec): 10000000 (USB2+H05261)
Spectra Averaged: 1 (USB2+H05261)
Boxcar Smoothing: 0 (USB2+H05261)
Correct for Electrical Dark: No (USB2+H05261)
Strobe/Lamp Enabled: No (USB2+H05261)
Correct for Detector Non-linearity: No (USB2+H05261)
Correct for Stray Light: No (USB2+H05261)
Number of Pixels in Processed Spectrum: 2048
>>>>>Begin Processed Spectral Data<<<<<
365.73	30.43
365.92	30.43
366.12	30.43
366.32	0.00
366.52	0.00
366.72	4418.93
366.91	2331.17
367.11	4271.48
367.31	3721.45
367.51	4245.73
367.70	4973.64
367.90	6689.25
368.10	4723.20
368.30	4880.02
368.49	2616.72
368.69	6033.90
368.89	4184.88
369.09	2792.26
369.28	3805.71
369.48	2361.60
369.68	3391.44
369.87	4465.74
370.07	2911.63
370.27	6843.73
370.47	4596.81
370.66	3735.50
370.86	5551.75
371.06	7798.66
371.25	9930.89
371.45	4360.42
371.65	6977.14
371.84	3522.51
372.04	3199.51
372.24	5004.07
372.44	4081.89
372.63	5451.11
372.83	8638.92
373.03	4601.49
373.22	3545.91
373.42	3758.90
373.62	4589.79
373.81	5530.69
374.01	7178.42
374.21	6520.73
374.40	4315.95
374.60	7445.24
374.79	4599.15
374.99	4351.06
375.19	5408.98
375.38	5764.74
375.58	4931.51
375.78	6888.20
375.97	6204.76
376.17	9858.34
376.37	4636.60
376.56	5834.96
376.76	3887.63
376.95	3599.74
377.15	6164.97
377.35	5638.35
377.54	5774.10
377.74	3978.91
377.93	4060.83
378.13	5399.62
378.33	7108.21
378.52	4772.35
378.72	7164.38
378.91	6473.92
379.11	4105.30
379.31	4250.41
379.50	3220.58
379.70	7077.78
379.89	6977.14
380.09	4161.47
380.28	3335.26
380.48	4896.40
380.68	4063.17
380.87	3119.93
381.07	5558.77
381.26	7707.38
381.46	6679.89
381.65	6094.76
381.85	4212.96
382.04	4802.78
382.24	5687.50
382.43	4573.41
382.63	3613.79
382.83	4344.03
383.02	6979.48
383.22	7531.84
383.41	3709.75
383.61	4924.49
383.80	4592.13
384.00	4699.80
384.19	4283.18
384.39	5331.74
384.58	4449.36
384.78	5947.30
384.97	5462.81
385.17	4734.90
385.36	4461.06
385.56	6626.06
385.75	3370.37
385.95	4662.35
386.14	6656.48
386.34	4386.16
386.53	5420.68
386.72	4058.49
386.92	7852.50
387.11	5944.96
387.31	6043.26
387.50	3702.73
387.70	3473.36
387.89	5177.26
388.09	3918.06
388.28	3735.50
388.48	3950.82
388.67	6696.27
388.86	4767.67
389.06	4727.88
389.25	5832.62
389.45	5528.35
389.64	4788.74
389.84	7304.81
390.03	6043.26
390.22	5575.16
390.42	4535.96
390.61	3819.75
390.81	3309.52
391.00	5032.15
391.19	7258.00
391.39	4678.73
391.58	6342.85
391.78	5046.20
391.97	5593.88
392.16	3534.21
392.36	7595.04
392.55	7335.24
392.75	4933.85
392.94	4081.89
393.13	6399.02
393.33	3325.90
393.52	4301.90
393.71	8065.49
393.91	5394.93
394.10	3660.60
394.29	4383.82
394.49	4454.04
394.68	6073.69
394.88	7599.72
395.07	7321.20
395.26	5467.49
395.46	5305.99
395.65	7267.36
395.84	6036.24
396.04	11901.62
396.23	5085.98
396.42	4313.61
396.62	5685.16
396.81	5944.96
397.00	5348.12
397.19	5703.89
397.39	4250.41
397.58	8021.02
397.77	4800.44
397.97	5327.06
398.16	5313.02
398.35	6569.88
398.55	4234.03
398.74	5565.79
398.93	7405.46
399.12	4739.58
399.32	6768.83
399.51	5357.49
399.70	6820.32
399.90	6335.83
400.09	6462.22
400.28	7861.86
400.47	4959.60
400.67	7375.03
400.86	5701.54
401.05	6832.02
401.24	7805.69
401.44	7232.26
401.63	7372.69
401.82	7899.31
402.01	4617.88
402.21	5640.69
402.40	6225.82
402.59	5317.70
402.78	5114.07
402.97	5446.43
403.17	5930.92
403.36	6445.84
403.55	5682.82
403.74	5350.46
403.93	5706.23
404.13	8386.14
404.32	5181.95
404.51	4987.68
404.70	7658.23
404.89	5483.88
405.09	10195.37
405.28	5872.40
405.47	4404.89
405.66	6986.50
405.85	7808.03
406.05	5914.53
406.24	5626.65
406.43	6459.88
406.62	7014.59
406.81	10597.95
407.00	8067.83
407.20	6438.81
407.39	5638.35
407.58	5366.85
407.77	6949.05
407.96	8772.33
408.15	7932.08
408.34	6904.58
408.54	6656.48
408.73	6637.76
408.92	6146.25
409.11	7590.36
409.30	8465.72
409.49	4997.04
409.68	5746.02
409.87	6431.79
410.07	5139.82
410.26	6539.46
410.45	5846.66
410.64	5085.98
410.83	6443.49
411.02	5818.57
411.21	7669.94
411.40	7948.46
411.59	6221.14
411.78	5879.43
411.98	6347.53
412.17	4908.10
412.36	5839.64
412.55	5717.93
412.74	7667.60
412.93	10471.56
413.12	5551.75
413.31	8390.82
413.50	7375.03
413.69	6260.93
413.88	9530.66
414.07	7033.31
414.26	6733.72
414.45	5687.50
414.64	7903.99
414.83	7524.82
415.02	7232.26
415.22	8212.94
415.41	9369.16
415.60	5947.30
415.79	6642.44
415.98	9830.25
416.17	6867.13
416.36	6935.01
416.55	5837.30
416.74	7878.24
416.93	8777.01
417.12	6649.46
417.31	6661.16
417.50	6663.51
417.69	10820.30
417.88	7412.48
418.07	5715.59
418.26	6829.68
418.45	6895.22
418.64	10824.98
418.83	8222.30
419.02	7957.82
419.21	7339.92
419.39	7494.40
419.58	6129.86
419.77	6366.26
419.96	9242.78
420.15	10480.92
420.34	7042.67
420.53	7721.43
420.72	8812.12
420.91	7686.32
421.10	7171.40
421.29	7733.13
421.48	8198.90
421.67	8875.31
421.86	6366.26
422.05	7014.59
422.24	6422.43
422.43	7384.39
422.61	5495.58
422.80	6530.09
422.99	7307.15
423.18	6324.13
423.37	9879.40
423.56	8023.36
423.75	8248.05
423.94	5621.97
424.13	6869.47
424.32	6169.65
424.50	7393.75
424.69	6906.92
424.88	9858.34
425.07	6626.06
425.26	8154.43
425.45	8786.37
425.64	6513.71
425.83	7122.25
426.01	9799.82
426.20	7974.21
426.39	6576.91
426.58	6361.58
426.77	7377.37
426.96	9242.78
427.15	7798.66
427.33	6352.21
427.52	7377.37
427.71	7260.34
427.90	7737.81
428.09	6373.28
428.28	5626.65
428.46	6700.95
428.65	8187.19
428.84	8915.10
429.03	10546.45
429.22	6246.89
429.40	5469.83
429.59	5331.74
429.78	11068.39
429.97	6459.88
430.16	5792.83
430.34	6200.08
430.53	5832.62
430.72	6532.44
430.91	8940.85
431.10	5837.30
431.28	7318.86
431.47	9011.06
431.66	8166.13
431.85	6506.69
432.03	7328.22
432.22	12762.94
432.41	7131.61
432.60	10265.59
432.79	6738.40
432.97	8439.97
433.16	7852.50
433.35	6750.10
433.54	6965.43
433.72	8716.16
433.91	8990.00
434.10	6848.41
434.28	8051.44
434.47	7243.96
434.66	9549.39
434.85	6993.52
435.03	7726.11
435.22	11103.50
435.41	11534.16
435.59	9210.01
435.78	8362.73
435.97	6857.77
436.16	9547.05
436.34	7501.42
436.53	8601.47
436.72	10038.56
436.90	9228.73
437.09	8641.26
437.28	7808.03
437.46	7300.13
437.65	9078.94
437.84	8765.31
438.02	8566.36
438.21	8863.61
438.40	6984.16
438.58	6197.74
438.77	7992.93
438.96	8201.24
439.14	7194.81
439.33	9551.73
439.52	7487.37
439.70	8065.49
439.89	9788.12
440.08	8411.89
440.26	8196.56
440.45	11740.13
440.63	9039.15
440.82	8559.34
441.01	8559.34
441.19	7793.98
441.38	8006.97
441.57	8257.41
441.75	11110.52
441.94	10977.11
442.12	8711.47
442.31	8201.24
442.50	8325.29
442.68	8163.79
442.87	8908.08
443.05	8180.17
443.24	8737.22
443.43	11548.20
443.61	11407.77
443.80	8835.52
443.98	7878.24
444.17	8152.09
444.35	10600.29
444.54	8315.92
444.73	8273.79
444.91	11321.17
445.10	7119.91
445.28	7386.73
445.47	8769.99
445.65	8486.78
445.84	7695.68
446.02	8823.82
446.21	8077.19
446.39	8194.22
446.58	9448.74
446.77	8002.29
446.95	8624.87
447.14	9919.19
447.32	12248.02
447.51	8840.20
447.69	9121.07
447.88	9076.60
448.06	12348.67
448.25	9813.87
448.43	7770.58
448.62	7522.48
448.80	10153.24
448.99	10504.32
449.17	7992.93
449.36	7892.29
449.54	10576.88
449.73	7651.21
449.91	10221.12
450.10	8573.38
450.28	14490.26
450.46	13610.22
450.65	11225.21
450.83	9874.72
451.02	8894.04
451.20	9259.16
451.39	9114.05
451.57	8751.26
451.76	8250.39
451.94	9027.45
452.13	10146.22
452.31	11492.03
452.49	9738.97
452.68	7234.60
452.86	9509.60
453.05	12989.97
453.23	9128.09
453.42	7311.83
453.60	8891.70
453.78	9923.87
453.97	7915.69
454.15	7644.19
454.34	8189.53
454.52	7957.82
454.70	12196.53
454.89	10459.85
455.07	8294.86
455.26	10171.97
455.44	11021.58
455.62	8746.58
455.81	9944.94
455.99	10436.45
456.17	10604.97
456.36	9029.79
456.54	8936.17
456.73	8610.83
456.91	8571.04
457.09	10022.17
457.28	11632.46
457.46	9322.35
457.64	11389.05
457.83	8910.42
458.01	8327.63
458.19	10003.45
458.38	8748.92
458.56	10094.73
458.74	7889.95
458.93	10099.41
459.11	9645.35
459.29	8154.43
459.48	10850.72
459.66	13083.59
459.84	11164.36
460.03	18005.74
460.21	11281.38
460.39	9071.92
460.57	12072.48
460.76	10010.47
460.94	9738.97
461.12	13408.93
461.31	12734.85
461.49	9586.83
461.67	8926.80
461.85	10183.67
462.04	9397.25
462.22	53504.65
462.40	10789.87
462.59	12500.80
462.77	8926.80
462.95	10211.76
463.13	8161.45
463.32	11360.96
463.50	10188.35
463.68	10682.20
463.86	10059.62
464.05	9015.74
464.23	11864.18
464.41	11047.33
464.59	8465.72
464.78	8980.64
464.96	8084.21
465.14	9958.98
465.32	8716.16
465.50	10839.02
465.69	10752.42
465.87	8238.69
466.05	10705.61
466.23	7747.17
466.41	9116.39
466.60	9247.46
466.78	9596.20
466.96	11836.09
467.14	10284.31
467.32	12133.34
467.51	10911.58
467.69	10792.21
467.87	13406.59
468.05	9563.43
468.23	14094.71
468.41	11435.86
468.60	9418.32
468.78	10300.70
468.96	12411.86
469.14	10827.32
469.32	8035.06
469.50	8327.63
469.69	10839.02
469.87	9961.32
470.05	10188.35
470.23	9582.15
470.41	8491.46
470.59	8748.92
470.77	10333.47
470.95	9856.00
471.14	12341.64
471.32	9806.84
471.50	13317.65
471.68	10401.34
471.86	10689.23
472.04	9055.53
472.22	10441.13
472.40	8222.30
472.58	9198.31
472.77	8430.61
472.95	9937.91
473.13	14347.48
473.31	12585.06
473.49	8386.14
473.67	8772.33
473.85	11648.85
474.03	11592.67
474.21	10253.89
474.39	13282.54
474.57	14225.78
474.75	10960.73
474.93	9376.19
475.12	8229.32
475.30	9528.32
475.48	10225.80
475.66	10562.84
475.84	10202.40
476.02	10050.26
476.20	11798.64
476.38	10527.73
476.56	16102.89
476.74	10342.83
476.92	10029.20
477.10	10544.11
477.28	12191.85
477.46	10221.12
477.64	11847.79
477.82	10649.44
478.00	10403.68
478.18	11052.01
478.36	10855.40
478.54	9741.31
478.72	10024.51
478.90	10834.34
479.08	11595.01
479.26	10942.00
479.44	10513.69
479.62	9612.58
479.80	10438.79
479.98	9554.07
480.16	10342.83
480.34	12954.87
480.52	10291.34
480.70	12388.46
480.88	10190.69
481.06	10094.73
481.24	10401.34
481.41	11126.91
481.59	12861.24
481.77	12035.03
481.95	11143.29
482.13	14937.30
482.31	11669.91
482.49	10406.02
482.67	12954.87
482.85	13600.85
483.03	12564.00
483.21	12219.94
483.39	11005.20
483.57	11749.49
483.74	14771.12
483.92	11541.18
484.10	10539.43
484.28	13891.08
484.46	17673.39
484.64	11197.12
484.82	12252.70
485.00	11236.91
485.18	12063.12
485.35	12105.25
485.53	9224.05
485.71	13575.11
485.89	8805.10
486.07	10527.73
486.25	16905.69
486.43	13153.81
486.61	13233.39
486.78	13217.01
486.96	10366.23
487.14	12138.02
487.32	11936.73
487.50	11702.68
487.68	14085.34
487.85	11585.65
488.03	13802.14
488.21	16149.70
488.39	12615.49
488.57	14005.77
488.75	11819.71
488.92	39049.50
489.10	13556.38
489.28	17743.60
489.46	12002.27
489.64	13476.80
489.81	13764.69
489.99	14972.41
490.17	12964.23
490.35	20247.97
490.53	13144.45
490.70	12044.40
490.88	15503.71
491.06	13109.34
491.24	14953.68
491.41	16872.92
491.59	14417.70
491.77	11765.87
491.95	12105.25
492.13	12556.97
492.30	14136.84
492.48	13392.55
492.66	13954.27
492.84	12961.89
493.01	14675.16
493.19	13139.77
493.37	17898.08
493.54	15555.20
493.72	15227.53
493.90	13741.29
494.08	13717.88
494.25	15728.40
494.43	15358.60
494.61	13996.40
494.79	13219.35
494.96	13294.24
495.14	15470.94
495.32	14232.80
495.49	15089.43
495.67	15234.55
495.85	14169.60
496.02	13570.43
496.20	16760.58
496.38	16098.20
496.55	14988.79
496.73	16264.38
496.91	14104.07
497.09	16905.69
497.26	14984.11
497.44	14890.49
497.62	14672.82
497.79	14794.53
497.97	15782.23
498.14	15903.94
498.32	15775.21
498.50	15800.96
498.67	14537.07
498.85	15920.32
499.03	14923.26
499.20	15690.95
499.38	15241.57
499.56	15082.41
499.73	19330.48
499.91	17163.15
500.08	16758.24
500.26	14757.08
500.44	14120.45
500.61	15922.66
500.79	14136.84
500.97	16056.08
501.14	18136.81
501.32	15564.56
501.49	17989.36
501.67	15028.58
501.84	16210.55
502.02	13818.52
502.20	19115.16
502.37	16369.71
502.55	14766.44
502.72	15229.87
502.90	17193.58
503.07	15934.37
503.25	15985.86
503.43	13540.00
503.60	14225.78
503.78	15735.42
503.95	15122.20
504.13	14501.96
504.30	16709.08
504.48	17797.43
504.65	18520.66
504.83	17383.16
505.01	15040.28
505.18	16140.33
505.36	15995.22
505.53	15644.14
505.71	15304.76
505.88	19073.03
506.06	15665.21
506.23	15545.84
506.41	15276.68
506.58	16706.74
506.76	16119.27
506.93	14977.09
507.11	16891.65
507.28	14176.62
507.46	14520.68
507.63	16163.74
507.81	14382.59
507.98	15906.28
508.16	15929.69
508.33	16603.76
508.50	17771.69
508.68	16332.26
508.85	16568.65
509.03	15487.32
509.20	15513.07
509.38	17294.22
509.55	18284.26
509.73	18483.21
509.90	19323.46
510.08	15208.80
510.25	17748.28
510.42	14913.89
510.60	16159.06
510.77	18192.98
510.95	18731.31
511.12	15955.43
511.30	18115.75
511.47	18838.97
511.64	20915.03
511.82	16262.04
511.99	16336.94
512.17	15899.26
512.34	15147.95
512.51	15510.73
512.69	15548.18
512.86	19164.31
513.04	15295.40
513.21	17128.04
513.38	15344.55
513.56	15592.65
513.73	15332.85
513.90	14808.57
514.08	14635.37
514.25	17006.33
514.43	17074.21
514.60	14710.27
514.77	15765.85
514.95	17179.53
515.12	15330.51
515.29	17624.23
515.47	17273.15
515.64	16833.13
515.81	16634.19
515.99	19557.52
516.16	17097.61
516.33	17673.39
516.51	13884.06
516.68	13287.22
516.85	14202.37
517.03	14682.18
517.20	17364.43
517.37	17163.15
517.54	17832.54
517.72	15435.83
517.89	13607.87
518.06	13783.41
518.24	20561.61
518.41	20271.38
518.58	17720.20
518.75	14958.36
518.93	16938.46
519.10	16709.08
519.27	15564.56
519.45	17275.49
519.62	17158.47
519.79	18022.12
519.96	15150.29
520.14	17142.08
520.31	19611.35
520.48	16470.35
520.65	17554.02
520.83	18490.23
521.00	18188.30
521.17	17830.20
521.34	16257.36
521.52	17638.28
521.69	17050.80
521.86	17366.78
522.03	18686.84
522.20	20823.75
522.38	16011.60
522.55	17483.80
522.72	14843.68
522.89	18703.22
523.07	21420.58
523.24	16996.97
523.41	16545.25
523.58	16638.87
523.75	17032.08
523.92	16299.49
524.10	18134.47
524.27	17479.12
524.44	16727.81
524.61	20297.13
524.78	15995.22
524.96	18712.58
525.13	17708.49
525.30	20271.38
525.47	19688.59
525.64	17624.23
525.81	17568.06
525.98	17231.02
526.16	15978.84
526.33	14939.64
526.50	14415.36
526.67	14469.19
526.84	14429.40
527.01	14984.11
527.18	17729.56
527.36	17118.68
527.53	16091.18
527.70	19864.13
527.87	17315.28
528.04	21245.04
528.21	16397.79
528.38	20152.01
528.55	20348.62
528.72	20695.02
528.89	23007.47
529.07	17710.83
529.24	17584.44
529.41	21352.71
529.58	17818.50
529.75	16652.91
529.92	19356.23
530.09	17544.66
530.26	19644.12
530.43	18850.67
530.60	18235.11
530.77	17888.71
530.94	19733.06
531.11	18923.23
531.28	17266.13
531.46	16816.75
531.63	18312.35
531.80	18410.65
531.97	18808.54
532.14	17200.60
532.31	17626.57
532.48	17830.20
532.65	18349.80
532.82	16297.15
532.99	17563.38
533.16	17710.83
533.33	17895.74
533.50	17731.90
533.67	16695.04
533.84	19501.34
534.01	18724.29
534.18	17996.38
534.35	18125.11
534.52	18686.84
534.69	22998.10
534.86	17319.96
535.03	17322.30
535.20	17364.43
535.37	20428.20
535.54	18754.71
535.71	17633.60
535.88	21460.37
536.05	17326.99
536.22	18838.97
536.38	17128.04
536.55	18019.78
536.72	19843.06
536.89	15878.19
537.06	16643.55
537.23	16449.28
537.40	16912.71
537.57	16868.24
537.74	19548.15
537.91	18848.33
538.08	17919.14
538.25	19278.99
538.42	16865.90
538.59	18003.40
538.75	17338.69
538.92	17958.93
539.09	19557.52
539.26	17062.51
539.43	22122.74
539.60	23438.12
539.77	27988.13
539.94	26941.91
540.11	23641.75
540.28	23115.13
540.44	21532.93
540.61	17193.58
540.78	16477.37
540.95	15604.35
541.12	21104.61
541.29	16514.82
541.46	20980.56
541.62	17998.72
541.79	16343.96
541.96	15988.20
542.13	16779.30
542.30	16044.37
542.47	19421.77
542.63	16943.14
542.80	18153.20
542.97	19927.32
543.14	16793.34
543.31	18534.70
543.48	17436.99
543.64	18333.42
543.81	17858.29
543.98	16601.42
544.15	15929.69
544.32	16886.97
544.48	17458.06
544.65	16641.21
544.82	16081.82
544.99	16781.64
545.16	20147.33
545.32	16493.76
545.49	18412.99
545.66	17315.28
545.83	16339.28
546.00	15318.81
546.16	16362.69
546.33	16685.68
546.50	17280.18
546.67	20304.15
546.83	19187.71
547.00	17671.04
547.17	15566.90
547.34	15896.92
547.50	17088.25
547.67	17041.44
547.84	15756.49
548.00	19002.81
548.17	16334.60
548.34	17060.16
548.51	20919.71
548.67	19903.92
548.84	16938.46
549.01	18148.51
549.18	18328.74
549.34	18291.29
549.51	17965.95
549.68	17912.12
549.84	17369.12
550.01	15578.61
550.18	27831.31
550.34	23754.10
550.51	17731.90
550.68	21855.92
550.84	16425.88
551.01	17348.05
551.18	18775.78
551.34	17348.05
551.51	17083.57
551.68	17102.29
551.84	19260.27
552.01	16035.01
552.18	16620.14
552.34	17514.23
552.51	17476.78
552.68	18567.47
552.84	16669.30
553.01	17968.29
553.18	19267.29
553.34	16477.37
553.51	15793.94
553.67	18752.37
553.84	22202.32
554.01	18981.74
554.17	18661.09
554.34	16166.08
554.51	18574.49
554.67	19763.48
554.84	19091.75
555.00	18073.62
555.17	17860.63
555.33	19267.29
555.50	17781.05
555.67	18171.92
555.83	15531.80
556.00	17198.26
556.16	34827.17
556.33	17565.72
556.50	16847.18
556.66	16978.25
556.83	15840.75
556.99	16173.10
557.16	17275.49
557.32	15690.95
557.49	16308.85
557.65	15822.02
557.82	15641.80
557.98	16882.28
558.15	15597.33
558.32	16336.94
558.48	15335.19
558.65	16063.10
558.81	17731.90
558.98	15482.64
559.14	18148.51
559.31	16879.94
559.47	17984.68
559.64	15346.89
559.80	18405.97
559.97	14857.72
560.13	16512.48
560.30	14869.42
560.46	16182.46
560.63	16526.52
560.79	16999.31
560.96	17102.29
561.12	15389.02
561.29	17373.80
561.45	15583.29
561.61	16496.10
561.78	25228.63
561.94	16236.30
562.11	15782.23
562.27	17111.66
562.44	14937.30
562.60	16149.70
562.77	16166.08
562.93	22970.02
563.10	16982.93
563.26	16613.12
563.42	18916.21
563.59	16762.92
563.75	15138.58
563.92	19426.45
564.08	17015.69
564.24	18410.65
564.41	21366.75
564.57	14434.08
564.74	15311.78
564.90	17135.06
565.07	18377.89
565.23	17944.89
565.39	15499.03
565.56	17146.76
565.72	14956.02
565.88	15484.98
566.05	15454.56
566.21	15679.25
566.38	17259.11
566.54	16776.96
566.70	15704.99
566.87	15604.35
567.03	13935.55
567.19	16166.08
567.36	17158.47
567.52	15356.25
567.68	17013.35
567.85	17114.00
568.01	14841.34
568.17	13652.34
568.34	15061.35
568.50	18501.93
568.66	13900.44
568.83	22815.54
568.99	14567.49
569.15	18981.74
569.32	15145.61
569.48	15215.82
569.64	14263.22
569.81	15358.60
569.97	14581.54
570.13	16903.35
570.30	14771.12
570.46	14647.07
570.62	15194.76
570.78	15037.94
570.95	13226.37
571.11	19108.13
571.27	19524.75
571.43	13736.60
571.60	17085.91
571.76	14836.66
571.92	15229.87
572.09	15035.60
572.25	15531.80
572.41	15679.25
572.57	15257.95
572.74	19971.79
572.90	17539.97
573.06	17579.76
573.22	16950.16
573.38	17834.88
573.55	17441.67
573.71	17659.34
573.87	17039.10
574.03	13975.34
574.20	15112.84
574.36	18260.86
574.52	15283.70
574.68	15428.81
574.84	16613.12
575.01	15047.30
575.17	16439.92
575.33	14459.83
575.49	17818.50
575.65	17687.43
575.82	18017.44
575.98	22778.09
576.14	18623.64
576.30	18572.15
576.46	17624.23
576.62	17121.02
576.79	17514.23
576.95	18963.02
577.11	14628.35
577.27	14090.02
577.43	18443.42
577.59	18808.54
577.75	16549.93
577.92	14867.08
578.08	14530.05
578.24	13923.85
578.40	18036.17
578.56	18281.92
578.72	18586.19
578.88	17275.49
579.04	14895.17
579.21	16292.47
579.37	15346.89
579.53	15218.16
579.69	17830.20
579.85	14064.28
580.01	17338.69
580.17	15234.55
580.33	15262.63
580.49	16709.08
580.65	17057.82
580.82	16116.93
580.98	14956.02
581.14	14881.13
581.30	18904.51
581.46	16912.71
581.62	20053.71
581.78	17137.40
581.94	19410.06
582.10	15538.82
582.26	16901.01
582.42	15962.45
582.58	17640.62
582.74	16102.89
582.90	17128.04
583.06	17933.18
583.22	15770.53
583.38	15871.17
583.54	16184.80
583.70	21219.30
583.86	18801.52
584.02	19075.37
584.18	24058.37
584.34	21823.16
584.50	39246.10
584.66	65535.00
584.82	65535.00
584.98	65535.00
585.14	65535.00
585.30	65535.00
585.46	65535.00
585.62	65535.00
585.78	61633.33
585.94	35676.79
586.10	24364.98
586.26	21275.47
586.42	22916.19
586.58	19524.75
586.74	17397.20
586.90	17551.68
587.06	18415.34
587.22	17383.16
587.38	15382.00
587.54	21219.30
587.70	41081.08
587.86	52507.58
