SpectraSuite Data File
++++++++++++++++++++++++++++++++++++
Date: Fri Oct 04 11:33:57 GMT-05:00 2013
User: price-jones
Dark Spectrum Present: No
Reference Spectrum Present: No
Number of Sampled Component Spectra: 1
Spectrometers: USB2+H05261
Integration Time (usec): 100000 (USB2+H05261)
Spectra Averaged: 1 (USB2+H05261)
Boxcar Smoothing: 0 (USB2+H05261)
Correct for Electrical Dark: No (USB2+H05261)
Strobe/Lamp Enabled: No (USB2+H05261)
Correct for Detector Non-linearity: No (USB2+H05261)
Correct for Stray Light: No (USB2+H05261)
Number of Pixels in Processed Spectrum: 2048
>>>>>Begin Processed Spectral Data<<<<<
365.73	140.43
365.92	140.43
366.12	140.43
366.32	0.00
366.52	0.00
366.72	0.00
366.91	0.00
367.11	0.00
367.31	0.00
367.51	0.00
367.70	0.00
367.90	0.00
368.10	0.00
368.30	0.00
368.49	0.00
368.69	25.75
368.89	25.75
369.09	0.00
369.28	0.00
369.48	0.00
369.68	0.00
369.87	11.70
370.07	100.64
370.27	46.81
370.47	37.45
370.66	63.19
370.86	28.09
371.06	102.98
371.25	95.96
371.45	18.72
371.65	88.94
371.84	105.32
372.04	46.81
372.24	170.86
372.44	72.56
372.63	135.75
372.83	145.11
373.03	102.98
373.22	133.41
373.42	133.41
373.62	166.18
373.81	121.71
374.01	147.45
374.21	140.43
374.40	77.24
374.60	198.95
374.79	128.73
374.99	121.71
375.19	110.01
375.38	187.24
375.58	102.98
375.78	177.88
375.97	224.69
376.17	121.71
376.37	168.52
376.56	191.92
376.76	177.88
376.95	163.84
377.15	161.50
377.35	182.56
377.54	184.90
377.74	117.03
377.93	168.52
378.13	168.52
378.33	119.37
378.52	112.35
378.72	161.50
378.91	187.24
379.11	140.43
379.31	112.35
379.50	131.07
379.70	149.79
379.89	105.32
380.09	128.73
380.28	133.41
380.48	161.50
380.68	119.37
380.87	102.98
381.07	196.60
381.26	110.01
381.46	110.01
381.65	163.84
381.85	180.22
382.04	154.48
382.24	159.16
382.43	114.69
382.63	77.24
382.83	124.05
383.02	121.71
383.22	159.16
383.41	74.90
383.61	166.18
383.80	159.16
384.00	147.45
384.19	166.18
384.39	161.50
384.58	159.16
384.78	168.52
384.97	203.63
385.17	140.43
385.36	128.73
385.56	154.48
385.75	154.48
385.95	63.19
386.14	152.13
386.34	163.84
386.53	154.48
386.72	182.56
386.92	149.79
387.11	168.52
387.31	182.56
387.50	131.07
387.70	154.48
387.89	102.98
388.09	159.16
388.28	39.79
388.48	168.52
388.67	149.79
388.86	105.32
389.06	91.28
389.25	110.01
389.45	142.77
389.64	100.64
389.84	194.26
390.03	177.88
390.22	180.22
390.42	191.92
390.61	128.73
390.81	175.54
391.00	198.95
391.19	180.22
391.39	191.92
391.58	222.35
391.78	170.86
391.97	105.32
392.16	128.73
392.36	161.50
392.55	224.69
392.75	149.79
392.94	102.98
393.13	117.03
393.33	133.41
393.52	194.26
393.71	180.22
393.91	145.11
394.10	147.45
394.29	236.39
394.49	159.16
394.68	140.43
394.88	208.31
395.07	140.43
395.26	131.07
395.46	236.39
395.65	184.90
395.84	149.79
396.04	149.79
396.23	166.18
396.42	91.28
396.62	49.15
396.81	154.48
397.00	152.13
397.19	170.86
397.39	84.26
397.58	220.01
397.77	161.50
397.97	145.11
398.16	95.96
398.35	149.79
398.55	166.18
398.74	140.43
398.93	133.41
399.12	121.71
399.32	112.35
399.51	133.41
399.70	220.01
399.90	198.95
400.09	121.71
400.28	161.50
400.47	159.16
400.67	154.48
400.86	100.64
401.05	180.22
401.24	152.13
401.44	168.52
401.63	210.65
401.82	182.56
402.01	173.20
402.21	177.88
402.40	147.45
402.59	142.77
402.78	128.73
402.97	184.90
403.17	91.28
403.36	154.48
403.55	138.09
403.74	154.48
403.93	220.01
404.13	287.89
404.32	271.50
404.51	287.89
404.70	217.67
404.89	208.31
405.09	224.69
405.28	156.82
405.47	124.05
405.66	166.18
405.85	173.20
406.05	180.22
406.24	224.69
406.43	126.39
406.62	184.90
406.81	259.80
407.00	180.22
407.20	156.82
407.39	121.71
407.58	135.75
407.77	159.16
407.96	140.43
408.15	231.71
408.34	201.29
408.54	168.52
408.73	149.79
408.92	124.05
409.11	191.92
409.30	191.92
409.49	138.09
409.68	175.54
409.87	182.56
410.07	72.56
410.26	110.01
410.45	191.92
410.64	159.16
410.83	243.42
411.02	126.39
411.21	156.82
411.40	262.14
411.59	131.07
411.78	168.52
411.98	180.22
412.17	170.86
412.36	140.43
412.55	119.37
412.74	131.07
412.93	182.56
413.12	189.58
413.31	110.01
413.50	210.65
413.69	124.05
413.88	135.75
414.07	119.37
414.26	126.39
414.45	149.79
414.64	205.97
414.83	161.50
415.02	210.65
415.22	234.05
415.41	100.64
415.60	124.05
415.79	203.63
415.98	166.18
416.17	156.82
416.36	117.03
416.55	166.18
416.74	224.69
416.93	126.39
417.12	173.20
417.31	168.52
417.50	152.13
417.69	264.48
417.88	203.63
418.07	241.08
418.26	163.84
418.45	196.60
418.64	229.37
418.83	238.73
419.02	243.42
419.21	156.82
419.39	222.35
419.58	229.37
419.77	255.12
419.96	210.65
420.15	269.16
420.34	198.95
420.53	163.84
420.72	205.97
420.91	212.99
421.10	184.90
421.29	184.90
421.48	210.65
421.67	135.75
421.86	145.11
422.05	98.30
422.24	124.05
422.43	184.90
422.61	222.35
422.80	154.48
422.99	161.50
423.18	156.82
423.37	170.86
423.56	182.56
423.75	222.35
423.94	112.35
424.13	126.39
424.32	175.54
424.50	163.84
424.69	140.43
424.88	198.95
425.07	98.30
425.26	196.60
425.45	198.95
425.64	194.26
425.83	184.90
426.01	227.03
426.20	173.20
426.39	210.65
426.58	149.79
426.77	194.26
426.96	205.97
427.15	177.88
427.33	79.58
427.52	198.95
427.71	177.88
427.90	212.99
428.09	140.43
428.28	191.92
428.46	156.82
428.65	180.22
428.84	236.39
429.03	168.52
429.22	177.88
429.40	126.39
429.59	184.90
429.78	180.22
429.97	145.11
430.16	170.86
430.34	133.41
430.53	215.33
430.72	133.41
430.91	163.84
431.10	170.86
431.28	100.64
431.47	210.65
431.66	257.46
431.85	163.84
432.03	149.79
432.22	173.20
432.41	184.90
432.60	203.63
432.79	142.77
432.97	327.68
433.16	290.23
433.35	332.36
433.54	243.42
433.72	243.42
433.91	234.05
434.10	175.54
434.28	212.99
434.47	187.24
434.66	208.31
434.85	184.90
435.03	212.99
435.22	379.17
435.41	409.59
435.59	454.06
435.78	390.87
435.97	212.99
436.16	287.89
436.34	196.60
436.53	180.22
436.72	121.71
436.90	248.10
437.09	159.16
437.28	224.69
437.46	170.86
437.65	250.44
437.84	187.24
438.02	161.50
438.21	184.90
438.40	201.29
438.58	196.60
438.77	231.71
438.96	194.26
439.14	161.50
439.33	168.52
439.52	149.79
439.70	201.29
439.89	245.76
440.08	182.56
440.26	117.03
440.45	238.73
440.63	236.39
440.82	182.56
441.01	203.63
441.19	194.26
441.38	121.71
441.57	135.75
441.75	159.16
441.94	231.71
442.12	194.26
442.31	149.79
442.50	224.69
442.68	212.99
442.87	187.24
443.05	170.86
443.24	161.50
443.43	177.88
443.61	243.42
443.80	191.92
443.98	163.84
444.17	194.26
444.35	201.29
444.54	107.66
444.73	212.99
444.91	210.65
445.10	156.82
445.28	222.35
445.47	189.58
445.65	198.95
445.84	222.35
446.02	194.26
446.21	203.63
446.39	161.50
446.58	138.09
446.77	196.60
446.95	215.33
447.14	114.69
447.32	215.33
447.51	201.29
447.69	224.69
447.88	168.52
448.06	191.92
448.25	203.63
448.43	203.63
448.62	217.67
448.80	98.30
448.99	189.58
449.17	149.79
449.36	217.67
449.54	184.90
449.73	173.20
449.91	259.80
450.10	175.54
450.28	208.31
450.46	266.82
450.65	234.05
450.83	191.92
451.02	201.29
451.20	243.42
451.39	234.05
451.57	280.86
451.76	278.52
451.94	245.76
452.13	187.24
452.31	273.84
452.49	184.90
452.68	238.73
452.86	184.90
453.05	205.97
453.23	203.63
453.42	194.26
453.60	112.35
453.78	138.09
453.97	159.16
454.15	177.88
454.34	163.84
454.52	159.16
454.70	301.93
454.89	198.95
455.07	231.71
455.26	215.33
455.44	184.90
455.62	152.13
455.81	201.29
455.99	205.97
456.17	191.92
456.36	154.48
456.54	152.13
456.73	170.86
456.91	145.11
457.09	133.41
457.28	177.88
457.46	152.13
457.64	224.69
457.83	159.16
458.01	238.73
458.19	201.29
458.38	161.50
458.56	177.88
458.74	177.88
458.93	184.90
459.11	203.63
459.29	196.60
459.48	227.03
459.66	297.25
459.84	264.48
460.03	262.14
460.21	262.14
460.39	131.07
460.57	177.88
460.76	189.58
460.94	238.73
461.12	259.80
461.31	215.33
461.49	177.88
461.67	180.22
461.85	166.18
462.04	168.52
462.22	645.99
462.40	187.24
462.59	177.88
462.77	236.39
462.95	222.35
463.13	273.84
463.32	168.52
463.50	283.20
463.68	217.67
463.86	191.92
464.05	205.97
464.23	212.99
464.41	252.78
464.59	152.13
464.78	168.52
464.96	170.86
465.14	215.33
465.32	252.78
465.50	198.95
465.69	234.05
465.87	245.76
466.05	198.95
466.23	201.29
466.41	203.63
466.60	215.33
466.78	224.69
466.96	236.39
467.14	208.31
467.32	212.99
467.51	208.31
467.69	170.86
467.87	255.12
468.05	189.58
468.23	210.65
468.41	262.14
468.60	229.37
468.78	229.37
468.96	203.63
469.14	203.63
469.32	105.32
469.50	161.50
469.69	142.77
469.87	234.05
470.05	191.92
470.23	170.86
470.41	128.73
470.59	203.63
470.77	210.65
470.95	175.54
471.14	187.24
471.32	231.71
471.50	229.37
471.68	208.31
471.86	168.52
472.04	238.73
472.22	245.76
472.40	201.29
472.58	198.95
472.77	201.29
472.95	203.63
473.13	252.78
473.31	248.10
473.49	107.66
473.67	201.29
473.85	229.37
474.03	133.41
474.21	234.05
474.39	177.88
474.57	236.39
474.75	241.08
474.93	173.20
475.12	238.73
475.30	205.97
475.48	124.05
475.66	210.65
475.84	252.78
476.02	189.58
476.20	259.80
476.38	255.12
476.56	273.84
476.74	194.26
476.92	194.26
477.10	203.63
477.28	187.24
477.46	187.24
477.64	231.71
477.82	205.97
478.00	159.16
478.18	234.05
478.36	208.31
478.54	184.90
478.72	208.31
478.90	238.73
479.08	170.86
479.26	175.54
479.44	173.20
479.62	152.13
479.80	255.12
479.98	196.60
480.16	154.48
480.34	236.39
480.52	234.05
480.70	264.48
480.88	138.09
481.06	205.97
481.24	194.26
481.41	182.56
481.59	208.31
481.77	234.05
481.95	189.58
482.13	250.44
482.31	243.42
482.49	189.58
482.67	220.01
482.85	182.56
483.03	264.48
483.21	273.84
483.39	208.31
483.57	252.78
483.74	198.95
483.92	297.25
484.10	248.10
484.28	292.57
484.46	287.89
484.64	257.46
484.82	224.69
485.00	280.86
485.18	227.03
485.35	229.37
485.53	182.56
485.71	280.86
485.89	217.67
486.07	236.39
486.25	285.55
486.43	220.01
486.61	194.26
486.78	290.23
486.96	248.10
487.14	234.05
487.32	276.18
487.50	203.63
487.68	234.05
487.85	280.86
488.03	285.55
488.21	294.91
488.39	220.01
488.57	325.33
488.75	269.16
488.92	557.05
489.10	313.63
489.28	294.91
489.46	257.46
489.64	201.29
489.81	210.65
489.99	189.58
490.17	227.03
490.35	280.86
490.53	287.89
490.70	283.20
490.88	301.93
491.06	269.16
491.24	212.99
491.41	332.36
491.59	271.50
491.77	278.52
491.95	222.35
492.13	222.35
492.30	245.76
492.48	299.59
492.66	297.25
492.84	241.08
493.01	255.12
493.19	241.08
493.37	236.39
493.54	243.42
493.72	280.86
493.90	266.82
494.08	264.48
494.25	294.91
494.43	285.55
494.61	276.18
494.79	262.14
494.96	201.29
495.14	287.89
495.32	220.01
495.49	252.78
495.67	339.38
495.85	266.82
496.02	236.39
496.20	266.82
496.38	283.20
496.55	271.50
496.73	304.27
496.91	278.52
497.09	248.10
497.26	273.84
497.44	269.16
497.62	238.73
497.79	308.95
497.97	212.99
498.14	250.44
498.32	210.65
498.50	266.82
498.67	257.46
498.85	278.52
499.03	278.52
499.20	264.48
499.38	358.10
499.56	217.67
499.73	311.29
499.91	273.84
500.08	220.01
500.26	187.24
500.44	191.92
500.61	278.52
500.79	189.58
500.97	231.71
501.14	217.67
501.32	227.03
501.49	283.20
501.67	269.16
501.84	212.99
502.02	177.88
502.20	194.26
502.37	262.14
502.55	341.72
502.72	238.73
502.90	297.25
503.07	271.50
503.25	341.72
503.43	292.57
503.60	290.23
503.78	241.08
503.95	266.82
504.13	208.31
504.30	320.65
504.48	372.15
504.65	283.20
504.83	194.26
505.01	238.73
505.18	308.95
505.36	276.18
505.53	170.86
505.71	180.22
505.88	276.18
506.06	257.46
506.23	205.97
506.41	248.10
506.58	327.68
506.76	241.08
506.93	208.31
507.11	351.08
507.28	250.44
507.46	252.78
507.63	308.95
507.81	255.12
507.98	210.65
508.16	205.97
508.33	201.29
508.50	266.82
508.68	292.57
508.85	285.55
509.03	257.46
509.20	283.20
509.38	311.29
509.55	301.93
509.73	280.86
509.90	311.29
510.08	273.84
510.25	241.08
510.42	236.39
510.60	205.97
510.77	290.23
510.95	383.85
511.12	339.38
511.30	259.80
511.47	332.36
511.64	337.04
511.82	297.25
511.99	313.63
512.17	189.58
512.34	243.42
512.51	271.50
512.69	264.48
512.86	236.39
513.04	255.12
513.21	294.91
513.38	290.23
513.56	231.71
513.73	241.08
513.90	187.24
514.08	196.60
514.25	252.78
514.43	273.84
514.60	255.12
514.77	250.44
514.95	205.97
515.12	250.44
515.29	252.78
515.47	273.84
515.64	311.29
515.81	278.52
515.99	264.48
516.16	285.55
516.33	334.70
516.51	227.03
516.68	241.08
516.85	257.46
517.03	245.76
517.20	276.18
517.37	248.10
517.54	259.80
517.72	215.33
517.89	156.82
518.06	159.16
518.24	276.18
518.41	320.65
518.58	339.38
518.75	304.27
518.93	238.73
519.10	266.82
519.27	264.48
519.45	294.91
519.62	280.86
519.79	262.14
519.96	212.99
520.14	301.93
520.31	287.89
520.48	311.29
520.65	297.25
520.83	292.57
521.00	231.71
521.17	337.04
521.34	320.65
521.52	234.05
521.69	217.67
521.86	266.82
522.03	250.44
522.20	355.76
522.38	283.20
522.55	250.44
522.72	297.25
522.89	344.06
523.07	320.65
523.24	299.59
523.41	255.12
523.58	290.23
523.75	250.44
523.92	262.14
524.10	276.18
524.27	306.61
524.44	266.82
524.61	311.29
524.78	248.10
524.96	283.20
525.13	266.82
525.30	294.91
525.47	273.84
525.64	266.82
525.81	287.89
525.98	231.71
526.16	156.82
526.33	224.69
526.50	276.18
526.67	217.67
526.84	227.03
527.01	215.33
527.18	304.27
527.36	255.12
527.53	294.91
527.70	243.42
527.87	241.08
528.04	287.89
528.21	285.55
528.38	294.91
528.55	320.65
528.72	290.23
528.89	355.76
529.07	262.14
529.24	327.68
529.41	299.59
529.58	238.73
529.75	257.46
529.92	330.02
530.09	220.01
530.26	320.65
530.43	224.69
530.60	203.63
530.77	250.44
530.94	243.42
531.11	332.36
531.28	264.48
531.46	245.76
531.63	327.68
531.80	337.04
531.97	287.89
532.14	308.95
532.31	269.16
532.48	320.65
532.65	348.74
532.82	428.32
532.99	362.78
533.16	266.82
533.33	304.27
533.50	379.17
533.67	339.38
533.84	416.62
534.01	458.74
534.18	360.44
534.35	332.36
534.52	255.12
534.69	351.08
534.86	304.27
535.03	238.73
535.20	320.65
535.37	315.97
535.54	301.93
535.71	301.93
535.88	315.97
536.05	287.89
536.22	304.27
536.38	341.72
536.55	287.89
536.72	259.80
536.89	287.89
537.06	337.04
537.23	337.04
537.40	283.20
537.57	308.95
537.74	381.51
537.91	278.52
538.08	327.68
538.25	362.78
538.42	372.15
538.59	358.10
538.75	339.38
538.92	322.99
539.09	315.97
539.26	346.40
539.43	718.54
539.60	1137.50
539.77	1572.84
539.94	1610.29
540.11	1067.28
540.28	807.48
540.44	662.37
540.61	538.32
540.78	440.02
540.95	414.27
541.12	578.11
541.29	517.26
541.46	650.67
541.62	512.58
541.79	608.54
541.96	465.77
542.13	559.39
542.30	538.32
542.47	524.28
542.63	503.22
542.80	528.96
542.97	521.94
543.14	535.98
543.31	482.15
543.48	500.87
543.64	456.40
543.81	468.11
543.98	456.40
544.15	463.43
544.32	458.74
544.48	428.32
544.65	552.37
544.82	440.02
544.99	496.19
545.16	433.00
545.32	545.34
545.49	753.65
545.66	952.60
545.83	954.94
546.00	870.68
546.16	667.05
546.33	578.11
546.50	533.64
546.67	505.56
546.83	552.37
547.00	386.19
547.17	421.30
547.34	388.53
547.50	346.40
547.67	367.46
547.84	379.17
548.00	404.91
548.17	454.06
548.34	456.40
548.51	442.36
548.67	404.91
548.84	414.27
549.01	456.40
549.18	351.08
549.34	374.49
549.51	337.04
549.68	395.55
549.84	334.70
550.01	355.76
550.18	449.38
550.34	444.70
550.51	358.10
550.68	334.70
550.84	369.80
551.01	327.68
551.18	315.97
551.34	337.04
551.51	306.61
551.68	313.63
551.84	421.30
552.01	252.78
552.18	353.42
552.34	234.05
552.51	283.20
552.68	386.19
552.84	301.93
553.01	299.59
553.18	299.59
553.34	234.05
553.51	311.29
553.67	278.52
553.84	325.33
554.01	320.65
554.17	330.02
554.34	220.01
554.51	241.08
554.67	348.74
554.84	308.95
555.00	348.74
555.17	259.80
555.33	355.76
555.50	318.31
555.67	252.78
555.83	245.76
556.00	372.15
556.16	440.02
556.33	229.37
556.50	334.70
556.66	299.59
556.83	278.52
556.99	229.37
557.16	269.16
557.32	292.57
557.49	241.08
557.65	353.42
557.82	234.05
557.98	271.50
558.15	250.44
558.32	280.86
558.48	245.76
558.65	255.12
558.81	299.59
558.98	283.20
559.14	276.18
559.31	259.80
559.47	285.55
559.64	283.20
559.80	327.68
559.97	257.46
560.13	212.99
560.30	194.26
560.46	280.86
560.63	297.25
560.79	257.46
560.96	236.39
561.12	257.46
561.29	334.70
561.45	311.29
561.61	262.14
561.78	283.20
561.94	259.80
562.11	278.52
562.27	257.46
562.44	287.89
562.60	262.14
562.77	238.73
562.93	416.62
563.10	322.99
563.26	271.50
563.42	273.84
563.59	390.87
563.75	231.71
563.92	287.89
564.08	257.46
564.24	294.91
564.41	257.46
564.57	332.36
564.74	266.82
564.90	308.95
565.07	318.31
565.23	358.10
565.39	255.12
565.56	290.23
565.72	334.70
565.88	205.97
566.05	271.50
566.21	271.50
566.38	346.40
566.54	266.82
566.70	238.73
566.87	250.44
567.03	280.86
567.19	208.31
567.36	292.57
567.52	297.25
567.68	278.52
567.85	322.99
568.01	236.39
568.17	257.46
568.34	266.82
568.50	245.76
568.66	243.42
568.83	306.61
568.99	259.80
569.15	287.89
569.32	320.65
569.48	273.84
569.64	217.67
569.81	248.10
569.97	182.56
570.13	257.46
570.30	236.39
570.46	215.33
570.62	238.73
570.78	280.86
570.95	276.18
571.11	245.76
571.27	250.44
571.43	255.12
571.60	290.23
571.76	318.31
571.92	292.57
572.09	273.84
572.25	205.97
572.41	283.20
572.57	294.91
572.74	306.61
572.90	248.10
573.06	231.71
573.22	297.25
573.38	346.40
573.55	269.16
573.71	320.65
573.87	297.25
574.03	198.95
574.20	262.14
574.36	339.38
574.52	346.40
574.68	409.59
574.84	334.70
575.01	266.82
575.17	351.08
575.33	243.42
575.49	306.61
575.65	311.29
575.82	374.49
575.98	596.84
576.14	723.23
576.30	767.70
576.46	615.56
576.62	620.24
576.79	496.19
576.95	451.72
577.11	468.11
577.27	374.49
577.43	341.72
577.59	365.12
577.75	308.95
577.92	299.59
578.08	278.52
578.24	311.29
578.40	334.70
578.56	358.10
578.72	493.85
578.88	456.40
579.04	430.66
579.21	386.19
579.37	341.72
579.53	313.63
579.69	287.89
579.85	409.59
580.01	400.23
580.17	418.96
580.33	493.85
580.49	402.57
580.65	402.57
580.82	388.53
580.98	367.46
581.14	374.49
581.30	418.96
581.46	472.79
581.62	585.13
581.78	620.24
581.94	748.97
582.10	510.24
582.26	550.03
582.42	505.56
582.58	491.51
582.74	559.39
582.90	491.51
583.06	526.62
583.22	510.24
583.38	531.30
583.54	564.07
583.70	760.67
583.86	699.82
584.02	814.51
584.18	957.28
584.34	1219.42
584.50	3133.98
584.66	23070.66
584.82	54838.75
584.98	63281.06
585.14	60622.22
585.30	45240.21
585.46	27173.62
585.62	16725.47
585.78	7810.37
585.94	3229.94
586.10	1610.29
586.26	1086.01
586.42	840.25
586.58	786.42
586.74	755.99
586.90	760.67
587.06	732.59
587.22	704.50
587.38	629.60
587.54	1221.76
587.70	3316.54
587.86	5322.38
588.02	5879.43
588.18	4280.84
588.34	2759.49
588.49	1898.17
588.65	1196.01
588.81	578.11
588.97	482.15
589.13	365.12
589.29	376.83
589.45	397.89
589.61	362.78
589.77	500.87
589.93	444.70
590.08	491.51
590.24	528.96
590.40	454.06
590.56	470.45
590.72	468.11
590.88	409.59
591.04	418.96
591.20	369.80
591.35	372.15
591.51	372.15
591.67	374.49
591.83	369.80
591.99	292.57
592.15	388.53
592.31	381.51
592.46	393.21
592.62	418.96
592.78	425.98
592.94	381.51
593.10	383.85
593.26	428.32
593.41	428.32
593.57	461.09
593.73	683.44
593.89	2822.69
594.05	6963.09
594.20	10076.01
594.36	9654.71
594.52	6249.23
594.68	4084.23
594.84	2733.75
594.99	1633.69
595.15	828.55
595.31	512.58
595.47	374.49
595.62	409.59
595.78	411.93
595.94	407.25
596.10	306.61
596.25	376.83
596.41	463.43
596.57	332.36
596.73	308.95
596.88	580.45
597.04	1385.60
597.20	2244.57
597.36	2597.99
597.51	2026.90
597.67	1217.08
597.83	1001.75
597.99	753.65
598.14	463.43
598.30	440.02
598.46	348.74
598.61	442.36
598.77	430.66
598.93	337.04
599.09	322.99
599.24	313.63
599.40	339.38
599.56	283.20
599.71	273.84
599.87	276.18
600.03	294.91
600.18	266.82
600.34	290.23
600.50	245.76
600.65	334.70
600.81	304.27
600.97	271.50
601.12	325.33
601.28	280.86
601.44	245.76
601.59	285.55
601.75	337.04
601.91	294.91
602.06	341.72
602.22	447.04
602.37	711.52
602.53	1680.50
602.69	2551.18
602.84	2588.63
603.00	1961.37
603.16	1366.87
603.31	1027.50
603.47	730.25
603.62	428.32
603.78	374.49
603.94	339.38
604.09	337.04
604.25	341.72
604.40	353.42
604.56	318.31
604.71	311.29
604.87	234.05
605.03	308.95
605.18	341.72
605.34	308.95
605.49	278.52
605.65	404.91
605.80	327.68
605.96	369.80
606.12	358.10
606.27	444.70
606.43	353.42
606.58	358.10
606.74	931.53
606.89	3447.61
607.05	6523.07
607.20	8704.45
607.36	7204.17
607.51	4891.72
607.67	3251.00
607.82	2134.57
607.98	1268.57
608.13	791.10
608.29	514.92
608.44	517.26
608.60	456.40
608.75	503.22
608.91	1252.19
609.06	5416.00
609.22	11480.33
609.37	14998.15
609.53	13064.87
609.68	8812.12
609.84	5769.42
609.99	3934.44
