SpectraSuite Data File
++++++++++++++++++++++++++++++++++++
Date: Fri Oct 04 11:33:53 GMT-05:00 2013
User: price-jones
Dark Spectrum Present: No
Reference Spectrum Present: No
Number of Sampled Component Spectra: 1
Spectrometers: USB2+H05261
Integration Time (usec): 100000 (USB2+H05261)
Spectra Averaged: 1 (USB2+H05261)
Boxcar Smoothing: 0 (USB2+H05261)
Correct for Electrical Dark: No (USB2+H05261)
Strobe/Lamp Enabled: No (USB2+H05261)
Correct for Detector Non-linearity: No (USB2+H05261)
Correct for Stray Light: No (USB2+H05261)
Number of Pixels in Processed Spectrum: 2048
>>>>>Begin Processed Spectral Data<<<<<
365.73	105.32
365.92	105.32
366.12	105.32
366.32	0.00
366.52	0.00
366.72	0.00
366.91	0.00
367.11	0.00
367.31	0.00
367.51	0.00
367.70	0.00
367.90	0.00
368.10	0.00
368.30	0.00
368.49	0.00
368.69	23.41
368.89	0.00
369.09	0.00
369.28	0.00
369.48	0.00
369.68	0.00
369.87	0.00
370.07	49.15
370.27	72.56
370.47	11.70
370.66	114.69
370.86	77.24
371.06	79.58
371.25	159.16
371.45	117.03
371.65	168.52
371.84	131.07
372.04	70.22
372.24	93.62
372.44	135.75
372.63	182.56
372.83	133.41
373.03	102.98
373.22	107.66
373.42	135.75
373.62	126.39
373.81	131.07
374.01	173.20
374.21	170.86
374.40	133.41
374.60	194.26
374.79	117.03
374.99	126.39
375.19	156.82
375.38	166.18
375.58	67.88
375.78	121.71
375.97	110.01
376.17	149.79
376.37	107.66
376.56	196.60
376.76	121.71
376.95	128.73
377.15	117.03
377.35	243.42
377.54	168.52
377.74	135.75
377.93	72.56
378.13	189.58
378.33	117.03
378.52	112.35
378.72	145.11
378.91	212.99
379.11	131.07
379.31	65.54
379.50	81.92
379.70	166.18
379.89	173.20
380.09	154.48
380.28	140.43
380.48	135.75
380.68	107.66
380.87	147.45
381.07	145.11
381.26	140.43
381.46	175.54
381.65	107.66
381.85	95.96
382.04	121.71
382.24	170.86
382.43	163.84
382.63	163.84
382.83	98.30
383.02	166.18
383.22	210.65
383.41	166.18
383.61	156.82
383.80	105.32
384.00	147.45
384.19	102.98
384.39	168.52
384.58	142.77
384.78	156.82
384.97	88.94
385.17	95.96
385.36	159.16
385.56	154.48
385.75	93.62
385.95	236.39
386.14	86.60
386.34	105.32
386.53	133.41
386.72	140.43
386.92	88.94
387.11	177.88
387.31	184.90
387.50	173.20
387.70	126.39
387.89	95.96
388.09	74.90
388.28	91.28
388.48	105.32
388.67	159.16
388.86	161.50
389.06	156.82
389.25	138.09
389.45	128.73
389.64	133.41
389.84	170.86
390.03	128.73
390.22	140.43
390.42	163.84
390.61	128.73
390.81	95.96
391.00	135.75
391.19	124.05
391.39	98.30
391.58	175.54
391.78	201.29
391.97	107.66
392.16	140.43
392.36	142.77
392.55	238.73
392.75	110.01
392.94	131.07
393.13	98.30
393.33	121.71
393.52	140.43
393.71	140.43
393.91	135.75
394.10	152.13
394.29	194.26
394.49	191.92
394.68	236.39
394.88	205.97
395.07	180.22
395.26	201.29
395.46	168.52
395.65	166.18
395.84	77.24
396.04	198.95
396.23	173.20
396.42	112.35
396.62	119.37
396.81	142.77
397.00	147.45
397.19	86.60
397.39	102.98
397.58	163.84
397.77	140.43
397.97	154.48
398.16	145.11
398.35	208.31
398.55	149.79
398.74	217.67
398.93	212.99
399.12	124.05
399.32	156.82
399.51	229.37
399.70	203.63
399.90	147.45
400.09	128.73
400.28	217.67
400.47	112.35
400.67	107.66
400.86	177.88
401.05	184.90
401.24	194.26
401.44	121.71
401.63	189.58
401.82	212.99
402.01	152.13
402.21	163.84
402.40	147.45
402.59	222.35
402.78	84.26
402.97	149.79
403.17	114.69
403.36	173.20
403.55	121.71
403.74	205.97
403.93	227.03
404.13	210.65
404.32	208.31
404.51	149.79
404.70	187.24
404.89	138.09
405.09	217.67
405.28	208.31
405.47	124.05
405.66	161.50
405.85	262.14
406.05	110.01
406.24	152.13
406.43	124.05
406.62	201.29
406.81	241.08
407.00	220.01
407.20	131.07
407.39	163.84
407.58	105.32
407.77	140.43
407.96	140.43
408.15	248.10
408.34	159.16
408.54	184.90
408.73	102.98
408.92	243.42
409.11	191.92
409.30	238.73
409.49	194.26
409.68	105.32
409.87	182.56
410.07	107.66
410.26	140.43
410.45	51.49
410.64	182.56
410.83	124.05
411.02	107.66
411.21	196.60
411.40	175.54
411.59	177.88
411.78	86.60
411.98	95.96
412.17	112.35
412.36	112.35
412.55	128.73
412.74	184.90
412.93	187.24
413.12	159.16
413.31	142.77
413.50	102.98
413.69	114.69
413.88	149.79
414.07	191.92
414.26	208.31
414.45	177.88
414.64	180.22
414.83	107.66
415.02	222.35
415.22	159.16
415.41	173.20
415.60	201.29
415.79	147.45
415.98	203.63
416.17	238.73
416.36	170.86
416.55	182.56
416.74	187.24
416.93	236.39
417.12	161.50
417.31	159.16
417.50	65.54
417.69	184.90
417.88	262.14
418.07	189.58
418.26	117.03
418.45	175.54
418.64	283.20
418.83	245.76
419.02	147.45
419.21	262.14
419.39	262.14
419.58	161.50
419.77	236.39
419.96	224.69
420.15	259.80
420.34	191.92
420.53	224.69
420.72	133.41
420.91	154.48
421.10	131.07
421.29	243.42
421.48	184.90
421.67	203.63
421.86	222.35
422.05	163.84
422.24	168.52
422.43	180.22
422.61	56.17
422.80	212.99
422.99	147.45
423.18	168.52
423.37	196.60
423.56	135.75
423.75	154.48
423.94	119.37
424.13	114.69
424.32	173.20
424.50	285.55
424.69	121.71
424.88	184.90
425.07	159.16
425.26	212.99
425.45	234.05
425.64	241.08
425.83	220.01
426.01	205.97
426.20	163.84
426.39	187.24
426.58	194.26
426.77	245.76
426.96	154.48
427.15	138.09
427.33	114.69
427.52	166.18
427.71	187.24
427.90	152.13
428.09	147.45
428.28	133.41
428.46	112.35
428.65	145.11
428.84	210.65
429.03	135.75
429.22	194.26
429.40	124.05
429.59	222.35
429.78	236.39
429.97	166.18
430.16	133.41
430.34	156.82
430.53	138.09
430.72	229.37
430.91	121.71
431.10	184.90
431.28	180.22
431.47	236.39
431.66	156.82
431.85	168.52
432.03	205.97
432.22	131.07
432.41	196.60
432.60	262.14
432.79	294.91
432.97	304.27
433.16	344.06
433.35	222.35
433.54	145.11
433.72	142.77
433.91	238.73
434.10	217.67
434.28	252.78
434.47	180.22
434.66	128.73
434.85	175.54
435.03	210.65
435.22	299.59
435.41	458.74
435.59	444.70
435.78	285.55
435.97	248.10
436.16	224.69
436.34	210.65
436.53	159.16
436.72	184.90
436.90	198.95
437.09	222.35
437.28	189.58
437.46	154.48
437.65	224.69
437.84	210.65
438.02	203.63
438.21	208.31
438.40	205.97
438.58	177.88
438.77	154.48
438.96	229.37
439.14	107.66
439.33	224.69
439.52	210.65
439.70	112.35
439.89	217.67
440.08	220.01
440.26	283.20
440.45	175.54
440.63	152.13
440.82	182.56
441.01	170.86
441.19	194.26
441.38	102.98
441.57	156.82
441.75	231.71
441.94	191.92
442.12	163.84
442.31	142.77
442.50	170.86
442.68	177.88
442.87	166.18
443.05	201.29
443.24	194.26
443.43	283.20
443.61	278.52
443.80	187.24
443.98	201.29
444.17	243.42
444.35	189.58
444.54	208.31
444.73	217.67
444.91	161.50
445.10	121.71
445.28	135.75
445.47	187.24
445.65	198.95
445.84	168.52
446.02	168.52
446.21	180.22
446.39	173.20
446.58	241.08
446.77	159.16
446.95	212.99
447.14	287.89
447.32	231.71
447.51	212.99
447.69	189.58
447.88	124.05
448.06	205.97
448.25	175.54
448.43	124.05
448.62	142.77
448.80	224.69
448.99	196.60
449.17	262.14
449.36	175.54
449.54	198.95
449.73	191.92
449.91	173.20
450.10	168.52
450.28	278.52
450.46	163.84
450.65	236.39
450.83	191.92
451.02	173.20
451.20	196.60
451.39	205.97
451.57	184.90
451.76	156.82
451.94	140.43
452.13	264.48
452.31	205.97
452.49	135.75
452.68	140.43
452.86	187.24
453.05	234.05
453.23	208.31
453.42	147.45
453.60	227.03
453.78	236.39
453.97	135.75
454.15	170.86
454.34	98.30
454.52	266.82
454.70	252.78
454.89	191.92
455.07	156.82
455.26	177.88
455.44	156.82
455.62	147.45
455.81	173.20
455.99	198.95
456.17	234.05
456.36	187.24
456.54	196.60
456.73	163.84
456.91	205.97
457.09	222.35
457.28	212.99
457.46	234.05
457.64	229.37
457.83	173.20
458.01	243.42
458.19	177.88
458.38	208.31
458.56	294.91
458.74	133.41
458.93	262.14
459.11	203.63
459.29	191.92
459.48	166.18
459.66	315.97
459.84	142.77
460.03	278.52
460.21	227.03
460.39	278.52
460.57	215.33
460.76	135.75
460.94	201.29
461.12	189.58
461.31	191.92
461.49	191.92
461.67	201.29
461.85	126.39
462.04	224.69
462.22	716.20
462.40	201.29
462.59	306.61
462.77	161.50
462.95	224.69
463.13	163.84
463.32	205.97
463.50	292.57
463.68	212.99
463.86	208.31
464.05	224.69
464.23	159.16
464.41	201.29
464.59	152.13
464.78	231.71
464.96	142.77
465.14	168.52
465.32	276.18
465.50	271.50
465.69	138.09
465.87	117.03
466.05	194.26
466.23	264.48
466.41	224.69
466.60	208.31
466.78	159.16
466.96	241.08
467.14	203.63
467.32	290.23
467.51	227.03
467.69	140.43
467.87	184.90
468.05	177.88
468.23	194.26
468.41	229.37
468.60	245.76
468.78	187.24
468.96	184.90
469.14	276.18
469.32	100.64
469.50	182.56
469.69	191.92
469.87	154.48
470.05	133.41
470.23	189.58
470.41	163.84
470.59	210.65
470.77	203.63
470.95	208.31
471.14	208.31
471.32	182.56
471.50	266.82
471.68	250.44
471.86	217.67
472.04	215.33
472.22	217.67
472.40	168.52
472.58	236.39
472.77	175.54
472.95	184.90
473.13	229.37
473.31	196.60
473.49	180.22
473.67	145.11
473.85	156.82
474.03	177.88
474.21	203.63
474.39	180.22
474.57	149.79
474.75	196.60
474.93	234.05
475.12	248.10
475.30	170.86
475.48	168.52
475.66	177.88
475.84	163.84
476.02	196.60
476.20	196.60
476.38	177.88
476.56	269.16
476.74	189.58
476.92	229.37
477.10	142.77
477.28	177.88
477.46	128.73
477.64	201.29
477.82	248.10
478.00	121.71
478.18	180.22
478.36	259.80
478.54	208.31
478.72	198.95
478.90	161.50
479.08	191.92
479.26	252.78
479.44	168.52
479.62	166.18
479.80	198.95
479.98	161.50
480.16	203.63
480.34	238.73
480.52	210.65
480.70	173.20
480.88	224.69
481.06	257.46
481.24	166.18
481.41	238.73
481.59	177.88
481.77	227.03
481.95	184.90
482.13	222.35
482.31	262.14
482.49	135.75
482.67	224.69
482.85	173.20
483.03	283.20
483.21	142.77
483.39	191.92
483.57	177.88
483.74	236.39
483.92	212.99
484.10	234.05
484.28	248.10
484.46	259.80
484.64	196.60
484.82	191.92
485.00	196.60
485.18	149.79
485.35	180.22
485.53	201.29
485.71	229.37
485.89	236.39
486.07	238.73
486.25	294.91
486.43	273.84
486.61	252.78
486.78	241.08
486.96	212.99
487.14	243.42
487.32	264.48
487.50	243.42
487.68	287.89
487.85	248.10
488.03	227.03
488.21	306.61
488.39	315.97
488.57	269.16
488.75	236.39
488.92	528.96
489.10	318.31
489.28	280.86
489.46	257.46
489.64	201.29
489.81	154.48
489.99	278.52
490.17	215.33
490.35	292.57
490.53	236.39
490.70	257.46
490.88	283.20
491.06	191.92
491.24	266.82
491.41	299.59
491.59	238.73
491.77	257.46
491.95	276.18
492.13	236.39
492.30	250.44
492.48	217.67
492.66	212.99
492.84	217.67
493.01	236.39
493.19	201.29
493.37	262.14
493.54	299.59
493.72	191.92
493.90	227.03
494.08	173.20
494.25	238.73
494.43	273.84
494.61	229.37
494.79	243.42
494.96	203.63
495.14	271.50
495.32	269.16
495.49	308.95
495.67	276.18
495.85	280.86
496.02	234.05
496.20	203.63
496.38	292.57
496.55	168.52
496.73	276.18
496.91	301.93
497.09	301.93
497.26	156.82
497.44	283.20
497.62	231.71
497.79	290.23
497.97	205.97
498.14	203.63
498.32	297.25
498.50	234.05
498.67	187.24
498.85	234.05
499.03	308.95
499.20	159.16
499.38	189.58
499.56	229.37
499.73	238.73
499.91	276.18
500.08	315.97
500.26	259.80
500.44	238.73
500.61	269.16
500.79	227.03
500.97	276.18
501.14	248.10
501.32	320.65
501.49	266.82
501.67	269.16
501.84	229.37
502.02	245.76
502.20	273.84
502.37	325.33
502.55	236.39
502.72	334.70
502.90	262.14
503.07	208.31
503.25	278.52
503.43	203.63
503.60	276.18
503.78	255.12
503.95	294.91
504.13	273.84
504.30	306.61
504.48	304.27
504.65	313.63
504.83	210.65
505.01	262.14
505.18	346.40
505.36	313.63
505.53	348.74
505.71	222.35
505.88	234.05
506.06	245.76
506.23	236.39
506.41	271.50
506.58	266.82
506.76	220.01
506.93	266.82
507.11	215.33
507.28	215.33
507.46	191.92
507.63	297.25
507.81	301.93
507.98	304.27
508.16	220.01
508.33	201.29
508.50	320.65
508.68	248.10
508.85	283.20
509.03	297.25
509.20	269.16
509.38	278.52
509.55	294.91
509.73	344.06
509.90	334.70
510.08	166.18
510.25	285.55
510.42	229.37
510.60	222.35
510.77	217.67
510.95	255.12
511.12	273.84
511.30	332.36
511.47	273.84
511.64	334.70
511.82	248.10
511.99	304.27
512.17	243.42
512.34	269.16
512.51	358.10
512.69	163.84
512.86	273.84
513.04	262.14
513.21	201.29
513.38	283.20
513.56	222.35
513.73	201.29
513.90	191.92
514.08	304.27
514.25	283.20
514.43	308.95
514.60	236.39
514.77	196.60
514.95	278.52
515.12	201.29
515.29	224.69
515.47	332.36
515.64	262.14
515.81	245.76
515.99	229.37
516.16	257.46
516.33	306.61
516.51	224.69
516.68	234.05
516.85	182.56
517.03	248.10
517.20	294.91
517.37	330.02
517.54	283.20
517.72	273.84
517.89	159.16
518.06	264.48
518.24	252.78
518.41	334.70
518.58	255.12
518.75	290.23
518.93	262.14
519.10	308.95
519.27	252.78
519.45	264.48
519.62	229.37
519.79	299.59
519.96	222.35
520.14	273.84
520.31	304.27
520.48	241.08
520.65	266.82
520.83	259.80
521.00	231.71
521.17	259.80
521.34	287.89
521.52	255.12
521.69	266.82
521.86	337.04
522.03	210.65
522.20	313.63
522.38	262.14
522.55	252.78
522.72	264.48
522.89	266.82
523.07	262.14
523.24	318.31
523.41	278.52
523.58	205.97
523.75	194.26
523.92	259.80
524.10	278.52
524.27	220.01
524.44	358.10
524.61	276.18
524.78	266.82
524.96	266.82
525.13	241.08
525.30	252.78
525.47	351.08
525.64	308.95
525.81	238.73
525.98	241.08
526.16	269.16
526.33	273.84
526.50	311.29
526.67	322.99
526.84	220.01
527.01	196.60
527.18	294.91
527.36	212.99
527.53	271.50
527.70	322.99
527.87	360.44
528.04	330.02
528.21	262.14
528.38	266.82
528.55	344.06
528.72	210.65
528.89	358.10
529.07	252.78
529.24	355.76
529.41	290.23
529.58	304.27
529.75	238.73
529.92	320.65
530.09	198.95
530.26	255.12
530.43	245.76
530.60	283.20
530.77	301.93
530.94	238.73
531.11	271.50
531.28	292.57
531.46	177.88
531.63	259.80
531.80	280.86
531.97	257.46
532.14	332.36
532.31	257.46
532.48	334.70
532.65	421.30
532.82	447.04
532.99	355.76
533.16	322.99
533.33	294.91
533.50	365.12
533.67	327.68
533.84	428.32
534.01	451.72
534.18	421.30
534.35	330.02
534.52	320.65
534.69	386.19
534.86	257.46
535.03	297.25
535.20	367.46
535.37	222.35
535.54	325.33
535.71	287.89
535.88	304.27
536.05	292.57
536.22	311.29
536.38	313.63
536.55	308.95
536.72	353.42
536.89	287.89
537.06	327.68
537.23	320.65
537.40	262.14
537.57	278.52
537.74	334.70
537.91	369.80
538.08	358.10
538.25	395.55
538.42	327.68
538.59	257.46
538.75	332.36
538.92	285.55
539.09	416.62
539.26	365.12
539.43	613.22
539.60	1050.90
539.77	1596.25
539.94	1596.25
540.11	1172.61
540.28	863.66
540.44	629.60
540.61	505.56
540.78	418.96
540.95	421.30
541.12	493.85
541.29	428.32
541.46	479.81
541.62	456.40
541.79	526.62
541.96	461.09
542.13	545.34
542.30	430.66
542.47	428.32
542.63	440.02
542.80	500.87
542.97	463.43
543.14	428.32
543.31	486.83
543.48	435.34
543.64	498.53
543.81	458.74
543.98	440.02
544.15	383.85
544.32	489.17
544.48	407.25
544.65	383.85
544.82	475.13
544.99	393.21
545.16	454.06
545.32	500.87
545.49	688.12
545.66	702.16
545.83	915.15
546.00	779.40
546.16	653.01
546.33	491.51
546.50	451.72
546.67	362.78
546.83	557.05
547.00	355.76
547.17	327.68
547.34	351.08
547.50	414.27
547.67	353.42
547.84	330.02
548.00	353.42
548.17	348.74
548.34	365.12
548.51	390.87
548.67	435.34
548.84	362.78
549.01	374.49
549.18	362.78
549.34	290.23
549.51	360.44
549.68	379.17
549.84	294.91
550.01	322.99
550.18	404.91
550.34	409.59
550.51	297.25
550.68	414.27
550.84	315.97
551.01	337.04
551.18	327.68
551.34	362.78
551.51	271.50
551.68	362.78
551.84	325.33
552.01	339.38
552.18	315.97
552.34	304.27
552.51	320.65
552.68	304.27
552.84	327.68
553.01	313.63
553.18	337.04
553.34	229.37
553.51	273.84
553.67	322.99
553.84	290.23
554.01	220.01
554.17	360.44
554.34	322.99
554.51	262.14
554.67	278.52
554.84	339.38
555.00	292.57
555.17	245.76
555.33	308.95
555.50	301.93
555.67	290.23
555.83	255.12
556.00	306.61
556.16	440.02
556.33	304.27
556.50	276.18
556.66	337.04
556.83	175.54
556.99	322.99
557.16	294.91
557.32	269.16
557.49	280.86
557.65	262.14
557.82	236.39
557.98	290.23
558.15	273.84
558.32	248.10
558.48	269.16
558.65	297.25
558.81	231.71
558.98	259.80
559.14	243.42
559.31	182.56
559.47	372.15
559.64	273.84
559.80	259.80
559.97	264.48
560.13	294.91
560.30	280.86
560.46	238.73
560.63	234.05
560.79	210.65
560.96	358.10
561.12	271.50
561.29	236.39
561.45	210.65
561.61	306.61
561.78	351.08
561.94	320.65
562.11	290.23
562.27	280.86
562.44	217.67
562.60	273.84
562.77	241.08
562.93	397.89
563.10	248.10
563.26	229.37
563.42	212.99
563.59	259.80
563.75	264.48
563.92	283.20
564.08	220.01
564.24	337.04
564.41	299.59
564.57	189.58
564.74	278.52
564.90	313.63
565.07	306.61
565.23	362.78
565.39	353.42
565.56	353.42
565.72	259.80
565.88	346.40
566.05	332.36
566.21	283.20
566.38	322.99
566.54	290.23
566.70	156.82
566.87	198.95
567.03	259.80
567.19	222.35
567.36	353.42
567.52	290.23
567.68	266.82
567.85	285.55
568.01	276.18
568.17	304.27
568.34	266.82
568.50	269.16
568.66	318.31
568.83	308.95
568.99	299.59
569.15	344.06
569.32	273.84
569.48	229.37
569.64	191.92
569.81	264.48
569.97	170.86
570.13	241.08
570.30	257.46
570.46	250.44
570.62	222.35
570.78	229.37
570.95	229.37
571.11	205.97
571.27	294.91
571.43	273.84
571.60	332.36
571.76	283.20
571.92	351.08
572.09	306.61
572.25	241.08
572.41	229.37
572.57	278.52
572.74	318.31
572.90	285.55
573.06	294.91
573.22	210.65
573.38	355.76
573.55	339.38
573.71	292.57
573.87	215.33
574.03	271.50
574.20	264.48
574.36	311.29
574.52	313.63
574.68	360.44
574.84	304.27
575.01	358.10
575.17	299.59
575.33	311.29
575.49	287.89
575.65	271.50
575.82	416.62
575.98	601.52
576.14	765.36
576.30	781.74
576.46	683.44
576.62	578.11
576.79	610.88
576.95	355.76
577.11	346.40
577.27	322.99
577.43	411.93
577.59	383.85
577.75	339.38
577.92	313.63
578.08	355.76
578.24	299.59
578.40	418.96
578.56	353.42
578.72	372.15
578.88	404.91
579.04	425.98
579.21	337.04
579.37	358.10
579.53	330.02
579.69	407.25
579.85	278.52
580.01	337.04
580.17	383.85
580.33	411.93
580.49	479.81
580.65	411.93
580.82	348.74
580.98	306.61
581.14	388.53
581.30	362.78
581.46	475.13
581.62	585.13
581.78	734.93
581.94	629.60
582.10	610.88
582.26	477.47
582.42	444.70
582.58	533.64
582.74	505.56
582.90	496.19
583.06	498.53
583.22	538.32
583.38	496.19
583.54	514.92
583.70	660.03
583.86	798.12
584.02	844.93
584.18	1034.52
584.34	1238.14
584.50	2928.01
584.66	20975.88
584.82	54253.62
584.98	64392.82
585.14	62585.92
585.30	48364.83
585.46	29317.55
585.62	17762.33
585.78	8365.07
585.94	3155.04
586.10	1699.23
586.26	1086.01
586.42	861.32
586.58	770.04
586.74	664.71
586.90	617.90
587.06	716.20
587.22	608.54
587.38	568.75
587.54	1156.22
587.70	3318.88
587.86	5488.56
588.02	6429.45
588.18	4454.04
588.34	2820.35
588.49	1874.77
588.65	1282.61
588.81	667.05
588.97	500.87
589.13	430.66
589.29	435.34
589.45	411.93
589.61	409.59
589.77	461.09
589.93	500.87
590.08	505.56
590.24	491.51
590.40	475.13
590.56	435.34
590.72	400.23
590.88	386.19
591.04	390.87
591.20	376.83
591.35	472.79
591.51	472.79
591.67	325.33
591.83	327.68
591.99	388.53
592.15	374.49
592.31	407.25
592.46	397.89
592.62	440.02
592.78	332.36
592.94	325.33
593.10	374.49
593.26	358.10
593.41	313.63
593.57	433.00
593.73	624.92
593.89	2708.00
594.05	6780.53
594.20	10754.76
594.36	10267.93
594.52	6609.67
594.68	4166.15
594.84	2771.19
594.99	1563.48
595.15	814.51
595.31	477.47
595.47	365.12
595.62	320.65
595.78	301.93
595.94	360.44
596.10	433.00
596.25	374.49
596.41	402.57
596.57	327.68
596.73	400.23
596.88	592.16
597.04	1263.89
597.20	2333.51
597.36	2832.05
597.51	2106.48
597.67	1394.96
597.83	905.79
597.99	779.40
598.14	458.74
598.30	395.55
598.46	400.23
598.61	433.00
598.77	449.38
598.93	400.23
599.09	393.21
599.24	344.06
599.40	287.89
599.56	341.72
599.71	351.08
599.87	383.85
600.03	355.76
600.18	273.84
600.34	280.86
600.50	315.97
600.65	278.52
600.81	304.27
600.97	353.42
601.12	248.10
601.28	327.68
601.44	322.99
601.59	287.89
601.75	283.20
601.91	276.18
602.06	339.38
602.22	390.87
602.37	690.46
602.53	1715.61
602.69	2663.53
602.84	2796.94
603.00	2085.42
603.16	1411.34
603.31	1001.75
603.47	709.18
603.62	458.74
603.78	386.19
603.94	351.08
604.09	315.97
604.25	322.99
604.40	337.04
604.56	362.78
604.71	297.25
604.87	280.86
605.03	304.27
605.18	330.02
605.34	346.40
605.49	292.57
605.65	437.68
605.80	365.12
605.96	386.19
606.12	444.70
606.27	372.15
606.43	423.64
606.58	416.62
606.74	774.72
606.89	3087.17
607.05	6640.10
607.20	9144.47
607.36	7590.36
607.51	5165.56
607.67	3361.01
607.82	2373.30
607.98	1369.21
608.13	781.74
608.29	526.62
608.44	531.30
608.60	568.75
608.75	550.03
608.91	1158.57
609.06	4959.60
609.22	11070.73
609.37	15786.91
609.53	14134.50
609.68	9633.64
609.84	6134.54
609.99	4117.00
610.15	2370.96
