SpectraSuite Data File
++++++++++++++++++++++++++++++++++++
Date: Fri Oct 04 11:33:53 GMT-05:00 2013
User: price-jones
Dark Spectrum Present: No
Reference Spectrum Present: No
Number of Sampled Component Spectra: 1
Spectrometers: USB2+H05261
Integration Time (usec): 100000 (USB2+H05261)
Spectra Averaged: 1 (USB2+H05261)
Boxcar Smoothing: 0 (USB2+H05261)
Correct for Electrical Dark: No (USB2+H05261)
Strobe/Lamp Enabled: No (USB2+H05261)
Correct for Detector Non-linearity: No (USB2+H05261)
Correct for Stray Light: No (USB2+H05261)
Number of Pixels in Processed Spectrum: 2048
>>>>>Begin Processed Spectral Data<<<<<
365.73	65.54
365.92	65.54
366.12	65.54
366.32	37.45
366.52	46.81
366.72	46.81
366.91	0.00
367.11	0.00
367.31	0.00
367.51	18.72
367.70	0.00
367.90	0.00
368.10	0.00
368.30	0.00
368.49	0.00
368.69	9.36
368.89	0.00
369.09	0.00
369.28	32.77
369.48	51.49
369.68	0.00
369.87	65.54
370.07	39.79
370.27	77.24
370.47	0.00
370.66	56.17
370.86	72.56
371.06	114.69
371.25	175.54
371.45	65.54
371.65	161.50
371.84	98.30
372.04	119.37
372.24	117.03
372.44	135.75
372.63	128.73
372.83	168.52
373.03	131.07
373.22	117.03
373.42	154.48
373.62	131.07
373.81	166.18
374.01	166.18
374.21	182.56
374.40	138.09
374.60	182.56
374.79	168.52
374.99	100.64
375.19	100.64
375.38	152.13
375.58	145.11
375.78	110.01
375.97	119.37
376.17	138.09
376.37	93.62
376.56	121.71
376.76	170.86
376.95	140.43
377.15	180.22
377.35	168.52
377.54	102.98
377.74	173.20
377.93	67.88
378.13	114.69
378.33	161.50
378.52	133.41
378.72	145.11
378.91	175.54
379.11	145.11
379.31	133.41
379.50	91.28
379.70	203.63
379.89	166.18
380.09	149.79
380.28	81.92
380.48	72.56
380.68	119.37
380.87	142.77
381.07	98.30
381.26	154.48
381.46	128.73
381.65	131.07
381.85	168.52
382.04	154.48
382.24	154.48
382.43	131.07
382.63	135.75
382.83	124.05
383.02	147.45
383.22	149.79
383.41	126.39
383.61	117.03
383.80	128.73
384.00	126.39
384.19	32.77
384.39	163.84
384.58	161.50
384.78	91.28
384.97	42.13
385.17	205.97
385.36	126.39
385.56	166.18
385.75	67.88
385.95	124.05
386.14	117.03
386.34	147.45
386.53	184.90
386.72	135.75
386.92	191.92
387.11	194.26
387.31	117.03
387.50	84.26
387.70	100.64
387.89	198.95
388.09	191.92
388.28	128.73
388.48	98.30
388.67	149.79
388.86	142.77
389.06	173.20
389.25	121.71
389.45	159.16
389.64	173.20
389.84	227.03
390.03	163.84
390.22	121.71
390.42	149.79
390.61	152.13
390.81	184.90
391.00	173.20
391.19	126.39
391.39	140.43
391.58	147.45
391.78	117.03
391.97	79.58
392.16	170.86
392.36	133.41
392.55	112.35
392.75	175.54
392.94	121.71
393.13	154.48
393.33	119.37
393.52	135.75
393.71	173.20
393.91	175.54
394.10	166.18
394.29	114.69
394.49	161.50
394.68	236.39
394.88	194.26
395.07	168.52
395.26	100.64
395.46	168.52
395.65	117.03
395.84	140.43
396.04	177.88
396.23	121.71
396.42	173.20
396.62	222.35
396.81	145.11
397.00	131.07
397.19	88.94
397.39	102.98
397.58	224.69
397.77	119.37
397.97	84.26
398.16	142.77
398.35	173.20
398.55	102.98
398.74	121.71
398.93	154.48
399.12	138.09
399.32	234.05
399.51	194.26
399.70	248.10
399.90	100.64
400.09	70.22
400.28	133.41
400.47	173.20
400.67	241.08
400.86	191.92
401.05	152.13
401.24	74.90
401.44	154.48
401.63	175.54
401.82	142.77
402.01	105.32
402.21	182.56
402.40	131.07
402.59	173.20
402.78	105.32
402.97	187.24
403.17	201.29
403.36	194.26
403.55	112.35
403.74	180.22
403.93	175.54
404.13	266.82
404.32	175.54
404.51	241.08
404.70	126.39
404.89	105.32
405.09	145.11
405.28	217.67
405.47	166.18
405.66	205.97
405.85	105.32
406.05	236.39
406.24	187.24
406.43	166.18
406.62	180.22
406.81	217.67
407.00	177.88
407.20	107.66
407.39	182.56
407.58	212.99
407.77	163.84
407.96	112.35
408.15	220.01
408.34	142.77
408.54	149.79
408.73	168.52
408.92	124.05
409.11	149.79
409.30	278.52
409.49	182.56
409.68	154.48
409.87	175.54
410.07	126.39
410.26	182.56
410.45	196.60
410.64	100.64
410.83	53.83
411.02	147.45
411.21	175.54
411.40	231.71
411.59	154.48
411.78	107.66
411.98	166.18
412.17	112.35
412.36	147.45
412.55	156.82
412.74	159.16
412.93	166.18
413.12	191.92
413.31	255.12
413.50	79.58
413.69	154.48
413.88	175.54
414.07	187.24
414.26	149.79
414.45	166.18
414.64	248.10
414.83	166.18
415.02	173.20
415.22	243.42
415.41	191.92
415.60	168.52
415.79	112.35
415.98	236.39
416.17	285.55
416.36	138.09
416.55	154.48
416.74	212.99
416.93	182.56
417.12	203.63
417.31	156.82
417.50	205.97
417.69	231.71
417.88	154.48
418.07	201.29
418.26	168.52
418.45	175.54
418.64	252.78
418.83	245.76
419.02	248.10
419.21	224.69
419.39	229.37
419.58	217.67
419.77	212.99
419.96	255.12
420.15	257.46
420.34	168.52
420.53	194.26
420.72	198.95
420.91	140.43
421.10	161.50
421.29	184.90
421.48	142.77
421.67	215.33
421.86	180.22
422.05	173.20
422.24	196.60
422.43	138.09
422.61	161.50
422.80	182.56
422.99	173.20
423.18	205.97
423.37	184.90
423.56	189.58
423.75	95.96
423.94	110.01
424.13	149.79
424.32	93.62
424.50	117.03
424.69	208.31
424.88	238.73
425.07	154.48
425.26	147.45
425.45	259.80
425.64	250.44
425.83	231.71
426.01	255.12
426.20	196.60
426.39	126.39
426.58	147.45
426.77	161.50
426.96	166.18
427.15	152.13
427.33	217.67
427.52	212.99
427.71	208.31
427.90	166.18
428.09	168.52
428.28	138.09
428.46	114.69
428.65	131.07
428.84	245.76
429.03	175.54
429.22	149.79
429.40	198.95
429.59	196.60
429.78	180.22
429.97	227.03
430.16	152.13
430.34	159.16
430.53	149.79
430.72	163.84
430.91	163.84
431.10	166.18
431.28	182.56
431.47	161.50
431.66	168.52
431.85	95.96
432.03	182.56
432.22	224.69
432.41	203.63
432.60	212.99
432.79	236.39
432.97	238.73
433.16	341.72
433.35	280.86
433.54	238.73
433.72	175.54
433.91	187.24
434.10	170.86
434.28	283.20
434.47	227.03
434.66	322.99
434.85	152.13
435.03	156.82
435.22	344.06
435.41	395.55
435.59	414.27
435.78	315.97
435.97	166.18
436.16	224.69
436.34	255.12
436.53	182.56
436.72	203.63
436.90	159.16
437.09	224.69
437.28	159.16
437.46	110.01
437.65	166.18
437.84	177.88
438.02	170.86
438.21	168.52
438.40	124.05
438.58	112.35
438.77	205.97
438.96	201.29
439.14	177.88
439.33	159.16
439.52	168.52
439.70	156.82
439.89	112.35
440.08	234.05
440.26	100.64
440.45	145.11
440.63	175.54
440.82	191.92
441.01	156.82
441.19	220.01
441.38	145.11
441.57	231.71
441.75	212.99
441.94	180.22
442.12	201.29
442.31	264.48
442.50	220.01
442.68	135.75
442.87	177.88
443.05	198.95
443.24	140.43
443.43	220.01
443.61	194.26
443.80	180.22
443.98	154.48
444.17	222.35
444.35	170.86
444.54	147.45
444.73	201.29
444.91	161.50
445.10	170.86
445.28	229.37
445.47	135.75
445.65	201.29
445.84	149.79
446.02	220.01
446.21	180.22
446.39	212.99
446.58	168.52
446.77	154.48
446.95	215.33
447.14	168.52
447.32	131.07
447.51	105.32
447.69	238.73
447.88	208.31
448.06	236.39
448.25	117.03
448.43	236.39
448.62	163.84
448.80	205.97
448.99	220.01
449.17	114.69
449.36	147.45
449.54	220.01
449.73	180.22
449.91	243.42
450.10	187.24
450.28	276.18
450.46	201.29
450.65	238.73
450.83	229.37
451.02	161.50
451.20	217.67
451.39	117.03
451.57	161.50
451.76	196.60
451.94	131.07
452.13	238.73
452.31	166.18
452.49	215.33
452.68	177.88
452.86	212.99
453.05	152.13
453.23	205.97
453.42	212.99
453.60	147.45
453.78	201.29
453.97	205.97
454.15	175.54
454.34	163.84
454.52	170.86
454.70	234.05
454.89	154.48
455.07	196.60
455.26	212.99
455.44	187.24
455.62	175.54
455.81	243.42
455.99	187.24
456.17	161.50
456.36	210.65
456.54	229.37
456.73	196.60
456.91	156.82
457.09	163.84
457.28	147.45
457.46	248.10
457.64	140.43
457.83	177.88
458.01	217.67
458.19	184.90
458.38	154.48
458.56	182.56
458.74	131.07
458.93	203.63
459.11	201.29
459.29	227.03
459.48	255.12
459.66	170.86
459.84	229.37
460.03	283.20
460.21	217.67
460.39	166.18
460.57	217.67
460.76	166.18
460.94	215.33
461.12	248.10
461.31	241.08
461.49	205.97
461.67	210.65
461.85	229.37
462.04	198.95
462.22	704.50
462.40	257.46
462.59	161.50
462.77	208.31
462.95	203.63
463.13	220.01
463.32	215.33
463.50	234.05
463.68	152.13
463.86	187.24
464.05	166.18
464.23	252.78
464.41	170.86
464.59	203.63
464.78	93.62
464.96	161.50
465.14	133.41
465.32	180.22
465.50	196.60
465.69	283.20
465.87	154.48
466.05	180.22
466.23	159.16
466.41	241.08
466.60	198.95
466.78	241.08
466.96	227.03
467.14	159.16
467.32	217.67
467.51	245.76
467.69	217.67
467.87	229.37
468.05	194.26
468.23	231.71
468.41	229.37
468.60	248.10
468.78	166.18
468.96	203.63
469.14	163.84
469.32	182.56
469.50	215.33
469.69	208.31
469.87	271.50
470.05	259.80
470.23	173.20
470.41	175.54
470.59	189.58
470.77	196.60
470.95	145.11
471.14	187.24
471.32	198.95
471.50	203.63
471.68	201.29
471.86	245.76
472.04	114.69
472.22	159.16
472.40	217.67
472.58	175.54
472.77	177.88
472.95	238.73
473.13	231.71
473.31	250.44
473.49	220.01
473.67	229.37
473.85	241.08
474.03	229.37
474.21	191.92
474.39	180.22
474.57	311.29
474.75	119.37
474.93	175.54
475.12	210.65
475.30	198.95
475.48	222.35
475.66	175.54
475.84	187.24
476.02	72.56
476.20	184.90
476.38	180.22
476.56	297.25
476.74	161.50
476.92	166.18
477.10	166.18
477.28	175.54
477.46	191.92
477.64	238.73
477.82	198.95
478.00	152.13
478.18	166.18
478.36	198.95
478.54	259.80
478.72	229.37
478.90	149.79
479.08	198.95
479.26	248.10
479.44	170.86
479.62	252.78
479.80	177.88
479.98	191.92
480.16	166.18
480.34	210.65
480.52	210.65
480.70	222.35
480.88	203.63
481.06	220.01
481.24	201.29
481.41	191.92
481.59	250.44
481.77	210.65
481.95	180.22
482.13	292.57
482.31	264.48
482.49	156.82
482.67	203.63
482.85	276.18
483.03	234.05
483.21	229.37
483.39	198.95
483.57	180.22
483.74	285.55
483.92	191.92
484.10	180.22
484.28	205.97
484.46	280.86
484.64	259.80
484.82	208.31
485.00	234.05
485.18	236.39
485.35	292.57
485.53	224.69
485.71	290.23
485.89	173.20
486.07	245.76
486.25	231.71
486.43	224.69
486.61	273.84
486.78	224.69
486.96	257.46
487.14	191.92
487.32	238.73
487.50	271.50
487.68	278.52
487.85	243.42
488.03	294.91
488.21	248.10
488.39	227.03
488.57	203.63
488.75	243.42
488.92	533.64
489.10	212.99
489.28	234.05
489.46	250.44
489.64	283.20
489.81	276.18
489.99	234.05
490.17	278.52
490.35	358.10
490.53	290.23
490.70	224.69
490.88	308.95
491.06	227.03
491.24	255.12
491.41	276.18
491.59	259.80
491.77	248.10
491.95	217.67
492.13	194.26
492.30	243.42
492.48	255.12
492.66	306.61
492.84	252.78
493.01	308.95
493.19	262.14
493.37	217.67
493.54	278.52
493.72	248.10
493.90	175.54
494.08	191.92
494.25	255.12
494.43	248.10
494.61	217.67
494.79	198.95
494.96	280.86
495.14	229.37
495.32	203.63
495.49	250.44
495.67	194.26
495.85	220.01
496.02	243.42
496.20	259.80
496.38	273.84
496.55	297.25
496.73	266.82
496.91	231.71
497.09	318.31
497.26	278.52
497.44	224.69
497.62	227.03
497.79	243.42
497.97	259.80
498.14	217.67
498.32	299.59
498.50	292.57
498.67	229.37
498.85	224.69
499.03	257.46
499.20	245.76
499.38	241.08
499.56	287.89
499.73	320.65
499.91	241.08
500.08	229.37
500.26	285.55
500.44	241.08
500.61	330.02
500.79	264.48
500.97	259.80
501.14	273.84
501.32	201.29
501.49	283.20
501.67	210.65
501.84	266.82
502.02	266.82
502.20	271.50
502.37	252.78
502.55	177.88
502.72	208.31
502.90	294.91
503.07	313.63
503.25	299.59
503.43	306.61
503.60	241.08
503.78	205.97
503.95	224.69
504.13	229.37
504.30	243.42
504.48	222.35
504.65	259.80
504.83	250.44
505.01	271.50
505.18	198.95
505.36	252.78
505.53	241.08
505.71	276.18
505.88	322.99
506.06	245.76
506.23	217.67
506.41	156.82
506.58	241.08
506.76	243.42
506.93	234.05
507.11	266.82
507.28	325.33
507.46	210.65
507.63	308.95
507.81	231.71
507.98	285.55
508.16	269.16
508.33	273.84
508.50	184.90
508.68	187.24
508.85	248.10
509.03	224.69
509.20	252.78
509.38	182.56
509.55	283.20
509.73	292.57
509.90	313.63
510.08	222.35
510.25	241.08
510.42	315.97
510.60	234.05
510.77	227.03
510.95	238.73
511.12	318.31
511.30	306.61
511.47	294.91
511.64	346.40
511.82	250.44
511.99	259.80
512.17	217.67
512.34	245.76
512.51	236.39
512.69	269.16
512.86	255.12
513.04	166.18
513.21	222.35
513.38	250.44
513.56	262.14
513.73	255.12
513.90	222.35
514.08	278.52
514.25	290.23
514.43	271.50
514.60	266.82
514.77	229.37
514.95	259.80
515.12	222.35
515.29	308.95
515.47	348.74
515.64	224.69
515.81	318.31
515.99	292.57
516.16	290.23
516.33	241.08
516.51	184.90
516.68	220.01
516.85	194.26
517.03	238.73
517.20	238.73
517.37	241.08
517.54	365.12
517.72	308.95
517.89	222.35
518.06	273.84
518.24	315.97
518.41	308.95
518.58	264.48
518.75	259.80
518.93	299.59
519.10	332.36
519.27	234.05
519.45	308.95
519.62	299.59
519.79	306.61
519.96	280.86
520.14	278.52
520.31	273.84
520.48	311.29
520.65	245.76
520.83	313.63
521.00	283.20
521.17	337.04
521.34	243.42
521.52	259.80
521.69	255.12
521.86	248.10
522.03	215.33
522.20	327.68
522.38	299.59
522.55	257.46
522.72	266.82
522.89	222.35
523.07	320.65
523.24	257.46
523.41	280.86
523.58	271.50
523.75	304.27
523.92	292.57
524.10	259.80
524.27	266.82
524.44	252.78
524.61	189.58
524.78	285.55
524.96	285.55
525.13	322.99
525.30	271.50
525.47	287.89
525.64	304.27
525.81	220.01
525.98	248.10
526.16	306.61
526.33	217.67
526.50	203.63
526.67	285.55
526.84	332.36
527.01	243.42
527.18	351.08
527.36	269.16
527.53	229.37
527.70	332.36
527.87	301.93
528.04	437.68
528.21	304.27
528.38	334.70
528.55	238.73
528.72	290.23
528.89	210.65
529.07	229.37
529.24	308.95
529.41	325.33
529.58	266.82
529.75	271.50
529.92	238.73
530.09	315.97
530.26	299.59
530.43	348.74
530.60	294.91
530.77	283.20
530.94	365.12
531.11	276.18
531.28	257.46
531.46	229.37
531.63	262.14
531.80	257.46
531.97	339.38
532.14	334.70
532.31	264.48
532.48	290.23
532.65	369.80
532.82	463.43
532.99	421.30
533.16	372.15
533.33	313.63
533.50	297.25
533.67	330.02
533.84	428.32
534.01	379.17
534.18	400.23
534.35	306.61
534.52	367.46
534.69	315.97
534.86	255.12
535.03	276.18
535.20	315.97
535.37	306.61
535.54	224.69
535.71	234.05
535.88	360.44
536.05	318.31
536.22	266.82
536.38	285.55
536.55	243.42
536.72	325.33
536.89	262.14
537.06	337.04
537.23	308.95
537.40	374.49
537.57	271.50
537.74	369.80
537.91	341.72
538.08	271.50
538.25	299.59
538.42	299.59
538.59	332.36
538.75	362.78
538.92	283.20
539.09	318.31
539.26	299.59
539.43	418.96
539.60	903.45
539.77	1500.28
539.94	1664.12
540.11	1036.86
540.28	763.01
540.44	603.86
540.61	514.92
540.78	447.04
540.95	442.36
541.12	493.85
541.29	468.11
541.46	547.69
541.62	458.74
541.79	507.90
541.96	416.62
542.13	451.72
542.30	425.98
542.47	507.90
542.63	444.70
542.80	465.77
542.97	510.24
543.14	433.00
543.31	470.45
543.48	477.47
543.64	416.62
543.81	423.64
543.98	418.96
544.15	362.78
544.32	451.72
544.48	463.43
544.65	538.32
544.82	524.28
544.99	463.43
545.16	435.34
545.32	465.77
545.49	713.86
545.66	772.38
545.83	835.57
546.00	767.70
546.16	606.20
546.33	489.17
546.50	456.40
546.67	423.64
546.83	416.62
547.00	355.76
547.17	358.10
547.34	358.10
547.50	341.72
547.67	435.34
547.84	337.04
548.00	449.38
548.17	353.42
548.34	257.46
548.51	418.96
548.67	428.32
548.84	421.30
549.01	327.68
549.18	283.20
549.34	348.74
549.51	238.73
549.68	372.15
549.84	313.63
550.01	325.33
550.18	451.72
550.34	327.68
550.51	315.97
550.68	383.85
550.84	322.99
551.01	393.21
551.18	257.46
551.34	283.20
551.51	365.12
551.68	390.87
551.84	327.68
552.01	318.31
552.18	334.70
552.34	383.85
552.51	372.15
552.68	262.14
552.84	318.31
553.01	301.93
553.18	299.59
553.34	325.33
553.51	285.55
553.67	348.74
553.84	339.38
554.01	311.29
554.17	315.97
554.34	287.89
554.51	294.91
554.67	243.42
554.84	255.12
555.00	332.36
555.17	269.16
555.33	355.76
555.50	255.12
555.67	365.12
555.83	276.18
556.00	351.08
556.16	489.17
556.33	276.18
556.50	212.99
556.66	280.86
556.83	236.39
556.99	320.65
557.16	241.08
557.32	245.76
557.49	271.50
557.65	271.50
557.82	215.33
557.98	210.65
558.15	297.25
558.32	250.44
558.48	177.88
558.65	294.91
558.81	339.38
558.98	273.84
559.14	231.71
559.31	243.42
559.47	283.20
559.64	290.23
559.80	210.65
559.97	273.84
560.13	325.33
560.30	299.59
560.46	259.80
560.63	330.02
560.79	283.20
560.96	273.84
561.12	252.78
561.29	311.29
561.45	292.57
561.61	224.69
561.78	358.10
561.94	304.27
562.11	337.04
562.27	332.36
562.44	236.39
562.60	341.72
562.77	257.46
562.93	320.65
563.10	304.27
563.26	330.02
563.42	234.05
563.59	266.82
563.75	259.80
563.92	301.93
564.08	245.76
564.24	252.78
564.41	304.27
564.57	177.88
564.74	257.46
564.90	248.10
565.07	257.46
565.23	322.99
565.39	308.95
565.56	327.68
565.72	224.69
565.88	308.95
566.05	255.12
566.21	304.27
566.38	236.39
566.54	238.73
566.70	299.59
566.87	257.46
567.03	227.03
567.19	290.23
567.36	208.31
567.52	229.37
567.68	280.86
567.85	234.05
568.01	299.59
568.17	196.60
568.34	201.29
568.50	337.04
568.66	344.06
568.83	339.38
568.99	381.51
569.15	358.10
569.32	269.16
569.48	266.82
569.64	269.16
569.81	271.50
569.97	327.68
570.13	252.78
570.30	180.22
570.46	269.16
570.62	266.82
570.78	241.08
570.95	264.48
571.11	313.63
571.27	337.04
571.43	182.56
571.60	294.91
571.76	313.63
571.92	308.95
572.09	245.76
572.25	325.33
572.41	234.05
572.57	273.84
572.74	280.86
572.90	290.23
573.06	313.63
573.22	320.65
573.38	294.91
573.55	280.86
573.71	255.12
573.87	252.78
574.03	278.52
574.20	318.31
574.36	374.49
574.52	332.36
574.68	358.10
574.84	292.57
575.01	294.91
575.17	248.10
575.33	273.84
575.49	311.29
575.65	285.55
575.82	315.97
575.98	531.30
576.14	578.11
576.30	779.40
576.46	608.54
576.62	472.79
576.79	449.38
576.95	500.87
577.11	369.80
577.27	367.46
577.43	334.70
577.59	287.89
577.75	266.82
577.92	287.89
578.08	308.95
578.24	271.50
578.40	379.17
578.56	414.27
578.72	404.91
578.88	411.93
579.04	341.72
579.21	334.70
579.37	318.31
579.53	330.02
579.69	409.59
579.85	407.25
580.01	414.27
580.17	484.49
580.33	355.76
580.49	376.83
580.65	388.53
580.82	351.08
580.98	337.04
581.14	360.44
581.30	339.38
581.46	388.53
581.62	547.69
581.78	629.60
581.94	660.03
582.10	543.00
582.26	461.09
582.42	491.51
582.58	456.40
582.74	503.22
582.90	500.87
583.06	493.85
583.22	510.24
583.38	447.04
583.54	489.17
583.70	648.33
583.86	596.84
584.02	791.10
584.18	866.00
584.34	1149.20
584.50	2387.35
584.66	15440.51
584.82	46581.34
584.98	63231.91
585.14	62824.66
585.30	47040.09
585.46	26651.68
585.62	16610.78
585.78	7744.83
585.94	3192.49
586.10	1530.71
586.26	985.37
586.42	812.17
586.58	746.63
586.74	643.65
586.90	599.18
587.06	664.71
587.22	596.84
587.38	573.43
587.54	952.60
587.70	2539.48
587.86	4978.32
588.02	6380.30
588.18	4519.57
588.34	2738.43
588.49	1832.64
588.65	1282.61
588.81	706.84
588.97	411.93
589.13	423.64
589.29	383.85
589.45	433.00
589.61	428.32
589.77	381.51
589.93	440.02
590.08	442.36
590.24	423.64
590.40	507.90
590.56	482.15
590.72	425.98
590.88	435.34
591.04	395.55
591.20	414.27
591.35	390.87
591.51	393.21
591.67	346.40
591.83	409.59
591.99	365.12
592.15	313.63
592.31	315.97
592.46	414.27
592.62	489.17
592.78	348.74
592.94	308.95
593.10	339.38
593.26	365.12
593.41	388.53
593.57	461.09
593.73	545.34
593.89	1996.48
594.05	5579.84
594.20	9797.48
594.36	10186.01
594.52	6604.99
594.68	4058.49
594.84	2647.15
594.99	1558.80
595.15	798.12
595.31	493.85
595.47	372.15
595.62	416.62
595.78	266.82
595.94	351.08
596.10	404.91
596.25	322.99
596.41	393.21
596.57	362.78
596.73	301.93
596.88	433.00
597.04	1046.22
597.20	2040.95
597.36	2710.34
597.51	2001.16
597.67	1369.21
597.83	844.93
597.99	704.50
598.14	489.17
598.30	388.53
598.46	388.53
598.61	418.96
598.77	400.23
598.93	308.95
599.09	346.40
599.24	355.76
599.40	362.78
599.56	388.53
599.71	271.50
599.87	365.12
600.03	360.44
600.18	322.99
600.34	348.74
600.50	301.93
600.65	264.48
600.81	304.27
600.97	308.95
601.12	292.57
601.28	353.42
601.44	280.86
601.59	271.50
601.75	304.27
601.91	259.80
602.06	266.82
602.22	388.53
602.37	585.13
602.53	1451.13
602.69	2410.75
602.84	2892.90
603.00	2111.16
603.16	1432.41
603.31	1006.43
603.47	631.94
603.62	421.30
603.78	351.08
603.94	252.78
604.09	325.33
604.25	315.97
604.40	285.55
604.56	292.57
604.71	358.10
604.87	294.91
605.03	313.63
605.18	264.48
605.34	348.74
605.49	404.91
605.65	397.89
605.80	283.20
605.96	285.55
606.12	346.40
606.27	407.25
606.43	381.51
606.58	435.34
606.74	732.59
606.89	2448.20
607.05	5607.92
607.20	8922.12
607.36	7489.71
607.51	4933.85
607.67	3141.00
607.82	2153.29
607.98	1289.64
608.13	716.20
608.29	550.03
608.44	456.40
608.60	421.30
608.75	545.34
608.91	992.39
609.06	3815.07
609.22	9132.77
609.37	15428.81
609.53	13891.08
609.68	8837.86
609.84	5603.24
609.99	3850.18
610.15	2296.07
