SpectraSuite Data File
++++++++++++++++++++++++++++++++++++
Date: Fri Oct 04 11:33:46 GMT-05:00 2013
User: price-jones
Dark Spectrum Present: No
Reference Spectrum Present: No
Number of Sampled Component Spectra: 1
Spectrometers: USB2+H05261
Integration Time (usec): 100000 (USB2+H05261)
Spectra Averaged: 1 (USB2+H05261)
Boxcar Smoothing: 0 (USB2+H05261)
Correct for Electrical Dark: No (USB2+H05261)
Strobe/Lamp Enabled: No (USB2+H05261)
Correct for Detector Non-linearity: No (USB2+H05261)
Correct for Stray Light: No (USB2+H05261)
Number of Pixels in Processed Spectrum: 2048
>>>>>Begin Processed Spectral Data<<<<<
365.73	93.62
365.92	93.62
366.12	93.62
366.32	0.00
366.52	9.36
366.72	0.00
366.91	0.00
367.11	0.00
367.31	0.00
367.51	0.00
367.70	0.00
367.90	0.00
368.10	0.00
368.30	0.00
368.49	0.00
368.69	56.17
368.89	56.17
369.09	25.75
369.28	4.68
369.48	42.13
369.68	2.34
369.87	39.79
370.07	42.13
370.27	91.28
370.47	119.37
370.66	88.94
370.86	14.04
371.06	117.03
371.25	142.77
371.45	86.60
371.65	121.71
371.84	124.05
372.04	133.41
372.24	161.50
372.44	100.64
372.63	184.90
372.83	210.65
373.03	154.48
373.22	142.77
373.42	81.92
373.62	175.54
373.81	182.56
374.01	168.52
374.21	152.13
374.40	156.82
374.60	177.88
374.79	147.45
374.99	161.50
375.19	159.16
375.38	152.13
375.58	138.09
375.78	168.52
375.97	212.99
376.17	126.39
376.37	105.32
376.56	152.13
376.76	107.66
376.95	154.48
377.15	187.24
377.35	173.20
377.54	142.77
377.74	166.18
377.93	156.82
378.13	168.52
378.33	187.24
378.52	102.98
378.72	173.20
378.91	177.88
379.11	142.77
379.31	100.64
379.50	105.32
379.70	149.79
379.89	126.39
380.09	124.05
380.28	133.41
380.48	124.05
380.68	140.43
380.87	117.03
381.07	163.84
381.26	194.26
381.46	156.82
381.65	194.26
381.85	163.84
382.04	138.09
382.24	142.77
382.43	138.09
382.63	112.35
382.83	131.07
383.02	56.17
383.22	95.96
383.41	112.35
383.61	140.43
383.80	105.32
384.00	152.13
384.19	147.45
384.39	128.73
384.58	147.45
384.78	112.35
384.97	152.13
385.17	121.71
385.36	114.69
385.56	67.88
385.75	131.07
385.95	142.77
386.14	102.98
386.34	145.11
386.53	170.86
386.72	175.54
386.92	173.20
387.11	152.13
387.31	163.84
387.50	208.31
387.70	128.73
387.89	194.26
388.09	212.99
388.28	81.92
388.48	114.69
388.67	138.09
388.86	60.85
389.06	161.50
389.25	126.39
389.45	81.92
389.64	166.18
389.84	117.03
390.03	135.75
390.22	217.67
390.42	133.41
390.61	128.73
390.81	138.09
391.00	93.62
391.19	145.11
391.39	102.98
391.58	215.33
391.78	138.09
391.97	140.43
392.16	156.82
392.36	205.97
392.55	220.01
392.75	161.50
392.94	166.18
393.13	93.62
393.33	152.13
393.52	182.56
393.71	140.43
393.91	84.26
394.10	205.97
394.29	112.35
394.49	163.84
394.68	180.22
394.88	194.26
395.07	198.95
395.26	210.65
395.46	156.82
395.65	220.01
395.84	133.41
396.04	166.18
396.23	142.77
396.42	145.11
396.62	149.79
396.81	140.43
397.00	198.95
397.19	147.45
397.39	161.50
397.58	156.82
397.77	149.79
397.97	145.11
398.16	114.69
398.35	189.58
398.55	135.75
398.74	102.98
398.93	74.90
399.12	149.79
399.32	212.99
399.51	194.26
399.70	180.22
399.90	102.98
400.09	152.13
400.28	189.58
400.47	203.63
400.67	182.56
400.86	102.98
401.05	184.90
401.24	154.48
401.44	187.24
401.63	145.11
401.82	222.35
402.01	147.45
402.21	133.41
402.40	166.18
402.59	105.32
402.78	168.52
402.97	170.86
403.17	238.73
403.36	154.48
403.55	100.64
403.74	184.90
403.93	208.31
404.13	294.91
404.32	290.23
404.51	117.03
404.70	156.82
404.89	128.73
405.09	147.45
405.28	184.90
405.47	124.05
405.66	133.41
405.85	191.92
406.05	88.94
406.24	142.77
406.43	105.32
406.62	128.73
406.81	152.13
407.00	126.39
407.20	156.82
407.39	112.35
407.58	182.56
407.77	198.95
407.96	217.67
408.15	222.35
408.34	142.77
408.54	245.76
408.73	159.16
408.92	196.60
409.11	168.52
409.30	189.58
409.49	159.16
409.68	180.22
409.87	91.28
410.07	152.13
410.26	231.71
410.45	149.79
410.64	126.39
410.83	154.48
411.02	208.31
411.21	184.90
411.40	149.79
411.59	156.82
411.78	105.32
411.98	110.01
412.17	152.13
412.36	163.84
412.55	163.84
412.74	170.86
412.93	215.33
413.12	131.07
413.31	147.45
413.50	189.58
413.69	128.73
413.88	196.60
414.07	154.48
414.26	159.16
414.45	175.54
414.64	95.96
414.83	159.16
415.02	215.33
415.22	142.77
415.41	203.63
415.60	149.79
415.79	168.52
415.98	217.67
416.17	184.90
416.36	114.69
416.55	102.98
416.74	264.48
416.93	238.73
417.12	81.92
417.31	152.13
417.50	140.43
417.69	175.54
417.88	152.13
418.07	208.31
418.26	198.95
418.45	142.77
418.64	208.31
418.83	227.03
419.02	257.46
419.21	217.67
419.39	222.35
419.58	166.18
419.77	166.18
419.96	255.12
420.15	220.01
420.34	126.39
420.53	149.79
420.72	191.92
420.91	119.37
421.10	180.22
421.29	138.09
421.48	224.69
421.67	173.20
421.86	145.11
422.05	196.60
422.24	191.92
422.43	93.62
422.61	152.13
422.80	166.18
422.99	229.37
423.18	163.84
423.37	187.24
423.56	182.56
423.75	98.30
423.94	152.13
424.13	100.64
424.32	135.75
424.50	159.16
424.69	198.95
424.88	161.50
425.07	187.24
425.26	107.66
425.45	159.16
425.64	217.67
425.83	227.03
426.01	208.31
426.20	236.39
426.39	184.90
426.58	184.90
426.77	161.50
426.96	170.86
427.15	170.86
427.33	152.13
427.52	138.09
427.71	255.12
427.90	175.54
428.09	173.20
428.28	187.24
428.46	184.90
428.65	156.82
428.84	168.52
429.03	161.50
429.22	72.56
429.40	152.13
429.59	117.03
429.78	173.20
429.97	222.35
430.16	95.96
430.34	191.92
430.53	170.86
430.72	170.86
430.91	238.73
431.10	175.54
431.28	210.65
431.47	231.71
431.66	194.26
431.85	196.60
432.03	163.84
432.22	243.42
432.41	215.33
432.60	264.48
432.79	177.88
432.97	220.01
433.16	175.54
433.35	191.92
433.54	163.84
433.72	117.03
433.91	227.03
434.10	220.01
434.28	201.29
434.47	187.24
434.66	117.03
434.85	163.84
435.03	229.37
435.22	397.89
435.41	423.64
435.59	418.96
435.78	332.36
435.97	222.35
436.16	215.33
436.34	234.05
436.53	156.82
436.72	212.99
436.90	222.35
437.09	131.07
437.28	161.50
437.46	187.24
437.65	187.24
437.84	191.92
438.02	191.92
438.21	154.48
438.40	191.92
438.58	227.03
438.77	168.52
438.96	222.35
439.14	170.86
439.33	170.86
439.52	154.48
439.70	149.79
439.89	191.92
440.08	161.50
440.26	70.22
440.45	273.84
440.63	196.60
440.82	187.24
441.01	212.99
441.19	147.45
441.38	201.29
441.57	222.35
441.75	187.24
441.94	187.24
442.12	180.22
442.31	177.88
442.50	234.05
442.68	154.48
442.87	175.54
443.05	227.03
443.24	271.50
443.43	234.05
443.61	220.01
443.80	163.84
443.98	152.13
444.17	229.37
444.35	227.03
444.54	156.82
444.73	177.88
444.91	154.48
445.10	215.33
445.28	187.24
445.47	161.50
445.65	217.67
445.84	138.09
446.02	245.76
446.21	102.98
446.39	173.20
446.58	215.33
446.77	194.26
446.95	182.56
447.14	189.58
447.32	266.82
447.51	180.22
447.69	126.39
447.88	248.10
448.06	217.67
448.25	196.60
448.43	229.37
448.62	203.63
448.80	124.05
448.99	224.69
449.17	149.79
449.36	215.33
449.54	198.95
449.73	154.48
449.91	222.35
450.10	234.05
450.28	276.18
450.46	173.20
450.65	215.33
450.83	210.65
451.02	234.05
451.20	177.88
451.39	187.24
451.57	138.09
451.76	159.16
451.94	166.18
452.13	149.79
452.31	215.33
452.49	222.35
452.68	175.54
452.86	201.29
453.05	245.76
453.23	243.42
453.42	163.84
453.60	187.24
453.78	210.65
453.97	191.92
454.15	184.90
454.34	287.89
454.52	159.16
454.70	203.63
454.89	238.73
455.07	208.31
455.26	212.99
455.44	166.18
455.62	245.76
455.81	140.43
455.99	210.65
456.17	191.92
456.36	168.52
456.54	215.33
456.73	245.76
456.91	196.60
457.09	182.56
457.28	191.92
457.46	159.16
457.64	255.12
457.83	196.60
458.01	180.22
458.19	145.11
458.38	215.33
458.56	98.30
458.74	140.43
458.93	234.05
459.11	278.52
459.29	187.24
459.48	222.35
459.66	252.78
459.84	229.37
460.03	273.84
460.21	187.24
460.39	154.48
460.57	191.92
460.76	198.95
460.94	156.82
461.12	266.82
461.31	259.80
461.49	212.99
461.67	203.63
461.85	194.26
462.04	170.86
462.22	653.01
462.40	231.71
462.59	241.08
462.77	135.75
462.95	133.41
463.13	126.39
463.32	210.65
463.50	187.24
463.68	147.45
463.86	203.63
464.05	257.46
464.23	168.52
464.41	215.33
464.59	208.31
464.78	210.65
464.96	159.16
465.14	238.73
465.32	210.65
465.50	224.69
465.69	215.33
465.87	177.88
466.05	177.88
466.23	208.31
466.41	166.18
466.60	124.05
466.78	177.88
466.96	238.73
467.14	217.67
467.32	205.97
467.51	234.05
467.69	259.80
467.87	255.12
468.05	189.58
468.23	280.86
468.41	205.97
468.60	208.31
468.78	191.92
468.96	238.73
469.14	180.22
469.32	180.22
469.50	259.80
469.69	194.26
469.87	154.48
470.05	205.97
470.23	184.90
470.41	159.16
470.59	243.42
470.77	201.29
470.95	198.95
471.14	217.67
471.32	245.76
471.50	180.22
471.68	182.56
471.86	166.18
472.04	191.92
472.22	217.67
472.40	212.99
472.58	231.71
472.77	234.05
472.95	248.10
473.13	285.55
473.31	191.92
473.49	191.92
473.67	203.63
473.85	294.91
474.03	224.69
474.21	180.22
474.39	229.37
474.57	266.82
474.75	241.08
474.93	210.65
475.12	121.71
475.30	229.37
475.48	175.54
475.66	196.60
475.84	217.67
476.02	203.63
476.20	159.16
476.38	145.11
476.56	271.50
476.74	135.75
476.92	194.26
477.10	236.39
477.28	234.05
477.46	210.65
477.64	191.92
477.82	322.99
478.00	175.54
478.18	217.67
478.36	224.69
478.54	203.63
478.72	175.54
478.90	245.76
479.08	231.71
479.26	299.59
479.44	194.26
479.62	227.03
479.80	231.71
479.98	212.99
480.16	231.71
480.34	285.55
480.52	128.73
480.70	306.61
480.88	152.13
481.06	210.65
481.24	187.24
481.41	203.63
481.59	217.67
481.77	259.80
481.95	208.31
482.13	355.76
482.31	236.39
482.49	201.29
482.67	243.42
482.85	238.73
483.03	205.97
483.21	313.63
483.39	224.69
483.57	271.50
483.74	248.10
483.92	217.67
484.10	205.97
484.28	315.97
484.46	358.10
484.64	255.12
484.82	271.50
485.00	191.92
485.18	170.86
485.35	266.82
485.53	220.01
485.71	252.78
485.89	201.29
486.07	313.63
486.25	287.89
486.43	229.37
486.61	306.61
486.78	245.76
486.96	220.01
487.14	212.99
487.32	255.12
487.50	283.20
487.68	241.08
487.85	208.31
488.03	269.16
488.21	259.80
488.39	231.71
488.57	351.08
488.75	301.93
488.92	519.60
489.10	262.14
489.28	297.25
489.46	290.23
489.64	320.65
489.81	280.86
489.99	208.31
490.17	276.18
490.35	332.36
490.53	252.78
490.70	236.39
490.88	220.01
491.06	313.63
491.24	304.27
491.41	346.40
491.59	243.42
491.77	128.73
491.95	229.37
492.13	217.67
492.30	243.42
492.48	273.84
492.66	273.84
492.84	217.67
493.01	245.76
493.19	236.39
493.37	294.91
493.54	259.80
493.72	243.42
493.90	238.73
494.08	245.76
494.25	283.20
494.43	248.10
494.61	255.12
494.79	283.20
494.96	285.55
495.14	255.12
495.32	196.60
495.49	313.63
495.67	325.33
495.85	257.46
496.02	273.84
496.20	299.59
496.38	245.76
496.55	198.95
496.73	292.57
496.91	320.65
497.09	344.06
497.26	285.55
497.44	299.59
497.62	280.86
497.79	355.76
497.97	290.23
498.14	311.29
498.32	285.55
498.50	299.59
498.67	250.44
498.85	266.82
499.03	297.25
499.20	271.50
499.38	224.69
499.56	287.89
499.73	320.65
499.91	250.44
500.08	290.23
500.26	287.89
500.44	306.61
500.61	245.76
500.79	252.78
500.97	264.48
501.14	294.91
501.32	313.63
501.49	301.93
501.67	191.92
501.84	280.86
502.02	231.71
502.20	348.74
502.37	287.89
502.55	330.02
502.72	292.57
502.90	278.52
503.07	315.97
503.25	306.61
503.43	238.73
503.60	203.63
503.78	278.52
503.95	306.61
504.13	222.35
504.30	330.02
504.48	341.72
504.65	304.27
504.83	306.61
505.01	301.93
505.18	376.83
505.36	220.01
505.53	255.12
505.71	250.44
505.88	301.93
506.06	255.12
506.23	259.80
506.41	238.73
506.58	245.76
506.76	376.83
506.93	234.05
507.11	334.70
507.28	201.29
507.46	273.84
507.63	348.74
507.81	243.42
507.98	217.67
508.16	315.97
508.33	262.14
508.50	313.63
508.68	306.61
508.85	320.65
509.03	297.25
509.20	262.14
509.38	339.38
509.55	339.38
509.73	255.12
509.90	301.93
510.08	285.55
510.25	297.25
510.42	229.37
510.60	306.61
510.77	241.08
510.95	306.61
511.12	360.44
511.30	337.04
511.47	259.80
511.64	306.61
511.82	297.25
511.99	306.61
512.17	243.42
512.34	250.44
512.51	304.27
512.69	315.97
512.86	294.91
513.04	262.14
513.21	250.44
513.38	264.48
513.56	243.42
513.73	259.80
513.90	257.46
514.08	222.35
514.25	259.80
514.43	266.82
514.60	271.50
514.77	297.25
514.95	224.69
515.12	292.57
515.29	278.52
515.47	320.65
515.64	278.52
515.81	308.95
515.99	306.61
516.16	325.33
516.33	257.46
516.51	276.18
516.68	222.35
516.85	271.50
517.03	250.44
517.20	262.14
517.37	269.16
517.54	243.42
517.72	315.97
517.89	276.18
518.06	285.55
518.24	411.93
518.41	461.09
518.58	287.89
518.75	236.39
518.93	332.36
519.10	283.20
519.27	203.63
519.45	280.86
519.62	252.78
519.79	259.80
519.96	203.63
520.14	299.59
520.31	318.31
520.48	400.23
520.65	360.44
520.83	266.82
521.00	276.18
521.17	264.48
521.34	243.42
521.52	346.40
521.69	255.12
521.86	264.48
522.03	306.61
522.20	299.59
522.38	351.08
522.55	273.84
522.72	283.20
522.89	294.91
523.07	322.99
523.24	266.82
523.41	259.80
523.58	241.08
523.75	285.55
523.92	262.14
524.10	292.57
524.27	252.78
524.44	339.38
524.61	257.46
524.78	238.73
524.96	259.80
525.13	250.44
525.30	369.80
525.47	283.20
525.64	287.89
525.81	369.80
525.98	276.18
526.16	236.39
526.33	299.59
526.50	313.63
526.67	299.59
526.84	290.23
527.01	259.80
527.18	271.50
527.36	280.86
527.53	266.82
527.70	325.33
527.87	313.63
528.04	337.04
528.21	311.29
528.38	337.04
528.55	278.52
528.72	301.93
528.89	341.72
529.07	252.78
529.24	341.72
529.41	311.29
529.58	297.25
529.75	248.10
529.92	322.99
530.09	341.72
530.26	330.02
530.43	334.70
530.60	290.23
530.77	241.08
530.94	313.63
531.11	374.49
531.28	294.91
531.46	362.78
531.63	273.84
531.80	332.36
531.97	315.97
532.14	280.86
532.31	299.59
532.48	393.21
532.65	367.46
532.82	332.36
532.99	416.62
533.16	322.99
533.33	341.72
533.50	351.08
533.67	341.72
533.84	374.49
534.01	416.62
534.18	311.29
534.35	341.72
534.52	287.89
534.69	393.21
534.86	339.38
535.03	360.44
535.20	266.82
535.37	313.63
535.54	299.59
535.71	334.70
535.88	304.27
536.05	337.04
536.22	301.93
536.38	271.50
536.55	379.17
536.72	358.10
536.89	430.66
537.06	339.38
537.23	306.61
537.40	346.40
537.57	341.72
537.74	386.19
537.91	404.91
538.08	418.96
538.25	332.36
538.42	292.57
538.59	341.72
538.75	369.80
538.92	407.25
539.09	458.74
539.26	395.55
539.43	444.70
539.60	688.12
539.77	1086.01
539.94	1191.33
540.11	863.66
540.28	753.65
540.44	629.60
540.61	521.94
540.78	505.56
540.95	388.53
541.12	594.50
541.29	535.98
541.46	620.24
541.62	585.13
541.79	601.52
541.96	451.72
542.13	568.75
542.30	479.81
542.47	568.75
542.63	552.37
542.80	500.87
542.97	610.88
543.14	559.39
543.31	540.66
543.48	498.53
543.64	484.49
543.81	533.64
543.98	540.66
544.15	507.90
544.32	526.62
544.48	482.15
544.65	454.06
544.82	425.98
544.99	507.90
545.16	491.51
545.32	500.87
545.49	725.57
545.66	945.58
545.83	945.58
546.00	748.97
546.16	681.10
546.33	660.03
546.50	573.43
546.67	472.79
546.83	454.06
547.00	418.96
547.17	463.43
547.34	379.17
547.50	423.64
547.67	411.93
547.84	414.27
548.00	461.09
548.17	383.85
548.34	425.98
548.51	386.19
548.67	433.00
548.84	440.02
549.01	468.11
549.18	447.04
549.34	379.17
549.51	404.91
549.68	367.46
549.84	334.70
550.01	337.04
550.18	409.59
550.34	402.57
550.51	376.83
550.68	397.89
550.84	376.83
551.01	440.02
551.18	454.06
551.34	376.83
551.51	245.76
551.68	259.80
551.84	339.38
552.01	311.29
552.18	337.04
552.34	337.04
552.51	355.76
552.68	308.95
552.84	297.25
553.01	374.49
553.18	322.99
553.34	330.02
553.51	318.31
553.67	369.80
553.84	348.74
554.01	266.82
554.17	376.83
554.34	407.25
554.51	224.69
554.67	322.99
554.84	358.10
555.00	318.31
555.17	341.72
555.33	388.53
555.50	362.78
555.67	325.33
555.83	311.29
556.00	353.42
556.16	409.59
556.33	332.36
556.50	322.99
556.66	259.80
556.83	334.70
556.99	217.67
557.16	236.39
557.32	257.46
557.49	276.18
557.65	308.95
557.82	248.10
557.98	313.63
558.15	327.68
558.32	301.93
558.48	241.08
558.65	238.73
558.81	285.55
558.98	241.08
559.14	301.93
559.31	252.78
559.47	332.36
559.64	280.86
559.80	332.36
559.97	238.73
560.13	276.18
560.30	271.50
560.46	315.97
560.63	304.27
560.79	308.95
560.96	299.59
561.12	304.27
561.29	330.02
561.45	276.18
561.61	252.78
561.78	379.17
561.94	369.80
562.11	262.14
562.27	264.48
562.44	400.23
562.60	243.42
562.77	266.82
562.93	444.70
563.10	322.99
563.26	386.19
563.42	339.38
563.59	273.84
563.75	320.65
563.92	334.70
564.08	337.04
564.24	283.20
564.41	224.69
564.57	241.08
564.74	276.18
564.90	231.71
565.07	245.76
565.23	351.08
565.39	304.27
565.56	362.78
565.72	322.99
565.88	299.59
566.05	280.86
566.21	257.46
566.38	318.31
566.54	351.08
566.70	257.46
566.87	341.72
567.03	227.03
567.19	252.78
567.36	372.15
567.52	304.27
567.68	290.23
567.85	306.61
568.01	301.93
568.17	222.35
568.34	210.65
568.50	196.60
568.66	306.61
568.83	355.76
568.99	262.14
569.15	365.12
569.32	301.93
569.48	257.46
569.64	330.02
569.81	344.06
569.97	285.55
570.13	262.14
570.30	203.63
570.46	220.01
570.62	330.02
570.78	243.42
570.95	332.36
571.11	365.12
571.27	313.63
571.43	262.14
571.60	381.51
571.76	198.95
571.92	395.55
572.09	290.23
572.25	285.55
572.41	231.71
572.57	278.52
572.74	250.44
572.90	266.82
573.06	332.36
573.22	292.57
573.38	381.51
573.55	217.67
573.71	248.10
573.87	234.05
574.03	315.97
574.20	271.50
574.36	376.83
574.52	339.38
574.68	374.49
574.84	390.87
575.01	294.91
575.17	304.27
575.33	264.48
575.49	313.63
575.65	236.39
575.82	397.89
575.98	414.27
576.14	561.73
576.30	571.09
576.46	533.64
576.62	613.22
576.79	489.17
576.95	496.19
577.11	299.59
577.27	311.29
577.43	271.50
577.59	351.08
577.75	337.04
577.92	278.52
578.08	257.46
578.24	252.78
578.40	287.89
578.56	451.72
578.72	470.45
578.88	425.98
579.04	372.15
579.21	374.49
579.37	320.65
579.53	358.10
579.69	318.31
579.85	334.70
580.01	444.70
580.17	341.72
580.33	395.55
580.49	341.72
580.65	365.12
580.82	409.59
580.98	402.57
581.14	358.10
581.30	379.17
581.46	472.79
581.62	519.60
581.78	482.15
581.94	517.26
582.10	479.81
582.26	454.06
582.42	458.74
582.58	449.38
582.74	461.09
582.90	491.51
583.06	414.27
583.22	421.30
583.38	470.45
583.54	430.66
583.70	524.28
583.86	615.56
584.02	505.56
584.18	723.23
584.34	880.04
584.50	1713.27
584.66	10333.47
584.82	30749.96
584.98	49249.55
585.14	45745.77
585.30	28620.07
585.46	16636.53
585.62	10391.98
585.78	4908.10
585.94	2062.01
586.10	1062.60
586.26	795.78
586.42	704.50
586.58	594.50
586.74	613.22
586.90	575.77
587.06	545.34
587.22	531.30
587.38	512.58
587.54	718.54
587.70	1881.79
587.86	3119.93
588.02	3756.56
588.18	2712.68
588.34	1832.64
588.49	1242.82
588.65	898.77
588.81	568.75
588.97	383.85
589.13	362.78
589.29	351.08
589.45	339.38
589.61	404.91
589.77	491.51
589.93	442.36
590.08	411.93
590.24	414.27
590.40	435.34
590.56	308.95
590.72	362.78
590.88	313.63
591.04	390.87
591.20	311.29
591.35	351.08
591.51	301.93
591.67	311.29
591.83	348.74
591.99	421.30
592.15	423.64
592.31	379.17
592.46	315.97
592.62	381.51
592.78	418.96
592.94	440.02
593.10	374.49
593.26	418.96
593.41	362.78
593.57	383.85
593.73	477.47
593.89	1563.48
594.05	3805.71
594.20	5987.09
594.36	6186.04
594.52	4147.43
594.68	2539.48
594.84	1680.50
594.99	1114.10
595.15	610.88
595.31	503.22
595.47	379.17
595.62	334.70
595.78	301.93
595.94	374.49
596.10	320.65
596.25	383.85
596.41	355.76
596.57	355.76
596.73	262.14
596.88	461.09
597.04	866.00
597.20	1432.41
597.36	1792.85
597.51	1289.64
597.67	947.92
597.83	641.31
597.99	531.30
598.14	428.32
598.30	447.04
598.46	402.57
598.61	423.64
598.77	327.68
598.93	379.17
599.09	358.10
599.24	339.38
599.40	362.78
599.56	308.95
599.71	351.08
599.87	306.61
600.03	269.16
600.18	292.57
600.34	320.65
600.50	367.46
600.65	388.53
600.81	297.25
600.97	374.49
601.12	245.76
601.28	381.51
601.44	304.27
601.59	257.46
601.75	365.12
601.91	306.61
602.06	383.85
602.22	383.85
602.37	538.32
602.53	971.32
602.69	1626.67
602.84	1809.23
603.00	1378.58
603.16	954.94
603.31	690.46
603.47	587.47
603.62	402.57
603.78	327.68
603.94	365.12
604.09	339.38
604.25	301.93
604.40	374.49
604.56	327.68
604.71	308.95
604.87	315.97
605.03	318.31
605.18	299.59
605.34	327.68
605.49	344.06
605.65	390.87
605.80	337.04
605.96	388.53
606.12	348.74
606.27	376.83
606.43	313.63
606.58	383.85
606.74	650.67
606.89	1834.98
607.05	3967.21
607.20	5364.51
607.36	4655.33
607.51	3225.26
607.67	2134.57
607.82	1535.39
607.98	905.79
608.13	571.09
608.29	449.38
608.44	416.62
608.60	400.23
608.75	517.26
608.91	734.93
609.06	2743.11
609.22	6029.22
609.37	8777.01
609.53	8016.33
609.68	5671.12
609.84	3747.20
609.99	2595.65
610.15	1551.78
