SpectraSuite Data File
++++++++++++++++++++++++++++++++++++
Date: Fri Oct 04 11:34:10 GMT-05:00 2013
User: price-jones
Dark Spectrum Present: No
Reference Spectrum Present: No
Number of Sampled Component Spectra: 1
Spectrometers: USB2+H05261
Integration Time (usec): 100000 (USB2+H05261)
Spectra Averaged: 1 (USB2+H05261)
Boxcar Smoothing: 0 (USB2+H05261)
Correct for Electrical Dark: No (USB2+H05261)
Strobe/Lamp Enabled: No (USB2+H05261)
Correct for Detector Non-linearity: No (USB2+H05261)
Correct for Stray Light: No (USB2+H05261)
Number of Pixels in Processed Spectrum: 2048
>>>>>Begin Processed Spectral Data<<<<<
365.73	21.06
365.92	21.06
366.12	21.06
366.32	0.00
366.52	2.34
366.72	11.70
366.91	0.00
367.11	0.00
367.31	0.00
367.51	0.00
367.70	0.00
367.90	0.00
368.10	0.00
368.30	0.00
368.49	0.00
368.69	28.09
368.89	23.41
369.09	0.00
369.28	7.02
369.48	0.00
369.68	11.70
369.87	56.17
370.07	84.26
370.27	32.77
370.47	18.72
370.66	107.66
370.86	98.30
371.06	98.30
371.25	110.01
371.45	95.96
371.65	95.96
371.84	152.13
372.04	149.79
372.24	126.39
372.44	131.07
372.63	163.84
372.83	152.13
373.03	152.13
373.22	161.50
373.42	152.13
373.62	121.71
373.81	168.52
374.01	177.88
374.21	234.05
374.40	182.56
374.60	140.43
374.79	227.03
374.99	56.17
375.19	147.45
375.38	159.16
375.58	128.73
375.78	159.16
375.97	124.05
376.17	259.80
376.37	173.20
376.56	161.50
376.76	189.58
376.95	149.79
377.15	117.03
377.35	142.77
377.54	117.03
377.74	117.03
377.93	147.45
378.13	189.58
378.33	119.37
378.52	128.73
378.72	138.09
378.91	191.92
379.11	110.01
379.31	154.48
379.50	88.94
379.70	135.75
379.89	138.09
380.09	168.52
380.28	198.95
380.48	255.12
380.68	131.07
380.87	95.96
381.07	145.11
381.26	112.35
381.46	229.37
381.65	154.48
381.85	201.29
382.04	131.07
382.24	53.83
382.43	117.03
382.63	168.52
382.83	168.52
383.02	159.16
383.22	166.18
383.41	121.71
383.61	126.39
383.80	175.54
384.00	124.05
384.19	159.16
384.39	124.05
384.58	163.84
384.78	145.11
384.97	184.90
385.17	189.58
385.36	95.96
385.56	140.43
385.75	56.17
385.95	126.39
386.14	161.50
386.34	117.03
386.53	145.11
386.72	138.09
386.92	187.24
387.11	124.05
387.31	98.30
387.50	112.35
387.70	107.66
387.89	140.43
388.09	149.79
388.28	84.26
388.48	128.73
388.67	93.62
388.86	173.20
389.06	110.01
389.25	112.35
389.45	124.05
389.64	93.62
389.84	114.69
390.03	117.03
390.22	114.69
390.42	184.90
390.61	105.32
390.81	149.79
391.00	74.90
391.19	138.09
391.39	128.73
391.58	159.16
391.78	135.75
391.97	107.66
392.16	189.58
392.36	180.22
392.55	205.97
392.75	140.43
392.94	44.47
393.13	198.95
393.33	114.69
393.52	196.60
393.71	77.24
393.91	154.48
394.10	86.60
394.29	147.45
394.49	201.29
394.68	124.05
394.88	173.20
395.07	212.99
395.26	163.84
395.46	128.73
395.65	210.65
395.84	124.05
396.04	170.86
396.23	107.66
396.42	107.66
396.62	180.22
396.81	220.01
397.00	107.66
397.19	161.50
397.39	91.28
397.58	203.63
397.77	140.43
397.97	152.13
398.16	152.13
398.35	117.03
398.55	163.84
398.74	112.35
398.93	161.50
399.12	102.98
399.32	161.50
399.51	147.45
399.70	166.18
399.90	119.37
400.09	145.11
400.28	149.79
400.47	131.07
400.67	184.90
400.86	112.35
401.05	198.95
401.24	161.50
401.44	184.90
401.63	119.37
401.82	126.39
402.01	114.69
402.21	88.94
402.40	173.20
402.59	119.37
402.78	105.32
402.97	117.03
403.17	140.43
403.36	191.92
403.55	112.35
403.74	203.63
403.93	222.35
404.13	257.46
404.32	215.33
404.51	224.69
404.70	217.67
404.89	163.84
405.09	156.82
405.28	173.20
405.47	161.50
405.66	166.18
405.85	138.09
406.05	138.09
406.24	163.84
406.43	81.92
406.62	86.60
406.81	184.90
407.00	128.73
407.20	105.32
407.39	156.82
407.58	86.60
407.77	220.01
407.96	255.12
408.15	149.79
408.34	182.56
408.54	163.84
408.73	114.69
408.92	133.41
409.11	135.75
409.30	161.50
409.49	229.37
409.68	154.48
409.87	212.99
410.07	152.13
410.26	138.09
410.45	128.73
410.64	163.84
410.83	248.10
411.02	220.01
411.21	163.84
411.40	154.48
411.59	173.20
411.78	205.97
411.98	149.79
412.17	121.71
412.36	156.82
412.55	149.79
412.74	154.48
412.93	208.31
413.12	182.56
413.31	205.97
413.50	180.22
413.69	105.32
413.88	203.63
414.07	166.18
414.26	166.18
414.45	163.84
414.64	205.97
414.83	128.73
415.02	147.45
415.22	170.86
415.41	224.69
415.60	177.88
415.79	117.03
415.98	234.05
416.17	208.31
416.36	205.97
416.55	201.29
416.74	161.50
416.93	250.44
417.12	119.37
417.31	154.48
417.50	220.01
417.69	215.33
417.88	187.24
418.07	187.24
418.26	156.82
418.45	203.63
418.64	243.42
418.83	229.37
419.02	243.42
419.21	266.82
419.39	248.10
419.58	194.26
419.77	212.99
419.96	266.82
420.15	189.58
420.34	220.01
420.53	163.84
420.72	170.86
420.91	177.88
421.10	149.79
421.29	224.69
421.48	198.95
421.67	203.63
421.86	194.26
422.05	208.31
422.24	142.77
422.43	163.84
422.61	222.35
422.80	191.92
422.99	177.88
423.18	140.43
423.37	154.48
423.56	166.18
423.75	107.66
423.94	173.20
424.13	117.03
424.32	173.20
424.50	184.90
424.69	238.73
424.88	208.31
425.07	147.45
425.26	128.73
425.45	180.22
425.64	135.75
425.83	231.71
426.01	198.95
426.20	299.59
426.39	128.73
426.58	156.82
426.77	175.54
426.96	259.80
427.15	208.31
427.33	227.03
427.52	184.90
427.71	168.52
427.90	145.11
428.09	79.58
428.28	93.62
428.46	98.30
428.65	131.07
428.84	198.95
429.03	170.86
429.22	182.56
429.40	140.43
429.59	173.20
429.78	208.31
429.97	107.66
430.16	184.90
430.34	102.98
430.53	191.92
430.72	292.57
430.91	159.16
431.10	154.48
431.28	198.95
431.47	182.56
431.66	201.29
431.85	142.77
432.03	229.37
432.22	156.82
432.41	72.56
432.60	224.69
432.79	255.12
432.97	257.46
433.16	252.78
433.35	257.46
433.54	215.33
433.72	241.08
433.91	203.63
434.10	198.95
434.28	198.95
434.47	184.90
434.66	210.65
434.85	196.60
435.03	189.58
435.22	374.49
435.41	512.58
435.59	437.68
435.78	383.85
435.97	315.97
436.16	271.50
436.34	159.16
436.53	161.50
436.72	180.22
436.90	245.76
437.09	191.92
437.28	177.88
437.46	91.28
437.65	201.29
437.84	234.05
438.02	205.97
438.21	168.52
438.40	182.56
438.58	201.29
438.77	124.05
438.96	170.86
439.14	166.18
439.33	124.05
439.52	159.16
439.70	145.11
439.89	175.54
440.08	170.86
440.26	81.92
440.45	266.82
440.63	259.80
440.82	184.90
441.01	159.16
441.19	175.54
441.38	131.07
441.57	173.20
441.75	248.10
441.94	212.99
442.12	170.86
442.31	131.07
442.50	203.63
442.68	215.33
442.87	163.84
443.05	170.86
443.24	220.01
443.43	236.39
443.61	182.56
443.80	259.80
443.98	224.69
444.17	184.90
444.35	205.97
444.54	149.79
444.73	119.37
444.91	278.52
445.10	177.88
445.28	187.24
445.47	271.50
445.65	114.69
445.84	210.65
446.02	196.60
446.21	177.88
446.39	168.52
446.58	285.55
446.77	163.84
446.95	140.43
447.14	198.95
447.32	194.26
447.51	131.07
447.69	166.18
447.88	194.26
448.06	196.60
448.25	173.20
448.43	177.88
448.62	271.50
448.80	189.58
448.99	208.31
449.17	184.90
449.36	266.82
449.54	156.82
449.73	231.71
449.91	245.76
450.10	264.48
450.28	217.67
450.46	271.50
450.65	198.95
450.83	217.67
451.02	187.24
451.20	173.20
451.39	245.76
451.57	287.89
451.76	154.48
451.94	166.18
452.13	203.63
452.31	196.60
452.49	196.60
452.68	173.20
452.86	201.29
453.05	234.05
453.23	138.09
453.42	236.39
453.60	234.05
453.78	224.69
453.97	194.26
454.15	131.07
454.34	243.42
454.52	259.80
454.70	184.90
454.89	229.37
455.07	154.48
455.26	173.20
455.44	180.22
455.62	187.24
455.81	168.52
455.99	248.10
456.17	266.82
456.36	168.52
456.54	142.77
456.73	217.67
456.91	198.95
457.09	161.50
457.28	222.35
457.46	224.69
457.64	107.66
457.83	166.18
458.01	110.01
458.19	170.86
458.38	163.84
458.56	152.13
458.74	156.82
458.93	191.92
459.11	128.73
459.29	117.03
459.48	138.09
459.66	238.73
459.84	236.39
460.03	287.89
460.21	173.20
460.39	187.24
460.57	205.97
460.76	259.80
460.94	255.12
461.12	205.97
461.31	142.77
461.49	201.29
461.67	163.84
461.85	156.82
462.04	212.99
462.22	339.38
462.40	184.90
462.59	231.71
462.77	231.71
462.95	173.20
463.13	212.99
463.32	238.73
463.50	175.54
463.68	142.77
463.86	154.48
464.05	114.69
464.23	227.03
464.41	257.46
464.59	222.35
464.78	220.01
464.96	93.62
465.14	203.63
465.32	173.20
465.50	278.52
465.69	238.73
465.87	196.60
466.05	110.01
466.23	220.01
466.41	220.01
466.60	168.52
466.78	287.89
466.96	243.42
467.14	210.65
467.32	248.10
467.51	194.26
467.69	212.99
467.87	205.97
468.05	264.48
468.23	252.78
468.41	166.18
468.60	173.20
468.78	194.26
468.96	227.03
469.14	231.71
469.32	208.31
469.50	182.56
469.69	145.11
469.87	224.69
470.05	156.82
470.23	231.71
470.41	156.82
470.59	128.73
470.77	215.33
470.95	182.56
471.14	205.97
471.32	177.88
471.50	255.12
471.68	238.73
471.86	194.26
472.04	163.84
472.22	191.92
472.40	147.45
472.58	140.43
472.77	224.69
472.95	194.26
473.13	210.65
473.31	227.03
473.49	194.26
473.67	191.92
473.85	107.66
474.03	163.84
474.21	168.52
474.39	264.48
474.57	248.10
474.75	147.45
474.93	224.69
475.12	215.33
475.30	222.35
475.48	166.18
475.66	231.71
475.84	180.22
476.02	189.58
476.20	175.54
476.38	142.77
476.56	224.69
476.74	217.67
476.92	203.63
477.10	184.90
477.28	212.99
477.46	166.18
477.64	170.86
477.82	168.52
478.00	166.18
478.18	215.33
478.36	173.20
478.54	175.54
478.72	220.01
478.90	198.95
479.08	152.13
479.26	231.71
479.44	189.58
479.62	229.37
479.80	255.12
479.98	149.79
480.16	196.60
480.34	250.44
480.52	294.91
480.70	210.65
480.88	205.97
481.06	220.01
481.24	224.69
481.41	180.22
481.59	201.29
481.77	259.80
481.95	220.01
482.13	297.25
482.31	250.44
482.49	210.65
482.67	241.08
482.85	297.25
483.03	194.26
483.21	243.42
483.39	182.56
483.57	241.08
483.74	238.73
483.92	208.31
484.10	208.31
484.28	238.73
484.46	285.55
484.64	250.44
484.82	201.29
485.00	243.42
485.18	271.50
485.35	194.26
485.53	283.20
485.71	238.73
485.89	245.76
486.07	241.08
486.25	372.15
486.43	231.71
486.61	311.29
486.78	231.71
486.96	241.08
487.14	241.08
487.32	278.52
487.50	346.40
487.68	294.91
487.85	229.37
488.03	250.44
488.21	273.84
488.39	236.39
488.57	250.44
488.75	259.80
488.92	482.15
489.10	222.35
489.28	318.31
489.46	220.01
489.64	262.14
489.81	243.42
489.99	236.39
490.17	287.89
490.35	330.02
490.53	266.82
490.70	257.46
490.88	292.57
491.06	215.33
491.24	325.33
491.41	393.21
491.59	205.97
491.77	283.20
491.95	224.69
492.13	196.60
492.30	266.82
492.48	271.50
492.66	236.39
492.84	292.57
493.01	259.80
493.19	292.57
493.37	339.38
493.54	236.39
493.72	262.14
493.90	250.44
494.08	196.60
494.25	294.91
494.43	301.93
494.61	271.50
494.79	236.39
494.96	191.92
495.14	259.80
495.32	271.50
495.49	285.55
495.67	264.48
495.85	191.92
496.02	285.55
496.20	358.10
496.38	325.33
496.55	222.35
496.73	250.44
496.91	224.69
497.09	191.92
497.26	259.80
497.44	262.14
497.62	278.52
497.79	276.18
497.97	318.31
498.14	299.59
498.32	285.55
498.50	292.57
498.67	250.44
498.85	236.39
499.03	210.65
499.20	210.65
499.38	196.60
499.56	217.67
499.73	220.01
499.91	304.27
500.08	255.12
500.26	266.82
500.44	236.39
500.61	203.63
500.79	196.60
500.97	227.03
501.14	332.36
501.32	215.33
501.49	248.10
501.67	231.71
501.84	294.91
502.02	266.82
502.20	367.46
502.37	320.65
502.55	269.16
502.72	287.89
502.90	212.99
503.07	304.27
503.25	248.10
503.43	229.37
503.60	229.37
503.78	220.01
503.95	259.80
504.13	238.73
504.30	238.73
504.48	273.84
504.65	334.70
504.83	285.55
505.01	161.50
505.18	210.65
505.36	292.57
505.53	201.29
505.71	245.76
505.88	229.37
506.06	159.16
506.23	236.39
506.41	173.20
506.58	308.95
506.76	311.29
506.93	208.31
507.11	222.35
507.28	259.80
507.46	273.84
507.63	278.52
507.81	259.80
507.98	252.78
508.16	278.52
508.33	278.52
508.50	189.58
508.68	264.48
508.85	210.65
509.03	243.42
509.20	250.44
509.38	264.48
509.55	299.59
509.73	301.93
509.90	273.84
510.08	287.89
510.25	257.46
510.42	266.82
510.60	255.12
510.77	276.18
510.95	262.14
511.12	348.74
511.30	402.57
511.47	283.20
511.64	334.70
511.82	297.25
511.99	299.59
512.17	196.60
512.34	306.61
512.51	262.14
512.69	248.10
512.86	294.91
513.04	271.50
513.21	245.76
513.38	299.59
513.56	187.24
513.73	287.89
513.90	278.52
514.08	311.29
514.25	243.42
514.43	278.52
514.60	173.20
514.77	266.82
514.95	315.97
515.12	215.33
515.29	266.82
515.47	234.05
515.64	259.80
515.81	271.50
515.99	220.01
516.16	351.08
516.33	259.80
516.51	217.67
516.68	257.46
516.85	259.80
517.03	262.14
517.20	224.69
517.37	220.01
517.54	283.20
517.72	229.37
517.89	285.55
518.06	234.05
518.24	351.08
518.41	283.20
518.58	236.39
518.75	308.95
518.93	210.65
519.10	297.25
519.27	222.35
519.45	264.48
519.62	255.12
519.79	229.37
519.96	269.16
520.14	290.23
520.31	290.23
520.48	294.91
520.65	308.95
520.83	259.80
521.00	241.08
521.17	292.57
521.34	250.44
521.52	245.76
521.69	264.48
521.86	301.93
522.03	299.59
522.20	315.97
522.38	271.50
522.55	285.55
522.72	212.99
522.89	294.91
523.07	269.16
523.24	208.31
523.41	229.37
523.58	339.38
523.75	215.33
523.92	236.39
524.10	248.10
524.27	238.73
524.44	259.80
524.61	259.80
524.78	294.91
524.96	304.27
525.13	248.10
525.30	313.63
525.47	248.10
525.64	285.55
525.81	276.18
525.98	311.29
526.16	308.95
526.33	205.97
526.50	194.26
526.67	259.80
526.84	259.80
527.01	248.10
527.18	269.16
527.36	318.31
527.53	294.91
527.70	346.40
527.87	283.20
528.04	201.29
528.21	227.03
528.38	320.65
528.55	271.50
528.72	269.16
528.89	299.59
529.07	273.84
529.24	276.18
529.41	304.27
529.58	257.46
529.75	269.16
529.92	287.89
530.09	285.55
530.26	322.99
530.43	276.18
530.60	259.80
530.77	318.31
530.94	294.91
531.11	234.05
531.28	292.57
531.46	276.18
531.63	269.16
531.80	292.57
531.97	313.63
532.14	280.86
532.31	276.18
532.48	304.27
532.65	376.83
532.82	337.04
532.99	388.53
533.16	351.08
533.33	351.08
533.50	304.27
533.67	320.65
533.84	449.38
534.01	409.59
534.18	381.51
534.35	365.12
534.52	266.82
534.69	322.99
534.86	297.25
535.03	203.63
535.20	283.20
535.37	318.31
535.54	339.38
535.71	308.95
535.88	351.08
536.05	353.42
536.22	339.38
536.38	283.20
536.55	285.55
536.72	290.23
536.89	173.20
537.06	273.84
537.23	255.12
537.40	325.33
537.57	299.59
537.74	355.76
537.91	266.82
538.08	348.74
538.25	372.15
538.42	278.52
538.59	344.06
538.75	285.55
538.92	287.89
539.09	374.49
539.26	423.64
539.43	540.66
539.60	1029.84
539.77	1526.03
539.94	1378.58
540.11	976.00
540.28	720.88
540.44	631.94
540.61	568.75
540.78	489.17
540.95	491.51
541.12	531.30
541.29	507.90
541.46	643.65
541.62	575.77
541.79	580.45
541.96	557.05
542.13	571.09
542.30	543.00
542.47	535.98
542.63	433.00
542.80	498.53
542.97	512.58
543.14	559.39
543.31	510.24
543.48	524.28
543.64	519.60
543.81	493.85
543.98	444.70
544.15	461.09
544.32	512.58
544.48	528.96
544.65	451.72
544.82	510.24
544.99	517.26
545.16	486.83
545.32	545.34
545.49	807.48
545.66	961.96
545.83	1109.41
546.00	1097.71
546.16	767.70
546.33	631.94
546.50	603.86
546.67	496.19
546.83	435.34
547.00	479.81
547.17	390.87
547.34	498.53
547.50	505.56
547.67	327.68
547.84	344.06
548.00	472.79
548.17	332.36
548.34	423.64
548.51	315.97
548.67	402.57
548.84	348.74
549.01	337.04
549.18	397.89
549.34	381.51
549.51	362.78
549.68	344.06
549.84	381.51
550.01	308.95
550.18	447.04
550.34	456.40
550.51	322.99
550.68	435.34
550.84	386.19
551.01	280.86
551.18	285.55
551.34	332.36
551.51	276.18
551.68	390.87
551.84	360.44
552.01	374.49
552.18	372.15
552.34	353.42
552.51	294.91
552.68	294.91
552.84	299.59
553.01	327.68
553.18	315.97
553.34	337.04
553.51	273.84
553.67	304.27
553.84	313.63
554.01	269.16
554.17	241.08
554.34	166.18
554.51	269.16
554.67	243.42
554.84	334.70
555.00	252.78
555.17	217.67
555.33	374.49
555.50	290.23
555.67	322.99
555.83	278.52
556.00	362.78
556.16	461.09
556.33	327.68
556.50	241.08
556.66	259.80
556.83	301.93
556.99	294.91
557.16	252.78
557.32	248.10
557.49	290.23
557.65	248.10
557.82	234.05
557.98	252.78
558.15	191.92
558.32	278.52
558.48	227.03
558.65	222.35
558.81	315.97
558.98	227.03
559.14	266.82
559.31	234.05
559.47	285.55
559.64	224.69
559.80	313.63
559.97	285.55
560.13	301.93
560.30	280.86
560.46	264.48
560.63	210.65
560.79	269.16
560.96	376.83
561.12	243.42
561.29	248.10
561.45	283.20
561.61	229.37
561.78	318.31
561.94	283.20
562.11	306.61
562.27	255.12
562.44	248.10
562.60	273.84
562.77	259.80
562.93	243.42
563.10	189.58
563.26	266.82
563.42	264.48
563.59	287.89
563.75	264.48
563.92	278.52
564.08	325.33
564.24	248.10
564.41	278.52
564.57	241.08
564.74	271.50
564.90	266.82
565.07	236.39
565.23	266.82
565.39	257.46
565.56	344.06
565.72	369.80
565.88	278.52
566.05	231.71
566.21	241.08
566.38	212.99
566.54	257.46
566.70	308.95
566.87	285.55
567.03	292.57
567.19	255.12
567.36	238.73
567.52	294.91
567.68	278.52
567.85	205.97
568.01	297.25
568.17	301.93
568.34	220.01
568.50	266.82
568.66	297.25
568.83	330.02
568.99	243.42
569.15	280.86
569.32	208.31
569.48	262.14
569.64	182.56
569.81	325.33
569.97	313.63
570.13	259.80
570.30	287.89
570.46	311.29
570.62	177.88
570.78	290.23
570.95	299.59
571.11	301.93
571.27	334.70
571.43	280.86
571.60	414.27
571.76	238.73
571.92	306.61
572.09	252.78
572.25	243.42
572.41	337.04
572.57	266.82
572.74	308.95
572.90	290.23
573.06	252.78
573.22	322.99
573.38	231.71
573.55	297.25
573.71	238.73
573.87	318.31
574.03	280.86
574.20	337.04
574.36	355.76
574.52	294.91
574.68	285.55
574.84	322.99
575.01	306.61
575.17	304.27
575.33	311.29
575.49	351.08
575.65	334.70
575.82	325.33
575.98	507.90
576.14	678.76
576.30	678.76
576.46	566.41
576.62	535.98
576.79	531.30
576.95	484.49
577.11	402.57
577.27	259.80
577.43	376.83
577.59	346.40
577.75	372.15
577.92	250.44
578.08	301.93
578.24	348.74
578.40	334.70
578.56	388.53
578.72	557.05
578.88	510.24
579.04	440.02
579.21	351.08
579.37	369.80
579.53	348.74
579.69	397.89
579.85	353.42
580.01	425.98
580.17	463.43
580.33	379.17
580.49	402.57
580.65	409.59
580.82	386.19
580.98	367.46
581.14	390.87
581.30	468.11
581.46	472.79
581.62	594.50
581.78	667.05
581.94	606.20
582.10	564.07
582.26	440.02
582.42	486.83
582.58	425.98
582.74	503.22
582.90	407.25
583.06	486.83
583.22	470.45
583.38	519.60
583.54	500.87
583.70	585.13
583.86	629.60
584.02	695.14
584.18	915.15
584.34	1071.97
584.50	2703.32
584.66	19803.27
584.82	48751.02
584.98	58944.05
585.14	54967.48
585.30	36875.14
585.46	22874.06
585.62	14033.85
585.78	6626.06
585.94	2736.09
586.10	1357.51
586.26	924.51
586.42	800.46
586.58	751.31
586.74	608.54
586.90	711.52
587.06	606.20
587.22	596.84
587.38	636.63
587.54	1160.91
587.70	2977.16
587.86	4599.15
588.02	5027.47
588.18	3695.71
588.34	2377.98
588.49	1577.52
588.65	1011.11
588.81	617.90
588.97	386.19
589.13	362.78
589.29	346.40
589.45	318.31
589.61	404.91
589.77	456.40
589.93	458.74
590.08	503.22
590.24	503.22
590.40	451.72
590.56	442.36
590.72	341.72
590.88	308.95
591.04	369.80
591.20	299.59
591.35	346.40
591.51	381.51
591.67	355.76
591.83	346.40
591.99	402.57
592.15	344.06
592.31	337.04
592.46	409.59
592.62	496.19
592.78	348.74
592.94	395.55
593.10	416.62
593.26	430.66
593.41	444.70
593.57	482.15
593.73	664.71
593.89	2450.54
594.05	6143.91
594.20	8699.77
594.36	7964.84
594.52	5310.68
594.68	3506.12
594.84	2363.94
594.99	1296.66
595.15	760.67
595.31	491.51
595.47	440.02
595.62	341.72
595.78	322.99
595.94	358.10
596.10	411.93
596.25	369.80
596.41	409.59
596.57	376.83
596.73	437.68
596.88	545.34
597.04	1303.68
597.20	1982.43
597.36	2174.36
597.51	1605.61
597.67	1135.16
597.83	807.48
597.99	641.31
598.14	414.27
598.30	395.55
598.46	369.80
598.61	411.93
598.77	381.51
598.93	444.70
599.09	397.89
599.24	351.08
599.40	318.31
599.56	334.70
599.71	369.80
599.87	297.25
600.03	320.65
600.18	313.63
600.34	294.91
600.50	290.23
600.65	259.80
600.81	299.59
600.97	294.91
601.12	287.89
601.28	306.61
601.44	353.42
601.59	212.99
601.75	327.68
601.91	269.16
602.06	301.93
602.22	451.72
602.37	727.91
602.53	1579.86
602.69	2143.93
602.84	2141.59
603.00	1671.14
603.16	1205.38
603.31	891.74
603.47	594.50
603.62	444.70
603.78	400.23
603.94	318.31
604.09	341.72
604.25	332.36
604.40	292.57
604.56	353.42
604.71	355.76
604.87	390.87
605.03	395.55
605.18	318.31
605.34	283.20
605.49	308.95
605.65	369.80
605.80	353.42
605.96	322.99
606.12	346.40
606.27	388.53
606.43	379.17
606.58	381.51
606.74	739.61
606.89	3089.51
607.05	5657.07
607.20	7192.47
607.36	5841.98
607.51	4070.19
607.67	2729.06
607.82	1935.62
607.98	1198.35
608.13	674.07
608.29	533.64
608.44	552.37
608.60	468.11
608.75	650.67
608.91	1177.29
609.06	4622.56
609.22	9799.82
609.37	12128.66
609.53	10721.99
609.68	7328.22
609.84	5020.45
609.99	3499.10
610.15	1928.60
