SpectraSuite Data File
++++++++++++++++++++++++++++++++++++
Date: Fri Oct 04 11:33:53 GMT-05:00 2013
User: price-jones
Dark Spectrum Present: No
Reference Spectrum Present: No
Number of Sampled Component Spectra: 1
Spectrometers: USB2+H05261
Integration Time (usec): 100000 (USB2+H05261)
Spectra Averaged: 1 (USB2+H05261)
Boxcar Smoothing: 0 (USB2+H05261)
Correct for Electrical Dark: No (USB2+H05261)
Strobe/Lamp Enabled: No (USB2+H05261)
Correct for Detector Non-linearity: No (USB2+H05261)
Correct for Stray Light: No (USB2+H05261)
Number of Pixels in Processed Spectrum: 2048
>>>>>Begin Processed Spectral Data<<<<<
365.73	112.35
365.92	112.35
366.12	112.35
366.32	0.00
366.52	0.00
366.72	49.15
366.91	0.00
367.11	0.00
367.31	7.02
367.51	0.00
367.70	0.00
367.90	21.06
368.10	9.36
368.30	0.00
368.49	0.00
368.69	14.04
368.89	0.00
369.09	0.00
369.28	2.34
369.48	0.00
369.68	28.09
369.87	53.83
370.07	58.51
370.27	56.17
370.47	37.45
370.66	30.43
370.86	46.81
371.06	152.13
371.25	166.18
371.45	42.13
371.65	114.69
371.84	114.69
372.04	86.60
372.24	28.09
372.44	79.58
372.63	84.26
372.83	217.67
373.03	135.75
373.22	163.84
373.42	131.07
373.62	100.64
373.81	175.54
374.01	248.10
374.21	203.63
374.40	102.98
374.60	175.54
374.79	140.43
374.99	135.75
375.19	198.95
375.38	180.22
375.58	187.24
375.78	231.71
375.97	21.06
376.17	156.82
376.37	191.92
376.56	149.79
376.76	154.48
376.95	128.73
377.15	175.54
377.35	166.18
377.54	124.05
377.74	170.86
377.93	126.39
378.13	163.84
378.33	131.07
378.52	173.20
378.72	182.56
378.91	184.90
379.11	110.01
379.31	67.88
379.50	117.03
379.70	170.86
379.89	100.64
380.09	196.60
380.28	128.73
380.48	88.94
380.68	177.88
380.87	91.28
381.07	102.98
381.26	224.69
381.46	170.86
381.65	198.95
381.85	102.98
382.04	117.03
382.24	163.84
382.43	131.07
382.63	114.69
382.83	149.79
383.02	189.58
383.22	191.92
383.41	173.20
383.61	86.60
383.80	131.07
384.00	121.71
384.19	114.69
384.39	191.92
384.58	217.67
384.78	152.13
384.97	163.84
385.17	128.73
385.36	156.82
385.56	145.11
385.75	177.88
385.95	159.16
386.14	198.95
386.34	163.84
386.53	128.73
386.72	114.69
386.92	105.32
387.11	126.39
387.31	70.22
387.50	126.39
387.70	74.90
387.89	138.09
388.09	95.96
388.28	107.66
388.48	177.88
388.67	145.11
388.86	175.54
389.06	173.20
389.25	189.58
389.45	102.98
389.64	168.52
389.84	131.07
390.03	124.05
390.22	168.52
390.42	131.07
390.61	131.07
390.81	154.48
391.00	121.71
391.19	138.09
391.39	67.88
391.58	163.84
391.78	140.43
391.97	154.48
392.16	140.43
392.36	170.86
392.55	191.92
392.75	182.56
392.94	60.85
393.13	77.24
393.33	133.41
393.52	177.88
393.71	149.79
393.91	39.79
394.10	100.64
394.29	149.79
394.49	163.84
394.68	248.10
394.88	124.05
395.07	203.63
395.26	86.60
395.46	119.37
395.65	224.69
395.84	147.45
396.04	203.63
396.23	212.99
396.42	107.66
396.62	201.29
396.81	119.37
397.00	154.48
397.19	117.03
397.39	91.28
397.58	187.24
397.77	117.03
397.97	126.39
398.16	142.77
398.35	138.09
398.55	154.48
398.74	152.13
398.93	149.79
399.12	149.79
399.32	238.73
399.51	170.86
399.70	238.73
399.90	170.86
400.09	121.71
400.28	152.13
400.47	163.84
400.67	121.71
400.86	189.58
401.05	161.50
401.24	184.90
401.44	208.31
401.63	177.88
401.82	142.77
402.01	133.41
402.21	210.65
402.40	147.45
402.59	105.32
402.78	229.37
402.97	168.52
403.17	77.24
403.36	128.73
403.55	184.90
403.74	142.77
403.93	184.90
404.13	273.84
404.32	210.65
404.51	236.39
404.70	215.33
404.89	117.03
405.09	201.29
405.28	194.26
405.47	152.13
405.66	184.90
405.85	128.73
406.05	107.66
406.24	149.79
406.43	147.45
406.62	147.45
406.81	184.90
407.00	147.45
407.20	177.88
407.39	170.86
407.58	102.98
407.77	154.48
407.96	140.43
408.15	107.66
408.34	189.58
408.54	133.41
408.73	88.94
408.92	145.11
409.11	208.31
409.30	215.33
409.49	173.20
409.68	180.22
409.87	86.60
410.07	145.11
410.26	135.75
410.45	222.35
410.64	156.82
410.83	145.11
411.02	180.22
411.21	191.92
411.40	236.39
411.59	189.58
411.78	128.73
411.98	159.16
412.17	131.07
412.36	170.86
412.55	177.88
412.74	154.48
412.93	205.97
413.12	149.79
413.31	191.92
413.50	100.64
413.69	168.52
413.88	248.10
414.07	93.62
414.26	194.26
414.45	163.84
414.64	243.42
414.83	149.79
415.02	217.67
415.22	205.97
415.41	159.16
415.60	217.67
415.79	131.07
415.98	259.80
416.17	191.92
416.36	252.78
416.55	191.92
416.74	182.56
416.93	229.37
417.12	133.41
417.31	180.22
417.50	234.05
417.69	182.56
417.88	229.37
418.07	198.95
418.26	138.09
418.45	255.12
418.64	177.88
418.83	121.71
419.02	196.60
419.21	189.58
419.39	161.50
419.58	287.89
419.77	220.01
419.96	152.13
420.15	196.60
420.34	126.39
420.53	124.05
420.72	198.95
420.91	135.75
421.10	212.99
421.29	154.48
421.48	189.58
421.67	210.65
421.86	170.86
422.05	131.07
422.24	161.50
422.43	128.73
422.61	124.05
422.80	95.96
422.99	168.52
423.18	182.56
423.37	175.54
423.56	203.63
423.75	203.63
423.94	177.88
424.13	131.07
424.32	107.66
424.50	180.22
424.69	152.13
424.88	175.54
425.07	128.73
425.26	217.67
425.45	147.45
425.64	231.71
425.83	215.33
426.01	180.22
426.20	168.52
426.39	180.22
426.58	180.22
426.77	147.45
426.96	210.65
427.15	163.84
427.33	222.35
427.52	182.56
427.71	191.92
427.90	210.65
428.09	117.03
428.28	161.50
428.46	182.56
428.65	217.67
428.84	203.63
429.03	107.66
429.22	138.09
429.40	224.69
429.59	149.79
429.78	241.08
429.97	170.86
430.16	217.67
430.34	128.73
430.53	184.90
430.72	168.52
430.91	177.88
431.10	119.37
431.28	110.01
431.47	180.22
431.66	222.35
431.85	196.60
432.03	168.52
432.22	215.33
432.41	126.39
432.60	189.58
432.79	191.92
432.97	241.08
433.16	306.61
433.35	217.67
433.54	264.48
433.72	189.58
433.91	252.78
434.10	187.24
434.28	156.82
434.47	161.50
434.66	203.63
434.85	271.50
435.03	166.18
435.22	346.40
435.41	397.89
435.59	346.40
435.78	327.68
435.97	201.29
436.16	177.88
436.34	175.54
436.53	220.01
436.72	236.39
436.90	196.60
437.09	229.37
437.28	217.67
437.46	191.92
437.65	189.58
437.84	191.92
438.02	243.42
438.21	163.84
438.40	208.31
438.58	234.05
438.77	154.48
438.96	220.01
439.14	110.01
439.33	152.13
439.52	175.54
439.70	182.56
439.89	243.42
440.08	159.16
440.26	124.05
440.45	175.54
440.63	184.90
440.82	138.09
441.01	234.05
441.19	257.46
441.38	131.07
441.57	205.97
441.75	198.95
441.94	222.35
442.12	210.65
442.31	142.77
442.50	201.29
442.68	196.60
442.87	191.92
443.05	142.77
443.24	217.67
443.43	168.52
443.61	182.56
443.80	243.42
443.98	245.76
444.17	191.92
444.35	135.75
444.54	196.60
444.73	194.26
444.91	215.33
445.10	191.92
445.28	135.75
445.47	170.86
445.65	234.05
445.84	163.84
446.02	255.12
446.21	175.54
446.39	131.07
446.58	257.46
446.77	201.29
446.95	180.22
447.14	156.82
447.32	198.95
447.51	152.13
447.69	180.22
447.88	168.52
448.06	227.03
448.25	177.88
448.43	187.24
448.62	189.58
448.80	191.92
448.99	203.63
449.17	168.52
449.36	198.95
449.54	198.95
449.73	140.43
449.91	222.35
450.10	124.05
450.28	201.29
450.46	227.03
450.65	184.90
450.83	212.99
451.02	201.29
451.20	198.95
451.39	236.39
451.57	149.79
451.76	191.92
451.94	196.60
452.13	215.33
452.31	145.11
452.49	170.86
452.68	107.66
452.86	175.54
453.05	269.16
453.23	222.35
453.42	201.29
453.60	163.84
453.78	187.24
453.97	163.84
454.15	187.24
454.34	210.65
454.52	182.56
454.70	229.37
454.89	215.33
455.07	128.73
455.26	173.20
455.44	243.42
455.62	145.11
455.81	140.43
455.99	175.54
456.17	236.39
456.36	255.12
456.54	222.35
456.73	168.52
456.91	163.84
457.09	255.12
457.28	259.80
457.46	229.37
457.64	152.13
457.83	217.67
458.01	187.24
458.19	152.13
458.38	180.22
458.56	187.24
458.74	187.24
458.93	182.56
459.11	168.52
459.29	147.45
459.48	159.16
459.66	250.44
459.84	173.20
460.03	287.89
460.21	252.78
460.39	168.52
460.57	301.93
460.76	210.65
460.94	161.50
461.12	278.52
461.31	243.42
461.49	184.90
461.67	189.58
461.85	175.54
462.04	168.52
462.22	624.92
462.40	245.76
462.59	203.63
462.77	243.42
462.95	224.69
463.13	187.24
463.32	266.82
463.50	105.32
463.68	217.67
463.86	189.58
464.05	224.69
464.23	201.29
464.41	271.50
464.59	205.97
464.78	208.31
464.96	227.03
465.14	212.99
465.32	191.92
465.50	163.84
465.69	187.24
465.87	175.54
466.05	234.05
466.23	163.84
466.41	184.90
466.60	191.92
466.78	210.65
466.96	220.01
467.14	173.20
467.32	208.31
467.51	210.65
467.69	182.56
467.87	320.65
468.05	161.50
468.23	266.82
468.41	180.22
468.60	231.71
468.78	191.92
468.96	203.63
469.14	266.82
469.32	203.63
469.50	145.11
469.69	208.31
469.87	205.97
470.05	208.31
470.23	252.78
470.41	133.41
470.59	161.50
470.77	205.97
470.95	283.20
471.14	220.01
471.32	227.03
471.50	224.69
471.68	217.67
471.86	191.92
472.04	124.05
472.22	161.50
472.40	163.84
472.58	259.80
472.77	227.03
472.95	252.78
473.13	212.99
473.31	220.01
473.49	224.69
473.67	152.13
473.85	248.10
474.03	259.80
474.21	173.20
474.39	189.58
474.57	245.76
474.75	245.76
474.93	180.22
475.12	182.56
475.30	231.71
475.48	173.20
475.66	154.48
475.84	241.08
476.02	201.29
476.20	194.26
476.38	156.82
476.56	196.60
476.74	217.67
476.92	224.69
477.10	201.29
477.28	212.99
477.46	152.13
477.64	238.73
477.82	196.60
478.00	161.50
478.18	156.82
478.36	224.69
478.54	252.78
478.72	238.73
478.90	196.60
479.08	184.90
479.26	173.20
479.44	220.01
479.62	114.69
479.80	208.31
479.98	297.25
480.16	194.26
480.34	248.10
480.52	299.59
480.70	236.39
480.88	210.65
481.06	217.67
481.24	248.10
481.41	229.37
481.59	184.90
481.77	180.22
481.95	154.48
482.13	257.46
482.31	238.73
482.49	168.52
482.67	236.39
482.85	278.52
483.03	245.76
483.21	241.08
483.39	189.58
483.57	224.69
483.74	269.16
483.92	205.97
484.10	222.35
484.28	234.05
484.46	238.73
484.64	177.88
484.82	278.52
485.00	189.58
485.18	215.33
485.35	234.05
485.53	154.48
485.71	208.31
485.89	241.08
486.07	243.42
486.25	241.08
486.43	273.84
486.61	224.69
486.78	285.55
486.96	241.08
487.14	257.46
487.32	222.35
487.50	198.95
487.68	266.82
487.85	271.50
488.03	245.76
488.21	241.08
488.39	189.58
488.57	259.80
488.75	245.76
488.92	470.45
489.10	194.26
489.28	322.99
489.46	161.50
489.64	234.05
489.81	290.23
489.99	276.18
490.17	194.26
490.35	283.20
490.53	212.99
490.70	220.01
490.88	243.42
491.06	259.80
491.24	210.65
491.41	156.82
491.59	259.80
491.77	205.97
491.95	177.88
492.13	173.20
492.30	294.91
492.48	264.48
492.66	191.92
492.84	264.48
493.01	259.80
493.19	180.22
493.37	250.44
493.54	215.33
493.72	278.52
493.90	259.80
494.08	210.65
494.25	290.23
494.43	292.57
494.61	299.59
494.79	196.60
494.96	208.31
495.14	166.18
495.32	341.72
495.49	257.46
495.67	330.02
495.85	215.33
496.02	266.82
496.20	191.92
496.38	306.61
496.55	227.03
496.73	189.58
496.91	222.35
497.09	299.59
497.26	360.44
497.44	231.71
497.62	177.88
497.79	191.92
497.97	287.89
498.14	262.14
498.32	287.89
498.50	294.91
498.67	273.84
498.85	245.76
499.03	290.23
499.20	297.25
499.38	271.50
499.56	191.92
499.73	348.74
499.91	308.95
500.08	245.76
500.26	234.05
500.44	187.24
500.61	252.78
500.79	194.26
500.97	266.82
501.14	264.48
501.32	170.86
501.49	252.78
501.67	269.16
501.84	248.10
502.02	245.76
502.20	285.55
502.37	245.76
502.55	269.16
502.72	266.82
502.90	262.14
503.07	294.91
503.25	308.95
503.43	285.55
503.60	273.84
503.78	238.73
503.95	304.27
504.13	212.99
504.30	259.80
504.48	220.01
504.65	238.73
504.83	257.46
505.01	217.67
505.18	252.78
505.36	308.95
505.53	236.39
505.71	227.03
505.88	245.76
506.06	245.76
506.23	201.29
506.41	224.69
506.58	175.54
506.76	238.73
506.93	245.76
507.11	234.05
507.28	222.35
507.46	273.84
507.63	297.25
507.81	238.73
507.98	236.39
508.16	208.31
508.33	297.25
508.50	266.82
508.68	259.80
508.85	269.16
509.03	245.76
509.20	245.76
509.38	189.58
509.55	175.54
509.73	318.31
509.90	285.55
510.08	264.48
510.25	344.06
510.42	229.37
510.60	248.10
510.77	278.52
510.95	262.14
511.12	273.84
511.30	259.80
511.47	341.72
511.64	355.76
511.82	292.57
511.99	248.10
512.17	255.12
512.34	248.10
512.51	198.95
512.69	250.44
512.86	273.84
513.04	278.52
513.21	273.84
513.38	236.39
513.56	257.46
513.73	184.90
513.90	276.18
514.08	236.39
514.25	191.92
514.43	290.23
514.60	203.63
514.77	264.48
514.95	294.91
515.12	376.83
515.29	283.20
515.47	255.12
515.64	266.82
515.81	234.05
515.99	250.44
516.16	297.25
516.33	273.84
516.51	325.33
516.68	163.84
516.85	184.90
517.03	173.20
517.20	306.61
517.37	304.27
517.54	259.80
517.72	266.82
517.89	248.10
518.06	201.29
518.24	355.76
518.41	325.33
518.58	234.05
518.75	245.76
518.93	294.91
519.10	290.23
519.27	292.57
519.45	280.86
519.62	262.14
519.79	264.48
519.96	203.63
520.14	245.76
520.31	273.84
520.48	175.54
520.65	248.10
520.83	334.70
521.00	271.50
521.17	273.84
521.34	259.80
521.52	346.40
521.69	301.93
521.86	212.99
522.03	360.44
522.20	346.40
522.38	369.80
522.55	266.82
522.72	276.18
522.89	276.18
523.07	238.73
523.24	287.89
523.41	269.16
523.58	184.90
523.75	201.29
523.92	271.50
524.10	285.55
524.27	273.84
524.44	238.73
524.61	285.55
524.78	224.69
524.96	344.06
525.13	205.97
525.30	362.78
525.47	322.99
525.64	243.42
525.81	285.55
525.98	301.93
526.16	248.10
526.33	276.18
526.50	234.05
526.67	250.44
526.84	194.26
527.01	245.76
527.18	278.52
527.36	325.33
527.53	294.91
527.70	255.12
527.87	238.73
528.04	297.25
528.21	337.04
528.38	292.57
528.55	355.76
528.72	313.63
528.89	341.72
529.07	222.35
529.24	322.99
529.41	322.99
529.58	283.20
529.75	243.42
529.92	315.97
530.09	243.42
530.26	318.31
530.43	215.33
530.60	313.63
530.77	285.55
530.94	266.82
531.11	325.33
531.28	301.93
531.46	320.65
531.63	320.65
531.80	252.78
531.97	332.36
532.14	360.44
532.31	311.29
532.48	301.93
532.65	397.89
532.82	437.68
532.99	372.15
533.16	327.68
533.33	322.99
533.50	283.20
533.67	358.10
533.84	411.93
534.01	489.17
534.18	395.55
534.35	365.12
534.52	325.33
534.69	344.06
534.86	266.82
535.03	241.08
535.20	276.18
535.37	339.38
535.54	273.84
535.71	283.20
535.88	358.10
536.05	358.10
536.22	266.82
536.38	322.99
536.55	283.20
536.72	311.29
536.89	243.42
537.06	332.36
537.23	287.89
537.40	308.95
537.57	266.82
537.74	344.06
537.91	320.65
538.08	271.50
538.25	365.12
538.42	400.23
538.59	365.12
538.75	294.91
538.92	351.08
539.09	409.59
539.26	334.70
539.43	512.58
539.60	887.06
539.77	1514.33
539.94	1593.90
540.11	1125.80
540.28	681.10
540.44	655.35
540.61	454.06
540.78	479.81
540.95	454.06
541.12	526.62
541.29	435.34
541.46	489.17
541.62	496.19
541.79	458.74
541.96	447.04
542.13	411.93
542.30	421.30
542.47	491.51
542.63	475.13
542.80	411.93
542.97	498.53
543.14	482.15
543.31	468.11
543.48	442.36
543.64	437.68
543.81	477.47
543.98	449.38
544.15	454.06
544.32	454.06
544.48	491.51
544.65	512.58
544.82	437.68
544.99	505.56
545.16	484.49
545.32	500.87
545.49	655.35
545.66	823.87
545.83	896.43
546.00	730.25
546.16	592.16
546.33	559.39
546.50	407.25
546.67	461.09
546.83	477.47
547.00	353.42
547.17	344.06
547.34	379.17
547.50	407.25
547.67	430.66
547.84	418.96
548.00	290.23
548.17	374.49
548.34	334.70
548.51	418.96
548.67	425.98
548.84	433.00
549.01	313.63
549.18	322.99
549.34	402.57
549.51	346.40
549.68	358.10
549.84	290.23
550.01	351.08
550.18	369.80
550.34	369.80
550.51	315.97
550.68	428.32
550.84	344.06
551.01	250.44
551.18	264.48
551.34	390.87
551.51	327.68
551.68	355.76
551.84	341.72
552.01	238.73
552.18	360.44
552.34	332.36
552.51	271.50
552.68	344.06
552.84	285.55
553.01	308.95
553.18	292.57
553.34	266.82
553.51	222.35
553.67	325.33
553.84	346.40
554.01	332.36
554.17	374.49
554.34	208.31
554.51	280.86
554.67	252.78
554.84	304.27
555.00	308.95
555.17	313.63
555.33	297.25
555.50	290.23
555.67	327.68
555.83	243.42
556.00	273.84
556.16	428.32
556.33	285.55
556.50	259.80
556.66	318.31
556.83	250.44
556.99	330.02
557.16	327.68
557.32	351.08
557.49	210.65
557.65	337.04
557.82	259.80
557.98	224.69
558.15	229.37
558.32	283.20
558.48	257.46
558.65	245.76
558.81	250.44
558.98	283.20
559.14	259.80
559.31	273.84
559.47	266.82
559.64	276.18
559.80	304.27
559.97	252.78
560.13	271.50
560.30	290.23
560.46	255.12
560.63	339.38
560.79	330.02
560.96	299.59
561.12	297.25
561.29	217.67
561.45	304.27
561.61	271.50
561.78	414.27
561.94	229.37
562.11	227.03
562.27	266.82
562.44	297.25
562.60	280.86
562.77	222.35
562.93	273.84
563.10	241.08
563.26	292.57
563.42	182.56
563.59	245.76
563.75	264.48
563.92	255.12
564.08	360.44
564.24	322.99
564.41	339.38
564.57	208.31
564.74	294.91
564.90	252.78
565.07	386.19
565.23	294.91
565.39	250.44
565.56	362.78
565.72	271.50
565.88	285.55
566.05	308.95
566.21	266.82
566.38	294.91
566.54	318.31
566.70	287.89
566.87	198.95
567.03	227.03
567.19	315.97
567.36	292.57
567.52	252.78
567.68	241.08
567.85	273.84
568.01	222.35
568.17	238.73
568.34	273.84
568.50	344.06
568.66	231.71
568.83	395.55
568.99	301.93
569.15	313.63
569.32	245.76
569.48	243.42
569.64	273.84
569.81	191.92
569.97	257.46
570.13	313.63
570.30	194.26
570.46	255.12
570.62	201.29
570.78	198.95
570.95	140.43
571.11	285.55
571.27	290.23
571.43	308.95
571.60	320.65
571.76	337.04
571.92	344.06
572.09	290.23
572.25	360.44
572.41	278.52
572.57	234.05
572.74	269.16
572.90	294.91
573.06	330.02
573.22	334.70
573.38	308.95
573.55	280.86
573.71	404.91
573.87	269.16
574.03	203.63
574.20	238.73
574.36	294.91
574.52	301.93
574.68	416.62
574.84	322.99
575.01	255.12
575.17	308.95
575.33	294.91
575.49	341.72
575.65	313.63
575.82	318.31
575.98	486.83
576.14	688.12
576.30	760.67
576.46	620.24
576.62	578.11
576.79	512.58
576.95	472.79
577.11	374.49
577.27	252.78
577.43	292.57
577.59	322.99
577.75	313.63
577.92	372.15
578.08	320.65
578.24	330.02
578.40	325.33
578.56	327.68
578.72	416.62
578.88	428.32
579.04	430.66
579.21	351.08
579.37	325.33
579.53	341.72
579.69	372.15
579.85	421.30
580.01	404.91
580.17	414.27
580.33	437.68
580.49	444.70
580.65	447.04
580.82	351.08
580.98	440.02
581.14	374.49
581.30	346.40
581.46	491.51
581.62	573.43
581.78	641.31
581.94	713.86
582.10	500.87
582.26	528.96
582.42	423.64
582.58	489.17
582.74	500.87
582.90	428.32
583.06	521.94
583.22	447.04
583.38	564.07
583.54	458.74
583.70	641.31
583.86	725.57
584.02	814.51
584.18	875.36
584.34	1149.20
584.50	2459.90
584.66	16030.33
584.82	47983.32
584.98	64198.55
585.14	63910.67
585.30	49120.82
585.46	28056.00
585.62	17385.50
585.78	8222.30
585.94	3267.39
586.10	1652.42
586.26	1069.62
586.42	844.93
586.58	814.51
586.74	711.52
586.90	678.76
587.06	678.76
587.22	662.37
587.38	596.84
587.54	1137.50
587.70	2696.30
587.86	5160.88
588.02	6546.48
588.18	4603.83
588.34	2937.37
588.49	1895.83
588.65	1074.31
588.81	624.92
588.97	404.91
589.13	341.72
589.29	365.12
589.45	374.49
589.61	362.78
589.77	444.70
589.93	477.47
590.08	566.41
590.24	507.90
590.40	428.32
590.56	500.87
590.72	397.89
590.88	348.74
591.04	418.96
591.20	400.23
591.35	369.80
591.51	318.31
591.67	409.59
591.83	318.31
591.99	330.02
592.15	381.51
592.31	348.74
592.46	390.87
592.62	461.09
592.78	407.25
592.94	376.83
593.10	379.17
593.26	379.17
593.41	449.38
593.57	484.49
593.73	550.03
593.89	2113.50
594.05	5547.07
594.20	10291.34
594.36	10747.74
594.52	6916.28
594.68	4060.83
594.84	2724.38
594.99	1671.14
595.15	781.74
595.31	526.62
595.47	479.81
595.62	330.02
595.78	381.51
595.94	358.10
596.10	325.33
596.25	388.53
596.41	416.62
596.57	400.23
596.73	372.15
596.88	430.66
597.04	1160.91
597.20	2132.23
597.36	2818.00
597.51	2223.51
597.67	1427.73
597.83	1032.18
597.99	744.29
598.14	533.64
598.30	447.04
598.46	344.06
598.61	479.81
598.77	348.74
598.93	430.66
599.09	416.62
599.24	301.93
599.40	428.32
599.56	325.33
599.71	266.82
599.87	313.63
600.03	337.04
600.18	311.29
600.34	271.50
600.50	262.14
600.65	273.84
600.81	318.31
600.97	449.38
601.12	297.25
601.28	353.42
601.44	264.48
601.59	304.27
601.75	330.02
601.91	315.97
602.06	266.82
602.22	454.06
602.37	622.58
602.53	1439.43
602.69	2553.52
602.84	2979.50
603.00	2118.18
603.16	1444.11
603.31	1039.20
603.47	676.41
603.62	475.13
603.78	454.06
603.94	301.93
604.09	383.85
604.25	393.21
604.40	320.65
604.56	315.97
604.71	311.29
604.87	304.27
605.03	400.23
605.18	355.76
605.34	372.15
605.49	334.70
605.65	358.10
605.80	381.51
605.96	400.23
606.12	346.40
606.27	353.42
606.43	383.85
606.58	423.64
606.74	664.71
606.89	2541.82
607.05	5781.12
607.20	9348.10
607.36	7981.23
607.51	5156.20
607.67	3253.34
607.82	2225.85
607.98	1322.40
608.13	671.73
608.29	554.71
608.44	486.83
608.60	484.49
608.75	552.37
608.91	964.30
609.06	3969.55
609.22	9469.81
609.37	16140.33
609.53	14558.13
609.68	9446.40
609.84	5895.81
609.99	3964.87
