SpectraSuite Data File
++++++++++++++++++++++++++++++++++++
Date: Mon Oct 07 14:52:59 GMT-05:00 2013
User: price-jones
Dark Spectrum Present: No
Reference Spectrum Present: No
Number of Sampled Component Spectra: 1
Spectrometers: USB2+H05261
Integration Time (usec): 100000 (USB2+H05261)
Spectra Averaged: 1 (USB2+H05261)
Boxcar Smoothing: 0 (USB2+H05261)
Correct for Electrical Dark: No (USB2+H05261)
Strobe/Lamp Enabled: No (USB2+H05261)
Correct for Detector Non-linearity: No (USB2+H05261)
Correct for Stray Light: No (USB2+H05261)
Number of Pixels in Processed Spectrum: 2048
>>>>>Begin Processed Spectral Data<<<<<
365.73	0.00
365.92	0.00
366.12	0.00
366.32	0.00
366.52	0.00
366.72	0.00
366.91	0.00
367.11	0.00
367.31	0.00
367.51	0.00
367.70	0.00
367.90	0.00
368.10	0.00
368.30	0.00
368.49	0.00
368.69	0.00
368.89	0.00
369.09	0.00
369.28	0.00
369.48	0.00
369.68	0.00
369.87	0.00
370.07	0.00
370.27	0.00
370.47	428.32
370.66	2616.72
370.86	3276.75
371.06	3552.93
371.25	3552.93
371.45	3145.68
371.65	2935.03
371.84	2789.92
372.04	2916.31
372.24	3201.85
372.44	3171.43
372.63	3260.37
372.83	3021.63
373.03	2612.04
373.22	2380.32
373.42	2635.44
373.62	2904.60
373.81	3325.90
374.01	3262.71
374.21	2911.63
374.40	2708.00
374.60	2808.64
374.79	3206.53
374.99	3655.92
375.19	4039.76
375.38	4058.49
375.58	3665.28
375.78	3765.92
375.97	3803.37
376.17	3875.93
376.37	3831.46
376.56	3761.24
376.76	4355.74
376.95	4531.28
377.15	4903.42
377.35	4975.98
377.54	5249.82
377.74	5341.10
377.93	5336.42
378.13	5184.29
378.33	5043.85
378.52	4503.19
378.72	4454.04
378.91	4264.46
379.11	4194.24
379.31	4025.72
379.50	4016.36
379.70	4386.16
379.89	4755.97
380.09	5041.51
380.28	5282.59
380.48	5146.84
380.68	5111.73
380.87	5093.01
381.07	4739.58
381.26	4234.03
381.46	3964.87
381.65	3829.12
381.85	3756.56
382.04	3637.19
382.24	3353.99
382.43	3241.64
382.63	3178.45
382.83	3084.83
383.02	3227.60
383.22	3281.43
383.41	3180.79
383.61	3459.31
383.80	3833.80
384.00	4414.25
384.19	5018.11
384.39	5240.46
384.58	5247.48
384.78	4961.94
384.97	5046.20
385.17	4823.84
385.36	4580.43
385.56	4299.56
385.75	4528.94
385.95	4980.66
386.14	5341.10
386.34	5432.38
386.53	5095.35
386.72	4734.90
386.92	4875.34
387.11	5011.09
387.31	5378.55
387.50	5322.38
387.70	5004.07
387.89	4884.70
388.09	5060.24
388.28	5102.37
388.48	5118.75
388.67	5678.14
388.86	6207.10
389.06	6675.21
389.25	6867.13
389.45	6836.70
389.64	6949.05
389.84	6855.43
390.03	6754.79
390.22	6829.68
390.42	6977.14
390.61	7377.37
390.81	7889.95
391.00	8266.77
391.19	8088.89
391.39	7534.18
391.58	7377.37
391.78	6656.48
391.97	6616.69
392.16	6003.47
392.36	5675.80
392.55	4299.56
392.75	3517.83
392.94	2909.29
393.13	2946.73
393.33	3524.85
393.52	4498.51
393.71	5643.03
393.91	6087.73
394.10	6525.41
394.29	7140.97
394.49	7583.34
394.68	8554.66
394.88	8554.66
395.07	8786.37
395.26	8732.54
395.46	8397.84
395.65	7943.78
395.84	6920.96
396.04	5886.45
396.23	4697.46
396.42	4002.32
396.62	3838.48
396.81	4711.50
397.00	5736.65
397.19	7164.38
397.39	8725.52
397.58	9563.43
397.77	10410.70
397.97	10553.48
398.16	10665.82
398.35	10750.08
398.55	11510.75
398.74	11630.12
398.93	11988.22
399.12	11779.92
399.32	11634.80
399.51	11800.98
399.70	12699.75
399.90	12271.43
400.09	12393.14
400.28	12070.14
400.47	12472.71
400.67	13034.44
400.86	13184.24
401.05	13123.38
401.24	13217.01
401.44	13350.42
401.63	13493.19
401.82	13900.44
402.01	13703.84
402.21	13809.16
402.40	13989.38
402.59	13291.90
402.78	12922.10
402.97	12479.74
403.17	13177.22
403.36	13631.28
403.55	14436.42
403.74	14558.13
403.93	13577.45
404.13	12739.54
404.32	12627.19
404.51	13233.39
404.70	14174.28
404.89	14157.90
405.09	13870.01
405.28	13324.67
405.47	13589.15
405.66	13486.17
405.85	13458.08
406.05	12898.69
406.24	12847.20
406.43	13666.39
406.62	14015.13
406.81	14324.08
407.00	13479.15
407.20	13427.65
407.39	13418.29
407.58	14033.85
407.77	14572.18
407.96	14836.66
408.15	15236.89
408.34	15318.81
408.54	16023.31
408.73	16119.27
408.92	15964.79
409.11	15597.33
409.30	14728.99
409.49	13872.36
409.68	12650.60
409.87	12519.53
410.07	13530.64
410.26	14476.21
410.45	15239.23
410.64	15646.48
410.83	16084.16
411.02	16643.55
411.21	17114.00
411.40	16971.22
411.59	16910.37
411.78	16868.24
411.98	16844.84
412.17	16879.94
412.36	16671.64
412.55	16720.79
412.74	16107.57
412.93	15917.98
413.12	16343.96
413.31	17972.97
413.50	17839.56
413.69	18106.38
413.88	17434.65
414.07	16999.31
414.26	17273.15
414.45	17706.15
414.64	17493.16
414.83	17830.20
415.02	17467.42
415.22	17474.44
415.41	17877.01
415.60	18452.78
415.79	19122.18
415.98	19805.61
416.17	19487.30
416.36	18927.91
416.55	18876.42
416.74	18150.85
416.93	17640.62
417.12	17804.46
417.31	17860.63
417.50	18333.42
417.69	18452.78
417.88	18757.05
418.07	18558.11
418.26	18328.74
418.45	18670.45
418.64	19246.23
418.83	19672.20
419.02	19536.45
419.21	19543.47
419.39	18352.14
419.58	17715.51
419.77	17642.96
419.96	18455.12
420.15	19641.78
420.34	19988.18
420.53	20816.72
420.72	21095.25
420.91	21008.65
421.10	20826.09
421.29	20437.56
421.48	19932.00
421.67	20870.56
421.86	20112.22
422.05	18904.51
422.24	16952.50
422.43	16868.24
422.61	18405.97
422.80	20243.29
422.99	20376.70
423.18	19496.66
423.37	19152.60
423.56	18902.17
423.75	19529.43
423.94	19704.97
424.13	18853.02
424.32	18806.20
424.50	18965.36
424.69	18834.29
424.88	18813.23
425.07	18717.26
425.26	18668.11
425.45	18625.98
425.64	18082.98
425.83	18190.64
426.01	19407.72
426.20	19903.92
426.39	19344.53
426.58	18368.52
426.77	16854.20
426.96	16152.04
427.15	16989.95
427.33	18508.96
427.52	18953.66
427.71	18963.02
427.90	18766.42
428.09	18508.96
428.28	18136.81
428.46	17851.27
428.65	17160.81
428.84	17790.41
429.03	18221.07
429.22	16940.80
429.40	16201.19
429.59	14602.60
429.78	12737.20
429.97	13226.37
430.16	13324.67
430.34	13334.03
430.53	13399.57
430.72	13673.41
430.91	15398.38
431.10	17657.00
431.28	21074.18
431.47	22431.69
431.66	22492.55
431.85	20673.95
432.03	18780.46
432.22	18272.56
432.41	19145.58
432.60	21235.68
432.79	22075.93
432.97	22249.13
433.16	22162.53
433.35	19690.93
433.54	17839.56
433.72	16901.01
433.91	17652.32
434.10	19536.45
434.28	21032.05
434.47	22036.14
434.66	21465.05
434.85	21219.30
435.03	21020.35
435.22	21474.42
435.41	22757.03
435.59	22883.42
435.78	23175.98
435.97	23819.63
436.16	23957.72
436.34	23676.86
436.53	22988.74
436.72	22527.66
436.90	21872.31
437.09	21975.29
437.28	21429.94
437.46	22190.62
437.65	22293.60
437.84	20503.09
438.02	18984.09
438.21	19140.90
438.40	20107.54
438.58	21937.84
438.77	22291.26
438.96	22207.00
439.14	23271.95
439.33	23733.03
439.52	24006.87
439.70	23480.25
439.89	22991.08
440.08	22501.91
440.26	22429.35
440.45	23419.40
440.63	24793.29
440.82	26153.15
441.01	25635.89
441.19	25174.80
441.38	25827.81
441.57	26867.01
441.75	27072.98
441.94	27133.83
442.12	26871.69
442.31	27714.28
442.50	27751.73
442.68	27545.76
442.87	26953.61
443.05	26405.92
443.24	27164.26
443.43	27812.59
443.61	28011.53
443.80	28439.85
443.98	26508.91
444.17	26724.24
444.35	28259.63
444.54	28807.31
444.73	28739.44
444.91	27693.22
445.10	26410.60
445.28	25010.96
445.47	24641.16
445.65	25216.93
445.84	25495.46
446.02	26485.50
446.21	26843.60
446.39	27110.43
446.58	27632.36
446.77	28102.81
446.95	28259.63
447.14	28804.97
447.32	29329.25
447.51	28575.60
447.69	27971.74
447.88	27302.35
448.06	27889.82
448.25	28257.29
448.43	28371.97
448.62	27498.95
448.80	27990.47
448.99	27995.15
449.17	27981.10
449.36	27852.38
449.54	29645.23
449.73	29795.02
449.91	30029.07
450.10	31058.91
450.28	31253.17
450.46	31227.43
450.65	30974.65
450.83	31136.15
451.02	30024.39
451.20	30171.85
451.39	29795.02
451.57	29834.81
451.76	30115.67
451.94	29486.07
452.13	29233.29
452.31	27999.83
452.49	27012.12
452.68	27033.19
452.86	27002.76
453.05	27398.31
453.23	28481.98
453.42	28793.27
453.60	29558.63
453.78	29603.10
453.97	29209.89
454.15	29720.12
454.34	28882.21
454.52	29036.69
454.70	28601.35
454.89	28826.04
455.07	29060.09
455.26	29670.97
455.44	30328.66
455.62	30958.27
455.81	31274.24
455.99	30595.48
456.17	30253.76
456.36	30426.96
456.54	31246.15
456.73	31405.31
456.91	31737.66
457.09	32151.94
457.28	32603.66
457.46	31496.59
457.64	31339.77
457.83	29977.58
458.01	29663.95
458.19	30597.82
458.38	30506.54
458.56	31648.72
458.74	31615.96
458.93	30801.45
459.11	30607.19
459.29	30464.41
459.48	31206.36
459.66	30455.05
459.84	30888.05
460.03	31466.16
460.21	31239.13
460.39	31952.99
460.57	32084.06
460.76	32545.15
460.94	32683.24
461.12	32098.11
461.31	32589.62
461.49	32247.90
461.67	32397.70
461.85	33296.46
462.04	33090.49
462.22	33556.26
462.40	33228.59
462.59	32961.76
462.77	32996.87
462.95	33378.38
463.13	32535.79
463.32	32311.10
463.50	31955.33
463.68	32109.81
463.86	32252.58
464.05	31709.58
464.23	31108.06
464.41	31002.74
464.59	30466.75
464.78	31803.20
464.96	31798.52
465.14	31452.12
465.32	32364.93
465.50	33181.77
465.69	33408.81
465.87	32917.29
466.05	31805.54
466.23	30483.14
466.41	29785.66
466.60	31030.82
466.78	30813.15
466.96	31199.34
467.14	31695.53
467.32	32407.06
467.51	32294.71
467.69	30794.43
467.87	31241.47
468.05	32243.22
468.23	31955.33
468.41	32165.98
468.60	32173.00
468.78	32385.99
468.96	31838.31
469.14	32444.51
469.32	32774.52
469.50	31433.39
469.69	31246.15
469.87	31243.81
470.05	31108.06
470.23	31211.04
470.41	31091.68
470.59	31498.93
470.77	31789.16
470.95	32666.86
471.14	32552.17
471.32	32650.47
471.50	34639.93
471.68	34859.94
471.86	34656.31
472.04	35119.74
472.22	35559.76
472.40	33420.51
472.58	33069.43
472.77	32826.01
472.95	33752.87
473.13	34302.89
473.31	33476.68
473.49	33947.13
473.67	34471.41
473.85	34487.79
474.03	35253.15
474.21	35489.54
474.39	35952.97
474.57	36023.19
474.75	36011.48
474.93	36175.32
475.12	35065.91
475.30	35152.51
475.48	35204.00
475.66	35864.03
475.84	35154.85
476.02	34967.60
476.20	34518.22
476.38	34878.66
476.56	36070.00
476.74	36816.63
476.92	36950.04
477.10	37268.35
477.28	38506.49
477.46	38403.51
477.64	38637.56
477.82	39328.02
478.00	39019.07
478.18	38653.95
478.36	38328.61
478.54	38778.00
478.72	38707.78
478.90	39964.65
479.08	40598.93
479.26	41254.28
479.44	41261.30
479.62	40940.65
479.80	40821.28
479.98	41303.43
480.16	41507.06
480.34	40655.11
480.52	41415.78
480.70	41893.25
480.88	41673.24
481.06	42382.42
481.24	42644.56
481.41	43697.80
481.59	44100.37
481.77	43934.20
481.95	43239.06
482.13	42967.55
482.31	43253.10
482.49	43674.40
482.67	43320.98
482.85	44388.26
483.03	44622.31
483.21	44886.79
483.39	45146.59
483.57	44626.99
483.74	44018.46
483.92	44474.86
484.10	44182.29
484.28	45074.04
484.46	45909.61
484.64	46391.76
484.82	44889.13
485.00	44629.34
485.18	43777.38
485.35	43159.48
485.53	39187.59
485.71	36465.55
485.89	36278.30
486.07	38220.95
486.25	40985.12
486.43	43026.07
486.61	43873.34
486.78	43564.39
486.96	43929.51
487.14	45523.42
487.32	46827.10
487.50	48102.69
487.68	48589.52
487.85	48882.09
488.03	49088.06
488.21	48603.56
488.39	47676.71
488.57	47098.60
488.75	46506.44
488.92	48432.71
489.10	50445.57
489.28	51594.77
489.46	52484.17
489.64	51711.80
489.81	52205.65
489.99	51721.16
490.17	52196.29
490.35	52484.17
490.53	51913.08
490.70	51510.51
490.88	51700.09
491.06	52250.12
491.24	52374.17
491.41	51051.76
491.59	49855.75
491.77	48971.03
491.95	50143.64
492.13	51374.76
492.30	52650.35
492.48	53556.14
492.66	53829.98
492.84	53935.30
493.01	53841.68
493.19	53226.12
493.37	52956.96
493.54	52430.34
493.72	53123.14
493.90	54335.54
494.08	55068.12
494.25	55189.83
494.43	55519.85
494.61	55927.10
494.79	56238.39
494.96	55744.54
495.14	54990.89
495.32	54113.19
495.49	53415.71
495.67	54557.89
495.85	55632.19
496.02	56481.81
496.20	56104.98
496.38	55688.37
496.55	55587.72
496.73	56123.71
496.91	56315.63
497.09	56811.82
497.26	56933.53
497.44	56163.50
497.62	55763.26
497.79	55435.59
497.97	53989.14
498.14	54061.69
498.32	55089.19
498.50	56130.73
498.67	56624.58
498.85	56533.30
499.03	56601.18
499.20	56891.40
499.38	56973.32
499.56	56959.28
499.73	56498.19
499.91	55789.01
500.08	55210.90
500.26	54731.09
500.44	55236.64
500.61	55962.21
500.79	55627.51
500.97	55391.12
501.14	54993.23
501.32	55224.94
501.49	55014.29
501.67	55346.65
501.84	55976.25
502.02	56381.16
502.20	56360.10
502.37	56629.26
502.55	56631.60
502.72	57293.97
502.90	57418.02
503.07	57233.12
503.25	56704.16
503.43	56062.85
503.60	55552.62
503.78	54948.76
503.95	55309.20
504.13	56409.25
504.30	57371.21
504.48	57272.91
504.65	57008.43
504.83	57272.91
505.01	57584.20
505.18	57888.47
505.36	58775.53
505.53	58663.19
505.71	58665.53
505.88	58873.84
506.06	58127.20
506.23	57893.15
506.41	57497.60
506.58	57748.04
506.76	57797.19
506.93	57499.94
507.11	57380.57
507.28	57504.62
507.46	57095.03
507.63	56657.35
507.81	56458.40
507.98	56605.86
508.16	57354.83
508.33	57829.96
508.50	58148.27
508.68	58691.27
508.85	59025.97
509.03	58990.86
509.20	58487.65
509.38	57956.35
509.55	57205.03
509.73	57570.16
509.90	58096.78
510.08	58262.96
510.25	58131.89
510.42	57879.11
510.60	57998.48
510.77	58330.83
510.95	58719.36
511.12	58974.48
511.30	59063.42
511.47	59381.73
511.64	59269.39
511.82	58815.32
511.99	58157.63
512.17	57815.91
512.34	57272.91
512.51	57682.50
512.69	57855.70
512.86	57888.47
513.04	58347.21
513.21	58272.32
513.38	57855.70
513.56	57378.23
513.73	56816.50
513.90	57102.05
514.08	57209.71
514.25	57350.15
514.43	57535.05
514.60	57780.81
514.77	57923.58
514.95	58108.48
515.12	57895.49
515.29	58262.96
515.47	58590.63
515.64	58831.71
515.81	58609.35
515.99	57808.89
516.16	56362.44
516.33	53963.39
516.51	52739.29
516.68	51749.24
516.85	51285.82
517.03	52238.42
517.20	54695.98
517.37	57188.65
517.54	57939.96
517.72	57457.81
517.89	54754.49
518.06	52500.56
518.24	53324.43
518.41	55494.10
518.58	56713.52
518.75	56811.82
518.93	57088.01
519.10	57158.22
519.27	57474.20
519.45	57684.84
519.62	58134.23
519.79	58740.42
519.96	58515.73
520.14	58117.84
520.31	57221.42
520.48	57022.47
520.65	57595.90
520.83	58305.09
521.00	58759.15
521.17	58450.20
521.34	58120.18
521.52	58546.16
521.69	58805.96
521.86	59220.23
522.03	58759.15
522.20	57862.72
522.38	56853.95
522.55	56912.47
522.72	57446.11
522.89	57549.09
523.07	58038.26
523.24	58258.27
523.41	58871.49
523.58	59185.13
523.75	59482.37
523.92	59306.83
524.10	59402.80
524.27	59363.01
524.44	59138.32
524.61	59035.33
524.78	58883.20
524.96	58808.30
525.13	58883.20
525.30	59011.93
525.47	59538.55
525.64	59330.24
525.81	58688.93
525.98	57188.65
526.16	56018.38
526.33	55269.41
526.50	54995.57
526.67	54904.29
526.84	55222.60
527.01	56472.45
527.18	57015.45
527.36	58099.12
527.53	58873.84
527.70	59114.91
527.87	58363.60
528.04	58174.02
528.21	58710.00
528.38	58981.50
528.55	59805.37
528.72	59927.08
528.89	60030.06
529.07	59515.14
529.24	59250.66
529.41	58529.78
529.58	58007.84
529.75	58190.40
529.92	58592.97
530.09	58906.60
530.26	59468.33
530.43	59664.94
530.60	59678.98
530.77	59950.48
530.94	59913.03
531.11	59629.83
531.28	59276.41
531.46	58932.35
531.63	59164.06
531.80	59140.66
531.97	58752.13
532.14	57916.56
532.31	56837.57
532.48	56390.53
532.65	56416.27
532.82	57329.08
532.99	58457.22
533.16	58592.97
533.33	59056.40
533.50	59058.74
533.67	58344.87
533.84	57972.73
534.01	58328.49
534.18	58480.63
534.35	58618.72
534.52	58181.04
534.69	58642.12
534.86	58997.88
535.03	59355.99
535.20	59615.79
535.37	59796.01
535.54	60156.45
535.71	59643.87
535.88	59421.52
536.05	58859.79
536.22	58302.74
536.38	57890.81
536.55	57558.45
536.72	57322.06
536.89	57209.71
537.06	58049.97
537.23	59007.25
537.40	58913.62
537.57	59030.65
537.74	58805.96
537.91	58604.67
538.08	58698.30
538.25	58880.86
538.42	59051.72
538.59	58459.56
538.75	58059.33
538.92	57755.06
539.09	57584.20
539.26	57759.74
539.43	57350.15
539.60	57738.68
539.77	57752.72
539.94	57619.31
540.11	56765.01
540.28	56186.90
540.44	56418.61
540.61	56631.60
540.78	57022.47
540.95	57396.96
541.12	57666.12
541.29	58019.54
541.46	58192.74
541.62	58166.99
541.79	58227.85
541.96	57483.56
542.13	57593.56
542.30	57794.85
542.47	57841.66
542.63	57820.59
542.80	57474.20
542.97	57518.67
543.14	57705.91
543.31	57609.95
543.48	58101.46
543.64	58777.87
543.81	59068.10
543.98	58864.47
544.15	58103.80
544.32	57806.55
544.48	57904.85
544.65	58443.18
544.82	58684.25
544.99	58031.24
545.16	57951.66
545.32	57490.58
545.49	58489.99
545.66	58721.70
545.83	58277.00
546.00	58176.36
546.16	57626.33
546.33	57846.34
546.50	57813.57
546.67	58309.77
546.83	57717.61
547.00	57968.05
547.17	56994.39
547.34	56655.01
547.50	56727.56
547.67	57176.95
547.84	57095.03
548.00	57696.55
548.17	58117.84
548.34	57897.83
548.51	57794.85
548.67	57932.94
548.84	57904.85
549.01	57937.62
549.18	57848.68
549.34	57666.12
549.51	57832.30
549.68	57663.78
549.84	57385.25
550.01	57382.91
550.18	57516.32
550.34	57279.93
550.51	57530.37
550.68	57654.42
550.84	56961.62
551.01	57160.56
551.18	57169.93
551.34	57315.04
551.51	57577.18
551.68	57820.59
551.84	57939.96
552.01	57801.87
552.18	57623.99
552.34	56790.76
552.51	56563.73
552.68	56540.32
552.84	56928.85
553.01	57277.59
553.18	57052.90
553.34	57123.11
553.51	57343.12
553.67	57542.07
553.84	57647.39
554.01	57392.28
554.17	57347.81
554.34	57371.21
554.51	57722.29
554.67	57970.39
554.84	57787.83
555.00	57380.57
555.17	57181.63
555.33	57130.14
555.50	57043.54
555.67	57193.33
555.83	57034.17
556.00	56739.27
556.16	56767.35
556.33	56229.03
556.50	56165.84
556.66	56271.16
556.83	56055.83
556.99	55976.25
557.16	56161.15
557.32	56404.57
557.49	56851.61
557.65	56781.40
557.82	56657.35
557.98	56360.10
558.15	56046.47
558.32	55171.11
558.48	54190.42
558.65	54684.28
558.81	55126.64
558.98	55264.73
559.14	55559.64
559.31	55487.08
559.47	55557.30
559.64	55341.97
559.80	54642.15
559.97	54946.42
560.13	55428.57
560.30	56062.85
560.46	56963.96
560.63	57265.89
560.79	57008.43
560.96	56327.33
561.12	55561.98
561.29	54805.98
561.45	54836.41
561.61	55543.25
561.78	55849.86
561.94	55587.72
562.11	55416.86
562.27	55278.77
562.44	55627.51
562.60	56112.00
562.77	56339.04
562.93	55978.59
563.10	56137.75
563.26	55241.32
563.42	55505.80
563.59	55489.42
563.75	55276.43
563.92	55482.40
564.08	55215.58
564.24	55592.40
564.41	55545.59
564.57	55524.53
564.74	55199.19
564.90	55196.85
565.07	54934.71
565.23	54501.71
565.39	54284.04
565.56	53916.58
565.72	53708.27
565.88	54150.63
566.05	54145.95
566.21	54328.52
566.38	54735.77
566.54	54906.63
566.70	55070.46
566.87	55330.26
567.03	55023.65
567.19	55456.65
567.36	55379.42
567.52	55028.34
567.68	54843.43
567.85	54115.53
568.01	53954.03
568.17	53549.12
568.34	53277.61
568.50	53481.24
568.66	53572.52
568.83	53951.69
568.99	53965.73
569.15	54475.97
569.32	54110.85
569.48	53801.89
569.64	53886.15
569.81	53272.93
569.97	53429.75
570.13	53399.32
570.30	52629.29
570.46	52371.83
570.62	51817.12
570.78	51711.80
570.95	52018.41
571.11	53036.54
571.27	53034.20
571.43	53104.41
571.60	53801.89
571.76	53645.08
571.92	53883.81
572.09	54136.59
572.25	53848.71
572.41	54270.00
572.57	54059.35
572.74	53989.14
572.90	53654.44
573.06	53298.68
573.22	53727.00
573.38	53600.61
573.55	53574.86
573.71	53951.69
573.87	53476.56
574.03	53345.49
574.20	53329.11
574.36	53057.60
574.52	53230.80
574.68	52624.60
574.84	52243.10
575.01	51807.76
575.17	51922.44
575.33	52067.56
575.49	52863.34
575.65	52465.45
575.82	52315.65
575.98	51973.94
576.14	52622.26
576.30	52624.60
576.46	52669.08
576.62	52640.99
576.79	52952.28
576.95	52432.68
577.11	52399.91
577.27	52280.55
577.43	52636.31
577.59	51950.53
577.75	51320.93
577.92	51140.71
578.08	50717.07
578.24	50808.35
578.40	51285.82
578.56	51440.29
578.72	51229.65
578.88	51636.90
579.04	51772.65
579.21	51599.45
579.37	51903.72
579.53	51812.44
579.69	52151.82
579.85	52016.07
580.01	51854.57
580.17	51466.04
580.33	51267.09
580.49	51456.68
580.65	51477.74
580.82	52116.71
580.98	51791.37
581.14	52067.56
581.30	52002.02
581.46	51842.87
581.62	52020.75
581.78	51833.50
581.94	52156.50
582.10	52296.93
582.26	52530.98
582.42	52392.89
582.58	52107.35
582.74	52222.03
582.90	52245.44
583.06	51807.76
583.22	51863.93
583.38	52076.92
583.54	51803.08
583.70	52172.88
583.86	51936.49
584.02	51461.36
584.18	52053.51
584.34	51487.10
584.50	51793.71
584.66	51501.15
584.82	51192.20
584.98	50913.67
585.14	50363.65
585.30	49518.71
