SpectraSuite Data File
++++++++++++++++++++++++++++++++++++
Date: Mon Oct 07 14:54:01 GMT-05:00 2013
User: price-jones
Dark Spectrum Present: No
Reference Spectrum Present: No
Number of Sampled Component Spectra: 1
Spectrometers: USB2+H05261
Integration Time (usec): 100000 (USB2+H05261)
Spectra Averaged: 1 (USB2+H05261)
Boxcar Smoothing: 0 (USB2+H05261)
Correct for Electrical Dark: No (USB2+H05261)
Strobe/Lamp Enabled: No (USB2+H05261)
Correct for Detector Non-linearity: No (USB2+H05261)
Correct for Stray Light: No (USB2+H05261)
Number of Pixels in Processed Spectrum: 2048
>>>>>Begin Processed Spectral Data<<<<<
365.73	0.00
365.92	0.00
366.12	0.00
366.32	0.00
366.52	0.00
366.72	0.00
366.91	0.00
367.11	0.00
367.31	0.00
367.51	0.00
367.70	0.00
367.90	0.00
368.10	0.00
368.30	0.00
368.49	0.00
368.69	0.00
368.89	0.00
369.09	0.00
369.28	0.00
369.48	0.00
369.68	0.00
369.87	0.00
370.07	0.00
370.27	0.00
370.47	695.14
370.66	3351.65
370.86	3681.66
371.06	4271.48
371.25	4299.56
371.45	3784.65
371.65	3407.82
371.84	3201.85
372.04	3438.25
372.24	3854.86
372.44	3943.80
372.63	3990.61
372.83	3655.92
373.03	3314.20
373.22	3054.40
373.42	3183.13
373.62	3789.33
373.81	3964.87
374.01	3824.44
374.21	3620.81
374.40	3379.73
374.60	3412.50
374.79	3880.61
374.99	4552.34
375.19	4980.66
375.38	4919.81
375.58	4564.04
375.78	4463.40
375.97	4465.74
376.17	4566.39
376.37	4863.63
376.56	4856.61
376.76	5053.22
376.95	5317.70
377.15	5898.15
377.35	6146.25
377.54	6202.42
377.74	6534.78
377.93	6370.94
378.13	6289.02
378.33	6057.31
378.52	5607.92
378.72	5219.39
378.91	5221.74
379.11	5095.35
379.31	4966.62
379.50	4966.62
379.70	5226.42
379.89	5834.96
380.09	6054.97
380.28	6455.20
380.48	6333.49
380.68	6134.54
380.87	5998.79
381.07	5746.02
381.26	5245.14
381.46	4875.34
381.65	4667.03
381.85	4688.09
382.04	4344.03
382.24	4102.96
382.43	3925.08
382.63	3728.47
382.83	3765.92
383.02	3852.52
383.22	3974.23
383.41	3953.16
383.61	3992.95
383.80	4765.33
384.00	5107.05
384.19	5916.87
384.39	6380.30
384.58	6279.66
384.78	6134.54
384.97	6214.12
385.17	5696.86
385.36	5469.83
385.56	5221.74
385.75	5352.81
385.95	5893.47
386.14	6413.07
386.34	6434.13
386.53	6214.12
386.72	5795.17
386.92	5802.19
387.11	6221.14
387.31	6445.84
387.50	6366.26
387.70	5849.00
387.89	5970.71
388.09	6040.92
388.28	6141.57
388.48	6253.91
388.67	6843.73
388.86	7204.17
389.06	7817.39
389.25	8245.71
389.45	8287.84
389.64	8248.05
389.84	8184.85
390.03	8182.51
390.22	7885.26
390.42	8524.23
390.61	9118.73
390.81	9664.07
391.00	9891.10
391.19	9245.12
391.39	9039.15
391.58	8720.84
391.78	8131.02
391.97	7784.62
392.16	7569.29
392.36	6822.66
392.55	5582.18
392.75	4444.68
392.94	3522.51
393.13	3417.18
393.33	4032.74
393.52	5219.39
393.71	6595.63
393.91	7260.34
394.10	7859.52
394.29	8737.22
394.49	9256.82
394.68	10265.59
394.88	10078.35
395.07	10546.45
395.26	10389.64
395.46	10076.01
395.65	9612.58
395.84	8444.65
396.04	7070.76
396.23	5783.46
396.42	4784.06
396.62	4643.62
396.81	5221.74
397.00	6623.72
397.19	8622.53
397.39	10284.31
397.58	11442.88
397.77	12180.15
397.97	12269.09
398.16	12695.07
398.35	12971.25
398.55	13439.36
398.74	14153.22
398.93	14501.96
399.12	14218.75
399.32	13458.08
399.51	13855.97
399.70	14719.63
399.90	14876.44
400.09	14698.56
400.28	14312.38
400.47	14534.73
400.67	15269.66
400.86	15765.85
401.05	15679.25
401.24	15866.49
401.44	16020.97
401.63	15990.54
401.82	16465.67
402.01	16196.51
402.21	16578.01
402.40	16540.57
402.59	15824.36
402.78	15229.87
402.97	14972.41
403.17	15295.40
403.36	16280.77
403.55	17060.16
403.74	17296.56
403.93	16596.74
404.13	15384.34
404.32	15105.82
404.51	15302.42
404.70	16919.73
404.89	16809.73
405.09	16542.91
405.28	15763.51
405.47	16210.55
405.66	15882.88
405.85	15543.50
406.05	14878.79
406.24	15084.75
406.43	16203.53
406.62	16507.80
406.81	16659.93
407.00	15976.50
407.20	15314.13
407.39	15901.60
407.58	16807.39
407.77	17137.40
407.96	17745.94
408.15	17951.91
408.34	18029.15
408.54	18883.44
408.73	18867.06
408.92	18436.40
409.11	18178.94
409.30	17303.58
409.49	16262.04
409.68	15073.05
409.87	14747.72
410.07	15506.05
410.26	16858.88
410.45	17790.41
410.64	18237.45
410.83	18745.35
411.02	19250.91
411.21	19964.77
411.40	19564.54
411.59	20252.66
411.78	19878.17
411.98	19456.87
412.17	19974.13
412.36	19442.83
412.55	19365.59
412.74	19089.41
412.93	19077.71
413.12	18986.43
413.31	20542.88
413.50	20776.94
413.69	21041.42
413.88	20336.91
414.07	19756.46
414.26	19894.55
414.45	20772.25
414.64	20943.11
414.83	21296.53
415.02	20470.33
415.22	20535.86
415.41	21067.16
415.60	21671.02
415.79	22455.10
415.98	22890.44
416.17	22796.82
416.36	22260.84
416.55	22005.72
416.74	21504.84
416.93	20332.23
417.12	20402.45
417.31	21022.69
417.50	20940.77
417.69	22108.70
417.88	21619.53
418.07	21664.00
418.26	21205.25
418.45	21818.47
418.64	22183.60
418.83	23143.22
419.02	22611.92
419.21	22970.02
419.39	21486.12
419.58	20554.58
419.77	20496.07
419.96	21472.07
420.15	22738.30
420.34	23536.43
420.53	23920.28
420.72	24479.66
420.91	24570.94
421.10	24091.13
421.29	23917.93
421.48	23257.90
421.67	23908.57
421.86	23672.18
422.05	22286.58
422.24	19662.84
422.43	19204.10
422.61	21778.68
422.80	23314.08
422.99	23559.83
423.18	22707.88
423.37	22094.66
423.56	21956.57
423.75	22293.60
423.94	22679.79
424.13	21535.27
424.32	21682.72
424.50	22085.30
424.69	21834.86
424.88	21797.41
425.07	21570.38
425.26	21659.32
425.45	21818.47
425.64	21025.03
425.83	20922.05
426.01	22246.79
426.20	22773.41
426.39	22635.32
426.58	21231.00
426.77	19396.02
426.96	18700.88
427.15	19606.67
427.33	20985.24
427.52	21827.84
427.71	21926.14
427.90	21766.98
428.09	21586.76
428.28	21135.04
428.46	20402.45
428.65	19920.30
428.84	20285.42
429.03	20697.36
429.22	19981.15
429.40	18773.44
429.59	16870.58
429.78	15183.06
429.97	14944.32
430.16	15321.15
430.34	15272.00
430.53	15229.87
430.72	15655.84
430.91	17322.30
431.10	20130.95
431.28	23971.77
431.47	25926.11
431.66	26361.45
431.85	23953.04
432.03	21626.55
432.22	20783.96
432.41	21425.26
432.60	24357.96
432.79	25177.14
432.97	25825.47
433.16	25200.55
433.35	23012.15
433.54	20896.30
433.72	19042.60
433.91	19756.46
434.10	22415.31
434.28	24039.64
434.47	25326.94
434.66	24680.95
434.85	24465.62
435.03	23999.85
435.22	24774.57
435.41	26335.71
435.59	26092.29
435.78	26466.78
435.97	27054.25
436.16	27407.67
436.34	26735.94
436.53	26005.69
436.72	26099.31
436.90	25095.22
437.09	24886.92
437.28	24367.32
437.46	24978.20
437.65	24868.19
437.84	23683.88
438.02	21783.37
438.21	21649.96
438.40	22822.56
438.58	24549.88
438.77	24989.90
438.96	25525.88
439.14	26637.64
439.33	26998.08
439.52	27992.81
439.70	27108.08
439.89	26672.74
440.08	25551.63
440.26	25450.99
440.45	26569.76
440.63	28336.87
440.82	29963.54
441.01	29333.93
441.19	29153.71
441.38	28952.43
441.57	30436.33
441.75	30958.27
441.94	31016.78
442.12	30539.31
442.31	31360.84
442.50	31129.12
442.68	30761.66
442.87	30216.32
443.05	29930.77
443.24	30487.82
443.43	30878.69
443.61	31812.56
443.80	32219.81
443.98	30110.99
444.17	29968.22
444.35	31536.38
444.54	32444.51
444.73	31941.29
444.91	31161.89
445.10	29586.71
445.28	28496.02
445.47	27995.15
445.65	28467.94
445.84	28945.41
446.02	29972.90
446.21	30361.43
446.39	30403.56
446.58	30946.56
446.77	31168.91
446.95	31501.27
447.14	32830.69
447.32	33195.82
447.51	31924.91
447.69	31353.82
447.88	30710.17
448.06	31098.70
448.25	31688.51
448.43	31922.57
448.62	31236.79
448.80	30981.67
448.99	31597.23
449.17	31613.62
449.36	31290.62
449.54	32732.39
449.73	33600.73
449.91	33816.06
450.10	34398.85
450.28	35021.44
450.46	34607.16
450.65	34558.01
450.83	34436.30
451.02	34132.03
451.20	33652.22
451.39	33813.72
451.57	33387.74
451.76	33406.47
451.94	33235.61
452.13	32638.77
452.31	31222.75
452.49	29846.51
452.68	30225.68
452.86	30045.46
453.05	30380.15
453.23	31555.10
453.42	32201.09
453.60	33041.34
453.78	33125.60
453.97	32802.61
454.15	32821.33
454.34	32187.05
454.52	32521.74
454.70	31440.42
454.89	32285.35
455.07	32315.78
455.26	32634.09
455.44	33474.34
455.62	34780.36
455.81	34834.19
455.99	34773.34
456.17	33919.04
456.36	34169.48
456.54	34780.36
456.73	35295.28
456.91	35885.09
457.09	35379.54
457.28	36350.86
457.46	34923.13
457.64	35157.19
457.83	33638.18
458.01	32692.60
458.19	34057.14
458.38	34031.39
458.56	34668.02
458.74	35070.59
458.93	34220.97
459.11	33839.47
459.29	33968.19
459.48	34071.18
459.66	33991.60
459.84	34216.29
460.03	35140.80
460.21	34756.96
460.39	35365.49
460.57	35566.78
460.76	36020.84
460.94	36294.69
461.12	35562.10
461.31	35461.46
461.49	35531.67
461.67	35435.71
461.85	36793.22
462.04	36198.73
462.22	37132.60
462.40	36931.31
462.59	36383.63
462.77	36730.03
462.95	36797.90
463.13	36327.45
463.32	35541.03
463.50	35304.64
463.68	35484.86
463.86	35674.45
464.05	35079.95
464.23	34361.40
464.41	34078.20
464.59	33638.18
464.78	35332.73
464.96	35112.72
465.14	34930.16
465.32	35807.86
465.50	36456.18
465.69	36758.11
465.87	36165.96
466.05	34787.38
466.23	33823.08
466.41	33193.48
466.60	33518.81
466.78	33642.86
466.96	34621.20
467.14	35108.04
467.32	35414.65
467.51	35370.18
467.69	33607.75
467.87	34426.94
468.05	35487.20
468.23	35435.71
468.41	34962.92
468.60	34969.94
468.78	35541.03
468.96	34930.16
469.14	35735.30
469.32	36432.78
469.50	34462.05
469.69	34298.21
469.87	34227.99
470.05	34089.90
470.23	33811.38
470.41	34029.05
470.59	34895.05
470.77	35199.32
470.95	35761.05
471.14	35969.35
471.32	35529.33
471.50	38036.05
471.68	37811.35
471.86	38246.69
472.04	38359.04
472.22	38490.11
472.40	36774.50
472.58	36304.05
472.77	35793.81
472.95	36772.16
473.13	37308.14
473.31	36818.97
473.49	36568.53
473.67	37612.41
473.85	38061.79
474.03	38670.33
474.21	39012.05
474.39	39042.48
474.57	39702.51
474.75	39363.13
474.93	38862.26
475.12	38188.18
475.30	38141.37
475.48	37748.16
475.66	38939.49
475.84	38450.32
476.02	37872.21
476.20	37516.45
476.38	38242.01
476.56	39606.55
476.74	39517.60
476.92	39849.96
477.10	40631.70
477.28	41998.57
477.46	41940.06
477.64	42260.71
477.82	42344.97
478.00	42614.13
478.18	42050.06
478.36	41598.34
478.54	41474.29
478.72	42129.64
478.90	42607.11
479.08	44041.86
479.26	44439.75
479.44	44364.85
479.62	44137.82
479.80	44371.88
479.98	44629.34
480.16	44720.62
480.34	44023.14
480.52	44767.43
480.70	44928.92
480.88	44856.37
481.06	45469.59
481.24	45895.56
481.41	46571.98
481.59	47313.93
481.77	47159.45
481.95	46576.66
482.13	46623.47
482.31	46272.39
482.49	47367.76
482.67	46974.55
482.85	47299.89
483.03	47622.88
483.21	48020.77
483.39	48301.64
483.57	47033.07
483.74	47019.02
483.92	47676.71
484.10	47239.03
484.28	48219.72
484.46	48666.76
484.64	49528.08
484.82	48608.25
485.00	47519.90
485.18	47208.61
485.35	46232.60
485.53	42469.02
485.71	39035.45
485.89	38501.81
486.07	40320.41
486.25	43969.30
486.43	45483.63
486.61	46799.01
486.78	46607.09
486.96	47107.96
487.14	48811.87
487.32	49322.11
487.50	50424.50
487.68	51166.45
487.85	51655.62
488.03	51510.51
488.21	50986.23
488.39	50440.89
488.57	50382.37
488.75	49734.04
488.92	50440.89
489.10	52535.66
489.28	53921.26
489.46	54597.68
489.64	54466.61
489.81	54377.67
489.99	54279.36
490.17	54440.86
490.35	54499.37
490.53	54031.27
490.70	53638.06
490.88	53792.53
491.06	54773.22
491.24	54604.70
491.41	53471.88
491.59	52341.40
491.77	51393.48
491.95	52498.22
492.13	53570.18
492.30	54546.18
492.48	55629.85
492.66	55746.88
492.84	55833.48
493.01	55545.59
493.19	55304.52
493.37	55056.42
493.54	54534.48
493.72	55334.95
493.90	56121.37
494.08	56912.47
494.25	57315.04
494.43	57080.98
494.61	57481.22
494.79	57640.37
494.96	57631.01
495.14	56935.87
495.32	56058.17
495.49	55599.43
495.67	56254.78
495.85	57811.23
496.02	58211.46
496.20	57996.13
496.38	57539.73
496.55	57509.30
496.73	57939.96
496.91	57776.12
497.09	58499.35
497.26	58576.59
497.44	58300.40
497.62	57764.42
497.79	57148.86
497.97	55807.73
498.14	55730.50
498.32	57020.13
498.50	57993.79
498.67	58426.79
498.85	58426.79
499.03	58429.13
499.20	58625.74
499.38	58721.70
499.56	58443.18
499.73	58171.67
499.91	57790.17
500.08	57190.99
500.26	56341.38
500.44	56783.74
500.61	57602.92
500.79	57394.62
500.97	57088.01
501.14	57076.30
501.32	56750.97
501.49	56832.89
501.67	56856.29
501.84	57511.64
502.02	57862.72
502.20	57925.92
502.37	58129.54
502.55	58274.66
502.72	58808.30
502.90	59082.14
503.07	58810.64
503.25	58595.31
503.43	57654.42
503.60	57172.27
503.78	56514.58
503.95	56856.29
504.13	58309.77
504.30	58876.18
504.48	58777.87
504.65	58438.50
504.83	58536.80
505.01	59018.95
505.18	59267.05
505.36	60034.74
505.53	59814.73
505.71	60135.38
505.88	60044.10
506.06	59765.58
506.23	59290.45
506.41	58880.86
506.58	59217.89
506.76	58972.14
506.93	59281.09
507.11	58770.85
507.28	59004.91
507.46	58501.69
507.63	57829.96
507.81	57757.40
507.98	58206.78
508.16	58672.55
508.33	59164.06
508.50	59599.40
508.68	59901.33
508.85	60250.07
509.03	60170.49
509.20	59962.18
509.38	59498.76
509.55	58815.32
509.73	58768.51
509.90	59285.77
510.08	59671.96
510.25	59576.00
510.42	59267.05
510.60	59187.47
510.77	59444.93
510.95	59955.16
511.12	59999.63
511.30	60308.58
511.47	60577.75
511.64	60484.12
511.82	60261.77
511.99	59650.89
512.17	59077.46
512.34	58679.57
512.51	58801.28
512.69	59175.76
512.86	59278.75
513.04	59473.01
513.21	59568.97
513.38	59260.02
513.56	58728.72
513.73	58216.14
513.90	58255.93
514.08	58253.59
514.25	58728.72
514.43	58665.53
514.60	58784.90
514.77	59075.12
514.95	59253.00
515.12	59086.82
515.29	59363.01
515.47	59791.33
515.64	59915.37
515.81	59604.08
515.99	59311.52
516.16	57811.23
516.33	55639.22
516.51	54064.03
516.68	53366.55
516.85	52886.74
517.03	53530.39
517.20	55978.59
517.37	58166.99
517.54	59213.21
517.72	58742.77
517.89	56673.73
518.06	53991.48
518.24	54370.64
518.41	56521.60
518.58	57806.55
518.75	57932.94
518.93	58101.46
519.10	58071.03
519.27	58527.44
519.45	58780.21
519.62	59454.29
519.79	59716.43
519.96	59524.50
520.14	59194.49
520.31	58195.08
520.48	58335.51
520.65	58548.50
520.83	59517.48
521.00	59927.08
521.17	59561.95
521.34	59098.53
521.52	59531.53
521.69	59934.10
521.86	60479.44
522.03	60090.91
522.20	58801.28
522.38	57961.03
522.55	57799.53
522.72	58560.20
522.89	58656.17
523.07	58885.54
523.24	58946.39
523.41	59908.35
523.58	60109.64
523.75	60662.00
523.92	60392.84
524.10	60453.70
524.27	60240.71
524.44	60193.90
524.61	60130.70
524.78	60013.68
524.96	59723.45
525.13	59840.48
525.30	59924.74
525.47	60294.54
525.64	60205.60
525.81	59700.04
525.98	58478.28
526.16	57080.98
526.33	56561.39
526.50	55943.48
526.67	55639.22
526.84	56355.42
527.01	57228.44
527.18	58087.42
527.36	58815.32
527.53	59674.30
527.70	59840.48
527.87	59463.65
528.04	58930.01
528.21	59484.72
528.38	60088.57
528.55	60615.19
528.72	60898.40
528.89	60919.46
529.07	60514.55
529.24	60009.00
529.41	59564.29
529.58	58915.96
529.75	59016.61
529.92	59423.86
530.09	59838.14
530.26	60254.75
530.43	60463.06
530.60	60547.32
530.77	60711.16
530.94	60949.89
531.11	60329.65
531.28	60102.62
531.46	60020.70
531.63	60032.40
531.80	59831.11
531.97	59442.59
532.14	58784.90
532.31	58000.82
532.48	57279.93
532.65	56924.17
532.82	58108.48
532.99	58948.73
533.16	59278.75
533.33	59915.37
533.50	59716.43
533.67	59426.20
533.84	58801.28
534.01	58932.35
534.18	59234.28
534.35	59381.73
534.52	59075.12
534.69	59540.89
534.86	59838.14
535.03	60083.89
535.20	60704.13
535.37	60741.58
535.54	60587.11
535.71	60570.72
535.88	60065.17
536.05	59725.79
536.22	59231.94
536.38	58932.35
536.55	58368.28
536.72	57844.00
536.89	57787.83
537.06	58731.06
537.23	59365.35
537.40	59840.48
537.57	59463.65
537.74	59131.29
537.91	59402.80
538.08	59290.45
538.25	59070.44
538.42	59456.63
538.59	59428.54
538.75	58829.37
538.92	58494.67
539.09	58532.12
539.26	58131.89
539.43	57996.13
539.60	58087.42
539.77	58337.85
539.94	58134.23
540.11	57506.96
540.28	57104.39
540.44	56961.62
540.61	57190.99
540.78	57677.82
540.95	58059.33
541.12	58363.60
541.29	58424.45
541.46	58932.35
541.62	58969.80
541.79	58632.76
541.96	58094.44
542.13	57797.19
542.30	58464.24
542.47	58794.26
542.63	58262.96
542.80	58120.18
542.97	58143.59
543.14	58047.63
543.31	58113.16
543.48	58871.49
543.64	59341.94
543.81	59772.60
543.98	59360.67
544.15	58993.20
544.32	58415.09
544.48	58382.32
544.65	58611.70
544.82	59143.00
544.99	58672.55
545.16	58288.70
545.32	58344.87
545.49	59000.22
545.66	59196.83
545.83	58838.73
546.00	58485.31
546.16	58316.79
546.33	58286.36
546.50	58295.72
546.67	58773.19
546.83	58396.37
547.00	58485.31
547.17	57846.34
547.34	57076.30
547.50	57088.01
547.67	57511.64
547.84	57790.17
548.00	58120.18
548.17	58230.19
548.34	58375.30
548.51	58169.33
548.67	58209.12
548.84	58342.53
549.01	58574.25
549.18	58185.72
549.34	58314.45
549.51	58145.93
549.68	58080.39
549.84	57958.69
550.01	57811.23
550.18	57623.99
550.34	57689.52
550.51	57879.11
550.68	57724.63
550.84	57322.06
551.01	57736.34
551.18	57399.30
551.34	57724.63
551.51	58005.50
551.68	58244.23
551.84	58148.27
552.01	58237.21
552.18	57993.79
552.34	57059.92
552.51	56949.92
552.68	56666.71
552.84	57219.08
553.01	57471.85
553.18	57499.94
553.34	57539.73
553.51	57591.22
553.67	57640.37
553.84	57972.73
554.01	57757.40
554.17	57663.78
554.34	57612.29
554.51	57825.28
554.67	58323.81
554.84	57862.72
555.00	57483.56
555.17	57544.41
555.33	57310.36
555.50	57333.76
555.67	57607.61
555.83	57265.89
556.00	57010.77
556.16	56912.47
556.33	56556.70
556.50	56460.74
556.66	56341.38
556.83	55969.23
556.99	56217.33
557.16	56460.74
557.32	56699.48
557.49	56694.80
557.65	56872.68
557.82	56769.69
557.98	56933.53
558.15	56200.94
558.32	55311.54
558.48	54578.95
558.65	54951.10
558.81	55302.18
558.98	55360.69
559.14	55763.26
559.31	55737.52
559.47	55758.58
559.64	55458.99
559.80	55054.08
559.97	55164.09
560.13	55456.65
560.30	56427.98
560.46	56800.12
560.63	57223.76
560.79	57148.86
560.96	56905.44
561.12	55739.86
561.29	54798.96
561.45	54820.03
561.61	55664.96
561.78	55732.84
561.94	55781.99
562.11	55496.44
562.27	55180.47
562.44	55648.58
562.60	56090.94
562.77	56095.62
562.93	56214.99
563.10	55987.95
563.26	55430.91
563.42	55482.40
563.59	55341.97
563.75	55206.22
563.92	55442.61
564.08	55185.15
564.24	55639.22
564.41	55592.40
564.57	55559.64
564.74	55395.80
564.90	55182.81
565.07	55217.92
565.23	54487.67
565.39	54181.06
565.56	53939.99
565.72	53586.57
565.88	54010.20
566.05	54101.48
566.21	54766.20
566.38	54707.68
566.54	54597.68
566.70	55025.99
566.87	55309.20
567.03	55192.17
567.19	55337.29
567.36	55316.22
567.52	55007.27
567.68	54794.28
567.85	54157.66
568.01	53677.85
568.17	53717.64
568.34	53286.98
568.50	53516.35
568.66	53366.55
568.83	54033.61
568.99	53841.68
569.15	53996.16
569.32	53947.01
569.48	53717.64
569.64	53542.10
569.81	53272.93
569.97	53373.58
570.13	53214.42
570.30	52743.97
570.46	52055.85
570.62	51765.63
570.78	51613.49
570.95	52016.07
571.11	52376.51
571.27	52732.27
571.43	52949.94
571.60	53689.55
571.76	53453.15
571.92	53668.48
572.09	54124.89
572.25	53925.94
572.41	53680.19
572.57	53621.67
572.74	53691.89
572.90	53219.10
573.06	53343.15
573.22	53286.98
573.38	53361.87
573.55	53130.16
573.71	53504.65
573.87	53588.91
574.03	52985.05
574.20	53153.57
574.36	52882.06
574.52	52622.26
574.68	52446.72
574.84	52100.32
575.01	51545.62
575.17	51311.56
575.33	51990.32
575.49	51971.60
575.65	52322.68
575.82	51873.29
575.98	51744.56
576.14	52222.03
576.30	52100.32
576.46	52397.57
576.62	52229.05
576.79	52238.42
576.95	51505.83
577.11	51920.10
577.27	52067.56
577.43	52058.20
577.59	51210.92
577.75	51231.99
577.92	50885.59
578.08	50394.07
578.24	50260.66
578.40	50726.43
578.56	51089.21
578.72	50850.48
578.88	51278.80
579.04	51346.67
579.21	51377.10
579.37	51611.15
579.53	51463.70
579.69	51578.39
579.85	52109.69
580.01	51777.33
580.17	51133.68
580.33	50897.29
580.49	50927.72
580.65	51274.12
580.82	51796.06
580.98	51700.09
581.14	51503.49
581.30	51447.32
581.46	51353.69
581.62	51655.62
581.78	51461.36
581.94	51948.19
582.10	51655.62
582.26	51320.93
582.42	51597.11
582.58	51505.83
582.74	51379.44
582.90	51742.22
583.06	51657.96
583.22	51283.48
583.38	51040.06
583.54	50965.17
583.70	50993.25
583.86	51290.50
584.02	51007.29
584.18	51107.94
584.34	50930.06
584.50	50894.95
584.66	50841.12
584.82	49998.52
584.98	50300.45
585.14	50010.23
