SpectraSuite Data File
++++++++++++++++++++++++++++++++++++
Date: Mon Oct 07 14:53:59 GMT-05:00 2013
User: price-jones
Dark Spectrum Present: No
Reference Spectrum Present: No
Number of Sampled Component Spectra: 1
Spectrometers: USB2+H05261
Integration Time (usec): 100000 (USB2+H05261)
Spectra Averaged: 1 (USB2+H05261)
Boxcar Smoothing: 0 (USB2+H05261)
Correct for Electrical Dark: No (USB2+H05261)
Strobe/Lamp Enabled: No (USB2+H05261)
Correct for Detector Non-linearity: No (USB2+H05261)
Correct for Stray Light: No (USB2+H05261)
Number of Pixels in Processed Spectrum: 2048
>>>>>Begin Processed Spectral Data<<<<<
365.73	0.00
365.92	0.00
366.12	0.00
366.32	0.00
366.52	0.00
366.72	0.00
366.91	0.00
367.11	0.00
367.31	0.00
367.51	0.00
367.70	0.00
367.90	0.00
368.10	0.00
368.30	0.00
368.49	0.00
368.69	0.00
368.89	0.00
369.09	0.00
369.28	0.00
369.48	0.00
369.68	0.00
369.87	0.00
370.07	0.00
370.27	0.00
370.47	844.93
370.66	3461.65
370.86	4255.09
371.06	4346.37
371.25	4517.23
371.45	4070.19
371.65	3765.92
371.84	3555.27
372.04	3672.30
372.24	4107.64
372.44	4231.69
372.63	4060.83
372.83	3925.08
373.03	3527.19
373.22	3309.52
373.42	3342.28
373.62	3826.78
373.81	4259.78
374.01	4156.79
374.21	3723.79
374.40	3494.42
374.60	3676.98
374.79	4093.60
374.99	4835.55
375.19	5088.32
375.38	5219.39
375.58	4814.48
375.78	4957.25
375.97	4791.08
376.17	4943.21
376.37	4992.36
376.56	5242.80
376.76	5284.93
376.95	5830.27
377.15	6155.61
377.35	6450.52
377.54	6715.00
377.74	6874.15
377.93	7052.03
378.13	6574.56
378.33	6462.22
378.52	5956.66
378.72	5474.51
378.91	5621.97
379.11	5317.70
379.31	5210.03
379.50	5233.44
379.70	5586.86
379.89	6118.16
380.09	6607.33
380.28	6747.76
380.48	6679.89
380.68	6729.04
380.87	6427.11
381.07	5919.21
381.26	5437.06
381.46	5039.17
381.65	5198.33
381.85	4798.10
382.04	4685.75
382.24	4273.82
382.43	4208.28
382.63	3985.93
382.83	4191.90
383.02	4166.15
383.22	4084.23
383.41	4093.60
383.61	4468.08
383.80	5060.24
384.00	5757.72
384.19	6319.45
384.39	6555.84
384.58	6658.82
384.78	6548.82
384.97	6457.54
385.17	6218.80
385.36	5788.14
385.56	5577.50
385.75	5788.14
385.95	6300.72
386.14	6878.83
386.34	6726.70
386.53	6595.63
386.72	6216.46
386.92	6274.98
387.11	6466.90
387.31	6813.30
387.50	6778.19
387.70	6502.01
387.89	6427.11
388.09	6520.73
388.28	6518.39
388.48	6387.32
388.67	7037.99
388.86	7777.60
389.06	8212.94
389.25	8681.05
389.45	8865.95
389.64	8657.64
389.84	8662.32
390.03	8606.15
390.22	8463.38
390.42	8713.81
390.61	9263.84
390.81	10132.18
391.00	10218.78
391.19	10188.35
391.39	9898.13
391.58	9195.96
391.78	8564.02
391.97	8297.20
392.16	7777.60
392.36	7276.73
392.55	5823.25
392.75	4629.58
392.94	3747.20
393.13	3585.70
393.33	4313.61
393.52	5568.13
393.71	6808.62
393.91	7655.89
394.10	8400.18
394.29	9284.91
394.49	10097.07
394.68	10630.71
394.88	10534.75
395.07	10946.69
395.26	10808.59
395.46	10487.94
395.65	10150.90
395.84	8992.34
396.04	7534.18
396.23	6024.54
396.42	5039.17
396.62	4940.87
396.81	5610.26
397.00	7049.69
397.19	9221.71
397.39	10672.84
397.58	12093.55
397.77	12699.75
397.97	13172.54
398.16	13359.78
398.35	13776.39
398.55	14120.45
398.74	14654.09
398.93	15187.74
399.12	15276.68
399.32	14445.79
399.51	14766.44
399.70	15723.72
399.90	15583.29
400.09	15583.29
400.28	15435.83
400.47	15620.74
400.67	16315.87
400.86	16884.62
401.05	16652.91
401.24	16594.40
401.44	17097.61
401.63	17102.29
401.82	16847.18
402.01	17209.96
402.21	17469.76
402.40	17380.82
402.59	16751.21
402.78	16315.87
402.97	15592.65
403.17	15992.88
403.36	17240.39
403.55	17916.80
403.74	18017.44
403.93	17413.59
404.13	15943.73
404.32	15850.11
404.51	16353.32
404.70	17699.13
404.89	17713.17
405.09	17638.28
405.28	16730.15
405.47	17008.67
405.66	17046.12
405.85	16276.09
406.05	15999.90
406.24	16299.49
406.43	16776.96
406.62	17254.43
406.81	17502.53
407.00	16975.91
407.20	16365.03
407.39	16402.47
407.58	17329.33
407.77	18080.64
407.96	18735.99
408.15	18878.76
408.34	18932.59
408.54	19927.32
408.73	20032.65
408.92	19646.46
409.11	19089.41
409.30	18314.69
409.49	16929.09
409.68	16058.42
409.87	15391.36
410.07	16374.39
410.26	17551.68
410.45	18937.27
410.64	19311.76
410.83	19723.69
411.02	20519.48
411.21	21326.96
411.40	21039.08
411.59	20908.01
411.78	20613.10
411.98	20437.56
412.17	20762.89
412.36	20833.11
412.55	20381.38
412.74	20081.80
412.93	19810.29
413.12	19852.42
413.31	21806.77
413.50	21827.84
413.69	22485.53
413.88	21324.62
414.07	21209.93
414.26	21333.98
414.45	21610.17
414.64	21935.50
414.83	22047.85
415.02	21687.40
415.22	21738.90
415.41	22300.62
415.60	22759.37
415.79	23709.63
415.98	24320.51
416.17	24285.40
416.36	23749.42
416.55	22906.82
416.74	22169.55
416.93	21504.84
417.12	21376.11
417.31	22022.10
417.50	22047.85
417.69	23250.88
417.88	22892.78
418.07	22852.99
418.26	22171.89
418.45	22920.87
418.64	23403.02
418.83	24325.19
419.02	24322.85
419.21	24320.51
419.39	22726.60
419.58	21612.51
419.77	21860.60
419.96	22862.35
420.15	24046.66
420.34	24716.06
420.53	25113.95
420.72	25678.02
420.91	25757.60
421.10	25411.20
421.29	25104.59
421.48	24259.65
421.67	25343.32
421.86	25083.52
422.05	23220.45
422.24	20709.06
422.43	20688.00
422.61	22796.82
422.80	24496.05
422.99	24599.03
423.18	23697.92
423.37	23190.03
423.56	23662.82
423.75	23410.04
423.94	24409.45
424.13	22897.46
424.32	23058.96
424.50	23206.41
424.69	22829.59
424.88	22941.93
425.07	23143.22
425.26	22649.36
425.45	22487.87
425.64	22036.14
425.83	21881.67
426.01	23658.14
426.20	24311.14
426.39	23756.44
426.58	22228.07
426.77	20278.40
426.96	19548.15
427.15	20416.49
427.33	22471.48
427.52	23173.64
427.71	23316.42
427.90	22986.40
428.09	22696.17
428.28	22520.63
428.46	21816.13
428.65	21071.84
428.84	21694.43
429.03	21905.07
429.22	20556.93
429.40	19747.10
429.59	17881.69
429.78	15655.84
429.97	15632.44
430.16	16219.91
430.34	16341.62
430.53	15948.41
430.72	16456.31
430.91	18143.83
431.10	21443.99
431.28	25310.55
431.47	27248.52
431.66	27517.68
431.85	25209.91
432.03	23070.66
432.22	21909.75
432.41	22911.50
432.60	25525.88
432.79	26532.31
432.97	26946.59
433.16	26658.70
433.35	24210.50
433.54	21869.97
433.72	20650.55
433.91	20975.88
434.10	23557.49
434.28	25284.81
434.47	26700.83
434.66	26012.71
434.85	25504.82
435.03	25120.97
435.22	25764.62
435.41	27571.51
435.59	27618.32
435.78	27606.62
435.97	28650.50
436.16	28788.59
436.34	28458.57
436.53	27580.87
436.72	27695.56
436.90	26089.95
437.09	26398.90
437.28	25764.62
437.46	26759.34
437.65	26675.09
437.84	25127.99
438.02	22740.64
438.21	22494.89
438.40	23878.15
438.58	25687.38
438.77	26815.52
438.96	26787.43
439.14	28166.01
439.33	28568.58
439.52	29081.16
439.70	28465.60
439.89	27779.82
440.08	26890.41
440.26	26778.07
440.45	28219.84
440.63	29593.73
440.82	31199.34
441.01	30539.31
441.19	30487.82
441.38	31264.88
441.57	32364.93
441.75	32430.46
441.94	32107.47
442.12	32084.06
442.31	32800.27
442.50	32701.96
442.68	32664.52
442.87	31901.50
443.05	31585.53
443.24	31821.92
443.43	32882.19
443.61	33633.50
443.80	33619.46
443.98	31615.96
444.17	31489.57
444.35	33696.69
444.54	34181.18
444.73	33989.26
444.91	32521.74
445.10	30995.71
445.28	29771.61
445.47	29441.60
445.65	29954.18
445.84	30384.83
446.02	31625.32
446.21	31817.24
446.39	32250.24
446.58	32481.95
446.77	33071.77
446.95	33181.77
447.14	33909.68
447.32	34803.77
447.51	33752.87
447.69	32582.60
447.88	32275.99
448.06	32751.12
448.25	33296.46
448.43	34167.14
448.62	32685.58
448.80	32774.52
448.99	32968.79
449.17	33507.11
449.36	33656.90
449.54	34541.63
449.73	35140.80
449.91	35772.75
450.10	36449.16
450.28	37123.24
450.46	36407.03
450.65	36870.46
450.83	36603.64
451.02	35618.27
451.20	35625.29
451.39	35629.98
451.57	35049.52
451.76	35126.76
451.94	34834.19
452.13	34340.34
452.31	33139.65
452.49	31000.40
452.68	31702.56
452.86	31861.71
453.05	31868.73
453.23	32921.98
453.42	33816.06
453.60	34618.86
453.78	34756.96
453.97	34829.51
454.15	34621.20
454.34	33799.68
454.52	34103.95
454.70	33287.10
454.89	33823.08
455.07	33689.67
455.26	33912.02
455.44	35639.34
455.62	36154.26
455.81	36727.69
455.99	36240.86
456.17	35849.99
456.36	36123.83
456.54	36907.91
456.73	36563.85
456.91	37202.82
457.09	37645.18
457.28	38363.72
457.46	37209.84
457.64	36704.28
457.83	35597.21
458.01	34403.53
458.19	35393.58
458.38	35615.93
458.56	37177.07
458.74	36898.55
458.93	35922.54
459.11	36114.47
459.29	35534.01
459.48	35976.37
459.66	35814.88
459.84	36364.90
460.03	36559.17
460.21	36130.85
460.39	37640.50
460.57	37593.68
460.76	37846.46
460.94	38007.96
461.12	37230.90
461.31	37738.80
461.49	37184.09
461.67	37354.95
461.85	38550.96
462.04	38078.18
462.22	38918.43
462.40	38115.62
462.59	38132.01
462.77	38609.48
462.95	38447.98
463.13	37567.94
463.32	37675.60
463.50	37214.52
463.68	37277.71
463.86	37343.25
464.05	37329.20
464.23	36121.49
464.41	35936.59
464.59	35398.26
464.78	37315.16
464.96	36914.93
465.14	36505.34
465.32	37668.58
465.50	38354.36
465.69	38653.95
465.87	37703.69
466.05	37015.57
466.23	34906.75
466.41	34604.82
466.60	35438.05
466.78	35688.49
466.96	35859.35
467.14	36641.09
467.32	37345.59
467.51	37235.58
467.69	35545.72
467.87	36243.20
468.05	37148.98
468.23	36875.14
468.41	36484.27
468.60	37097.49
468.78	37270.69
468.96	36825.99
469.14	37984.55
469.32	38153.07
469.50	36009.14
469.69	36629.38
469.87	36327.45
470.05	35786.79
470.23	36048.93
470.41	35990.42
470.59	36517.04
470.77	36460.87
470.95	37383.04
471.14	37867.53
471.32	37900.29
471.50	39889.75
471.68	39945.92
471.86	40088.70
472.04	40456.16
472.22	40460.84
472.40	38218.61
472.58	38590.75
472.77	37956.47
472.95	38309.89
473.13	39246.10
473.31	38576.71
473.49	38686.71
473.67	39400.58
473.85	39693.15
474.03	40449.14
474.21	40655.11
474.39	40959.38
474.57	41408.76
474.75	41617.07
474.93	41237.90
475.12	40006.78
475.30	39959.97
475.48	40519.35
475.66	40519.35
475.84	40175.30
476.02	39484.84
476.20	39704.85
476.38	40212.74
476.56	41354.93
476.74	41902.61
476.92	41914.31
477.10	42244.33
477.28	43374.81
477.46	43845.26
477.64	44409.32
477.82	44285.28
478.00	44355.49
478.18	43868.66
478.36	43185.22
478.54	43274.16
478.72	44329.75
478.90	44996.80
479.08	45603.00
479.26	46422.19
479.44	46335.59
479.62	45720.02
479.80	45900.25
479.98	46597.73
480.16	46717.09
480.34	45888.54
480.52	46422.19
480.70	46717.09
480.88	46944.12
481.06	47657.99
481.24	47917.79
481.41	48622.29
481.59	49401.69
481.77	48795.49
481.95	48376.53
482.13	48163.54
482.31	48418.66
482.49	49106.78
482.67	48783.79
482.85	49162.95
483.03	49677.87
483.21	49977.46
483.39	49785.54
483.57	49036.56
483.74	49212.10
483.92	48964.01
484.10	49113.80
484.28	50150.66
484.46	50733.45
484.64	50740.47
484.82	50124.91
485.00	49670.85
485.18	48949.96
485.35	47665.01
485.53	44737.00
485.71	40498.29
485.89	40212.74
486.07	42415.19
486.25	45516.40
486.43	48002.05
486.61	48685.48
486.78	48540.37
486.96	48839.96
487.14	50244.28
487.32	50890.27
487.50	51866.27
487.68	52832.91
487.85	53235.48
488.03	53144.20
488.21	52774.40
488.39	52088.62
488.57	51700.09
488.75	51210.92
488.92	52238.42
489.10	54277.02
489.28	55323.24
489.46	56058.17
489.64	55798.37
489.81	56142.43
489.99	55636.87
490.17	55512.83
490.35	56149.45
490.53	55217.92
490.70	55304.52
490.88	55105.57
491.06	56133.07
491.24	55901.36
491.41	55201.53
491.59	53769.13
491.77	52811.85
491.95	53560.82
492.13	55128.98
492.30	56086.26
492.48	56868.00
492.66	57205.03
492.84	57319.72
493.01	57043.54
493.19	56657.35
493.37	56170.52
493.54	55973.91
493.72	56734.59
493.90	57680.16
494.08	58127.20
494.25	58403.39
494.43	58518.07
494.61	58805.96
494.79	58864.47
494.96	58831.71
495.14	58337.85
495.32	57343.12
495.49	56772.03
495.67	57762.08
495.85	58939.37
496.02	59456.63
496.20	59164.06
496.38	58728.72
496.55	58756.81
496.73	58829.37
496.91	59140.66
497.09	59849.84
497.26	60009.00
497.44	59487.06
497.62	59154.70
497.79	58340.19
497.97	57160.56
498.14	57188.65
498.32	58120.18
498.50	59128.95
498.67	59440.24
498.85	59526.84
499.03	59597.06
499.20	60011.34
499.38	59711.75
499.56	59571.32
499.73	59295.13
499.91	58946.39
500.08	58489.99
500.26	57904.85
500.44	58291.04
500.61	58960.44
500.79	58581.27
500.97	58323.81
501.14	58085.07
501.32	57925.92
501.49	57958.69
501.67	58340.19
501.84	58763.83
502.02	58899.58
502.20	59238.96
502.37	59540.89
502.55	59400.46
502.72	60011.34
502.90	60353.05
503.07	60065.17
503.25	59732.81
503.43	59025.97
503.60	58401.05
503.78	57839.32
503.95	57954.00
504.13	59550.25
504.30	60217.30
504.48	60034.74
504.65	59779.62
504.83	59657.91
505.01	60287.52
505.18	60376.46
505.36	61080.96
505.53	61186.28
505.71	61588.86
505.88	61291.61
506.06	60748.60
506.23	60594.13
506.41	60114.32
506.58	60603.49
506.76	60294.54
506.93	60287.52
507.11	60247.73
507.28	60154.11
507.46	59770.26
507.63	59278.75
507.81	59056.40
507.98	59428.54
508.16	59863.88
508.33	60547.32
508.50	60774.35
508.68	61120.75
508.85	61556.09
509.03	61434.38
509.20	61265.86
509.38	60509.87
509.55	59798.35
509.73	60018.36
509.90	60643.28
510.08	60802.44
510.25	60882.02
510.42	60514.55
510.60	60341.35
510.77	60580.09
510.95	61062.24
511.12	61216.71
511.30	61689.50
511.47	61722.27
511.64	61787.80
511.82	61324.38
511.99	60769.67
512.17	60299.22
512.34	59898.99
512.51	60226.66
512.69	60331.99
512.86	60315.61
513.04	60760.31
513.21	60741.58
513.38	60247.73
513.56	59948.14
513.73	59470.67
513.90	59767.92
514.08	59723.45
514.25	59686.00
514.43	60041.76
514.60	60217.30
514.77	60390.50
514.95	60362.42
515.12	60212.62
515.29	60573.06
515.47	60977.98
515.64	61319.70
515.81	60694.77
515.99	60467.74
516.16	59154.70
516.33	56903.10
516.51	55524.53
516.68	54698.32
516.85	54358.94
517.03	54688.96
517.20	57134.82
517.37	59583.02
517.54	60350.71
517.72	60046.44
517.89	57829.96
518.06	55112.59
518.24	55812.41
518.41	57815.91
518.58	59194.49
518.75	59128.95
518.93	59344.28
519.10	59231.94
519.27	59842.82
519.45	59845.16
519.62	60790.73
519.79	60872.65
519.96	60645.62
520.14	60399.86
520.31	59592.38
520.48	59405.14
520.65	59817.07
520.83	60809.46
521.00	61116.07
521.17	60706.47
521.34	60289.86
521.52	60640.94
521.69	61151.18
521.86	61614.60
522.03	61315.01
522.20	60357.74
522.38	59173.42
522.55	59173.42
522.72	59643.87
522.89	59693.02
523.07	60011.34
523.24	60484.12
523.41	61179.26
523.58	61406.30
523.75	61694.18
523.92	61731.63
524.10	61616.94
524.27	61523.32
524.44	61368.85
524.61	61221.39
524.78	60942.87
524.96	60802.44
525.13	61240.12
525.30	61216.71
525.47	61668.44
525.64	61432.04
525.81	60980.32
525.98	59587.70
526.16	58260.62
526.33	57645.05
526.50	57205.03
526.67	56975.66
526.84	57537.39
527.01	58349.56
527.18	59093.85
527.36	60083.89
527.53	60907.76
527.70	61172.24
527.87	60615.19
528.04	60214.96
528.21	60540.30
528.38	61249.48
528.55	61890.79
528.72	61979.73
528.89	62138.88
529.07	61914.19
529.24	61331.40
529.41	60516.89
529.58	60289.86
529.75	60182.19
529.92	60537.96
530.09	61029.47
530.26	61403.95
530.43	61762.06
530.60	61528.00
530.77	61876.74
530.94	62120.16
531.11	61504.60
531.28	61329.06
531.46	60963.93
531.63	61326.72
531.80	61097.34
531.97	60790.73
532.14	60027.72
532.31	59070.44
532.48	58642.12
532.65	58562.54
532.82	59316.20
532.99	60385.82
533.16	60537.96
533.33	61240.12
533.50	60926.49
533.67	60610.51
533.84	59854.52
534.01	60200.92
534.18	60397.52
534.35	60617.53
534.52	60411.57
534.69	60739.24
534.86	61097.34
535.03	61181.60
535.20	61581.84
535.37	61965.68
535.54	61874.40
535.71	61619.28
535.88	61418.00
536.05	60722.86
536.22	60388.16
536.38	59999.63
536.55	59470.67
536.72	59192.15
536.89	59037.67
537.06	59714.09
537.23	60727.54
537.40	60788.39
537.57	60879.67
537.74	60701.79
537.91	60399.86
538.08	60650.30
538.25	60615.19
538.42	60856.27
538.59	60640.94
538.75	59948.14
538.92	59833.46
539.09	59547.91
539.26	59421.52
539.43	59444.93
539.60	59304.49
539.77	59580.68
539.94	59475.35
540.11	58742.77
540.28	58246.57
540.44	58473.60
540.61	58560.20
540.78	58993.20
540.95	59030.65
541.12	59578.34
541.29	59767.92
541.46	59985.59
541.62	59875.58
541.79	60081.55
541.96	59379.39
542.13	59203.85
542.30	59566.63
542.47	59903.67
542.63	59585.36
542.80	59339.60
542.97	59423.86
543.14	59501.10
543.31	59388.75
543.48	59840.48
543.64	60753.29
543.81	60970.96
543.98	60753.29
544.15	59948.14
544.32	59405.14
544.48	59351.30
544.65	59955.16
544.82	60292.20
544.99	59873.24
545.16	59639.19
545.32	59206.19
545.49	60121.34
545.66	60364.76
545.83	60044.10
546.00	59800.69
546.16	59735.15
546.33	59477.69
546.50	59491.74
546.67	59985.59
546.83	59667.28
547.00	59608.76
547.17	59222.58
547.34	58571.91
547.50	58541.48
547.67	58990.86
547.84	58955.75
548.00	59391.09
548.17	59501.10
548.34	59428.54
548.51	59671.96
548.67	59613.44
548.84	59735.15
549.01	59688.34
549.18	59358.33
549.34	59559.61
549.51	59465.99
549.68	59480.03
549.84	59253.00
550.01	59110.23
550.18	58965.12
550.34	59058.74
550.51	59269.39
550.68	59456.63
550.84	58660.85
551.01	58571.91
551.18	58656.17
551.34	58873.84
551.51	59299.81
551.68	59480.03
551.84	59529.19
552.01	59381.73
552.18	59245.98
552.34	58518.07
552.51	58262.96
552.68	57867.40
552.84	58548.50
553.01	58768.51
553.18	58920.65
553.34	58843.41
553.51	58702.98
553.67	59227.26
553.84	59264.70
554.01	59089.16
554.17	58995.54
554.34	59032.99
554.51	59133.63
554.67	59341.94
554.84	59110.23
555.00	58787.24
555.17	58614.04
555.33	58672.55
555.50	58466.58
555.67	58728.72
555.83	58513.39
556.00	58337.85
556.16	58255.93
556.33	57815.91
556.50	57726.97
556.66	57794.85
556.83	57513.98
556.99	57605.26
557.16	57663.78
557.32	58049.97
557.49	58148.27
557.65	58134.23
557.82	58164.65
557.98	57975.07
558.15	57659.10
558.32	56535.64
558.48	56051.15
558.65	56172.86
558.81	56540.32
558.98	56825.87
559.14	57066.94
559.31	57003.75
559.47	57092.69
559.64	56863.32
559.80	56624.58
559.97	56406.91
560.13	56938.21
560.30	57670.80
560.46	58382.32
560.63	58396.37
560.79	58436.16
560.96	58209.12
561.12	57013.11
561.29	56055.83
561.45	56067.53
561.61	56931.19
561.78	57228.44
561.94	57017.79
562.11	56940.55
562.27	56842.25
562.44	57109.07
562.60	57233.12
562.77	57425.04
562.93	57530.37
563.10	57509.30
563.26	56889.06
563.42	56959.28
563.59	56575.43
563.75	56713.52
563.92	56622.24
564.08	56694.80
564.24	56959.28
564.41	57043.54
564.57	56830.55
564.74	56690.12
564.90	56865.66
565.07	56383.51
565.23	56053.49
565.39	55763.26
565.56	55281.11
565.72	55082.17
565.88	55585.38
566.05	55480.06
566.21	55810.07
566.38	55938.80
566.54	56095.62
566.70	56416.27
566.87	56587.13
567.03	56554.36
567.19	56626.92
567.36	56676.07
567.52	56411.59
567.68	56378.82
567.85	55702.41
568.01	55306.86
568.17	54813.01
568.34	54883.22
568.50	54979.18
568.66	54857.48
568.83	55229.62
568.99	55353.67
569.15	55718.79
569.32	55557.30
569.48	55196.85
569.64	55203.88
569.81	54726.41
569.97	54738.11
570.13	54782.58
570.30	54120.21
570.46	53710.61
570.62	53413.37
570.78	52978.03
570.95	53476.56
571.11	54038.29
571.27	54185.74
571.43	54501.71
571.60	54866.84
571.76	55018.97
571.92	55136.00
572.09	55327.92
572.25	55449.63
572.41	55227.28
572.57	55178.13
572.74	55084.51
572.90	54780.24
573.06	54728.75
573.22	54869.18
573.38	54965.14
573.55	54667.89
573.71	55035.36
573.87	54791.94
574.03	54330.86
574.20	54763.85
574.36	54293.41
574.52	54049.99
574.68	54059.35
574.84	53813.60
575.01	53233.14
575.17	52996.75
575.33	53418.05
575.49	53593.59
575.65	53886.15
575.82	53567.84
575.98	53277.61
576.14	53411.02
576.30	54054.67
576.46	54038.29
576.62	53942.33
576.79	53684.87
576.95	53485.92
577.11	53268.25
577.27	53387.62
577.43	53752.74
577.59	53249.53
577.75	52722.91
577.92	52135.43
578.08	51910.74
578.24	52105.01
578.40	52285.23
578.56	52643.33
578.72	52636.31
578.88	53102.07
579.04	53073.99
579.21	52963.98
579.37	53062.29
579.53	53396.98
579.69	53345.49
579.85	53317.40
580.01	53188.67
580.17	52875.04
580.33	52844.62
580.49	52495.88
580.65	52949.94
580.82	52783.76
580.98	53090.37
581.14	53034.20
581.30	53008.45
581.46	52861.00
581.62	53174.63
581.78	53345.49
581.94	53389.96
582.10	53455.50
582.26	53291.66
582.42	53490.60
582.58	53036.54
582.74	53155.91
582.90	53186.33
583.06	53212.08
583.22	52903.13
583.38	52823.55
583.54	52802.49
583.70	52804.83
583.86	52718.23
584.02	52907.81
584.18	52853.98
584.34	52746.31
584.50	52521.62
584.66	52617.58
584.82	52100.32
584.98	51971.60
585.14	51702.43
