SpectraSuite Data File
++++++++++++++++++++++++++++++++++++
Date: Mon Oct 07 14:53:41 GMT-05:00 2013
User: price-jones
Dark Spectrum Present: No
Reference Spectrum Present: No
Number of Sampled Component Spectra: 1
Spectrometers: USB2+H05261
Integration Time (usec): 100000 (USB2+H05261)
Spectra Averaged: 1 (USB2+H05261)
Boxcar Smoothing: 0 (USB2+H05261)
Correct for Electrical Dark: No (USB2+H05261)
Strobe/Lamp Enabled: No (USB2+H05261)
Correct for Detector Non-linearity: No (USB2+H05261)
Correct for Stray Light: No (USB2+H05261)
Number of Pixels in Processed Spectrum: 2048
>>>>>Begin Processed Spectral Data<<<<<
365.73	0.00
365.92	0.00
366.12	0.00
366.32	0.00
366.52	0.00
366.72	0.00
366.91	0.00
367.11	0.00
367.31	0.00
367.51	0.00
367.70	0.00
367.90	0.00
368.10	0.00
368.30	0.00
368.49	0.00
368.69	0.00
368.89	0.00
369.09	0.00
369.28	0.00
369.48	0.00
369.68	0.00
369.87	0.00
370.07	0.00
370.27	0.00
370.47	533.64
370.66	2689.28
370.86	3239.30
371.06	3236.96
371.25	3581.02
371.45	3115.25
371.65	2775.88
371.84	2565.23
372.04	2761.83
372.24	3143.34
372.44	3389.10
372.63	3213.56
372.83	3159.72
373.03	2677.57
373.22	2392.03
373.42	2640.12
373.62	2885.88
373.81	3190.15
374.01	3208.87
374.21	2916.31
374.40	2712.68
374.60	2888.22
374.79	3206.53
374.99	3602.08
375.19	3992.95
375.38	4049.13
375.58	3667.62
375.78	3583.36
375.97	3784.65
376.17	3838.48
376.37	3672.30
376.56	3962.53
376.76	4093.60
376.95	4454.04
377.15	4873.00
377.35	5027.47
377.54	5085.98
377.74	5380.89
377.93	5287.27
378.13	5083.64
378.33	5018.11
378.52	4545.32
378.72	4290.20
378.91	4222.33
379.11	4215.30
379.31	3981.25
379.50	4074.87
379.70	4262.12
379.89	4809.80
380.09	5078.96
380.28	5151.52
380.48	5263.86
380.68	5235.78
380.87	5043.85
381.07	4709.16
381.26	4208.28
381.46	3918.06
381.65	3815.07
381.85	3791.67
382.04	3578.68
382.24	3281.43
382.43	3213.56
382.63	3143.34
382.83	3084.83
383.02	3225.26
383.22	3225.26
383.41	3124.62
383.61	3442.93
383.80	3815.07
384.00	4365.10
384.19	4919.81
384.39	5167.90
384.58	5298.97
384.78	5109.39
384.97	5153.86
385.17	4784.06
385.36	4664.69
385.56	4278.50
385.75	4477.44
385.95	5013.43
386.14	5343.44
386.34	5357.49
386.53	4999.38
386.72	4791.08
386.92	4931.51
387.11	4968.96
387.31	5373.87
387.50	5453.45
387.70	5085.98
387.89	5088.32
388.09	5172.58
388.28	4947.89
388.48	5329.40
388.67	5652.39
388.86	6127.52
389.06	6544.14
389.25	7037.99
389.45	6895.22
389.64	6925.65
389.84	6991.18
390.03	6637.76
390.22	6864.79
390.42	7028.63
390.61	7360.98
390.81	7894.63
391.00	7932.08
391.19	8109.96
391.39	7599.72
391.58	7335.24
391.78	6836.70
391.97	6572.22
392.16	6127.52
392.36	5577.50
392.55	4711.50
392.75	3620.81
392.94	2972.48
393.13	2937.37
393.33	3382.07
393.52	4348.72
393.71	5380.89
393.91	6232.85
394.10	6633.08
394.29	7206.51
394.49	7829.09
394.68	8683.39
394.88	8528.91
395.07	8877.65
395.26	8629.56
395.46	8468.06
395.65	8154.43
395.84	6930.33
396.04	6069.01
396.23	4727.88
396.42	4053.81
396.62	3784.65
396.81	4428.29
397.00	5710.91
397.19	7267.36
397.39	8688.07
397.58	9469.81
397.77	10399.00
397.97	10548.79
398.16	10740.72
398.35	11103.50
398.55	11424.15
398.74	11761.19
398.93	12238.66
399.12	11808.00
399.32	11489.69
399.51	11786.94
399.70	12428.24
399.90	12575.70
400.09	12575.70
400.28	12397.82
400.47	12273.77
400.67	12919.76
400.86	13453.40
401.05	13137.43
401.24	13448.72
401.44	13696.82
401.63	13727.24
401.82	13944.91
402.01	13755.33
402.21	13912.14
402.40	13888.74
402.59	13558.72
402.78	13107.00
402.97	12648.26
403.17	12865.92
403.36	13673.41
403.55	14455.15
403.74	14965.39
403.93	14015.13
404.13	13062.53
404.32	12638.89
404.51	13008.70
404.70	14314.72
404.89	14202.37
405.09	14104.07
405.28	13521.27
405.47	13626.60
405.66	13893.42
405.85	13322.33
406.05	13006.36
406.24	13015.72
406.43	13853.63
406.62	14232.80
406.81	14324.08
407.00	13738.94
407.20	13556.38
407.39	13584.47
407.58	14295.99
407.77	14656.43
407.96	15105.82
408.15	15332.85
408.34	15590.31
408.54	16180.12
408.73	16194.17
408.92	16032.67
409.11	15594.99
409.30	14630.69
409.49	13631.28
409.68	13104.66
409.87	12484.42
410.07	12938.48
410.26	14485.58
410.45	15426.47
410.64	15566.90
410.83	15857.13
411.02	16795.68
411.21	17481.46
411.40	17036.76
411.59	17235.70
411.78	17291.88
411.98	16994.63
412.17	16884.62
412.36	16695.04
412.55	16664.61
412.74	16517.16
412.93	16152.04
413.12	15967.13
413.31	17795.09
413.50	17909.78
413.69	18317.03
413.88	17453.37
414.07	17081.23
414.26	17301.24
414.45	17635.94
414.64	18029.15
414.83	18052.55
415.02	17626.57
415.22	17572.74
415.41	17738.92
415.60	18450.44
415.79	19293.04
415.98	19889.87
416.17	19927.32
416.36	19566.88
416.55	18895.14
416.74	18281.92
416.93	17783.39
417.12	18005.74
417.31	18209.37
417.50	18061.91
417.69	18995.79
417.88	19058.98
418.07	18810.89
418.26	18274.90
418.45	18717.26
418.64	19302.40
418.83	19927.32
419.02	19726.04
419.21	19765.82
419.39	18735.99
419.58	17776.37
419.77	17799.77
419.96	18658.75
420.15	19707.31
420.34	20217.55
420.53	21142.06
420.72	21528.25
420.91	20854.17
421.10	20896.30
421.29	20535.86
421.48	20219.89
421.67	21057.80
421.86	20503.09
422.05	19042.60
422.24	17177.19
422.43	16723.13
422.61	18436.40
422.80	20313.51
422.99	20465.64
423.18	19648.80
423.37	19037.92
423.56	19239.20
423.75	19496.66
423.94	19913.28
424.13	18733.65
424.32	19066.00
424.50	19440.49
424.69	18860.04
424.88	18916.21
425.07	19044.94
425.26	18953.66
425.45	18672.79
425.64	18225.75
425.83	18408.31
426.01	19398.36
426.20	20144.99
426.39	19857.10
426.58	18600.24
426.77	17132.72
426.96	16128.63
427.15	16814.41
427.33	18380.23
427.52	19187.71
427.71	19044.94
427.90	18993.45
428.09	18885.78
428.28	18462.15
428.46	17745.94
428.65	17582.10
428.84	17912.12
429.03	18480.87
429.22	17373.80
429.40	16437.58
429.59	15096.46
429.78	13034.44
429.97	13149.13
430.16	13341.05
430.34	13298.92
430.53	13399.57
430.72	13558.72
430.91	14864.74
431.10	17809.14
431.28	21142.06
431.47	22328.71
431.66	23283.65
431.85	20854.17
432.03	19379.64
432.22	18625.98
432.41	19337.51
432.60	21216.96
432.79	21872.31
432.97	22939.59
433.16	21846.56
433.35	20430.54
433.54	18265.54
433.72	17078.89
433.91	17603.17
434.10	19751.78
434.28	20940.77
434.47	22122.74
434.66	21769.32
434.85	21174.83
435.03	21212.28
435.22	21827.84
435.41	23187.69
435.59	23103.43
435.78	23080.02
435.97	23976.45
436.16	24329.87
436.34	23623.03
436.53	22970.02
436.72	23051.94
436.90	22045.51
437.09	21956.57
437.28	21266.11
437.46	22272.54
437.65	22499.57
437.84	20929.07
438.02	19157.28
438.21	18855.36
438.40	19955.41
438.58	21792.73
438.77	22583.83
438.96	22614.26
439.14	23779.84
439.33	23901.55
439.52	24456.26
439.70	24222.20
439.89	23206.41
440.08	22759.37
440.26	22487.87
440.45	23112.79
440.63	25022.67
440.82	26424.65
441.01	26094.63
441.19	25542.27
441.38	25916.75
441.57	26902.12
441.75	27569.17
441.94	27583.21
442.12	27199.37
442.31	27988.13
442.50	27948.34
442.68	27489.59
442.87	27012.12
443.05	26829.56
443.24	27295.33
443.43	27826.63
443.61	28023.23
443.80	28599.01
443.98	26822.54
444.17	26672.74
444.35	28430.49
444.54	28947.75
444.73	28701.99
444.91	27585.55
445.10	26426.99
445.28	25483.75
445.47	25008.62
445.65	25137.35
445.84	25818.45
446.02	26651.68
446.21	27264.90
446.39	27274.26
446.58	27660.45
446.77	27950.68
446.95	28161.33
447.14	29324.57
447.32	29252.02
447.51	29088.18
447.69	27814.93
447.88	27452.14
448.06	27648.75
448.25	28996.90
448.43	28491.34
448.62	28360.27
448.80	28236.22
448.99	28063.02
449.17	28549.85
449.36	28297.08
449.54	29546.92
449.73	30118.01
449.91	30288.87
450.10	31421.69
450.28	31899.16
450.46	31351.48
450.65	31550.42
450.83	30780.39
451.02	30235.04
451.20	29883.96
451.39	30356.75
451.57	30206.95
451.76	30146.10
451.94	30450.37
452.13	29207.55
452.31	28503.04
452.49	26434.01
452.68	27204.05
452.86	27330.44
453.05	27676.83
453.23	28435.17
453.42	28898.59
453.60	29516.50
453.78	29893.32
453.97	29469.69
454.15	29532.88
454.34	28964.13
454.52	28865.83
454.70	28725.39
454.89	29127.97
455.07	28973.49
455.26	29472.03
455.44	30590.80
455.62	31072.95
455.81	31119.76
455.99	31213.38
456.17	30382.49
456.36	30707.83
456.54	31646.38
456.73	31463.82
456.91	32046.62
457.09	32250.24
457.28	33055.39
457.46	31646.38
457.64	31159.55
457.83	30382.49
458.01	29820.77
458.19	30501.86
458.38	30597.82
458.56	31992.78
458.74	31894.48
458.93	31012.10
459.11	31171.25
459.29	30654.00
459.48	31058.91
459.66	30656.34
459.84	31168.91
460.03	31393.61
460.21	31379.56
460.39	32098.11
460.57	31721.28
460.76	32856.44
460.94	32837.72
461.12	31978.74
461.31	32037.25
461.49	32280.67
461.67	31957.67
461.85	33457.96
462.04	33170.07
462.22	33048.36
462.40	33521.15
462.59	33027.30
462.77	33123.26
462.95	33347.95
463.13	32996.87
463.32	32624.73
463.50	31950.65
463.68	32163.64
463.86	32355.57
464.05	31725.96
464.23	31208.70
464.41	31318.71
464.59	30775.70
464.78	32180.03
464.96	31842.99
465.14	31587.87
465.32	32753.46
465.50	33404.13
465.69	33642.86
465.87	32828.35
466.05	32161.30
466.23	30925.50
466.41	29961.20
466.60	30696.13
466.78	31033.16
466.96	31447.44
467.14	32175.34
467.32	32390.67
467.51	32278.33
467.69	30738.26
467.87	31714.26
468.05	31805.54
468.23	31995.12
468.41	31828.95
468.60	32039.59
468.78	32790.91
468.96	31873.42
469.14	32952.40
469.32	32814.31
469.50	31737.66
469.69	31772.77
469.87	31438.08
470.05	31377.22
470.23	30932.52
470.41	31470.84
470.59	31615.96
470.77	32004.49
470.95	32442.17
471.14	33259.01
471.32	33209.86
471.50	34775.68
471.68	34820.15
471.86	34920.79
472.04	35117.40
472.22	35337.41
472.40	33474.34
472.58	33202.84
472.77	32966.45
472.95	33771.59
473.13	34675.04
473.31	33771.59
473.49	33647.54
473.67	34476.09
473.85	34462.05
474.03	35409.96
474.21	35852.33
474.39	35716.58
474.57	36201.07
474.75	36046.59
474.93	35821.90
475.12	35035.48
475.30	35164.21
475.48	35393.58
475.66	35817.22
475.84	35407.62
476.02	35405.28
476.20	34827.17
476.38	35349.11
476.56	36182.34
476.74	36900.89
476.92	37097.49
477.10	37755.18
477.28	38700.76
477.46	38438.62
477.64	39194.61
477.82	38986.30
478.00	39587.82
478.18	38260.74
478.36	38700.76
478.54	38590.75
478.72	38754.59
478.90	39688.46
479.08	40570.85
479.26	41336.20
479.44	41359.61
479.62	41038.95
479.80	41031.93
479.98	40933.63
480.16	41687.28
480.34	40706.60
480.52	41432.16
480.70	41619.41
480.88	41886.23
481.06	42604.77
481.24	42330.93
481.41	43882.70
481.59	43814.83
481.77	43835.89
481.95	42920.74
482.13	43152.46
482.31	43089.26
482.49	44051.22
482.67	43793.76
482.85	44037.18
483.03	45099.78
483.21	45148.93
483.39	44865.73
483.57	43938.88
483.74	44416.35
483.92	44425.71
484.10	44484.22
484.28	45563.21
484.46	45883.86
484.64	46518.15
484.82	45233.19
485.00	45118.51
485.18	44137.82
485.35	42763.93
485.53	39585.48
485.71	36418.74
485.89	35487.20
486.07	37336.23
486.25	40636.38
486.43	42850.53
486.61	43985.69
486.78	43730.57
486.96	44182.29
487.14	45219.15
487.32	46440.91
487.50	47915.45
487.68	48378.87
487.85	48980.39
488.03	49256.57
488.21	48633.99
488.39	47735.23
488.57	47152.43
488.75	46838.80
488.92	48128.44
489.10	50117.89
489.28	51667.33
489.46	52533.32
489.64	52076.92
489.81	52341.40
489.99	51903.72
490.17	52090.96
490.35	52397.57
490.53	51833.50
490.70	51487.10
490.88	51391.14
491.06	52678.44
491.24	52207.99
491.41	51508.17
491.59	49888.52
491.77	48982.73
491.95	49993.84
492.13	51192.20
492.30	52458.43
492.48	53333.79
492.66	54127.23
492.84	53811.26
493.01	53366.55
493.19	53216.76
493.37	52788.44
493.54	52332.04
493.72	53249.53
493.90	54110.85
494.08	55131.32
494.25	55140.68
494.43	55412.18
494.61	55725.81
494.79	55952.85
494.96	55564.32
495.14	55037.70
495.32	54087.44
495.49	53474.22
495.67	54410.43
495.85	55945.83
496.02	56357.76
496.20	56236.05
496.38	55690.71
496.55	55421.55
496.73	56013.70
496.91	56175.20
497.09	56610.54
497.26	56928.85
497.44	56343.72
497.62	55814.76
497.79	55004.93
497.97	53961.05
498.14	54000.84
498.32	54953.44
498.50	55826.46
498.67	56811.82
498.85	56453.72
499.03	56612.88
499.20	56863.32
499.38	56877.36
499.56	56713.52
499.73	56240.73
499.91	56130.73
500.08	55592.40
500.26	54485.33
500.44	55096.21
500.61	55906.04
500.79	55707.09
500.97	55248.35
501.14	55157.06
501.32	54824.71
501.49	54904.29
501.67	55283.45
501.84	55828.80
502.02	56020.72
502.20	56530.96
502.37	56357.76
502.55	56336.69
502.72	57312.70
502.90	57668.46
503.07	57160.56
503.25	56956.94
503.43	55969.23
503.60	55437.93
503.78	54693.64
503.95	54791.94
504.13	56383.51
504.30	57549.09
504.48	57062.26
504.65	56774.37
504.83	56919.49
505.01	57546.75
505.18	57726.97
505.36	58347.21
505.53	58536.80
505.71	58637.44
505.88	58642.12
506.06	58115.50
506.23	57790.17
506.41	57497.60
506.58	57684.84
506.76	57715.27
506.93	57666.12
507.11	57338.44
507.28	57296.31
507.46	57003.75
507.63	56559.05
507.81	56133.07
507.98	56530.96
508.16	57092.69
508.33	57801.87
508.50	58183.38
508.68	58211.46
508.85	58855.11
509.03	58782.55
509.20	58513.39
509.38	58024.22
509.55	57219.08
509.73	57485.90
509.90	57626.33
510.08	58110.82
510.25	58309.77
510.42	57874.43
510.60	57731.65
510.77	57954.00
510.95	58611.70
511.12	58557.86
511.30	58834.05
511.47	59241.30
511.64	58967.46
511.82	58836.39
511.99	58064.01
512.17	57785.49
512.34	57357.17
512.51	57766.76
512.69	57499.94
512.86	57738.68
513.04	58113.16
513.21	58239.55
513.38	58031.24
513.56	57298.65
513.73	56722.88
513.90	57069.28
514.08	56985.02
514.25	57221.42
514.43	57764.42
514.60	57635.69
514.77	57825.28
514.95	57904.85
515.12	57755.06
515.29	58115.50
515.47	58389.34
515.64	58637.44
515.81	58262.96
515.99	57631.01
516.16	56399.89
516.33	54115.53
516.51	52353.10
516.68	51760.95
516.85	51175.81
517.03	51613.49
517.20	54183.40
517.37	56708.84
517.54	57818.25
517.72	57279.93
517.89	55103.23
518.06	52605.88
518.24	52385.87
518.41	55168.77
518.58	56486.49
518.75	56818.84
518.93	56966.30
519.10	56844.59
519.27	57322.06
519.45	57439.09
519.62	58314.45
519.79	58384.66
519.96	58288.70
520.14	57982.09
520.31	56921.83
520.48	56842.25
520.65	57162.90
520.83	58340.19
521.00	58812.98
521.17	58403.39
521.34	57921.24
521.52	58293.38
521.69	58576.59
521.86	59018.95
522.03	58883.20
522.20	57762.08
522.38	56561.39
522.55	56470.11
522.72	57219.08
522.89	57345.47
523.07	57827.62
523.24	57951.66
523.41	58679.57
523.58	58932.35
523.75	59480.03
523.92	59377.05
524.10	59320.88
524.27	59370.03
524.44	59007.25
524.61	58904.26
524.78	58698.30
524.96	58796.60
525.13	58710.00
525.30	59028.31
525.47	59332.58
525.64	59203.85
525.81	58506.37
525.98	57441.43
526.16	55676.66
526.33	54939.39
526.50	54780.24
526.67	54260.64
526.84	54920.67
527.01	56011.36
527.18	56659.69
527.36	57668.46
527.53	58532.12
527.70	59042.35
527.87	58188.06
528.04	57792.51
528.21	58122.52
528.38	58915.96
528.55	59608.76
528.72	59753.88
528.89	60013.68
529.07	59718.77
529.24	59208.53
529.41	58377.64
529.58	57890.81
529.75	58106.14
529.92	58309.77
530.09	58866.81
530.26	59325.56
530.43	59564.29
530.60	59646.21
530.77	60009.00
530.94	59915.37
531.11	59522.16
531.28	58958.09
531.46	58899.58
531.63	59058.74
531.80	58747.45
531.97	58398.71
532.14	57839.32
532.31	56835.23
532.48	56449.04
532.65	56329.67
532.82	56783.74
532.99	57956.35
533.16	58618.72
533.33	59068.10
533.50	58824.68
533.67	58012.52
533.84	57733.99
534.01	57991.45
534.18	58148.27
534.35	58152.95
534.52	58113.16
534.69	58548.50
534.86	58618.72
535.03	58878.52
535.20	59461.31
535.37	59826.43
535.54	59884.95
535.71	59517.48
535.88	59353.65
536.05	58616.38
536.22	58169.33
536.38	57813.57
536.55	57469.51
536.72	56877.36
536.89	56839.91
537.06	57652.08
537.23	58504.03
537.40	58773.19
537.57	58810.64
537.74	58632.76
537.91	58543.82
538.08	58422.11
538.25	58501.69
538.42	58740.42
538.59	58543.82
538.75	57890.81
538.92	57710.59
539.09	57518.67
539.26	57286.95
539.43	57286.95
539.60	57181.63
539.77	57396.96
539.94	57497.60
540.11	56509.89
540.28	56004.34
540.44	56378.82
540.61	56357.76
540.78	56734.59
540.95	56786.08
541.12	57329.08
541.29	57750.38
541.46	57970.39
541.62	58115.50
541.79	57813.57
541.96	57205.03
542.13	57293.97
542.30	57551.43
542.47	57846.34
542.63	57680.16
542.80	57305.68
542.97	57242.48
543.14	57249.50
543.31	57162.90
543.48	57904.85
543.64	58817.66
543.81	58901.92
543.98	58672.55
544.15	58117.84
544.32	57546.75
544.48	57380.57
544.65	57752.72
544.82	58527.44
544.99	58115.50
545.16	57790.17
545.32	57324.40
545.49	58281.68
545.66	58508.71
545.83	58248.91
546.00	57958.69
546.16	57305.68
546.33	57659.10
546.50	57719.95
546.67	58204.44
546.83	57652.08
547.00	57918.90
547.17	56989.70
547.34	56392.87
547.50	56477.13
547.67	56900.76
547.84	56893.74
548.00	57242.48
548.17	57792.51
548.34	57570.16
548.51	57705.91
548.67	57633.35
548.84	57687.18
549.01	57764.42
549.18	57265.89
549.34	57553.77
549.51	57450.79
549.68	57312.70
549.84	57396.96
550.01	57242.48
550.18	57193.33
550.34	56973.32
550.51	57338.44
550.68	57389.94
550.84	56683.09
551.01	56882.04
551.18	56633.94
551.34	57043.54
551.51	57439.09
551.68	57457.81
551.84	57675.48
552.01	57523.35
552.18	57277.59
552.34	56568.41
552.51	56212.65
552.68	56158.81
552.84	56526.28
553.01	56961.62
553.18	56825.87
553.34	56863.32
553.51	57308.02
553.67	57219.08
553.84	57584.20
554.01	57298.65
554.17	57221.42
554.34	56882.04
554.51	57116.09
554.67	57457.81
554.84	57443.77
555.00	57263.55
555.17	56858.63
555.33	56474.79
555.50	56877.36
555.67	56858.63
555.83	56451.38
556.00	56369.46
556.16	56374.14
556.33	56060.51
556.50	55681.34
556.66	55849.86
556.83	55765.60
556.99	55784.33
557.16	55812.41
557.32	56149.45
557.49	56252.44
557.65	56350.74
557.82	56107.32
557.98	55999.66
558.15	55835.82
558.32	54960.46
558.48	54162.34
558.65	54211.49
558.81	54497.03
558.98	54953.44
559.14	54944.08
559.31	55393.46
559.47	55246.00
559.64	54705.34
559.80	54447.88
559.97	54557.89
560.13	54953.44
560.30	55941.14
560.46	56250.09
560.63	56734.59
560.79	56863.32
560.96	56376.48
561.12	55161.75
561.29	54033.61
561.45	54248.94
561.61	54953.44
561.78	55367.71
561.94	54890.24
562.11	54906.63
562.27	55089.19
562.44	55098.55
562.60	55538.57
562.77	55999.66
562.93	55576.02
563.10	55657.94
563.26	55023.65
563.42	55093.87
563.59	54667.89
563.75	54798.96
563.92	55079.83
564.08	54745.13
564.24	55110.25
564.41	55250.69
564.57	54876.20
564.74	54850.45
564.90	54719.38
565.07	54691.30
565.23	54314.47
565.39	53731.68
565.56	53539.75
565.72	53347.83
565.88	54019.56
566.05	53841.68
566.21	53638.06
566.38	53738.70
566.54	54316.81
566.70	54396.39
566.87	54796.62
567.03	54953.44
567.19	55161.75
567.36	54803.64
567.52	54532.14
567.68	54459.58
567.85	53965.73
568.01	53045.90
568.17	52924.19
568.34	53216.76
568.50	52769.72
568.66	53052.92
568.83	53591.25
568.99	53333.79
569.15	53628.69
569.32	53719.98
569.48	53193.36
569.64	53202.72
569.81	52921.85
569.97	52996.75
570.13	52830.57
570.30	52327.36
570.46	51826.48
570.62	51332.63
570.78	50864.52
570.95	51360.72
571.11	52257.14
571.27	52371.83
571.43	52437.36
571.60	53081.01
571.76	53081.01
571.92	53354.85
572.09	53483.58
572.25	53521.03
572.41	53387.62
572.57	53441.45
572.74	53584.22
572.90	52886.74
573.06	52968.66
573.22	53277.61
573.38	52959.30
573.55	53006.11
573.71	53043.56
573.87	53104.41
574.03	52746.31
574.20	52828.23
574.36	52299.27
574.52	52554.39
574.68	52184.58
574.84	51948.19
575.01	51489.45
575.17	50927.72
575.33	51433.27
575.49	51987.98
575.65	52385.87
575.82	51491.79
575.98	51384.12
576.14	51985.64
576.30	52013.73
576.46	52123.73
576.62	51929.47
576.79	52224.37
576.95	51674.35
577.11	51604.13
577.27	51929.47
577.43	51742.22
577.59	51655.62
577.75	50712.39
577.92	50251.30
578.08	50265.34
578.24	49799.58
578.40	50284.07
578.56	50911.33
578.72	50983.89
578.88	51044.74
579.04	51351.35
579.21	51334.97
579.37	51409.87
579.53	51370.08
579.69	51288.16
579.85	51505.83
580.01	51498.81
580.17	51028.36
580.33	50808.35
580.49	51117.30
580.65	51449.66
580.82	51187.52
580.98	51269.43
581.14	51641.58
581.30	51262.41
581.46	51274.12
581.62	51482.42
581.78	51304.54
581.94	51250.71
582.10	51601.79
582.26	51714.14
582.42	51538.60
582.58	51774.99
582.74	51592.43
582.90	51693.07
583.06	51302.20
583.22	51466.04
583.38	51180.49
583.54	51103.26
583.70	51306.88
583.86	51054.11
584.02	51121.98
584.18	51292.84
584.34	51051.76
584.50	51222.62
584.66	50630.47
584.82	50459.61
584.98	50473.65
585.14	50277.05
585.30	49020.18
