SpectraSuite Data File
++++++++++++++++++++++++++++++++++++
Date: Mon Oct 07 14:53:59 GMT-05:00 2013
User: price-jones
Dark Spectrum Present: No
Reference Spectrum Present: No
Number of Sampled Component Spectra: 1
Spectrometers: USB2+H05261
Integration Time (usec): 100000 (USB2+H05261)
Spectra Averaged: 1 (USB2+H05261)
Boxcar Smoothing: 0 (USB2+H05261)
Correct for Electrical Dark: No (USB2+H05261)
Strobe/Lamp Enabled: No (USB2+H05261)
Correct for Detector Non-linearity: No (USB2+H05261)
Correct for Stray Light: No (USB2+H05261)
Number of Pixels in Processed Spectrum: 2048
>>>>>Begin Processed Spectral Data<<<<<
365.73	0.00
365.92	0.00
366.12	0.00
366.32	0.00
366.52	0.00
366.72	0.00
366.91	0.00
367.11	0.00
367.31	0.00
367.51	0.00
367.70	0.00
367.90	0.00
368.10	0.00
368.30	0.00
368.49	0.00
368.69	0.00
368.89	0.00
369.09	0.00
369.28	0.00
369.48	0.00
369.68	0.00
369.87	0.00
370.07	0.00
370.27	0.00
370.47	779.40
370.66	3379.73
370.86	4147.43
371.06	4538.30
371.25	4498.51
371.45	3960.19
371.65	3597.40
371.84	3412.50
372.04	3616.13
372.24	4053.81
372.44	4409.57
372.63	4077.21
372.83	3943.80
373.03	3403.14
373.22	3042.70
373.42	3178.45
373.62	3749.54
373.81	4035.08
374.01	4107.64
374.21	3625.49
374.40	3368.03
374.60	3599.74
374.79	3995.29
374.99	4723.20
375.19	5081.30
375.38	5074.28
375.58	4873.00
375.78	4711.50
375.97	4744.27
376.17	5057.90
376.37	4959.60
376.56	5228.76
376.76	5352.81
376.95	5715.59
377.15	6188.38
377.35	6377.96
377.54	6464.56
377.74	6750.10
377.93	6743.08
378.13	6590.95
378.33	6225.82
378.52	5734.31
378.72	5514.30
378.91	5554.09
379.11	5336.42
379.31	5093.01
379.50	5121.09
379.70	5446.43
379.89	5982.41
380.09	6225.82
380.28	6815.64
380.48	6658.82
380.68	6413.07
380.87	6443.49
381.07	5743.67
381.26	5317.70
381.46	5158.54
381.65	5004.07
381.85	4919.81
382.04	4575.75
382.24	4227.01
382.43	4138.07
382.63	4091.26
382.83	4060.83
383.02	4025.72
383.22	3934.44
383.41	3969.55
383.61	4437.66
383.80	4807.46
384.00	5598.56
384.19	6284.34
384.39	6616.69
384.58	6445.84
384.78	6422.43
384.97	6237.53
385.17	6031.56
385.36	5849.00
385.56	5345.78
385.75	5614.95
385.95	6146.25
386.14	6825.00
386.34	6642.44
386.53	6438.81
386.72	6183.70
386.92	5898.15
387.11	6686.91
387.31	6796.92
387.50	6736.06
387.70	6438.81
387.89	6406.05
388.09	6581.59
388.28	6658.82
388.48	6541.80
388.67	6986.50
388.86	7445.24
389.06	8166.13
389.25	8699.77
389.45	8702.11
389.64	8634.24
389.84	8507.85
390.03	8603.81
390.22	8514.87
390.42	8781.69
390.61	9427.68
390.81	9830.25
391.00	10073.67
391.19	9930.89
391.39	9675.77
391.58	9193.62
391.78	8507.85
391.97	8318.26
392.16	7676.96
392.36	7084.80
392.55	5743.67
392.75	4428.29
392.94	3669.96
393.13	3613.79
393.33	4402.55
393.52	5408.98
393.71	6635.42
393.91	7604.40
394.10	8156.77
394.29	8945.53
394.49	9694.50
394.68	10644.76
394.88	10415.38
395.07	10906.90
395.26	10848.38
395.46	10691.57
395.65	9830.25
395.84	8769.99
396.04	7330.56
396.23	5919.21
396.42	4917.47
396.62	4882.36
396.81	5701.54
397.00	7101.19
397.19	8851.91
397.39	10487.94
397.58	12306.54
397.77	12355.69
397.97	13233.39
398.16	13270.84
398.35	13954.27
398.55	14258.54
398.74	14581.54
398.93	15047.30
399.12	14565.15
399.32	13994.06
399.51	14333.44
399.70	15208.80
399.90	15283.70
400.09	15351.57
400.28	15199.44
400.47	15096.46
400.67	16201.19
400.86	16720.79
401.05	16280.77
401.24	16545.25
401.44	16919.73
401.63	16912.71
401.82	16886.97
402.01	16989.95
402.21	17298.90
402.40	17114.00
402.59	16458.65
402.78	15840.75
402.97	15463.92
403.17	15885.22
403.36	16830.79
403.55	17724.88
403.74	17834.88
403.93	17165.49
404.13	15868.83
404.32	15534.14
404.51	15981.18
404.70	17434.65
404.89	17415.93
405.09	17366.78
405.28	16709.08
405.47	16585.04
405.66	16716.11
405.85	16397.79
406.05	15623.08
406.24	15807.98
406.43	17074.21
406.62	17390.18
406.81	17598.49
407.00	16519.50
407.20	16023.31
407.39	16528.86
407.58	17050.80
407.77	17778.71
407.96	18649.39
408.15	18820.25
408.34	18682.16
408.54	19438.15
408.73	19655.82
408.92	19325.80
409.11	18881.10
409.30	18101.70
409.49	17025.06
409.68	16013.95
409.87	15136.24
410.07	16269.06
410.26	17504.87
410.45	18192.98
410.64	19098.77
410.83	19517.73
411.02	20030.30
411.21	20702.04
411.40	20587.35
411.59	21015.67
411.78	20697.36
411.98	20540.54
412.17	20697.36
412.36	20116.90
412.55	20140.31
412.74	19796.25
412.93	19232.18
413.12	19749.44
413.31	21238.02
413.50	21467.39
413.69	21996.35
413.88	21341.00
414.07	20606.08
414.26	20844.81
414.45	21743.58
414.64	21633.57
414.83	21986.99
415.02	21371.43
415.22	21092.91
415.41	21790.39
415.60	22452.76
415.79	23281.31
415.98	23854.74
416.17	23651.11
416.36	23190.03
416.55	22817.88
416.74	22047.85
416.93	21366.75
417.12	21345.69
417.31	21701.45
417.50	22008.06
417.69	22824.90
417.88	22441.06
418.07	22359.14
418.26	22150.83
418.45	22473.82
418.64	23484.94
418.83	23861.76
419.02	23889.85
419.21	23777.50
419.39	22562.76
419.58	21329.30
419.77	21212.28
419.96	22553.40
420.15	23896.87
420.34	24306.46
420.53	25069.48
420.72	25390.13
420.91	25722.49
421.10	24854.15
421.29	24980.54
421.48	24032.62
421.67	25200.55
421.86	24198.80
422.05	22967.68
422.24	20365.00
422.43	20240.95
422.61	22097.00
422.80	24245.61
422.99	23957.72
423.18	23482.59
423.37	23424.08
423.56	22745.33
423.75	23346.84
423.94	23487.28
424.13	22609.58
424.32	22424.67
424.50	22735.96
424.69	22754.69
424.88	22705.54
425.07	22553.40
425.26	22602.55
425.45	22157.85
425.64	22178.92
425.83	21820.81
426.01	23131.51
426.20	23786.86
426.39	23709.63
426.58	21853.58
426.77	20264.36
426.96	19461.55
427.15	20290.10
427.33	22066.57
427.52	22782.77
427.71	22572.13
427.90	22513.61
428.09	22391.91
428.28	21853.58
428.46	21097.59
428.65	20844.81
428.84	21116.31
429.03	21570.38
429.22	20329.89
429.40	19646.46
429.59	17809.14
429.78	15613.71
429.97	15611.37
430.16	15939.05
430.34	15922.66
430.53	15466.26
430.72	16388.43
430.91	18239.79
431.10	21027.37
431.28	25050.75
431.47	26867.01
431.66	26897.44
431.85	24945.43
432.03	22752.35
432.22	21387.82
432.41	22555.74
432.60	25137.35
432.79	26103.99
432.97	26555.72
433.16	26382.52
433.35	24070.07
433.54	21399.52
433.72	20123.93
433.91	20372.02
434.10	23222.80
434.28	25050.75
434.47	26190.59
434.66	25769.30
434.85	24816.70
435.03	25179.48
435.22	25668.66
435.41	27288.31
435.59	27257.88
435.78	27625.34
435.97	28067.70
436.16	28498.36
436.34	27892.16
436.53	26693.81
436.72	27206.39
436.90	26127.40
437.09	25668.66
437.28	25287.15
437.46	26342.73
437.65	26153.15
437.84	24212.84
438.02	22464.46
438.21	22387.22
438.40	23529.41
438.58	25600.78
438.77	26532.31
438.96	26352.09
439.14	27796.20
439.33	28386.02
439.52	28746.46
439.70	28041.96
439.89	27339.80
440.08	26672.74
440.26	26202.30
440.45	27461.51
440.63	29385.43
440.82	30918.48
441.01	30108.65
441.19	30352.07
441.38	30352.07
441.57	31438.08
441.75	31915.54
441.94	32442.17
442.12	31990.44
442.31	32940.70
442.50	32952.40
442.68	31754.05
442.87	32102.79
443.05	31442.76
443.24	31665.11
443.43	32287.69
443.61	33053.05
443.80	33890.96
443.98	31564.46
444.17	31510.63
444.35	33539.88
444.54	33942.45
444.73	33511.79
444.91	32294.71
445.10	30787.41
445.28	29486.07
445.47	29149.03
445.65	29020.30
445.84	30059.50
446.02	31096.36
446.21	31400.63
446.39	31852.35
446.58	31831.29
446.77	32493.66
446.95	32601.32
447.14	33816.06
447.32	34286.51
447.51	33476.68
447.69	32203.43
447.88	31882.78
448.06	32240.88
448.25	33050.70
448.43	33394.76
448.62	32479.61
448.80	32648.13
448.99	32751.12
449.17	32973.47
449.36	32657.49
449.54	33986.92
449.73	34562.69
449.91	35063.57
450.10	36175.32
450.28	36439.80
450.46	36327.45
450.65	36130.85
450.83	36002.12
451.02	35005.05
451.20	35093.99
451.39	34806.11
451.57	34782.70
451.76	34801.43
451.94	34216.29
452.13	34122.67
452.31	32414.08
452.49	31082.31
452.68	31353.82
452.86	31225.09
453.05	31412.33
453.23	32613.02
453.42	33483.70
453.60	34139.05
453.78	34459.71
453.97	33844.15
454.15	34246.72
454.34	33221.56
454.52	33624.14
454.70	32631.75
454.89	33017.94
455.07	33535.20
455.26	34099.26
455.44	35260.17
455.62	36037.23
455.81	36074.68
455.99	35709.55
456.17	35611.25
456.36	35721.26
456.54	36301.71
456.73	36077.02
456.91	37067.06
457.09	37291.76
457.28	37818.38
457.46	36449.16
457.64	35938.93
457.83	35131.44
458.01	34220.97
458.19	35185.27
458.38	35281.24
458.56	36488.95
458.74	36474.91
458.93	35541.03
459.11	35555.08
459.29	34864.62
459.48	35555.08
459.66	35140.80
459.84	35402.94
460.03	36411.71
460.21	36098.08
460.39	37050.68
460.57	36821.31
460.76	36982.80
460.94	37294.10
461.12	36779.18
461.31	37088.13
461.49	36818.97
461.67	37319.84
461.85	38213.93
462.04	37816.04
462.22	38541.60
462.40	37844.12
462.59	37741.14
462.77	38234.99
462.95	37783.27
463.13	37193.45
463.32	37551.56
463.50	36676.19
463.68	37125.58
463.86	37067.06
464.05	36519.38
464.23	35810.20
464.41	35496.56
464.59	34778.02
464.78	36999.19
464.96	36222.13
465.14	35910.84
465.32	36938.33
465.50	37820.72
465.69	38534.58
465.87	37666.24
466.05	36282.98
466.23	34859.94
466.41	34094.58
466.60	34923.13
466.78	35147.82
466.96	35597.21
467.14	36205.75
467.32	37031.96
467.51	36980.46
467.69	34904.41
467.87	35765.73
468.05	36231.49
468.23	36507.68
468.41	36662.15
468.60	36865.78
468.78	37010.89
468.96	36037.23
469.14	37427.51
469.32	37518.79
469.50	35807.86
469.69	35920.20
469.87	35522.31
470.05	35550.40
470.23	35461.46
470.41	35758.70
470.59	35875.73
470.77	36341.50
470.95	36774.50
471.14	37361.97
471.32	37434.53
471.50	39166.52
471.68	39316.32
471.86	39412.28
472.04	39927.20
472.22	40055.93
472.40	37970.51
472.58	37766.88
472.77	37266.01
472.95	38078.18
473.13	39082.27
473.31	37942.42
473.49	38415.21
473.67	38904.38
473.85	38904.38
474.03	40292.32
474.21	40006.78
474.39	40680.85
474.57	41045.97
474.75	40769.79
474.93	40734.68
475.12	39487.18
475.30	39800.81
475.48	39899.11
475.66	40254.87
475.84	40240.83
476.02	39739.96
476.20	38539.26
476.38	39620.59
476.56	40727.66
476.74	41404.08
476.92	41338.54
477.10	42333.27
477.28	43206.29
477.46	43065.86
477.64	43892.07
477.82	43901.43
478.00	44346.13
478.18	43742.27
478.36	43112.67
478.54	43096.28
478.72	43435.66
478.90	44458.48
479.08	45614.70
479.26	45977.48
479.44	45413.41
479.62	45544.48
479.80	45595.98
479.98	45830.03
480.16	46286.43
480.34	45617.04
480.52	46487.72
480.70	46096.85
480.88	46314.52
481.06	47274.14
481.24	47538.62
481.41	48172.91
481.59	48788.47
481.77	48554.41
481.95	47742.25
482.13	47650.97
482.31	48041.84
482.49	48362.49
482.67	48133.12
482.85	48692.50
483.03	48971.03
483.21	49453.18
483.39	49389.98
483.57	48617.61
483.74	48463.13
483.92	48917.20
484.10	49017.84
484.28	49851.07
484.46	50277.05
484.64	50356.63
484.82	49844.05
485.00	48832.94
485.18	48470.15
485.35	47194.56
485.53	44219.74
485.71	40339.13
485.89	39735.27
486.07	41539.83
486.25	45212.13
486.43	47585.43
486.61	48507.60
486.78	47971.62
486.96	47711.82
487.14	50199.81
487.32	50548.55
487.50	51592.43
487.68	52360.12
487.85	52870.36
488.03	52839.93
488.21	52474.81
488.39	51992.66
488.57	51119.64
488.75	50775.58
488.92	51805.42
489.10	53794.87
489.28	55047.06
489.46	55683.69
489.64	55554.96
489.81	55873.27
489.99	55393.46
490.17	55487.08
490.35	55884.97
490.53	55381.76
490.70	54990.89
490.88	54745.13
491.06	55763.26
491.24	55887.31
491.41	54890.24
491.59	53373.58
491.77	52725.25
491.95	53609.97
492.13	54738.11
492.30	55746.88
492.48	56601.18
492.66	56896.08
492.84	56893.74
493.01	56631.60
493.19	56226.69
493.37	56147.11
493.54	55723.47
493.72	56502.87
493.90	57214.40
494.08	57914.22
494.25	58176.36
494.43	58312.11
494.61	58607.01
494.79	58714.68
494.96	58497.01
495.14	58019.54
495.32	57034.17
495.49	56643.30
495.67	57403.98
495.85	58791.92
496.02	58969.80
496.20	58808.30
496.38	58480.63
496.55	58480.63
496.73	58934.69
496.91	58677.23
497.09	59566.63
497.26	59847.50
497.44	59068.10
497.62	58693.61
497.79	57900.17
497.97	56769.69
498.14	57064.60
498.32	57853.36
498.50	58773.19
498.67	59400.46
498.85	59112.57
499.03	59393.43
499.20	59531.53
499.38	59704.73
499.56	59346.62
499.73	58848.09
499.91	58445.52
500.08	58197.42
500.26	57497.60
500.44	57951.66
500.61	58642.12
500.79	58557.86
500.97	58089.76
501.14	57794.85
501.32	58019.54
501.49	57827.62
501.67	57930.60
501.84	58361.26
502.02	58721.70
502.20	59107.89
502.37	59028.31
502.55	59040.01
502.72	59803.03
502.90	60109.64
503.07	59753.88
503.25	59465.99
503.43	58522.76
503.60	58010.18
503.78	57303.34
503.95	57853.36
504.13	59049.38
504.30	59924.74
504.48	59402.80
504.65	59374.71
504.83	59295.13
505.01	59943.46
505.18	60357.74
505.36	60893.72
505.53	60685.41
505.71	61137.13
505.88	61174.58
506.06	60416.25
506.23	60341.35
506.41	59950.48
506.58	60320.29
506.76	60264.11
506.93	60158.79
507.11	59948.14
507.28	60001.97
507.46	59416.84
507.63	59121.93
507.81	58735.74
507.98	58925.33
508.16	59821.75
508.33	60191.56
508.50	60388.16
508.68	60626.90
508.85	61144.16
509.03	61261.18
509.20	60938.19
509.38	60533.28
509.55	59604.08
509.73	59859.20
509.90	60142.41
510.08	60467.74
510.25	60439.65
510.42	60163.47
510.60	60081.55
510.77	60516.89
510.95	60877.33
511.12	61097.34
511.30	61380.55
511.47	61619.28
511.64	61394.59
511.82	61336.08
511.99	60420.93
512.17	60074.53
512.34	59831.11
512.51	59707.07
512.69	59863.88
512.86	59915.37
513.04	60671.37
513.21	60570.72
513.38	60095.60
513.56	59725.79
513.73	59079.80
513.90	59381.73
514.08	59395.77
514.25	59833.46
514.43	59753.88
514.60	59934.10
514.77	60259.43
514.95	60264.11
515.12	60182.19
515.29	60493.49
515.47	60797.76
515.64	60753.29
515.81	60544.98
515.99	60067.51
516.16	58827.02
516.33	56779.06
516.51	55091.53
516.68	54363.62
516.85	54078.08
517.03	54377.67
517.20	56919.49
517.37	59147.68
517.54	60221.98
517.72	59817.07
517.89	57469.51
518.06	55168.77
518.24	55515.17
518.41	57588.88
518.58	58768.51
518.75	59004.91
518.93	59180.45
519.10	59143.00
519.27	59449.61
519.45	59716.43
519.62	60348.37
519.79	60444.33
519.96	60584.77
520.14	60233.69
520.31	59196.83
520.48	59260.02
520.65	59503.44
520.83	60477.10
521.00	61050.53
521.17	60397.52
521.34	59957.50
521.52	60296.88
521.69	60940.53
521.86	61244.80
522.03	61001.38
522.20	59891.97
522.38	58782.55
522.55	58805.96
522.72	59482.37
522.89	59545.57
523.07	59660.26
523.24	59889.63
523.41	60802.44
523.58	61242.46
523.75	61595.88
523.92	61399.27
524.10	61380.55
524.27	61427.36
524.44	60940.53
524.61	60900.74
524.78	60760.31
524.96	60629.24
525.13	60797.76
525.30	60999.04
525.47	61289.27
525.64	61167.56
525.81	60519.23
525.98	59367.69
526.16	57829.96
526.33	57272.91
526.50	57183.97
526.67	56715.86
526.84	57317.38
527.01	58047.63
527.18	58798.94
527.36	59852.18
527.53	60472.42
527.70	60772.01
527.87	60329.65
528.04	59765.58
528.21	60229.01
528.38	60814.14
528.55	61539.71
528.72	61684.82
528.89	61755.03
529.07	61701.20
529.24	60851.59
529.41	60439.65
529.58	59800.69
529.75	59941.12
529.92	60390.50
530.09	60779.03
530.26	61230.75
530.43	61455.45
530.60	61315.01
530.77	61549.07
530.94	61701.20
531.11	61289.27
531.28	60919.46
531.46	60818.82
531.63	61003.72
531.80	60970.96
531.97	60437.31
532.14	59826.43
532.31	58546.16
532.48	58145.93
532.65	58033.58
532.82	58920.65
532.99	60236.03
533.16	60247.73
533.33	60853.93
533.50	60582.43
533.67	60266.45
533.84	59798.35
534.01	59994.95
534.18	60212.62
534.35	60299.22
534.52	60083.89
534.69	60495.83
534.86	60729.88
535.03	60994.36
535.20	61366.51
535.37	61488.21
535.54	61661.41
535.71	61396.93
535.88	61043.51
536.05	60423.27
536.22	60175.17
536.38	59728.13
536.55	59524.50
536.72	58859.79
536.89	58831.71
537.06	59604.08
537.23	60458.38
537.40	60406.89
537.57	60713.50
537.74	60224.32
537.91	60339.01
538.08	60189.22
538.25	60229.01
538.42	60427.95
538.59	60374.12
538.75	59819.41
538.92	59639.19
539.09	59269.39
539.26	59178.10
539.43	58981.50
539.60	59276.41
539.77	59231.94
539.94	59182.79
540.11	58375.30
540.28	58007.84
540.44	57911.88
540.61	58365.94
540.78	58487.65
540.95	58808.30
541.12	59016.61
541.29	59653.23
541.46	59917.71
541.62	59711.75
541.79	59615.79
541.96	59283.43
542.13	59140.66
542.30	59206.19
542.47	59477.69
542.63	59348.96
542.80	59044.69
542.97	59180.45
543.14	58946.39
543.31	59030.65
543.48	59739.83
543.64	60341.35
543.81	60748.60
543.98	60484.12
544.15	59824.09
544.32	59061.08
544.48	59302.15
544.65	59636.85
544.82	60282.84
544.99	59721.11
545.16	59337.26
545.32	59000.22
545.49	60158.79
545.66	60186.88
545.83	59800.69
546.00	59451.95
546.16	59159.38
546.33	59159.38
546.50	59290.45
546.67	59934.10
546.83	59292.79
547.00	59409.82
547.17	58656.17
547.34	58262.96
547.50	58361.26
547.67	58714.68
547.84	58646.80
548.00	59143.00
548.17	59400.46
548.34	59194.49
548.51	59121.93
548.67	59222.58
548.84	59304.49
549.01	59341.94
549.18	59196.83
549.34	59311.52
549.51	58869.15
549.68	59042.35
549.84	58993.20
550.01	58550.84
550.18	58614.04
550.34	58721.70
550.51	58904.26
550.68	58993.20
550.84	58543.82
551.01	58445.52
551.18	58379.98
551.34	58609.35
551.51	59096.19
551.68	59316.20
551.84	59295.13
552.01	59014.27
552.18	59044.69
552.34	58382.32
552.51	57851.02
552.68	57731.65
552.84	58166.99
553.01	58625.74
553.18	58405.73
553.34	58520.41
553.51	58480.63
553.67	58906.60
553.84	58913.62
554.01	58876.18
554.17	58557.86
554.34	58621.06
554.51	58845.75
554.67	59157.04
554.84	58869.15
555.00	58597.65
555.17	58321.47
555.33	58419.77
555.50	58347.21
555.67	58375.30
555.83	58279.34
556.00	58021.88
556.16	58052.31
556.33	57483.56
556.50	57364.19
556.66	57432.07
556.83	57338.44
556.99	57396.96
557.16	57434.41
557.32	57631.01
557.49	57801.87
557.65	57841.66
557.82	57958.69
557.98	57680.16
558.15	57155.88
558.32	56158.81
558.48	55620.49
558.65	55831.14
558.81	56226.69
558.98	56636.28
559.14	56727.56
559.31	56938.21
559.47	56860.97
559.64	56364.78
559.80	56114.34
559.97	56346.06
560.13	56369.46
560.30	57352.49
560.46	57944.64
560.63	58230.19
560.79	58188.06
560.96	57612.29
561.12	56736.93
561.29	55810.07
561.45	55941.14
561.61	56624.58
561.78	56945.23
561.94	56837.57
562.11	56502.87
562.27	56615.22
562.44	56697.14
562.60	57242.48
562.77	57502.28
562.93	57116.09
563.10	56980.34
563.26	56458.40
563.42	56643.30
563.59	56509.89
563.75	56533.30
563.92	56320.31
564.08	56346.06
564.24	56741.61
564.41	56956.94
564.57	56395.21
564.74	56409.25
564.90	56439.68
565.07	56229.03
565.23	55657.94
565.39	55250.69
565.56	54876.20
565.72	54726.41
565.88	55353.67
566.05	55442.61
566.21	55529.21
566.38	55690.71
566.54	55817.10
566.70	56060.51
566.87	56271.16
567.03	56266.48
567.19	56573.09
567.36	56086.26
567.52	56013.70
567.68	55894.33
567.85	55290.48
568.01	54904.29
568.17	54780.24
568.34	54609.38
568.50	54475.97
568.66	54887.90
568.83	55047.06
568.99	54913.65
569.15	55269.41
569.32	55306.86
569.48	54911.31
569.64	54663.21
569.81	54532.14
569.97	54239.57
570.13	54410.43
570.30	53869.77
570.46	53317.40
570.62	52954.62
570.78	52790.78
570.95	52961.64
571.11	53928.28
571.27	53825.30
571.43	54405.75
571.60	54475.97
571.76	54653.85
571.92	54972.16
572.09	55058.76
572.25	54831.73
572.41	55281.11
572.57	55040.04
572.74	54869.18
572.90	54625.76
573.06	54307.45
573.22	54525.12
573.38	54314.47
573.55	54255.96
573.71	54639.81
573.87	54431.50
574.03	54401.07
574.20	54387.03
574.36	54078.08
574.52	54059.35
574.68	53801.89
574.84	53151.23
575.01	52802.49
575.17	52640.99
575.33	52994.41
575.49	53411.02
575.65	53516.35
575.82	53038.88
575.98	52914.83
576.14	53284.64
576.30	53600.61
576.46	53827.64
576.62	53432.09
576.79	53752.74
576.95	53207.40
577.11	53123.14
577.27	53017.82
577.43	53286.98
577.59	52720.57
577.75	52521.62
577.92	51899.04
578.08	51824.14
578.24	51789.03
578.40	52025.43
578.56	52420.98
578.72	52332.04
578.88	52753.33
579.04	52549.71
579.21	52603.54
579.37	52882.06
579.53	52776.74
579.69	52624.60
579.85	52935.90
580.01	53111.44
580.17	52151.82
580.33	52233.74
580.49	52774.40
580.65	52491.19
580.82	52973.34
580.98	52821.21
581.14	52767.38
581.30	52605.88
581.46	52678.44
581.62	52907.81
581.78	52989.73
581.94	52795.46
582.10	52844.62
582.26	52875.04
582.42	52835.25
582.58	52921.85
582.74	52779.08
582.90	52825.89
583.06	52963.98
583.22	52816.53
583.38	52671.42
583.54	52444.38
583.70	52362.46
583.86	52292.25
584.02	52135.43
584.18	52271.18
584.34	52182.24
584.50	52023.09
584.66	52215.01
584.82	51742.22
584.98	51554.98
585.14	51147.73
