SpectraSuite Data File
++++++++++++++++++++++++++++++++++++
Date: Mon Oct 07 14:53:30 GMT-05:00 2013
User: price-jones
Dark Spectrum Present: No
Reference Spectrum Present: No
Number of Sampled Component Spectra: 1
Spectrometers: USB2+H05261
Integration Time (usec): 100000 (USB2+H05261)
Spectra Averaged: 1 (USB2+H05261)
Boxcar Smoothing: 0 (USB2+H05261)
Correct for Electrical Dark: No (USB2+H05261)
Strobe/Lamp Enabled: No (USB2+H05261)
Correct for Detector Non-linearity: No (USB2+H05261)
Correct for Stray Light: No (USB2+H05261)
Number of Pixels in Processed Spectrum: 2048
>>>>>Begin Processed Spectral Data<<<<<
365.73	0.00
365.92	0.00
366.12	0.00
366.32	0.00
366.52	0.00
366.72	0.00
366.91	0.00
367.11	0.00
367.31	0.00
367.51	0.00
367.70	0.00
367.90	0.00
368.10	0.00
368.30	0.00
368.49	0.00
368.69	0.00
368.89	0.00
369.09	0.00
369.28	0.00
369.48	0.00
369.68	0.00
369.87	0.00
370.07	0.00
370.27	0.00
370.47	697.48
370.66	3164.40
370.86	3588.04
371.06	4152.11
371.25	4046.79
371.45	3789.33
371.65	3272.07
371.84	3068.44
372.04	3304.84
372.24	3763.58
372.44	3817.41
372.63	3812.73
372.83	3522.51
373.03	3178.45
373.22	2888.22
373.42	3035.67
373.62	3461.65
373.81	3812.73
374.01	3618.47
374.21	3403.14
374.40	3145.68
374.60	3361.01
374.79	3779.97
374.99	4194.24
375.19	4634.26
375.38	4692.77
375.58	4418.93
375.78	4276.16
375.97	4414.25
376.17	4585.11
376.37	4566.39
376.56	4901.08
376.76	4720.86
376.95	5327.06
377.15	5455.79
377.35	5930.92
377.54	5884.11
377.74	6143.91
377.93	6284.34
378.13	6239.87
378.33	5717.93
378.52	5364.51
378.72	5174.92
378.91	5074.28
379.11	4938.53
379.31	4699.80
379.50	4692.77
379.70	5039.17
379.89	5668.78
380.09	5966.03
380.28	6036.24
380.48	6052.63
380.68	5914.53
380.87	5790.49
381.07	5509.62
381.26	5041.51
381.46	4697.46
381.65	4697.46
381.85	4503.19
382.04	4339.35
382.24	3992.95
382.43	3791.67
382.63	3630.17
382.83	3712.09
383.02	3667.62
383.22	3618.47
383.41	3728.47
383.61	3957.85
383.80	4608.51
384.00	5144.50
384.19	5720.27
384.39	6078.37
384.58	6094.76
384.78	5984.75
384.97	5961.34
385.17	5715.59
385.36	5289.61
385.56	5020.45
385.75	5418.34
385.95	5879.43
386.14	6356.90
386.34	6305.40
386.53	5991.77
386.72	5645.37
386.92	5533.03
387.11	5930.92
387.31	6258.59
387.50	6289.02
387.70	6043.26
387.89	6024.54
388.09	5987.09
388.28	5762.40
388.48	6069.01
388.67	6532.44
388.86	7187.79
389.06	7534.18
389.25	8051.44
389.45	8341.67
389.64	7962.50
389.84	8046.76
390.03	7810.37
390.22	7960.16
390.42	8210.60
390.61	8578.06
390.81	9273.20
391.00	9518.96
391.19	9628.96
391.39	8798.07
391.58	8418.91
391.78	8063.15
391.97	7805.69
392.16	7400.77
392.36	6597.97
392.55	5511.96
392.75	4301.90
392.94	3508.46
393.13	3382.07
393.33	3911.04
393.52	5085.98
393.71	6239.87
393.91	7157.36
394.10	7541.21
394.29	8435.29
394.49	9165.54
394.68	9998.77
394.88	9951.96
395.07	10211.76
395.26	10045.58
395.46	9921.53
395.65	9287.25
395.84	8163.79
396.04	6956.07
396.23	5568.13
396.42	4594.47
396.62	4507.87
396.81	5273.23
397.00	6588.61
397.19	8388.48
397.39	10008.13
397.58	11115.20
397.77	11843.11
397.97	12313.56
398.16	12489.10
398.35	12812.09
398.55	13092.96
398.74	13830.23
398.93	13973.00
399.12	13790.44
399.32	13380.84
399.51	13619.58
399.70	14595.58
399.90	14663.46
400.09	14497.28
400.28	14265.57
400.47	14539.41
400.67	15129.22
400.86	15646.48
401.05	15531.80
401.24	15522.43
401.44	16116.93
401.63	16039.69
401.82	16107.57
402.01	15740.10
402.21	16123.95
402.40	16283.11
402.59	15634.78
402.78	15028.58
402.97	14518.34
403.17	15098.80
403.36	15969.48
403.55	16882.28
403.74	17200.60
403.93	15906.28
404.13	15066.03
404.32	14434.08
404.51	15220.50
404.70	16421.20
404.89	16311.19
405.09	16233.96
405.28	16006.92
405.47	15730.74
405.66	15812.66
405.85	15272.00
406.05	14817.93
406.24	15110.50
406.43	15660.52
406.62	16264.38
406.81	16315.87
407.00	15777.55
407.20	15398.38
407.39	15674.57
407.58	16257.36
407.77	16854.20
407.96	17291.88
408.15	17820.84
408.34	17790.41
408.54	18614.28
408.73	18759.39
408.92	18499.59
409.11	17685.09
409.30	17074.21
409.49	16194.17
409.68	14958.36
409.87	14546.43
410.07	15613.71
410.26	16535.88
410.45	17577.42
410.64	18197.67
410.83	18565.13
411.02	18874.08
411.21	19634.75
411.40	19461.55
411.59	19910.94
411.78	19426.45
411.98	19346.87
412.17	19873.49
412.36	19234.52
412.55	19506.02
412.74	19295.38
412.93	18473.85
413.12	18710.24
413.31	20620.12
413.50	20460.96
413.69	20973.54
413.88	20255.00
414.07	19424.11
414.26	20074.77
414.45	20505.43
414.64	20575.65
414.83	20809.70
415.02	20233.93
415.22	20374.36
415.41	20725.44
415.60	21448.67
415.79	22345.09
415.98	22773.41
416.17	23009.81
416.36	22277.22
416.55	22078.27
416.74	20765.23
416.93	20353.30
417.12	20400.11
417.31	20900.98
417.50	20854.17
417.69	21764.64
417.88	21869.97
418.07	21467.39
418.26	21144.40
418.45	21338.66
418.64	22024.44
418.83	22881.08
419.02	22604.89
419.21	22221.05
419.39	21563.36
419.58	20800.34
419.77	20823.75
419.96	21287.17
420.15	22658.73
420.34	23604.30
420.53	24383.70
420.72	24463.28
420.91	24304.12
421.10	24259.65
421.29	24002.19
421.48	22586.17
421.67	23896.87
421.86	23702.61
422.05	22181.26
422.24	19932.00
422.43	19311.76
422.61	21247.38
422.80	23140.88
422.99	23452.17
423.18	22530.00
423.37	21998.70
423.56	22237.43
423.75	22427.01
423.94	22965.34
424.13	21628.89
424.32	21979.97
424.50	22183.60
424.69	21612.51
424.88	21954.22
425.07	21600.80
425.26	21673.36
425.45	21350.37
425.64	21125.68
425.83	21123.33
426.01	22174.24
426.20	23133.86
426.39	22607.23
426.58	21057.80
426.77	19389.00
426.96	18728.97
427.15	19370.27
427.33	21373.77
427.52	21771.66
427.71	21771.66
427.90	21813.79
428.09	21729.53
428.28	21128.02
428.46	20175.42
428.65	20397.77
428.84	20758.21
429.03	21025.03
429.22	20053.71
429.40	19227.50
429.59	17334.01
429.78	15026.24
429.97	14895.17
430.16	15506.05
430.34	15463.92
430.53	15358.60
430.72	15765.85
430.91	17191.23
431.10	20343.94
431.28	23939.00
431.47	26377.84
431.66	26270.17
431.85	23793.89
432.03	21872.31
432.22	21022.69
432.41	21727.19
432.60	24133.26
432.79	25125.65
432.97	25874.62
433.16	25137.35
433.35	23192.37
433.54	20561.61
433.72	19246.23
433.91	20030.30
434.10	22459.78
434.28	24339.23
434.47	25200.55
434.66	25273.10
434.85	24510.09
435.03	24173.05
435.22	25027.35
435.41	26211.66
435.59	26214.00
435.78	26808.50
435.97	27154.90
436.16	27257.88
436.34	26951.27
436.53	26780.41
436.72	26536.99
436.90	25167.78
437.09	24884.58
437.28	24669.25
437.46	25600.78
437.65	25586.74
437.84	24212.84
438.02	21855.92
438.21	21586.76
438.40	22878.74
438.58	25010.96
438.77	25371.41
438.96	25748.23
439.14	27335.12
439.33	27402.99
439.52	27613.64
439.70	27094.04
439.89	26576.78
440.08	25902.71
440.26	25769.30
440.45	26569.76
440.63	28308.78
440.82	29682.67
441.01	29495.43
441.19	29244.99
441.38	29532.88
441.57	30948.90
441.75	31501.27
441.94	31700.22
442.12	30974.65
442.31	31948.31
442.50	31613.62
442.68	31262.54
442.87	31087.00
443.05	30492.50
443.24	30506.54
443.43	31236.79
443.61	32095.77
443.80	32779.20
443.98	30855.28
444.17	30558.03
444.35	32751.12
444.54	33240.29
444.73	32287.69
444.91	31674.47
445.10	30216.32
445.28	28816.68
445.47	28184.73
445.65	28601.35
445.84	29397.13
446.02	29940.13
446.21	31117.42
446.39	30857.62
446.58	31620.64
446.77	32044.27
446.95	32006.83
447.14	33186.46
447.32	33287.10
447.51	33118.58
447.69	31859.37
447.88	31260.20
448.06	31756.39
448.25	32496.00
448.43	32479.61
448.62	31913.20
448.80	31850.01
448.99	31913.20
449.17	32027.89
449.36	32353.23
449.54	33713.08
449.73	33947.13
449.91	34618.86
450.10	35477.84
450.28	35845.30
450.46	35416.99
450.65	35218.04
450.83	35178.25
451.02	34335.66
451.20	34464.39
451.39	34211.61
451.57	33661.58
451.76	33654.56
451.94	33413.49
452.13	33153.69
452.31	31728.30
452.49	30354.41
452.68	30756.98
452.86	30569.74
453.05	31035.50
453.23	32032.57
453.42	32636.43
453.60	33905.00
453.78	34061.82
453.97	33464.98
454.15	33731.80
454.34	32996.87
454.52	33284.76
454.70	32343.86
454.89	32425.78
455.07	32708.99
455.26	33673.29
455.44	34527.58
455.62	35213.36
455.81	35683.81
455.99	35021.44
456.17	34829.51
456.36	34593.12
456.54	35852.33
456.73	35531.67
456.91	36451.50
457.09	36840.03
457.28	37104.51
457.46	35735.30
457.64	34983.99
457.83	34326.30
458.01	33741.16
458.19	34396.51
458.38	34539.29
458.56	35903.82
458.74	36304.05
458.93	34981.65
459.11	35044.84
459.29	34675.04
459.48	34621.20
459.66	34778.02
459.84	35571.46
460.03	36224.47
460.21	35704.87
460.39	36540.44
460.57	36858.76
460.76	37074.09
460.94	36971.10
461.12	36561.51
461.31	36783.86
461.49	36559.17
461.67	36418.74
461.85	37872.21
462.04	37745.82
462.22	37970.51
462.40	37837.10
462.59	37572.62
462.77	37251.97
462.95	37191.11
463.13	37343.25
463.32	36828.33
463.50	36369.58
463.68	36559.17
463.86	36549.81
464.05	35992.76
464.23	35391.24
464.41	35255.49
464.59	34232.68
464.78	36102.76
464.96	36374.27
465.14	35739.98
465.32	37078.77
465.50	36924.29
465.69	37961.15
465.87	37249.63
466.05	36430.44
466.23	35129.10
466.41	33816.06
466.60	35065.91
466.78	34607.16
466.96	35325.71
467.14	36210.43
467.32	36275.96
467.51	36577.89
467.69	34733.55
467.87	35569.12
468.05	36350.86
468.23	36411.71
468.41	36561.51
468.60	36219.79
468.78	36767.48
468.96	36100.42
469.14	37001.53
469.32	37116.22
469.50	35386.56
469.69	35716.58
469.87	35182.93
470.05	35346.77
470.23	35360.81
470.41	35416.99
470.59	35803.17
470.77	35962.33
470.95	36804.92
471.14	37254.31
471.32	37361.97
471.50	39323.34
471.68	39533.99
471.86	39250.78
472.04	39971.67
472.22	40013.80
472.40	37991.58
472.58	37624.11
472.77	37167.71
472.95	38447.98
473.13	38651.61
473.31	37502.40
473.49	38265.42
473.67	39033.11
473.85	39077.58
474.03	39988.05
474.21	39988.05
474.39	40378.92
474.57	40596.59
474.75	40711.28
474.93	40739.36
475.12	39079.92
475.30	39496.54
475.48	39770.38
475.66	40041.88
475.84	39643.99
476.02	39779.74
476.20	39166.52
476.38	39962.31
476.56	40306.37
476.74	41287.05
476.92	41511.74
477.10	42059.43
477.28	43166.50
477.46	43007.34
477.64	43969.30
477.82	43983.35
478.00	44044.20
478.18	42944.15
478.36	43302.25
478.54	43021.39
478.72	43669.72
478.90	44470.18
479.08	45258.94
479.26	45825.35
479.44	45827.69
479.62	45448.52
479.80	45713.00
479.98	45937.69
480.16	46382.40
480.34	45689.60
480.52	46106.21
480.70	46492.40
480.88	46237.28
481.06	47388.83
481.24	47405.21
481.41	48353.13
481.59	49109.12
481.77	48570.80
481.95	47388.83
482.13	47962.26
482.31	48023.11
482.49	48657.40
482.67	48198.65
482.85	48905.49
483.03	49212.10
483.21	49581.91
483.39	49195.72
483.57	48868.05
483.74	48488.88
483.92	48839.96
484.10	49261.26
484.28	49832.35
484.46	50326.20
484.64	50974.53
484.82	49893.20
485.00	49397.01
485.18	48800.17
485.35	47503.51
485.53	44231.44
485.71	40814.26
485.89	40046.57
486.07	41832.39
486.25	45724.71
486.43	47765.65
486.61	48418.66
486.78	48538.03
486.96	48306.32
487.14	50059.38
487.32	50960.48
487.50	51779.67
487.68	52418.64
487.85	52980.37
488.03	53151.23
488.21	52615.24
488.39	51915.42
488.57	51533.92
488.75	50955.80
488.92	51997.34
489.10	53986.80
489.28	55079.83
489.46	55723.47
489.64	55854.54
489.81	55845.18
489.99	55325.58
490.17	55386.44
490.35	55899.01
490.53	55454.31
490.70	55281.11
490.88	55077.49
491.06	55910.72
491.24	55723.47
491.41	55161.75
491.59	53429.75
491.77	52648.01
491.95	53467.20
492.13	54930.03
492.30	55922.42
492.48	56734.59
492.66	56903.10
492.84	57188.65
493.01	57048.22
493.19	56196.26
493.37	56205.62
493.54	55803.05
493.72	56402.23
493.90	57513.98
494.08	58061.67
494.25	58438.50
494.43	58468.92
494.61	58775.53
494.79	59023.63
494.96	59018.95
495.14	58269.98
495.32	57429.72
495.49	56786.08
495.67	57528.03
495.85	58838.73
496.02	59327.90
496.20	59339.60
496.38	58791.92
496.55	58604.67
496.73	59068.10
496.91	59103.21
497.09	59723.45
497.26	59767.92
497.44	59285.77
497.62	58862.13
497.79	58122.52
497.97	57251.84
498.14	57195.67
498.32	58178.70
498.50	59009.59
498.67	59496.42
498.85	59456.63
499.03	59725.79
499.20	59927.08
499.38	60004.31
499.56	59700.04
499.73	59309.18
499.91	58901.92
500.08	58569.57
500.26	57780.81
500.44	58255.93
500.61	58848.09
500.79	58766.17
500.97	58487.65
501.14	58281.68
501.32	58113.16
501.49	58145.93
501.67	58354.24
501.84	58810.64
502.02	58754.47
502.20	59290.45
502.37	59526.84
502.55	59416.84
502.72	60137.72
502.90	60364.76
503.07	60067.51
503.25	59744.51
503.43	59002.56
503.60	58443.18
503.78	57822.93
503.95	58195.08
504.13	59517.48
504.30	60250.07
504.48	60137.72
504.65	59735.15
504.83	59824.09
505.01	60423.27
505.18	60495.83
505.36	61247.14
505.53	61158.20
505.71	61420.34
505.88	61750.35
506.06	60921.80
506.23	60772.01
506.41	60240.71
506.58	60556.68
506.76	60554.34
506.93	60474.76
507.11	60247.73
507.28	60126.02
507.46	60058.15
507.63	59313.86
507.81	59269.39
507.98	59639.19
508.16	60123.68
508.33	60633.92
508.50	60874.99
508.68	61066.92
508.85	61668.44
509.03	61570.13
509.20	61373.53
509.38	60708.82
509.55	60074.53
509.73	60147.09
509.90	60743.92
510.08	60940.53
510.25	60757.97
510.42	60512.21
510.60	60502.85
510.77	60919.46
510.95	61251.82
511.12	61354.80
511.30	61750.35
511.47	61989.09
511.64	61806.53
511.82	61570.13
511.99	61001.38
512.17	60568.38
512.34	60170.49
512.51	60210.28
512.69	60547.32
512.86	60537.96
513.04	61066.92
513.21	61167.56
513.38	60818.82
513.56	60081.55
513.73	59716.43
513.90	59891.97
514.08	60004.31
514.25	60161.13
514.43	60477.10
514.60	60308.58
514.77	60505.19
514.95	60591.79
515.12	60566.04
515.29	60898.40
515.47	61336.08
515.64	61448.42
515.81	61169.90
515.99	60629.24
516.16	59203.85
516.33	57127.80
516.51	55828.80
516.68	55278.77
516.85	54803.64
517.03	55072.81
517.20	57656.76
517.37	59826.43
517.54	60626.90
517.72	60360.08
517.89	58042.95
518.06	55842.84
518.24	56067.53
518.41	58150.61
518.58	59355.99
518.75	59730.47
518.93	59791.33
519.10	59526.84
519.27	60114.32
519.45	60383.48
519.62	60910.10
519.79	61282.25
519.96	61003.72
520.14	60530.93
520.31	60001.97
520.48	59875.58
520.65	60303.90
520.83	61001.38
521.00	61420.34
521.17	61064.58
521.34	60727.54
521.52	61034.15
521.69	61600.56
521.86	61916.53
522.03	61630.99
522.20	60526.25
522.38	59587.70
522.55	59690.68
522.72	59913.03
522.89	60205.60
523.07	60369.44
523.24	60764.99
523.41	61560.77
523.58	61771.42
523.75	62099.09
523.92	62122.50
524.10	61879.08
524.27	62014.83
524.44	61773.76
524.61	61546.73
524.78	61549.07
524.96	61499.92
525.13	61371.19
525.30	61649.71
525.47	62143.56
525.64	61893.13
525.81	61247.14
525.98	60051.12
526.16	58869.15
526.33	58075.71
526.50	57764.42
526.67	57577.18
526.84	58164.65
527.01	59068.10
527.18	59690.68
527.36	60413.91
527.53	61303.31
527.70	61528.00
527.87	60860.95
528.04	60711.16
528.21	60722.86
528.38	61736.31
528.55	62159.95
528.72	62438.47
528.89	62436.13
529.07	62410.38
529.24	61705.88
529.41	61057.56
529.58	60252.41
529.75	60629.24
529.92	61031.81
530.09	61464.81
530.26	61958.66
530.43	62124.84
530.60	62253.57
530.77	62487.62
530.94	62679.55
531.11	61991.43
531.28	61766.74
531.46	61581.84
531.63	61766.74
531.80	61600.56
531.97	61212.03
532.14	60654.98
532.31	59714.09
532.48	59110.23
532.65	59014.27
532.82	59948.14
532.99	60975.64
533.16	61113.73
533.33	61717.59
533.50	61469.49
533.67	60926.49
533.84	60308.58
534.01	60582.43
534.18	60793.07
534.35	60926.49
534.52	60961.59
534.69	61134.79
534.86	61425.02
535.03	61628.65
535.20	62075.69
535.37	62546.14
535.54	62534.43
535.71	62295.70
535.88	62010.15
536.05	61396.93
536.22	60793.07
536.38	60650.30
536.55	60116.66
536.72	59695.36
536.89	59667.28
537.06	60243.05
537.23	61066.92
537.40	61506.94
537.57	61436.72
537.74	61443.74
537.91	61233.10
538.08	61118.41
538.25	61176.92
538.42	61474.17
538.59	61317.35
538.75	60659.66
538.92	60406.89
539.09	60186.88
539.26	60123.68
539.43	59948.14
539.60	60119.00
539.77	60196.24
539.94	60025.38
540.11	59545.57
540.28	59004.91
540.44	58941.71
540.61	59171.08
540.78	59587.70
540.95	59931.76
541.12	60119.00
541.29	60357.74
541.46	60760.31
541.62	60657.32
541.79	60603.49
541.96	60030.06
542.13	60030.06
542.30	60303.90
542.47	60346.03
542.63	60278.16
542.80	60104.96
542.97	60261.77
543.14	59936.44
543.31	60032.40
543.48	60580.09
543.64	61270.54
543.81	61581.84
543.98	61226.07
544.15	60711.16
544.32	60264.11
544.48	60303.90
544.65	60544.98
544.82	60832.86
544.99	60636.26
545.16	60446.68
545.32	60020.70
545.49	60870.31
545.66	61158.20
545.83	60879.67
546.00	60673.71
546.16	60226.66
546.33	60114.32
546.50	60294.54
546.67	60755.63
546.83	60339.01
547.00	60247.73
547.17	59655.57
547.34	58901.92
547.50	59070.44
547.67	59519.82
547.84	59664.94
548.00	59990.27
548.17	60355.39
548.34	60200.92
548.51	60233.69
548.67	60446.68
548.84	60315.61
549.01	60170.49
549.18	60266.45
549.34	60072.19
549.51	60271.14
549.68	60252.41
549.84	59875.58
550.01	59950.48
550.18	59697.70
550.34	59852.18
550.51	59856.86
550.68	60158.79
550.84	59346.62
551.01	59613.44
551.18	59583.02
551.34	59583.02
551.51	60055.81
551.68	60268.79
551.84	60406.89
552.01	60221.98
552.18	60088.57
552.34	59327.90
552.51	58946.39
552.68	58782.55
552.84	59402.80
553.01	59606.42
553.18	59381.73
553.34	59669.62
553.51	59758.56
553.67	60081.55
553.84	60128.36
554.01	59854.52
554.17	59760.90
554.34	59810.05
554.51	59969.21
554.67	60420.93
554.84	59941.12
555.00	59894.31
555.17	59276.41
555.33	59529.19
555.50	59454.29
555.67	59494.08
555.83	59257.68
556.00	59061.08
556.16	59157.04
556.33	58550.84
556.50	58506.37
556.66	58560.20
556.83	58335.51
556.99	58710.00
557.16	58651.48
557.32	59091.51
557.49	59363.01
557.65	58890.22
557.82	58969.80
557.98	58901.92
558.15	58525.10
558.32	57563.14
558.48	56793.10
558.65	56985.02
558.81	57415.68
558.98	57813.57
559.14	57893.15
559.31	58162.31
559.47	58017.20
559.64	57645.05
559.80	57350.15
559.97	57446.11
560.13	57818.25
560.30	58691.27
560.46	59234.28
560.63	59395.77
560.79	59180.45
560.96	59030.65
561.12	57946.98
561.29	57050.56
561.45	57249.50
561.61	57890.81
561.78	58155.29
561.94	58183.38
562.11	58059.33
562.27	57785.49
562.44	58045.29
562.60	58312.11
562.77	58489.99
562.93	58609.35
563.10	58337.85
563.26	57930.60
563.42	57909.53
563.59	57806.55
563.75	57602.92
563.92	57743.36
564.08	57677.82
564.24	58159.97
564.41	58300.40
564.57	58129.54
564.74	58019.54
564.90	57771.44
565.07	57518.67
565.23	57249.50
565.39	56755.65
565.56	56547.34
565.72	56474.79
565.88	56549.68
566.05	56856.29
566.21	57017.79
566.38	57219.08
566.54	57155.88
566.70	57551.43
566.87	57722.29
567.03	57652.08
567.19	57918.90
567.36	57394.62
567.52	57682.50
567.68	57165.24
567.85	56638.62
568.01	56299.25
568.17	56240.73
568.34	56151.79
568.50	56102.64
568.66	56170.52
568.83	56458.40
568.99	56582.45
569.15	56809.48
569.32	56790.76
569.48	56477.13
569.64	56156.47
569.81	56100.30
569.97	55980.93
570.13	55817.10
570.30	55344.31
570.46	55173.45
570.62	54686.62
570.78	54583.63
570.95	54927.69
571.11	55290.48
571.27	55606.45
571.43	55725.81
571.60	56030.08
571.76	56411.59
571.92	56346.06
572.09	56512.23
572.25	56643.30
572.41	56505.21
572.57	56463.08
572.74	56594.15
572.90	56137.75
573.06	56186.90
573.22	56025.40
573.38	56055.83
573.55	56128.39
573.71	56222.01
573.87	56226.69
574.03	55718.79
574.20	55784.33
574.36	55463.67
574.52	55491.76
574.68	55292.82
574.84	55089.19
575.01	54625.76
575.17	54326.17
575.33	54738.11
575.49	54892.58
575.65	55180.47
575.82	55016.63
575.98	54829.39
576.14	54852.80
576.30	55175.79
576.46	55292.82
576.62	55346.65
576.79	55051.74
576.95	54780.24
577.11	54815.35
577.27	54831.73
577.43	54969.82
577.59	54775.56
577.75	54204.47
577.92	53579.54
578.08	53544.44
578.24	53766.79
578.40	53813.60
578.56	54185.74
578.72	54152.97
578.88	54436.18
579.04	54342.56
579.21	54632.78
579.37	54649.17
579.53	54504.06
579.69	54628.10
579.85	54965.14
580.01	54784.92
580.17	54286.39
580.33	54145.95
580.49	54171.70
580.65	54384.69
580.82	54768.54
580.98	54742.79
581.14	54101.48
581.30	54295.75
581.46	54279.36
581.62	54740.45
581.78	54560.23
581.94	54969.82
582.10	54728.75
582.26	54714.70
582.42	54581.29
582.58	54695.98
582.74	54494.69
582.90	54527.46
583.06	54749.81
583.22	54672.57
583.38	54281.70
583.54	54244.26
583.70	54553.21
583.86	54349.58
584.02	54401.07
584.18	54518.10
584.34	54314.47
584.50	54162.34
584.66	53977.43
584.82	53888.49
584.98	53773.81
585.14	53207.40
