SpectraSuite Data File
++++++++++++++++++++++++++++++++++++
Date: Mon Oct 07 14:53:08 GMT-05:00 2013
User: price-jones
Dark Spectrum Present: No
Reference Spectrum Present: No
Number of Sampled Component Spectra: 1
Spectrometers: USB2+H05261
Integration Time (usec): 100000 (USB2+H05261)
Spectra Averaged: 1 (USB2+H05261)
Boxcar Smoothing: 0 (USB2+H05261)
Correct for Electrical Dark: No (USB2+H05261)
Strobe/Lamp Enabled: No (USB2+H05261)
Correct for Detector Non-linearity: No (USB2+H05261)
Correct for Stray Light: No (USB2+H05261)
Number of Pixels in Processed Spectrum: 2048
>>>>>Begin Processed Spectral Data<<<<<
365.73	0.00
365.92	0.00
366.12	0.00
366.32	0.00
366.52	0.00
366.72	0.00
366.91	0.00
367.11	0.00
367.31	0.00
367.51	0.00
367.70	0.00
367.90	0.00
368.10	0.00
368.30	0.00
368.49	0.00
368.69	0.00
368.89	0.00
369.09	0.00
369.28	0.00
369.48	0.00
369.68	0.00
369.87	0.00
370.07	0.00
370.27	0.00
370.47	629.60
370.66	3066.10
370.86	3726.13
371.06	4194.24
371.25	4072.53
371.45	3679.32
371.65	3260.37
371.84	3255.69
372.04	3232.28
372.24	3623.15
372.44	3751.88
372.63	3810.39
372.83	3550.59
373.03	3122.27
373.22	2967.80
373.42	3030.99
373.62	3590.38
373.81	3728.47
374.01	3749.54
374.21	3365.69
374.40	3258.03
374.60	3353.99
374.79	3702.73
374.99	4358.08
375.19	4383.82
375.38	4648.30
375.58	4292.54
375.78	4173.18
375.97	4418.93
376.17	4454.04
376.37	4657.67
376.56	4493.83
376.76	4943.21
376.95	5322.38
377.15	5710.91
377.35	5849.00
377.54	6193.06
377.74	6080.71
377.93	6272.64
378.13	6003.47
378.33	5699.20
378.52	5172.58
378.72	5118.75
378.91	5069.60
379.11	4774.69
379.31	4713.84
379.50	4753.63
379.70	4973.64
379.89	5568.13
380.09	5734.31
380.28	6181.35
380.48	6146.25
380.68	5851.34
380.87	5888.79
381.07	5305.99
381.26	5107.05
381.46	4603.83
381.65	4685.75
381.85	4475.10
382.04	4114.66
382.24	3962.53
382.43	3669.96
382.63	3707.41
382.83	3688.68
383.02	3653.58
383.22	3808.05
383.41	3721.45
383.61	3974.23
383.80	4688.09
384.00	5228.76
384.19	5694.52
384.39	6186.04
384.58	5893.47
384.78	5706.23
384.97	5778.78
385.17	5598.56
385.36	5210.03
385.56	5022.79
385.75	5233.44
385.95	5753.04
386.14	6160.29
386.34	6272.64
386.53	5961.34
386.72	5446.43
386.92	5710.91
387.11	6071.35
387.31	6232.85
387.50	5991.77
387.70	5849.00
387.89	5849.00
388.09	5874.74
388.28	5951.98
388.48	6038.58
388.67	6487.96
388.86	6918.62
389.06	7597.38
389.25	8063.15
389.45	8156.77
389.64	8124.00
389.84	8077.19
390.03	7801.01
390.22	7962.50
390.42	8135.70
390.61	8643.60
390.81	9273.20
391.00	9535.34
391.19	9221.71
391.39	8837.86
391.58	8463.38
391.78	8035.06
391.97	7810.37
392.16	7133.95
392.36	6553.50
392.55	5268.55
392.75	4194.24
392.94	3459.31
393.13	3407.82
393.33	4011.68
393.52	5170.24
393.71	6539.46
393.91	7082.46
394.10	7508.44
394.29	8610.83
394.49	9137.45
394.68	9916.85
394.88	9809.19
395.07	10284.31
395.26	10118.14
395.46	9827.91
395.65	9151.49
395.84	7913.35
396.04	6778.19
396.23	5434.72
396.42	4496.17
396.62	4449.36
396.81	5345.78
397.00	6588.61
397.19	8432.95
397.39	9987.07
397.58	11274.36
397.77	11939.07
397.97	12498.46
398.16	12358.03
398.35	12835.50
398.55	13071.89
398.74	13570.43
398.93	13956.61
399.12	13919.17
399.32	13319.99
399.51	13621.92
399.70	14665.80
399.90	14579.20
400.09	14415.36
400.28	14511.32
400.47	14401.32
400.67	15323.49
400.86	15405.41
401.05	15456.90
401.24	15826.70
401.44	15999.90
401.63	15864.15
401.82	16133.31
402.01	16016.29
402.21	15995.22
402.40	15943.73
402.59	15723.72
402.78	15201.78
402.97	14766.44
403.17	15290.72
403.36	16161.40
403.55	16908.03
403.74	17020.38
403.93	16074.80
404.13	14780.48
404.32	14593.24
404.51	15480.30
404.70	16702.06
404.89	16580.36
405.09	16229.27
405.28	15431.15
405.47	15793.94
405.66	15943.73
405.85	15185.40
406.05	15054.33
406.24	15108.16
406.43	15985.86
406.62	16503.12
406.81	16849.52
407.00	15868.83
407.20	15545.84
407.39	15426.47
407.58	16538.23
407.77	17027.40
407.96	17575.08
408.15	17926.16
408.34	17862.97
408.54	18728.97
408.73	18803.86
408.92	18499.59
409.11	18106.38
409.30	17139.74
409.49	16016.29
409.68	15126.88
409.87	14581.54
410.07	15868.83
410.26	16709.08
410.45	18068.94
410.64	18391.93
410.83	18735.99
411.02	19374.95
411.21	20126.27
411.40	19735.40
411.59	19733.06
411.78	19939.02
411.98	19353.89
412.17	20156.69
412.36	19227.50
412.55	19620.71
412.74	18956.00
412.93	18637.69
413.12	18710.24
413.31	20767.57
413.50	20971.20
413.69	21331.64
413.88	20053.71
414.07	19641.78
414.26	20025.62
414.45	20423.51
414.64	20734.81
414.83	20851.83
415.02	20390.75
415.22	20327.55
415.41	21156.10
415.60	21357.39
415.79	22207.00
415.98	22918.53
416.17	23070.66
416.36	22398.93
416.55	21872.31
416.74	21275.47
416.93	20709.06
417.12	20500.75
417.31	21219.30
417.50	21479.10
417.69	22047.85
417.88	21694.43
418.07	21664.00
418.26	21352.71
418.45	21514.20
418.64	22382.54
418.83	23374.93
419.02	22794.48
419.21	22581.49
419.39	21652.30
419.58	20610.76
419.77	21060.14
419.96	21474.42
420.15	22815.54
420.34	23594.94
420.53	24615.41
420.72	24816.70
420.91	24472.64
421.10	23962.40
421.29	23747.08
421.48	23381.95
421.67	24437.53
421.86	23646.43
422.05	22066.57
422.24	19786.89
422.43	19529.43
422.61	21851.24
422.80	23489.62
422.99	23337.48
423.18	22539.36
423.37	22272.54
423.56	22274.88
423.75	22682.13
423.94	22948.95
424.13	21949.54
424.32	22207.00
424.50	22146.15
424.69	21869.97
424.88	22253.81
425.07	22223.39
425.26	22122.74
425.45	21535.27
425.64	21474.42
425.83	21514.20
426.01	22445.74
426.20	22909.16
426.39	22890.44
426.58	21303.56
426.77	19735.40
426.96	18986.43
427.15	19840.72
427.33	21640.59
427.52	22019.76
427.71	22354.46
427.90	21965.93
428.09	21649.96
428.28	21617.19
428.46	20489.05
428.65	20072.43
428.84	20950.14
429.03	21057.80
429.22	19845.40
429.40	18909.19
429.59	17289.54
429.78	15377.32
429.97	15358.60
430.16	15627.76
430.34	15637.12
430.53	15562.22
430.72	15948.41
430.91	17769.35
431.10	21015.67
431.28	24800.32
431.47	26036.12
431.66	26637.64
431.85	24432.85
432.03	22321.69
432.22	21317.60
432.41	22494.89
432.60	24554.56
432.79	25818.45
432.97	26129.74
433.16	26015.05
433.35	23557.49
433.54	21144.40
433.72	19723.69
433.91	20676.29
434.10	22909.16
434.28	24233.91
434.47	25872.28
434.66	25387.79
434.85	24847.13
435.03	24837.76
435.22	25507.16
435.41	26567.42
435.59	26925.52
435.78	27407.67
435.97	27608.96
436.16	27803.22
436.34	27459.16
436.53	27175.96
436.72	26918.50
436.90	25869.94
437.09	25617.16
437.28	25034.37
437.46	26068.89
437.65	25940.16
437.84	24123.90
438.02	21898.05
438.21	22394.25
438.40	23255.56
438.58	25525.88
438.77	26061.87
438.96	26396.56
439.14	27318.73
439.33	27845.35
439.52	28641.14
439.70	27557.47
439.89	26852.97
440.08	25874.62
440.26	26405.92
440.45	27056.59
440.63	29055.41
440.82	30874.01
441.01	30139.08
441.19	29935.45
441.38	30295.89
441.57	31527.02
441.75	32278.33
441.94	32308.76
442.12	31807.88
442.31	32559.19
442.50	32355.57
442.68	31826.60
442.87	31749.37
443.05	31124.44
443.24	31714.26
443.43	32346.20
443.61	33244.97
443.80	33027.30
443.98	31702.56
444.17	31585.53
444.35	33282.42
444.54	33823.08
444.73	33359.66
444.91	31929.59
445.10	30761.66
445.28	29762.25
445.47	29247.33
445.65	29200.52
445.84	30354.41
446.02	31388.92
446.21	31974.06
446.39	31990.44
446.58	31943.63
446.77	32362.59
446.95	32882.19
447.14	33673.29
447.32	34618.86
447.51	33097.52
447.69	32182.37
447.88	31910.86
448.06	32634.09
448.25	33380.72
448.43	33198.16
448.62	32549.83
448.80	32385.99
448.99	32659.84
449.17	32992.19
449.36	33266.03
449.54	34174.16
449.73	34536.94
449.91	35143.14
450.10	36212.77
450.28	37043.66
450.46	36598.96
450.65	36308.73
450.83	35957.65
451.02	35166.55
451.20	35487.20
451.39	35332.73
451.57	35337.41
451.76	35021.44
451.94	35005.05
452.13	34506.52
452.31	32917.29
452.49	30951.24
452.68	31889.80
452.86	31941.29
453.05	31976.40
453.23	32999.21
453.42	34096.92
453.60	34270.12
453.78	34890.37
453.97	34335.66
454.15	34941.86
454.34	34085.22
454.52	33876.91
454.70	33359.66
454.89	33324.55
455.07	34019.69
455.26	34635.25
455.44	35964.67
455.62	36301.71
455.81	36315.75
455.99	36222.13
456.17	35793.81
456.36	35976.37
456.54	36877.48
456.73	36842.37
456.91	37134.94
457.09	37663.90
457.28	38094.56
457.46	36706.62
457.64	36449.16
457.83	35697.85
458.01	34698.44
458.19	35782.11
458.38	35849.99
458.56	36734.71
458.74	36648.11
458.93	36137.87
459.11	36109.78
459.29	35550.40
459.48	36191.70
459.66	35985.74
459.84	36348.52
460.03	36872.80
460.21	36863.44
460.39	37710.71
460.57	37783.27
460.76	38705.44
460.94	38382.45
461.12	37284.73
461.31	37926.04
461.49	37493.04
461.67	37844.12
461.85	39154.82
462.04	38546.28
462.22	39232.06
462.40	38588.41
462.59	38637.56
462.77	38890.34
462.95	38850.55
463.13	37986.89
463.32	38005.62
463.50	37820.72
463.68	37174.73
463.86	37539.85
464.05	37074.09
464.23	36772.16
464.41	36584.91
464.59	35887.43
464.78	37689.65
464.96	37612.41
465.14	37163.03
465.32	37984.55
465.50	39330.36
465.69	39281.21
465.87	38698.42
466.05	37464.96
466.23	35833.60
466.41	35295.28
466.60	36165.96
466.78	36215.11
466.96	36627.04
467.14	37312.82
467.32	38223.29
467.51	37986.89
467.69	36446.82
467.87	36580.23
468.05	37521.13
468.23	37563.26
468.41	37649.86
468.60	37682.62
468.78	37837.10
468.96	37291.76
469.14	38546.28
469.32	38600.12
469.50	37364.31
469.69	36781.52
469.87	36730.03
470.05	36481.93
470.23	37038.98
470.41	36821.31
470.59	37247.29
470.77	37308.14
470.95	38174.14
471.14	38710.12
471.32	38616.50
471.50	40790.86
471.68	40790.86
471.86	41099.81
472.04	41106.83
472.22	41326.84
472.40	39370.15
472.58	39063.54
472.77	39012.05
472.95	39718.89
473.13	40615.32
473.31	39447.39
473.49	39583.14
473.67	40928.95
473.85	40879.80
474.03	41750.48
474.21	41963.46
474.39	42216.24
474.57	42590.73
474.75	42440.93
474.93	41722.39
475.12	40954.69
475.30	41179.39
475.48	41457.91
475.66	41865.16
475.84	41280.03
476.02	40964.06
476.20	40495.95
476.38	40793.20
476.56	42515.83
476.74	43412.26
476.92	42808.40
477.10	44093.35
477.28	45202.77
477.46	45083.40
477.64	45357.24
477.82	45308.09
478.00	45703.64
478.18	45034.25
478.36	44912.54
478.54	44589.55
478.72	45436.82
478.90	46103.87
479.08	47800.76
479.26	47540.96
479.44	47508.19
479.62	47370.10
479.80	47587.77
479.98	47657.99
480.16	47512.88
480.34	47318.61
480.52	47995.03
480.70	47433.30
480.88	48238.44
481.06	49162.95
481.24	49631.06
481.41	49640.42
481.59	50394.07
481.77	50131.93
481.95	49624.04
482.13	49446.16
482.31	49804.26
482.49	50548.55
482.67	50122.57
482.85	50150.66
483.03	50789.62
483.21	51215.60
483.39	51271.78
483.57	50674.94
483.74	50384.71
483.92	50586.00
484.10	50387.05
484.28	51744.56
484.46	51772.65
484.64	52399.91
484.82	51257.73
485.00	51250.71
485.18	50337.90
485.35	49165.29
485.53	46024.29
485.71	42396.46
485.89	41846.44
486.07	44020.80
486.25	47412.23
486.43	49495.31
486.61	50258.32
486.78	49998.52
486.96	50316.84
487.14	52055.85
487.32	52357.78
487.50	53385.28
487.68	54185.74
487.85	54412.77
488.03	54426.82
488.21	54202.13
488.39	53418.05
488.57	52978.03
488.75	52481.83
488.92	53769.13
489.10	55767.94
489.28	56568.41
489.46	57336.10
489.64	56821.19
489.81	57160.56
489.99	56736.93
490.17	57010.77
490.35	57092.69
490.53	56865.66
490.70	56320.31
490.88	56690.12
491.06	57481.22
491.24	57336.10
491.41	56140.09
491.59	54843.43
491.77	54190.42
491.95	55494.10
492.13	56287.54
492.30	57326.74
492.48	58131.89
492.66	58466.58
492.84	58422.11
493.01	58195.08
493.19	57794.85
493.37	57455.47
493.54	57289.29
493.72	57965.71
493.90	58728.72
494.08	59465.99
494.25	59664.94
494.43	59756.22
494.61	60128.36
494.79	60214.96
494.96	60039.42
495.14	59529.19
495.32	58719.36
495.49	58211.46
495.67	59309.18
495.85	60214.96
496.02	60512.21
496.20	60449.02
496.38	60032.40
496.55	60074.53
496.73	60303.90
496.91	60594.13
497.09	61066.92
497.26	61095.00
497.44	60739.24
497.62	60177.51
497.79	59568.97
497.97	58422.11
498.14	58609.35
498.32	59873.24
498.50	60381.14
498.67	61013.08
498.85	60893.72
499.03	60879.67
499.20	61293.95
499.38	61233.10
499.56	61080.96
499.73	60629.24
499.91	60247.73
500.08	59845.16
500.26	59327.90
500.44	59838.14
500.61	60495.83
500.79	60250.07
500.97	59903.67
501.14	59594.72
501.32	59604.08
501.49	59381.73
501.67	59615.79
501.84	60315.61
502.02	60453.70
502.20	60697.11
502.37	60814.14
502.55	60823.50
502.72	61478.85
502.90	61687.16
503.07	61623.96
503.25	61036.49
503.43	60266.45
503.60	59803.03
503.78	59295.13
503.95	59788.98
504.13	60956.91
504.30	61626.31
504.48	61380.55
504.65	61305.65
504.83	61284.59
505.01	61921.21
505.18	62073.35
505.36	62560.18
505.53	62705.29
505.71	62880.83
505.88	62988.50
506.06	62333.15
506.23	62092.07
506.41	61647.37
506.58	62042.92
506.76	61815.89
506.93	62000.79
507.11	61787.80
507.28	61989.09
507.46	61305.65
507.63	60736.90
507.81	60666.69
507.98	61052.87
508.16	61619.28
508.33	62269.95
508.50	62279.31
508.68	62635.08
508.85	63025.95
509.03	63065.73
509.20	62838.70
509.38	61996.11
509.55	61488.21
509.73	61654.39
509.90	62253.57
510.08	62356.55
510.25	62314.42
510.42	62129.52
510.60	62045.26
510.77	62440.81
510.95	62892.54
511.12	62871.47
511.30	63243.62
511.47	63402.77
511.64	63465.97
511.82	63119.57
511.99	62365.91
512.17	62047.60
512.34	61649.71
512.51	61832.27
512.69	61984.41
512.86	62047.60
513.04	62457.20
513.21	62548.48
513.38	61998.45
513.56	61565.45
513.73	61050.53
513.90	61638.01
514.08	61378.21
514.25	61712.91
514.43	62073.35
514.60	61996.11
514.77	62178.67
514.95	62241.87
515.12	62211.44
515.29	62258.25
515.47	62878.49
515.64	63049.35
515.81	62614.01
515.99	62096.75
516.16	60849.25
516.33	58614.04
516.51	57588.88
516.68	56961.62
516.85	56324.99
517.03	57219.08
517.20	59245.98
517.37	61469.49
517.54	62113.14
517.72	61675.46
517.89	59545.57
518.06	57661.44
518.24	58108.48
518.41	59910.69
518.58	60966.27
518.75	61146.50
518.93	61275.22
519.10	61090.32
519.27	61574.81
519.45	61963.34
519.62	62344.85
519.79	62770.83
519.96	62487.62
520.14	62365.91
520.31	61652.05
520.48	61523.32
520.65	61846.32
520.83	62766.15
521.00	63007.22
521.17	62478.26
521.34	62412.73
521.52	62784.87
521.69	63142.97
521.86	63456.60
522.03	63058.71
522.20	61900.15
522.38	61069.26
522.55	61272.88
522.72	61858.02
522.89	61719.93
523.07	61979.73
523.24	62326.13
523.41	63175.74
523.58	63426.18
523.75	63758.53
523.92	63575.97
524.10	63566.61
524.27	63566.61
524.44	63351.28
524.61	63234.25
524.78	63058.71
524.96	63044.67
525.13	63196.80
525.30	63288.09
525.47	63786.62
525.64	63653.21
525.81	62932.32
525.98	61790.14
526.16	60395.18
526.33	59943.46
526.50	59714.09
526.67	59419.18
526.84	59957.50
527.01	60654.98
527.18	61324.38
527.36	62358.89
527.53	63140.63
527.70	63133.61
527.87	62733.38
528.04	62192.72
528.21	62852.75
528.38	63489.37
528.55	64008.97
528.72	64086.21
528.89	64217.28
529.07	63903.65
529.24	63484.69
529.41	62904.24
529.58	62377.62
529.75	62508.69
529.92	62782.53
530.09	63306.81
530.26	63573.63
530.43	63990.25
530.60	63927.05
530.77	64219.62
530.94	64285.15
531.11	63795.98
531.28	63285.75
531.46	63206.17
531.63	63510.44
531.80	63238.93
531.97	62770.83
532.14	62155.27
532.31	61268.20
532.48	60800.10
532.65	60891.38
532.82	61609.92
532.99	62415.07
533.16	62969.77
533.33	63676.61
533.50	63348.94
533.67	62721.68
533.84	62412.73
534.01	62494.64
534.18	62775.51
534.35	62908.92
534.52	62658.48
534.69	63056.37
534.86	63274.04
535.03	63601.72
535.20	63978.54
535.37	64086.21
535.54	64275.79
535.71	63917.69
535.88	63449.58
536.05	62960.41
536.22	62742.74
536.38	62452.51
536.55	62134.20
536.72	61464.81
536.89	61600.56
537.06	62344.85
537.23	63224.89
537.40	63215.53
537.57	63267.02
537.74	62974.45
537.91	62838.70
538.08	63018.92
538.25	62925.30
538.42	63175.74
538.59	62901.90
538.75	62372.94
538.92	62284.00
539.09	62148.24
539.26	61808.87
539.43	61701.20
539.60	61928.23
539.77	62164.63
539.94	61958.66
540.11	61186.28
540.28	60659.66
540.44	60914.78
540.61	61221.39
540.78	61410.98
540.95	61808.87
541.12	61961.00
541.29	62302.72
541.46	62651.46
541.62	62550.82
541.79	62450.17
541.96	61755.03
542.13	62003.13
542.30	62230.16
542.47	62300.38
542.63	62145.90
542.80	61937.60
542.97	62073.35
543.14	61757.38
543.31	61998.45
543.48	62382.30
543.64	63030.63
543.81	63407.45
543.98	63192.12
544.15	62473.58
544.32	62096.75
544.48	62330.81
544.65	62616.35
544.82	63007.22
544.99	62438.47
545.16	62028.88
545.32	62021.86
545.49	62852.75
545.66	62948.71
545.83	62606.99
546.00	62190.37
546.16	62054.62
546.33	62110.80
546.50	62150.59
546.67	62686.57
546.83	62223.14
547.00	62284.00
547.17	61799.50
547.34	61333.74
547.50	61197.99
547.67	61499.92
547.84	61408.64
548.00	62063.99
548.17	62422.09
548.34	62260.59
548.51	62295.70
548.67	62515.71
548.84	62382.30
549.01	62307.40
549.18	62061.64
549.34	62223.14
549.51	62190.37
549.68	61951.64
549.84	61895.47
550.01	61893.13
550.18	61600.56
550.34	61745.67
550.51	61778.44
550.68	61982.07
550.84	61432.04
551.01	61408.64
551.18	61490.55
551.34	61626.31
551.51	62007.81
551.68	62386.98
551.84	62199.74
552.01	62131.86
552.18	62017.17
552.34	61366.51
552.51	60919.46
552.68	60872.65
552.84	61392.25
553.01	61343.10
553.18	61354.80
553.34	61630.99
553.51	61787.80
553.67	62117.82
553.84	62007.81
554.01	62056.96
554.17	61722.27
554.34	61860.36
554.51	61865.04
554.67	62305.06
554.84	62141.22
555.00	61785.46
555.17	61591.20
555.33	61357.14
555.50	61586.52
555.67	61612.26
555.83	61509.28
556.00	61158.20
556.16	61179.26
556.33	60816.48
556.50	60624.56
556.66	60664.35
556.83	60540.30
556.99	60552.00
557.16	60846.91
557.32	61069.26
557.49	61132.45
557.65	61102.03
557.82	60912.44
557.98	60945.21
558.15	60685.41
558.32	59863.88
558.48	59089.16
558.65	59381.73
558.81	59859.20
558.98	59870.90
559.14	60243.05
559.31	60205.60
559.47	60175.17
559.64	59840.48
559.80	59641.53
559.97	59683.66
560.13	59955.16
560.30	60793.07
560.46	61240.12
560.63	61464.81
560.79	61516.30
560.96	60940.53
561.12	60299.22
561.29	59398.12
561.45	59501.10
561.61	59882.61
561.78	60364.76
561.94	60196.24
562.11	60102.62
562.27	60119.00
562.44	60388.16
562.60	60385.82
562.77	60863.29
562.93	60783.71
563.10	60353.05
563.26	60016.02
563.42	60130.70
563.59	60074.53
563.75	59884.95
563.92	60219.64
564.08	60041.76
564.24	60299.22
564.41	60287.52
564.57	60207.94
564.74	59882.61
564.90	60004.31
565.07	59889.63
565.23	59327.90
565.39	58908.94
565.56	58681.91
565.72	58646.80
565.88	58953.41
566.05	58993.20
566.21	59325.56
566.38	59332.58
566.54	59283.43
566.70	59894.31
566.87	59833.46
567.03	59978.57
567.19	60135.38
567.36	59868.56
567.52	59800.69
567.68	59433.22
567.85	59098.53
568.01	58810.64
568.17	58438.50
568.34	58305.09
568.50	58532.12
568.66	58628.08
568.83	58808.30
568.99	58820.00
569.15	59035.33
569.32	59065.76
569.48	58831.71
569.64	58700.64
569.81	58607.01
569.97	58239.55
570.13	58267.64
570.30	57832.30
570.46	57607.61
570.62	57057.58
570.78	57022.47
570.95	57261.21
571.11	57808.89
571.27	57904.85
571.43	58314.45
571.60	58422.11
571.76	58632.76
571.92	58958.09
572.09	58775.53
572.25	58941.71
572.41	58822.34
572.57	58808.30
572.74	58752.13
572.90	58429.13
573.06	58415.09
573.22	58616.38
573.38	58391.68
573.55	58330.83
573.71	58539.14
573.87	58597.65
574.03	58197.42
574.20	58482.97
574.36	57979.75
574.52	57982.09
574.68	57715.27
574.84	57301.00
575.01	57055.24
575.17	57141.84
575.33	57291.63
575.49	57420.36
575.65	57684.84
575.82	57616.97
575.98	57216.74
576.14	57446.11
576.30	57581.86
576.46	57759.74
576.62	57696.55
576.79	57708.25
576.95	57324.40
577.11	57389.94
577.27	57539.73
577.43	57574.84
577.59	56978.00
577.75	56853.95
577.92	56266.48
578.08	56151.79
578.24	56254.78
578.40	56523.94
578.56	56783.74
578.72	56748.63
578.88	56870.34
579.04	57066.94
579.21	57059.92
579.37	57123.11
579.53	57368.87
579.69	57233.12
579.85	57579.52
580.01	57263.55
580.17	56804.80
580.33	56509.89
580.49	56858.63
580.65	56968.64
580.82	57158.22
580.98	57174.61
581.14	57125.46
581.30	57392.28
581.46	57200.35
581.62	57286.95
581.78	57195.67
581.94	57378.23
582.10	57513.98
582.26	57315.04
582.42	57483.56
582.58	57455.47
582.74	57195.67
582.90	57242.48
583.06	57432.07
583.22	57097.37
583.38	57209.71
583.54	57073.96
583.70	56910.13
583.86	57085.67
584.02	57029.49
584.18	57123.11
584.34	56891.40
584.50	56687.78
584.66	56711.18
584.82	56296.91
584.98	56402.23
585.14	56048.81
