SpectraSuite Data File
++++++++++++++++++++++++++++++++++++
Date: Mon Oct 07 14:53:44 GMT-05:00 2013
User: price-jones
Dark Spectrum Present: No
Reference Spectrum Present: No
Number of Sampled Component Spectra: 1
Spectrometers: USB2+H05261
Integration Time (usec): 100000 (USB2+H05261)
Spectra Averaged: 1 (USB2+H05261)
Boxcar Smoothing: 0 (USB2+H05261)
Correct for Electrical Dark: No (USB2+H05261)
Strobe/Lamp Enabled: No (USB2+H05261)
Correct for Detector Non-linearity: No (USB2+H05261)
Correct for Stray Light: No (USB2+H05261)
Number of Pixels in Processed Spectrum: 2048
>>>>>Begin Processed Spectral Data<<<<<
365.73	0.00
365.92	0.00
366.12	0.00
366.32	0.00
366.52	0.00
366.72	0.00
366.91	0.00
367.11	0.00
367.31	0.00
367.51	0.00
367.70	0.00
367.90	0.00
368.10	0.00
368.30	0.00
368.49	0.00
368.69	0.00
368.89	0.00
369.09	0.00
369.28	0.00
369.48	0.00
369.68	0.00
369.87	0.00
370.07	0.00
370.27	0.00
370.47	720.88
370.66	3552.93
370.86	4028.06
371.06	4489.15
371.25	4638.94
371.45	4086.58
371.65	3672.30
371.84	3307.18
372.04	3445.27
372.24	3967.21
372.44	4201.26
372.63	3974.23
372.83	3847.84
373.03	3438.25
373.22	3185.47
373.42	3304.84
373.62	3817.41
373.81	4196.58
374.01	4285.52
374.21	3784.65
374.40	3541.23
374.60	3655.92
374.79	4126.36
374.99	4706.82
375.19	5074.28
375.38	5287.27
375.58	4851.93
375.78	4816.82
375.97	4891.72
376.17	4994.70
376.37	5006.41
376.56	5174.92
376.76	5404.30
376.95	5792.83
377.15	6171.99
377.35	6347.53
377.54	6881.18
377.74	6771.17
377.93	6956.07
378.13	6808.62
378.33	6415.41
378.52	5600.90
378.72	5636.01
378.91	5483.88
379.11	5366.85
379.31	5210.03
379.50	5184.29
379.70	5502.60
379.89	6106.46
380.09	6722.02
380.28	6806.28
380.48	6867.13
380.68	6640.10
380.87	6420.09
381.07	6012.84
381.26	5535.37
381.46	5273.23
381.65	5069.60
381.85	4983.00
382.04	4594.47
382.24	4376.80
382.43	4030.40
382.63	4058.49
382.83	4074.87
383.02	3915.72
383.22	4070.19
383.41	4074.87
383.61	4372.12
383.80	5046.20
384.00	5757.72
384.19	6326.47
384.39	6539.46
384.58	6614.35
384.78	6541.80
384.97	6569.88
385.17	6274.98
385.36	6015.18
385.56	5762.40
385.75	5844.32
385.95	6335.83
386.14	6920.96
386.34	6899.90
386.53	6607.33
386.72	6272.64
386.92	6193.06
387.11	6588.61
387.31	6778.19
387.50	6953.73
387.70	6509.03
387.89	6586.27
388.09	6600.31
388.28	6656.48
388.48	6644.78
388.67	7187.79
388.86	7887.61
389.06	8390.82
389.25	9055.53
389.45	9043.83
389.64	9160.86
389.84	8774.67
390.03	8865.95
390.22	8919.78
390.42	8992.34
390.61	9591.52
390.81	10326.44
391.00	10403.68
391.19	10401.34
391.39	10101.75
391.58	9493.21
391.78	8924.46
391.97	8622.53
392.16	8063.15
392.36	7250.98
392.55	5916.87
392.75	4643.62
392.94	3896.99
393.13	3791.67
393.33	4444.68
393.52	5731.97
393.71	6930.33
393.91	7936.76
394.10	8552.32
394.29	9298.95
394.49	10136.86
394.68	10829.66
394.88	10869.45
395.07	11213.51
395.26	11218.19
395.46	10853.06
395.65	10448.15
395.84	9181.92
396.04	7545.89
396.23	6282.00
396.42	5252.16
396.62	5015.77
396.81	5809.21
397.00	7323.54
397.19	9263.84
397.39	10827.32
397.58	12453.99
397.77	13202.96
397.97	13628.94
398.16	13860.65
398.35	14370.89
398.55	14782.82
398.74	15412.43
398.93	15723.72
399.12	15503.71
399.32	14766.44
399.51	15297.74
399.70	16095.86
399.90	16212.89
400.09	16025.65
400.28	15822.02
400.47	16112.25
400.67	16716.11
400.86	17076.55
401.05	17095.27
401.24	17202.94
401.44	17600.83
401.63	17635.94
401.82	17748.28
402.01	17628.92
402.21	17935.53
402.40	18490.23
402.59	17535.29
402.78	16802.71
402.97	16222.25
403.17	16664.61
403.36	17804.46
403.55	18633.00
403.74	19082.39
403.93	18305.33
404.13	16592.06
404.32	16156.72
404.51	16673.98
404.70	18593.22
404.89	18677.48
405.09	18146.17
405.28	17394.86
405.47	17383.16
405.66	17425.29
405.85	17069.53
406.05	16594.40
406.24	16460.99
406.43	17523.59
406.62	18244.48
406.81	18230.43
407.00	17621.89
407.20	17345.71
407.39	17193.58
407.58	18115.75
407.77	18876.42
407.96	19548.15
408.15	19765.82
408.34	20065.41
408.54	20643.52
408.73	20676.29
408.92	20615.44
409.11	19901.58
409.30	19288.35
409.49	17905.10
409.68	16727.81
409.87	16294.81
410.07	17039.10
410.26	18511.30
410.45	19740.08
410.64	20046.69
410.83	20734.81
411.02	21181.85
411.21	22347.44
411.40	21781.03
411.59	21876.99
411.78	21965.93
411.98	21420.58
412.17	21900.39
412.36	21495.48
412.55	21741.24
412.74	21137.38
412.93	20528.84
413.12	20915.03
413.31	22405.95
413.50	22977.04
413.69	23342.16
413.88	22522.98
414.07	22026.78
414.26	22129.77
414.45	22852.99
414.64	23297.69
414.83	23241.52
415.02	22675.11
415.22	22487.87
415.41	23124.49
415.60	23484.94
415.79	24566.26
415.98	25467.37
416.17	25383.11
416.36	24594.35
416.55	24514.77
416.74	23641.75
416.93	23131.51
417.12	22787.46
417.31	23260.24
417.50	23431.10
417.69	24482.00
417.88	24222.20
418.07	23880.49
418.26	23456.85
418.45	23733.03
418.64	24526.47
418.83	25507.16
419.02	24940.75
419.21	25088.20
419.39	23896.87
419.58	22733.62
419.77	22916.19
419.96	23697.92
420.15	25301.19
420.34	26106.34
420.53	26881.05
420.72	27164.26
420.91	26979.36
421.10	26644.66
421.29	26536.99
421.48	25523.54
421.67	26663.38
421.86	26010.37
422.05	24388.38
422.24	22050.19
422.43	21359.73
422.61	23723.67
422.80	25750.57
422.99	25841.85
423.18	25060.12
423.37	24091.13
423.56	24350.93
423.75	24989.90
423.94	25582.06
424.13	24142.63
424.32	24683.29
424.50	24325.19
424.69	24056.03
424.88	24222.20
425.07	23793.89
425.26	24011.56
425.45	24013.90
425.64	23517.70
425.83	23068.32
426.01	24727.76
426.20	25628.87
426.39	25364.39
426.58	23613.66
426.77	21593.78
426.96	20996.95
427.15	21404.20
427.33	23667.50
427.52	24496.05
427.71	24350.93
427.90	24133.26
428.09	23931.98
428.28	23342.16
428.46	22778.09
428.65	22445.74
428.84	22799.16
429.03	23243.86
429.22	22040.82
429.40	20854.17
429.59	19253.25
429.78	16723.13
429.97	16896.33
430.16	17275.49
430.34	17270.81
430.53	17036.76
430.72	17352.73
430.91	19473.26
431.10	22553.40
431.28	26698.49
431.47	28655.18
431.66	29315.21
431.85	26838.92
432.03	24313.48
432.22	23601.96
432.41	24243.27
432.60	26794.45
432.79	27990.47
432.97	28893.91
433.16	27889.82
433.35	25673.34
433.54	23318.76
433.72	21612.51
433.91	22438.72
434.10	24753.51
434.28	26621.25
434.47	28088.77
434.66	27981.10
434.85	26848.29
435.03	27077.66
435.22	27267.24
435.41	29273.08
435.59	29083.50
435.78	29553.94
435.97	30192.91
436.16	30625.91
436.34	30370.79
436.53	29785.66
436.72	29713.10
436.90	27793.86
437.09	27761.09
437.28	27475.55
437.46	28374.31
437.65	28498.36
437.84	26466.78
438.02	24271.36
438.21	23878.15
438.40	25591.42
438.58	27824.29
438.77	28683.27
438.96	28727.74
439.14	30155.46
439.33	30408.24
439.52	31227.43
439.70	30405.90
439.89	29776.30
440.08	28854.12
440.26	28425.81
440.45	29881.62
440.63	31737.66
440.82	33277.74
441.01	33074.11
441.19	32435.14
441.38	32891.55
441.57	34162.46
441.75	34752.27
441.94	35115.06
442.12	34391.83
442.31	35117.40
442.50	34836.53
442.68	34574.39
442.87	34415.24
443.05	33996.28
443.24	34417.58
443.43	35143.14
443.61	35936.59
443.80	36652.79
443.98	34377.79
444.17	34295.87
444.35	36180.00
444.54	36641.09
444.73	36568.53
444.91	34925.47
445.10	33673.29
445.28	31878.10
445.47	31517.65
445.65	32245.56
445.84	32629.41
446.02	33834.78
446.21	34312.25
446.39	34288.85
446.58	34316.93
446.77	35126.76
446.95	35449.75
447.14	36521.72
447.32	37347.93
447.51	36556.83
447.69	34738.23
447.88	34347.36
448.06	35564.44
448.25	36020.84
448.43	36215.11
448.62	35503.59
448.80	35246.13
448.99	35655.72
449.17	36084.04
449.36	35765.73
449.54	37230.90
449.73	37769.22
449.91	37886.25
450.10	39557.39
450.28	39840.60
450.46	39459.09
450.65	39225.04
450.83	39313.98
451.02	38424.57
451.20	38260.74
451.39	37855.82
451.57	37839.44
451.76	37748.16
451.94	37886.25
452.13	36851.73
452.31	35115.06
452.49	33518.81
452.68	34209.27
452.86	34139.05
453.05	34728.87
453.23	35550.40
453.42	36376.61
453.60	37947.11
453.78	37696.67
453.97	37565.60
454.15	37233.24
454.34	36795.56
454.52	36715.98
454.70	36261.92
454.89	36470.23
455.07	36580.23
455.26	37205.16
455.44	38387.13
455.62	39037.80
455.81	39625.27
455.99	39379.51
456.17	38909.07
456.36	38785.02
456.54	39402.92
456.73	39707.19
456.91	40542.76
457.09	40533.40
457.28	41584.30
457.46	39913.16
457.64	39672.08
457.83	38614.16
458.01	37528.15
458.19	38543.94
458.38	38665.65
458.56	40013.80
458.74	40081.67
458.93	38827.15
459.11	38803.74
459.29	38740.55
459.48	38995.67
459.66	38761.61
459.84	39084.61
460.03	39601.86
460.21	39754.00
460.39	40500.63
460.57	40491.27
460.76	41219.17
460.94	40994.48
461.12	40407.01
461.31	40617.66
461.49	40914.90
461.67	40856.39
461.85	41633.45
462.04	41404.08
462.22	41507.06
462.40	41869.84
462.59	41626.43
462.77	41949.42
462.95	41780.90
463.13	41041.29
463.32	40825.96
463.50	40444.46
463.68	40566.16
463.86	40156.57
464.05	40289.98
464.23	39295.25
464.41	39098.65
464.59	38466.70
464.78	40463.18
464.96	40116.78
465.14	39660.38
465.32	41474.29
465.50	41823.03
465.69	42115.60
465.87	41127.89
466.05	40175.30
466.23	38679.69
466.41	37787.95
466.60	38696.08
466.78	38433.94
466.96	39416.96
467.14	40170.61
467.32	40531.06
467.51	40926.61
467.69	38813.10
467.87	39555.05
468.05	40397.65
468.23	40208.06
468.41	40502.97
468.60	40346.15
468.78	40664.47
468.96	39821.87
469.14	41106.83
469.32	41361.95
469.50	39866.34
469.69	39636.97
469.87	39309.30
470.05	39035.45
470.23	39154.82
470.41	39189.93
470.59	39812.51
470.77	40395.31
470.95	40746.39
471.14	41507.06
471.32	41504.72
471.50	43426.30
471.68	42937.13
471.86	43615.88
472.04	44163.57
472.22	44046.54
472.40	42440.93
472.58	41429.82
472.77	41649.83
472.95	42309.86
473.13	43335.02
473.31	42230.29
473.49	42511.15
473.67	43150.12
473.85	43732.91
474.03	44369.54
474.21	45050.63
474.39	44957.01
474.57	44898.50
474.75	45474.27
474.93	44830.62
475.12	43625.25
475.30	43943.56
475.48	44212.72
475.66	44350.81
475.84	44680.83
476.02	44027.82
476.20	43089.26
476.38	44369.54
476.56	45144.25
476.74	45991.53
476.92	45970.46
477.10	46492.40
477.28	47819.49
477.46	47363.08
477.64	48062.90
477.82	48399.94
478.00	48222.06
478.18	47622.88
478.36	47564.37
478.54	47239.03
478.72	47784.38
478.90	48769.74
479.08	49675.53
479.26	50260.66
479.44	50014.91
479.62	49937.67
479.80	49642.76
479.98	50206.83
480.16	50258.32
480.34	50138.96
480.52	50087.46
480.70	50417.48
480.88	50174.06
481.06	51154.75
481.24	51349.01
481.41	52409.28
481.59	52278.21
481.77	52289.91
481.95	51896.70
482.13	51779.67
482.31	51840.53
482.49	52523.96
482.67	52332.04
482.85	52568.43
483.03	52968.66
483.21	53343.15
483.39	53284.64
483.57	52395.23
483.74	52516.94
483.92	52545.03
484.10	52928.87
484.28	53766.79
484.46	53928.28
484.64	53979.78
484.82	53368.90
485.00	53226.12
485.18	52542.69
485.35	51433.27
485.53	48875.07
485.71	45317.45
485.89	44521.67
486.07	45902.59
486.25	49635.74
486.43	51540.94
486.61	52371.83
486.78	52030.11
486.96	52397.57
487.14	53755.08
487.32	54506.40
487.50	55234.30
487.68	55877.95
487.85	56423.29
488.03	56233.71
488.21	55842.84
488.39	55491.76
488.57	54728.75
488.75	54578.95
488.92	55189.83
489.10	57071.62
489.28	58335.51
489.46	58948.73
489.64	58628.08
489.81	58639.78
489.99	58473.60
490.17	58492.33
490.35	58791.92
490.53	58443.18
490.70	57996.13
490.88	58101.46
491.06	58934.69
491.24	58852.77
491.41	57977.41
491.59	56643.30
491.77	55889.65
491.95	56891.40
492.13	57902.51
492.30	58789.58
492.48	59470.67
492.66	60011.34
492.84	60088.57
493.01	59997.29
493.19	59430.88
493.37	59168.74
493.54	58787.24
493.72	59271.73
493.90	60217.30
494.08	60926.49
494.25	61169.90
494.43	61221.39
494.61	61434.38
494.79	61485.87
494.96	61506.94
495.14	60931.17
495.32	60149.43
495.49	59566.63
495.67	60378.80
495.85	61530.34
496.02	62045.26
496.20	61740.99
496.38	61453.11
496.55	61478.85
496.73	61748.01
496.91	61797.16
497.09	62557.84
497.26	62599.97
497.44	62127.18
497.62	61525.66
497.79	61160.54
497.97	59966.87
498.14	59915.37
498.32	61015.43
498.50	61820.57
498.67	62361.23
498.85	62197.40
499.03	62183.35
499.20	62651.46
499.38	62733.38
499.56	62494.64
499.73	61979.73
499.91	61584.18
500.08	61460.13
500.26	60727.54
500.44	60919.46
500.61	61694.18
500.79	61352.46
500.97	61120.75
501.14	60954.57
501.32	60853.93
501.49	60732.22
501.67	60968.61
501.84	61525.66
502.02	61858.02
502.20	62115.48
502.37	62274.63
502.55	62173.99
502.72	62749.76
502.90	63189.78
503.07	62908.92
503.25	62422.09
503.43	61703.54
503.60	61179.26
503.78	60645.62
503.95	61038.83
504.13	62176.33
504.30	63016.58
504.48	62836.36
504.65	62604.65
504.83	62426.77
505.01	63086.80
505.18	63250.64
505.36	63901.31
505.53	63753.85
505.71	64292.18
505.88	64172.81
506.06	63690.66
506.23	63358.30
506.41	62871.47
506.58	63269.36
506.76	63098.50
506.93	63173.40
507.11	62974.45
507.28	62883.17
507.46	62578.90
507.63	62129.52
507.81	61829.93
507.98	62192.72
508.16	62698.27
508.33	63334.90
508.50	63557.25
508.68	63781.94
508.85	64336.65
509.03	64165.79
509.20	64097.91
509.38	63505.76
509.55	62614.01
509.73	62831.68
509.90	63341.92
510.08	63674.27
510.25	63538.52
510.42	63510.44
510.60	63285.75
510.77	63433.20
510.95	63973.86
511.12	64200.89
511.30	64521.55
511.47	64587.08
511.64	64486.44
511.82	64327.28
511.99	63580.65
512.17	63353.62
512.34	63065.73
512.51	63014.24
512.69	63348.94
512.86	63313.83
513.04	63578.31
513.21	63730.45
513.38	63227.23
513.56	62983.82
513.73	62335.49
513.90	62496.98
514.08	62651.46
514.25	62787.21
514.43	63000.20
514.60	63229.57
514.77	63332.56
514.95	63402.77
515.12	63213.19
515.29	63252.98
515.47	63903.65
515.64	64027.70
515.81	63725.77
515.99	63337.24
516.16	61989.09
516.33	60023.04
516.51	58686.59
516.68	58155.29
516.85	57626.33
517.03	58183.38
517.20	60296.88
517.37	62525.07
517.54	63260.00
517.72	63056.37
517.89	60907.76
518.06	58979.16
518.24	59091.51
518.41	60863.29
518.58	62131.86
518.75	62300.38
518.93	62592.95
519.10	62274.63
519.27	62740.40
519.45	62794.23
519.62	63419.16
519.79	63788.96
519.96	63856.84
520.14	63248.30
520.31	62546.14
520.48	62468.90
520.65	62876.15
520.83	63622.78
521.00	63985.57
521.17	63746.83
521.34	63365.32
521.52	63777.26
521.69	64128.34
521.86	64638.57
522.03	64184.51
522.20	63203.83
522.38	62120.16
522.55	62363.57
522.72	62777.85
522.89	63082.12
523.07	63185.10
523.24	63320.85
523.41	64114.29
523.58	64271.11
523.75	64877.31
523.92	64732.20
524.10	64664.32
524.27	64671.34
524.44	64395.16
524.61	64301.54
524.78	64212.60
524.96	64184.51
525.13	64182.17
525.30	64214.94
525.47	64774.33
525.64	64711.13
525.81	64013.65
525.98	62794.23
526.16	61471.83
526.33	60973.30
526.50	60530.93
526.67	60367.10
526.84	60645.62
527.01	61535.02
527.18	62300.38
527.36	63213.19
527.53	64006.63
527.70	64163.45
527.87	63803.00
528.04	63316.17
528.21	63735.13
528.38	64388.14
528.55	64865.61
528.72	65052.85
528.89	65036.47
529.07	64942.84
529.24	64484.10
529.41	63828.75
529.58	63458.94
529.75	63426.18
529.92	63763.21
530.09	64228.98
530.26	64577.72
530.43	64734.54
530.60	64774.33
530.77	64865.61
530.94	65167.54
531.11	64718.15
531.28	64481.76
531.46	64278.13
531.63	64390.48
531.80	64221.96
531.97	64072.17
532.14	63248.30
532.31	62307.40
532.48	61696.52
532.65	61867.38
532.82	62567.20
532.99	63494.05
533.16	63838.11
533.33	64348.35
533.50	64086.21
533.67	63678.96
533.84	63124.25
534.01	63522.14
534.18	63669.59
534.35	63948.12
534.52	63597.04
534.69	63838.11
534.86	64111.95
535.03	64437.29
535.20	64816.46
535.37	65038.81
535.54	65123.07
535.71	65045.83
535.88	64413.88
536.05	63838.11
536.22	63650.87
536.38	63344.26
536.55	62801.25
536.72	62466.56
536.89	62382.30
537.06	63028.29
537.23	64020.67
537.40	64095.57
537.57	64130.68
537.74	63891.94
537.91	63934.07
538.08	63955.14
538.25	63856.84
538.42	63969.18
538.59	63969.18
538.75	63327.87
538.92	63100.84
539.09	62899.56
539.26	62812.96
539.43	62787.21
539.60	62810.62
539.77	62887.85
539.94	62908.92
540.11	62265.27
540.28	61574.81
540.44	61853.34
540.61	62038.24
540.78	62183.35
540.95	62616.35
541.12	62901.90
541.29	63086.80
541.46	63330.22
541.62	63231.91
541.79	63285.75
541.96	62946.37
542.13	62504.01
542.30	63000.20
542.47	63096.16
542.63	62983.82
542.80	62791.89
542.97	62822.32
543.14	62841.04
543.31	62733.38
543.48	63299.79
543.64	64065.14
543.81	64133.02
543.98	64072.17
544.15	63355.96
544.32	62824.66
544.48	62791.89
544.65	63304.47
544.82	63662.57
544.99	63388.73
545.16	63000.20
545.32	62702.95
545.49	63393.41
545.66	63859.18
545.83	63543.20
546.00	63145.31
546.16	62798.91
546.33	62883.17
546.50	63047.01
546.67	63477.67
546.83	63124.25
547.00	63075.10
547.17	62487.62
547.34	62059.30
547.50	61808.87
547.67	62375.28
547.84	62394.00
548.00	62571.88
548.17	63068.08
548.34	62969.77
548.51	62939.35
548.67	62866.79
548.84	63117.23
549.01	62901.90
549.18	63035.31
549.34	63065.73
549.51	63079.78
549.68	62702.95
549.84	62557.84
550.01	62475.92
550.18	62445.49
550.34	62642.10
550.51	62752.10
550.68	62805.94
550.84	62258.25
551.01	62265.27
551.18	62326.13
551.34	62461.88
551.51	62665.50
551.68	63047.01
551.84	63117.23
552.01	62911.26
552.18	62733.38
552.34	61968.02
552.51	61722.27
552.68	61630.99
552.84	62096.75
553.01	62199.74
553.18	62216.12
553.34	62354.21
553.51	62305.06
553.67	62628.05
553.84	62834.02
554.01	62646.78
554.17	62417.41
554.34	62494.64
554.51	62651.46
554.67	63117.23
554.84	62819.98
555.00	62391.66
555.17	62255.91
555.33	62162.29
555.50	62150.59
555.67	62316.76
555.83	62042.92
556.00	62012.49
556.16	61874.40
556.33	61577.15
556.50	61357.14
556.66	61574.81
556.83	61256.50
556.99	61422.68
557.16	61315.01
557.32	61628.65
557.49	61993.77
557.65	61708.22
557.82	61841.63
557.98	61635.67
558.15	61322.04
558.32	60594.13
558.48	59833.46
558.65	60179.85
558.81	60451.36
558.98	60523.91
559.14	60931.17
559.31	60793.07
559.47	60760.31
559.64	60753.29
559.80	60348.37
559.97	60271.14
560.13	60701.79
560.30	61359.48
560.46	62181.01
560.63	62152.93
560.79	62183.35
560.96	61808.87
561.12	60736.90
561.29	60151.77
561.45	60317.95
561.61	60760.31
561.78	60821.16
561.94	60800.10
562.11	60640.94
562.27	60570.72
562.44	60900.74
562.60	61169.90
562.77	61279.91
562.93	61043.51
563.10	61275.22
563.26	60715.84
563.42	60650.30
563.59	60610.51
563.75	60755.63
563.92	60528.59
564.08	60493.49
564.24	60968.61
564.41	60830.52
564.57	60690.09
564.74	60566.04
564.90	60544.98
565.07	60111.98
565.23	59943.46
565.39	59716.43
565.56	59386.41
565.72	59086.82
565.88	59538.55
566.05	59693.02
566.21	60055.81
566.38	59800.69
566.54	60020.70
566.70	60378.80
566.87	60383.48
567.03	60591.79
567.19	60823.50
567.36	60434.97
567.52	60313.26
567.68	60137.72
567.85	59568.97
568.01	59316.20
568.17	58915.96
568.34	59000.22
568.50	58843.41
568.66	58986.18
568.83	59419.18
568.99	59416.84
569.15	59620.47
569.32	59564.29
569.48	59290.45
569.64	59283.43
569.81	59173.42
569.97	58885.54
570.13	58922.99
570.30	58466.58
570.46	58038.26
570.62	57462.49
570.78	57474.20
570.95	57916.56
571.11	58356.58
571.27	58487.65
571.43	58728.72
571.60	59072.78
571.76	59079.80
571.92	59412.16
572.09	59405.14
572.25	59461.31
572.41	59388.75
572.57	59377.05
572.74	59409.82
572.90	59058.74
573.06	58817.66
573.22	59192.15
573.38	59011.93
573.55	58787.24
573.71	59054.06
573.87	59035.33
574.03	58859.79
574.20	58745.11
574.36	58754.47
574.52	58588.29
574.68	58401.05
574.84	58171.67
575.01	57743.36
575.17	57478.88
575.33	57724.63
575.49	58075.71
575.65	58071.03
575.82	58237.21
575.98	57932.94
576.14	58056.99
576.30	58459.56
576.46	58330.83
576.62	58295.72
576.79	58164.65
576.95	57900.17
577.11	57951.66
577.27	57937.62
577.43	57970.39
577.59	57595.90
577.75	57209.71
577.92	56898.42
578.08	56633.94
578.24	56484.15
578.40	57111.41
578.56	57298.65
578.72	57209.71
578.88	57495.26
579.04	57670.80
579.21	57666.12
579.37	57673.14
579.53	57846.34
579.69	57687.18
579.85	57722.29
580.01	57614.63
580.17	57457.81
580.33	57254.18
580.49	57350.15
580.65	57647.39
580.82	57668.46
580.98	57621.65
581.14	57567.82
581.30	57769.10
581.46	57523.35
581.62	57684.84
581.78	57794.85
581.94	57785.49
582.10	57535.05
582.26	57860.38
582.42	57799.53
582.58	57904.85
582.74	57813.57
582.90	57783.15
583.06	57778.46
583.22	57537.39
583.38	57521.01
583.54	57710.59
583.70	57668.46
583.86	57703.57
584.02	57368.87
584.18	57525.69
584.34	57364.19
584.50	57083.33
584.66	57223.76
584.82	56921.83
584.98	57102.05
585.14	56467.76
