SpectraSuite Data File
++++++++++++++++++++++++++++++++++++
Date: Mon Oct 07 14:55:00 GMT-05:00 2013
User: price-jones
Dark Spectrum Present: No
Reference Spectrum Present: No
Number of Sampled Component Spectra: 1
Spectrometers: USB2+H05261
Integration Time (usec): 10000 (USB2+H05261)
Spectra Averaged: 1 (USB2+H05261)
Boxcar Smoothing: 0 (USB2+H05261)
Correct for Electrical Dark: No (USB2+H05261)
Strobe/Lamp Enabled: No (USB2+H05261)
Correct for Detector Non-linearity: No (USB2+H05261)
Correct for Stray Light: No (USB2+H05261)
Number of Pixels in Processed Spectrum: 2048
>>>>>Begin Processed Spectral Data<<<<<
365.73	0.00
365.92	0.00
366.12	0.00
366.32	0.00
366.52	0.00
366.72	0.00
366.91	0.00
367.11	0.00
367.31	0.00
367.51	0.00
367.70	0.00
367.90	0.00
368.10	0.00
368.30	0.00
368.49	0.00
368.69	0.00
368.89	0.00
369.09	0.00
369.28	0.00
369.48	0.00
369.68	0.00
369.87	0.00
370.07	0.00
370.27	0.00
370.47	124.05
370.66	1511.99
370.86	1811.57
371.06	2005.84
371.25	1879.45
371.45	1832.64
371.65	1568.16
371.84	1514.33
372.04	1629.01
372.24	1909.88
372.44	1837.32
372.63	1888.81
372.83	1699.23
373.03	1392.62
373.22	1313.04
373.42	1554.12
373.62	1734.34
373.81	1797.53
374.01	1788.17
374.21	1596.25
374.40	1497.94
374.60	1614.97
374.79	1902.86
374.99	2207.13
375.19	2338.20
375.38	2251.60
375.58	2108.82
375.78	2101.80
375.97	2225.85
376.17	2230.53
376.37	2260.96
376.56	2303.09
376.76	2633.10
376.95	2621.40
377.15	2775.88
377.35	3063.76
377.54	2881.20
377.74	3021.63
377.93	3105.89
378.13	3007.59
378.33	2878.86
378.52	2497.35
378.72	2382.67
378.91	2424.80
379.11	2406.07
379.31	2312.45
379.50	2452.88
379.70	2672.89
379.89	2810.98
380.09	2909.29
380.28	2972.48
380.48	3068.44
380.68	2920.99
380.87	2766.51
381.07	2616.72
381.26	2347.56
381.46	2342.88
381.65	2291.38
381.85	2071.37
382.04	1987.11
382.24	1914.56
382.43	1928.60
382.63	1762.42
382.83	1781.15
383.02	1839.66
383.22	1811.57
383.41	1893.49
383.61	2094.78
383.80	2366.28
384.00	2560.55
384.19	2885.88
384.39	3005.25
384.58	3038.02
384.78	2911.63
384.97	2951.42
385.17	2771.19
385.36	2642.46
385.56	2621.40
385.75	2780.56
385.95	2970.14
386.14	3159.72
386.34	3171.43
386.53	3019.29
386.72	2693.96
386.92	2967.80
387.11	3080.14
387.31	3026.31
387.50	3068.44
387.70	2956.10
387.89	2888.22
388.09	3096.53
388.28	2988.86
388.48	3227.60
388.67	3297.81
388.86	3688.68
389.06	3913.38
389.25	4182.54
389.45	4245.73
389.64	4154.45
389.84	4028.06
390.03	4011.68
390.22	3969.55
390.42	4304.25
390.61	4580.43
390.81	4615.54
391.00	4685.75
391.19	4650.64
391.39	4535.96
391.58	4341.69
391.78	4039.76
391.97	3964.87
392.16	3630.17
392.36	3112.91
392.55	2527.78
392.75	1909.88
392.94	1572.84
393.13	1811.57
393.33	2228.19
393.52	2782.90
393.71	3398.46
393.91	3737.84
394.10	4086.58
394.29	4493.83
394.49	4931.51
394.68	5074.28
394.88	5198.33
395.07	5369.19
395.26	5291.95
395.46	4954.91
395.65	4552.34
395.84	3843.16
396.04	3192.49
396.23	2717.36
396.42	2310.11
396.62	2335.85
396.81	2871.84
397.00	3763.58
397.19	4631.92
397.39	5235.78
397.58	5841.98
397.77	6354.55
397.97	6459.88
398.16	6595.63
398.35	6684.57
398.55	6939.69
398.74	7218.21
398.93	7358.64
399.12	7176.08
399.32	7089.48
399.51	7152.68
399.70	7686.32
399.90	7323.54
400.09	7454.61
400.28	7613.76
400.47	7545.89
400.67	7901.65
400.86	8194.22
401.05	8241.03
401.24	8191.88
401.44	8315.92
401.63	8458.70
401.82	8376.78
402.01	8498.49
402.21	8383.80
402.40	8381.46
402.59	7985.91
402.78	7901.65
402.97	7723.77
403.17	8039.74
403.36	8369.76
403.55	8830.84
403.74	8877.65
403.93	8135.70
404.13	7681.64
404.32	7831.43
404.51	8182.51
404.70	8741.90
404.89	8505.51
405.09	8315.92
405.28	8159.11
405.47	8404.86
405.66	8217.62
405.85	7908.67
406.05	7775.26
406.24	7995.27
406.43	8266.77
406.62	8702.11
406.81	8685.73
407.00	8215.28
407.20	8021.02
407.39	8306.56
407.58	8788.71
407.77	9055.53
407.96	9394.91
408.15	9242.78
408.34	9406.61
408.54	9778.76
408.73	9633.64
408.92	9598.54
409.11	9263.84
409.30	8802.75
409.49	8395.50
409.68	7847.82
409.87	7918.03
410.07	8566.36
410.26	8945.53
410.45	9472.15
410.64	9888.76
410.83	9816.21
411.02	10387.30
411.21	10675.18
411.40	10413.04
411.59	10501.98
411.78	10284.31
411.98	10300.70
412.17	10218.78
412.36	10303.04
412.55	10469.22
412.74	10118.14
412.93	9708.54
413.12	9919.19
413.31	10909.24
413.50	11016.90
413.69	11087.12
413.88	10431.77
414.07	10417.72
414.26	10752.42
414.45	11063.71
414.64	10778.17
414.83	10862.43
415.02	10925.62
415.22	10656.46
415.41	11007.54
415.60	11377.34
415.79	12032.69
415.98	12042.06
416.17	12259.73
416.36	11908.65
416.55	11580.97
416.74	11138.61
416.93	10817.96
417.12	10951.37
417.31	11197.12
417.50	11400.75
417.69	11475.65
417.88	11660.55
418.07	11545.86
418.26	11489.69
418.45	11644.17
418.64	12105.25
418.83	12512.50
419.02	12154.40
419.21	12018.65
419.39	11344.58
419.58	10951.37
419.77	11136.27
419.96	11796.30
420.15	12374.41
420.34	12659.96
420.53	12706.77
420.72	13020.40
420.91	13011.04
421.10	12695.07
421.29	12891.67
421.48	12369.73
421.67	12992.31
421.86	12301.86
422.05	11185.42
422.24	10384.96
422.43	10974.77
422.61	12226.96
422.80	12805.07
422.99	12390.80
423.18	11751.83
423.37	11747.15
423.56	11887.58
423.75	12100.57
423.94	12224.62
424.13	11798.64
424.32	11623.10
424.50	11845.45
424.69	11882.90
424.88	11892.26
425.07	11597.35
425.26	11431.18
425.45	11286.06
425.64	11234.57
425.83	11747.15
426.01	12325.26
426.20	12131.00
426.39	12175.47
426.58	11267.34
426.77	10335.81
426.96	10195.37
427.15	10633.05
427.33	11798.64
427.52	11913.33
427.71	11786.94
427.90	11882.90
428.09	11576.29
428.28	11061.37
428.46	10832.00
428.65	10712.63
428.84	11169.04
429.03	11143.29
429.22	10703.27
429.40	10111.11
429.59	9114.05
429.78	8229.32
429.97	8203.58
430.16	8432.95
430.34	8095.91
430.53	8423.59
430.72	8795.73
430.91	9973.02
431.10	11480.33
431.28	13394.89
431.47	14483.24
431.66	14295.99
431.85	12580.38
432.03	11726.08
432.22	11709.70
432.41	12470.37
432.60	13380.84
432.79	14057.26
432.97	13965.98
433.16	13298.92
433.35	12070.14
433.54	10937.32
433.72	10623.69
433.91	11360.96
434.10	12784.01
434.28	13226.37
434.47	13848.95
434.66	13603.19
434.85	13509.57
435.03	13362.12
435.22	13444.04
435.41	14029.17
435.59	14527.71
435.78	14466.85
435.97	15101.14
436.16	15002.83
436.34	14649.41
436.53	14527.71
436.72	14417.70
436.90	13834.91
437.09	14012.79
437.28	13923.85
437.46	14183.65
437.65	13790.44
437.84	12535.91
438.02	11967.16
438.21	12203.55
438.40	12493.78
438.58	13666.39
438.77	14022.15
438.96	13980.02
439.14	14724.31
439.33	14834.32
439.52	15562.22
439.70	14665.80
439.89	14253.86
440.08	13956.61
440.26	14310.04
440.45	14941.98
440.63	16098.20
440.82	16203.53
441.01	15836.06
441.19	16009.26
441.38	16774.62
441.57	17135.06
441.75	17006.33
441.94	17479.12
442.12	17362.09
442.31	17692.11
442.50	17848.93
442.68	17160.81
442.87	16915.05
443.05	16849.52
443.24	17008.67
443.43	17453.37
443.61	17841.90
443.80	17909.78
443.98	16936.12
444.17	16961.86
444.35	17504.87
444.54	18075.96
444.73	17909.78
444.91	17022.72
445.10	16575.67
445.28	15447.54
445.47	15681.59
445.65	15646.48
445.84	16255.02
446.02	16655.25
446.21	17488.48
446.39	17167.83
446.58	17130.38
446.77	17668.70
446.95	17514.23
447.14	18319.37
447.32	18792.16
447.51	18017.44
447.69	17422.95
447.88	17563.38
448.06	17783.39
448.25	17881.69
448.43	17930.84
448.62	17879.35
448.80	17914.46
448.99	17462.74
449.17	18225.75
449.36	17905.10
449.54	18586.19
449.73	19187.71
449.91	19428.79
450.10	19379.64
450.28	19906.26
450.46	20018.60
450.65	19833.70
450.83	19822.00
451.02	19138.56
451.20	19080.05
451.39	19271.97
451.57	19112.81
451.76	18689.18
451.94	18759.39
452.13	18583.85
452.31	17338.69
452.49	16505.46
452.68	16936.12
452.86	16718.45
453.05	17334.01
453.23	18085.32
453.42	18420.02
453.60	18260.86
453.78	18890.46
453.97	18682.16
454.15	18492.57
454.34	17685.09
454.52	18136.81
454.70	17891.06
454.89	18518.32
455.07	18204.69
455.26	18560.45
455.44	19688.59
455.62	19618.37
455.81	19711.99
455.99	19679.22
456.17	19112.81
456.36	19590.28
456.54	20065.41
456.73	19971.79
456.91	19903.92
457.09	20093.50
457.28	20662.25
457.46	19611.35
457.64	19257.93
457.83	19049.62
458.01	18724.29
458.19	19470.92
458.38	19353.89
458.56	19978.81
458.74	19857.10
458.93	19363.25
459.11	19564.54
459.29	18967.70
459.48	19625.39
459.66	19468.58
459.84	19648.80
460.03	20070.09
460.21	20411.81
460.39	20889.28
460.57	20194.14
460.76	20472.67
460.94	20776.94
461.12	20306.49
461.31	20222.23
461.49	20606.08
461.67	20669.27
461.85	20837.79
462.04	21008.65
462.22	21142.06
462.40	20936.09
462.59	21263.77
462.77	21111.63
462.95	21116.31
463.13	20631.82
463.32	20533.52
463.50	20503.09
463.68	20615.44
463.86	20418.83
464.05	20013.92
464.23	19431.13
464.41	19290.70
464.59	19253.25
464.78	20725.44
464.96	20166.06
465.14	19915.62
465.32	20793.32
465.50	21490.80
465.69	21425.26
465.87	21036.74
466.05	20163.72
466.23	19309.42
466.41	19077.71
466.60	19932.00
466.78	19616.03
466.96	19859.45
467.14	20439.90
467.32	20271.38
467.51	20355.64
467.69	19613.69
467.87	20032.65
468.05	20290.10
468.23	20353.30
468.41	20453.94
468.60	20276.06
468.78	20746.51
468.96	20414.15
469.14	20765.23
469.32	20886.94
469.50	19728.38
469.69	19506.02
469.87	19297.72
470.05	19807.95
470.23	19499.00
470.41	19939.02
470.59	19927.32
470.77	20409.47
470.95	20842.47
471.14	20793.32
471.32	20919.71
471.50	22111.04
471.68	21844.22
471.86	22001.04
472.04	22368.50
472.22	21886.35
472.40	20915.03
472.58	21261.43
472.77	21256.75
472.95	21305.90
473.13	22052.53
473.31	21841.88
473.49	21605.49
473.67	21631.23
473.85	22045.51
474.03	22892.78
474.21	22977.04
474.39	23145.56
474.57	23185.35
474.75	23094.07
474.93	23098.75
475.12	22530.00
475.30	22223.39
475.48	22178.92
475.66	22799.16
475.84	22452.76
476.02	22242.11
476.20	22216.36
476.38	23026.19
476.56	23091.73
476.74	23353.87
476.92	23646.43
477.10	24144.97
477.28	25366.73
477.46	24790.95
477.64	24573.28
477.82	24898.62
478.00	25401.83
478.18	24472.64
478.36	24278.38
478.54	24767.55
478.72	24797.98
478.90	26052.50
479.08	26841.26
479.26	26211.66
479.44	26286.56
479.62	26052.50
479.80	25928.45
479.98	26654.02
480.16	26808.50
480.34	26375.50
480.52	26448.05
480.70	27335.12
480.88	27112.77
481.06	27255.54
481.24	27480.23
481.41	28217.50
481.59	28559.22
481.77	28290.06
481.95	28329.84
482.13	28158.99
482.31	28147.28
482.49	29003.92
482.67	28271.33
482.85	28552.20
483.03	29111.58
483.21	29614.80
483.39	29275.42
483.57	28346.23
483.74	27402.99
483.92	28503.04
484.10	28252.61
484.28	29149.03
484.46	29666.29
484.64	29607.78
484.82	29207.55
485.00	28631.77
485.18	28266.65
485.35	26885.73
485.53	24559.24
485.71	22455.10
485.89	23035.55
486.07	24624.78
486.25	26338.05
486.43	28119.20
486.61	28156.64
486.78	28364.95
486.96	28992.22
487.14	30295.89
487.32	30029.07
487.50	31260.20
487.68	31042.53
487.85	32498.34
488.03	32669.20
488.21	32215.13
488.39	31159.55
488.57	30845.92
488.75	31189.98
488.92	32135.56
489.10	33818.40
489.28	34270.12
489.46	35732.96
489.64	35337.41
489.81	35592.53
489.99	35040.16
490.17	35517.63
490.35	35271.87
490.53	34937.18
490.70	33942.45
490.88	33935.43
491.06	35218.04
491.24	35302.30
491.41	33095.18
491.59	32191.73
491.77	31833.63
491.95	33172.41
492.13	34824.83
492.30	35669.76
492.48	37268.35
492.66	37591.34
492.84	36734.71
493.01	36797.90
493.19	36458.52
493.37	36149.57
493.54	36271.28
493.72	37830.08
493.90	37958.81
494.08	37907.32
494.25	39152.48
494.43	39412.28
494.61	39423.98
494.79	40002.10
494.96	39377.17
495.14	38895.02
495.32	37904.98
495.49	37460.27
495.67	38478.41
495.85	40119.12
496.02	40498.29
496.20	39966.99
496.38	39393.56
496.55	39936.56
496.73	40044.23
496.91	39777.40
497.09	41535.15
497.26	41340.88
497.44	39798.47
497.62	40009.12
497.79	38438.62
497.97	37301.12
498.14	38398.83
498.32	40730.00
498.50	40584.89
498.67	40442.12
498.85	41312.80
499.03	41095.13
499.20	41776.22
499.38	42281.78
499.56	41490.68
499.73	40222.11
499.91	38721.82
500.08	38457.34
500.26	37794.97
500.44	38843.53
500.61	39648.68
500.79	39108.01
500.97	38611.82
501.14	38356.70
501.32	38312.23
501.49	38916.09
501.67	39145.46
501.84	39903.79
502.02	40992.14
502.20	40769.79
502.37	41155.98
502.55	41160.66
502.72	42068.79
502.90	42513.49
503.07	41282.37
503.25	40711.28
503.43	39381.85
503.60	38939.49
503.78	38253.72
503.95	39189.93
504.13	40786.18
504.30	41949.42
504.48	41661.54
504.65	40989.80
504.83	41069.38
505.01	41333.86
505.18	42494.77
505.36	42878.61
505.53	43519.92
505.71	43847.60
505.88	44755.72
506.06	43260.12
506.23	43189.91
506.41	42616.47
506.58	42714.78
506.76	41984.53
506.93	42143.69
507.11	41677.92
507.28	41565.57
507.46	41642.81
507.63	41034.27
507.81	40229.13
507.98	40938.31
508.16	42295.82
508.33	43337.36
508.50	42405.83
508.68	43150.12
508.85	44425.71
509.03	44294.64
509.20	43924.83
509.38	41799.63
509.55	42312.20
509.73	43171.18
509.90	42815.42
510.08	41794.95
510.25	41982.19
510.42	41591.32
510.60	42742.86
510.77	43529.28
510.95	44912.54
511.12	44664.44
511.30	45422.78
511.47	44512.31
511.64	43973.98
511.82	43255.44
511.99	42305.18
512.17	42443.27
512.34	42351.99
512.51	41703.67
512.69	41549.19
512.86	41645.15
513.04	43407.58
513.21	43386.51
513.38	42122.62
513.56	40655.11
513.73	40332.11
513.90	41305.77
514.08	40596.59
514.25	41993.89
514.43	41689.62
514.60	42038.36
514.77	41361.95
514.95	43428.64
515.12	42902.02
515.29	42667.97
515.47	43187.56
515.64	43873.34
515.81	43475.45
515.99	41317.48
516.16	38513.52
516.33	36233.83
516.51	35768.07
516.68	33750.52
516.85	33748.18
517.03	35264.85
517.20	38447.98
517.37	41759.84
517.54	41970.49
517.72	40460.84
517.89	37647.52
518.06	36339.16
518.24	37092.81
518.41	39056.52
518.58	41375.99
518.75	41893.25
518.93	40807.24
519.10	41167.68
519.27	41151.30
519.45	42127.30
519.62	42621.16
519.79	43056.50
519.96	43107.99
520.14	41979.85
520.31	40912.56
520.48	41074.06
520.65	42052.41
520.83	43524.60
521.00	43597.16
521.17	42731.16
521.34	43421.62
521.52	43758.66
521.69	43522.26
521.86	44100.37
522.03	43480.13
522.20	41698.98
522.38	41301.09
522.55	41148.96
522.72	41467.27
522.89	41354.93
523.07	42328.59
523.24	42265.39
523.41	44245.49
523.58	43889.73
523.75	44479.54
523.92	44516.99
524.10	44360.17
524.27	44182.29
524.44	43959.94
524.61	43538.65
524.78	43323.32
524.96	43171.18
525.13	43016.71
525.30	43775.04
525.47	44636.36
525.64	44816.58
525.81	42197.52
525.98	40322.75
526.16	39395.90
526.33	37937.74
526.50	36957.06
526.67	36730.03
526.84	38513.52
527.01	39700.17
527.18	41312.80
527.36	42967.55
527.53	42761.59
527.70	42822.44
527.87	42314.55
528.04	42157.73
528.21	42775.63
528.38	44790.83
528.55	45240.21
528.72	45998.55
528.89	45911.95
529.07	45563.21
529.24	42859.89
529.41	42019.64
529.58	42295.82
529.75	42829.46
529.92	43833.55
530.09	44371.88
530.26	44540.39
530.43	45731.73
530.60	44961.69
530.77	44774.45
530.94	44999.14
531.11	44179.95
531.28	43683.76
531.46	43494.18
531.63	42873.93
531.80	43583.12
531.97	42064.11
532.14	41256.62
532.31	39543.35
532.48	40388.28
532.65	40294.66
532.82	40980.44
532.99	43100.97
533.16	43110.33
533.33	42536.90
533.50	41490.68
533.67	42085.17
533.84	42532.22
534.01	42536.90
534.18	42981.60
534.35	43704.82
534.52	42302.84
534.69	43913.13
534.86	44163.57
535.03	42916.06
535.20	44491.24
535.37	44821.26
535.54	45099.78
535.71	44839.98
535.88	43824.19
536.05	42351.99
536.22	42412.85
536.38	42501.79
536.55	40573.19
536.72	40856.39
536.89	41263.64
537.06	40987.46
537.23	43199.27
537.40	43573.75
537.57	43915.47
537.74	43775.04
537.91	44079.31
538.08	42569.66
538.25	42234.97
538.42	43030.75
538.59	42916.06
538.75	41326.84
538.92	41556.21
539.09	41404.08
539.26	41556.21
539.43	41024.91
539.60	41202.79
539.77	42408.17
539.94	41448.55
540.11	39845.28
540.28	39346.75
540.44	38958.22
540.61	40889.16
540.78	41558.55
540.95	42075.81
541.12	41415.78
541.29	41619.41
541.46	42146.03
541.62	42742.86
541.79	43168.84
541.96	41867.50
542.13	40509.99
542.30	40861.07
542.47	41390.03
542.63	40919.59
542.80	40900.86
542.97	41429.82
543.14	40374.24
543.31	41825.37
543.48	42043.04
543.64	42363.70
543.81	43271.82
543.98	43124.37
544.15	41467.27
544.32	40802.56
544.48	41949.42
544.65	42993.30
544.82	42827.12
544.99	41528.13
545.16	41443.87
545.32	40996.82
545.49	42934.79
545.66	41876.86
545.83	41184.07
546.00	41209.81
546.16	41045.97
546.33	42106.24
546.50	41998.57
546.67	42679.67
546.83	41586.64
547.00	41911.97
547.17	40519.35
547.34	39297.59
547.50	40552.12
547.67	40968.74
547.84	40734.68
548.00	41193.43
548.17	41504.72
548.34	41034.27
548.51	40821.28
548.67	42415.19
548.84	41911.97
549.01	42747.54
549.18	41240.24
549.34	41500.04
549.51	41277.69
549.68	42082.83
549.84	41441.53
550.01	40439.78
550.18	39997.41
550.34	40318.07
550.51	40137.85
550.68	40769.79
550.84	40814.26
551.01	40205.72
551.18	40945.33
551.34	41556.21
551.51	40816.60
551.68	41132.57
551.84	42188.16
552.01	41656.85
552.18	41263.64
552.34	40634.04
552.51	40591.91
552.68	40828.30
552.84	41277.69
553.01	40264.24
553.18	40460.84
553.34	40350.84
553.51	41205.13
553.67	40961.72
553.84	40123.80
554.01	40830.65
554.17	40809.58
554.34	41446.21
554.51	40177.64
554.67	40294.66
554.84	41078.74
555.00	40992.14
555.17	40538.08
555.33	39531.65
555.50	40023.16
555.67	39889.75
555.83	38691.40
556.00	37771.57
556.16	38731.18
556.33	38113.28
556.50	39765.70
556.66	40294.66
556.83	40336.79
556.99	39218.02
557.16	38761.61
557.32	39786.77
557.49	39536.33
557.65	39938.90
557.82	40065.29
557.98	39545.69
558.15	39749.32
558.32	38682.03
558.48	36198.73
558.65	36788.54
558.81	35814.88
558.98	37125.58
559.14	38162.43
559.31	38281.80
559.47	37446.23
559.64	36282.98
559.80	36439.80
559.97	37392.40
560.13	39129.08
560.30	39388.88
560.46	39913.16
560.63	40538.08
560.79	41397.06
560.96	38749.91
561.12	37284.73
561.29	36418.74
561.45	36294.69
561.61	36919.61
561.78	37411.12
561.94	37897.95
562.11	37666.24
562.27	39143.12
562.44	38817.78
562.60	39433.35
562.77	39239.08
562.93	39105.67
563.10	37074.09
563.26	37401.76
563.42	37668.58
563.59	36723.01
563.75	36690.24
563.92	36563.85
564.08	37263.67
564.24	37275.37
564.41	36964.08
564.57	38555.64
564.74	37254.31
564.90	36741.73
565.07	37275.37
565.23	35637.00
565.39	35658.06
565.56	35421.67
565.72	34717.17
565.88	35253.15
566.05	36392.99
566.21	37516.45
566.38	36294.69
566.54	36748.75
566.70	37404.10
566.87	38220.95
567.03	37120.90
567.19	36662.15
567.36	37212.18
567.52	36910.25
567.68	37275.37
567.85	35534.01
568.01	34689.08
568.17	35421.67
568.34	36526.40
568.50	36037.23
568.66	36435.12
568.83	36811.95
568.99	36142.55
569.15	36549.81
569.32	36744.07
569.48	35878.07
569.64	35086.97
569.81	35969.35
569.97	35211.02
570.13	36561.51
570.30	35620.61
570.46	34888.03
570.62	33706.05
570.78	34164.80
570.95	35068.25
571.11	35206.34
571.27	35613.59
571.43	35391.24
571.60	35063.57
571.76	35976.37
571.92	36177.66
572.09	35765.73
572.25	36514.70
572.41	37326.86
572.57	37050.68
572.74	36954.72
572.90	36526.40
573.06	36346.18
573.22	35040.16
573.38	35119.74
573.55	35222.72
573.71	34565.03
573.87	34906.75
574.03	35356.13
574.20	35264.85
574.36	35056.54
574.52	35974.03
574.68	33986.92
574.84	33572.64
575.01	33832.44
575.17	34459.71
575.33	34101.61
575.49	33923.72
575.65	34103.95
575.82	34534.60
575.98	33958.83
576.14	34347.36
576.30	33846.49
576.46	34216.29
576.62	34675.04
576.79	33991.60
576.95	33897.98
577.11	32800.27
577.27	34099.26
577.43	34267.78
577.59	33876.91
577.75	33820.74
577.92	32393.01
578.08	32182.37
578.24	32926.66
578.40	32535.79
578.56	33102.20
578.72	33146.67
578.88	32524.08
579.04	33507.11
579.21	32816.65
579.37	33347.95
579.53	34057.14
579.69	35187.61
579.85	33858.19
580.01	33706.05
580.17	33450.94
580.33	33722.44
580.49	34249.06
580.65	32680.90
580.82	33488.38
580.98	33357.32
581.14	34632.91
581.30	33804.36
581.46	33944.79
581.62	32985.17
581.78	33432.21
581.94	33977.56
582.10	34632.91
582.26	34319.28
582.42	34445.66
582.58	33668.61
582.74	33675.63
582.90	34134.37
583.06	34143.74
583.22	33764.57
583.38	34160.12
583.54	33907.34
583.70	33766.91
583.86	33816.06
584.02	33961.17
584.18	33635.84
584.34	33570.30
584.50	33289.44
584.66	32488.98
584.82	32584.94
584.98	33345.61
585.14	32273.65
585.30	32442.17
585.46	32011.51
585.62	31433.39
585.78	31754.05
585.94	32109.81
586.10	31307.01
