SpectraSuite Data File
++++++++++++++++++++++++++++++++++++
Date: Mon Oct 07 14:53:53 GMT-05:00 2013
User: price-jones
Dark Spectrum Present: No
Reference Spectrum Present: No
Number of Sampled Component Spectra: 1
Spectrometers: USB2+H05261
Integration Time (usec): 100000 (USB2+H05261)
Spectra Averaged: 1 (USB2+H05261)
Boxcar Smoothing: 0 (USB2+H05261)
Correct for Electrical Dark: No (USB2+H05261)
Strobe/Lamp Enabled: No (USB2+H05261)
Correct for Detector Non-linearity: No (USB2+H05261)
Correct for Stray Light: No (USB2+H05261)
Number of Pixels in Processed Spectrum: 2048
>>>>>Begin Processed Spectral Data<<<<<
365.73	0.00
365.92	0.00
366.12	0.00
366.32	0.00
366.52	0.00
366.72	0.00
366.91	0.00
367.11	0.00
367.31	0.00
367.51	0.00
367.70	0.00
367.90	0.00
368.10	0.00
368.30	0.00
368.49	0.00
368.69	0.00
368.89	0.00
369.09	0.00
369.28	0.00
369.48	0.00
369.68	0.00
369.87	0.00
370.07	0.00
370.27	0.00
370.47	540.66
370.66	2850.77
370.86	3335.26
371.06	3630.17
371.25	3653.58
371.45	3368.03
371.65	2956.10
371.84	2836.73
372.04	2834.39
372.24	3229.94
372.44	3335.26
372.63	3431.23
372.83	3136.32
373.03	2738.43
373.22	2504.37
373.42	2708.00
373.62	3084.83
373.81	3459.31
374.01	3314.20
374.21	3056.74
374.40	2832.05
374.60	2827.37
374.79	3353.99
374.99	3768.26
375.19	4109.98
375.38	4131.05
375.58	3878.27
375.78	3941.46
375.97	3936.78
376.17	3922.74
376.37	4058.49
376.56	4255.09
376.76	4372.12
376.95	4681.07
377.15	5013.43
377.35	5104.71
377.54	5357.49
377.74	5544.73
377.93	5451.11
378.13	5416.00
378.33	5139.82
378.52	4844.91
378.72	4678.73
378.91	4386.16
379.11	4191.90
379.31	4128.70
379.50	4229.35
379.70	4428.29
379.89	4873.00
380.09	5184.29
380.28	5336.42
380.48	5158.54
380.68	5284.93
380.87	5069.60
381.07	4805.12
381.26	4383.82
381.46	4182.54
381.65	3995.29
381.85	4074.87
382.04	3918.06
382.24	3578.68
382.43	3304.84
382.63	3169.09
382.83	3236.96
383.02	3246.32
383.22	3236.96
383.41	3286.11
383.61	3576.34
383.80	4044.45
384.00	4550.00
384.19	5090.67
384.39	5345.78
384.58	5406.64
384.78	5324.72
384.97	5135.14
385.17	5032.15
385.36	4650.64
385.56	4458.72
385.75	4568.73
385.95	4983.00
386.14	5570.48
386.34	5533.03
386.53	5268.55
386.72	4912.78
386.92	5006.41
387.11	5165.56
387.31	5619.63
387.50	5427.70
387.70	5261.52
387.89	5137.48
388.09	5284.93
388.28	5156.20
388.48	5355.15
388.67	5816.23
388.86	6401.37
389.06	6682.23
389.25	6979.48
389.45	7103.53
389.64	7178.42
389.84	6970.12
390.03	6911.60
390.22	6897.56
390.42	7213.53
390.61	7770.58
390.81	8037.40
391.00	8189.53
391.19	8346.35
391.39	7653.55
391.58	7419.50
391.78	7105.87
391.97	6642.44
392.16	6352.21
392.36	5858.36
392.55	4674.05
392.75	3662.94
392.94	3066.10
393.13	2970.14
393.33	3552.93
393.52	4538.30
393.71	5563.45
393.91	6235.19
394.10	6785.21
394.29	7499.08
394.49	7943.78
394.68	8784.03
394.88	8674.03
395.07	8980.64
395.26	8903.40
395.46	8620.19
395.65	8098.25
395.84	7110.55
396.04	5966.03
396.23	4821.50
396.42	4154.45
396.62	4028.06
396.81	4667.03
397.00	5685.16
397.19	7344.60
397.39	8533.59
397.58	9694.50
397.77	10352.19
397.97	11122.23
398.16	11122.23
398.35	11176.06
398.55	11611.40
398.74	11967.16
398.93	12362.71
399.12	12067.80
399.32	11665.23
399.51	11864.18
399.70	12816.77
399.90	12659.96
400.09	12819.11
400.28	12599.10
400.47	12580.38
400.67	13055.51
400.86	13565.74
401.05	13816.18
401.24	13628.94
401.44	13764.69
401.63	14228.12
401.82	13947.25
402.01	14260.88
402.21	14228.12
402.40	14288.97
402.59	13713.20
402.78	13256.79
402.97	12596.76
403.17	13174.88
403.36	14094.71
403.55	14850.70
403.74	14853.04
403.93	14291.31
404.13	13254.45
404.32	12858.90
404.51	13341.05
404.70	14520.68
404.89	14382.59
405.09	14354.51
405.28	13748.31
405.47	13809.16
405.66	13675.75
405.85	13525.96
406.05	13212.32
406.24	13280.20
406.43	13757.67
406.62	14305.35
406.81	14326.42
407.00	13991.72
407.20	13390.20
407.39	13647.66
407.58	14436.42
407.77	14635.37
407.96	15255.61
408.15	15346.89
408.34	15384.34
408.54	16315.87
408.73	16341.62
408.92	16203.53
409.11	15653.50
409.30	14939.64
409.49	14022.15
409.68	13071.89
409.87	12601.44
410.07	13638.30
410.26	14651.75
410.45	15463.92
410.64	15831.38
410.83	16278.43
411.02	16744.19
411.21	17547.00
411.40	17146.76
411.59	17160.81
411.78	17252.09
411.98	16765.26
412.17	17462.74
412.36	16659.93
412.55	16973.56
412.74	16664.61
412.93	16149.70
413.12	16224.59
413.31	17893.40
413.50	17806.80
413.69	18471.51
413.88	17617.21
414.07	17181.87
414.26	17439.33
414.45	18118.09
414.64	18071.28
414.83	18178.94
415.02	17769.35
415.22	17944.89
415.41	18003.40
415.60	18937.27
415.79	19417.08
415.98	19831.36
416.17	19613.69
416.36	19407.72
416.55	18991.11
416.74	18391.93
416.93	17830.20
417.12	17956.59
417.31	17947.23
417.50	18757.05
417.69	19131.54
417.88	19000.47
418.07	18827.27
418.26	18448.10
418.45	18726.63
418.64	19288.35
418.83	19962.43
419.02	19681.56
419.21	19887.53
419.39	18822.59
419.58	17654.66
419.77	17755.30
419.96	18841.31
420.15	19637.09
420.34	20135.63
420.53	20760.55
420.72	21383.13
420.91	21341.00
421.10	20779.28
421.29	20606.08
421.48	19976.47
421.67	21191.21
421.86	20402.45
422.05	18956.00
422.24	17146.76
422.43	16917.39
422.61	18686.84
422.80	20252.66
422.99	20137.97
423.18	19665.18
423.37	19098.77
423.56	19112.81
423.75	19236.86
423.94	19967.11
424.13	18726.63
424.32	18895.14
424.50	19222.82
424.69	18874.08
424.88	18794.50
425.07	18965.36
425.26	18721.95
425.45	18553.43
425.64	18230.43
425.83	18160.22
426.01	19286.01
426.20	19690.93
426.39	19667.52
426.58	18291.29
426.77	16851.86
426.96	16327.58
427.15	17001.65
427.33	18216.39
427.52	18974.72
427.71	18853.02
427.90	18871.74
428.09	18637.69
428.28	18345.12
428.46	17694.45
428.65	17420.61
428.84	17544.66
429.03	17914.46
429.22	17261.45
429.40	16248.00
429.59	14787.50
429.78	12978.27
429.97	12868.27
430.16	13128.06
430.34	13200.62
430.53	13149.13
430.72	13584.47
430.91	15061.35
431.10	17479.12
431.28	20617.78
431.47	22497.23
431.66	22567.45
431.85	20828.43
432.03	19360.91
432.22	18188.30
432.41	18609.60
432.60	20961.84
432.79	21825.50
432.97	22515.95
433.16	21795.07
433.35	19761.14
433.54	18005.74
433.72	17104.64
433.91	17500.19
434.10	19229.84
434.28	20652.89
434.47	22005.72
434.66	21432.29
434.85	21039.08
435.03	20950.14
435.22	21619.53
435.41	22881.08
435.59	22773.41
435.78	23054.28
435.97	23484.94
436.16	23524.72
436.34	23630.05
436.53	22806.18
436.72	22677.45
436.90	21766.98
437.09	21687.40
437.28	21364.41
437.46	22256.15
437.65	21748.26
437.84	20662.25
438.02	18817.91
438.21	18640.03
438.40	20044.35
438.58	21577.40
438.77	22031.46
438.96	22174.24
439.14	23197.05
439.33	23569.19
439.52	24011.56
439.70	23250.88
439.89	22801.50
440.08	22115.72
440.26	22462.12
440.45	22848.31
440.63	24533.50
440.82	25970.58
441.01	25326.94
441.19	25277.79
441.38	25678.02
441.57	26541.68
441.75	26991.06
441.94	27161.92
442.12	27171.28
442.31	27543.42
442.50	27239.15
442.68	27269.58
442.87	26621.25
443.05	26267.83
443.24	26656.36
443.43	27314.05
443.61	27992.81
443.80	28020.89
443.98	26668.06
444.17	26450.39
444.35	28121.54
444.54	28802.63
444.73	28140.26
444.91	27161.92
445.10	25979.95
445.28	24659.88
445.47	24196.46
445.65	24830.74
445.84	25619.50
446.02	26291.24
446.21	26412.95
446.39	26426.99
446.58	26785.09
446.77	27370.22
446.95	27552.79
447.14	28074.73
447.32	28603.69
447.51	28201.11
447.69	27197.02
447.88	26862.33
448.06	27360.86
448.25	27936.63
448.43	27740.03
448.62	27819.61
448.80	27255.54
448.99	27606.62
449.17	27784.50
449.36	27737.69
449.54	29090.52
449.73	29261.38
449.91	30045.46
450.10	30164.82
450.28	30682.08
450.46	30314.62
450.65	30380.15
450.83	29795.02
451.02	29457.98
451.20	29689.70
451.39	29355.00
451.57	29338.62
451.76	29649.91
451.94	29369.04
452.13	28510.07
452.31	27463.85
452.49	26080.59
452.68	26316.98
452.86	26178.89
453.05	26768.71
453.23	27534.06
453.42	27964.72
453.60	28617.73
453.78	29193.50
453.97	28690.29
454.15	28765.18
454.34	28364.95
454.52	28205.80
454.70	27835.99
454.89	28526.45
455.07	28517.09
455.26	28648.16
455.44	29717.78
455.62	30122.69
455.81	30649.32
455.99	30277.17
456.17	29933.11
456.36	29682.67
456.54	30714.85
456.73	30618.89
456.91	31538.72
457.09	31576.17
457.28	31826.60
457.46	31054.23
457.64	30637.61
457.83	29823.11
458.01	28622.41
458.19	29315.21
458.38	29610.12
458.56	30815.49
458.74	30651.66
458.93	29956.52
459.11	30263.13
459.29	30010.35
459.48	29867.58
459.66	29617.14
459.84	29954.18
460.03	30668.04
460.21	30558.03
460.39	31168.91
460.57	31056.57
460.76	31552.76
460.94	31622.98
461.12	31248.49
461.31	31433.39
461.49	31079.97
461.67	31206.36
461.85	32503.02
462.04	32257.26
462.22	33090.49
462.40	31957.67
462.59	32112.15
462.77	32540.47
462.95	32144.92
463.13	31522.34
463.32	31648.72
463.50	31145.51
463.68	31409.99
463.86	31236.79
464.05	30677.40
464.23	30405.90
464.41	29790.34
464.59	29434.58
464.78	31164.23
464.96	31115.08
465.14	30609.53
465.32	31487.23
465.50	32350.88
465.69	32343.86
465.87	31800.86
466.05	30878.69
466.23	29350.32
466.41	28891.57
466.60	30150.78
466.78	29687.36
466.96	30101.63
467.14	31042.53
467.32	31381.90
467.51	31316.37
467.69	29799.70
467.87	30738.26
468.05	31084.65
468.23	31072.95
468.41	30958.27
468.60	30869.33
468.78	31693.19
468.96	31061.25
469.14	31782.13
469.32	31768.09
469.50	30480.80
469.69	30483.14
469.87	30188.23
470.05	30157.80
470.23	30639.95
470.41	30160.14
470.59	30759.32
470.77	30724.21
470.95	31344.45
471.14	32072.36
471.32	31747.03
471.50	33193.48
471.68	33539.88
471.86	33741.16
472.04	33921.38
472.22	33841.81
472.40	32620.05
472.58	32224.50
472.77	31672.13
472.95	32584.94
473.13	33006.23
473.31	31983.42
473.49	32554.51
473.67	33205.18
473.85	33633.50
474.03	34457.37
474.21	34600.14
474.39	34817.81
474.57	34639.93
474.75	34948.88
474.93	34536.94
475.12	33652.22
475.30	33830.10
475.48	33692.01
475.66	34558.01
475.84	34206.93
476.02	33914.36
476.20	33333.91
476.38	34167.14
476.56	35136.12
476.74	35196.98
476.92	35178.25
477.10	36079.36
477.28	37186.43
477.46	37048.34
477.64	37675.60
477.82	37600.71
478.00	37649.86
478.18	36872.80
478.36	36767.48
478.54	36790.88
478.72	37258.99
478.90	38043.07
479.08	39222.70
479.26	39643.99
479.44	39360.79
479.62	39636.97
479.80	38946.51
479.98	39250.78
480.16	39407.60
480.34	39358.45
480.52	39592.50
480.70	40325.09
480.88	39779.74
481.06	40985.12
481.24	41172.36
481.41	41551.53
481.59	41867.50
481.77	42050.06
481.95	41565.57
482.13	41312.80
482.31	41478.97
482.49	42050.06
482.67	41780.90
482.85	42309.86
483.03	42494.77
483.21	43082.24
483.39	43105.65
483.57	42511.15
483.74	42241.99
483.92	42291.14
484.10	42719.46
484.28	43985.69
484.46	44240.81
484.64	44299.32
484.82	43119.69
485.00	43115.01
485.18	42527.53
485.35	40849.37
485.53	37816.04
485.71	34422.26
485.89	33692.01
486.07	35831.26
486.25	39512.92
486.43	41373.65
486.61	41617.07
486.78	41612.38
486.96	42176.45
487.14	43618.22
487.32	44196.34
487.50	45773.86
487.68	46906.68
487.85	47356.06
488.03	47054.13
488.21	46742.84
488.39	45895.56
488.57	45184.04
488.75	44573.16
488.92	46082.81
489.10	48280.57
489.28	50134.28
489.46	50658.56
489.64	50405.78
489.81	50457.27
489.99	50211.51
490.17	50555.57
490.35	50941.76
490.53	50162.36
490.70	49797.24
490.88	49738.72
491.06	50827.07
491.24	50667.92
491.41	49364.24
491.59	47709.48
491.77	46415.16
491.95	48018.43
492.13	49296.36
492.30	50932.40
492.48	51569.02
492.66	52416.30
492.84	52278.21
493.01	51948.19
493.19	51437.95
493.37	50806.01
493.54	50506.42
493.72	51419.23
493.90	52643.33
494.08	53415.71
494.25	53663.80
494.43	53998.50
494.61	54426.82
494.79	54169.36
494.96	54326.17
495.14	53509.33
495.32	52655.03
495.49	51721.16
495.67	52727.59
495.85	53972.75
496.02	54988.55
496.20	54511.08
496.38	53977.43
496.55	54136.59
496.73	54429.16
496.91	54684.28
497.09	55393.46
497.26	55576.02
497.44	54869.18
497.62	54291.07
497.79	53609.97
497.97	51908.40
498.14	52254.80
498.32	53661.46
498.50	54426.82
498.67	55206.22
498.85	54923.01
499.03	55049.40
499.20	55327.92
499.38	55484.74
499.56	55227.28
499.73	54698.32
499.91	53963.39
500.08	53825.30
500.26	53057.60
500.44	53687.21
500.61	54195.10
500.79	54099.14
500.97	53731.68
501.14	53301.02
501.32	53549.12
501.49	53249.53
501.67	53666.14
501.84	54365.96
502.02	54415.11
502.20	54859.82
502.37	55241.32
502.55	54820.03
502.72	55477.72
502.90	56048.81
503.07	55641.56
503.25	55068.12
503.43	54344.90
503.60	53769.13
503.78	52711.20
503.95	53584.22
504.13	54976.84
504.30	55688.37
504.48	55716.45
504.65	55458.99
504.83	55107.91
505.01	55976.25
505.18	56243.07
505.36	56868.00
505.53	56825.87
505.71	57106.73
505.88	57006.09
506.06	56465.42
506.23	56079.24
506.41	55936.46
506.58	56032.42
506.76	55997.32
506.93	56130.73
507.11	55800.71
507.28	55980.93
507.46	55377.08
507.63	54798.96
507.81	54761.51
507.98	54838.75
508.16	55728.16
508.33	56030.08
508.50	56516.92
508.68	56935.87
508.85	57109.07
509.03	57120.77
509.20	57226.10
509.38	56294.56
509.55	55538.57
509.73	55517.51
509.90	56273.50
510.08	56467.76
510.25	56523.94
510.42	56168.18
510.60	56044.13
510.77	56622.24
510.95	56734.59
511.12	57043.54
511.30	57176.95
511.47	57656.76
511.64	57513.98
511.82	57202.69
511.99	56205.62
512.17	56032.42
512.34	55674.32
512.51	55786.67
512.69	56142.43
512.86	55807.73
513.04	56697.14
513.21	56404.57
513.38	56226.69
513.56	55564.32
513.73	55033.02
513.90	55084.51
514.08	55213.24
514.25	55480.06
514.43	55969.23
514.60	55955.19
514.77	56039.45
514.95	56170.52
515.12	55730.50
515.29	56186.90
515.47	56814.16
515.64	57066.94
515.81	56669.05
515.99	56018.38
516.16	54618.74
516.33	51894.36
516.51	50300.45
516.68	49415.73
516.85	49034.22
517.03	49230.83
517.20	51892.02
517.37	55098.55
517.54	56172.86
517.72	55646.24
517.89	52889.09
518.06	50410.46
518.24	50787.28
518.41	53095.05
518.58	54630.44
518.75	54852.80
518.93	54934.71
519.10	55049.40
519.27	55416.86
519.45	55594.74
519.62	56322.65
519.79	56570.75
519.96	56498.19
520.14	55833.48
520.31	55147.70
520.48	55288.13
520.65	55569.00
520.83	56413.93
521.00	56849.27
521.17	56484.15
521.34	56184.56
521.52	56554.36
521.69	57059.92
521.86	57359.51
522.03	57155.88
522.20	55894.33
522.38	54644.49
522.55	54787.26
522.72	55391.12
522.89	55608.79
523.07	55753.90
523.24	56034.77
523.41	57045.88
523.58	57387.60
523.75	57698.89
523.92	57586.54
524.10	57521.01
524.27	57446.11
524.44	57396.96
524.61	57090.35
524.78	56860.97
524.96	56851.61
525.13	56743.95
525.30	57167.58
525.47	57687.18
525.64	57329.08
525.81	56835.23
525.98	55171.11
526.16	54042.97
526.33	52886.74
526.50	52680.78
526.67	52196.29
526.84	52788.44
527.01	53886.15
527.18	54897.27
527.36	55803.05
527.53	56601.18
527.70	56713.52
527.87	56369.46
528.04	56142.43
528.21	56519.26
528.38	57057.58
528.55	57574.84
528.72	57968.05
528.89	58129.54
529.07	57609.95
529.24	57062.26
529.41	56577.77
529.58	55845.18
529.75	55821.78
529.92	56493.51
530.09	56921.83
530.26	57317.38
530.43	57708.25
530.60	57808.89
530.77	57729.31
530.94	58056.99
531.11	57396.96
531.28	57132.48
531.46	57202.69
531.63	57008.43
531.80	57045.88
531.97	56554.36
532.14	55969.23
532.31	54805.98
532.48	53947.01
532.65	54049.99
532.82	54885.56
532.99	56240.73
533.16	56229.03
533.33	57162.90
533.50	56715.86
533.67	56184.56
533.84	55735.18
534.01	56053.49
534.18	56151.79
534.35	56442.02
534.52	56273.50
534.69	56622.24
534.86	56907.79
535.03	56982.68
535.20	57411.00
535.37	57895.49
535.54	57975.07
535.71	57640.37
535.88	57359.51
536.05	56577.77
536.22	56273.50
536.38	55786.67
536.55	55496.44
536.72	54850.45
536.89	54754.49
537.06	55571.34
537.23	56772.03
537.40	56622.24
537.57	56629.26
537.74	56493.51
537.91	56301.59
538.08	56404.57
538.25	56502.87
538.42	56762.67
538.59	56526.28
538.75	55732.84
538.92	55615.81
539.09	55128.98
539.26	55107.91
539.43	55044.72
539.60	55126.64
539.77	55423.89
539.94	55304.52
540.11	54614.06
540.28	53876.79
540.44	53982.12
540.61	54262.98
540.78	54358.94
540.95	55189.83
541.12	55414.52
541.29	55973.91
541.46	55817.10
541.62	55774.97
541.79	55676.66
541.96	55150.04
542.13	55051.74
542.30	55278.77
542.47	55613.47
542.63	55140.68
542.80	55140.68
542.97	55047.06
543.14	54986.21
543.31	55114.94
543.48	55683.69
543.64	56519.26
543.81	56882.04
543.98	56662.03
544.15	56032.42
544.32	55061.10
544.48	55604.11
544.65	56041.79
544.82	56170.52
544.99	55854.54
545.16	55302.18
545.32	55304.52
545.49	56013.70
545.66	56329.67
545.83	55994.98
546.00	55554.96
546.16	55292.82
546.33	55611.13
546.50	55344.31
546.67	55875.61
546.83	55409.84
547.00	55372.39
547.17	55075.15
547.34	54066.38
547.50	54148.29
547.67	54618.74
547.84	54445.54
548.00	55114.94
548.17	55505.80
548.34	55175.79
548.51	55498.78
548.67	55416.86
548.84	55381.76
549.01	55475.38
549.18	55332.60
549.34	55281.11
549.51	54972.16
549.68	55119.62
549.84	54990.89
550.01	54953.44
550.18	54527.46
550.34	54850.45
550.51	54976.84
550.68	55030.68
550.84	54468.95
551.01	54291.07
551.18	54260.64
551.34	54731.09
551.51	54908.97
551.68	55487.08
551.84	55393.46
552.01	55227.28
552.18	54843.43
552.34	54204.47
552.51	53759.76
552.68	53588.91
552.84	54274.68
553.01	54480.65
553.18	54457.24
553.34	54541.50
553.51	54461.93
553.67	54908.97
553.84	55054.08
554.01	54866.84
554.17	54848.11
554.34	54581.29
554.51	54749.81
554.67	55098.55
554.84	55072.81
555.00	54576.61
555.17	54396.39
555.33	54398.73
555.50	54539.16
555.67	54253.62
555.83	54152.97
556.00	53902.54
556.16	53799.55
556.33	53565.50
556.50	53366.55
556.66	53411.02
556.83	52975.69
556.99	53212.08
557.16	53443.79
557.32	53787.85
557.49	53808.92
557.65	53832.32
557.82	53851.05
557.98	53427.41
558.15	53104.41
558.32	52072.24
558.48	51178.15
558.65	51419.23
558.81	52039.47
558.98	52046.49
559.14	52561.41
559.31	52413.96
559.47	52669.08
559.64	52149.48
559.80	51774.99
559.97	51538.60
560.13	52278.21
560.30	53570.18
560.46	53855.73
560.63	54052.33
560.79	54328.52
560.96	53745.72
561.12	52540.35
561.29	51655.62
561.45	51538.60
561.61	52236.08
561.78	52530.98
561.94	52268.84
562.11	52392.89
562.27	51896.70
562.44	52479.49
562.60	53013.13
562.77	53301.02
562.93	52992.07
563.10	53071.65
563.26	51985.64
563.42	52362.46
563.59	51814.78
563.75	52090.96
563.92	52341.40
564.08	51903.72
564.24	52156.50
564.41	52507.58
564.57	52477.15
564.74	52093.30
564.90	52046.49
565.07	51653.28
565.23	51522.21
565.39	50698.34
565.56	50227.90
565.72	50293.43
565.88	50429.18
566.05	50983.89
566.21	51475.40
566.38	51175.81
566.54	51442.63
566.70	51554.98
566.87	52219.69
567.03	51995.00
567.19	52507.58
567.36	51920.10
567.52	51845.21
567.68	51313.90
567.85	50581.32
568.01	50244.28
568.17	49670.85
568.34	50157.68
568.50	49703.62
568.66	49869.79
568.83	50169.38
568.99	50349.60
569.15	50829.41
569.32	50717.07
569.48	50218.53
569.64	50183.43
569.81	49752.77
569.97	49827.66
570.13	49715.32
570.30	49088.06
570.46	48626.97
570.62	47892.04
570.78	47372.44
570.95	47889.70
571.11	49198.06
571.27	49076.35
571.43	49364.24
571.60	49523.40
571.76	50199.81
571.92	50403.44
572.09	50153.00
572.25	50602.38
572.41	50375.35
572.57	50415.14
572.74	50103.85
572.90	49331.47
573.06	49900.22
573.22	49518.71
573.38	50195.13
573.55	49663.83
573.71	49832.35
573.87	49961.08
574.03	49558.50
574.20	49331.47
574.36	49132.53
574.52	49052.95
574.68	48811.87
574.84	48470.15
575.01	47646.29
575.17	47854.59
575.33	48072.26
575.49	48509.94
575.65	48673.78
575.82	48254.82
575.98	47835.87
576.14	48355.47
576.30	48947.62
576.46	48809.53
576.62	48748.68
576.79	48568.46
576.95	48116.73
577.11	48100.35
577.27	48175.25
577.43	48638.67
577.59	47957.58
577.75	47386.49
577.92	46674.96
578.08	46494.74
578.24	46883.27
578.40	47002.64
578.56	47264.78
578.72	47253.08
578.88	47606.50
579.04	47606.50
579.21	47667.35
579.37	47529.26
579.53	47669.69
579.69	47767.99
579.85	48250.14
580.01	47868.64
580.17	47526.92
580.33	47526.92
580.49	47243.71
580.65	47763.31
580.82	47695.44
580.98	47480.11
581.14	47452.02
581.30	47320.95
581.46	47510.53
581.62	47927.15
581.78	47297.55
581.94	48086.31
582.10	47688.42
582.26	47882.68
582.42	47854.59
582.58	48133.12
582.74	47875.66
582.90	48006.73
583.06	47838.21
583.22	48105.03
583.38	47753.95
583.54	47358.40
583.70	47243.71
583.86	47512.88
584.02	47327.97
584.18	47412.23
584.34	47456.70
584.50	47615.86
584.66	46829.44
584.82	46721.77
584.98	46681.98
585.14	46057.06
585.30	45375.97
