SpectraSuite Data File
++++++++++++++++++++++++++++++++++++
Date: Mon Oct 07 14:53:06 GMT-05:00 2013
User: price-jones
Dark Spectrum Present: No
Reference Spectrum Present: No
Number of Sampled Component Spectra: 1
Spectrometers: USB2+H05261
Integration Time (usec): 100000 (USB2+H05261)
Spectra Averaged: 1 (USB2+H05261)
Boxcar Smoothing: 0 (USB2+H05261)
Correct for Electrical Dark: No (USB2+H05261)
Strobe/Lamp Enabled: No (USB2+H05261)
Correct for Detector Non-linearity: No (USB2+H05261)
Correct for Stray Light: No (USB2+H05261)
Number of Pixels in Processed Spectrum: 2048
>>>>>Begin Processed Spectral Data<<<<<
365.73	0.00
365.92	0.00
366.12	0.00
366.32	0.00
366.52	0.00
366.72	0.00
366.91	0.00
367.11	0.00
367.31	0.00
367.51	0.00
367.70	0.00
367.90	0.00
368.10	0.00
368.30	0.00
368.49	0.00
368.69	0.00
368.89	0.00
369.09	0.00
369.28	0.00
369.48	0.00
369.68	0.00
369.87	0.00
370.07	0.00
370.27	0.00
370.47	561.73
370.66	3084.83
370.86	3447.61
371.06	3794.01
371.25	3857.20
371.45	3592.72
371.65	3141.00
371.84	2935.03
372.04	3070.78
372.24	3482.72
372.44	3494.42
372.63	3513.14
372.83	3328.24
373.03	2843.75
373.22	2663.53
373.42	2853.11
373.62	3318.88
373.81	3508.46
374.01	3421.86
374.21	3117.59
374.40	3014.61
374.60	3005.25
374.79	3459.31
374.99	4114.66
375.19	4381.48
375.38	4397.87
375.58	4117.00
375.78	3929.76
375.97	4135.73
376.17	4215.30
376.37	4196.58
376.56	4524.26
376.76	4645.96
376.95	4968.96
377.15	5111.73
377.35	5455.79
377.54	5771.76
377.74	5820.91
377.93	5743.67
378.13	5650.05
378.33	5507.28
378.52	5041.51
378.72	4821.50
378.91	4688.09
379.11	4545.32
379.31	4337.01
379.50	4365.10
379.70	4840.23
379.89	5284.93
380.09	5558.77
380.28	5783.46
380.48	5563.45
380.68	5584.52
380.87	5511.96
381.07	5090.67
381.26	4676.39
381.46	4308.93
381.65	4257.43
381.85	4264.46
382.04	3974.23
382.24	3667.62
382.43	3513.14
382.63	3433.57
382.83	3578.68
383.02	3475.70
383.22	3494.42
383.41	3604.42
383.61	3712.09
383.80	4348.72
384.00	4751.29
384.19	5444.09
384.39	5753.04
384.58	5598.56
384.78	5432.38
384.97	5605.58
385.17	5401.96
385.36	5041.51
385.56	4865.97
385.75	4823.84
385.95	5397.28
386.14	5912.19
386.34	5968.37
386.53	5554.09
386.72	5263.86
386.92	5320.04
387.11	5591.54
387.31	5926.24
387.50	5729.63
387.70	5490.90
387.89	5497.92
388.09	5708.57
388.28	5661.76
388.48	5703.89
388.67	6054.97
388.86	6796.92
389.06	7314.17
389.25	7620.78
389.45	7517.80
389.64	7531.84
389.84	7377.37
390.03	7375.03
390.22	7330.56
390.42	7733.13
390.61	8203.58
390.81	8711.47
391.00	8819.14
391.19	8814.46
391.39	8437.63
391.58	8018.68
391.78	7473.33
391.97	7066.08
392.16	6726.70
392.36	6155.61
392.55	4758.31
392.75	3854.86
392.94	3232.28
393.13	3265.05
393.33	3810.39
393.52	4919.81
393.71	6099.44
393.91	6696.27
394.10	7379.71
394.29	7836.11
394.49	8435.29
394.68	9177.24
394.88	9261.50
395.07	9643.01
395.26	9488.53
395.46	9336.40
395.65	8624.87
395.84	7529.50
396.04	6420.09
396.23	5048.54
396.42	4292.54
396.62	4269.14
396.81	4910.44
397.00	6387.32
397.19	7957.82
397.39	9446.40
397.58	10712.63
397.77	11152.65
397.97	11492.03
398.16	11543.52
398.35	12212.92
398.55	12360.37
398.74	13123.38
398.93	13266.16
399.12	13121.04
399.32	12475.06
399.51	13228.71
399.70	13748.31
399.90	13401.91
400.09	13888.74
400.28	13516.59
400.47	13666.39
400.67	14132.15
400.86	14504.30
401.05	14719.63
401.24	14745.38
401.44	15016.88
401.63	14958.36
401.82	15206.46
402.01	14862.40
402.21	15337.53
402.40	15161.99
402.59	14284.29
402.78	14061.94
402.97	13645.32
403.17	14310.04
403.36	14937.30
403.55	16018.63
403.74	16102.89
403.93	15424.13
404.13	13673.41
404.32	13771.71
404.51	14464.51
404.70	15623.08
404.89	15578.61
405.09	15391.36
405.28	14829.63
405.47	14909.21
405.66	14949.00
405.85	14305.35
406.05	13984.70
406.24	14338.12
406.43	15087.09
406.62	15276.68
406.81	15515.41
407.00	15213.48
407.20	14455.15
407.39	14906.87
407.58	15293.06
407.77	16035.01
407.96	16514.82
408.15	16837.81
408.34	16498.44
408.54	17390.18
408.73	17254.43
408.92	17364.43
409.11	17219.32
409.30	15889.90
409.49	15173.69
409.68	14038.53
409.87	13659.37
410.07	14661.12
410.26	15957.77
410.45	16585.04
410.64	17146.76
410.83	17696.79
411.02	18239.79
411.21	18728.97
411.40	18391.93
411.59	18553.43
411.78	18492.57
411.98	18263.20
412.17	18530.02
412.36	18260.86
412.55	18586.19
412.74	17888.71
412.93	17341.03
413.12	17547.00
413.31	19403.04
413.50	19660.50
413.69	19573.90
413.88	19112.81
414.07	18412.99
414.26	18855.36
414.45	19543.47
414.64	19438.15
414.83	19365.59
415.02	19370.27
415.22	19204.10
415.41	19510.71
415.60	20435.22
415.79	21046.10
415.98	21469.73
416.17	21729.53
416.36	20968.86
416.55	20491.39
416.74	19770.51
416.93	19049.62
417.12	19206.44
417.31	19627.73
417.50	19878.17
417.69	20531.18
417.88	20585.01
418.07	20215.21
418.26	19922.64
418.45	20315.85
418.64	21062.48
418.83	21701.45
419.02	21413.56
419.21	21322.28
419.39	20135.63
419.58	19271.97
419.77	19524.75
419.96	20294.79
420.15	21465.05
420.34	22162.53
420.53	22932.57
420.72	23194.71
420.91	23087.04
421.10	23033.21
421.29	22548.72
421.48	21820.81
421.67	22916.19
421.86	22284.24
422.05	20662.25
422.24	18661.09
422.43	18183.62
422.61	20320.53
422.80	21937.84
422.99	22017.42
423.18	20896.30
423.37	20697.36
423.56	20964.18
423.75	21268.45
423.94	21710.81
424.13	20428.20
424.32	20769.91
424.50	20631.82
424.69	20463.30
424.88	20594.37
425.07	20467.98
425.26	20561.61
425.45	20343.94
425.64	19962.43
425.83	20140.31
426.01	21202.91
426.20	21603.14
426.39	21441.65
426.58	19749.44
426.77	18635.35
426.96	17965.95
427.15	18520.66
427.33	20191.80
427.52	21032.05
427.71	20659.91
427.90	20526.50
428.09	20411.81
428.28	19976.47
428.46	19536.45
428.65	19197.07
428.84	19548.15
429.03	19756.46
429.22	18682.16
429.40	17504.87
429.59	16070.12
429.78	14349.82
429.97	14342.80
430.16	14583.88
430.34	14803.89
430.53	14796.87
430.72	15014.54
430.91	16786.32
431.10	19597.31
431.28	22712.56
431.47	24592.01
431.66	24718.40
431.85	22745.33
432.03	20879.92
432.22	20049.03
432.41	20823.75
432.60	23105.77
432.79	24023.26
432.97	24891.60
433.16	24166.03
433.35	21743.58
433.54	19660.50
433.72	18499.59
433.91	19337.51
434.10	21600.80
434.28	23197.05
434.47	23789.20
434.66	23847.72
434.85	23084.70
435.03	22881.08
435.22	23854.74
435.41	25434.60
435.59	24907.98
435.78	25876.96
435.97	26022.08
436.16	26214.00
436.34	25731.85
436.53	25207.57
436.72	25429.92
436.90	23700.26
437.09	24233.91
437.28	23618.35
437.46	24257.31
437.65	24446.90
437.84	22490.21
438.02	20793.32
438.21	20629.48
438.40	21771.66
438.58	23784.52
438.77	24140.29
438.96	24828.40
439.14	25947.18
439.33	26068.89
439.52	26602.53
439.70	25743.55
439.89	25415.88
440.08	24706.70
440.26	24528.81
440.45	25582.06
440.63	27264.90
440.82	28730.08
441.01	27983.44
441.19	27910.89
441.38	28177.71
441.57	29495.43
441.75	29989.28
441.94	30078.22
442.12	29895.66
442.31	30319.30
442.50	30092.27
442.68	29928.43
442.87	29465.00
443.05	28968.81
443.24	29488.41
443.43	30267.81
443.61	30766.34
443.80	31049.55
443.98	29448.62
444.17	29663.95
444.35	31271.90
444.54	31702.56
444.73	31269.56
444.91	29663.95
445.10	28823.70
445.28	27620.66
445.47	27190.00
445.65	27632.36
445.84	28402.40
446.02	29270.74
446.21	29315.21
446.39	29717.78
446.58	30263.13
446.77	30845.92
446.95	30866.98
447.14	31651.06
447.32	32210.45
447.51	31585.53
447.69	30291.21
447.88	29727.14
448.06	30529.95
448.25	31433.39
448.43	31274.24
448.62	30478.46
448.80	30295.89
448.99	30700.81
449.17	30705.49
449.36	31250.83
449.54	31772.77
449.73	32744.09
449.91	33186.46
450.10	33905.00
450.28	34178.84
450.46	33603.07
450.65	34078.20
450.83	33926.07
451.02	32898.57
451.20	32882.19
451.39	32945.38
451.57	32524.08
451.76	32589.62
451.94	32547.49
452.13	32222.16
452.31	30272.49
452.49	29263.72
452.68	29883.96
452.86	29546.92
453.05	30169.51
453.23	30930.18
453.42	31676.81
453.60	32072.36
453.78	32580.26
453.97	32678.56
454.15	32477.27
454.34	31707.24
454.52	31555.10
454.70	31372.54
454.89	31494.25
455.07	31847.67
455.26	32098.11
455.44	33261.35
455.62	33909.68
455.81	33989.26
455.99	33692.01
456.17	33378.38
456.36	33378.38
456.54	34742.91
456.73	34403.53
456.91	34948.88
457.09	34848.24
457.28	35978.72
457.46	34604.82
457.64	34031.39
457.83	33186.46
458.01	32283.01
458.19	33652.22
458.38	33404.13
458.56	35000.37
458.74	34464.39
458.93	33589.03
459.11	33542.22
459.29	33610.09
459.48	33940.11
459.66	33661.58
459.84	34494.82
460.03	34663.33
460.21	34220.97
460.39	34829.51
460.57	35206.34
460.76	36074.68
460.94	35337.41
461.12	35297.62
461.31	35508.27
461.49	35250.81
461.67	35524.65
461.85	36428.10
462.04	35983.40
462.22	36421.08
462.40	36313.41
462.59	36257.24
462.77	36184.68
462.95	36582.57
463.13	35690.83
463.32	35454.44
463.50	35119.74
463.68	35136.12
463.86	35482.52
464.05	34822.49
464.23	34115.65
464.41	34274.80
464.59	33429.87
464.78	35702.53
464.96	34946.54
465.14	34267.78
465.32	35173.57
465.50	36713.64
465.69	36727.69
465.87	35716.58
466.05	35061.22
466.23	33593.71
466.41	32580.26
466.60	33738.82
466.78	33614.77
466.96	34218.63
467.14	34939.52
467.32	35433.37
467.51	35328.05
467.69	33923.72
467.87	34188.21
468.05	34885.68
468.23	35393.58
468.41	35047.18
468.60	35316.34
468.78	35857.01
468.96	35185.27
469.14	35728.28
469.32	36044.25
469.50	34157.78
469.69	34843.56
469.87	34251.40
470.05	33902.66
470.23	34213.95
470.41	34440.98
470.59	34579.07
470.77	34986.33
470.95	35316.34
471.14	35971.69
471.32	36222.13
471.50	37890.93
471.68	38094.56
471.86	38473.73
472.04	38089.88
472.22	38536.92
472.40	36439.80
472.58	36720.66
472.77	36605.98
472.95	36865.78
473.13	37825.40
473.31	36900.89
473.49	36966.42
473.67	37607.73
473.85	37801.99
474.03	38885.66
474.21	39126.74
474.39	39445.05
474.57	39756.34
474.75	39608.89
474.93	38962.90
475.12	38316.91
475.30	38834.17
475.48	38836.51
475.66	39232.06
475.84	38988.64
476.02	38272.44
476.20	37851.14
476.38	39047.16
476.56	40013.80
476.74	40444.46
476.92	40498.29
477.10	41048.32
477.28	42394.12
477.46	41844.10
477.64	43037.77
477.82	42974.58
478.00	42955.85
478.18	42361.36
478.36	41851.12
478.54	42108.58
478.72	42333.27
478.90	43505.88
479.08	44540.39
479.26	44797.85
479.44	45024.89
479.62	44762.75
479.80	44685.51
479.98	44608.27
480.16	45207.45
480.34	44589.55
480.52	44844.66
480.70	45500.01
480.88	45242.56
481.06	46155.36
481.24	46328.56
481.41	47381.80
481.59	47494.15
481.77	47615.86
481.95	46953.49
482.13	46955.83
482.31	46925.40
482.49	47477.77
482.67	47222.65
482.85	47943.53
483.03	48196.31
483.21	49088.06
483.39	48657.40
483.57	47714.16
483.74	47772.67
483.92	48135.46
484.10	48421.00
484.28	49055.29
484.46	49265.94
484.64	49769.15
484.82	49017.84
485.00	48119.07
485.18	47508.19
485.35	46363.67
485.53	43405.23
485.71	39349.09
485.89	39381.85
486.07	41361.95
486.25	44910.20
486.43	47021.36
486.61	47526.92
486.78	47316.27
486.96	48018.43
487.14	49446.16
487.32	50272.37
487.50	51143.05
487.68	51629.88
487.85	52203.31
488.03	52369.49
488.21	51941.17
488.39	51047.08
488.57	50698.34
488.75	50468.97
488.92	51522.21
489.10	53450.81
489.28	54665.55
489.46	55035.36
489.64	54976.84
489.81	55199.19
489.99	54838.75
490.17	54885.56
490.35	55374.73
490.53	54707.68
490.70	54461.93
490.88	54307.45
491.06	55295.16
491.24	55100.89
491.41	54300.43
491.59	52687.80
491.77	52292.25
491.95	53284.64
492.13	54038.29
492.30	55510.49
492.48	55952.85
492.66	56505.21
492.84	56427.98
493.01	56467.76
493.19	55863.91
493.37	55580.70
493.54	55384.10
493.72	55732.84
493.90	56952.26
494.08	57399.30
494.25	57752.72
494.43	58056.99
494.61	58560.20
494.79	58541.48
494.96	58365.94
495.14	57684.84
495.32	56664.37
495.49	56151.79
495.67	57483.56
495.85	58726.38
496.02	58731.06
496.20	58616.38
496.38	58136.57
496.55	58152.95
496.73	58578.93
496.91	58763.83
497.09	59035.33
497.26	59416.84
497.44	59065.76
497.62	58536.80
497.79	57869.75
497.97	56383.51
498.14	57022.47
498.32	57764.42
498.50	58805.96
498.67	59168.74
498.85	58866.81
499.03	59061.08
499.20	59538.55
499.38	59458.97
499.56	59164.06
499.73	58822.34
499.91	58546.16
500.08	58244.23
500.26	57338.44
500.44	57904.85
500.61	58497.01
500.79	58368.28
500.97	57956.35
501.14	57907.19
501.32	57698.89
501.49	57319.72
501.67	58012.52
501.84	58489.99
502.02	58590.63
502.20	58897.24
502.37	58986.18
502.55	59025.97
502.72	59753.88
502.90	60072.19
503.07	59767.92
503.25	59456.63
503.43	58569.57
503.60	57914.22
503.78	57317.38
503.95	57675.48
504.13	59143.00
504.30	59852.18
504.48	59758.56
504.65	59292.79
504.83	59522.16
505.01	59931.76
505.18	60236.03
505.36	60877.33
505.53	60659.66
505.71	61155.86
505.88	61303.31
506.06	60390.50
506.23	60273.48
506.41	60083.89
506.58	60303.90
506.76	60226.66
506.93	60030.06
507.11	59964.52
507.28	59971.55
507.46	59370.03
507.63	59037.67
507.81	59175.76
507.98	59168.74
508.16	59746.86
508.33	60266.45
508.50	60509.87
508.68	60945.21
508.85	61577.15
509.03	61240.12
509.20	61193.31
509.38	60528.59
509.55	59870.90
509.73	60020.70
509.90	60467.74
510.08	60701.79
510.25	60636.26
510.42	60289.86
510.60	60261.77
510.77	60566.04
510.95	60776.69
511.12	61183.94
511.30	61537.36
511.47	61748.01
511.64	61542.05
511.82	61282.25
511.99	60575.40
512.17	60165.81
512.34	59969.21
512.51	59936.44
512.69	60268.79
512.86	60233.69
513.04	60804.78
513.21	60662.00
513.38	60280.50
513.56	59882.61
513.73	59402.80
513.90	59622.81
514.08	59718.77
514.25	59906.01
514.43	60308.58
514.60	60205.60
514.77	60339.01
514.95	60306.24
515.12	60198.58
515.29	60451.36
515.47	61097.34
515.64	61319.70
515.81	60786.05
515.99	60439.65
516.16	58834.05
516.33	56741.61
516.51	55646.24
516.68	54637.47
516.85	54295.75
517.03	55283.45
517.20	57483.56
517.37	59512.80
517.54	60570.72
517.72	60069.85
517.89	57504.62
518.06	55578.36
518.24	56250.09
518.41	57979.75
518.58	58841.07
518.75	59288.11
518.93	59367.69
519.10	59353.65
519.27	59578.34
519.45	60142.41
519.62	60795.42
519.79	60884.36
519.96	60947.55
520.14	60472.42
520.31	59625.15
520.48	59594.72
520.65	60025.38
520.83	60903.08
521.00	61249.48
521.17	60757.97
521.34	60533.28
521.52	60858.61
521.69	61151.18
521.86	61984.41
522.03	61249.48
522.20	60243.05
522.38	59306.83
522.55	59559.61
522.72	60081.55
522.89	60016.02
523.07	60275.82
523.24	60757.97
523.41	61315.01
523.58	61506.94
523.75	61956.32
523.92	61918.87
524.10	62131.86
524.27	61752.69
524.44	61598.22
524.61	61401.61
524.78	61504.60
524.96	61134.79
525.13	61317.35
525.30	61497.58
525.47	61834.61
525.64	61792.48
525.81	61291.61
525.98	59730.47
526.16	58314.45
526.33	57961.03
526.50	57591.22
526.67	57202.69
526.84	58099.12
527.01	58876.18
527.18	59508.12
527.36	60416.25
527.53	61244.80
527.70	61324.38
527.87	61008.40
528.04	60502.85
528.21	61041.17
528.38	61595.88
528.55	62181.01
528.72	62377.62
528.89	62436.13
529.07	62143.56
529.24	61570.13
529.41	60790.73
529.58	60500.51
529.75	60580.09
529.92	61090.32
530.09	61467.15
530.26	61916.53
530.43	62049.94
530.60	62148.24
530.77	62298.04
530.94	62468.90
531.11	62045.26
531.28	61668.44
531.46	61628.65
531.63	61691.84
531.80	61413.32
531.97	60989.68
532.14	60404.55
532.31	59248.32
532.48	58848.09
532.65	58983.84
532.82	59828.77
532.99	60851.59
533.16	61118.41
533.33	61698.86
533.50	61504.60
533.67	61010.74
533.84	60767.33
534.01	60795.42
534.18	60825.84
534.35	61048.19
534.52	60994.36
534.69	61048.19
534.86	61497.58
535.03	61729.29
535.20	61972.70
535.37	62436.13
535.54	62604.65
535.71	62120.16
535.88	61811.21
536.05	61062.24
536.22	60921.80
536.38	60484.12
536.55	60142.41
536.72	59803.03
536.89	59842.82
537.06	60509.87
537.23	61343.10
537.40	61560.77
537.57	61513.96
537.74	61041.17
537.91	61169.90
538.08	61008.40
538.25	61322.04
538.42	61247.14
538.59	61240.12
538.75	60678.39
538.92	60495.83
539.09	60470.08
539.26	60184.54
539.43	60027.72
539.60	60142.41
539.77	60383.48
539.94	60154.11
540.11	59194.49
540.28	58925.33
540.44	58913.62
540.61	59332.58
540.78	59503.44
540.95	59721.11
541.12	60214.96
541.29	60467.74
541.46	60725.20
541.62	60687.75
541.79	60701.79
541.96	59952.82
542.13	60060.49
542.30	60250.07
542.47	60308.58
542.63	60320.29
542.80	60088.57
542.97	60322.63
543.14	60133.04
543.31	60051.12
543.48	60596.47
543.64	61289.27
543.81	61595.88
543.98	61345.44
544.15	60757.97
544.32	60034.74
544.48	60395.18
544.65	60697.11
544.82	61127.77
544.99	60676.05
545.16	60432.63
545.32	60069.85
545.49	60945.21
545.66	61338.42
545.83	60729.88
546.00	60449.02
546.16	60385.82
546.33	60102.62
546.50	60512.21
546.67	60882.02
546.83	60488.80
547.00	60519.23
547.17	59840.48
547.34	59477.69
547.50	59281.09
547.67	59735.15
547.84	59772.60
548.00	60119.00
548.17	60622.22
548.34	60566.04
548.51	60392.84
548.67	60434.97
548.84	60458.38
549.01	60432.63
549.18	60449.02
549.34	60144.75
549.51	60294.54
549.68	60130.70
549.84	59927.08
550.01	59826.43
550.18	59774.94
550.34	59882.61
550.51	60016.02
550.68	60236.03
550.84	59625.15
551.01	59704.73
551.18	59690.68
551.34	59833.46
551.51	60090.91
551.68	60512.21
551.84	60472.42
552.01	60221.98
552.18	60172.83
552.34	59302.15
552.51	59072.78
552.68	58871.49
552.84	59421.52
553.01	59650.89
553.18	59606.42
553.34	59749.20
553.51	60107.30
553.67	60123.68
553.84	60189.22
554.01	59880.27
554.17	59908.35
554.34	60196.24
554.51	60093.25
554.67	60456.04
554.84	60175.17
555.00	59950.48
555.17	59730.47
555.33	59643.87
555.50	59660.26
555.67	59695.36
555.83	59636.85
556.00	59231.94
556.16	59344.28
556.33	58969.80
556.50	58955.75
556.66	58894.90
556.83	58658.51
556.99	58794.26
557.16	58941.71
557.32	59203.85
557.49	59199.17
557.65	59370.03
557.82	59222.58
557.98	58913.62
558.15	58710.00
558.32	57808.89
558.48	57326.74
558.65	57544.41
558.81	57717.61
558.98	58148.27
559.14	58356.58
559.31	58351.90
559.47	58284.02
559.64	58054.65
559.80	57853.36
559.97	57659.10
560.13	58234.87
560.30	59159.38
560.46	59419.18
560.63	59594.72
560.79	59557.27
560.96	59365.35
561.12	58197.42
561.29	57565.48
561.45	57462.49
561.61	58054.65
561.78	58543.82
561.94	58426.79
562.11	57954.00
562.27	58197.42
562.44	58529.78
562.60	58731.06
562.77	58653.82
562.93	58562.54
563.10	58607.01
563.26	58110.82
563.42	58281.68
563.59	58021.88
563.75	57986.77
563.92	57956.35
564.08	58061.67
564.24	57949.32
564.41	58281.68
564.57	58162.31
564.74	57986.77
564.90	57813.57
565.07	57670.80
565.23	57312.70
565.39	56884.38
565.56	56790.76
565.72	56488.83
565.88	56776.72
566.05	57008.43
566.21	57324.40
566.38	57317.38
566.54	57532.71
566.70	57581.86
566.87	57998.48
567.03	57975.07
567.19	58241.89
567.36	58052.31
567.52	57827.62
567.68	57577.18
567.85	57013.11
568.01	56650.33
568.17	56353.08
568.34	56683.09
568.50	56444.36
568.66	56479.47
568.83	56734.59
568.99	56947.57
569.15	56985.02
569.32	56914.81
569.48	56488.83
569.64	56493.51
569.81	56308.61
569.97	56294.56
570.13	56186.90
570.30	55674.32
570.46	55489.42
570.62	54876.20
570.78	54798.96
570.95	55011.95
571.11	55742.20
571.27	56086.26
571.43	56250.09
571.60	56486.49
571.76	56533.30
571.92	56839.91
572.09	56900.76
572.25	56713.52
572.41	56853.95
572.57	56659.69
572.74	56617.56
572.90	56521.60
573.06	56364.78
573.22	56388.19
573.38	56486.49
573.55	56339.04
573.71	56554.36
573.87	56472.45
574.03	56259.46
574.20	56418.61
574.36	55849.86
574.52	55751.56
574.68	55679.00
574.84	55285.79
575.01	55105.57
575.17	54904.29
575.33	55276.43
575.49	55309.20
575.65	55723.47
575.82	55395.80
575.98	55100.89
576.14	55447.29
576.30	55491.76
576.46	55728.16
576.62	55552.62
576.79	55739.86
576.95	55426.23
577.11	55374.73
577.27	55341.97
577.43	55538.57
577.59	54946.42
577.75	54564.91
577.92	54279.36
578.08	53942.33
578.24	53979.78
578.40	53965.73
578.56	54616.40
578.72	54382.35
578.88	54710.02
579.04	54747.47
579.21	55075.15
579.37	54857.48
579.53	55007.27
579.69	54923.01
579.85	55370.05
580.01	54986.21
580.17	54703.00
580.33	54246.60
580.49	54787.26
580.65	55091.53
580.82	55231.96
580.98	54813.01
581.14	54951.10
581.30	55063.44
581.46	54784.92
581.62	54869.18
581.78	55107.91
581.94	55157.06
582.10	55105.57
582.26	55206.22
582.42	55337.29
582.58	54986.21
582.74	54955.78
582.90	55320.90
583.06	55302.18
583.22	54897.27
583.38	54944.08
583.54	54948.76
583.70	54948.76
583.86	54864.50
584.02	54901.95
584.18	54864.50
584.34	54777.90
584.50	54590.66
584.66	54553.21
584.82	53998.50
584.98	54068.72
585.14	53748.06
585.30	53125.48
