SpectraSuite Data File
++++++++++++++++++++++++++++++++++++
Date: Mon Oct 07 14:53:52 GMT-05:00 2013
User: price-jones
Dark Spectrum Present: No
Reference Spectrum Present: No
Number of Sampled Component Spectra: 1
Spectrometers: USB2+H05261
Integration Time (usec): 100000 (USB2+H05261)
Spectra Averaged: 1 (USB2+H05261)
Boxcar Smoothing: 0 (USB2+H05261)
Correct for Electrical Dark: No (USB2+H05261)
Strobe/Lamp Enabled: No (USB2+H05261)
Correct for Detector Non-linearity: No (USB2+H05261)
Correct for Stray Light: No (USB2+H05261)
Number of Pixels in Processed Spectrum: 2048
>>>>>Begin Processed Spectral Data<<<<<
365.73	0.00
365.92	0.00
366.12	0.00
366.32	0.00
366.52	0.00
366.72	0.00
366.91	0.00
367.11	0.00
367.31	0.00
367.51	0.00
367.70	0.00
367.90	0.00
368.10	0.00
368.30	0.00
368.49	0.00
368.69	0.00
368.89	0.00
369.09	0.00
369.28	0.00
369.48	0.00
369.68	0.00
369.87	0.00
370.07	0.00
370.27	0.00
370.47	557.05
370.66	2986.52
370.86	3433.57
371.06	3763.58
371.25	3782.31
371.45	3508.46
371.65	3016.95
371.84	2881.20
372.04	3094.19
372.24	3463.99
372.44	3611.45
372.63	3522.51
372.83	3234.62
373.03	2869.50
373.22	2574.59
373.42	2775.88
373.62	3255.69
373.81	3485.06
374.01	3527.19
374.21	3103.55
374.40	2906.95
374.60	3056.74
374.79	3393.78
374.99	4049.13
375.19	4329.99
375.38	4222.33
375.58	4025.72
375.78	3976.57
375.97	4074.87
376.17	4329.99
376.37	4215.30
376.56	4266.80
376.76	4704.48
376.95	4734.90
377.15	5275.57
377.35	5383.23
377.54	5652.39
377.74	5708.57
377.93	5823.25
378.13	5792.83
378.33	5315.36
378.52	4788.74
378.72	4648.30
378.91	4566.39
379.11	4479.79
379.31	4425.95
379.50	4346.37
379.70	4786.40
379.89	5151.52
380.09	5394.93
380.28	5661.76
380.48	5657.07
380.68	5465.15
380.87	5455.79
381.07	4947.89
381.26	4524.26
381.46	4353.40
381.65	4294.88
381.85	4159.13
382.04	3899.33
382.24	3646.55
382.43	3459.31
382.63	3318.88
382.83	3358.67
383.02	3372.71
383.22	3428.88
383.41	3391.44
383.61	3716.77
383.80	4203.60
384.00	4613.20
384.19	5523.66
384.39	5685.16
384.58	5792.83
384.78	5495.58
384.97	5408.98
385.17	5071.94
385.36	4835.55
385.56	4725.54
385.75	4915.12
385.95	5338.76
386.14	5853.68
386.34	5963.68
386.53	5486.22
386.72	5259.18
386.92	5210.03
387.11	5259.18
387.31	5715.59
387.50	5659.42
387.70	5362.17
387.89	5432.38
388.09	5556.43
388.28	5577.50
388.48	5600.90
388.67	5963.68
388.86	6635.42
389.06	7103.53
389.25	7330.56
389.45	7503.76
389.64	7363.33
389.84	7506.10
390.03	7288.43
390.22	7255.66
390.42	7475.67
390.61	7974.21
390.81	8549.98
391.00	8627.21
391.19	8531.25
391.39	8163.79
391.58	7627.81
391.78	7311.83
391.97	7281.41
392.16	6862.45
392.36	5994.11
392.55	5076.62
392.75	3894.65
392.94	3112.91
393.13	3042.70
393.33	3679.32
393.52	4727.88
393.71	5839.64
393.91	6499.67
394.10	7185.44
394.29	7812.71
394.49	8638.92
394.68	9249.80
394.88	9078.94
395.07	9233.41
395.26	9294.27
395.46	9118.73
395.65	8414.23
395.84	7461.63
396.04	6347.53
396.23	5174.92
396.42	4201.26
396.62	4149.77
396.81	4793.42
397.00	6101.78
397.19	7569.29
397.39	9200.65
397.58	10136.86
397.77	10860.09
397.97	11382.03
398.16	11227.55
398.35	11768.21
398.55	12135.68
398.74	12727.83
398.93	12947.84
399.12	12585.06
399.32	12257.39
399.51	12615.49
399.70	13324.67
399.90	13245.09
400.09	13301.26
400.28	13224.03
400.47	13202.96
400.67	14106.41
400.86	14317.06
401.05	14071.30
401.24	14279.61
401.44	14555.79
401.63	14352.16
401.82	14778.14
402.01	14700.90
402.21	15077.73
402.40	15014.54
402.59	14516.00
402.78	13834.91
402.97	13357.44
403.17	13989.38
403.36	14841.34
403.55	15407.75
403.74	15812.66
403.93	14953.68
404.13	13823.20
404.32	13308.29
404.51	13968.32
404.70	15133.90
404.89	15133.90
405.09	14726.65
405.28	14604.94
405.47	14518.34
405.66	14106.41
405.85	14029.17
406.05	13699.16
406.24	14029.17
406.43	14429.40
406.62	14721.97
406.81	15257.95
407.00	14338.12
407.20	14281.95
407.39	14356.85
407.58	15101.14
407.77	15475.62
407.96	15857.13
408.15	16269.06
408.34	16341.62
408.54	17097.61
408.73	16762.92
408.92	16926.75
409.11	16688.02
409.30	15915.64
409.49	14726.65
409.68	14106.41
409.87	13312.97
410.07	14237.48
410.26	15295.40
410.45	16208.21
410.64	16592.06
410.83	17341.03
411.02	17521.25
411.21	18258.52
411.40	17930.84
411.59	18080.64
411.78	17977.65
411.98	17731.90
412.17	17975.31
412.36	17727.22
412.55	17930.84
412.74	17170.17
412.93	16830.79
413.12	17172.51
413.31	18871.74
413.50	19082.39
413.69	19084.73
413.88	18326.39
414.07	17898.08
414.26	18066.60
414.45	18960.68
414.64	18911.53
414.83	18913.87
415.02	18551.09
415.22	18443.42
415.41	19173.67
415.60	19470.92
415.79	20173.08
415.98	20793.32
416.17	20973.54
416.36	20205.84
416.55	20219.89
416.74	19468.58
416.93	18799.18
417.12	19035.58
417.31	19225.16
417.50	19623.05
417.69	20301.81
417.88	19763.48
418.07	19332.82
418.26	19389.00
418.45	19583.26
418.64	19934.34
418.83	20938.43
419.02	20790.98
419.21	20669.27
419.39	19695.61
419.58	18693.86
419.77	18738.33
419.96	19501.34
420.15	20898.64
420.34	21226.32
420.53	21837.20
420.72	22265.52
420.91	21968.27
421.10	21975.29
421.29	21975.29
421.48	21198.23
421.67	22324.03
421.86	21333.98
422.05	20250.32
422.24	17846.58
422.43	17596.15
422.61	19552.84
422.80	21022.69
422.99	21551.65
423.18	20444.58
423.37	20112.22
423.56	19990.52
423.75	20353.30
423.94	20805.02
424.13	19672.20
424.32	20070.09
424.50	20072.43
424.69	19719.01
424.88	19812.63
425.07	19903.92
425.26	19543.47
425.45	19793.91
425.64	19248.57
425.83	18899.83
426.01	20180.10
426.20	20961.84
426.39	20903.32
426.58	18984.09
426.77	17575.08
426.96	16982.93
427.15	17790.41
427.33	19241.54
427.52	19997.54
427.71	19552.84
427.90	19885.19
428.09	19613.69
428.28	19257.93
428.46	18302.99
428.65	18445.76
428.84	18490.23
429.03	19035.58
429.22	18171.92
429.40	16957.18
429.59	15545.84
429.78	13678.09
429.97	13862.99
430.16	13975.34
430.34	13820.86
430.53	13832.57
430.72	14298.33
430.91	15733.08
431.10	18635.35
431.28	21408.88
431.47	23440.47
431.66	23770.48
431.85	21881.67
432.03	20074.77
432.22	19098.77
432.41	19707.31
432.60	22256.15
432.79	23091.73
432.97	23644.09
433.16	22801.50
433.35	21043.76
433.54	18714.92
433.72	17818.50
433.91	18087.66
434.10	20449.26
434.28	21921.46
434.47	23051.94
434.66	22761.71
434.85	22066.57
435.03	21944.86
435.22	22305.31
435.41	24046.66
435.59	23934.32
435.78	24130.92
435.97	24800.32
436.16	25216.93
436.34	24395.40
436.53	24032.62
436.72	24053.69
436.90	23103.43
437.09	22850.65
437.28	22277.22
437.46	22869.37
437.65	22991.08
437.84	21371.43
438.02	19850.08
438.21	19531.77
438.40	20662.25
438.58	22630.64
438.77	23445.15
438.96	23304.71
439.14	24161.35
439.33	24821.38
439.52	25493.12
439.70	24755.85
439.89	24011.56
440.08	23587.92
440.26	23487.28
440.45	24245.61
440.63	25755.26
440.82	27239.15
441.01	26759.34
441.19	26483.16
441.38	26918.50
441.57	28060.68
441.75	28491.34
441.94	28641.14
442.12	28194.09
442.31	28725.39
442.50	28423.47
442.68	28318.14
442.87	28142.60
443.05	27946.00
443.24	28002.17
443.43	28730.08
443.61	29397.13
443.80	29755.23
443.98	27655.77
444.17	27857.06
444.35	29633.52
444.54	30136.74
444.73	29369.04
444.91	28430.49
445.10	27594.92
445.28	26057.18
445.47	25743.55
445.65	26143.78
445.84	26937.23
446.02	27307.03
446.21	27644.07
446.39	27931.95
446.58	28264.31
446.77	28676.24
446.95	28886.89
447.14	30122.69
447.32	30148.44
447.51	29500.11
447.69	28978.17
447.88	28002.17
448.06	28566.24
448.25	29338.62
448.43	29729.48
448.62	28856.46
448.80	28648.16
448.99	28907.96
449.17	29303.51
449.36	29172.44
449.54	30120.35
449.73	30796.77
449.91	30998.06
450.10	31971.72
450.28	32481.95
450.46	32292.37
450.65	32561.53
450.83	32039.59
451.02	30911.46
451.20	31007.42
451.39	30948.90
451.57	30899.75
451.76	30984.01
451.94	30698.47
452.13	30015.03
452.31	28498.36
452.49	27281.28
452.68	27924.93
452.86	27957.70
453.05	27960.04
453.23	28938.38
453.42	29582.03
453.60	30199.93
453.78	30799.11
453.97	30122.69
454.15	30235.04
454.34	29483.73
454.52	29982.26
454.70	29177.12
454.89	29237.97
455.07	30174.19
455.26	30246.74
455.44	31178.28
455.62	31913.20
455.81	31672.13
455.99	31229.77
456.17	31213.38
456.36	31206.36
456.54	32053.64
456.73	32205.77
456.91	32580.26
457.09	33013.26
457.28	33628.82
457.46	32484.30
457.64	32219.81
457.83	31356.16
458.01	30279.51
458.19	30984.01
458.38	31875.76
458.56	32336.84
458.74	32460.89
458.93	31494.25
459.11	31737.66
459.29	31573.83
459.48	31630.00
459.66	30911.46
459.84	31885.12
460.03	32088.74
460.21	32465.57
460.39	32573.24
460.57	32587.28
460.76	33413.49
460.94	33488.38
461.12	33156.03
461.31	32786.22
461.49	32547.49
461.67	33235.61
461.85	34223.31
462.04	33563.28
462.22	33759.89
462.40	34068.84
462.59	33914.36
462.77	33544.56
462.95	33727.12
463.13	33296.46
463.32	33088.15
463.50	32985.17
463.68	33069.43
463.86	32924.32
464.05	32517.06
464.23	31622.98
464.41	31864.05
464.59	31131.47
464.78	32496.00
464.96	32891.55
465.14	32505.36
465.32	33116.24
465.50	33825.42
465.69	34522.90
465.87	33406.47
466.05	32371.95
466.23	31304.67
466.41	30398.88
466.60	31187.64
466.78	31283.60
466.96	31871.07
467.14	32643.45
467.32	32769.84
467.51	32989.85
467.69	31601.91
467.87	31983.42
468.05	32378.97
468.23	32531.11
468.41	32556.85
468.60	32837.72
468.78	33116.24
468.96	32170.66
469.14	33378.38
469.32	33200.50
469.50	31997.46
469.69	32327.48
469.87	31704.90
470.05	31793.84
470.23	31367.86
470.41	31697.88
470.59	31908.52
470.77	32325.14
470.95	33207.52
471.14	33015.60
471.32	33699.03
471.50	35545.72
471.68	34857.60
471.86	36048.93
472.04	35786.79
472.22	36208.09
472.40	34101.61
472.58	33883.94
472.77	33504.77
472.95	34319.28
473.13	35185.27
473.31	33862.87
473.49	34417.58
473.67	35049.52
473.85	35166.55
474.03	35992.76
474.21	35920.20
474.39	36002.12
474.57	36790.88
474.75	36744.07
474.93	36282.98
475.12	35892.12
475.30	35257.83
475.48	35845.30
475.66	35936.59
475.84	35913.18
476.02	35683.81
476.20	34738.23
476.38	35461.46
476.56	36404.69
476.74	36833.01
476.92	37869.87
477.10	38206.90
477.28	39021.41
477.46	38962.90
477.64	39746.98
477.82	39407.60
478.00	39779.74
478.18	39026.09
478.36	38883.32
478.54	39267.17
478.72	39351.43
478.90	40233.81
479.08	41495.36
479.26	41631.11
479.44	41783.24
479.62	41151.30
479.80	40921.93
479.98	41448.55
480.16	41818.35
480.34	41261.30
480.52	41687.28
480.70	42019.64
480.88	42005.59
481.06	42604.77
481.24	42808.40
481.41	43707.16
481.59	44577.84
481.77	44062.93
481.95	43819.51
482.13	42979.26
482.31	43508.22
482.49	43880.36
482.67	43908.45
482.85	44203.36
483.03	45170.00
483.21	45034.25
483.39	45043.61
483.57	44411.67
483.74	44128.46
483.92	44301.66
484.10	44610.61
484.28	45677.90
484.46	46506.44
484.64	46492.40
484.82	45118.51
485.00	45097.44
485.18	44538.05
485.35	42974.58
485.53	40016.14
485.71	36479.59
485.89	35807.86
486.07	37471.98
486.25	40957.03
486.43	43370.13
486.61	43580.78
486.78	43824.19
486.96	43831.21
487.14	45502.35
487.32	46829.44
487.50	47377.12
487.68	48662.08
487.85	49113.80
488.03	49366.58
488.21	48898.47
488.39	47758.63
488.57	47192.22
488.75	46969.87
488.92	48053.54
489.10	50529.83
489.28	51578.39
489.46	52360.12
489.64	52112.03
489.81	52479.49
489.99	52388.21
490.17	51920.10
490.35	52587.16
490.53	52121.39
490.70	51760.95
490.88	51269.43
491.06	52526.30
491.24	52170.54
491.41	51288.16
491.59	49258.91
491.77	48669.10
491.95	50019.59
492.13	51379.44
492.30	52332.04
492.48	53521.03
492.66	53911.90
492.84	53923.60
493.01	53521.03
493.19	52989.73
493.37	52664.39
493.54	52708.86
493.72	52945.26
493.90	54323.83
494.08	54845.77
494.25	55309.20
494.43	55351.33
494.61	55657.94
494.79	55978.59
494.96	55615.81
495.14	55222.60
495.32	54010.20
495.49	53343.15
495.67	54508.74
495.85	55634.53
496.02	56069.87
496.20	56296.91
496.38	55569.00
496.55	55554.96
496.73	56086.26
496.91	55924.76
497.09	56718.20
497.26	56741.61
497.44	56250.09
497.62	55618.15
497.79	55096.21
497.97	53745.72
498.14	53911.90
498.32	54834.07
498.50	55814.76
498.67	56526.28
498.85	56484.15
499.03	56509.89
499.20	56797.78
499.38	56846.93
499.56	56626.92
499.73	56301.59
499.91	55929.44
500.08	55327.92
500.26	54557.89
500.44	55150.04
500.61	55824.12
500.79	55585.38
500.97	55105.57
501.14	54937.05
501.32	54937.05
501.49	54944.08
501.67	55260.05
501.84	55966.89
502.02	55964.55
502.20	56020.72
502.37	56423.29
502.55	56371.80
502.72	57022.47
502.90	57076.30
503.07	57106.73
503.25	56516.92
503.43	56032.42
503.60	55011.95
503.78	54267.66
503.95	55021.31
504.13	56435.00
504.30	57041.20
504.48	56942.89
504.65	56718.20
504.83	56697.14
505.01	57457.81
505.18	57322.06
505.36	58127.20
505.53	58152.95
505.71	58372.96
505.88	58658.51
506.06	57733.99
506.23	57794.85
506.41	56978.00
506.58	57684.84
506.76	57364.19
506.93	57371.21
507.11	57017.79
507.28	57181.63
507.46	56823.53
507.63	56245.41
507.81	56154.13
507.98	56427.98
508.16	57317.38
508.33	57513.98
508.50	57942.30
508.68	58223.17
508.85	58740.42
509.03	58614.04
509.20	58635.10
509.38	57778.46
509.55	57041.20
509.73	57008.43
509.90	57570.16
510.08	58082.73
510.25	57612.29
510.42	57492.92
510.60	57602.92
510.77	57916.56
510.95	58225.51
511.12	58363.60
511.30	58756.81
511.47	59000.22
511.64	59040.01
511.82	58621.06
511.99	57790.17
512.17	57443.77
512.34	56683.09
512.51	57195.67
512.69	57160.56
512.86	57474.20
513.04	58117.84
513.21	57949.32
513.38	57673.14
513.56	57099.71
513.73	56172.86
513.90	56697.14
514.08	56720.54
514.25	57263.55
514.43	57022.47
514.60	57214.40
514.77	57317.38
514.95	57528.03
515.12	57719.95
515.29	57726.97
515.47	58087.42
515.64	58258.27
515.81	58003.16
515.99	57474.20
516.16	56231.37
516.33	53628.69
516.51	52093.30
516.68	51351.35
516.85	50873.88
517.03	51573.70
517.20	54052.33
517.37	56477.13
517.54	57502.28
517.72	57277.59
517.89	54480.65
518.06	52109.69
518.24	52474.81
518.41	54880.88
518.58	55896.67
518.75	56257.12
518.93	56383.51
519.10	56268.82
519.27	56851.61
519.45	57165.24
519.62	57614.63
519.79	58218.49
519.96	58003.16
520.14	57434.41
520.31	56743.95
520.48	56633.94
520.65	56975.66
520.83	57834.64
521.00	58377.64
521.17	57865.06
521.34	57565.48
521.52	57804.21
521.69	58293.38
521.86	58719.36
522.03	58450.20
522.20	57209.71
522.38	56308.61
522.55	56177.54
522.72	56905.44
522.89	57066.94
523.07	57181.63
523.24	57551.43
523.41	58658.51
523.58	58773.19
523.75	59110.23
523.92	58798.94
524.10	58953.41
524.27	58597.65
524.44	58714.68
524.61	58379.98
524.78	58216.14
524.96	58258.27
525.13	58145.93
525.30	58258.27
525.47	58965.12
525.64	58958.09
525.81	58178.70
525.98	56774.37
526.16	55412.18
526.33	54459.58
526.50	54372.99
526.67	53972.75
526.84	54511.08
527.01	55466.02
527.18	56196.26
527.36	57261.21
527.53	58328.49
527.70	58506.37
527.87	57879.11
528.04	57392.28
528.21	57939.96
528.38	58457.22
528.55	59016.61
528.72	59267.05
528.89	59550.25
529.07	59206.19
529.24	58513.39
529.41	57757.40
529.58	57312.70
529.75	57237.80
529.92	57923.58
530.09	58204.44
530.26	58754.47
530.43	58946.39
530.60	58958.09
530.77	59241.30
530.94	59302.15
531.11	58892.56
531.28	58478.28
531.46	58190.40
531.63	58489.99
531.80	58340.19
531.97	57902.51
532.14	57069.28
532.31	56308.61
532.48	55618.15
532.65	55671.98
532.82	56388.19
532.99	57551.43
533.16	57874.43
533.33	58408.07
533.50	58300.40
533.67	57872.09
533.84	57303.34
534.01	57415.68
534.18	57705.91
534.35	57759.74
534.52	57563.14
534.69	57708.25
534.86	58202.10
535.03	58426.79
535.20	58869.15
535.37	59245.98
535.54	59421.52
535.71	58918.31
535.88	58803.62
536.05	57858.04
536.22	57701.23
536.38	57251.84
536.55	56914.81
536.72	56231.37
536.89	56172.86
537.06	57078.64
537.23	58010.18
537.40	58204.44
537.57	58192.74
537.74	57846.34
537.91	57841.66
538.08	57581.86
538.25	57993.79
538.42	57799.53
538.59	57949.32
538.75	57378.23
538.92	56987.36
539.09	57083.33
539.26	56498.19
539.43	56264.14
539.60	56444.36
539.77	56629.26
539.94	56917.15
540.11	55613.47
540.28	55512.83
540.44	55522.19
540.61	55702.41
540.78	55868.59
540.95	56439.68
541.12	56788.42
541.29	57017.79
541.46	57254.18
541.62	57244.82
541.79	57261.21
541.96	56746.29
542.13	56554.36
542.30	56692.46
542.47	56882.04
542.63	56669.05
542.80	56645.65
542.97	56802.46
543.14	56533.30
543.31	56486.49
543.48	56910.13
543.64	57977.41
543.81	58143.59
543.98	57970.39
544.15	57441.43
544.32	56669.05
544.48	56741.61
544.65	57408.66
544.82	57567.82
544.99	57183.97
545.16	57052.90
545.32	56369.46
545.49	57485.90
545.66	57818.25
545.83	57640.37
546.00	57118.43
546.16	56659.69
546.33	57088.01
546.50	56842.25
546.67	57282.27
546.83	56839.91
547.00	56970.98
547.17	56128.39
547.34	55463.67
547.50	55522.19
547.67	56128.39
547.84	55917.74
548.00	56629.26
548.17	56844.59
548.34	56870.34
548.51	56837.57
548.67	56935.87
548.84	56774.37
549.01	56804.80
549.18	56669.05
549.34	56816.50
549.51	56886.72
549.68	56624.58
549.84	56474.79
550.01	56313.29
550.18	56140.09
550.34	56507.55
550.51	56306.27
550.68	56566.07
550.84	55824.12
551.01	55927.10
551.18	55770.28
551.34	56121.37
551.51	56488.83
551.68	56823.53
551.84	56685.43
552.01	56612.88
552.18	56519.26
552.34	55714.11
552.51	55054.08
552.68	55161.75
552.84	55674.32
553.01	56203.28
553.18	56055.83
553.34	55934.12
553.51	55938.80
553.67	56523.94
553.84	56683.09
554.01	56266.48
554.17	56156.47
554.34	56182.22
554.51	56385.85
554.67	56647.99
554.84	56280.52
555.00	56065.19
555.17	55753.90
555.33	55936.46
555.50	55828.80
555.67	55978.59
555.83	55711.77
556.00	55276.43
556.16	55515.17
556.33	55016.63
556.50	55000.25
556.66	55042.38
556.83	54387.03
556.99	54892.58
557.16	54784.92
557.32	55215.58
557.49	55564.32
557.65	55316.22
557.82	55416.86
557.98	55126.64
558.15	54731.09
558.32	53734.02
558.48	53017.82
558.65	53162.93
558.81	53677.85
558.98	53776.15
559.14	54094.46
559.31	54298.09
559.47	54475.97
559.64	54005.52
559.80	53478.90
559.97	53408.68
560.13	53989.14
560.30	55107.91
560.46	55356.01
560.63	55604.11
560.79	55840.50
560.96	55353.67
561.12	54302.77
561.29	53134.84
561.45	53200.38
561.61	54005.52
561.78	54270.00
561.94	54178.72
562.11	53991.48
562.27	53991.48
562.44	54204.47
562.60	54485.33
562.77	54660.87
562.93	54567.25
563.10	54665.55
563.26	54080.42
563.42	53954.03
563.59	53577.20
563.75	53649.76
563.92	53900.20
564.08	53619.33
564.24	54171.70
564.41	54277.02
564.57	53801.89
564.74	53598.27
564.90	53984.46
565.07	53514.01
565.23	53104.41
565.39	52755.68
565.56	52282.89
565.72	52212.67
565.88	52435.02
566.05	52758.02
566.21	52863.34
566.38	52818.87
566.54	53090.37
566.70	53439.11
566.87	54080.42
567.03	53860.41
567.19	54227.87
567.36	53834.66
567.52	53439.11
567.68	53179.31
567.85	52669.08
568.01	52196.29
568.17	51562.00
568.34	52095.64
568.50	51634.56
568.66	51957.55
568.83	52236.08
568.99	52320.34
569.15	52435.02
569.32	52353.10
569.48	51971.60
569.64	52250.12
569.81	51482.42
569.97	51449.66
570.13	51477.74
570.30	51063.47
570.46	50630.47
570.62	49521.05
570.78	49598.29
570.95	50316.84
571.11	50972.19
571.27	51028.36
571.43	51377.10
571.60	51805.42
571.76	51849.89
571.92	52254.80
572.09	52463.11
572.25	51973.94
572.41	52268.84
572.57	52357.78
572.74	51674.35
572.90	51517.53
573.06	51611.15
573.22	51922.44
573.38	51952.87
573.55	51852.23
573.71	51915.42
573.87	51566.68
574.03	51466.04
574.20	51407.53
574.36	50939.42
574.52	51136.02
574.68	50981.55
574.84	50426.84
575.01	49825.32
575.17	49579.57
575.33	49551.48
575.49	50412.80
575.65	50471.31
575.82	50150.66
575.98	49925.97
576.14	50248.96
576.30	50632.81
576.46	50691.32
576.62	50665.58
576.79	50653.87
576.95	50129.59
577.11	50127.25
577.27	50401.10
577.43	50335.56
577.59	49822.98
577.75	49485.95
577.92	48540.37
578.08	48470.15
578.24	48645.69
578.40	48701.87
578.56	49270.62
578.72	49118.48
578.88	49560.84
579.04	49504.67
579.21	49783.19
579.37	49755.11
579.53	49785.54
579.69	49762.13
579.85	50019.59
580.01	49986.82
580.17	49329.13
580.33	49364.24
580.49	49272.96
580.65	49743.41
580.82	49794.90
580.98	49778.51
581.14	49956.39
581.30	49837.03
581.46	49450.84
581.62	49935.33
581.78	49918.95
581.94	50295.77
582.10	49783.19
582.26	50019.59
582.42	49956.39
582.58	49766.81
582.74	50040.65
582.90	50040.65
583.06	49769.15
583.22	49656.81
583.38	49549.14
583.54	49099.76
583.70	49708.30
583.86	49397.01
584.02	49404.03
584.18	49638.08
584.34	49406.37
584.50	49399.35
584.66	49244.87
584.82	48673.78
584.98	48481.86
585.14	47807.78
585.30	47327.97
