SpectraSuite Data File
++++++++++++++++++++++++++++++++++++
Date: Mon Oct 07 14:53:40 GMT-05:00 2013
User: price-jones
Dark Spectrum Present: No
Reference Spectrum Present: No
Number of Sampled Component Spectra: 1
Spectrometers: USB2+H05261
Integration Time (usec): 100000 (USB2+H05261)
Spectra Averaged: 1 (USB2+H05261)
Boxcar Smoothing: 0 (USB2+H05261)
Correct for Electrical Dark: No (USB2+H05261)
Strobe/Lamp Enabled: No (USB2+H05261)
Correct for Detector Non-linearity: No (USB2+H05261)
Correct for Stray Light: No (USB2+H05261)
Number of Pixels in Processed Spectrum: 2048
>>>>>Begin Processed Spectral Data<<<<<
365.73	0.00
365.92	0.00
366.12	0.00
366.32	0.00
366.52	0.00
366.72	0.00
366.91	0.00
367.11	0.00
367.31	0.00
367.51	0.00
367.70	0.00
367.90	0.00
368.10	0.00
368.30	0.00
368.49	0.00
368.69	0.00
368.89	0.00
369.09	0.00
369.28	0.00
369.48	0.00
369.68	0.00
369.87	0.00
370.07	0.00
370.27	0.00
370.47	285.55
370.66	1935.62
370.86	2443.52
371.06	2492.67
371.25	2736.09
371.45	2291.38
371.65	2036.27
371.84	1849.02
372.04	2080.74
372.24	2293.72
372.44	2420.11
372.63	2436.50
372.83	2328.83
373.03	1949.67
373.22	1809.23
373.42	1888.81
373.62	2188.40
373.81	2413.09
374.01	2504.37
374.21	2148.61
374.40	1996.48
374.60	2029.24
374.79	2469.27
374.99	2902.26
375.19	2888.22
375.38	2984.18
375.58	2818.00
375.78	2803.96
375.97	2796.94
376.17	2869.50
376.37	2813.32
376.56	2963.12
376.76	3185.47
376.95	3288.45
377.15	3613.79
377.35	3705.07
377.54	3946.14
377.74	3985.93
377.93	4060.83
378.13	3723.79
378.33	3637.19
378.52	3428.88
378.72	3236.96
378.91	3281.43
379.11	3185.47
379.31	2995.89
379.50	3045.04
379.70	3180.79
379.89	3510.80
380.09	3854.86
380.28	4016.36
380.48	4039.76
380.68	3857.20
380.87	3852.52
381.07	3485.06
381.26	3248.66
381.46	3047.38
381.65	2977.16
381.85	2902.26
382.04	2682.25
382.24	2347.56
382.43	2275.00
382.63	2265.64
382.83	2305.43
383.02	2471.61
383.22	2434.16
383.41	2417.77
383.61	2487.99
383.80	2930.35
384.00	3286.11
384.19	3705.07
384.39	3932.10
384.58	3882.95
384.78	3878.27
384.97	3765.92
385.17	3709.75
385.36	3482.72
385.56	3190.15
385.75	3361.01
385.95	3794.01
386.14	4093.60
386.34	4032.74
386.53	3901.67
386.72	3548.25
386.92	3566.98
387.11	3817.41
387.31	3974.23
387.50	4095.94
387.70	3791.67
387.89	3810.39
388.09	3868.91
388.28	3768.26
388.48	3999.98
388.67	4219.99
388.86	4512.55
389.06	4947.89
389.25	5376.21
389.45	5355.15
389.64	5149.18
389.84	5104.71
390.03	5125.77
390.22	5104.71
390.42	5343.44
390.61	5584.52
390.81	5900.49
391.00	6083.05
391.19	6230.51
391.39	5685.16
391.58	5483.88
391.78	5214.71
391.97	4985.34
392.16	4589.79
392.36	4259.78
392.55	3377.39
392.75	2729.06
392.94	2132.23
393.13	2195.42
393.33	2560.55
393.52	3316.54
393.71	4030.40
393.91	4603.83
394.10	5104.71
394.29	5493.24
394.49	5907.51
394.68	6466.90
394.88	6497.33
395.07	6717.34
395.26	6703.29
395.46	6352.21
395.65	5951.98
395.84	5217.05
396.04	4507.87
396.23	3590.38
396.42	3068.44
396.62	2918.65
396.81	3431.23
397.00	4294.88
397.19	5383.23
397.39	6551.16
397.58	7138.63
397.77	7648.87
397.97	8184.85
398.16	8116.98
398.35	8517.21
398.55	8690.41
398.74	9097.66
398.93	9397.25
399.12	8990.00
399.32	8620.19
399.51	8950.21
399.70	9582.15
399.90	9334.06
400.09	9554.07
400.28	9331.72
400.47	9502.58
400.67	9937.91
400.86	10225.80
401.05	10176.65
401.24	10256.23
401.44	10436.45
401.63	10499.64
401.82	10408.36
402.01	10314.74
402.21	10462.19
402.40	10616.67
402.59	10335.81
402.78	9977.70
402.97	9621.94
403.17	9916.85
403.36	10572.20
403.55	10960.73
403.74	10984.13
403.93	10520.71
404.13	9715.56
404.32	9453.42
404.51	10125.16
404.70	10867.11
404.89	10815.62
405.09	10719.65
405.28	10333.47
405.47	10326.44
405.66	10214.10
405.85	10066.64
406.05	9762.37
406.24	9856.00
406.43	10279.63
406.62	10560.50
406.81	10869.45
407.00	10483.26
407.20	10148.56
407.39	10537.09
407.58	10621.35
407.77	11143.29
407.96	11428.84
408.15	11489.69
408.34	11747.15
408.54	12056.10
408.73	12327.60
408.92	12119.29
409.11	11681.61
409.30	11122.23
409.49	10539.43
409.68	9830.25
409.87	9565.77
410.07	9921.53
410.26	11047.33
410.45	11545.86
410.64	11857.15
410.83	12196.53
411.02	12615.49
411.21	13083.59
411.40	12950.18
411.59	12781.67
411.78	12835.50
411.98	12601.44
412.17	12886.99
412.36	12744.22
412.55	12830.82
412.74	12468.03
412.93	12149.72
413.12	12353.35
413.31	13348.08
413.50	13710.86
413.69	13762.35
413.88	13312.97
414.07	12659.96
414.26	13099.98
414.45	13528.30
414.64	13708.52
414.83	13802.14
415.02	13329.35
415.22	13603.19
415.41	13516.59
415.60	14090.02
415.79	14616.65
415.98	14834.32
416.17	14956.02
416.36	14441.11
416.55	14471.53
416.74	14064.28
416.93	13558.72
417.12	13481.49
417.31	13708.52
417.50	13774.05
417.69	14251.52
417.88	14583.88
418.07	14279.61
418.26	13895.76
418.45	14267.91
418.64	14724.31
418.83	15098.80
419.02	15246.25
419.21	14740.69
419.39	14363.87
419.58	13348.08
419.77	13467.44
419.96	13872.36
420.15	15037.94
420.34	15314.13
420.53	15999.90
420.72	16187.14
420.91	16376.73
421.10	15815.00
421.29	15786.91
421.48	15300.08
421.67	15990.54
421.86	15527.11
422.05	14604.94
422.24	12950.18
422.43	12947.84
422.61	14132.15
422.80	15143.27
422.99	15463.92
423.18	14890.49
423.37	14595.58
423.56	14422.38
423.75	14771.12
423.94	15103.48
424.13	14438.76
424.32	14459.83
424.50	14616.65
424.69	14305.35
424.88	14237.48
425.07	14324.08
425.26	14359.19
425.45	14150.88
425.64	13923.85
425.83	13837.25
426.01	14810.91
426.20	15009.86
426.39	15070.71
426.58	13994.06
426.77	12966.57
426.96	12657.62
427.15	12849.54
427.33	13977.68
427.52	14501.96
427.71	14523.02
427.90	14462.17
428.09	14295.99
428.28	13734.26
428.46	13624.26
428.65	13319.99
428.84	13415.95
429.03	14104.07
429.22	13437.02
429.40	12648.26
429.59	11466.28
429.78	10036.22
429.97	9970.68
430.16	10260.91
430.34	10207.08
430.53	10155.58
430.72	10403.68
430.91	11602.04
431.10	13734.26
431.28	16027.99
431.47	17139.74
431.66	17617.21
431.85	16013.95
432.03	14544.09
432.22	13830.23
432.41	14480.89
432.60	16231.62
432.79	16776.96
432.97	17057.82
433.16	16734.83
433.35	15279.02
433.54	14015.13
433.72	12821.45
433.91	13261.48
434.10	14930.28
434.28	15967.13
434.47	16840.15
434.66	16554.61
434.85	16255.02
435.03	16009.26
435.22	16688.02
435.41	17539.97
435.59	17874.67
435.78	17825.52
435.97	18321.71
436.16	18324.05
436.34	18082.98
436.53	17556.36
436.72	17642.96
436.90	16655.25
437.09	16657.59
437.28	16142.67
437.46	16966.54
437.65	16994.63
437.84	15887.56
438.02	14860.06
438.21	14476.21
438.40	15005.17
438.58	16765.26
438.77	17013.35
438.96	17289.54
439.14	18174.26
439.33	18183.62
439.52	18752.37
439.70	18368.52
439.89	17738.92
440.08	17432.31
440.26	17406.56
440.45	17982.34
440.63	18920.89
440.82	20072.43
441.01	19812.63
441.19	19641.78
441.38	19999.88
441.57	20662.25
441.75	20634.16
441.94	20975.88
442.12	20823.75
442.31	21223.98
442.50	21160.78
442.68	21003.97
442.87	20807.36
443.05	20348.62
443.24	20945.45
443.43	20947.79
443.61	21724.85
443.80	21818.47
443.98	20372.02
444.17	20388.41
444.35	22192.96
444.54	22169.55
444.73	21727.19
444.91	21128.02
445.10	20175.42
445.28	19616.03
445.47	19136.22
445.65	19278.99
445.84	19812.63
446.02	20470.33
446.21	20704.38
446.39	20631.82
446.58	20821.41
446.77	21277.81
446.95	21640.59
447.14	22279.56
447.32	22623.62
447.51	22136.79
447.69	21064.82
447.88	20767.57
448.06	20966.52
448.25	21748.26
448.43	21912.10
448.62	21741.24
448.80	20903.32
448.99	21383.13
449.17	21460.37
449.36	21610.17
449.54	22532.34
449.73	22691.49
449.91	23133.86
450.10	23908.57
450.28	24496.05
450.46	23887.51
450.65	24575.62
450.83	23667.50
451.02	22944.27
451.20	23000.44
451.39	22796.82
451.57	23087.04
451.76	22967.68
451.94	22623.62
452.13	22405.95
452.31	21666.34
452.49	20369.68
452.68	20849.49
452.86	20929.07
453.05	20872.90
453.23	21570.38
453.42	22057.21
453.60	22618.94
453.78	22960.66
453.97	22553.40
454.15	23007.47
454.34	22307.65
454.52	22443.40
454.70	21759.96
454.89	22249.13
455.07	22225.73
455.26	22721.92
455.44	23271.95
455.62	23814.95
455.81	23878.15
455.99	24046.66
456.17	23517.70
456.36	23594.94
456.54	23737.71
456.73	24137.94
456.91	24594.35
457.09	24730.10
457.28	25163.10
457.46	24278.38
457.64	24023.26
457.83	23234.50
458.01	23019.17
458.19	23332.80
458.38	23737.71
458.56	24521.79
458.74	24166.03
458.93	23697.92
459.11	23983.47
459.29	23564.51
459.48	23716.65
459.66	23445.15
459.84	23611.32
460.03	24226.89
460.21	24240.93
460.39	24542.86
460.57	25032.03
460.76	25340.98
460.94	25324.60
461.12	24910.32
461.31	24624.78
461.49	25008.62
461.67	24748.82
461.85	25755.26
462.04	25458.01
462.22	26150.81
462.40	25453.33
462.59	25245.02
462.77	25675.68
462.95	25610.14
463.13	25366.73
463.32	24706.70
463.50	24840.11
463.68	24503.07
463.86	24496.05
464.05	24467.96
464.23	23850.06
464.41	23875.80
464.59	23445.15
464.78	24535.84
464.96	24498.39
465.14	24116.88
465.32	24884.58
465.50	25542.27
465.69	25254.38
465.87	25142.03
466.05	24512.43
466.23	23269.61
466.41	22850.65
466.60	23468.55
466.78	23250.88
466.96	23644.09
467.14	24081.77
467.32	24727.76
467.51	25146.72
467.69	23571.54
467.87	24123.90
468.05	24397.74
468.23	24315.83
468.41	24886.92
468.60	24477.32
468.78	24987.56
468.96	24444.56
469.14	25123.31
469.32	24875.21
469.50	23786.86
469.69	24247.95
469.87	23838.36
470.05	23697.92
470.23	23770.48
470.41	23920.28
470.59	24144.97
470.77	24673.93
470.95	24751.17
471.14	25017.99
471.32	25092.88
471.50	26747.64
471.68	26625.93
471.86	26780.41
472.04	27037.87
472.22	26993.40
472.40	25640.57
472.58	25617.16
472.77	25221.61
472.95	25680.36
473.13	26991.06
473.31	26047.82
473.49	25989.31
473.67	26490.18
473.85	26572.10
474.03	27342.14
474.21	27473.21
474.39	27765.78
474.57	27882.80
474.75	27906.21
474.93	27297.67
475.12	27110.43
475.30	27309.37
475.48	26782.75
475.66	27573.85
475.84	27543.42
476.02	26661.04
476.20	26375.50
476.38	27260.22
476.56	27812.59
476.74	28158.99
476.92	28088.77
477.10	28793.27
477.28	29851.19
477.46	29598.41
477.64	29862.90
477.82	30356.75
478.00	30125.04
478.18	29621.82
478.36	29380.74
478.54	29780.98
478.72	30059.50
478.90	30286.53
479.08	31180.62
479.26	31812.56
479.44	31718.94
479.62	31236.79
479.80	31683.83
479.98	31431.05
480.16	31962.36
480.34	31639.36
480.52	32046.62
480.70	31828.95
480.88	32273.65
481.06	33027.30
481.24	32921.98
481.41	33514.13
481.59	34520.56
481.77	33809.04
481.95	33542.22
482.13	33284.76
482.31	33483.70
482.49	33965.85
482.67	33933.09
482.85	34230.33
483.03	34593.12
483.21	34824.83
483.39	34838.87
483.57	34265.44
483.74	34319.28
483.92	34075.86
484.10	34440.98
484.28	35140.80
484.46	35976.37
484.64	36072.34
484.82	35131.44
485.00	34972.28
485.18	34010.32
485.35	33024.96
485.53	30579.10
485.71	27735.35
485.89	27386.61
486.07	28875.19
486.25	31246.15
486.43	33589.03
486.61	34066.50
486.78	33844.15
486.96	34239.70
487.14	35360.81
487.32	36273.62
487.50	37062.38
487.68	38288.82
487.85	38532.24
488.03	38899.70
488.21	38525.22
488.39	37397.08
488.57	37132.60
488.75	36603.64
488.92	37865.19
489.10	39894.43
489.28	41816.01
489.46	42433.91
489.64	42284.12
489.81	42930.11
489.99	42106.24
490.17	41738.77
490.35	42480.72
490.53	41827.71
490.70	41748.14
490.88	41488.34
491.06	42490.09
491.24	42328.59
491.41	41418.12
491.59	39264.83
491.77	38499.47
491.95	39555.05
492.13	41048.32
492.30	42843.51
492.48	43943.56
492.66	44552.10
492.84	44601.25
493.01	44549.76
493.19	43613.54
493.37	42965.21
493.54	42387.10
493.72	44072.29
493.90	44844.66
494.08	45736.41
494.25	46014.93
494.43	46424.53
494.61	46880.93
494.79	47524.58
494.96	46494.74
495.14	45979.82
495.32	44985.10
495.49	43992.71
495.67	45406.39
495.85	47105.62
496.02	47728.20
496.20	47370.10
496.38	47264.78
496.55	46813.05
496.73	47313.93
496.91	47828.85
497.09	48472.49
497.26	48875.07
497.44	47807.78
497.62	47468.40
497.79	46354.31
497.97	44460.82
498.14	44722.96
498.32	46010.25
498.50	46997.96
498.67	48472.49
498.85	47929.49
499.03	48261.85
499.20	48540.37
499.38	48498.24
499.56	48200.99
499.73	47594.79
499.91	47175.84
500.08	46670.28
500.26	45769.18
500.44	46401.12
500.61	47599.47
500.79	46586.02
500.97	46731.14
501.14	46366.01
501.32	45776.20
501.49	46253.67
501.67	46227.92
501.84	47023.70
502.02	47557.35
502.20	48088.65
502.37	48362.49
502.55	47807.78
502.72	49134.87
502.90	49673.19
503.07	49261.26
503.25	48177.59
503.43	47267.12
503.60	46588.36
503.78	45968.12
503.95	46232.60
504.13	48060.56
504.30	49418.07
504.48	49083.37
504.65	48575.48
504.83	48271.21
505.01	49441.48
505.18	50241.94
505.36	50672.60
505.53	50974.53
505.71	50995.59
505.88	51051.76
506.06	50358.97
506.23	49811.28
506.41	49404.03
506.58	49762.13
506.76	49986.82
506.93	49198.06
507.11	49319.77
507.28	49373.60
507.46	48814.21
507.63	48222.06
507.81	47964.60
507.98	48172.91
508.16	49085.72
508.33	49897.88
508.50	50607.06
508.68	50595.36
508.85	51267.09
509.03	51129.00
509.20	51161.77
509.38	50057.04
509.55	49366.58
509.73	49205.08
509.90	50284.07
510.08	50431.52
510.25	50230.24
510.42	50035.97
510.60	50057.04
510.77	50337.90
510.95	51110.28
511.12	51248.37
511.30	51522.21
511.47	51889.68
511.64	52002.02
511.82	51320.93
511.99	50075.76
512.17	49773.83
512.34	49448.50
512.51	49661.49
512.69	49560.84
512.86	49975.12
513.04	50637.49
513.21	50529.83
513.38	49996.18
513.56	49408.71
513.73	48491.22
513.90	48861.02
514.08	48961.67
514.25	49326.79
514.43	49614.68
514.60	49652.12
514.77	50155.34
514.95	50361.31
515.12	49640.42
515.29	49989.16
515.47	50820.05
515.64	51089.21
515.81	50576.64
515.99	49942.35
516.16	47924.81
516.33	44652.74
516.51	43051.81
516.68	41617.07
516.85	41567.91
517.03	41762.18
517.20	45352.56
517.37	48760.38
517.54	50082.78
517.72	49631.06
517.89	46202.18
518.06	42679.67
518.24	43346.72
518.41	46094.51
518.58	48114.39
518.75	48449.09
518.93	48676.12
519.10	48430.36
519.27	48999.12
519.45	49549.14
519.62	50253.64
519.79	51082.19
519.96	50560.25
520.14	49998.52
520.31	48868.05
520.48	48711.23
520.65	49240.19
520.83	51044.74
521.00	50855.16
521.17	50920.70
521.34	50026.61
521.52	50279.39
521.69	51227.31
521.86	51695.41
522.03	51264.75
522.20	49881.50
522.38	48453.77
522.55	48369.51
522.72	49141.89
522.89	49734.04
523.07	49595.95
523.24	50314.50
523.41	51269.43
523.58	51814.78
523.75	52212.67
523.92	51950.53
524.10	51625.20
524.27	51833.50
524.44	51882.66
524.61	51657.96
524.78	51026.02
524.96	51035.38
525.13	51428.59
525.30	51625.20
525.47	52390.55
525.64	52135.43
525.81	51210.92
525.98	49357.22
526.16	47091.58
526.33	46384.74
526.50	45806.62
526.67	45057.65
526.84	45930.67
527.01	47466.06
527.18	48458.45
527.36	49888.52
527.53	50997.93
527.70	51199.22
527.87	50356.63
528.04	49900.22
528.21	50618.77
528.38	51323.27
528.55	52163.52
528.72	52598.86
528.89	52832.91
529.07	52460.77
529.24	51587.75
529.41	50951.12
529.58	50042.99
529.75	50302.79
529.92	50745.15
530.09	51227.31
530.26	51915.42
530.43	52512.26
530.60	52416.30
530.77	52479.49
530.94	52577.79
531.11	52336.72
531.28	51742.22
531.46	51400.50
531.63	51475.40
531.80	51484.76
531.97	51028.36
532.14	50136.62
532.31	48619.95
532.48	47770.33
532.65	47868.64
532.82	48783.79
532.99	50452.59
533.16	50960.48
533.33	51533.92
533.50	51604.13
533.67	50405.78
533.84	50237.26
534.01	50408.12
534.18	50574.30
534.35	50670.26
534.52	50581.32
534.69	51164.11
534.86	51255.39
535.03	51714.14
535.20	52133.09
535.37	52783.76
535.54	52793.12
535.71	52409.28
535.88	52002.02
536.05	51201.56
536.22	50773.24
536.38	50155.34
536.55	49572.55
536.72	48891.45
536.89	48502.92
537.06	49780.85
537.23	50871.54
537.40	51360.72
537.57	51515.19
537.74	50848.14
537.91	51075.17
538.08	51040.06
538.25	51021.34
538.42	51260.07
538.59	51082.19
538.75	50003.20
538.92	49993.84
539.09	49961.08
539.26	49591.27
539.43	49279.98
539.60	49003.80
539.77	49614.68
539.94	49710.64
540.11	48858.68
540.28	47592.45
540.44	47800.76
540.61	48271.21
540.78	48409.30
540.95	48919.54
541.12	49808.94
541.29	50012.57
541.46	50490.04
541.62	50314.50
541.79	50335.56
541.96	49457.86
542.13	49308.07
542.30	49626.38
542.47	50373.01
542.63	49614.68
542.80	49045.93
542.97	49359.56
543.14	49289.34
543.31	49284.66
543.48	50375.35
543.64	51217.94
543.81	51569.02
543.98	51274.12
544.15	50616.43
544.32	49837.03
544.48	49822.98
544.65	50478.33
544.82	50965.17
544.99	50396.42
545.16	50092.15
545.32	49411.05
545.49	50578.98
545.66	51194.54
545.83	50356.63
546.00	50213.85
546.16	49977.46
546.33	49542.12
546.50	49846.39
546.67	50525.14
546.83	49731.70
547.00	50176.40
547.17	49195.72
547.34	48406.96
547.50	48210.35
547.67	49169.97
547.84	48694.85
548.00	49294.02
548.17	49724.68
548.34	49799.58
548.51	49525.74
548.67	49858.09
548.84	49736.38
549.01	50021.93
549.18	49909.58
549.34	49701.28
549.51	50115.55
549.68	49610.00
549.84	49209.76
550.01	49062.31
550.18	49212.10
550.34	49244.87
550.51	49308.07
550.68	49366.58
550.84	48779.10
551.01	49029.54
551.18	48605.91
551.34	48790.81
551.51	49378.28
551.68	49890.86
551.84	49907.24
552.01	49851.07
552.18	49446.16
552.34	48388.24
552.51	47866.30
552.68	47498.83
552.84	48451.43
553.01	48732.29
553.18	48385.89
553.34	48935.92
553.51	49158.27
553.67	49612.34
553.84	49509.35
554.01	49691.91
554.17	49153.59
554.34	49207.42
554.51	49340.83
554.67	49675.53
554.84	49544.46
555.00	48612.93
555.17	48657.40
555.33	48793.15
555.50	48591.86
555.67	48512.28
555.83	48549.73
556.00	48357.81
556.16	47665.01
556.33	47587.77
556.50	47400.53
556.66	47510.53
556.83	47054.13
556.99	47325.63
557.16	47473.09
557.32	47913.11
557.49	48292.27
557.65	47868.64
557.82	47576.07
557.98	47627.56
558.15	47068.17
558.32	45982.16
558.48	44666.78
558.65	44868.07
558.81	45497.67
558.98	45963.44
559.14	46672.62
559.31	46761.56
559.47	46698.37
559.64	45745.77
559.80	45654.49
559.97	45275.32
560.13	45736.41
560.30	47428.62
560.46	48156.52
560.63	48720.59
560.79	48388.24
560.96	47856.93
561.12	46529.85
561.29	45593.64
561.45	45162.98
561.61	46209.20
561.78	46461.97
561.94	46230.26
562.11	46745.18
562.27	46007.91
562.44	46801.35
562.60	46993.28
562.77	47405.21
562.93	47171.16
563.10	47075.19
563.26	45909.61
563.42	46094.51
563.59	45853.44
563.75	45684.92
563.92	45867.48
564.08	45888.54
564.24	46459.63
564.41	46883.27
564.57	46054.72
564.74	45916.63
564.90	45928.33
565.07	45677.90
565.23	45041.27
565.39	44622.31
565.56	44151.87
565.72	43873.34
565.88	44325.07
566.05	44669.12
566.21	44463.16
566.38	45146.59
566.54	44968.71
566.70	45610.02
566.87	45956.42
567.03	45778.54
567.19	45961.10
567.36	45780.88
567.52	45586.61
567.68	45460.23
567.85	44051.22
568.01	43896.75
568.17	43328.00
568.34	43636.95
568.50	43402.89
568.66	43688.44
568.83	44306.34
568.99	44512.31
569.15	44231.44
569.32	44390.60
569.48	43988.03
569.64	43510.56
569.81	43529.28
569.97	43580.78
570.13	43753.97
570.30	42707.76
570.46	42483.06
570.62	41507.06
570.78	41563.23
570.95	41818.35
571.11	42733.50
571.27	42927.77
571.43	43000.32
571.60	43555.03
571.76	43807.81
571.92	43880.36
572.09	44353.15
572.25	44189.31
572.41	44236.12
572.57	44107.40
572.74	43976.33
572.90	43161.82
573.06	43405.23
573.22	43433.32
573.38	43555.03
573.55	43739.93
573.71	43814.83
573.87	43599.50
574.03	43342.04
574.20	43339.70
574.36	42841.17
574.52	43079.90
574.68	42220.92
574.84	42033.68
575.01	41289.39
575.17	41289.39
575.33	41720.05
575.49	41947.08
575.65	42618.81
575.82	41806.65
575.98	41663.88
576.14	42361.36
576.30	42665.63
576.46	42700.73
576.62	42632.86
576.79	42335.61
576.95	41902.61
577.11	41574.94
577.27	42029.00
577.43	41942.40
577.59	41745.80
577.75	41336.20
577.92	40624.68
578.08	40210.40
578.24	39969.33
578.40	40699.58
578.56	41174.70
578.72	40903.20
578.88	41413.44
579.04	41413.44
579.21	41186.41
579.37	41528.13
579.53	41584.30
579.69	41155.98
579.85	41855.80
580.01	41347.90
580.17	41043.63
580.33	40868.09
580.49	41090.44
580.65	41535.15
580.82	41184.07
580.98	41921.34
581.14	41186.41
581.30	41338.54
581.46	41392.37
581.62	41567.91
581.78	41708.35
581.94	41977.51
582.10	41628.77
582.26	42101.56
582.42	41535.15
582.58	41954.10
582.74	41986.87
582.90	41989.21
583.06	41687.28
583.22	41708.35
583.38	41088.10
583.54	41265.99
583.70	40982.78
583.86	41345.56
584.02	41184.07
584.18	41127.89
584.34	41375.99
584.50	41132.57
584.66	40568.51
584.82	40238.49
584.98	40308.71
585.14	39583.14
585.30	39461.43
585.46	38974.60
