SpectraSuite Data File
++++++++++++++++++++++++++++++++++++
Date: Mon Oct 07 14:54:56 GMT-05:00 2013
User: price-jones
Dark Spectrum Present: No
Reference Spectrum Present: No
Number of Sampled Component Spectra: 1
Spectrometers: USB2+H05261
Integration Time (usec): 10000 (USB2+H05261)
Spectra Averaged: 1 (USB2+H05261)
Boxcar Smoothing: 0 (USB2+H05261)
Correct for Electrical Dark: No (USB2+H05261)
Strobe/Lamp Enabled: No (USB2+H05261)
Correct for Detector Non-linearity: No (USB2+H05261)
Correct for Stray Light: No (USB2+H05261)
Number of Pixels in Processed Spectrum: 2048
>>>>>Begin Processed Spectral Data<<<<<
365.73	0.00
365.92	0.00
366.12	0.00
366.32	0.00
366.52	0.00
366.72	0.00
366.91	0.00
367.11	0.00
367.31	0.00
367.51	0.00
367.70	0.00
367.90	0.00
368.10	0.00
368.30	0.00
368.49	0.00
368.69	0.00
368.89	0.00
369.09	0.00
369.28	0.00
369.48	0.00
369.68	0.00
369.87	0.00
370.07	0.00
370.27	0.00
370.47	0.00
370.66	194.26
370.86	187.24
371.06	287.89
371.25	231.71
371.45	255.12
371.65	140.43
371.84	191.92
372.04	191.92
372.24	210.65
372.44	276.18
372.63	191.92
372.83	301.93
373.03	229.37
373.22	107.66
373.42	166.18
373.62	220.01
373.81	313.63
374.01	315.97
374.21	273.84
374.40	196.60
374.60	194.26
374.79	243.42
374.99	327.68
375.19	470.45
375.38	428.32
375.58	437.68
375.78	330.02
375.97	325.33
376.17	299.59
376.37	388.53
376.56	421.30
376.76	444.70
376.95	512.58
377.15	596.84
377.35	482.15
377.54	557.05
377.74	620.24
377.93	568.75
378.13	500.87
378.33	458.74
378.52	411.93
378.72	451.72
378.91	383.85
379.11	369.80
379.31	344.06
379.50	334.70
379.70	465.77
379.89	465.77
380.09	620.24
380.28	557.05
380.48	594.50
380.68	540.66
380.87	496.19
381.07	496.19
381.26	308.95
381.46	276.18
381.65	262.14
381.85	374.49
382.04	301.93
382.24	339.38
382.43	299.59
382.63	252.78
382.83	266.82
383.02	231.71
383.22	243.42
383.41	194.26
383.61	248.10
383.80	362.78
384.00	458.74
384.19	482.15
384.39	566.41
384.58	550.03
384.78	472.79
384.97	491.51
385.17	505.56
385.36	355.76
385.56	444.70
385.75	461.09
385.95	451.72
386.14	514.92
386.34	486.83
386.53	458.74
386.72	423.64
386.92	454.06
387.11	449.38
387.31	531.30
387.50	470.45
387.70	400.23
387.89	524.28
388.09	519.60
388.28	421.30
388.48	503.22
388.67	580.45
388.86	617.90
389.06	777.06
389.25	706.84
389.45	725.57
389.64	723.23
389.84	723.23
390.03	655.35
390.22	720.88
390.42	760.67
390.61	844.93
390.81	896.43
391.00	851.96
391.19	912.81
391.39	947.92
391.58	741.95
391.78	767.70
391.97	669.39
392.16	535.98
392.36	592.16
392.55	386.19
392.75	252.78
392.94	140.43
393.13	194.26
393.33	257.46
393.52	383.85
393.71	489.17
393.91	622.58
394.10	688.12
394.29	849.61
394.49	873.02
394.68	966.64
394.88	940.90
395.07	905.79
395.26	912.81
395.46	929.19
395.65	889.40
395.84	727.91
396.04	543.00
396.23	344.06
396.42	271.50
396.62	259.80
396.81	322.99
397.00	564.07
397.19	718.54
397.39	1004.09
397.58	1088.35
397.77	1041.54
397.97	1158.57
398.16	1156.22
398.35	1210.06
398.55	1364.53
398.74	1394.96
398.93	1514.33
399.12	1432.41
399.32	1240.48
399.51	1306.02
399.70	1467.52
399.90	1341.13
400.09	1373.89
400.28	1338.79
400.47	1413.68
400.67	1418.36
400.86	1514.33
401.05	1551.78
401.24	1497.94
401.44	1547.09
401.63	1586.88
401.82	1551.78
402.01	1521.35
402.21	1521.35
402.40	1640.72
402.59	1657.10
402.78	1453.47
402.97	1476.88
403.17	1490.92
403.36	1598.59
403.55	1598.59
403.74	1636.03
403.93	1661.78
404.13	1406.66
404.32	1432.41
404.51	1486.24
404.70	1584.54
404.89	1593.90
405.09	1533.05
405.28	1493.26
405.47	1526.03
405.66	1544.75
405.85	1504.96
406.05	1516.67
406.24	1392.62
406.43	1451.13
406.62	1579.86
406.81	1647.74
407.00	1418.36
407.20	1598.59
407.39	1511.99
407.58	1657.10
407.77	1593.90
407.96	1748.38
408.15	1767.10
408.34	1748.38
408.54	1898.17
408.73	1769.44
408.92	1694.55
409.11	1720.29
409.30	1565.82
409.49	1556.46
409.68	1366.87
409.87	1289.64
410.07	1411.34
410.26	1575.18
410.45	1629.01
410.64	1717.95
410.83	1799.87
411.02	1837.32
411.21	1844.34
411.40	1804.55
411.59	1884.13
411.78	1827.96
411.98	1734.34
412.17	1870.09
412.36	1891.15
412.55	1764.76
412.74	1858.39
412.93	1748.38
413.12	1813.92
413.31	1933.28
413.50	2029.24
413.69	2054.99
413.88	1893.49
414.07	1806.89
414.26	1888.81
414.45	1991.80
414.64	1987.11
414.83	2036.27
415.02	1937.96
415.22	1846.68
415.41	1980.09
415.60	2113.50
415.79	2101.80
415.98	2132.23
416.17	2214.15
416.36	2038.61
416.55	2092.44
416.74	2008.18
416.93	2045.63
417.12	1909.88
417.31	1987.11
417.50	1944.99
417.69	2111.16
417.88	2179.04
418.07	2031.58
418.26	2076.06
418.45	1970.73
418.64	2080.74
418.83	2237.55
419.02	2162.66
419.21	2190.74
419.39	2078.40
419.58	1907.54
419.77	1863.07
419.96	2069.03
420.15	2188.40
420.34	2272.66
420.53	2209.47
420.72	2317.13
420.91	2333.51
421.10	2333.51
421.29	2230.53
421.48	2153.29
421.67	2314.79
421.86	2251.60
422.05	2090.10
422.24	1797.53
422.43	1837.32
422.61	2038.61
422.80	2211.81
422.99	2155.63
423.18	2047.97
423.37	2003.50
423.56	2045.63
423.75	2017.54
423.94	2148.61
424.13	2054.99
424.32	2136.91
424.50	2160.31
424.69	2017.54
424.88	2054.99
425.07	2040.95
425.26	1966.05
425.45	2057.33
425.64	2038.61
425.83	1921.58
426.01	2003.50
426.20	2139.25
426.39	2136.91
426.58	1881.79
426.77	1802.21
426.96	1823.28
427.15	1802.21
427.33	1947.33
427.52	2052.65
427.71	2031.58
427.90	2108.82
428.09	2148.61
428.28	1949.67
428.46	1935.62
428.65	1802.21
428.84	1853.70
429.03	1884.13
429.22	1799.87
429.40	1643.06
429.59	1584.54
429.78	1247.51
429.97	1299.00
430.16	1341.13
430.34	1345.81
430.53	1385.60
430.72	1434.75
430.91	1554.12
431.10	1830.30
431.28	2097.12
431.47	2434.16
431.66	2513.74
431.85	2204.78
432.03	2029.24
432.22	1907.54
432.41	2033.93
432.60	2312.45
432.79	2319.47
432.97	2401.39
433.16	2361.60
433.35	2146.27
433.54	1937.96
433.72	1842.00
433.91	1804.55
434.10	2038.61
434.28	2291.38
434.47	2319.47
434.66	2303.09
434.85	2197.76
435.03	2153.29
435.22	2242.23
435.41	2553.52
435.59	2370.96
435.78	2436.50
435.97	2485.65
436.16	2607.36
436.34	2544.16
436.53	2373.30
436.72	2530.12
436.90	2361.60
437.09	2265.64
437.28	2354.58
437.46	2370.96
437.65	2396.71
437.84	2244.57
438.02	1846.68
438.21	1973.07
438.40	2146.27
438.58	2172.02
438.77	2275.00
438.96	2338.20
439.14	2434.16
439.33	2502.03
439.52	2651.83
439.70	2520.76
439.89	2469.27
440.08	2387.35
440.26	2394.37
440.45	2415.43
440.63	2663.53
440.82	2841.41
441.01	2710.34
441.19	2761.83
441.38	2764.17
441.57	2820.35
441.75	2923.33
441.94	2869.50
442.12	2853.11
442.31	2918.65
442.50	2906.95
442.68	2839.07
442.87	2853.11
443.05	2874.18
443.24	2773.53
443.43	2715.02
443.61	2977.16
443.80	3002.91
443.98	2855.45
444.17	2794.60
444.35	3042.70
444.54	3075.46
444.73	3012.27
444.91	2768.85
445.10	2768.85
445.28	2700.98
445.47	2537.14
445.65	2548.84
445.84	2612.04
446.02	2698.64
446.21	2818.00
446.39	2780.56
446.58	2928.01
446.77	2928.01
446.95	3038.02
447.14	2888.22
447.32	3138.66
447.51	3061.42
447.69	2911.63
447.88	2841.41
448.06	2822.69
448.25	2923.33
448.43	2979.50
448.62	2888.22
448.80	2925.67
448.99	2864.82
449.17	2930.35
449.36	2977.16
449.54	2937.37
449.73	3016.95
449.91	3026.31
450.10	3176.11
450.28	3243.98
450.46	3152.70
450.65	3171.43
450.83	3276.75
451.02	3131.64
451.20	3145.68
451.39	3068.44
451.57	3098.87
451.76	3021.63
451.94	3232.28
452.13	3105.89
452.31	2869.50
452.49	2722.04
452.68	2789.92
452.86	2785.24
453.05	2806.30
453.23	2839.07
453.42	2977.16
453.60	3110.57
453.78	3105.89
453.97	3002.91
454.15	2977.16
454.34	2974.82
454.52	2871.84
454.70	2864.82
454.89	2827.37
455.07	3126.96
455.26	2916.31
455.44	3166.74
455.62	3110.57
455.81	3155.04
455.99	3133.98
456.17	3124.62
456.36	3115.25
456.54	3176.11
456.73	3251.00
456.91	3265.05
457.09	3122.27
457.28	3309.52
457.46	3321.22
457.64	3239.30
457.83	3166.74
458.01	2939.71
458.19	3098.87
458.38	3101.21
458.56	3126.96
458.74	3119.93
458.93	3084.83
459.11	3052.06
459.29	2963.12
459.48	3211.22
459.66	3063.76
459.84	3171.43
460.03	3316.54
460.21	3141.00
460.39	3239.30
460.57	3201.85
460.76	3295.47
460.94	3316.54
461.12	3225.26
461.31	3276.75
461.49	3258.03
461.67	3180.79
461.85	3346.97
462.04	3342.28
462.22	3370.37
462.40	3375.05
462.59	3377.39
462.77	3295.47
462.95	3449.95
463.13	3241.64
463.32	3213.56
463.50	3166.74
463.68	3255.69
463.86	3138.66
464.05	3258.03
464.23	3152.70
464.41	3138.66
464.59	3265.05
464.78	3229.94
464.96	3131.64
465.14	3122.27
465.32	3253.34
465.50	3400.80
465.69	3311.86
465.87	3241.64
466.05	3187.81
466.23	3089.51
466.41	3155.04
466.60	2958.44
466.78	3077.80
466.96	3115.25
467.14	3101.21
467.32	3218.24
467.51	3194.83
467.69	3098.87
467.87	3152.70
468.05	3131.64
468.23	3180.79
468.41	3234.62
468.60	3236.96
468.78	3239.30
468.96	3265.05
469.14	3269.73
469.32	3272.07
469.50	3073.12
469.69	3164.40
469.87	3164.40
470.05	3063.76
470.23	3166.74
470.41	2998.23
470.59	3063.76
470.77	3150.36
470.95	3323.56
471.14	3251.00
471.32	3112.91
471.50	3440.59
471.68	3604.42
471.86	3414.84
472.04	3620.81
472.22	3555.27
472.40	3466.33
472.58	3194.83
472.77	3152.70
472.95	3258.03
473.13	3463.99
473.31	3316.54
473.49	3339.94
473.67	3297.81
473.85	3499.10
474.03	3478.04
474.21	3576.34
474.39	3541.23
474.57	3648.90
474.75	3543.57
474.93	3506.12
475.12	3302.50
475.30	3403.14
475.48	3410.16
475.66	3623.15
475.84	3501.44
476.02	3428.88
476.20	3508.46
476.38	3487.40
476.56	3562.30
476.74	3581.02
476.92	3653.58
477.10	3719.11
477.28	3789.33
477.46	3779.97
477.64	3782.31
477.82	3791.67
478.00	3817.41
478.18	3969.55
478.36	3679.32
478.54	3786.99
478.72	3709.75
478.90	3957.85
479.08	3894.65
479.26	3983.59
479.44	4180.20
479.62	3875.93
479.80	3913.38
479.98	3936.78
480.16	4018.70
480.34	3957.85
480.52	3971.89
480.70	4074.87
480.88	4028.06
481.06	4255.09
481.24	4344.03
481.41	4383.82
481.59	4402.55
481.77	4273.82
481.95	4184.88
482.13	4156.79
482.31	4250.41
482.49	4362.76
482.67	4271.48
482.85	4283.18
483.03	4339.35
483.21	4348.72
483.39	4402.55
483.57	4311.27
483.74	4262.12
483.92	4301.90
484.10	4432.97
484.28	4561.70
484.46	4547.66
484.64	4486.81
484.82	4472.76
485.00	4472.76
485.18	4451.70
485.35	4086.58
485.53	3850.18
485.71	3440.59
485.89	3529.53
486.07	3730.81
486.25	3955.51
486.43	4231.69
486.61	4318.29
486.78	4348.72
486.96	4374.46
487.14	4465.74
487.32	4552.34
487.50	4755.97
487.68	4994.70
487.85	5041.51
488.03	4910.44
488.21	4919.81
488.39	4753.63
488.57	4737.24
488.75	4566.39
488.92	4840.23
489.10	5195.99
489.28	5261.52
489.46	5446.43
489.64	5462.81
489.81	5441.75
489.99	5294.29
490.17	5394.93
490.35	5425.36
490.53	5404.30
490.70	5404.30
490.88	5280.25
491.06	5432.38
491.24	5310.68
491.41	5188.97
491.59	4971.30
491.77	4812.14
491.95	4926.83
492.13	5132.79
492.30	5486.22
492.48	5572.82
492.66	5687.50
492.84	5666.44
493.01	5694.52
493.19	5486.22
493.37	5596.22
493.54	5413.66
493.72	5453.45
493.90	5696.86
494.08	5771.76
494.25	5816.23
494.43	5872.40
494.61	6029.22
494.79	6148.59
494.96	5980.07
495.14	5933.26
495.32	5706.23
495.49	5554.09
495.67	5860.70
495.85	6239.87
496.02	6050.28
496.20	6171.99
496.38	6071.35
496.55	6054.97
496.73	6052.63
496.91	6200.08
497.09	6181.35
497.26	6150.93
497.44	6022.20
497.62	5891.13
497.79	5844.32
497.97	5631.33
498.14	5685.16
498.32	5841.98
498.50	6127.52
498.67	6232.85
498.85	6069.01
499.03	6069.01
499.20	6183.70
499.38	6228.17
499.56	6148.59
499.73	6169.65
499.91	6085.39
500.08	5966.03
500.26	5837.30
500.44	5816.23
500.61	6015.18
500.79	5914.53
500.97	5881.77
501.14	5991.77
501.32	5839.64
501.49	5923.90
501.67	5767.08
501.84	6092.41
502.02	5954.32
502.20	6066.67
502.37	5959.00
502.55	6139.23
502.72	6272.64
502.90	6520.73
503.07	6118.16
503.25	6073.69
503.43	5795.17
503.60	5813.89
503.78	5748.36
503.95	5870.06
504.13	6092.41
504.30	6183.70
504.48	6293.70
504.65	6195.40
504.83	6059.65
505.01	6384.98
505.18	6590.95
505.36	6565.20
505.53	6518.39
505.71	6633.08
505.88	6569.88
506.06	6504.35
506.23	6492.65
506.41	6354.55
506.58	6499.67
506.76	6342.85
506.93	6230.51
507.11	6291.36
507.28	6291.36
507.46	6225.82
507.63	6008.16
507.81	6066.67
507.98	6136.88
508.16	6160.29
508.33	6342.85
508.50	6410.73
508.68	6597.97
508.85	6565.20
509.03	6724.36
509.20	6544.14
509.38	6445.84
509.55	6216.46
509.73	6204.76
509.90	6415.41
510.08	6562.86
510.25	6312.42
510.42	6359.24
510.60	6239.87
510.77	6502.01
510.95	6359.24
511.12	6630.74
511.30	6633.08
511.47	6698.61
511.64	6731.38
511.82	6572.22
511.99	6406.05
512.17	6139.23
512.34	6310.08
512.51	6111.14
512.69	6375.62
512.86	6286.68
513.04	6340.51
513.21	6459.88
513.38	6413.07
513.56	6169.65
513.73	6174.33
513.90	6008.16
514.08	5996.45
514.25	6197.74
514.43	6190.72
514.60	6139.23
514.77	6349.87
514.95	6270.30
515.12	6106.46
515.29	6345.19
515.47	6413.07
515.64	6602.65
515.81	6356.90
515.99	6282.00
516.16	6008.16
516.33	5675.80
516.51	5298.97
516.68	5013.43
516.85	4997.04
517.03	5170.24
517.20	5523.66
517.37	6141.57
517.54	6265.61
517.72	6066.67
517.89	5598.56
518.06	5067.26
518.24	5172.58
518.41	5675.80
518.58	6080.71
518.75	5968.37
518.93	6157.95
519.10	5982.41
519.27	6115.82
519.45	6017.52
519.62	6382.64
519.79	6384.98
519.96	6256.25
520.14	6211.78
520.31	5820.91
520.48	6139.23
520.65	6195.40
520.83	6417.75
521.00	6310.08
521.17	6436.47
521.34	6188.38
521.52	6338.17
521.69	6626.06
521.86	6712.66
522.03	6392.00
522.20	6296.04
522.38	5729.63
522.55	5830.27
522.72	6134.54
522.89	6190.72
523.07	6139.23
523.24	6375.62
523.41	6420.09
523.58	6497.33
523.75	6679.89
523.92	6565.20
524.10	6494.99
524.27	6560.52
524.44	6553.50
524.61	6363.92
524.78	6363.92
524.96	6565.20
525.13	6338.17
525.30	6485.62
525.47	6588.61
525.64	6352.21
525.81	6422.43
525.98	5998.79
526.16	5790.49
526.33	5575.16
526.50	5462.81
526.67	5411.32
526.84	5582.18
527.01	5916.87
527.18	5914.53
527.36	6179.01
527.53	6286.68
527.70	6422.43
527.87	6324.13
528.04	6146.25
528.21	6279.66
528.38	6462.22
528.55	6623.72
528.72	6724.36
528.89	6710.32
529.07	6764.15
529.24	6389.66
529.41	6366.26
529.58	6164.97
529.75	6413.07
529.92	6459.88
530.09	6534.78
530.26	6740.74
530.43	6569.88
530.60	6827.34
530.77	6544.14
530.94	6602.65
531.11	6511.37
531.28	6562.86
531.46	6506.69
531.63	6602.65
531.80	6415.41
531.97	6413.07
532.14	6225.82
532.31	5891.13
532.48	5741.33
532.65	5783.46
532.82	5853.68
532.99	6239.87
533.16	6272.64
533.33	6424.77
533.50	6324.13
533.67	6211.78
533.84	6043.26
534.01	6054.97
534.18	6071.35
534.35	6183.70
534.52	6026.88
534.69	6286.68
534.86	6373.28
535.03	6366.26
535.20	6387.32
535.37	6597.97
535.54	6590.95
535.71	6661.16
535.88	6312.42
536.05	6150.93
536.22	6057.31
536.38	6101.78
536.55	5841.98
536.72	5830.27
536.89	5977.73
537.06	6057.31
537.23	6342.85
537.40	6370.94
537.57	6270.30
537.74	6204.76
537.91	6197.74
538.08	6324.13
538.25	6249.23
538.42	6429.45
538.59	6366.26
538.75	6286.68
538.92	5940.28
539.09	5951.98
539.26	5984.75
539.43	6085.39
539.60	5942.62
539.77	6057.31
539.94	5914.53
540.11	5696.86
540.28	5738.99
540.44	5596.22
540.61	5696.86
540.78	5636.01
540.95	5898.15
541.12	5947.30
541.29	6136.88
541.46	5987.09
541.62	6216.46
541.79	6036.24
541.96	5956.66
542.13	5802.19
542.30	5914.53
542.47	6097.10
542.63	6036.24
542.80	5996.45
542.97	6033.90
543.14	5837.30
543.31	5818.57
543.48	6052.63
543.64	6232.85
543.81	6265.61
543.98	6097.10
544.15	6052.63
544.32	6019.86
544.48	5935.60
544.65	6239.87
544.82	6155.61
544.99	6193.06
545.16	5935.60
545.32	6043.26
545.49	6057.31
545.66	6015.18
545.83	6150.93
546.00	5942.62
546.16	5987.09
546.33	5996.45
546.50	5893.47
546.67	6047.94
546.83	5921.56
547.00	6087.73
547.17	5783.46
547.34	5795.17
547.50	5900.49
547.67	5781.12
547.84	5785.80
548.00	5919.21
548.17	6244.55
548.34	5905.17
548.51	5961.34
548.67	5834.96
548.84	5982.41
549.01	5989.43
549.18	5727.29
549.34	5888.79
549.51	5891.13
549.68	5769.42
549.84	5778.78
550.01	5825.59
550.18	5849.00
550.34	5692.18
550.51	5870.06
550.68	5851.34
550.84	5788.14
551.01	5720.27
551.18	5708.57
551.34	5657.07
551.51	5996.45
551.68	5851.34
551.84	5830.27
552.01	5884.11
552.18	5914.53
552.34	5631.33
552.51	5685.16
552.68	5540.05
552.84	5706.23
553.01	5619.63
553.18	5849.00
553.34	5834.96
553.51	5680.48
553.67	5853.68
553.84	5989.43
554.01	6001.13
554.17	5841.98
554.34	5781.12
554.51	5837.30
554.67	6010.50
554.84	5724.95
555.00	5811.55
555.17	5692.18
555.33	5785.80
555.50	5804.53
555.67	5734.31
555.83	5582.18
556.00	5490.90
556.16	5666.44
556.33	5483.88
556.50	5591.54
556.66	5455.79
556.83	5526.00
556.99	5650.05
557.16	5476.85
557.32	5547.07
557.49	5652.39
557.65	5481.53
557.82	5703.89
557.98	5551.75
558.15	5390.25
558.32	5266.21
558.48	5093.01
558.65	5179.61
558.81	5259.18
558.98	5416.00
559.14	5432.38
559.31	5488.56
559.47	5373.87
559.64	5067.26
559.80	5341.10
559.97	5263.86
560.13	5224.08
560.30	5518.98
560.46	5540.05
560.63	5701.54
560.79	5661.76
560.96	5575.16
561.12	5289.61
561.29	5184.29
561.45	5214.71
561.61	5331.74
561.78	5383.23
561.94	5259.18
562.11	5366.85
562.27	5350.46
562.44	5301.31
562.60	5327.06
562.77	5406.64
562.93	5446.43
563.10	5540.05
563.26	5219.39
563.42	5355.15
563.59	5275.57
563.75	5378.55
563.92	5277.91
564.08	5345.78
564.24	5390.25
564.41	5350.46
564.57	5179.61
564.74	5280.25
564.90	5107.05
565.07	5277.91
565.23	5184.29
565.39	5025.13
565.56	4999.38
565.72	5050.88
565.88	4952.57
566.05	5004.07
566.21	4936.19
566.38	4908.10
566.54	5142.16
566.70	5289.61
566.87	5245.14
567.03	5240.46
567.19	5275.57
567.36	5287.27
567.52	5310.68
567.68	5130.45
567.85	4985.34
568.01	5102.37
568.17	4830.87
568.34	4833.21
568.50	4947.89
568.66	4798.10
568.83	4985.34
568.99	4966.62
569.15	5039.17
569.32	5167.90
569.48	5060.24
569.64	4919.81
569.81	4851.93
569.97	4819.16
570.13	4833.21
570.30	4713.84
570.46	4802.78
570.62	4613.20
570.78	4662.35
570.95	4732.56
571.11	4615.54
571.27	4751.29
571.43	4826.18
571.60	4915.12
571.76	4851.93
571.92	5008.75
572.09	5135.14
572.25	4940.87
572.41	4844.91
572.57	5102.37
572.74	4997.04
572.90	4727.88
573.06	4884.70
573.22	4821.50
573.38	4863.63
573.55	4889.38
573.71	4858.95
573.87	4877.68
574.03	4652.98
574.20	4985.34
574.36	4760.65
574.52	4847.25
574.68	4695.11
574.84	4566.39
575.01	4526.60
575.17	4652.98
575.33	4718.52
575.49	4737.24
575.65	4631.92
575.82	4547.66
575.98	4627.24
576.14	4521.92
576.30	4746.61
576.46	4608.51
576.62	4641.28
576.79	4734.90
576.95	4641.28
577.11	4655.33
577.27	4685.75
577.43	4631.92
577.59	4533.62
577.75	4496.17
577.92	4440.00
578.08	4447.02
578.24	4318.29
578.40	4442.34
578.56	4526.60
578.72	4507.87
578.88	4414.25
579.04	4692.77
579.21	4521.92
579.37	4699.80
579.53	4615.54
579.69	4526.60
579.85	4580.43
580.01	4601.49
580.17	4372.12
580.33	4559.36
580.49	4594.47
580.65	4542.98
580.82	4627.24
580.98	4510.21
581.14	4465.74
581.30	4542.98
581.46	4564.04
581.62	4573.41
581.78	4484.47
581.94	4643.62
582.10	4554.68
582.26	4550.00
582.42	4713.84
582.58	4592.13
582.74	4851.93
582.90	4795.76
583.06	4662.35
583.22	4606.17
583.38	4489.15
583.54	4613.20
583.70	4571.07
583.86	4498.51
584.02	4491.49
584.18	4559.36
584.34	4582.77
584.50	4348.72
584.66	4435.32
584.82	4432.97
584.98	4477.44
585.14	4341.69
585.30	4257.43
585.46	4332.33
585.62	4142.75
585.78	4177.86
585.94	4156.79
586.10	4299.56
586.26	4313.61
586.42	4442.34
586.58	4411.91
586.74	4411.91
586.90	4430.63
587.06	4290.20
587.22	4435.32
587.38	4320.63
587.54	4383.82
587.70	4262.12
587.86	4248.07
588.02	4301.90
588.18	4173.18
588.34	4007.00
588.49	3733.15
588.65	3613.79
588.81	3644.21
588.97	3742.52
589.13	3777.62
589.29	3494.42
589.45	3564.64
589.61	3857.20
589.77	4065.51
589.93	4084.23
590.08	4229.35
590.24	4109.98
590.40	4088.92
590.56	4021.04
590.72	4053.81
590.88	4098.28
591.04	3913.38
591.20	3978.91
591.35	4004.66
591.51	4074.87
591.67	3992.95
591.83	3950.82
591.99	3948.48
592.15	4084.23
592.31	4079.55
592.46	4004.66
592.62	4035.08
592.78	3906.35
592.94	4046.79
593.10	3934.44
593.26	4046.79
593.41	4100.62
593.57	4065.51
593.73	3875.93
593.89	3985.93
594.05	3882.95
594.20	3852.52
594.36	3840.82
594.52	3684.00
594.68	3941.46
594.84	3817.41
594.99	3922.74
595.15	3826.78
595.31	3885.29
595.47	3875.93
595.62	3805.71
595.78	3948.48
595.94	3932.10
596.10	4009.34
596.25	3836.14
596.41	3913.38
596.57	3819.75
596.73	4145.09
596.88	3808.05
597.04	4046.79
597.20	3859.54
597.36	3779.97
597.51	3686.34
597.67	3873.59
597.83	3950.82
597.99	3786.99
