SpectraSuite Data File
++++++++++++++++++++++++++++++++++++
Date: Mon Oct 07 14:54:59 GMT-05:00 2013
User: price-jones
Dark Spectrum Present: No
Reference Spectrum Present: No
Number of Sampled Component Spectra: 1
Spectrometers: USB2+H05261
Integration Time (usec): 10000 (USB2+H05261)
Spectra Averaged: 1 (USB2+H05261)
Boxcar Smoothing: 0 (USB2+H05261)
Correct for Electrical Dark: No (USB2+H05261)
Strobe/Lamp Enabled: No (USB2+H05261)
Correct for Detector Non-linearity: No (USB2+H05261)
Correct for Stray Light: No (USB2+H05261)
Number of Pixels in Processed Spectrum: 2048
>>>>>Begin Processed Spectral Data<<<<<
365.73	0.00
365.92	0.00
366.12	0.00
366.32	0.00
366.52	0.00
366.72	0.00
366.91	0.00
367.11	0.00
367.31	0.00
367.51	0.00
367.70	0.00
367.90	0.00
368.10	0.00
368.30	0.00
368.49	0.00
368.69	0.00
368.89	0.00
369.09	0.00
369.28	0.00
369.48	0.00
369.68	0.00
369.87	0.00
370.07	0.00
370.27	0.00
370.47	72.56
370.66	1350.49
370.86	1542.41
371.06	1818.60
371.25	1652.42
371.45	1521.35
371.65	1467.52
371.84	1324.74
372.04	1493.26
372.24	1612.63
372.44	1689.87
372.63	1619.65
372.83	1465.18
373.03	1320.06
373.22	1200.69
373.42	1420.71
373.62	1624.33
373.81	1732.00
374.01	1650.08
374.21	1441.77
374.40	1418.36
374.60	1472.20
374.79	1750.72
374.99	1975.41
375.19	1970.73
375.38	2040.95
375.58	1987.11
375.78	1839.66
375.97	1996.48
376.17	2024.56
376.37	2031.58
376.56	1982.43
376.76	2256.28
376.95	2363.94
377.15	2640.12
377.35	2626.08
377.54	2679.91
377.74	2799.28
377.93	2829.71
378.13	2649.49
378.33	2616.72
378.52	2272.66
378.72	2326.49
378.91	2174.36
379.11	2101.80
379.31	2120.53
379.50	2136.91
379.70	2300.75
379.89	2595.65
380.09	2693.96
380.28	2684.59
380.48	2799.28
380.68	2693.96
380.87	2644.81
381.07	2373.30
381.26	2216.49
381.46	2050.31
381.65	1944.99
381.85	1898.17
382.04	1842.00
382.24	1727.32
382.43	1605.61
382.63	1591.56
382.83	1673.48
383.02	1671.14
383.22	1570.50
383.41	1753.06
383.61	1785.83
383.80	2066.69
384.00	2457.56
384.19	2628.42
384.39	2820.35
384.58	2834.39
384.78	2523.10
384.97	2658.85
385.17	2516.08
385.36	2392.03
385.56	2291.38
385.75	2427.14
385.95	2658.85
386.14	2853.11
386.34	2757.15
386.53	2794.60
386.72	2715.02
386.92	2574.59
387.11	2703.32
387.31	2906.95
387.50	2738.43
387.70	2740.77
387.89	2738.43
388.09	2595.65
388.28	2745.45
388.48	2832.05
388.67	3063.76
388.86	3407.82
389.06	3517.83
389.25	3726.13
389.45	3728.47
389.64	3735.50
389.84	3545.91
390.03	3503.78
390.22	3534.21
390.42	3899.33
390.61	3939.12
390.81	4311.27
391.00	4191.90
391.19	4421.27
391.39	4187.22
391.58	3936.78
391.78	3693.37
391.97	3524.85
392.16	3248.66
392.36	2923.33
392.55	2272.66
392.75	1755.40
392.94	1392.62
393.13	1488.58
393.33	2026.90
393.52	2588.63
393.71	3108.23
393.91	3358.67
394.10	3688.68
394.29	3995.29
394.49	4341.69
394.68	4615.54
394.88	4704.48
395.07	4905.76
395.26	4800.44
395.46	4402.55
395.65	4182.54
395.84	3496.76
396.04	2874.18
396.23	2349.90
396.42	1977.75
396.62	2099.46
396.81	2672.89
397.00	3283.77
397.19	4035.08
397.39	4870.65
397.58	5362.17
397.77	5724.95
397.97	5804.53
398.16	5989.43
398.35	5984.75
398.55	6204.76
398.74	6642.44
398.93	6569.88
399.12	6466.90
399.32	6413.07
399.51	6417.75
399.70	6956.07
399.90	6715.00
400.09	6930.33
400.28	6890.54
400.47	6890.54
400.67	7204.17
400.86	7353.96
401.05	7379.71
401.24	7239.28
401.44	7475.67
401.63	7435.88
401.82	7524.82
402.01	7508.44
402.21	7487.37
402.40	7620.78
402.59	7323.54
402.78	6869.47
402.97	6895.22
403.17	7330.56
403.36	7618.44
403.55	7878.24
403.74	7927.39
403.93	7438.22
404.13	7110.55
404.32	7236.94
404.51	7588.02
404.70	7925.05
404.89	7681.64
405.09	7541.21
405.28	7365.67
405.47	7604.40
405.66	7466.31
405.85	7066.08
406.05	7157.36
406.24	7311.83
406.43	7576.31
406.62	7801.01
406.81	7889.95
407.00	7307.15
407.20	7304.81
407.39	7419.50
407.58	7960.16
407.77	8205.92
407.96	8376.78
408.15	8507.85
408.34	8454.02
408.54	8723.18
408.73	8854.25
408.92	8781.69
409.11	8510.19
409.30	8126.34
409.49	7517.80
409.68	7052.03
409.87	7213.53
410.07	7461.63
410.26	8098.25
410.45	8416.57
410.64	8702.11
410.83	9205.33
411.02	9221.71
411.21	9612.58
411.40	9149.15
411.59	9378.53
411.78	9439.38
411.98	9273.20
412.17	9423.00
412.36	9577.47
412.55	9200.65
412.74	9303.63
412.93	9043.83
413.12	9032.13
413.31	10040.90
413.50	9954.30
413.69	9837.27
413.88	9593.86
414.07	9607.90
414.26	9692.16
414.45	9877.06
414.64	9832.59
414.83	9888.76
415.02	9825.57
415.22	9645.35
415.41	10024.51
415.60	10382.62
415.79	10647.10
415.98	11002.86
416.17	10998.18
416.36	10691.57
416.55	10312.40
416.74	9977.70
416.93	9813.87
417.12	9717.90
417.31	9851.31
417.50	10108.77
417.69	10473.90
417.88	10511.35
418.07	10527.73
418.26	10370.91
418.45	10752.42
418.64	10895.19
418.83	11145.63
419.02	10686.89
419.21	10352.19
419.39	10438.79
419.58	9937.91
419.77	9933.23
419.96	10654.12
420.15	10899.87
420.34	11124.57
420.53	11503.73
420.72	11641.82
420.91	11700.34
421.10	11283.72
421.29	11318.83
421.48	11246.27
421.67	11494.37
421.86	11044.99
422.05	10436.45
422.24	9350.44
422.43	9841.95
422.61	10960.73
422.80	11232.23
422.99	11080.10
423.18	10501.98
423.37	10567.52
423.56	10752.42
423.75	10803.91
423.94	11082.44
424.13	10382.62
424.32	10750.08
424.50	10417.72
424.69	10785.19
424.88	10572.20
425.07	10333.47
425.26	10424.75
425.45	10296.02
425.64	10106.43
425.83	10394.32
426.01	10729.02
426.20	11140.95
426.39	11103.50
426.58	10153.24
426.77	9359.80
426.96	9004.04
427.15	9652.37
427.33	10637.73
427.52	10476.24
427.71	10768.80
427.90	10450.49
428.09	10420.06
428.28	10167.29
428.46	9458.10
428.65	9856.00
428.84	10115.80
429.03	9961.32
429.22	9535.34
429.40	9041.49
429.59	7826.75
429.78	7550.57
429.97	7543.55
430.16	7328.22
430.34	7524.82
430.53	7616.10
430.72	7981.23
430.91	9015.74
431.10	10656.46
431.28	12032.69
431.47	12774.64
431.66	12554.63
431.85	11358.62
432.03	10492.62
432.22	10483.26
432.41	11089.46
432.60	11969.50
432.79	12730.17
432.97	12723.15
433.16	12297.17
433.35	10885.83
433.54	9844.29
433.72	9586.83
433.91	10267.93
434.10	11290.74
434.28	11997.59
434.47	12400.16
434.66	12311.22
434.85	11887.58
435.03	11948.43
435.22	11992.90
435.41	12718.47
435.59	13069.55
435.78	12947.84
435.97	13488.51
436.16	13348.08
436.34	13050.83
436.53	13083.59
436.72	12905.71
436.90	12152.06
437.09	12318.24
437.28	12301.86
437.46	12655.28
437.65	12470.37
437.84	11194.78
438.02	10705.61
438.21	10876.47
438.40	11178.40
438.58	12004.61
438.77	12734.85
438.96	12652.94
439.14	13153.81
439.33	13488.51
439.52	13563.40
439.70	12971.25
439.89	12491.44
440.08	12627.19
440.26	12512.50
440.45	13528.30
440.63	14185.99
440.82	14782.82
441.01	14436.42
441.19	14464.51
441.38	14757.08
441.57	15037.94
441.75	15389.02
441.94	15515.41
442.12	15377.32
442.31	15779.89
442.50	15873.51
442.68	15293.06
442.87	15330.51
443.05	15082.41
443.24	15424.13
443.43	15723.72
443.61	15681.59
443.80	15896.92
443.98	15185.40
444.17	15070.71
444.35	15915.64
444.54	16173.10
444.73	16208.21
444.91	15269.66
445.10	14850.70
445.28	14246.84
445.47	13902.78
445.65	13909.80
445.84	14857.72
446.02	14916.23
446.21	15606.69
446.39	15484.98
446.58	15510.73
446.77	15910.96
446.95	15861.81
447.14	16362.69
447.32	16315.87
447.51	16215.23
447.69	15513.07
447.88	15871.17
448.06	16287.79
448.25	15936.71
448.43	16098.20
448.62	15716.70
448.80	15772.87
448.99	16004.58
449.17	16065.44
449.36	16107.57
449.54	16645.89
449.73	17050.80
449.91	17090.59
450.10	17610.19
450.28	17748.28
450.46	17406.56
450.65	17820.84
450.83	17394.86
451.02	17219.32
451.20	17055.48
451.39	17465.08
451.57	16971.22
451.76	16865.90
451.94	16812.07
452.13	16444.60
452.31	15681.59
452.49	14738.35
452.68	15236.89
452.86	14604.94
453.05	15400.72
453.23	16652.91
453.42	16582.70
453.60	16879.94
453.78	16924.41
453.97	16566.31
454.15	16596.74
454.34	15950.75
454.52	16257.36
454.70	16430.56
454.89	16142.67
455.07	16027.99
455.26	16538.23
455.44	17174.85
455.62	17362.09
455.81	17561.04
455.99	17614.87
456.17	17245.07
456.36	17624.23
456.54	18017.44
456.73	18038.51
456.91	18092.34
457.09	18057.23
457.28	18752.37
457.46	18043.19
457.64	17207.62
457.83	17167.83
458.01	16809.73
458.19	17369.12
458.38	17554.02
458.56	17891.06
458.74	17933.18
458.93	17547.00
459.11	17116.34
459.29	17060.16
459.48	17296.56
459.66	17191.23
459.84	17687.43
460.03	17818.50
460.21	17584.44
460.39	18431.72
460.57	18441.08
460.76	18523.00
460.94	18707.90
461.12	18228.09
461.31	18040.85
461.49	18405.97
461.67	18291.29
461.85	18735.99
462.04	19089.41
462.22	18759.39
462.40	18883.44
462.59	18843.65
462.77	18537.04
462.95	18611.94
463.13	18218.73
463.32	18569.81
463.50	18534.70
463.68	18380.23
463.86	18412.99
464.05	17858.29
464.23	17486.14
464.41	17745.94
464.59	17298.90
464.78	18487.89
464.96	18380.23
465.14	18017.44
465.32	18635.35
465.50	18974.72
465.69	19309.42
465.87	18602.58
466.05	17528.27
466.23	16734.83
466.41	16922.07
466.60	17956.59
466.78	17418.27
466.96	18185.96
467.14	17984.68
467.32	18232.77
467.51	18207.03
467.69	17364.43
467.87	18026.81
468.05	18459.81
468.23	17846.58
468.41	18183.62
468.60	18333.42
468.78	18230.43
468.96	18120.43
469.14	18492.57
469.32	18754.71
469.50	17682.75
469.69	17383.16
469.87	17287.20
470.05	17659.34
470.23	17465.08
470.41	17785.73
470.59	17586.79
470.77	18029.15
470.95	18415.34
471.14	18735.99
471.32	18658.75
471.50	19716.67
471.68	19803.27
471.86	19882.85
472.04	19833.70
472.22	19749.44
472.40	18583.85
472.58	18628.32
472.77	18670.45
472.95	18677.48
473.13	19676.88
473.31	19145.58
473.49	18904.51
473.67	19693.27
473.85	19623.05
474.03	20271.38
474.21	20372.02
474.39	20458.62
474.57	20699.70
474.75	21001.63
474.93	20299.47
475.12	19803.27
475.30	20058.39
475.48	19903.92
475.66	20027.96
475.84	19920.30
476.02	19517.73
476.20	19103.45
476.38	20065.41
476.56	21027.37
476.74	20744.17
476.92	20758.21
477.10	21165.46
477.28	21998.70
477.46	21752.94
477.64	21919.12
477.82	22178.92
478.00	22279.56
478.18	21738.90
478.36	21572.72
478.54	22478.50
478.72	22190.62
478.90	23051.94
479.08	23913.25
479.26	23281.31
479.44	23482.59
479.62	23173.64
479.80	23173.64
479.98	23658.14
480.16	23508.34
480.34	23147.90
480.52	24002.19
480.70	24545.20
480.88	23690.90
481.06	24435.19
481.24	24018.58
481.41	24552.22
481.59	25565.67
481.77	24994.58
481.95	25418.22
482.13	25146.72
482.31	25340.98
482.49	25614.82
482.67	25434.60
482.85	25928.45
483.03	26270.17
483.21	26558.06
483.39	26017.40
483.57	25097.56
483.74	24863.51
483.92	25200.55
484.10	25834.83
484.28	26125.06
484.46	26309.96
484.64	26373.16
484.82	26085.27
485.00	26192.94
485.18	24545.20
485.35	23803.25
485.53	21142.06
485.71	20011.58
485.89	20688.00
486.07	21575.06
486.25	23391.31
486.43	24533.50
486.61	24854.15
486.78	25156.08
486.96	25750.57
487.14	26647.00
487.32	26150.81
487.50	27730.67
487.68	27871.10
487.85	29134.99
488.03	28797.95
488.21	28596.67
488.39	27470.87
488.57	26951.27
488.75	27456.82
488.92	29043.71
489.10	30433.99
489.28	31126.78
489.46	31807.88
489.64	31414.67
489.81	31522.34
489.99	31323.39
490.17	31765.75
490.35	31669.79
490.53	30796.77
490.70	29923.75
490.88	30394.20
491.06	31681.49
491.24	31278.92
491.41	29881.62
491.59	29139.67
491.77	28402.40
491.95	29759.91
492.13	30808.47
492.30	32142.58
492.48	33209.86
492.66	33251.99
492.84	32641.11
493.01	32610.68
493.19	32360.25
493.37	32439.82
493.54	32435.14
493.72	33762.23
493.90	33708.40
494.08	33633.50
494.25	35260.17
494.43	35136.12
494.61	35241.45
494.79	35154.85
494.96	34841.21
495.14	33469.66
495.32	33230.93
495.49	33670.95
495.67	34768.66
495.85	36304.05
496.02	36563.85
496.20	35625.29
496.38	35548.06
496.55	35433.37
496.73	36002.12
496.91	35803.17
497.09	36800.24
497.26	37099.83
497.44	36034.89
497.62	35208.68
497.79	34731.21
497.97	33425.19
498.14	33813.72
498.32	35997.44
498.50	36233.83
498.67	36336.82
498.85	37055.36
499.03	37544.53
499.20	37773.91
499.38	37420.48
499.56	37345.59
499.73	36285.33
499.91	34700.78
500.08	34253.74
500.26	33701.37
500.44	34522.90
500.61	35433.37
500.79	35276.55
500.97	34272.46
501.14	34127.35
501.32	33912.02
501.49	34735.89
501.67	34986.33
501.84	34955.90
502.02	35948.29
502.20	36334.48
502.37	36336.82
502.55	36142.55
502.72	36449.16
502.90	37308.14
503.07	36706.62
503.25	35723.60
503.43	34600.14
503.60	34719.51
503.78	33804.36
503.95	34939.52
504.13	37207.50
504.30	37890.93
504.48	36999.19
504.65	36404.69
504.83	36732.37
505.01	37270.69
505.18	37663.90
505.36	37577.30
505.53	38773.31
505.71	39082.27
505.88	39997.41
506.06	38731.18
506.23	38417.55
506.41	38410.53
506.58	38319.25
506.76	37280.05
506.93	37242.60
507.11	36762.79
507.28	37200.47
507.46	36907.91
507.63	36240.86
507.81	35316.34
507.98	36217.45
508.16	37460.27
508.33	38869.28
508.50	38375.42
508.68	38780.34
508.85	39936.56
509.03	39253.12
509.20	38705.44
509.38	36933.65
509.55	37078.77
509.73	37897.95
509.90	37982.21
510.08	37289.42
510.25	37846.46
510.42	37450.91
510.60	38139.03
510.77	38829.49
510.95	40039.54
511.12	39264.83
511.30	40825.96
511.47	39854.64
511.64	39746.98
511.82	38803.74
511.99	37584.32
512.17	37331.54
512.34	37095.15
512.51	37895.61
512.69	37556.24
512.86	37544.53
513.04	38321.59
513.21	38478.41
513.38	37163.03
513.56	35807.86
513.73	35402.94
513.90	36322.77
514.08	36360.22
514.25	37603.05
514.43	37565.60
514.60	37038.98
514.77	36919.61
514.95	38447.98
515.12	37706.03
515.29	37340.91
515.47	37839.44
515.64	38583.73
515.81	38841.19
515.99	37556.24
516.16	34696.10
516.33	32091.09
516.51	31742.35
516.68	30192.91
516.85	30218.66
517.03	31260.20
517.20	34850.58
517.37	37401.76
517.54	37621.77
517.72	35840.62
517.89	32608.34
518.06	32107.47
518.24	32943.04
518.41	34270.12
518.58	36470.23
518.75	36514.70
518.93	36362.56
519.10	36540.44
519.27	36737.05
519.45	37984.55
519.62	38038.39
519.79	38085.20
519.96	38426.92
520.14	37612.41
520.31	36048.93
520.48	36449.16
520.65	36971.10
520.83	38686.71
521.00	38515.86
521.17	37614.75
521.34	38546.28
521.52	38696.08
521.69	38099.24
521.86	38820.13
522.03	38356.70
522.20	37640.50
522.38	36435.12
522.55	36980.46
522.72	37060.04
522.89	36495.97
523.07	37156.00
523.24	36989.83
523.41	39260.15
523.58	38895.02
523.75	39129.08
523.92	39873.37
524.10	39248.44
524.27	39124.40
524.44	38934.81
524.61	38450.32
524.78	38099.24
524.96	37649.86
525.13	37614.75
525.30	38532.24
525.47	39423.98
525.64	39929.54
525.81	37755.18
525.98	35440.39
526.16	35037.82
526.33	33453.28
526.50	32486.64
526.67	32353.23
526.84	34085.22
527.01	35695.51
527.18	36947.70
527.36	37883.91
527.53	38181.16
527.70	38106.26
527.87	37441.55
528.04	38036.05
528.21	37874.55
528.38	39468.45
528.55	40617.66
528.72	40959.38
528.89	41092.79
529.07	40577.87
529.24	38637.56
529.41	37773.91
529.58	38267.76
529.75	38455.00
529.92	39501.22
530.09	39756.34
530.26	39866.34
530.43	40037.20
530.60	39473.13
530.77	39826.56
530.94	39742.30
531.11	39110.35
531.28	38527.56
531.46	38223.29
531.63	38525.22
531.80	38181.16
531.97	36844.71
532.14	35927.22
532.31	35005.05
532.48	36044.25
532.65	36055.95
532.82	36282.98
532.99	38766.29
533.16	38590.75
533.33	38354.36
533.50	36699.60
533.67	37418.14
533.84	37565.60
534.01	37759.86
534.18	37851.14
534.35	38625.86
534.52	37076.43
534.69	38829.49
534.86	38955.88
535.03	38349.68
535.20	39281.21
535.37	40378.92
535.54	39849.96
535.71	39470.79
535.88	38352.02
536.05	37535.17
536.22	37687.31
536.38	37256.65
536.55	35908.50
536.72	35676.79
536.89	36065.31
537.06	36804.92
537.23	39428.66
537.40	39002.69
537.57	38382.45
537.74	38443.30
537.91	39164.18
538.08	37570.28
538.25	37528.15
538.42	38302.87
538.59	37935.40
538.75	37191.11
538.92	36699.60
539.09	37029.62
539.26	37244.94
539.43	36659.81
539.60	36215.11
539.77	37895.61
539.94	36320.43
540.11	34628.23
540.28	34550.99
540.44	34637.59
540.61	35749.34
540.78	36989.83
540.95	37682.62
541.12	37144.30
541.29	37511.77
541.46	36811.95
541.62	37397.08
541.79	38120.31
541.96	37511.77
542.13	36144.89
542.30	35988.08
542.47	36402.35
542.63	36088.72
542.80	35950.63
542.97	36971.10
543.14	36294.69
543.31	36783.86
543.48	37205.16
543.64	37687.31
543.81	37909.66
543.98	38265.42
544.15	36816.63
544.32	36254.90
544.48	37474.32
544.65	37919.02
544.82	38139.03
544.99	36311.07
545.16	36062.97
545.32	36779.18
545.49	38389.47
545.66	37015.57
545.83	36479.59
546.00	36360.22
546.16	36875.14
546.33	36706.62
546.50	35899.14
546.67	37556.24
546.83	36252.56
547.00	36002.12
547.17	35538.69
547.34	35002.71
547.50	35997.44
547.67	36699.60
547.84	36034.89
548.00	37167.71
548.17	36397.67
548.34	36009.14
548.51	36739.39
548.67	37256.65
548.84	37361.97
549.01	37883.91
549.18	37787.95
549.34	37165.37
549.51	36737.05
549.68	36957.06
549.84	36676.19
550.01	36322.77
550.18	36500.65
550.34	36114.47
550.51	35885.09
550.68	36238.51
550.84	36053.61
551.01	35739.98
551.18	36627.04
551.34	36580.23
551.51	35681.47
551.68	36350.86
551.84	37446.23
552.01	37177.07
552.18	36149.57
552.34	36123.83
552.51	36128.51
552.68	36222.13
552.84	36165.96
553.01	36175.32
553.18	35456.78
553.34	35548.06
553.51	36732.37
553.67	36311.07
553.84	35452.09
554.01	35576.14
554.17	35510.61
554.34	36847.05
554.51	35800.83
554.67	36074.68
554.84	35969.35
555.00	36041.91
555.17	36128.51
555.33	35339.75
555.50	36180.00
555.67	35084.63
555.83	34403.53
556.00	33661.58
556.16	34185.86
556.33	33308.16
556.50	35098.67
556.66	35042.50
556.83	35475.50
556.99	34394.17
557.16	34375.45
557.32	34558.01
557.49	35814.88
557.65	35122.08
557.82	35672.10
557.98	34672.70
558.15	34925.47
558.32	33579.67
558.48	33195.82
558.65	32676.22
558.81	31765.75
558.98	32315.78
559.14	34141.39
559.31	35009.73
559.47	33046.02
559.64	32173.00
559.80	31803.20
559.97	32814.31
560.13	34026.71
560.30	34433.96
560.46	35461.46
560.63	36053.61
560.79	36690.24
560.96	35115.06
561.12	33511.79
561.29	32718.35
561.45	32470.25
561.61	32760.48
561.78	33041.34
561.94	33806.70
562.11	33163.05
562.27	34162.46
562.44	34087.56
562.60	34492.47
562.77	35047.18
562.93	34302.89
563.10	33474.34
563.26	34022.03
563.42	32996.87
563.59	32556.85
563.75	32933.68
563.92	32828.35
564.08	33537.54
564.24	32526.42
564.41	32493.66
564.57	33923.72
564.74	33113.90
564.90	32451.53
565.07	31651.06
565.23	31154.87
565.39	31585.53
565.56	31974.06
565.72	31297.64
565.88	30852.94
566.05	32226.84
566.21	32465.57
566.38	31402.97
566.54	32374.29
566.70	33263.69
566.87	33268.37
567.03	32671.54
567.19	32622.39
567.36	32575.58
567.52	31889.80
567.68	32275.99
567.85	31604.25
568.01	29979.92
568.17	30904.43
568.34	32161.30
568.50	31723.62
568.66	32173.00
568.83	31938.95
568.99	31847.67
569.15	32081.72
569.32	32423.44
569.48	31297.64
569.64	30555.69
569.81	31220.41
569.97	31058.91
570.13	31419.35
570.30	31246.15
570.46	30836.56
570.62	29675.65
570.78	29575.01
570.95	30197.59
571.11	30967.63
571.27	31519.99
571.43	31503.61
571.60	31185.30
571.76	31384.24
571.92	31033.16
572.09	31091.68
572.25	32226.84
572.41	33378.38
572.57	33432.21
572.74	33043.68
572.90	32004.49
573.06	31498.93
573.22	30567.40
573.38	30139.08
573.55	30881.03
573.71	29949.50
573.87	30089.93
574.03	31058.91
574.20	31494.25
574.36	31597.23
574.52	32187.05
574.68	30588.46
574.84	29692.04
575.01	29500.11
575.17	29488.41
575.33	29979.92
575.49	29333.93
575.65	30532.29
575.82	29998.65
575.98	29553.94
576.14	29764.59
576.30	29535.22
576.46	29483.73
576.62	30019.71
576.79	30515.90
576.95	29860.55
577.11	28994.56
577.27	29823.11
577.43	29982.26
577.59	29633.52
577.75	29685.01
577.92	28701.99
578.08	28561.56
578.24	28905.62
578.40	28463.25
578.56	28636.45
578.72	29675.65
578.88	29195.84
579.04	29399.47
579.21	29647.57
579.37	29638.20
579.53	30646.97
579.69	31159.55
579.85	29766.93
580.01	29104.56
580.17	29081.16
580.33	29338.62
580.49	29886.30
580.65	29017.96
580.82	28975.83
580.98	29195.84
581.14	29879.28
581.30	29163.08
581.46	28994.56
581.62	29303.51
581.78	29362.02
581.94	29837.15
582.10	30141.42
582.26	29788.00
582.42	30099.29
582.58	29692.04
582.74	29673.31
582.90	29773.95
583.06	30167.16
583.22	29677.99
583.38	30171.85
583.54	29362.02
583.70	30031.41
583.86	29446.28
584.02	29062.43
584.18	29647.57
584.34	30003.33
584.50	29083.50
584.66	29200.52
584.82	28936.04
584.98	29177.12
585.14	28393.04
585.30	28170.69
585.46	27580.87
585.62	27372.57
585.78	27981.10
585.94	28641.14
586.10	27393.63
586.26	27779.82
586.42	28280.69
