SpectraSuite Data File
++++++++++++++++++++++++++++++++++++
Date: Mon Oct 07 14:53:39 GMT-05:00 2013
User: price-jones
Dark Spectrum Present: No
Reference Spectrum Present: No
Number of Sampled Component Spectra: 1
Spectrometers: USB2+H05261
Integration Time (usec): 100000 (USB2+H05261)
Spectra Averaged: 1 (USB2+H05261)
Boxcar Smoothing: 0 (USB2+H05261)
Correct for Electrical Dark: No (USB2+H05261)
Strobe/Lamp Enabled: No (USB2+H05261)
Correct for Detector Non-linearity: No (USB2+H05261)
Correct for Stray Light: No (USB2+H05261)
Number of Pixels in Processed Spectrum: 2048
>>>>>Begin Processed Spectral Data<<<<<
365.73	0.00
365.92	0.00
366.12	0.00
366.32	0.00
366.52	0.00
366.72	0.00
366.91	0.00
367.11	0.00
367.31	0.00
367.51	0.00
367.70	0.00
367.90	0.00
368.10	0.00
368.30	0.00
368.49	0.00
368.69	0.00
368.89	0.00
369.09	0.00
369.28	0.00
369.48	0.00
369.68	0.00
369.87	0.00
370.07	0.00
370.27	0.00
370.47	238.73
370.66	1907.54
370.86	2197.76
371.06	2469.27
371.25	2593.31
371.45	2289.04
371.65	2162.66
371.84	1839.66
372.04	2038.61
372.24	2298.41
372.44	2399.05
372.63	2256.28
372.83	2172.02
373.03	1809.23
373.22	1703.91
373.42	1834.98
373.62	2143.93
373.81	2363.94
374.01	2342.88
374.21	2090.10
374.40	1956.69
374.60	2101.80
374.79	2263.30
374.99	2670.55
375.19	2843.75
375.38	2932.69
375.58	2698.64
375.78	2628.42
375.97	2752.47
376.17	2867.16
376.37	2827.37
376.56	2881.20
376.76	3108.23
376.95	3379.73
377.15	3349.31
377.35	3679.32
377.54	3918.06
377.74	3878.27
377.93	3927.42
378.13	3646.55
378.33	3555.27
378.52	3328.24
378.72	3117.59
378.91	3021.63
379.11	3019.29
379.31	2916.31
379.50	2951.42
379.70	3133.98
379.89	3494.42
380.09	3749.54
380.28	3871.25
380.48	3908.69
380.68	3735.50
380.87	3714.43
381.07	3353.99
381.26	3208.87
381.46	2918.65
381.65	2871.84
381.85	2785.24
382.04	2431.82
382.24	2392.03
382.43	2305.43
382.63	2345.22
382.83	2387.35
383.02	2282.02
383.22	2293.72
383.41	2326.49
383.61	2527.78
383.80	2841.41
384.00	3246.32
384.19	3449.95
384.39	3744.86
384.58	3705.07
384.78	3707.41
384.97	3723.79
385.17	3482.72
385.36	3274.41
385.56	3070.78
385.75	3159.72
385.95	3478.04
386.14	3899.33
386.34	3978.91
386.53	3695.71
386.72	3508.46
386.92	3637.19
387.11	3702.73
387.31	3962.53
387.50	3784.65
387.70	3695.71
387.89	3700.39
388.09	3709.75
388.28	3772.94
388.48	3719.11
388.67	4053.81
388.86	4643.62
389.06	4795.76
389.25	4987.68
389.45	5111.73
389.64	5100.03
389.84	5071.94
390.03	4938.53
390.22	4887.04
390.42	5128.11
390.61	5509.62
390.81	5870.06
391.00	5980.07
391.19	5951.98
391.39	5734.31
391.58	5322.38
391.78	4870.65
391.97	4905.76
392.16	4685.75
392.36	4102.96
392.55	3379.73
392.75	2647.15
392.94	2087.76
393.13	2099.46
393.33	2459.90
393.52	3206.53
393.71	3941.46
393.91	4440.00
394.10	4744.27
394.29	5521.32
394.49	5760.06
394.68	6242.21
394.88	6502.01
395.07	6497.33
395.26	6324.13
395.46	6218.80
395.65	5998.79
395.84	5195.99
396.04	4334.67
396.23	3562.30
396.42	2995.89
396.62	2715.02
396.81	3267.39
397.00	4126.36
397.19	5221.74
397.39	6293.70
397.58	7098.84
397.77	7681.64
397.97	7765.90
398.16	8102.93
398.35	8088.89
398.55	8414.23
398.74	8678.71
398.93	8915.10
399.12	8835.52
399.32	8531.25
399.51	8664.66
399.70	9254.48
399.90	9139.79
400.09	9324.69
400.28	9135.11
400.47	9095.32
400.67	9483.85
400.86	9652.37
401.05	10085.37
401.24	9771.74
401.44	10120.48
401.63	9877.06
401.82	10312.40
402.01	10181.33
402.21	10345.17
402.40	10293.68
402.59	9928.55
402.78	9659.39
402.97	9434.70
403.17	9720.24
403.36	10059.62
403.55	10534.75
403.74	10787.53
403.93	10338.15
404.13	9458.10
404.32	9245.12
404.51	9699.18
404.70	10424.75
404.89	10548.79
405.09	10267.93
405.28	9989.41
405.47	9818.55
405.66	10085.37
405.85	9689.82
406.05	9715.56
406.24	9549.39
406.43	10174.31
406.62	10377.94
406.81	10541.77
407.00	10202.40
407.20	9886.42
407.39	10080.69
407.58	10382.62
407.77	10703.27
407.96	11145.63
408.15	11262.66
408.34	11562.25
408.54	11936.73
408.73	11943.75
408.92	11611.40
409.11	11468.62
409.30	10965.41
409.49	10169.63
409.68	9689.82
409.87	9217.03
410.07	10047.92
410.26	10691.57
410.45	11424.15
410.64	11604.38
410.83	11707.36
411.02	12161.42
411.21	12720.81
411.40	12650.60
411.59	12519.53
411.78	12477.40
411.98	12421.22
412.17	12594.42
412.36	12519.53
412.55	12423.56
412.74	12116.95
412.93	11798.64
413.12	12046.74
413.31	13179.56
413.50	13069.55
413.69	13851.29
413.88	13027.42
414.07	12439.95
414.26	12879.97
414.45	13095.30
414.64	13097.64
414.83	13296.58
415.02	12727.83
415.22	13071.89
415.41	13453.40
415.60	13504.89
415.79	14380.25
415.98	14618.99
416.17	14523.02
416.36	14054.92
416.55	13837.25
416.74	13504.89
416.93	13261.48
417.12	13013.38
417.31	13345.73
417.50	13748.31
417.69	14045.55
417.88	13783.41
418.07	13673.41
418.26	13792.78
418.45	13675.75
418.64	14232.80
418.83	14600.26
419.02	14614.30
419.21	14520.68
419.39	14003.43
419.58	13001.68
419.77	13308.29
419.96	13823.20
420.15	14368.55
420.34	14902.19
420.53	15377.32
420.72	15906.28
420.91	15623.08
421.10	15609.03
421.29	15161.99
421.48	14815.59
421.67	15393.70
421.86	14927.94
422.05	13912.14
422.24	12582.72
422.43	12318.24
422.61	13795.12
422.80	15225.18
422.99	15059.01
423.18	14696.22
423.37	14291.31
423.56	14136.84
423.75	14448.13
423.94	14956.02
424.13	13914.48
424.32	13975.34
424.50	14204.71
424.69	14008.11
424.88	14057.26
425.07	14019.81
425.26	14073.64
425.45	13912.14
425.64	13413.61
425.83	13427.65
426.01	14253.86
426.20	14738.35
426.39	14806.23
426.58	13586.81
426.77	12437.61
426.96	12095.89
427.15	12681.02
427.33	13453.40
427.52	14061.94
427.71	14209.39
427.90	14015.13
428.09	13944.91
428.28	13886.40
428.46	13088.28
428.65	13090.62
428.84	13146.79
429.03	13645.32
429.22	12664.64
429.40	12226.96
429.59	11103.50
429.78	9523.64
429.97	9834.93
430.16	9783.44
430.34	9994.09
430.53	9804.50
430.72	10031.54
430.91	11276.70
431.10	12791.03
431.28	15562.22
431.47	16741.85
431.66	17057.82
431.85	15417.11
432.03	14324.08
432.22	13701.50
432.41	14253.86
432.60	15583.29
432.79	16369.71
432.97	16774.62
433.16	16421.20
433.35	15047.30
433.54	13305.95
433.72	12582.72
433.91	12957.21
434.10	14387.27
434.28	15393.70
434.47	16149.70
434.66	16072.46
434.85	15644.14
435.03	15784.57
435.22	16278.43
435.41	16877.60
435.59	17198.26
435.78	17022.72
435.97	17516.57
436.16	17783.39
436.34	17734.24
436.53	17076.55
436.72	16952.50
436.90	16411.84
437.09	16180.12
437.28	15826.70
437.46	16379.07
437.65	16362.69
437.84	15606.69
438.02	13954.27
438.21	13975.34
438.40	14607.28
438.58	16102.89
438.77	16203.53
438.96	16666.95
439.14	17069.53
439.33	17612.53
439.52	18169.58
439.70	17661.68
439.89	17334.01
440.08	16788.66
440.26	16683.34
440.45	17455.72
440.63	18405.97
440.82	19681.56
441.01	19222.82
441.19	19316.44
441.38	19094.09
441.57	20011.58
441.75	20348.62
441.94	20463.30
442.12	20023.28
442.31	20545.22
442.50	20386.07
442.68	20133.29
442.87	20409.47
443.05	19803.27
443.24	20156.69
443.43	20638.84
443.61	20910.35
443.80	21364.41
443.98	20240.95
444.17	20053.71
444.35	21139.72
444.54	21163.12
444.73	21364.41
444.91	20407.13
445.10	19754.12
445.28	18792.16
445.47	18717.26
445.65	18497.25
445.84	19236.86
446.02	19674.54
446.21	20308.83
446.39	20027.96
446.58	20397.77
446.77	20739.49
446.95	20809.70
447.14	21495.48
447.32	21851.24
447.51	21266.11
447.69	20875.24
447.88	20215.21
448.06	20320.53
448.25	21174.83
448.43	21158.44
448.62	20374.36
448.80	20528.84
448.99	20889.28
449.17	20954.82
449.36	20865.88
449.54	21647.61
449.73	22094.66
449.91	22354.46
450.10	22951.29
450.28	22937.25
450.46	23103.43
450.65	23424.08
450.83	23201.73
451.02	22487.87
451.20	22640.00
451.39	22499.57
451.57	22195.30
451.76	22059.55
451.94	22230.41
452.13	21565.70
452.31	20856.51
452.49	19733.06
452.68	20027.96
452.86	19948.39
453.05	20386.07
453.23	21041.42
453.42	21226.32
453.60	22008.06
453.78	22370.84
453.97	22169.55
454.15	21542.29
454.34	21497.82
454.52	21942.52
454.70	21418.24
454.89	21277.81
455.07	21460.37
455.26	21797.41
455.44	22682.13
455.62	23199.39
455.81	23019.17
455.99	22785.12
456.17	23222.80
456.36	22885.76
456.54	23344.50
456.73	23328.12
456.91	23697.92
457.09	24156.67
457.28	24517.11
457.46	23597.28
457.64	23147.90
457.83	22478.50
458.01	22277.22
458.19	22492.55
458.38	22693.83
458.56	23337.48
458.74	23370.25
458.93	23161.94
459.11	22712.56
459.29	22632.98
459.48	22841.29
459.66	22490.21
459.84	23234.50
460.03	23405.36
460.21	23475.57
460.39	23899.21
460.57	23857.08
460.76	24121.56
460.94	24304.12
461.12	23836.02
461.31	24308.80
461.49	23955.38
461.67	24095.82
461.85	24828.40
462.04	24430.51
462.22	25214.59
462.40	24952.45
462.59	24741.80
462.77	24671.59
462.95	24680.95
463.13	24184.76
463.32	24046.66
463.50	24147.31
463.68	24011.56
463.86	23939.00
464.05	23915.59
464.23	22941.93
464.41	23288.33
464.59	22604.89
464.78	23812.61
464.96	23463.87
465.14	23459.19
465.32	23859.42
465.50	24723.08
465.69	25462.69
465.87	24290.08
466.05	24023.26
466.23	22810.86
466.41	21998.70
466.60	22864.69
466.78	22841.29
466.96	23138.54
467.14	23421.74
467.32	24128.58
467.51	24182.42
467.69	23197.05
467.87	23293.01
468.05	23845.38
468.23	23936.66
468.41	23826.65
468.60	23960.06
468.78	24081.77
468.96	23864.10
469.14	24402.43
469.32	24479.66
469.50	23424.08
469.69	23386.63
469.87	23030.87
470.05	23396.00
470.23	22923.21
470.41	23623.03
470.59	23583.24
470.77	23545.79
470.95	23885.17
471.14	24482.00
471.32	24573.28
471.50	25776.32
471.68	25834.83
471.86	25970.58
472.04	25972.92
472.22	26515.93
472.40	25029.69
472.58	24865.85
472.77	24411.79
472.95	25142.03
473.13	25797.38
473.31	25472.05
473.49	25057.78
473.67	25802.07
473.85	26033.78
474.03	26277.19
474.21	26363.79
474.39	26897.44
474.57	27295.33
474.75	27000.42
474.93	26419.97
475.12	26096.97
475.30	26342.73
475.48	26382.52
475.66	26747.64
475.84	26567.42
476.02	25996.33
476.20	25809.09
476.38	26094.63
476.56	27194.68
476.74	27681.52
476.92	27639.39
477.10	28004.51
477.28	28837.74
477.46	28664.54
477.64	29139.67
477.82	29591.39
478.00	29294.14
478.18	28821.36
478.36	28360.27
478.54	28713.69
478.72	28861.15
478.90	29668.63
479.08	30356.75
479.26	31122.10
479.44	30845.92
479.62	30871.67
479.80	30607.19
479.98	31072.95
480.16	31070.61
480.34	30448.03
480.52	31360.84
480.70	31653.40
480.88	31264.88
481.06	31859.37
481.24	32123.85
481.41	32542.81
481.59	33198.16
481.77	32631.75
481.95	32580.26
482.13	31805.54
482.31	32573.24
482.49	32926.66
482.67	32996.87
482.85	33141.99
483.03	33574.98
483.21	33766.91
483.39	33584.35
483.57	33488.38
483.74	33242.63
483.92	33060.07
484.10	33469.66
484.28	34604.82
484.46	34918.45
484.64	34890.37
484.82	33993.94
485.00	33525.83
485.18	33516.47
485.35	32156.62
485.53	29745.87
485.71	27080.00
485.89	26487.84
486.07	27852.38
486.25	30862.30
486.43	32561.53
486.61	32833.04
486.78	32683.24
486.96	33141.99
487.14	34099.26
487.32	35674.45
487.50	36591.94
487.68	37188.77
487.85	37659.22
488.03	37813.70
488.21	37263.67
488.39	36271.28
488.57	35814.88
488.75	35529.33
488.92	36687.90
489.10	38965.24
489.28	40367.22
489.46	41207.47
489.64	40999.16
489.81	41146.62
489.99	40718.30
490.17	40620.00
490.35	41570.25
490.53	40727.66
490.70	40474.88
490.88	40025.50
491.06	41429.82
491.24	41317.48
491.41	39924.86
491.59	38562.67
491.77	37340.91
491.95	38349.68
492.13	39679.10
492.30	41291.73
492.48	43028.41
492.66	43056.50
492.84	43154.80
493.01	42747.54
493.19	41834.74
493.37	41677.92
493.54	41511.74
493.72	42045.38
493.90	43395.87
494.08	44697.21
494.25	45141.91
494.43	45378.31
494.61	45806.62
494.79	46099.19
494.96	45757.47
495.14	44884.45
495.32	43997.39
495.49	42483.06
495.67	43920.15
495.85	45986.85
496.02	46815.40
496.20	46401.12
496.38	46012.59
496.55	45368.94
496.73	46511.13
496.91	46366.01
497.09	47255.42
497.26	47445.00
497.44	47079.88
497.62	46213.88
497.79	45067.02
497.97	43550.35
498.14	43391.19
498.32	45038.93
498.50	46206.86
498.67	46843.48
498.85	46925.40
499.03	47110.30
499.20	47585.43
499.38	47683.73
499.56	47136.05
499.73	46611.77
499.91	45986.85
500.08	45397.03
500.26	44467.84
500.44	44800.19
500.61	45851.09
500.79	45832.37
500.97	45347.88
501.14	45212.13
501.32	44772.11
501.49	44982.76
501.67	44863.39
501.84	45914.29
502.02	46223.24
502.20	46822.42
502.37	47147.75
502.55	46930.08
502.72	47709.48
502.90	48617.61
503.07	47730.54
503.25	47400.53
503.43	46153.02
503.60	45483.63
503.78	44360.17
503.95	45188.72
504.13	47047.11
504.30	48449.09
504.48	48252.48
504.65	47416.91
504.83	47494.15
505.01	48247.80
505.18	48891.45
505.36	49741.06
505.53	49834.69
505.71	49940.01
505.88	49972.78
506.06	49137.21
506.23	48854.00
506.41	48224.40
506.58	48327.38
506.76	48535.69
506.93	48603.56
507.11	48418.66
507.28	48079.28
507.46	47559.69
507.63	47173.50
507.81	46822.42
507.98	47288.18
508.16	47980.98
508.33	48956.99
508.50	49127.84
508.68	49361.90
508.85	50330.88
509.03	50227.90
509.20	49991.50
509.38	48966.35
509.55	47929.49
509.73	47945.87
509.90	48765.06
510.08	49155.93
510.25	49195.72
510.42	48907.83
510.60	48516.96
510.77	49188.70
510.95	49848.73
511.12	50220.87
511.30	50398.76
511.47	50939.42
511.64	50923.04
511.82	50143.64
511.99	48877.41
512.17	48863.36
512.34	48144.82
512.51	48502.92
512.69	48772.08
512.86	48776.76
513.04	49565.52
513.21	49392.33
513.38	48774.42
513.56	48212.70
513.73	47070.51
513.90	47433.30
514.08	47854.59
514.25	48198.65
514.43	48224.40
514.60	48755.70
514.77	48772.08
514.95	49221.47
515.12	48830.60
515.29	49104.44
515.47	49785.54
515.64	50115.55
515.81	49382.96
515.99	48755.70
516.16	47042.43
516.33	43477.79
516.51	41294.07
516.68	40397.65
516.85	40217.43
517.03	40697.24
517.20	43981.01
517.37	47580.75
517.54	48861.02
517.72	48175.25
517.89	45036.59
518.06	41584.30
518.24	41879.21
518.41	44842.32
518.58	47016.68
518.75	47409.89
518.93	47262.44
519.10	47334.99
519.27	47950.56
519.45	48435.05
519.62	49074.01
519.79	49822.98
519.96	49450.84
520.14	48964.01
520.31	47721.18
520.48	47828.85
520.65	48154.18
520.83	49514.03
521.00	50061.72
521.17	49705.96
521.34	49081.03
521.52	49256.57
521.69	50127.25
521.86	51009.64
522.03	50356.63
522.20	48949.96
522.38	47157.11
522.55	47246.05
522.72	48072.26
522.89	48355.47
523.07	48781.45
523.24	49394.67
523.41	50468.97
523.58	50506.42
523.75	51255.39
523.92	50869.20
524.10	50796.65
524.27	50827.07
524.44	50679.62
524.61	50351.94
524.78	50225.56
524.96	49982.14
525.13	50255.98
525.30	50604.72
525.47	51222.62
525.64	51042.40
525.81	50094.49
525.98	47648.63
526.16	46335.59
526.33	44767.43
526.50	44683.17
526.67	44182.29
526.84	44917.22
527.01	46288.77
527.18	47512.88
527.36	48374.19
527.53	49771.49
527.70	50227.90
527.87	49434.45
528.04	48704.21
528.21	49914.26
528.38	50637.49
528.55	51381.78
528.72	51852.23
528.89	51725.84
529.07	51349.01
529.24	50717.07
529.41	49680.21
529.58	49078.69
529.75	48746.34
529.92	49984.48
530.09	50218.53
530.26	50794.31
530.43	51311.56
530.60	51391.14
530.77	51653.28
530.94	51906.06
531.11	51054.11
531.28	50403.44
531.46	50251.30
531.63	50464.29
531.80	50534.51
531.97	49982.14
532.14	49291.68
532.31	47555.00
532.48	46906.68
532.65	46550.91
532.82	47978.64
532.99	49130.19
533.16	49741.06
533.33	50405.78
533.50	50408.12
533.67	49127.84
533.84	49125.50
534.01	49153.59
534.18	49530.42
534.35	49736.38
534.52	49640.42
534.69	49961.08
534.86	50642.17
535.03	50892.61
535.20	51124.32
535.37	51648.60
535.54	51529.23
535.71	51253.05
535.88	50686.64
536.05	49874.48
536.22	49705.96
536.38	49059.97
536.55	48334.40
536.72	47487.13
536.89	47512.88
537.06	48978.05
537.23	49993.84
537.40	50122.57
537.57	50351.94
537.74	49778.51
537.91	50089.80
538.08	49804.26
538.25	49897.88
538.42	50305.13
538.59	49799.58
538.75	48947.62
538.92	48596.54
539.09	48793.15
539.26	48208.01
539.43	48114.39
539.60	47744.59
539.77	48713.57
539.94	48631.65
540.11	47449.68
540.28	46424.53
540.44	46735.82
540.61	46871.57
540.78	47208.61
540.95	48154.18
541.12	48367.17
541.29	48811.87
541.46	49287.00
541.62	49382.96
541.79	49155.93
541.96	48362.49
542.13	48311.00
542.30	48369.51
542.47	48870.39
542.63	48425.68
542.80	48409.30
542.97	48538.03
543.14	48360.15
543.31	48161.20
543.48	49085.72
543.64	50101.51
543.81	50356.63
543.98	50541.53
544.15	49542.12
544.32	48491.22
544.48	48531.01
544.65	48966.35
544.82	49677.87
544.99	49179.34
545.16	49036.56
545.32	48603.56
545.49	49921.29
545.66	50157.68
545.83	49593.61
546.00	49242.53
546.16	48870.39
546.33	48685.48
546.50	48704.21
546.67	49305.73
546.83	48835.28
547.00	48626.97
547.17	47679.05
547.34	46988.60
547.50	46721.77
547.67	47580.75
547.84	47753.95
548.00	48002.05
548.17	48596.54
548.34	48790.81
548.51	48825.92
548.67	48893.79
548.84	48858.68
549.01	48786.13
549.18	48645.69
549.34	48912.52
549.51	48673.78
549.68	48161.20
549.84	47819.49
550.01	47775.02
550.18	47817.14
550.34	47569.05
550.51	47922.47
550.68	47969.28
550.84	47578.41
551.01	47569.05
551.18	47648.63
551.34	47845.23
551.51	48161.20
551.68	48779.10
551.84	48889.11
552.01	48423.34
552.18	48442.07
552.34	47297.55
552.51	46607.09
552.68	46412.82
552.84	47760.97
553.01	47480.11
553.18	47585.43
553.34	47496.49
553.51	47910.77
553.67	48467.81
553.84	48313.34
554.01	48320.36
554.17	47732.89
554.34	47903.74
554.51	47934.17
554.67	48839.96
554.84	48671.44
555.00	48137.80
555.17	47648.63
555.33	47393.51
555.50	47405.21
555.67	47686.07
555.83	47435.64
556.00	46927.74
556.16	46522.83
556.33	46162.39
556.50	46052.38
556.66	46197.49
556.83	45743.43
556.99	46204.52
557.16	45923.65
557.32	46403.46
557.49	46878.59
557.65	46394.10
557.82	46649.22
557.98	46555.60
558.15	46096.85
558.32	44825.94
558.48	43913.13
558.65	43866.32
558.81	44210.38
558.98	44905.52
559.14	44926.58
559.31	45336.18
559.47	45289.37
559.64	44769.77
559.80	44439.75
559.97	44165.91
560.13	45111.49
560.30	46251.33
560.46	46721.77
560.63	47194.56
560.79	47437.98
560.96	46639.86
561.12	45422.78
561.29	44442.09
561.45	44149.53
561.61	45226.17
561.78	44957.01
561.94	45394.69
562.11	45127.87
562.27	44954.67
562.44	45228.51
562.60	45904.93
562.77	45867.48
562.93	45668.53
563.10	45603.00
563.26	44626.99
563.42	44952.33
563.59	44832.96
563.75	45123.19
563.92	44411.67
564.08	44828.28
564.24	45378.31
564.41	45310.43
564.57	44652.74
564.74	45240.21
564.90	45282.34
565.07	44619.97
565.23	44170.59
565.39	43274.16
565.56	43143.09
565.72	42628.18
565.88	43618.22
566.05	43185.22
566.21	43391.19
566.38	44130.80
566.54	43999.73
566.70	44559.12
566.87	44776.79
567.03	44933.60
567.19	44968.71
567.36	44664.44
567.52	44676.15
567.68	44481.88
567.85	42939.47
568.01	42799.04
568.17	42438.59
568.34	42155.39
568.50	42298.16
568.66	42225.60
568.83	43119.69
568.99	43232.04
569.15	43185.22
569.32	43592.48
569.48	43178.20
569.64	42581.37
569.81	42494.77
569.97	42101.56
570.13	42227.95
570.30	41235.56
570.46	41062.36
570.62	40076.99
570.78	40264.24
570.95	40517.01
571.11	41361.95
571.27	41759.84
571.43	41909.63
571.60	42050.06
571.76	42567.32
571.92	42923.08
572.09	43103.31
572.25	43126.71
572.41	43119.69
572.57	42539.24
572.74	42806.06
572.90	42440.93
573.06	42354.33
573.22	42120.28
573.38	42241.99
573.55	42373.06
573.71	42679.67
573.87	42333.27
574.03	42202.20
574.20	42117.94
574.36	41588.98
574.52	41862.82
574.68	41401.74
574.84	40818.94
575.01	40615.32
575.17	40149.55
575.33	40451.48
575.49	41034.27
575.65	40732.34
575.82	40821.28
575.98	40357.86
576.14	41008.53
576.30	41083.42
576.46	41287.05
576.62	41497.70
576.79	41350.24
576.95	40699.58
577.11	40870.43
577.27	40842.35
577.43	40999.16
577.59	40304.02
577.75	40250.19
577.92	39199.29
578.08	38752.25
578.24	38841.19
578.40	39807.83
578.56	39920.18
578.72	39627.61
578.88	39601.86
579.04	40514.67
579.21	40271.26
579.37	40404.67
579.53	40477.22
579.69	40346.15
579.85	40739.36
580.01	40636.38
580.17	40027.84
580.33	39608.89
580.49	39845.28
580.65	40259.55
580.82	40098.06
580.98	40378.92
581.14	40322.75
581.30	40617.66
581.46	39943.58
581.62	40751.07
581.78	40788.52
581.94	40112.10
582.10	40343.81
582.26	40847.03
582.42	40889.16
582.58	40772.13
582.74	40596.59
582.90	41127.89
583.06	40336.79
583.22	40472.54
583.38	40011.46
583.54	40191.68
583.70	40046.57
583.86	40226.79
584.02	39723.57
584.18	40018.48
584.34	39910.82
584.50	39648.68
584.66	39419.30
584.82	38923.11
584.98	38824.81
585.14	38576.71
585.30	38026.68
585.46	37642.84
585.62	37801.99
