SpectraSuite Data File
++++++++++++++++++++++++++++++++++++
Date: Mon Oct 07 14:53:53 GMT-05:00 2013
User: price-jones
Dark Spectrum Present: No
Reference Spectrum Present: No
Number of Sampled Component Spectra: 1
Spectrometers: USB2+H05261
Integration Time (usec): 100000 (USB2+H05261)
Spectra Averaged: 1 (USB2+H05261)
Boxcar Smoothing: 0 (USB2+H05261)
Correct for Electrical Dark: No (USB2+H05261)
Strobe/Lamp Enabled: No (USB2+H05261)
Correct for Detector Non-linearity: No (USB2+H05261)
Correct for Stray Light: No (USB2+H05261)
Number of Pixels in Processed Spectrum: 2048
>>>>>Begin Processed Spectral Data<<<<<
365.73	0.00
365.92	0.00
366.12	0.00
366.32	0.00
366.52	0.00
366.72	0.00
366.91	0.00
367.11	0.00
367.31	0.00
367.51	0.00
367.70	0.00
367.90	0.00
368.10	0.00
368.30	0.00
368.49	0.00
368.69	0.00
368.89	0.00
369.09	0.00
369.28	0.00
369.48	0.00
369.68	0.00
369.87	0.00
370.07	0.00
370.27	0.00
370.47	519.60
370.66	2808.64
370.86	3400.80
371.06	3667.62
371.25	3857.20
371.45	3527.19
371.65	3091.85
371.84	2881.20
372.04	3047.38
372.24	3372.71
372.44	3665.28
372.63	3522.51
372.83	3185.47
373.03	2984.18
373.22	2597.99
373.42	2743.11
373.62	3251.00
373.81	3375.05
374.01	3499.10
374.21	3269.73
374.40	2932.69
374.60	3126.96
374.79	3412.50
374.99	3976.57
375.19	4224.67
375.38	4187.22
375.58	4028.06
375.78	3955.51
375.97	4023.38
376.17	4229.35
376.37	4109.98
376.56	4329.99
376.76	4500.85
376.95	4844.91
377.15	5259.18
377.35	5350.46
377.54	5610.26
377.74	5619.63
377.93	5687.50
378.13	5652.39
378.33	5263.86
378.52	5029.81
378.72	4821.50
378.91	4741.93
379.11	4613.20
379.31	4341.69
379.50	4276.16
379.70	4748.95
379.89	5137.48
380.09	5434.72
380.28	5551.75
380.48	5687.50
380.68	5497.92
380.87	5373.87
381.07	5034.49
381.26	4568.73
381.46	4283.18
381.65	4397.87
381.85	3997.64
382.04	3777.62
382.24	3639.53
382.43	3288.45
382.63	3330.58
382.83	3473.36
383.02	3417.18
383.22	3372.71
383.41	3499.10
383.61	3653.58
383.80	4203.60
384.00	4802.78
384.19	5275.57
384.39	5490.90
384.58	5575.16
384.78	5441.75
384.97	5502.60
385.17	5116.41
385.36	4964.28
385.56	4674.05
385.75	4802.78
385.95	5275.57
386.14	5710.91
386.34	5715.59
386.53	5537.71
386.72	5224.08
386.92	5163.22
387.11	5565.79
387.31	5668.78
387.50	5753.04
387.70	5305.99
387.89	5228.76
388.09	5343.44
388.28	5607.92
388.48	5511.96
388.67	5898.15
388.86	6656.48
389.06	7042.67
389.25	7564.61
389.45	7456.95
389.64	7548.23
389.84	7129.27
390.03	7314.17
390.22	7138.63
390.42	7536.52
390.61	7978.89
390.81	8498.49
391.00	8697.43
391.19	8404.86
391.39	8292.52
391.58	7903.99
391.78	7316.51
391.97	7204.17
392.16	6630.74
392.36	5919.21
392.55	4891.72
392.75	4067.85
392.94	3133.98
393.13	3169.09
393.33	3669.96
393.52	4816.82
393.71	5858.36
393.91	6473.92
394.10	7042.67
394.29	7737.81
394.49	8341.67
394.68	8842.54
394.88	8959.57
395.07	9170.22
395.26	9172.56
395.46	9088.30
395.65	8578.06
395.84	7482.69
396.04	6340.51
396.23	5043.85
396.42	4191.90
396.62	4079.55
396.81	4842.57
397.00	5921.56
397.19	7569.29
397.39	9062.55
397.58	10087.71
397.77	10916.26
397.97	11138.61
398.16	11417.13
398.35	11749.49
398.55	12379.09
398.74	12655.28
398.93	12652.94
399.12	12423.56
399.32	12156.74
399.51	12556.97
399.70	13238.07
399.90	13128.06
400.09	13345.73
400.28	12809.75
400.47	13322.33
400.67	13727.24
400.86	14246.84
401.05	14036.19
401.24	13994.06
401.44	14298.33
401.63	14274.93
401.82	14375.57
402.01	14630.69
402.21	14733.67
402.40	14656.43
402.59	14305.35
402.78	13741.29
402.97	13123.38
403.17	13825.54
403.36	14389.61
403.55	15243.91
403.74	15524.77
403.93	14876.44
404.13	13694.47
404.32	13642.98
404.51	13855.97
404.70	15040.28
404.89	14981.77
405.09	14630.69
405.28	14228.12
405.47	14436.42
405.66	14398.98
405.85	14052.58
406.05	13575.11
406.24	13661.71
406.43	14169.60
406.62	14906.87
406.81	15143.27
407.00	14537.07
407.20	13895.76
407.39	14394.29
407.58	14855.38
407.77	15365.62
407.96	16072.46
408.15	16248.00
408.34	16184.80
408.54	16837.81
408.73	17142.08
408.92	16547.59
409.11	16194.17
409.30	15281.36
409.49	14471.53
409.68	13996.40
409.87	13135.09
410.07	13855.97
410.26	14829.63
410.45	16018.63
410.64	16444.60
410.83	16814.41
411.02	17238.05
411.21	17811.48
411.40	17909.78
411.59	17893.40
411.78	17638.28
411.98	17568.06
412.17	18005.74
412.36	17654.66
412.55	17596.15
412.74	17097.61
412.93	16652.91
413.12	17050.80
413.31	18635.35
413.50	18389.59
413.69	18944.30
413.88	18307.67
414.07	17631.26
414.26	17942.55
414.45	18508.96
414.64	18675.13
414.83	18735.99
415.02	18551.09
415.22	18167.24
415.41	18995.79
415.60	19082.39
415.79	19971.79
415.98	20311.17
416.17	20987.58
416.36	20130.95
416.55	19964.77
416.74	19066.00
416.93	18817.91
417.12	18602.58
417.31	18963.02
417.50	19194.73
417.69	19646.46
417.88	19545.81
418.07	19597.31
418.26	19075.37
418.45	19475.60
418.64	20173.08
418.83	20783.96
419.02	20601.40
419.21	20627.14
419.39	19412.40
419.58	18551.09
419.77	18654.07
419.96	19126.86
420.15	20510.11
420.34	21018.01
420.53	21745.92
420.72	22249.13
420.91	22181.26
421.10	21654.64
421.29	21855.92
421.48	20699.70
421.67	21680.38
421.86	21312.92
422.05	19578.58
422.24	17736.58
422.43	17343.37
422.61	19143.24
422.80	21067.16
422.99	20929.07
423.18	20123.93
423.37	19803.27
423.56	20222.23
423.75	20105.20
423.94	20566.29
424.13	19463.90
424.32	19552.84
424.50	19882.85
424.69	19466.24
424.88	19646.46
425.07	19349.21
425.26	19662.84
425.45	19159.63
425.64	18967.70
425.83	18946.64
426.01	19840.72
426.20	20620.12
426.39	20325.21
426.58	18916.21
426.77	17013.35
426.96	16959.52
427.15	17785.73
427.33	18939.62
427.52	19726.04
427.71	19651.14
427.90	19695.61
428.09	19281.33
428.28	19096.43
428.46	18204.69
428.65	17914.46
428.84	18600.24
429.03	18843.65
429.22	17905.10
429.40	16837.81
429.59	15428.81
429.78	13586.81
429.97	13411.27
430.16	13624.26
430.34	13846.61
430.53	13689.79
430.72	14174.28
430.91	15594.99
431.10	18586.19
431.28	21500.16
431.47	23236.84
431.66	23634.73
431.85	21549.31
432.03	19686.25
432.22	18829.61
432.41	19641.78
432.60	21734.21
432.79	22405.95
432.97	23330.46
433.16	22862.35
433.35	20943.11
433.54	18654.07
433.72	17582.10
433.91	17799.77
434.10	20201.16
434.28	21600.80
434.47	22522.98
434.66	22668.09
434.85	21422.92
435.03	21542.29
435.22	22195.30
435.41	23847.72
435.59	23831.33
435.78	23880.49
435.97	24732.44
436.16	24664.57
436.34	24224.54
436.53	23564.51
436.72	23655.79
436.90	22682.13
437.09	22611.92
437.28	22192.96
437.46	22738.30
437.65	22614.26
437.84	21659.32
438.02	19527.09
438.21	19349.21
438.40	20479.69
438.58	22352.12
438.77	22881.08
438.96	23133.86
439.14	24084.11
439.33	24428.17
439.52	25111.61
439.70	24306.46
439.89	23747.08
440.08	23293.01
440.26	23199.39
440.45	23812.61
440.63	25542.27
440.82	26574.44
441.01	26464.44
441.19	26171.87
441.38	26490.18
441.57	27470.87
441.75	28039.62
441.94	28215.16
442.12	27875.78
442.31	28505.38
442.50	28587.30
442.68	28065.36
442.87	27576.19
443.05	27323.41
443.24	27725.99
443.43	28173.03
443.61	28842.42
443.80	29371.38
443.98	27440.44
444.17	27321.07
444.35	29013.28
444.54	29839.49
444.73	28594.32
444.91	27971.74
445.10	26771.05
445.28	25844.20
445.47	25216.93
445.65	25191.19
445.84	25895.69
446.02	27089.36
446.21	27363.20
446.39	27580.87
446.58	27814.93
446.77	28236.22
446.95	28627.09
447.14	29883.96
447.32	29802.04
447.51	29256.70
447.69	28107.49
447.88	27976.42
448.06	27969.40
448.25	28821.36
448.43	29060.09
448.62	28217.50
448.80	28250.27
448.99	28175.37
449.17	28732.42
449.36	28638.80
449.54	29930.77
449.73	30183.55
449.91	30143.76
450.10	31674.47
450.28	32023.21
450.46	31271.90
450.65	31669.79
450.83	31545.74
451.02	30951.24
451.20	30642.29
451.39	30616.55
451.57	30642.29
451.76	30595.48
451.94	30342.70
452.13	29567.99
452.31	28182.39
452.49	26707.85
452.68	27470.87
452.86	27501.29
453.05	27531.72
453.23	28425.81
453.42	29127.97
453.60	30057.16
453.78	30136.74
453.97	29935.45
454.15	29816.08
454.34	29062.43
454.52	29567.99
454.70	28652.84
454.89	29495.43
455.07	28793.27
455.26	30015.03
455.44	30850.60
455.62	31697.88
455.81	31915.54
455.99	31349.14
456.17	31194.66
456.36	30890.39
456.54	32163.64
456.73	31578.51
456.91	32229.18
457.09	32465.57
457.28	33097.52
457.46	31866.39
457.64	31501.27
457.83	30609.53
458.01	29879.28
458.19	30756.98
458.38	31220.41
458.56	31850.01
458.74	31847.67
458.93	31269.56
459.11	31087.00
459.29	30682.08
459.48	30993.37
459.66	31131.47
459.84	31360.84
460.03	32105.13
460.21	31498.93
460.39	32762.82
460.57	32694.94
460.76	32907.93
460.94	32910.27
461.12	32517.06
461.31	32535.79
461.49	32404.72
461.67	32559.19
461.85	33467.32
462.04	33193.48
462.22	33596.05
462.40	33401.79
462.59	33179.43
462.77	33429.87
462.95	33340.93
463.13	32844.74
463.32	32877.51
463.50	32208.11
463.68	32093.43
463.86	32128.53
464.05	32250.24
464.23	31648.72
464.41	31484.89
464.59	30862.30
464.78	31948.31
464.96	31878.10
465.14	31711.92
465.32	32678.56
465.50	33486.04
465.69	33603.07
465.87	33158.37
466.05	31796.18
466.23	30752.30
466.41	29694.38
466.60	30581.44
466.78	30995.71
466.96	31014.44
467.14	31812.56
467.32	32421.10
467.51	31997.46
467.69	30878.69
467.87	31945.97
468.05	31510.63
468.23	31971.72
468.41	32187.05
468.60	32376.63
468.78	32807.29
468.96	31978.74
469.14	32940.70
469.32	32664.52
469.50	31372.54
469.69	31641.70
469.87	31398.29
470.05	31220.41
470.23	30941.88
470.41	31129.12
470.59	32203.43
470.77	32098.11
470.95	32414.08
471.14	32957.08
471.32	32711.33
471.50	34197.57
471.68	34960.58
471.86	35023.78
472.04	34698.44
472.22	35777.43
472.40	33488.38
472.58	33195.82
472.77	32891.55
472.95	33837.12
473.13	34433.96
473.31	33369.02
473.49	33855.85
473.67	34148.42
473.85	34602.48
474.03	35487.20
474.21	35290.60
474.39	35817.22
474.57	35903.82
474.75	36098.08
474.93	35770.41
475.12	34597.80
475.30	35192.30
475.48	35248.47
475.66	36062.97
475.84	35512.95
476.02	34946.54
476.20	34300.55
476.38	34913.77
476.56	35854.67
476.74	36390.65
476.92	36793.22
477.10	37553.90
477.28	38223.29
477.46	38155.41
477.64	38595.43
477.82	38869.28
478.00	39033.11
478.18	38272.44
478.36	38469.04
478.54	38174.14
478.72	38499.47
478.90	39302.28
479.08	40669.15
479.26	40832.99
479.44	41013.21
479.62	40566.16
479.80	40828.30
479.98	41017.89
480.16	41205.13
480.34	40074.65
480.52	41282.37
480.70	41188.75
480.88	40811.92
481.06	41961.12
481.24	42321.57
481.41	42976.92
481.59	44116.76
481.77	43730.57
481.95	43232.04
482.13	42864.57
482.31	42724.14
482.49	43377.15
482.67	43377.15
482.85	43777.38
483.03	44598.91
483.21	44566.14
483.39	44392.94
483.57	43739.93
483.74	43391.19
483.92	43950.58
484.10	43910.79
484.28	45160.64
484.46	45373.63
484.64	45813.65
484.82	44839.98
485.00	44545.08
485.18	43669.72
485.35	42426.89
485.53	39269.51
485.71	36065.31
485.89	34972.28
486.07	37010.89
486.25	40130.83
486.43	42314.55
486.61	43445.02
486.78	43196.93
486.96	43618.22
487.14	45354.90
487.32	46181.11
487.50	46960.51
487.68	48123.75
487.85	48533.35
488.03	48200.99
488.21	48212.70
488.39	47395.85
488.57	46646.88
488.75	46038.34
488.92	47201.58
489.10	49769.15
489.28	51014.32
489.46	51908.40
489.64	51295.18
489.81	51903.72
489.99	51580.73
490.17	51316.25
490.35	51948.19
490.53	51126.66
490.70	51068.15
490.88	50707.71
491.06	52025.43
491.24	51980.96
491.41	50806.01
491.59	49081.03
491.77	48505.26
491.95	49141.89
492.13	50365.99
492.30	51681.37
492.48	52891.43
492.66	53347.83
492.84	53284.64
493.01	53151.23
493.19	52577.79
493.37	52395.23
493.54	51885.00
493.72	52420.98
493.90	53734.02
494.08	54326.17
494.25	54663.21
494.43	55049.40
494.61	55278.77
494.79	55433.25
494.96	55028.34
495.14	54461.93
495.32	53652.10
495.49	52809.51
495.67	53989.14
495.85	55327.92
496.02	55760.92
496.20	55641.56
496.38	55173.45
496.55	54962.80
496.73	55423.89
496.91	55622.83
497.09	56306.27
497.26	56261.80
497.44	55955.19
497.62	55365.37
497.79	54688.96
497.97	53350.17
498.14	53219.10
498.32	54763.85
498.50	55367.71
498.67	56006.68
498.85	55749.22
499.03	56278.18
499.20	56097.96
499.38	56451.38
499.56	56320.31
499.73	55458.99
499.91	55288.13
500.08	54801.30
500.26	53947.01
500.44	54525.12
500.61	55435.59
500.79	55021.31
500.97	54454.90
501.14	54347.24
501.32	54330.86
501.49	54372.99
501.67	54513.42
501.84	54962.80
502.02	55377.08
502.20	55760.92
502.37	55910.72
502.55	55938.80
502.72	56514.58
502.90	56877.36
503.07	56528.62
503.25	56289.88
503.43	55292.82
503.60	54518.10
503.78	54080.42
503.95	54185.74
504.13	55648.58
504.30	56542.66
504.48	56528.62
504.65	56278.18
504.83	56034.77
505.01	56755.65
505.18	57008.43
505.36	57759.74
505.53	57565.48
505.71	58071.03
505.88	58049.97
506.06	57394.62
506.23	57106.73
506.41	56568.41
506.58	57008.43
506.76	57155.88
506.93	57078.64
507.11	56652.67
507.28	56842.25
507.46	56385.85
507.63	55693.05
507.81	55353.67
507.98	55831.14
508.16	56198.60
508.33	56903.10
508.50	57343.12
508.68	57797.19
508.85	57867.40
509.03	57907.19
509.20	57977.41
509.38	56875.02
509.55	56420.95
509.73	56432.66
509.90	57338.44
510.08	57469.51
510.25	56963.96
510.42	57076.30
510.60	56924.17
510.77	57151.20
510.95	57972.73
511.12	58078.05
511.30	58223.17
511.47	58457.22
511.64	58450.20
511.82	58162.31
511.99	57322.06
512.17	56868.00
512.34	56451.38
512.51	56809.48
512.69	57003.75
512.86	56882.04
513.04	57513.98
513.21	57371.21
513.38	56839.91
513.56	56437.34
513.73	55901.36
513.90	56074.55
514.08	56126.05
514.25	56603.52
514.43	56690.12
514.60	56727.56
514.77	56907.79
514.95	57193.33
515.12	56996.73
515.29	57162.90
515.47	57530.37
515.64	57956.35
515.81	57502.28
515.99	56924.17
516.16	55398.14
516.33	53006.11
516.51	51220.28
516.68	50609.40
516.85	50122.57
517.03	50562.59
517.20	53476.56
517.37	56079.24
517.54	57137.16
517.72	56545.00
517.89	54230.21
518.06	51260.07
518.24	51723.50
518.41	54115.53
518.58	55674.32
518.75	55859.23
518.93	56142.43
519.10	55831.14
519.27	56184.56
519.45	56460.74
519.62	57195.67
519.79	57518.67
519.96	57453.13
520.14	56933.53
520.31	55990.30
520.48	56030.08
520.65	56676.07
520.83	57284.61
521.00	57844.00
521.17	57406.32
521.34	57048.22
521.52	57315.04
521.69	57815.91
521.86	58136.57
522.03	57996.13
522.20	56828.21
522.38	55461.33
522.55	55868.59
522.72	56491.17
522.89	56413.93
523.07	56725.22
523.24	56980.34
523.41	57818.25
523.58	58171.67
523.75	58597.65
523.92	58459.56
524.10	58255.93
524.27	58590.63
524.44	58197.42
524.61	58033.58
524.78	57893.15
524.96	57556.11
525.13	57773.78
525.30	58141.25
525.47	58616.38
525.64	58269.98
525.81	57614.63
525.98	56252.44
526.16	54745.13
526.33	53939.99
526.50	53729.34
526.67	53146.54
526.84	53949.35
527.01	55063.44
527.18	55798.37
527.36	56877.36
527.53	57427.38
527.70	57745.70
527.87	57256.53
528.04	56802.46
528.21	57336.10
528.38	58033.58
528.55	58305.09
528.72	58754.47
528.89	58932.35
529.07	58705.32
529.24	58080.39
529.41	57462.49
529.58	56715.86
529.75	56830.55
529.92	57436.75
530.09	57834.64
530.26	58365.94
530.43	58595.31
530.60	58492.33
530.77	58518.07
530.94	58857.45
531.11	58431.47
531.28	58047.63
531.46	57745.70
531.63	58141.25
531.80	57893.15
531.97	57499.94
532.14	56774.37
532.31	55557.30
532.48	54876.20
532.65	55058.76
532.82	56086.26
532.99	57050.56
533.16	57532.71
533.33	57944.64
533.50	57752.72
533.67	57125.46
533.84	56535.64
534.01	57031.83
534.18	57155.88
534.35	57345.47
534.52	57036.51
534.69	57205.03
534.86	57778.46
535.03	57879.11
535.20	58330.83
535.37	58672.55
535.54	58749.79
535.71	58501.69
535.88	58068.69
536.05	57619.31
536.22	57127.80
536.38	56814.16
536.55	56245.41
536.72	55501.12
536.89	55545.59
537.06	56678.41
537.23	57219.08
537.40	57359.51
537.57	57530.37
537.74	57270.57
537.91	57539.73
538.08	57343.12
538.25	57513.98
538.42	57460.15
538.59	57471.85
538.75	56615.22
538.92	56418.61
539.09	56034.77
539.26	55887.31
539.43	55838.16
539.60	56081.58
539.77	56324.99
539.94	56273.50
540.11	55203.88
540.28	54901.95
540.44	54810.67
540.61	54843.43
540.78	55318.56
540.95	55838.16
541.12	56350.74
541.29	56556.70
541.46	56900.76
541.62	56870.34
541.79	56704.16
541.96	55870.93
542.13	55849.86
542.30	56343.72
542.47	56566.07
542.63	56198.60
542.80	56154.13
542.97	56214.99
543.14	56044.13
543.31	56006.68
543.48	56603.52
543.64	57509.30
543.81	57298.65
543.98	57375.89
544.15	56629.26
544.32	56065.19
544.48	56350.74
544.65	56662.03
544.82	56996.73
544.99	56643.30
545.16	56196.26
545.32	56004.34
545.49	56886.72
545.66	57336.10
545.83	57017.79
546.00	56491.17
546.16	56247.75
546.33	56240.73
546.50	56198.60
546.67	56877.36
546.83	56409.25
547.00	56427.98
547.17	55819.44
547.34	54920.67
547.50	55042.38
547.67	55522.19
547.84	55400.48
548.00	56002.00
548.17	56219.67
548.34	56334.35
548.51	56090.94
548.67	56222.01
548.84	56355.42
549.01	56231.37
549.18	56184.56
549.34	56079.24
549.51	56172.86
549.68	56140.09
549.84	55868.59
550.01	55646.24
550.18	55496.44
550.34	55606.45
550.51	55774.97
550.68	55915.40
550.84	55299.84
551.01	55484.74
551.18	55437.93
551.34	55545.59
551.51	55976.25
551.68	56416.27
551.84	56362.44
552.01	55948.17
552.18	55950.51
552.34	55182.81
552.51	54710.02
552.68	54590.66
552.84	55248.35
553.01	55585.38
553.18	55208.56
553.34	55444.95
553.51	55599.43
553.67	55847.52
553.84	55856.88
554.01	55870.93
554.17	55674.32
554.34	55505.80
554.51	55781.99
554.67	56243.07
554.84	55861.57
555.00	55667.30
555.17	55302.18
555.33	54990.89
555.50	55348.99
555.67	55210.90
555.83	55110.25
556.00	54981.52
556.16	54731.09
556.33	54244.26
556.50	54024.25
556.66	54389.37
556.83	54267.66
556.99	54141.27
557.16	54298.09
557.32	54597.68
557.49	54642.15
557.65	54485.33
557.82	54686.62
557.98	54525.12
558.15	53951.69
558.32	52893.77
558.48	52435.02
558.65	52596.52
558.81	52863.34
558.98	53366.55
559.14	53476.56
559.31	53214.42
559.47	53315.06
559.64	53186.33
559.80	52994.41
559.97	52926.53
560.13	53361.87
560.30	54532.14
560.46	54824.71
560.63	55140.68
560.79	55028.34
560.96	54635.13
561.12	53450.81
561.29	52444.38
561.45	52392.89
561.61	53165.27
561.78	53677.85
561.94	53614.65
562.11	53396.98
562.27	53226.12
562.44	53506.99
562.60	53818.28
562.77	54237.23
562.93	53916.58
563.10	53890.83
563.26	53141.86
563.42	53471.88
563.59	53172.29
563.75	53059.94
563.92	53205.06
564.08	52790.78
564.24	53490.60
564.41	53301.02
564.57	53249.53
564.74	53324.43
564.90	52821.21
565.07	52739.29
565.23	52151.82
565.39	51786.69
565.56	51578.39
565.72	51313.90
565.88	51636.90
566.05	51664.99
566.21	52449.06
566.38	52402.25
566.54	52402.25
566.70	52563.75
566.87	52800.15
567.03	52987.39
567.19	53118.46
567.36	53050.58
567.52	52659.71
567.68	52502.90
567.85	51997.34
568.01	51491.79
568.17	50979.21
568.34	51000.27
568.50	50801.33
568.66	50911.33
568.83	51285.82
568.99	51831.16
569.15	51646.26
569.32	51812.44
569.48	51550.30
569.64	51346.67
569.81	51098.58
569.97	50511.10
570.13	50829.41
570.30	50148.32
570.46	49638.08
570.62	49287.00
570.78	49001.46
570.95	49137.21
571.11	50312.16
571.27	50309.82
571.43	50298.11
571.60	51054.11
571.76	51154.75
571.92	51318.59
572.09	51735.20
572.25	51421.57
572.41	51599.45
572.57	51257.73
572.74	51370.08
572.90	50841.12
573.06	50817.71
573.22	51058.79
573.38	50962.82
573.55	51145.39
573.71	51194.54
573.87	51213.26
574.03	50602.38
574.20	50899.63
574.36	50122.57
574.52	50490.04
574.68	49790.22
574.84	49532.76
575.01	49064.65
575.17	49071.67
575.33	49441.48
575.49	49619.36
575.65	49811.28
575.82	49539.78
575.98	48851.66
576.14	49382.96
576.30	49698.94
576.46	50351.94
576.62	49584.25
576.79	50122.57
576.95	49638.08
577.11	49284.66
577.27	49563.18
577.43	49682.55
577.59	49081.03
577.75	48687.82
577.92	47882.68
578.08	47625.22
578.24	47746.93
578.40	48196.31
578.56	48135.46
578.72	48411.64
578.88	48865.70
579.04	48549.73
579.21	48825.92
579.37	48992.09
579.53	49097.42
579.69	48790.81
579.85	49258.91
580.01	48910.17
580.17	48170.57
580.33	48383.55
580.49	48369.51
580.65	49020.18
580.82	49097.42
580.98	48931.24
581.14	48615.27
581.30	48823.58
581.46	48542.71
581.62	49052.95
581.78	48959.33
581.94	49174.66
582.10	48966.35
582.26	49315.09
582.42	49095.08
582.58	49184.02
582.74	48671.44
582.90	49319.77
583.06	49062.31
583.22	48542.71
583.38	48561.44
583.54	48664.42
583.70	48751.02
583.86	48914.86
584.02	48601.22
584.18	48781.45
584.34	48402.28
584.50	48512.28
584.66	48296.95
584.82	47580.75
584.98	47690.76
585.14	47178.18
585.30	46679.64
