SpectraSuite Data File
++++++++++++++++++++++++++++++++++++
Date: Mon Oct 07 14:53:55 GMT-05:00 2013
User: price-jones
Dark Spectrum Present: No
Reference Spectrum Present: No
Number of Sampled Component Spectra: 1
Spectrometers: USB2+H05261
Integration Time (usec): 100000 (USB2+H05261)
Spectra Averaged: 1 (USB2+H05261)
Boxcar Smoothing: 0 (USB2+H05261)
Correct for Electrical Dark: No (USB2+H05261)
Strobe/Lamp Enabled: No (USB2+H05261)
Correct for Detector Non-linearity: No (USB2+H05261)
Correct for Stray Light: No (USB2+H05261)
Number of Pixels in Processed Spectrum: 2048
>>>>>Begin Processed Spectral Data<<<<<
365.73	0.00
365.92	0.00
366.12	0.00
366.32	0.00
366.52	0.00
366.72	0.00
366.91	0.00
367.11	0.00
367.31	0.00
367.51	0.00
367.70	0.00
367.90	0.00
368.10	0.00
368.30	0.00
368.49	0.00
368.69	0.00
368.89	0.00
369.09	0.00
369.28	0.00
369.48	0.00
369.68	0.00
369.87	0.00
370.07	0.00
370.27	0.00
370.47	531.30
370.66	2724.38
370.86	3253.34
371.06	3705.07
371.25	3796.35
371.45	3396.12
371.65	2909.29
371.84	2796.94
372.04	2925.67
372.24	3295.47
372.44	3454.63
372.63	3471.01
372.83	3066.10
373.03	2827.37
373.22	2534.80
373.42	2717.36
373.62	3098.87
373.81	3492.08
374.01	3566.98
374.21	3143.34
374.40	2918.65
374.60	3035.67
374.79	3372.71
374.99	3812.73
375.19	4292.54
375.38	4257.43
375.58	4009.34
375.78	3925.08
375.97	3941.46
376.17	4037.42
376.37	4095.94
376.56	4114.66
376.76	4362.76
376.95	4535.96
377.15	4912.78
377.35	5334.08
377.54	5497.92
377.74	5586.86
377.93	5530.69
378.13	5586.86
378.33	5263.86
378.52	4777.03
378.72	4486.81
378.91	4711.50
379.11	4290.20
379.31	4248.07
379.50	4369.78
379.70	4458.72
379.89	5177.26
380.09	5399.62
380.28	5533.03
380.48	5507.28
380.68	5432.38
380.87	5303.65
381.07	4891.72
381.26	4627.24
381.46	4229.35
381.65	4121.68
381.85	3962.53
382.04	3763.58
382.24	3548.25
382.43	3372.71
382.63	3389.10
382.83	3454.63
383.02	3407.82
383.22	3365.69
383.41	3318.88
383.61	3454.63
383.80	4126.36
384.00	4589.79
384.19	5139.82
384.39	5441.75
384.58	5488.56
384.78	5425.36
384.97	5277.91
385.17	4957.25
385.36	4723.20
385.56	4589.79
385.75	4793.42
385.95	5102.37
386.14	5579.84
386.34	5556.43
386.53	5373.87
386.72	5081.30
386.92	5100.03
387.11	5210.03
387.31	5596.22
387.50	5413.66
387.70	5341.10
387.89	5310.68
388.09	5418.34
388.28	5313.02
388.48	5448.77
388.67	5951.98
388.86	6429.45
389.06	6787.55
389.25	7286.09
389.45	7255.66
389.64	7169.06
389.84	6991.18
390.03	7037.99
390.22	7187.79
390.42	7157.36
390.61	7918.03
390.81	8290.18
391.00	8362.73
391.19	8526.57
391.39	8100.59
391.58	7627.81
391.78	7162.04
391.97	7063.74
392.16	6438.81
392.36	5795.17
392.55	4641.28
392.75	3887.63
392.94	3026.31
393.13	3007.59
393.33	3492.08
393.52	4667.03
393.71	5509.62
393.91	6305.40
394.10	7016.93
394.29	7485.03
394.49	8102.93
394.68	8938.51
394.88	8769.99
395.07	9144.47
395.26	9050.85
395.46	8842.54
395.65	8219.96
395.84	7227.57
396.04	6345.19
396.23	5109.39
396.42	4077.21
396.62	3934.44
396.81	4550.00
397.00	5989.43
397.19	7339.92
397.39	8793.39
397.58	10106.43
397.77	10644.76
397.97	10906.90
398.16	11183.08
398.35	11367.98
398.55	11735.45
398.74	12365.05
398.93	12814.43
399.12	12318.24
399.32	12182.49
399.51	12325.26
399.70	13399.57
399.90	12695.07
400.09	13043.81
400.28	12549.95
400.47	12718.47
400.67	13642.98
400.86	13769.37
401.05	13844.27
401.24	13788.10
401.44	14321.74
401.63	13965.98
401.82	14239.82
402.01	14111.09
402.21	14193.01
402.40	14373.23
402.59	13968.32
402.78	13446.38
402.97	12870.61
403.17	13483.83
403.36	14499.62
403.55	14913.89
403.74	15234.55
403.93	14195.35
404.13	13032.10
404.32	13048.49
404.51	13626.60
404.70	14794.53
404.89	14860.06
405.09	14551.11
405.28	14029.17
405.47	14155.56
405.66	13926.19
405.85	13474.46
406.05	13242.75
406.24	13219.35
406.43	14183.65
406.62	14782.82
406.81	14656.43
407.00	14333.44
407.20	13760.01
407.39	14038.53
407.58	14562.81
407.77	15126.88
407.96	15929.69
408.15	15651.16
408.34	15527.11
408.54	16482.05
408.73	16409.50
408.92	16430.56
409.11	15990.54
409.30	15164.33
409.49	14223.44
409.68	13319.99
409.87	12805.07
410.07	13507.23
410.26	14712.61
410.45	15541.16
410.64	16170.76
410.83	16734.83
411.02	16989.95
411.21	17607.85
411.40	17387.84
411.59	17792.75
411.78	17324.65
411.98	17092.93
412.17	17444.01
412.36	16842.50
412.55	17497.84
412.74	16856.54
412.93	16547.59
413.12	16517.16
413.31	18223.41
413.50	18071.28
413.69	18487.89
413.88	17816.16
414.07	16854.20
414.26	17755.30
414.45	18368.52
414.64	18239.79
414.83	18586.19
415.02	17879.35
415.22	17919.14
415.41	18483.21
415.60	19208.78
415.79	19658.16
415.98	20257.34
416.17	20262.02
416.36	19791.57
416.55	19433.47
416.74	18672.79
416.93	18197.67
417.12	18288.95
417.31	18277.24
417.50	18745.35
417.69	19381.98
417.88	19129.20
418.07	19087.07
418.26	18752.37
418.45	18719.60
418.64	19346.87
418.83	20301.81
419.02	19997.54
419.21	19927.32
419.39	18824.93
419.58	17909.78
419.77	18256.18
419.96	18918.55
420.15	19838.38
420.34	20582.67
420.53	21130.36
420.72	21429.94
420.91	21144.40
421.10	21446.33
421.29	21142.06
421.48	20350.96
421.67	21371.43
421.86	20477.35
422.05	19309.42
422.24	17448.69
422.43	17233.36
422.61	18838.97
422.80	20524.16
422.99	20332.23
423.18	19396.02
423.37	19349.21
423.56	19527.09
423.75	19831.36
423.94	20034.99
424.13	19344.53
424.32	19248.57
424.50	19236.86
424.69	19358.57
424.88	19129.20
425.07	18927.91
425.26	19091.75
425.45	18876.42
425.64	18604.92
425.83	18274.90
426.01	19548.15
426.20	20105.20
426.39	20102.86
426.58	18689.18
426.77	17341.03
426.96	16458.65
427.15	16917.39
427.33	18469.17
427.52	19494.32
427.71	19428.79
427.90	18869.40
428.09	18998.13
428.28	18504.28
428.46	17731.90
428.65	17703.81
428.84	17865.31
429.03	18625.98
429.22	17380.82
429.40	16418.86
429.59	15016.88
429.78	13207.64
429.97	13301.26
430.16	13261.48
430.34	13804.48
430.53	13535.32
430.72	13717.88
430.91	15016.88
431.10	17771.69
431.28	21200.57
431.47	22759.37
431.66	23264.92
431.85	21165.46
432.03	19264.95
432.22	18380.23
432.41	19192.39
432.60	21474.42
432.79	22270.20
432.97	22843.63
433.16	21923.80
433.35	20252.66
433.54	18438.74
433.72	17104.64
433.91	17523.59
434.10	19719.01
434.28	21226.32
434.47	22230.41
434.66	21797.41
434.85	21233.34
435.03	21324.62
435.22	21724.85
435.41	23089.38
435.59	22998.10
435.78	23281.31
435.97	23934.32
436.16	24173.05
436.34	23690.90
436.53	23136.20
436.72	23285.99
436.90	21961.25
437.09	21921.46
437.28	21458.03
437.46	22319.35
437.65	22326.37
437.84	21102.27
438.02	19206.44
438.21	19138.56
438.40	20219.89
438.58	21703.79
438.77	22377.86
438.96	22448.08
439.14	23412.38
439.33	23899.21
439.52	24545.20
439.70	24189.44
439.89	23115.13
440.08	22796.82
440.26	22576.81
440.45	23262.58
440.63	24741.80
440.82	26314.64
441.01	26218.68
441.19	25612.48
441.38	25689.72
441.57	27136.17
441.75	27487.25
441.94	27356.18
442.12	26911.48
442.31	28006.85
442.50	27721.30
442.68	27562.15
442.87	26988.72
443.05	26412.95
443.24	27005.10
443.43	27456.82
443.61	28114.52
443.80	28753.48
443.98	27115.11
444.17	26611.89
444.35	28215.16
444.54	28833.06
444.73	28297.08
444.91	27154.90
445.10	26424.65
445.28	25027.35
445.47	24938.41
445.65	24947.77
445.84	25830.15
446.02	26508.91
446.21	26958.29
446.39	27232.13
446.58	27304.69
446.77	27672.15
446.95	27960.04
447.14	28753.48
447.32	29359.68
447.51	28474.96
447.69	27475.55
447.88	26930.20
448.06	27384.27
448.25	28140.26
448.43	28292.40
448.62	27796.20
448.80	27929.61
448.99	28226.86
449.17	27756.41
449.36	27974.08
449.54	28783.91
449.73	29635.86
449.91	29888.64
450.10	30871.67
450.28	31129.12
450.46	30916.14
450.65	31182.96
450.83	30471.43
451.02	29970.56
451.20	29942.47
451.39	30068.86
451.57	29575.01
451.76	29418.19
451.94	29331.59
452.13	28968.81
452.31	27737.69
452.49	26693.81
452.68	26623.59
452.86	26925.52
453.05	26862.33
453.23	28278.35
453.42	28767.52
453.60	29144.35
453.78	29565.65
453.97	29380.74
454.15	29312.87
454.34	28446.87
454.52	28641.14
454.70	27948.34
454.89	28500.70
455.07	28556.88
455.26	29050.73
455.44	30267.81
455.62	30700.81
455.81	30740.60
455.99	30513.56
456.17	30331.00
456.36	30410.58
456.54	31185.30
456.73	31337.43
456.91	31377.22
457.09	31372.54
457.28	32465.57
457.46	30857.62
457.64	30841.24
457.83	30064.18
458.01	29076.48
458.19	30043.12
458.38	30302.92
458.56	30937.20
458.74	31227.43
458.93	30169.51
459.11	30183.55
459.29	30384.83
459.48	30565.06
459.66	30136.74
459.84	30424.62
460.03	31005.08
460.21	31042.53
460.39	31859.37
460.57	31728.30
460.76	31817.24
460.94	32020.87
461.12	31585.53
461.31	31363.18
461.49	31718.94
461.67	31445.10
461.85	32701.96
462.04	32568.55
462.22	33127.94
462.40	32577.92
462.59	32734.73
462.77	32222.16
462.95	32521.74
463.13	32346.20
463.32	32116.83
463.50	31791.50
463.68	31608.93
463.86	31475.52
464.05	31290.62
464.23	30497.18
464.41	30515.90
464.59	29759.91
464.78	31316.37
464.96	31323.39
465.14	31208.70
465.32	31854.69
465.50	32449.19
465.69	32907.93
465.87	31957.67
466.05	31583.19
466.23	29956.52
466.41	28690.29
466.60	30267.81
466.78	30038.44
466.96	30649.32
467.14	31079.97
467.32	31732.98
467.51	31620.64
467.69	30356.75
467.87	30948.90
468.05	31133.81
468.23	31206.36
468.41	31489.57
468.60	31250.83
468.78	31728.30
468.96	31335.09
469.14	31751.71
469.32	32013.85
469.50	30902.09
469.69	30897.41
469.87	30490.16
470.05	30445.69
470.23	30700.81
470.41	30471.43
470.59	30857.62
470.77	30960.61
470.95	31765.75
471.14	32271.31
471.32	32105.13
471.50	33993.94
471.68	34113.31
471.86	34267.78
472.04	34122.67
472.22	34651.63
472.40	32999.21
472.58	32542.81
472.77	32020.87
472.95	32706.65
473.13	33317.53
473.31	32919.63
473.49	32601.32
473.67	33270.72
473.85	33750.52
474.03	34113.31
474.21	34724.19
474.39	34932.50
474.57	35108.04
474.75	34981.65
474.93	35168.89
475.12	33926.07
475.30	34356.72
475.48	34319.28
475.66	34850.58
475.84	34405.88
476.02	34139.05
476.20	33757.55
476.38	34103.95
476.56	35505.93
476.74	35428.69
476.92	35531.67
477.10	35931.90
477.28	37270.69
477.46	37890.93
477.64	38101.58
477.82	37783.27
478.00	38227.97
478.18	37294.10
478.36	37275.37
478.54	37476.66
478.72	37589.00
478.90	38300.53
479.08	39583.14
479.26	39894.43
479.44	39807.83
479.62	39976.35
479.80	39903.79
479.98	39807.83
480.16	39779.74
480.34	39445.05
480.52	40126.14
480.70	39943.58
480.88	40388.28
481.06	41062.36
481.24	41010.87
481.41	42103.90
481.59	42742.86
481.77	42925.42
481.95	42061.77
482.13	41518.76
482.31	41673.24
482.49	42557.96
482.67	42185.82
482.85	42129.64
483.03	43335.02
483.21	43533.96
483.39	43449.70
483.57	42887.98
483.74	42309.86
483.92	42169.43
484.10	43037.77
484.28	44170.59
484.46	44086.33
484.64	44872.75
484.82	43370.13
485.00	43407.58
485.18	42595.41
485.35	41151.30
485.53	38422.23
485.71	35061.22
485.89	34405.88
486.07	36315.75
486.25	39105.67
486.43	41411.10
486.61	42543.92
486.78	42377.74
486.96	42216.24
487.14	43817.17
487.32	44935.95
487.50	46019.61
487.68	46866.89
487.85	47524.58
488.03	47363.08
488.21	46698.37
488.39	46188.13
488.57	45467.25
488.75	45240.21
488.92	46539.21
489.10	48800.17
489.28	50263.00
489.46	50927.72
489.64	50637.49
489.81	50958.14
489.99	50506.42
490.17	50590.68
490.35	51208.58
490.53	50356.63
490.70	50267.69
490.88	50171.72
491.06	51091.55
491.24	50908.99
491.41	49691.91
491.59	47716.50
491.77	47288.18
491.95	48692.50
492.13	49865.11
492.30	51117.30
492.48	51999.68
492.66	52444.38
492.84	52552.05
493.01	52121.39
493.19	51512.85
493.37	51313.90
493.54	51117.30
493.72	51613.49
493.90	52479.49
494.08	53579.54
494.25	53928.28
494.43	54071.06
494.61	54649.17
494.79	54522.78
494.96	54267.66
495.14	53759.76
495.32	52832.91
495.49	52191.61
495.67	53268.25
495.85	54684.28
496.02	54939.39
496.20	54920.67
496.38	54155.32
496.55	54082.76
496.73	54766.20
496.91	54834.07
497.09	55533.89
497.26	55690.71
497.44	55065.78
497.62	54522.78
497.79	53893.18
497.97	52451.41
498.14	52420.98
498.32	53371.24
498.50	54740.45
498.67	55407.50
498.85	55157.06
499.03	55409.84
499.20	55552.62
499.38	55693.05
499.56	55627.51
499.73	55077.49
499.91	54679.60
500.08	54019.56
500.26	53221.44
500.44	53401.66
500.61	54464.27
500.79	54007.86
500.97	53628.69
501.14	53572.52
501.32	53413.37
501.49	53701.25
501.67	53624.01
501.84	54351.92
502.02	54506.40
502.20	54866.84
502.37	55236.64
502.55	54953.44
502.72	55664.96
502.90	56102.64
503.07	55866.25
503.25	55229.62
503.43	54316.81
503.60	53991.48
503.78	53303.36
503.95	53572.52
504.13	55208.56
504.30	55941.14
504.48	55779.65
504.65	55313.88
504.83	55444.95
505.01	56116.68
505.18	56130.73
505.36	56818.84
505.53	57043.54
505.71	57240.14
505.88	57354.83
506.06	56868.00
506.23	56226.69
506.41	56135.41
506.58	56069.87
506.76	56282.86
506.93	56226.69
507.11	56020.72
507.28	55922.42
507.46	55615.81
507.63	54972.16
507.81	54717.04
507.98	55231.96
508.16	55643.90
508.33	56090.94
508.50	56692.46
508.68	56821.19
508.85	57305.68
509.03	57219.08
509.20	57165.24
509.38	56367.12
509.55	55704.75
509.73	55798.37
509.90	56444.36
510.08	56655.01
510.25	56479.47
510.42	56413.93
510.60	56112.00
510.77	56552.02
510.95	57200.35
511.12	57076.30
511.30	57368.87
511.47	57752.72
511.64	57694.21
511.82	57235.46
511.99	56573.09
512.17	56020.72
512.34	55643.90
512.51	55891.99
512.69	55985.61
512.86	56348.40
513.04	56715.86
513.21	56662.03
513.38	56488.83
513.56	55531.55
513.73	55405.16
513.90	55215.58
514.08	55274.09
514.25	55632.19
514.43	56144.77
514.60	55854.54
514.77	56158.81
514.95	56296.91
515.12	56179.88
515.29	56308.61
515.47	56924.17
515.64	57251.84
515.81	56736.93
515.99	56243.07
516.16	54674.91
516.33	52130.75
516.51	50515.78
516.68	49787.88
516.85	49130.19
517.03	49090.40
517.20	52442.04
517.37	55351.33
517.54	56275.84
517.72	55737.52
517.89	53291.66
518.06	50373.01
518.24	50878.57
518.41	53333.79
518.58	54911.31
518.75	54955.78
518.93	55346.65
519.10	55021.31
519.27	55597.09
519.45	55805.39
519.62	56479.47
519.79	56868.00
519.96	56800.12
520.14	56306.27
520.31	55285.79
520.48	55166.43
520.65	55796.03
520.83	56713.52
521.00	57055.24
521.17	56603.52
521.34	56324.99
521.52	56774.37
521.69	57031.83
521.86	57595.90
522.03	57207.37
522.20	56140.09
522.38	54930.03
522.55	55121.96
522.72	55552.62
522.89	55756.24
523.07	55948.17
523.24	56144.77
523.41	57038.86
523.58	57422.70
523.75	57916.56
523.92	57499.94
524.10	57689.52
524.27	57696.55
524.44	57340.78
524.61	57275.25
524.78	57249.50
524.96	57144.18
525.13	56978.00
525.30	57382.91
525.47	57694.21
525.64	57593.56
525.81	56727.56
525.98	55423.89
526.16	53977.43
526.33	53464.86
526.50	52444.38
526.67	52147.14
526.84	53109.10
527.01	54174.04
527.18	54892.58
527.36	55859.23
527.53	56732.25
527.70	57139.50
527.87	56420.95
528.04	55971.57
528.21	56507.55
528.38	57441.43
528.55	57865.06
528.72	58183.38
528.89	58309.77
529.07	57822.93
529.24	57153.54
529.41	56388.19
529.58	56034.77
529.75	56287.54
529.92	56582.45
530.09	57038.86
530.26	57518.67
530.43	57888.47
530.60	57909.53
530.77	57991.45
530.94	58134.23
531.11	57457.81
531.28	57237.80
531.46	57038.86
531.63	57364.19
531.80	56987.36
531.97	56743.95
532.14	55994.98
532.31	54869.18
532.48	54087.44
532.65	54394.05
532.82	55323.24
532.99	56385.85
533.16	56556.70
533.33	57158.22
533.50	57066.94
533.67	56250.09
533.84	55828.80
534.01	56102.64
534.18	56250.09
534.35	56624.58
534.52	56315.63
534.69	56617.56
534.86	57041.20
535.03	57048.22
535.20	57560.79
535.37	58094.44
535.54	58005.50
535.71	57698.89
535.88	57301.00
536.05	56715.86
536.22	56186.90
536.38	55931.78
536.55	55440.27
536.72	55119.62
536.89	54667.89
537.06	55777.31
537.23	56629.26
537.40	56750.97
537.57	56961.62
537.74	56643.30
537.91	56680.75
538.08	56332.01
538.25	56346.06
538.42	56729.90
538.59	56732.25
538.75	55917.74
538.92	55585.38
539.09	55395.80
539.26	55367.71
539.43	55126.64
539.60	55103.23
539.77	55576.02
539.94	55447.29
540.11	54635.13
540.28	54017.22
540.44	54220.85
540.61	54328.52
540.78	54368.30
540.95	55203.88
541.12	55496.44
541.29	55821.78
541.46	55910.72
541.62	56051.15
541.79	55903.70
541.96	55238.98
542.13	54894.92
542.30	55646.24
542.47	55749.22
542.63	55400.48
542.80	55143.02
542.97	55407.50
543.14	55180.47
543.31	55295.16
543.48	55629.85
543.64	56420.95
543.81	56917.15
543.98	56638.62
544.15	56004.34
544.32	55526.87
544.48	55281.11
544.65	55994.98
544.82	56273.50
544.99	55922.42
545.16	55515.17
545.32	55316.22
545.49	56088.60
545.66	56381.16
545.83	55971.57
546.00	55917.74
546.16	55470.70
546.33	55561.98
546.50	55430.91
546.67	56107.32
546.83	55435.59
547.00	55519.85
547.17	54742.79
547.34	54120.21
547.50	54120.21
547.67	54471.29
547.84	54677.25
548.00	55100.89
548.17	55753.90
548.34	55402.82
548.51	55416.86
548.67	55320.90
548.84	55430.91
549.01	55566.66
549.18	55358.35
549.34	55384.10
549.51	55320.90
549.68	55519.85
549.84	54944.08
550.01	54981.52
550.18	54892.58
550.34	54780.24
550.51	54897.27
550.68	55065.78
550.84	54234.89
551.01	54398.73
551.18	54501.71
551.34	54611.72
551.51	55082.17
551.68	55454.31
551.84	55515.17
552.01	55082.17
552.18	55065.78
552.34	54309.79
552.51	53778.49
552.68	53757.42
552.84	54279.36
553.01	54658.53
553.18	54391.71
553.34	54705.34
553.51	54703.00
553.67	55030.68
553.84	55004.93
554.01	55058.76
554.17	54499.37
554.34	54908.97
554.51	55054.08
554.67	55484.74
554.84	55084.51
555.00	54625.76
555.17	54541.50
555.33	54365.96
555.50	54473.63
555.67	54298.09
555.83	54155.32
556.00	53965.73
556.16	54075.74
556.33	53347.83
556.50	53387.62
556.66	53663.80
556.83	53041.22
556.99	53237.83
557.16	53535.07
557.32	53930.62
557.49	53925.94
557.65	53907.22
557.82	53741.04
557.98	53698.91
558.15	53268.25
558.32	52137.77
558.48	51166.45
558.65	51594.77
558.81	51943.51
558.98	52156.50
559.14	52385.87
559.31	52397.57
559.47	52568.43
559.64	52182.24
559.80	51980.96
559.97	51859.25
560.13	52484.17
560.30	53506.99
560.46	53923.60
560.63	54262.98
560.79	54232.55
560.96	53631.04
561.12	52591.84
561.29	51554.98
561.45	51512.85
561.61	52060.54
561.78	52552.05
561.94	52451.41
562.11	52542.69
562.27	52186.92
562.44	52418.64
562.60	52767.38
562.77	53195.70
562.93	53083.35
563.10	52800.15
563.26	52114.37
563.42	52519.28
563.59	52105.01
563.75	51746.90
563.92	52175.22
564.08	52222.03
564.24	52465.45
564.41	52704.18
564.57	52493.54
564.74	51971.60
564.90	52250.12
565.07	52105.01
565.23	51220.28
565.39	50850.48
565.56	50691.32
565.72	50190.45
565.88	50698.34
566.05	50630.47
566.21	51295.18
566.38	51449.66
566.54	51590.09
566.70	51877.97
566.87	52067.56
567.03	52083.94
567.19	52491.19
567.36	52020.75
567.52	51625.20
567.68	51693.07
567.85	50749.84
568.01	50607.06
568.17	49970.44
568.34	50197.47
568.50	49986.82
568.66	50096.83
568.83	50241.94
568.99	50459.61
569.15	50864.52
569.32	50869.20
569.48	50040.65
569.64	50408.12
569.81	49736.38
569.97	49832.35
570.13	49591.27
570.30	48903.15
570.46	48467.81
570.62	47807.78
570.78	47648.63
570.95	48105.03
571.11	49062.31
571.27	49338.49
571.43	49347.86
571.60	49738.72
571.76	50103.85
571.92	50492.38
572.09	50483.01
572.25	50611.74
572.41	50164.70
572.57	50752.18
572.74	50478.33
572.90	49937.67
573.06	49736.38
573.22	50227.90
573.38	49822.98
573.55	49701.28
573.71	49956.39
573.87	49989.16
574.03	49654.47
574.20	49542.12
574.36	49364.24
574.52	49317.43
574.68	48886.77
574.84	48198.65
575.01	47793.74
575.17	47852.25
575.33	48135.46
575.49	48292.27
575.65	48734.63
575.82	48238.44
575.98	47910.77
576.14	48219.72
576.30	48568.46
576.46	48573.14
576.62	48779.10
576.79	48924.22
576.95	48278.23
577.11	47973.96
577.27	48348.45
577.43	48285.25
577.59	48032.47
577.75	47356.06
577.92	46443.25
578.08	46319.20
578.24	46302.82
578.40	46759.22
578.56	46923.06
578.72	47325.63
578.88	47938.85
579.04	47257.76
579.21	47547.98
579.37	47393.51
579.53	47791.40
579.69	47821.83
579.85	47875.66
580.01	47772.67
580.17	47199.24
580.33	46894.97
580.49	46960.51
580.65	47395.85
580.82	48032.47
580.98	47901.40
581.14	47555.00
581.30	47447.34
581.46	47639.26
581.62	47540.96
581.78	47913.11
581.94	47950.56
582.10	47950.56
582.26	47725.86
582.42	47737.57
582.58	48044.18
582.74	47814.80
582.90	47948.21
583.06	47833.53
583.22	47466.06
583.38	47524.58
583.54	47358.40
583.70	47409.89
583.86	47615.86
584.02	47487.13
584.18	47505.85
584.34	47445.00
584.50	47224.99
584.66	47016.68
584.82	46742.84
584.98	46735.82
585.14	45947.06
585.30	45167.66
