SpectraSuite Data File
++++++++++++++++++++++++++++++++++++
Date: Mon Oct 07 14:53:27 GMT-05:00 2013
User: price-jones
Dark Spectrum Present: No
Reference Spectrum Present: No
Number of Sampled Component Spectra: 1
Spectrometers: USB2+H05261
Integration Time (usec): 100000 (USB2+H05261)
Spectra Averaged: 1 (USB2+H05261)
Boxcar Smoothing: 0 (USB2+H05261)
Correct for Electrical Dark: No (USB2+H05261)
Strobe/Lamp Enabled: No (USB2+H05261)
Correct for Detector Non-linearity: No (USB2+H05261)
Correct for Stray Light: No (USB2+H05261)
Number of Pixels in Processed Spectrum: 2048
>>>>>Begin Processed Spectral Data<<<<<
365.73	0.00
365.92	0.00
366.12	0.00
366.32	0.00
366.52	0.00
366.72	0.00
366.91	0.00
367.11	0.00
367.31	0.00
367.51	0.00
367.70	0.00
367.90	0.00
368.10	0.00
368.30	0.00
368.49	0.00
368.69	0.00
368.89	0.00
369.09	0.00
369.28	0.00
369.48	0.00
369.68	0.00
369.87	0.00
370.07	0.00
370.27	0.00
370.47	784.08
370.66	3819.75
370.86	4526.60
371.06	4791.08
371.25	4973.64
371.45	4479.79
371.65	4166.15
371.84	3758.90
372.04	4025.72
372.24	4447.02
372.44	4718.52
372.63	4554.68
372.83	4229.35
373.03	3765.92
373.22	3496.76
373.42	3590.38
373.62	4196.58
373.81	4486.81
374.01	4624.90
374.21	4140.41
374.40	3684.00
374.60	4004.66
374.79	4381.48
374.99	4992.36
375.19	5474.51
375.38	5628.99
375.58	5256.84
375.78	5083.64
375.97	5224.08
376.17	5305.99
376.37	5416.00
376.56	5593.88
376.76	5888.79
376.95	6267.95
377.15	6616.69
377.35	6794.58
377.54	7206.51
377.74	7552.91
377.93	7482.69
378.13	7068.42
378.33	6834.36
378.52	6200.08
378.72	6069.01
378.91	5966.03
379.11	5781.12
379.31	5584.52
379.50	5757.72
379.70	6024.54
379.89	6537.12
380.09	7012.24
380.28	7248.64
380.48	6972.46
380.68	7145.66
380.87	6864.79
381.07	6574.56
381.26	6066.67
381.46	5565.79
381.65	5338.76
381.85	5259.18
382.04	4929.17
382.24	4662.35
382.43	4489.15
382.63	4374.46
382.83	4365.10
383.02	4407.23
383.22	4381.48
383.41	4489.15
383.61	4674.05
383.80	5378.55
384.00	6087.73
384.19	6693.93
384.39	7218.21
384.58	7026.29
384.78	7070.76
384.97	6979.48
385.17	6537.12
385.36	6359.24
385.56	5790.49
385.75	6338.17
385.95	6757.13
386.14	7475.67
386.34	7239.28
386.53	6995.86
386.72	6647.12
386.92	6707.98
387.11	6874.15
387.31	7410.14
387.50	7199.49
387.70	6883.52
387.89	6843.73
388.09	6871.81
388.28	6993.52
388.48	7082.46
388.67	7506.10
388.86	8180.17
389.06	9041.49
389.25	9575.13
389.45	9427.68
389.64	9338.74
389.84	9572.79
390.03	9252.14
390.22	9282.56
390.42	9439.38
390.61	10122.82
390.81	10878.81
391.00	10979.45
391.19	10808.59
391.39	10504.32
391.58	9820.89
391.78	9303.63
391.97	8917.44
392.16	8411.89
392.36	7824.41
392.55	6204.76
392.75	4795.76
392.94	4014.02
393.13	3915.72
393.33	4688.09
393.52	6099.44
393.71	7368.01
393.91	8411.89
394.10	8933.82
394.29	9956.64
394.49	10707.95
394.68	11499.05
394.88	11571.61
395.07	11700.34
395.26	11786.94
395.46	11424.15
395.65	10796.89
395.84	9249.80
396.04	7903.99
396.23	6436.47
396.42	5448.77
396.62	5153.86
396.81	6141.57
397.00	7779.94
397.19	9645.35
397.39	11667.57
397.58	12999.34
397.77	14001.08
397.97	14422.38
398.16	14391.95
398.35	15080.07
398.55	15403.07
398.74	16086.50
398.93	16439.92
399.12	15747.12
399.32	15585.63
399.51	16020.97
399.70	17081.23
399.90	16924.41
400.09	16662.27
400.28	16383.75
400.47	17130.38
400.67	17331.67
400.86	18127.45
401.05	18068.94
401.24	18097.02
401.44	18506.62
401.63	18169.58
401.82	18300.65
402.01	18684.50
402.21	18853.02
402.40	18918.55
402.59	18050.21
402.78	17659.34
402.97	17214.64
403.17	17834.88
403.36	18616.62
403.55	19356.23
403.74	19777.53
403.93	19054.30
404.13	17092.93
404.32	16931.44
404.51	17593.81
404.70	18995.79
404.89	19164.31
405.09	18696.20
405.28	18094.68
405.47	18452.78
405.66	18214.05
405.85	17771.69
406.05	17212.30
406.24	17535.29
406.43	18272.56
406.62	19070.68
406.81	19033.24
407.00	18331.08
407.20	17825.52
407.39	17996.38
407.58	19061.32
407.77	19590.28
407.96	20294.79
408.15	20219.89
408.34	20713.74
408.54	21759.96
408.73	21685.06
408.92	21530.59
409.11	20655.23
409.30	19637.09
409.49	18333.42
409.68	17294.22
409.87	16830.79
410.07	17675.73
410.26	19295.38
410.45	20484.37
410.64	20732.47
410.83	21572.72
411.02	22038.48
411.21	23159.60
411.40	22473.82
411.59	22726.60
411.78	22441.06
411.98	22387.22
412.17	22621.28
412.36	22427.01
412.55	22134.45
412.74	21942.52
412.93	21394.84
413.12	21736.56
413.31	23775.16
413.50	23843.04
413.69	24301.78
413.88	23527.06
414.07	22515.95
414.26	23065.98
414.45	23721.33
414.64	24004.53
414.83	23814.95
415.02	23253.22
415.22	23594.94
415.41	23995.17
415.60	24402.43
415.79	25689.72
415.98	26061.87
416.17	26092.29
416.36	25495.46
416.55	25212.25
416.74	24390.72
416.93	23307.05
417.12	23543.45
417.31	24261.99
417.50	24198.80
417.69	25111.61
417.88	25390.13
418.07	24805.00
418.26	24451.58
418.45	24823.72
418.64	25528.22
418.83	26249.11
419.02	26003.35
419.21	25965.90
419.39	24809.68
419.58	23936.66
419.77	23660.48
419.96	24622.44
420.15	26029.10
420.34	26778.07
420.53	27515.34
420.72	28294.74
420.91	27569.17
421.10	27150.21
421.29	27468.53
421.48	26684.45
421.67	27625.34
421.86	27124.47
422.05	25043.73
422.24	22614.26
422.43	22263.18
422.61	24826.06
422.80	26859.99
422.99	26649.34
423.18	25518.86
423.37	25233.32
423.56	24992.24
423.75	25682.70
423.94	26366.13
424.13	25188.85
424.32	25032.03
424.50	25158.42
424.69	25137.35
424.88	25013.31
425.07	25081.18
425.26	24940.75
425.45	24732.44
425.64	24079.43
425.83	23903.89
426.01	25827.81
426.20	26059.52
426.39	26057.18
426.58	24065.39
426.77	22452.76
426.96	21825.50
427.15	22190.62
427.33	24357.96
427.52	25228.63
427.71	25181.82
427.90	24945.43
428.09	24861.17
428.28	24400.08
428.46	23433.44
428.65	23091.73
428.84	23407.70
429.03	23840.70
429.22	22539.36
429.40	21474.42
429.59	19730.72
429.78	17275.49
429.97	17366.78
430.16	17614.87
430.34	17701.47
430.53	17638.28
430.72	18209.37
430.91	20025.62
431.10	23229.82
431.28	27487.25
431.47	29802.04
431.66	29860.55
431.85	27470.87
432.03	24950.11
432.22	23967.09
432.41	25160.76
432.60	27618.32
432.79	28957.11
432.97	29682.67
433.16	28947.75
433.35	26590.83
433.54	23936.66
433.72	22429.35
433.91	22932.57
434.10	25912.07
434.28	27718.96
434.47	28858.81
434.66	28655.18
434.85	27721.30
435.03	27501.29
435.22	28393.04
435.41	30146.10
435.59	30092.27
435.78	30441.01
435.97	31501.27
436.16	31353.82
436.34	30764.00
436.53	30340.36
436.72	29993.97
436.90	28809.65
437.09	28797.95
437.28	28292.40
437.46	29081.16
437.65	29226.27
437.84	26984.04
438.02	24851.81
438.21	24886.92
438.40	26375.50
438.58	28287.71
438.77	29301.17
438.96	29621.82
439.14	30707.83
439.33	31145.51
439.52	31798.52
439.70	31180.62
439.89	30476.12
440.08	29460.32
440.26	29420.53
440.45	30387.18
440.63	32624.73
440.82	34235.02
441.01	33975.22
441.19	33280.08
441.38	34148.42
441.57	35201.66
441.75	35613.59
441.94	35927.22
442.12	35606.57
442.31	36046.59
442.50	36224.47
442.68	35742.32
442.87	35091.65
443.05	34630.57
443.24	35416.99
443.43	35976.37
443.61	36793.22
443.80	37244.94
443.98	35477.84
444.17	35070.59
444.35	36947.70
444.54	37670.92
444.73	36924.29
444.91	35805.52
445.10	34342.68
445.28	33125.60
445.47	32308.76
445.65	32931.34
445.84	33324.55
446.02	35220.38
446.21	35222.72
446.39	35433.37
446.58	35550.40
446.77	36304.05
446.95	36809.61
447.14	37230.90
447.32	38888.00
447.51	37617.09
447.69	35943.61
447.88	35779.77
448.06	36397.67
448.25	36645.77
448.43	37296.44
448.62	36477.25
448.80	36437.46
448.99	36575.55
449.17	36540.44
449.36	36694.92
449.54	38071.15
449.73	38471.39
449.91	38916.09
450.10	40336.79
450.28	40790.86
450.46	40519.35
450.65	40297.00
450.83	40046.57
451.02	39100.99
451.20	38707.78
451.39	39187.59
451.57	38799.06
451.76	38773.31
451.94	38665.65
452.13	37830.08
452.31	36189.36
452.49	34436.30
452.68	35122.08
452.86	35229.74
453.05	35140.80
453.23	36568.53
453.42	37591.34
453.60	38349.68
453.78	38789.70
453.97	38361.38
454.15	38387.13
454.34	37546.87
454.52	37453.25
454.70	36730.03
454.89	37514.11
455.07	37680.28
455.26	37965.83
455.44	39409.94
455.62	39955.29
455.81	40009.12
455.99	39917.84
456.17	39487.18
456.36	39849.96
456.54	40491.27
456.73	40816.60
456.91	41432.16
457.09	41340.88
457.28	42281.78
457.46	40409.35
457.64	40304.02
457.83	39508.24
458.01	38124.99
458.19	39449.73
458.38	39473.13
458.56	41057.68
458.74	40664.47
458.93	39828.90
459.11	40273.60
459.29	39643.99
459.48	39452.07
459.66	39838.26
459.84	39988.05
460.03	40645.74
460.21	40257.21
460.39	41275.35
460.57	41596.00
460.76	41855.80
460.94	42501.79
461.12	41329.18
461.31	41284.71
461.49	41422.80
461.67	41621.75
461.85	42909.04
462.04	42768.61
462.22	42897.34
462.40	42373.06
462.59	42684.35
462.77	42286.46
462.95	42476.04
463.13	41804.31
463.32	41319.82
463.50	41598.34
463.68	41715.37
463.86	41659.20
464.05	40942.99
464.23	40271.26
464.41	39983.37
464.59	39283.55
464.78	41439.18
464.96	41326.84
465.14	40591.91
465.32	41750.48
465.50	42934.79
465.69	42951.17
465.87	42169.43
466.05	40999.16
466.23	39723.57
466.41	38295.85
466.60	39793.79
466.78	39653.36
466.96	40116.78
467.14	41036.61
467.32	41563.23
467.51	41745.80
467.69	39533.99
467.87	40100.40
468.05	41315.14
468.23	41228.54
468.41	41383.01
468.60	41904.95
468.78	41436.84
468.96	41081.08
469.14	42288.80
469.32	41787.92
469.50	39992.73
469.69	40830.65
469.87	40069.97
470.05	39395.90
470.23	39871.03
470.41	40526.38
470.59	40620.00
470.77	40744.05
470.95	41722.39
471.14	42190.50
471.32	41961.12
471.50	44137.82
471.68	44935.95
471.86	44870.41
472.04	44989.78
472.22	45385.33
472.40	43122.03
472.58	42897.34
472.77	42347.31
472.95	42649.24
473.13	44306.34
473.31	43264.80
473.49	43143.09
473.67	43981.01
473.85	44406.98
474.03	45207.45
474.21	45535.12
474.39	45907.27
474.57	45846.41
474.75	45745.77
474.93	45638.11
475.12	44615.29
475.30	45036.59
475.48	44388.26
475.66	45291.71
475.84	45148.93
476.02	44631.68
476.20	43725.89
476.38	44568.48
476.56	46225.58
476.74	46731.14
476.92	46581.34
477.10	47426.28
477.28	48147.16
477.46	48439.73
477.64	49158.27
477.82	49111.46
478.00	49272.96
478.18	48786.13
478.36	48500.58
478.54	48322.70
478.72	48477.18
478.90	49698.94
479.08	50768.56
479.26	50885.59
479.44	50894.95
479.62	50674.94
479.80	50298.11
479.98	51030.70
480.16	51000.27
480.34	50504.08
480.52	50862.18
480.70	51440.29
480.88	51391.14
481.06	51941.17
481.24	52273.52
481.41	52999.09
481.59	53373.58
481.77	53132.50
481.95	52776.74
482.13	52451.41
482.31	52254.80
482.49	53279.96
482.67	52992.07
482.85	52978.03
483.03	53579.54
483.21	53991.48
483.39	53944.67
483.57	53331.45
483.74	53066.97
483.92	53539.75
484.10	53525.71
484.28	54300.43
484.46	54380.01
484.64	54944.08
484.82	54110.85
485.00	53752.74
485.18	53109.10
485.35	52205.65
485.53	49499.99
485.71	46028.98
485.89	45055.31
486.07	47056.47
486.25	50450.25
486.43	52259.48
486.61	52966.32
486.78	52640.99
486.96	53155.91
487.14	54534.48
487.32	54794.28
487.50	55730.50
487.68	56409.25
487.85	56750.97
488.03	56699.48
488.21	56259.46
488.39	55838.16
488.57	55381.76
488.75	55079.83
488.92	55887.31
489.10	57684.84
489.28	59040.01
489.46	59283.43
489.64	59056.40
489.81	59299.81
489.99	58810.64
490.17	58979.16
490.35	59313.86
490.53	58904.26
490.70	58473.60
490.88	58489.99
491.06	59426.20
491.24	59423.86
491.41	58302.74
491.59	57066.94
491.77	56545.00
491.95	57378.23
492.13	58307.43
492.30	59161.72
492.48	60151.77
492.66	60598.81
492.84	60493.49
493.01	60336.67
493.19	59786.64
493.37	59423.86
493.54	59341.94
493.72	59990.27
493.90	60886.70
494.08	61340.76
494.25	61591.20
494.43	61698.86
494.61	62024.20
494.79	61993.77
494.96	61977.39
495.14	61385.23
495.32	60664.35
495.49	60334.33
495.67	61123.09
495.85	62141.22
496.02	62316.76
496.20	62314.42
496.38	62019.52
496.55	61942.28
496.73	62251.23
496.91	62265.27
497.09	62976.79
497.26	62918.28
497.44	62443.15
497.62	62054.62
497.79	61406.30
497.97	60458.38
498.14	60416.25
498.32	61460.13
498.50	62101.43
498.67	62759.12
498.85	62585.92
499.03	62747.42
499.20	62871.47
499.38	63032.97
499.56	62918.28
499.73	62354.21
499.91	62176.33
500.08	61659.07
500.26	61097.34
500.44	61455.45
500.61	62152.93
500.79	61998.45
500.97	61659.07
501.14	61460.13
501.32	61303.31
501.49	61425.02
501.67	61317.35
501.84	61996.11
502.02	62192.72
502.20	62482.94
502.37	62466.56
502.55	62759.12
502.72	63178.08
502.90	63683.64
503.07	63274.04
503.25	62927.64
503.43	62209.10
503.60	61684.82
503.78	61097.34
503.95	61453.11
504.13	62625.71
504.30	63412.13
504.48	63309.15
504.65	63000.20
504.83	62850.41
505.01	63341.92
505.18	63702.36
505.36	64371.75
505.53	64252.39
505.71	64498.14
505.88	64582.40
506.06	64137.70
506.23	63690.66
506.41	63388.73
506.58	63606.40
506.76	63620.44
506.93	63643.85
507.11	63313.83
507.28	63632.14
507.46	63231.91
507.63	62485.28
507.81	62326.13
507.98	62478.26
508.16	63182.76
508.33	63526.82
508.50	64058.12
508.68	64093.23
508.85	64767.30
509.03	64669.00
509.20	64521.55
509.38	63922.37
509.55	63285.75
509.73	63306.81
509.90	63779.60
510.08	63976.20
510.25	63882.58
510.42	63805.34
510.60	63597.04
510.77	63884.92
510.95	64638.57
511.12	64530.91
511.30	64760.28
511.47	65010.72
511.64	64839.86
511.82	64877.31
511.99	63936.41
512.17	63664.91
512.34	63372.34
512.51	63531.50
512.69	63728.11
512.86	63491.71
513.04	63950.46
513.21	64088.55
513.38	63791.30
513.56	63224.89
513.73	62857.43
513.90	62845.72
514.08	63086.80
514.25	63421.50
514.43	63685.98
514.60	63487.03
514.77	63669.59
514.95	63664.91
515.12	63664.91
515.29	63908.33
515.47	64324.94
515.64	64514.53
515.81	64245.36
515.99	63590.01
516.16	62447.83
516.33	60507.53
516.51	59159.38
516.68	58817.66
516.85	58064.01
517.03	58602.33
517.20	60750.94
517.37	63042.33
517.54	63807.68
517.72	63437.88
517.89	61319.70
518.06	59421.52
518.24	59620.47
518.41	61403.95
518.58	62480.60
518.75	62740.40
518.93	63128.93
519.10	62768.49
519.27	63414.47
519.45	63405.11
519.62	64072.17
519.79	64390.48
519.96	64067.48
520.14	63791.30
520.31	63091.48
520.48	62962.75
520.65	63374.69
520.83	64088.55
521.00	64350.69
521.17	64109.61
521.34	63812.37
521.52	64111.95
521.69	64598.79
521.86	64886.67
522.03	64631.55
522.20	63606.40
522.38	62688.91
522.55	62777.85
522.72	63178.08
522.89	63503.42
523.07	63730.45
523.24	63896.62
523.41	64523.89
523.58	64881.99
523.75	65104.34
523.92	65146.47
524.10	65076.26
524.27	64912.42
524.44	65010.72
524.61	64804.75
524.78	64575.38
524.96	64275.79
525.13	64456.01
525.30	64755.60
525.47	65094.98
525.64	64947.53
525.81	64338.99
525.98	63135.95
526.16	62052.28
526.33	61324.38
526.50	60860.95
526.67	60629.24
526.84	61190.97
527.01	62129.52
527.18	62892.54
527.36	63767.90
527.53	64669.00
527.70	64790.71
527.87	63992.59
528.04	63817.05
528.21	64175.15
528.38	64741.56
528.55	65235.41
528.72	65535.00
528.89	65535.00
529.07	65415.63
529.24	64807.09
529.41	64221.96
529.58	63721.08
529.75	63856.84
529.92	64247.71
530.09	64500.48
530.26	64996.68
530.43	65204.98
530.60	65322.01
530.77	65345.42
530.94	65535.00
531.11	65151.15
531.28	64821.14
531.46	64577.72
531.63	64870.29
531.80	64781.35
531.97	64381.12
532.14	63767.90
532.31	62871.47
532.48	62300.38
532.65	62246.55
532.82	63061.05
532.99	63884.92
533.16	64264.09
533.33	64722.83
533.50	64617.51
533.67	63987.91
533.84	63505.76
534.01	63880.24
534.18	63936.41
534.35	64137.70
534.52	64107.27
534.69	64296.86
534.86	64687.73
535.03	64903.06
535.20	65106.68
535.37	65474.15
535.54	65535.00
535.71	65333.71
535.88	65066.89
536.05	64355.37
536.22	64126.00
536.38	63707.04
536.55	63348.94
536.72	62862.11
536.89	62791.89
537.06	63685.98
537.23	64404.52
537.40	64500.48
537.57	64491.12
537.74	64409.20
537.91	64236.00
538.08	64135.36
538.25	64151.74
538.42	64514.53
538.59	64331.96
538.75	63763.21
538.92	63426.18
539.09	63400.43
539.26	63304.47
539.43	63047.01
539.60	63306.81
539.77	63245.96
539.94	63355.96
540.11	62576.56
540.28	62089.73
540.44	62209.10
540.61	62424.43
540.78	62571.88
540.95	62864.45
541.12	63320.85
541.29	63599.38
541.46	63833.43
541.62	63758.53
541.79	63636.83
541.96	63051.69
542.13	63091.48
542.30	63381.71
542.47	63613.42
542.63	63201.49
542.80	63276.38
542.97	63351.28
543.14	63206.17
543.31	63372.34
543.48	63571.29
543.64	64367.07
543.81	64669.00
543.98	64458.35
544.15	63683.64
544.32	63238.93
544.48	63482.35
544.65	63777.26
544.82	64355.37
544.99	63615.76
545.16	63465.97
545.32	63353.62
545.49	64086.21
545.66	64322.60
545.83	64006.63
546.00	63723.43
546.16	63388.73
546.33	63358.30
546.50	63454.26
546.67	63931.73
546.83	63213.19
547.00	63456.60
547.17	62803.59
547.34	62260.59
547.50	62443.15
547.67	62700.61
547.84	62677.21
548.00	63323.19
548.17	63482.35
548.34	63519.80
548.51	63400.43
548.67	63407.45
548.84	63477.67
549.01	63402.77
549.18	63323.19
549.34	63365.32
549.51	63327.87
549.68	63386.39
549.84	63075.10
550.01	63063.39
550.18	63023.61
550.34	63201.49
550.51	62927.64
550.68	63159.36
550.84	62831.68
551.01	62735.72
551.18	62770.83
551.34	62922.96
551.51	63089.14
551.68	63456.60
551.84	63580.65
552.01	63306.81
552.18	63299.79
552.34	62534.43
552.51	62255.91
552.68	62028.88
552.84	62574.22
553.01	62782.53
553.18	62724.02
553.34	62784.87
553.51	62934.66
553.67	63229.57
553.84	63313.83
554.01	63135.95
554.17	62915.94
554.34	63117.23
554.51	63124.25
554.67	63423.84
554.84	63400.43
555.00	62899.56
555.17	62761.47
555.33	62836.36
555.50	62635.08
555.67	62684.23
555.83	62581.24
556.00	62454.86
556.16	62389.32
556.33	61975.05
556.50	61820.57
556.66	61792.48
556.83	61755.03
556.99	61799.50
557.16	62087.39
557.32	62136.54
557.49	62265.27
557.65	62244.21
557.82	62396.34
557.98	61890.79
558.15	61649.71
558.32	61041.17
558.48	60231.35
558.65	60479.44
558.81	60633.92
558.98	61148.84
559.14	61179.26
559.31	61174.58
559.47	61340.76
559.64	60928.83
559.80	60870.31
559.97	60734.56
560.13	61268.20
560.30	61867.38
560.46	62475.92
560.63	62602.31
560.79	62670.18
560.96	62295.70
561.12	61396.93
561.29	60601.15
561.45	60516.89
561.61	61174.58
561.78	61499.92
561.94	61361.82
562.11	61305.65
562.27	61226.07
562.44	61399.27
562.60	61743.33
562.77	61773.76
562.93	61820.57
563.10	61705.88
563.26	61036.49
563.42	61064.58
563.59	61048.19
563.75	61085.64
563.92	61169.90
564.08	61043.51
564.24	61296.29
564.41	61207.35
564.57	61307.99
564.74	61141.81
564.90	61020.11
565.07	60830.52
565.23	60339.01
565.39	60048.78
565.56	59891.97
565.72	59877.93
565.88	60009.00
566.05	60193.90
566.21	60409.23
566.38	60416.25
566.54	60633.92
566.70	60739.24
566.87	61226.07
567.03	61031.81
567.19	61141.81
567.36	60992.02
567.52	60870.31
567.68	60666.69
567.85	60079.21
568.01	59786.64
568.17	59587.70
568.34	59573.66
568.50	59463.65
568.66	59739.83
568.83	59870.90
568.99	60020.70
569.15	60011.34
569.32	60177.51
569.48	59737.49
569.64	59641.53
569.81	59334.92
569.97	59351.30
570.13	59323.22
570.30	58883.20
570.46	58651.48
570.62	58113.16
570.78	57942.30
570.95	58211.46
571.11	58979.16
571.27	59098.53
571.43	59194.49
571.60	59458.97
571.76	59580.68
571.92	59945.80
572.09	60322.63
572.25	59959.84
572.41	59941.12
572.57	59664.94
572.74	59856.86
572.90	59487.06
573.06	59620.47
573.22	59653.23
573.38	59632.17
573.55	59468.33
573.71	59580.68
573.87	59625.15
574.03	59346.62
574.20	59337.26
574.36	59056.40
574.52	58843.41
574.68	58883.20
574.84	58548.50
575.01	58258.27
575.17	58131.89
575.33	58410.41
575.49	58546.16
575.65	58808.30
575.82	58599.99
575.98	58120.18
576.14	58553.18
576.30	58702.98
576.46	58777.87
576.62	58672.55
576.79	58834.05
576.95	58379.98
577.11	58337.85
577.27	58653.82
577.43	58777.87
577.59	58202.10
577.75	58103.80
577.92	57481.22
578.08	57235.46
578.24	57322.06
578.40	57640.37
578.56	57752.72
578.72	57846.34
578.88	58237.21
579.04	57900.17
579.21	58382.32
579.37	58185.72
579.53	58314.45
579.69	58286.36
579.85	58482.97
580.01	58202.10
580.17	57895.49
580.33	57748.04
580.49	57963.37
580.65	57897.83
580.82	58457.22
580.98	58087.42
581.14	58192.74
581.30	58099.12
581.46	58000.82
581.62	57996.13
581.78	58291.04
581.94	58356.58
582.10	58379.98
582.26	58571.91
582.42	58253.59
582.58	58457.22
582.74	58349.56
582.90	58237.21
583.06	58379.98
583.22	58209.12
583.38	58047.63
583.54	58169.33
583.70	57970.39
583.86	58101.46
584.02	58138.91
584.18	58007.84
584.34	58071.03
584.50	58103.80
584.66	57766.76
584.82	57638.03
584.98	57401.64
585.14	57102.05
