SpectraSuite Data File
++++++++++++++++++++++++++++++++++++
Date: Mon Oct 07 14:53:16 GMT-05:00 2013
User: price-jones
Dark Spectrum Present: No
Reference Spectrum Present: No
Number of Sampled Component Spectra: 1
Spectrometers: USB2+H05261
Integration Time (usec): 100000 (USB2+H05261)
Spectra Averaged: 1 (USB2+H05261)
Boxcar Smoothing: 0 (USB2+H05261)
Correct for Electrical Dark: No (USB2+H05261)
Strobe/Lamp Enabled: No (USB2+H05261)
Correct for Detector Non-linearity: No (USB2+H05261)
Correct for Stray Light: No (USB2+H05261)
Number of Pixels in Processed Spectrum: 2048
>>>>>Begin Processed Spectral Data<<<<<
365.73	0.00
365.92	0.00
366.12	0.00
366.32	0.00
366.52	0.00
366.72	0.00
366.91	0.00
367.11	0.00
367.31	0.00
367.51	0.00
367.70	0.00
367.90	0.00
368.10	0.00
368.30	0.00
368.49	0.00
368.69	0.00
368.89	0.00
369.09	0.00
369.28	0.00
369.48	0.00
369.68	0.00
369.87	0.00
370.07	0.00
370.27	0.00
370.47	884.72
370.66	4077.21
370.86	4638.94
371.06	5018.11
371.25	5151.52
371.45	4608.51
371.65	4208.28
371.84	3882.95
372.04	4028.06
372.24	4706.82
372.44	4814.48
372.63	4629.58
372.83	4273.82
373.03	4028.06
373.22	3510.80
373.42	3847.84
373.62	4456.38
373.81	4786.40
374.01	4624.90
374.21	4198.92
374.40	3789.33
374.60	4173.18
374.79	4505.53
374.99	5303.65
375.19	5624.31
375.38	5713.25
375.58	5322.38
375.78	5259.18
375.97	5432.38
376.17	5624.31
376.37	5647.71
376.56	5701.54
376.76	6153.27
376.95	6462.22
377.15	6775.85
377.35	7117.57
377.54	7548.23
377.74	7550.57
377.93	7541.21
378.13	7215.87
378.33	7105.87
378.52	6595.63
378.72	6209.44
378.91	6029.22
379.11	5980.07
379.31	5809.21
379.50	5710.91
379.70	6265.61
379.89	6965.43
380.09	7351.62
380.28	7452.27
380.48	7475.67
380.68	7140.97
380.87	7089.48
381.07	6553.50
381.26	5944.96
381.46	5743.67
381.65	5469.83
381.85	5324.72
382.04	5149.18
382.24	4870.65
382.43	4533.62
382.63	4447.02
382.83	4491.49
383.02	4423.61
383.22	4573.41
383.41	4486.81
383.61	5100.03
383.80	5570.48
384.00	6076.03
384.19	6960.75
384.39	7300.13
384.58	7290.77
384.78	7173.74
384.97	7019.27
385.17	6626.06
385.36	6427.11
385.56	6235.19
385.75	6282.00
385.95	7005.22
386.14	7445.24
386.34	7583.34
386.53	7302.47
386.72	6679.89
386.92	6780.53
387.11	7105.87
387.31	7478.01
387.50	7442.90
387.70	7332.90
387.89	7157.36
388.09	7185.44
388.28	7143.32
388.48	7286.09
388.67	7875.90
388.86	8753.60
389.06	9137.45
389.25	9612.58
389.45	9668.75
389.64	9624.28
389.84	9753.01
390.03	9439.38
390.22	9392.57
390.42	9701.52
390.61	10445.81
390.81	11096.48
391.00	11496.71
391.19	11140.95
391.39	10672.84
391.58	10148.56
391.78	9617.26
391.97	9205.33
392.16	8421.25
392.36	7901.65
392.55	6129.86
392.75	4961.94
392.94	4133.39
393.13	4107.64
393.33	5036.83
393.52	6200.08
393.71	7698.02
393.91	8655.30
394.10	9238.09
394.29	10195.37
394.49	10789.87
394.68	11714.38
394.88	11866.52
395.07	12133.34
395.26	12138.02
395.46	11728.42
395.65	10792.21
395.84	9694.50
396.04	8079.53
396.23	6518.39
396.42	5540.05
396.62	5355.15
396.81	6347.53
397.00	7840.79
397.19	10314.74
397.39	12006.95
397.58	13252.11
397.77	14284.29
397.97	14827.29
398.16	14951.34
398.35	15295.40
398.55	15882.88
398.74	16559.29
398.93	17046.12
399.12	16594.40
399.32	15726.06
399.51	16507.80
399.70	17640.62
399.90	17266.13
400.09	17462.74
400.28	17029.74
400.47	17050.80
400.67	17813.82
400.86	18310.01
401.05	18464.49
401.24	18633.00
401.44	18979.40
401.63	18867.06
401.82	18848.33
402.01	18838.97
402.21	19002.81
402.40	19276.65
402.59	18604.92
402.78	17813.82
402.97	17153.79
403.17	18022.12
403.36	19082.39
403.55	19910.94
403.74	20250.32
403.93	19403.04
404.13	17748.28
404.32	17514.23
404.51	18207.03
404.70	19946.05
404.89	19702.63
405.09	18977.06
405.28	18684.50
405.47	18597.90
405.66	18691.52
405.85	18059.57
406.05	17551.68
406.24	18054.89
406.43	18391.93
406.62	19704.97
406.81	19688.59
407.00	18885.78
407.20	18546.40
407.39	18738.33
407.58	19419.42
407.77	20273.72
407.96	20758.21
408.15	21064.82
408.34	21436.97
408.54	22092.32
408.73	21832.52
408.92	22352.12
409.11	21380.79
409.30	20196.48
409.49	18705.56
409.68	18005.74
409.87	17071.87
410.07	18555.77
410.26	19723.69
410.45	21006.31
410.64	21645.27
410.83	22398.93
411.02	22815.54
411.21	23770.48
411.40	23482.59
411.59	23496.64
411.78	23225.14
411.98	22963.00
412.17	23742.39
412.36	22867.03
412.55	23056.62
412.74	22555.74
412.93	21818.47
413.12	22118.06
413.31	24662.22
413.50	24570.94
413.69	24828.40
413.88	24102.84
414.07	23545.79
414.26	23697.92
414.45	24938.41
414.64	24556.90
414.83	24779.25
415.02	24374.34
415.22	24269.01
415.41	24943.09
415.60	25598.44
415.79	26335.71
415.98	27145.53
416.17	27030.85
416.36	26291.24
416.55	25937.82
416.74	25118.63
416.93	24320.51
417.12	24297.10
417.31	24730.10
417.50	25151.40
417.69	25905.05
417.88	25893.35
418.07	25352.68
418.26	25362.04
418.45	25806.75
418.64	26349.75
418.83	27573.85
419.02	26965.31
419.21	26675.09
419.39	25642.91
419.58	24472.64
419.77	24545.20
419.96	25734.19
420.15	26876.37
420.34	27674.49
420.53	28346.23
420.72	29551.60
420.91	29181.80
421.10	28601.35
421.29	28187.07
421.48	27810.25
421.67	28430.49
421.86	27908.55
422.05	25984.63
422.24	23452.17
422.43	23403.02
422.61	25666.31
422.80	27805.56
422.99	27946.00
423.18	27154.90
423.37	26593.17
423.56	26387.20
423.75	26623.59
423.94	27445.12
424.13	25785.68
424.32	25891.01
424.50	25734.19
424.69	25645.25
424.88	26012.71
425.07	25668.66
425.26	25717.81
425.45	25596.10
425.64	25252.04
425.83	25198.21
426.01	26696.15
426.20	27035.53
426.39	26766.37
426.58	24849.47
426.77	23391.31
426.96	22373.18
427.15	23372.59
427.33	25188.85
427.52	25642.91
427.71	26726.58
427.90	25905.05
428.09	25827.81
428.28	25127.99
428.46	24395.40
428.65	23782.18
428.84	24587.33
429.03	24856.49
429.22	23625.37
429.40	22499.57
429.59	19946.05
429.78	18075.96
429.97	18228.09
430.16	18164.90
430.34	18403.63
430.53	18202.35
430.72	18977.06
430.91	20947.79
431.10	24659.88
431.28	28875.19
431.47	31271.90
431.66	31501.27
431.85	28683.27
432.03	26349.75
432.22	25191.19
432.41	26171.87
432.60	29186.48
432.79	30188.23
432.97	30986.35
433.16	30164.82
433.35	27332.78
433.54	24711.38
433.72	23365.57
433.91	24271.36
434.10	26885.73
434.28	29284.78
434.47	30153.12
434.66	29752.89
434.85	29198.18
435.03	29165.42
435.22	29500.11
435.41	31353.82
435.59	31494.25
435.78	31400.63
435.97	32566.21
436.16	32870.48
436.34	32479.61
436.53	31510.63
436.72	31763.41
436.90	30183.55
437.09	29921.41
437.28	29462.66
437.46	30410.58
437.65	30452.71
437.84	28168.35
438.02	26066.55
438.21	26155.49
438.40	27292.99
438.58	29898.00
438.77	30696.13
438.96	30710.17
439.14	32584.94
439.33	32989.85
439.52	33439.23
439.70	32421.10
439.89	31714.26
440.08	31192.32
440.26	30941.88
440.45	32343.86
440.63	34227.99
440.82	36013.82
441.01	35086.97
441.19	34955.90
441.38	35711.89
441.57	37003.87
441.75	37017.91
441.94	37394.74
442.12	36868.12
442.31	38024.34
442.50	37689.65
442.68	37376.01
442.87	36989.83
443.05	36591.94
443.24	37186.43
443.43	37724.75
443.61	38424.57
443.80	38976.94
443.98	37371.33
444.17	36957.06
444.35	38927.79
444.54	39615.91
444.73	39098.65
444.91	37303.46
445.10	36116.81
445.28	34651.63
445.47	34171.82
445.65	34473.75
445.84	35213.36
446.02	36734.71
446.21	36928.97
446.39	37258.99
446.58	37553.90
446.77	37895.61
446.95	38440.96
447.14	39599.52
447.32	39838.26
447.51	39576.12
447.69	37530.49
447.88	37638.15
448.06	37947.11
448.25	39084.61
448.43	38883.32
448.62	38450.32
448.80	37968.17
448.99	38588.41
449.17	38590.75
449.36	38820.13
449.54	39957.63
449.73	40531.06
449.91	41200.45
450.10	42021.98
450.28	42618.81
450.46	42286.46
450.65	42719.46
450.83	42478.38
451.02	41441.53
451.20	41530.47
451.39	40961.72
451.57	40968.74
451.76	41111.51
451.94	40685.53
452.13	39892.09
452.31	37942.42
452.49	37050.68
452.68	37134.94
452.86	37193.45
453.05	37572.62
453.23	38646.93
453.42	39674.42
453.60	40582.55
453.78	40666.81
453.97	40423.39
454.15	40355.52
454.34	39700.17
454.52	39423.98
454.70	38850.55
454.89	39763.36
455.07	39693.15
455.26	39533.99
455.44	41935.38
455.62	42426.89
455.81	42499.45
455.99	42279.44
456.17	41757.50
456.36	42031.34
456.54	42895.00
456.73	42817.76
456.91	43660.35
457.09	43526.94
457.28	44596.57
457.46	42789.67
457.64	42738.18
457.83	41759.84
458.01	40119.12
458.19	41605.36
458.38	41816.01
458.56	43339.70
458.74	43028.41
458.93	42417.53
459.11	42260.71
459.29	41832.39
459.48	42305.18
459.66	41804.31
459.84	42422.21
460.03	42794.36
460.21	42892.66
460.39	43812.49
460.57	43494.18
460.76	44568.48
460.94	44491.24
461.12	43868.66
461.31	44191.65
461.49	43672.06
461.67	44076.97
461.85	45380.65
462.04	44751.04
462.22	45237.87
462.40	45090.42
462.59	44643.38
462.77	45301.07
462.95	44861.05
463.13	44236.12
463.32	44430.39
463.50	43873.34
463.68	44531.03
463.86	43859.30
464.05	43037.77
464.23	42614.13
464.41	42511.15
464.59	41762.18
464.78	43536.30
464.96	43559.71
465.14	43372.47
465.32	44339.11
465.50	45350.22
465.69	45455.54
465.87	44835.30
466.05	43367.79
466.23	41998.57
466.41	40690.21
466.60	41867.50
466.78	42162.41
466.96	42822.44
467.14	43646.31
467.32	44081.65
467.51	43892.07
467.69	42024.32
467.87	43344.38
468.05	44048.88
468.23	44053.56
468.41	43863.98
468.60	43880.36
468.78	44418.69
468.96	43782.06
469.14	45001.48
469.32	44467.84
469.50	43103.31
469.69	43342.04
469.87	42731.16
470.05	42572.00
470.23	42295.82
470.41	42319.23
470.59	43409.92
470.77	43700.14
470.95	44502.95
471.14	44416.35
471.32	44566.14
471.50	46932.42
471.68	46892.63
471.86	47232.01
472.04	47569.05
472.22	47601.82
472.40	45577.25
472.58	44870.41
472.77	45029.57
472.95	45647.47
473.13	46927.74
473.31	45940.04
473.49	46305.16
473.67	46665.60
473.85	46728.80
474.03	48278.23
474.21	47608.84
474.39	48376.53
474.57	48334.40
474.75	48664.42
474.93	48266.53
475.12	47363.08
475.30	47531.60
475.48	47627.56
475.66	48229.08
475.84	47856.93
476.02	47578.41
476.20	46972.21
476.38	47636.92
476.56	48797.83
476.74	49031.88
476.92	49310.41
477.10	50167.04
477.28	50731.11
477.46	51011.98
477.64	51206.24
477.82	51468.38
478.00	51629.88
478.18	50824.73
478.36	51065.81
478.54	50937.08
478.72	51372.42
478.90	51784.35
479.08	52914.83
479.26	53092.71
479.44	52875.04
479.62	52917.17
479.80	52868.02
479.98	53254.21
480.16	53132.50
480.34	52917.17
480.52	53478.90
480.70	53712.95
480.88	53607.63
481.06	54241.92
481.24	54232.55
481.41	55089.19
481.59	55505.80
481.77	54869.18
481.95	54808.32
482.13	54724.07
482.31	54644.49
482.49	55201.53
482.67	55070.46
482.85	55114.94
483.03	55709.43
483.21	55793.69
483.39	56210.31
483.57	55641.56
483.74	55161.75
483.92	55583.04
484.10	55732.84
484.28	56336.69
484.46	56315.63
484.64	56697.14
484.82	56133.07
485.00	55957.53
485.18	55327.92
485.35	54101.48
485.53	51875.63
485.71	48603.56
485.89	48205.67
486.07	50237.26
486.25	52949.94
486.43	54321.49
486.61	54871.52
486.78	55152.38
486.96	55222.60
487.14	56238.39
487.32	57106.73
487.50	57975.07
487.68	58220.83
487.85	58759.15
488.03	58754.47
488.21	58419.77
488.39	57860.38
488.57	57174.61
488.75	57050.56
488.92	58035.92
489.10	59756.22
489.28	60755.63
489.46	61144.16
489.64	60825.84
489.81	61212.03
489.99	60764.99
490.17	60788.39
490.35	61228.41
490.53	60727.54
490.70	60659.66
490.88	60383.48
491.06	61141.81
491.24	61158.20
491.41	60268.79
491.59	59206.19
491.77	58499.35
491.95	59524.50
492.13	60200.92
492.30	61237.78
492.48	62066.33
492.66	62518.05
492.84	62489.96
493.01	61991.43
493.19	61572.47
493.37	61434.38
493.54	61237.78
493.72	61890.79
493.90	62831.68
494.08	63182.76
494.25	63491.71
494.43	63557.25
494.61	64074.51
494.79	64163.45
494.96	63817.05
495.14	63351.28
495.32	62511.03
495.49	62066.33
495.67	62941.69
495.85	64062.80
496.02	64264.09
496.20	64149.40
496.38	63770.24
496.55	63856.84
496.73	64128.34
496.91	64322.60
497.09	64860.93
497.26	64910.08
497.44	64512.19
497.62	64004.29
497.79	63306.81
497.97	62382.30
498.14	62396.34
498.32	63428.52
498.50	64086.21
498.67	64699.43
498.85	64425.59
499.03	64594.10
499.20	64938.16
499.38	64935.82
499.56	64685.39
499.73	64168.13
499.91	64109.61
500.08	63538.52
500.26	62906.58
500.44	63416.82
500.61	64072.17
500.79	63971.52
500.97	63582.99
501.14	63426.18
501.32	63407.45
501.49	63400.43
501.67	63629.80
501.84	63955.14
502.02	64254.73
502.20	64448.99
502.37	64652.62
502.55	64570.70
502.72	65188.60
502.90	65439.04
503.07	65233.07
503.25	64856.24
503.43	64224.30
503.60	63667.25
503.78	63222.55
503.95	63606.40
504.13	64701.77
504.30	65394.57
504.48	65436.70
504.65	64987.31
504.83	64945.18
505.01	65415.63
505.18	65535.00
505.36	65535.00
505.53	65535.00
505.71	65535.00
505.88	65535.00
506.06	65535.00
506.23	65535.00
506.41	65467.12
506.58	65450.74
506.76	65441.38
506.93	65535.00
507.11	65265.84
507.28	65448.40
507.46	65069.23
507.63	64432.61
507.81	64392.82
507.98	64657.30
508.16	65331.37
508.33	65535.00
508.50	65535.00
508.68	65535.00
508.85	65535.00
509.03	65535.00
509.20	65535.00
509.38	65535.00
509.55	65251.80
509.73	65368.82
509.90	65535.00
510.08	65535.00
510.25	65535.00
510.42	65535.00
510.60	65535.00
510.77	65535.00
510.95	65535.00
511.12	65535.00
511.30	65535.00
511.47	65535.00
511.64	65535.00
511.82	65535.00
511.99	65535.00
512.17	65535.00
512.34	65336.05
512.51	65516.28
512.69	65535.00
512.86	65535.00
513.04	65535.00
513.21	65535.00
513.38	65535.00
513.56	65333.71
513.73	64802.41
513.90	65116.04
514.08	65130.09
514.25	65389.89
514.43	65535.00
514.60	65535.00
514.77	65535.00
514.95	65535.00
515.12	65535.00
515.29	65535.00
515.47	65535.00
515.64	65535.00
515.81	65535.00
515.99	65535.00
516.16	64563.68
516.33	62550.82
516.51	61509.28
516.68	60975.64
516.85	60603.49
517.03	60977.98
517.20	63119.57
517.37	65204.98
517.54	65535.00
517.72	65476.49
517.89	63360.64
518.06	61537.36
518.24	61958.66
518.41	63592.36
518.58	64636.23
518.75	64793.05
518.93	65080.94
519.10	65130.09
519.27	65326.69
519.45	65535.00
519.62	65535.00
519.79	65535.00
519.96	65535.00
520.14	65535.00
520.31	65043.49
520.48	65310.31
520.65	65535.00
520.83	65535.00
521.00	65535.00
521.17	65535.00
521.34	65535.00
521.52	65535.00
521.69	65535.00
521.86	65535.00
522.03	65535.00
522.20	65535.00
522.38	64842.20
522.55	64928.80
522.72	65535.00
522.89	65535.00
523.07	65535.00
523.24	65535.00
523.41	65535.00
523.58	65535.00
523.75	65535.00
523.92	65535.00
524.10	65535.00
524.27	65535.00
524.44	65535.00
524.61	65535.00
524.78	65535.00
524.96	65535.00
525.13	65535.00
525.30	65535.00
525.47	65535.00
525.64	65535.00
525.81	65535.00
525.98	65535.00
526.16	64271.11
526.33	63491.71
526.50	63285.75
526.67	63173.40
526.84	63702.36
527.01	64364.73
527.18	65062.21
527.36	65535.00
527.53	65535.00
527.70	65535.00
527.87	65535.00
528.04	65535.00
528.21	65535.00
528.38	65535.00
528.55	65535.00
528.72	65535.00
528.89	65535.00
529.07	65535.00
529.24	65535.00
529.41	65535.00
529.58	65535.00
529.75	65535.00
529.92	65535.00
530.09	65535.00
530.26	65535.00
530.43	65535.00
530.60	65535.00
530.77	65535.00
530.94	65535.00
531.11	65535.00
531.28	65535.00
531.46	65535.00
531.63	65535.00
531.80	65535.00
531.97	65535.00
532.14	65535.00
532.31	65399.25
532.48	64537.93
532.65	64551.98
532.82	65277.54
532.99	65535.00
533.16	65535.00
533.33	65535.00
533.50	65535.00
533.67	65535.00
533.84	65535.00
534.01	65535.00
534.18	65535.00
534.35	65535.00
534.52	65535.00
534.69	65535.00
534.86	65535.00
535.03	65535.00
535.20	65535.00
535.37	65535.00
535.54	65535.00
535.71	65535.00
535.88	65535.00
536.05	65535.00
536.22	65535.00
536.38	65535.00
536.55	65535.00
536.72	65389.89
536.89	65233.07
537.06	65535.00
537.23	65535.00
537.40	65535.00
537.57	65535.00
537.74	65535.00
537.91	65535.00
538.08	65535.00
538.25	65535.00
538.42	65535.00
538.59	65535.00
538.75	65535.00
538.92	65535.00
539.09	65535.00
539.26	65535.00
539.43	65481.17
539.60	65535.00
539.77	65535.00
539.94	65462.44
540.11	64891.35
540.28	64575.38
540.44	64559.00
540.61	64769.64
540.78	64839.86
540.95	65314.99
541.12	65535.00
541.29	65535.00
541.46	65535.00
541.62	65535.00
541.79	65535.00
541.96	65535.00
542.13	65535.00
542.30	65535.00
542.47	65535.00
542.63	65535.00
542.80	65535.00
542.97	65535.00
543.14	65535.00
543.31	65535.00
543.48	65535.00
543.64	65535.00
543.81	65535.00
543.98	65535.00
544.15	65535.00
544.32	65535.00
544.48	65535.00
544.65	65535.00
544.82	65535.00
544.99	65535.00
545.16	65535.00
545.32	65535.00
545.49	65535.00
545.66	65535.00
545.83	65535.00
546.00	65535.00
546.16	65535.00
546.33	65535.00
546.50	65535.00
546.67	65535.00
546.83	65535.00
547.00	65535.00
547.17	65422.65
547.34	64903.06
547.50	64870.29
547.67	65284.56
547.84	65314.99
548.00	65535.00
548.17	65535.00
548.34	65535.00
548.51	65535.00
548.67	65535.00
548.84	65535.00
549.01	65535.00
549.18	65535.00
549.34	65535.00
549.51	65535.00
549.68	65535.00
549.84	65535.00
550.01	65497.55
550.18	65422.65
550.34	65324.35
550.51	65535.00
550.68	65535.00
550.84	64935.82
551.01	65291.58
551.18	65230.73
551.34	65410.95
551.51	65535.00
551.68	65535.00
551.84	65535.00
552.01	65535.00
552.18	65535.00
552.34	64874.97
552.51	64755.60
552.68	64619.85
552.84	64977.95
553.01	65230.73
553.18	65272.86
553.34	65455.42
553.51	65478.83
553.67	65535.00
553.84	65535.00
554.01	65535.00
554.17	65403.93
554.34	65535.00
554.51	65535.00
554.67	65535.00
554.84	65535.00
555.00	65347.76
555.17	65314.99
555.33	65410.95
555.50	65298.61
555.67	65441.38
555.83	65130.09
556.00	64912.42
556.16	64942.84
556.33	64575.38
556.50	64418.56
556.66	64526.23
556.83	64348.35
556.99	64404.52
557.16	64591.76
557.32	64814.12
557.49	64825.82
557.65	64860.93
557.82	64786.03
557.98	64612.83
558.15	64217.28
558.32	63653.21
558.48	63164.04
558.65	63290.43
558.81	63568.95
558.98	63625.12
559.14	63936.41
559.31	63847.47
559.47	63889.60
559.64	63681.30
559.80	63414.47
559.97	63449.58
560.13	63852.15
560.30	64566.02
560.46	64970.93
560.63	65272.86
560.79	65162.85
560.96	64687.73
561.12	63714.06
561.29	63145.31
561.45	63175.74
561.61	63765.56
561.78	64097.91
561.94	63966.84
562.11	63931.73
562.27	63725.77
562.44	64027.70
562.60	64437.29
562.77	64500.48
562.93	64484.10
563.10	64477.08
563.26	63903.65
563.42	63861.52
563.59	63770.24
563.75	63744.49
563.92	63884.92
564.08	63891.94
564.24	64006.63
564.41	64013.65
564.57	63922.37
564.74	63655.55
564.90	63800.66
565.07	63543.20
565.23	63391.07
565.39	62691.25
565.56	62658.48
565.72	62351.87
565.88	62646.78
566.05	62915.94
566.21	63032.97
566.38	63271.70
566.54	63178.08
566.70	63540.86
566.87	63664.91
567.03	63735.13
567.19	63948.12
567.36	63524.48
567.52	63327.87
567.68	63213.19
567.85	62789.55
568.01	62738.06
568.17	62429.11
568.34	62548.48
568.50	62127.18
568.66	62433.79
568.83	62492.30
568.99	62789.55
569.15	62929.98
569.32	62780.19
569.48	62595.29
569.64	62452.51
569.81	62349.53
569.97	62157.61
570.13	62087.39
570.30	61705.88
570.46	61415.66
570.62	60867.97
570.78	61090.32
570.95	61087.98
571.11	61752.69
571.27	61916.53
571.43	61958.66
571.60	62429.11
571.76	62461.88
571.92	62721.68
572.09	63009.56
572.25	62597.63
572.41	62738.06
572.57	62679.55
572.74	62644.44
572.90	62251.23
573.06	62372.94
573.22	62351.87
573.38	62368.26
573.55	62351.87
573.71	62649.12
573.87	62461.88
574.03	62143.56
574.20	62164.63
574.36	62010.15
574.52	61958.66
574.68	61822.91
574.84	61530.34
575.01	61059.90
575.17	61008.40
575.33	61258.84
575.49	61469.49
575.65	61628.65
575.82	61329.06
575.98	61095.00
576.14	61373.53
576.30	61600.56
576.46	61736.31
576.62	61504.60
576.79	61591.20
576.95	61394.59
577.11	61375.87
577.27	61310.33
577.43	61343.10
577.59	61247.14
577.75	60774.35
577.92	60306.24
578.08	60395.18
578.24	60128.36
578.40	60479.44
578.56	60830.52
578.72	60863.29
578.88	60882.02
579.04	61069.26
579.21	61116.07
579.37	60947.55
579.53	61298.63
579.69	61254.16
579.85	61329.06
580.01	60977.98
580.17	60774.35
580.33	60633.92
580.49	60720.52
580.65	61006.06
580.82	61221.39
580.98	61235.44
581.14	61078.62
581.30	61144.16
581.46	61118.41
581.62	61069.26
581.78	61151.18
581.94	61256.50
582.10	61167.56
582.26	61291.61
582.42	61247.14
582.58	61333.74
582.74	61193.31
582.90	61591.20
583.06	61214.37
583.22	61109.05
583.38	61066.92
583.54	60982.66
583.70	60900.74
583.86	60949.89
584.02	60907.76
584.18	60996.70
584.34	60809.46
584.50	61003.72
584.66	60591.79
584.82	60261.77
584.98	60320.29
585.14	59992.61
