SpectraSuite Data File
++++++++++++++++++++++++++++++++++++
Date: Mon Oct 07 14:54:54 GMT-05:00 2013
User: price-jones
Dark Spectrum Present: No
Reference Spectrum Present: No
Number of Sampled Component Spectra: 1
Spectrometers: USB2+H05261
Integration Time (usec): 10000 (USB2+H05261)
Spectra Averaged: 1 (USB2+H05261)
Boxcar Smoothing: 0 (USB2+H05261)
Correct for Electrical Dark: No (USB2+H05261)
Strobe/Lamp Enabled: No (USB2+H05261)
Correct for Detector Non-linearity: No (USB2+H05261)
Correct for Stray Light: No (USB2+H05261)
Number of Pixels in Processed Spectrum: 2048
>>>>>Begin Processed Spectral Data<<<<<
365.73	0.00
365.92	0.00
366.12	0.00
366.32	0.00
366.52	0.00
366.72	0.00
366.91	0.00
367.11	0.00
367.31	0.00
367.51	0.00
367.70	0.00
367.90	0.00
368.10	0.00
368.30	0.00
368.49	0.00
368.69	0.00
368.89	0.00
369.09	0.00
369.28	0.00
369.48	0.00
369.68	0.00
369.87	0.00
370.07	0.00
370.27	0.00
370.47	0.00
370.66	0.00
370.86	0.00
371.06	0.00
371.25	0.00
371.45	0.00
371.65	0.00
371.84	0.00
372.04	28.09
372.24	0.00
372.44	0.00
372.63	4.68
372.83	0.00
373.03	0.00
373.22	0.00
373.42	0.00
373.62	0.00
373.81	14.04
374.01	4.68
374.21	49.15
374.40	0.00
374.60	0.00
374.79	0.00
374.99	58.51
375.19	149.79
375.38	131.07
375.58	74.90
375.78	95.96
375.97	60.85
376.17	107.66
376.37	88.94
376.56	100.64
376.76	208.31
376.95	163.84
377.15	184.90
377.35	187.24
377.54	163.84
377.74	201.29
377.93	198.95
378.13	191.92
378.33	159.16
378.52	63.19
378.72	159.16
378.91	102.98
379.11	168.52
379.31	42.13
379.50	18.72
379.70	81.92
379.89	180.22
380.09	243.42
380.28	201.29
380.48	191.92
380.68	138.09
380.87	173.20
381.07	217.67
381.26	175.54
381.46	77.24
381.65	79.58
381.85	46.81
382.04	63.19
382.24	0.00
382.43	23.41
382.63	0.00
382.83	0.00
383.02	65.54
383.22	46.81
383.41	0.00
383.61	0.00
383.80	93.62
384.00	135.75
384.19	145.11
384.39	191.92
384.58	161.50
384.78	259.80
384.97	220.01
385.17	208.31
385.36	117.03
385.56	72.56
385.75	170.86
385.95	201.29
386.14	163.84
386.34	208.31
386.53	112.35
386.72	154.48
386.92	142.77
387.11	234.05
387.31	163.84
387.50	159.16
387.70	238.73
387.89	114.69
388.09	163.84
388.28	170.86
388.48	175.54
388.67	196.60
388.86	287.89
389.06	252.78
389.25	379.17
389.45	292.57
389.64	341.72
389.84	344.06
390.03	276.18
390.22	381.51
390.42	315.97
390.61	311.29
390.81	421.30
391.00	505.56
391.19	440.02
391.39	369.80
391.58	304.27
391.78	304.27
391.97	308.95
392.16	266.82
392.36	191.92
392.55	110.01
392.75	53.83
392.94	0.00
393.13	0.00
393.33	39.79
393.52	147.45
393.71	238.73
393.91	320.65
394.10	402.57
394.29	236.39
394.49	367.46
394.68	472.79
394.88	454.06
395.07	437.68
395.26	491.51
395.46	416.62
395.65	397.89
395.84	269.16
396.04	346.40
396.23	147.45
396.42	21.06
396.62	32.77
396.81	140.43
397.00	173.20
397.19	334.70
397.39	454.06
397.58	599.18
397.77	603.86
397.97	662.37
398.16	765.36
398.35	678.76
398.55	765.36
398.74	739.61
398.93	770.04
399.12	723.23
399.32	643.65
399.51	660.03
399.70	774.72
399.90	702.16
400.09	767.70
400.28	702.16
400.47	755.99
400.67	823.87
400.86	788.76
401.05	791.10
401.24	854.30
401.44	774.72
401.63	863.66
401.82	875.36
402.01	910.47
402.21	922.17
402.40	889.40
402.59	851.96
402.78	835.57
402.97	821.53
403.17	828.55
403.36	1020.47
403.55	994.73
403.74	924.51
403.93	901.11
404.13	912.81
404.32	779.40
404.51	765.36
404.70	840.25
404.89	950.26
405.09	976.00
405.28	788.76
405.47	767.70
405.66	807.48
405.85	772.38
406.05	720.88
406.24	706.84
406.43	809.83
406.62	880.04
406.81	931.53
407.00	793.44
407.20	908.13
407.39	809.83
407.58	884.72
407.77	950.26
407.96	1008.77
408.15	959.62
408.34	952.60
408.54	1090.69
408.73	1001.75
408.92	922.17
409.11	950.26
409.30	917.49
409.49	746.63
409.68	849.61
409.87	720.88
410.07	690.46
410.26	835.57
410.45	987.71
410.64	1008.77
410.83	943.24
411.02	1055.58
411.21	1158.57
411.40	1095.37
411.59	1123.46
411.78	1086.01
411.98	985.37
412.17	1053.24
412.36	1090.69
412.55	976.00
412.74	994.73
412.93	873.02
413.12	1048.56
413.31	1153.88
413.50	1261.55
413.69	1228.78
413.88	1137.50
414.07	1015.79
414.26	1076.65
414.45	1071.97
414.64	1064.94
414.83	1100.05
415.02	1111.75
415.22	1135.16
415.41	1231.12
415.60	1261.55
415.79	1226.44
415.98	1240.48
416.17	1301.34
416.36	1306.02
416.55	1245.16
416.74	1172.61
416.93	1086.01
417.12	1149.20
417.31	1102.39
417.50	1125.80
417.69	1196.01
417.88	1207.72
418.07	1196.01
418.26	1207.72
418.45	1275.59
418.64	1146.86
418.83	1266.23
419.02	1303.68
419.21	1245.16
419.39	1214.74
419.58	1158.57
419.77	1097.71
419.96	1137.50
420.15	1252.19
420.34	1280.27
420.53	1334.11
420.72	1352.83
420.91	1366.87
421.10	1359.85
421.29	1345.81
421.48	1273.25
421.67	1359.85
421.86	1238.14
422.05	1198.35
422.24	1071.97
422.43	1053.24
422.61	1071.97
422.80	1291.98
422.99	1308.36
423.18	1231.12
423.37	1210.06
423.56	1238.14
423.75	1224.10
423.94	1207.72
424.13	1088.35
424.32	1245.16
424.50	1149.20
424.69	1203.04
424.88	1266.23
425.07	1198.35
425.26	1160.91
425.45	1240.48
425.64	1167.93
425.83	1116.44
426.01	1226.44
426.20	1331.76
426.39	1207.72
426.58	1095.37
426.77	936.21
426.96	889.40
427.15	1048.56
427.33	1191.33
427.52	1219.42
427.71	1193.67
427.90	1163.25
428.09	1114.10
428.28	1158.57
428.46	1097.71
428.65	1020.47
428.84	1050.90
429.03	1198.35
429.22	1064.94
429.40	933.87
429.59	882.38
429.78	697.48
429.97	753.65
430.16	725.57
430.34	807.48
430.53	812.17
430.72	816.85
430.91	873.02
431.10	1048.56
431.28	1259.21
431.47	1507.30
431.66	1495.60
431.85	1383.26
432.03	1158.57
432.22	1233.46
432.41	1179.63
432.60	1240.48
432.79	1383.26
432.97	1418.36
433.16	1355.17
433.35	1193.67
433.54	1107.07
433.72	1064.94
433.91	1067.28
434.10	1179.63
434.28	1270.91
434.47	1373.89
434.66	1240.48
434.85	1210.06
435.03	1287.29
435.22	1291.98
435.41	1439.43
435.59	1481.56
435.78	1469.86
435.97	1535.39
436.16	1544.75
436.34	1444.11
436.53	1411.34
436.72	1516.67
436.90	1472.20
437.09	1212.40
437.28	1266.23
437.46	1401.98
437.65	1345.81
437.84	1291.98
438.02	1233.46
438.21	1125.80
438.40	1174.95
438.58	1359.85
438.77	1378.58
438.96	1327.08
439.14	1439.43
439.33	1514.33
439.52	1577.52
439.70	1533.05
439.89	1441.77
440.08	1373.89
440.26	1341.13
440.45	1437.09
440.63	1528.37
440.82	1631.35
441.01	1661.78
441.19	1652.42
441.38	1584.54
441.57	1596.25
441.75	1703.91
441.94	1687.53
442.12	1715.61
442.31	1699.23
442.50	1706.25
442.68	1717.95
442.87	1820.94
443.05	1600.93
443.24	1727.32
443.43	1746.04
443.61	1750.72
443.80	1767.10
443.98	1638.38
444.17	1666.46
444.35	1722.63
444.54	1933.28
444.73	1755.40
444.91	1713.27
445.10	1638.38
445.28	1614.97
445.47	1528.37
445.65	1570.50
445.84	1619.65
446.02	1668.80
446.21	1755.40
446.39	1703.91
446.58	1727.32
446.77	1739.02
446.95	1650.08
447.14	1811.57
447.32	1837.32
447.51	1818.60
447.69	1612.63
447.88	1717.95
448.06	1666.46
448.25	1724.97
448.43	1687.53
448.62	1739.02
448.80	1769.44
448.99	1699.23
449.17	1760.08
449.36	1732.00
449.54	1809.23
449.73	1923.92
449.91	1895.83
450.10	1952.01
450.28	1977.75
450.46	1968.39
450.65	1942.64
450.83	1937.96
451.02	1825.62
451.20	1881.79
451.39	1818.60
451.57	1790.51
451.76	1816.26
451.94	1881.79
452.13	1753.06
452.31	1699.23
452.49	1624.33
452.68	1603.27
452.86	1701.57
453.05	1750.72
453.23	1804.55
453.42	1797.53
453.60	1736.68
453.78	1853.70
453.97	1797.53
454.15	1900.52
454.34	1703.91
454.52	1856.04
454.70	1757.74
454.89	1753.06
455.07	1727.32
455.26	1806.89
455.44	1879.45
455.62	1809.23
455.81	1865.41
455.99	1874.77
456.17	1933.28
456.36	1867.75
456.54	1944.99
456.73	2015.20
456.91	2003.50
457.09	1994.14
457.28	1842.00
457.46	1856.04
457.64	1956.69
457.83	1842.00
458.01	1877.11
458.19	1879.45
458.38	1968.39
458.56	1930.94
458.74	1921.58
458.93	1933.28
459.11	1884.13
459.29	1736.68
459.48	1947.33
459.66	1816.26
459.84	1853.70
460.03	1902.86
460.21	1923.92
460.39	2064.35
460.57	2080.74
460.76	2026.90
460.94	1865.41
461.12	1940.30
461.31	1947.33
461.49	1994.14
461.67	1994.14
461.85	2076.06
462.04	2026.90
462.22	2188.40
462.40	1944.99
462.59	1949.67
462.77	2031.58
462.95	1956.69
463.13	2017.54
463.32	1942.64
463.50	2003.50
463.68	1949.67
463.86	2012.86
464.05	1891.15
464.23	1823.28
464.41	1865.41
464.59	1799.87
464.78	1959.03
464.96	1884.13
465.14	1944.99
465.32	1980.09
465.50	2106.48
465.69	2097.12
465.87	1994.14
466.05	1898.17
466.23	1919.24
466.41	1743.70
466.60	1944.99
466.78	1872.43
466.96	1900.52
467.14	1907.54
467.32	1963.71
467.51	1933.28
467.69	1940.30
467.87	1839.66
468.05	1818.60
468.23	1820.94
468.41	1823.28
468.60	1935.62
468.78	1891.15
468.96	2024.56
469.14	1975.41
469.32	1849.02
469.50	1900.52
469.69	1949.67
469.87	1827.96
470.05	1832.64
470.23	1830.30
470.41	1893.49
470.59	1949.67
470.77	1870.09
470.95	2066.69
471.14	1973.07
471.32	1907.54
471.50	2129.89
471.68	1994.14
471.86	2024.56
472.04	2047.97
472.22	2125.21
472.40	1954.35
472.58	1933.28
472.77	2111.16
472.95	1977.75
473.13	2003.50
473.31	1919.24
473.49	2026.90
473.67	2127.55
473.85	2069.03
474.03	2073.71
474.21	2188.40
474.39	2085.42
474.57	2167.34
474.75	2073.71
474.93	2094.78
475.12	2078.40
475.30	2115.84
475.48	2052.65
475.66	2115.84
475.84	2125.21
476.02	1998.82
476.20	2036.27
476.38	2069.03
476.56	2225.85
476.74	2172.02
476.92	2246.91
477.10	2197.76
477.28	2235.21
477.46	2230.53
477.64	2237.55
477.82	2314.79
478.00	2459.90
478.18	2237.55
478.36	2375.64
478.54	2256.28
478.72	2307.77
478.90	2307.77
479.08	2455.22
479.26	2448.20
479.44	2436.50
479.62	2387.35
479.80	2340.54
479.98	2483.31
480.16	2410.75
480.34	2466.92
480.52	2520.76
480.70	2574.59
480.88	2462.24
481.06	2574.59
481.24	2534.80
481.41	2546.50
481.59	2675.23
481.77	2675.23
481.95	2579.27
482.13	2502.03
482.31	2609.70
482.49	2593.31
482.67	2593.31
482.85	2665.87
483.03	2605.02
483.21	2651.83
483.39	2899.92
483.57	2633.10
483.74	2560.55
483.92	2649.49
484.10	2621.40
484.28	2649.49
484.46	2794.60
484.64	2785.24
484.82	2768.85
485.00	2712.68
485.18	2583.95
485.35	2663.53
485.53	2434.16
485.71	2069.03
485.89	2207.13
486.07	2223.51
486.25	2370.96
486.43	2614.38
486.61	2602.68
486.78	2647.15
486.96	2787.58
487.14	2607.36
487.32	2785.24
487.50	2923.33
487.68	3026.31
487.85	2974.82
488.03	2911.63
488.21	2993.55
488.39	3019.29
488.57	2764.17
488.75	2712.68
488.92	2899.92
489.10	3005.25
489.28	2984.18
489.46	3267.39
489.64	3293.13
489.81	3272.07
489.99	3222.92
490.17	3358.67
490.35	3269.73
490.53	3272.07
490.70	3185.47
490.88	3272.07
491.06	3176.11
491.24	3300.16
491.41	3169.09
491.59	3070.78
491.77	2925.67
491.95	2998.23
492.13	3054.40
492.30	3286.11
492.48	3501.44
492.66	3468.67
492.84	3463.99
493.01	3438.25
493.19	3297.81
493.37	3370.37
493.54	3272.07
493.72	3393.78
493.90	3618.47
494.08	3548.25
494.25	3658.26
494.43	3653.58
494.61	3651.24
494.79	3527.19
494.96	3646.55
495.14	3609.11
495.32	3452.29
495.49	3372.71
495.67	3595.06
495.85	3822.09
496.02	3854.86
496.20	3901.67
496.38	3595.06
496.55	3597.40
496.73	3676.98
496.91	3660.60
497.09	3801.03
497.26	3761.24
497.44	3749.54
497.62	3726.13
497.79	3531.87
497.97	3452.29
498.14	3396.12
498.32	3583.36
498.50	3723.79
498.67	3667.62
498.85	3693.37
499.03	3721.45
499.20	3782.31
499.38	3749.54
499.56	3838.48
499.73	3803.37
499.91	3676.98
500.08	3618.47
500.26	3442.93
500.44	3592.72
500.61	3571.66
500.79	3660.60
500.97	3536.55
501.14	3602.08
501.32	3545.91
501.49	3506.12
501.67	3550.59
501.84	3716.77
502.02	3700.39
502.20	3733.15
502.37	3782.31
502.55	3723.79
502.72	3850.18
502.90	3957.85
503.07	3868.91
503.25	3709.75
503.43	3618.47
503.60	3674.64
503.78	3548.25
503.95	3613.79
504.13	3824.44
504.30	3974.23
504.48	3749.54
504.65	3847.84
504.83	3688.68
505.01	3901.67
505.18	3955.51
505.36	4098.28
505.53	3922.74
505.71	4023.38
505.88	4100.62
506.06	3868.91
506.23	3894.65
506.41	3775.28
506.58	3925.08
506.76	3892.31
506.93	3875.93
507.11	3840.82
507.28	3948.48
507.46	3908.69
507.63	3698.05
507.81	3693.37
507.98	3597.40
508.16	3850.18
508.33	3885.29
508.50	3873.59
508.68	3974.23
508.85	3868.91
509.03	4074.87
509.20	3925.08
509.38	3932.10
509.55	3894.65
509.73	3808.05
509.90	3824.44
510.08	3782.31
510.25	3992.95
510.42	3815.07
510.60	3819.75
510.77	3812.73
510.95	3871.25
511.12	3978.91
511.30	4112.32
511.47	3950.82
511.64	3976.57
511.82	3960.19
511.99	3794.01
512.17	3796.35
512.34	3805.71
512.51	3749.54
512.69	3875.93
512.86	3920.40
513.04	3847.84
513.21	3875.93
513.38	3791.67
513.56	3763.58
513.73	3719.11
513.90	3765.92
514.08	3688.68
514.25	3899.33
514.43	3831.46
514.60	3810.39
514.77	3878.27
514.95	3962.53
515.12	3765.92
515.29	3836.14
515.47	3845.50
515.64	3988.27
515.81	3843.16
515.99	3859.54
516.16	3604.42
516.33	3199.51
516.51	3052.06
516.68	3052.06
516.85	3023.97
517.03	3005.25
517.20	3358.67
517.37	3730.81
517.54	3833.80
517.72	3822.09
517.89	3368.03
518.06	3176.11
518.24	3215.90
518.41	3581.02
518.58	3655.92
518.75	3634.85
518.93	3623.15
519.10	3632.51
519.27	3740.18
519.45	3782.31
519.62	3882.95
519.79	4063.17
519.96	3815.07
520.14	3782.31
520.31	3674.64
520.48	3571.66
520.65	3726.13
520.83	3786.99
521.00	4025.72
521.17	3791.67
521.34	3761.24
521.52	3918.06
521.69	3817.41
521.86	3971.89
522.03	4102.96
522.20	3798.69
522.38	3522.51
522.55	3637.19
522.72	3623.15
522.89	3754.22
523.07	3838.48
523.24	3658.26
523.41	4018.70
523.58	4004.66
523.75	3878.27
523.92	4032.74
524.10	4009.34
524.27	4039.76
524.44	3894.65
524.61	3822.09
524.78	3894.65
524.96	3981.25
525.13	3754.22
525.30	3981.25
525.47	4072.53
525.64	4159.13
525.81	3922.74
525.98	3566.98
526.16	3531.87
526.33	3353.99
526.50	3382.07
526.67	3204.19
526.84	3339.94
527.01	3377.39
527.18	3618.47
527.36	3754.22
527.53	3796.35
527.70	3894.65
527.87	3864.22
528.04	3758.90
528.21	3976.57
528.38	3798.69
528.55	3932.10
528.72	3960.19
528.89	3873.59
529.07	3915.72
529.24	4032.74
529.41	3843.16
529.58	3646.55
529.75	3698.05
529.92	3967.21
530.09	3967.21
530.26	4065.51
530.43	3997.64
530.60	3918.06
530.77	3932.10
530.94	4077.21
531.11	3981.25
531.28	4121.68
531.46	3882.95
531.63	3784.65
531.80	3875.93
531.97	3826.78
532.14	3730.81
532.31	3667.62
532.48	3566.98
532.65	3489.74
532.82	3576.34
532.99	3756.56
533.16	3831.46
533.33	3915.72
533.50	3866.56
533.67	3742.52
533.84	3794.01
534.01	3836.14
534.18	3953.16
534.35	3836.14
534.52	3672.30
534.69	3906.35
534.86	3859.54
535.03	3918.06
535.20	3918.06
535.37	4119.34
535.54	4028.06
535.71	3911.04
535.88	3953.16
536.05	3726.13
536.22	3775.28
536.38	3754.22
536.55	3559.95
536.72	3520.17
536.89	3609.11
537.06	3845.50
537.23	3887.63
537.40	3761.24
537.57	3896.99
537.74	3857.20
537.91	3784.65
538.08	3728.47
538.25	3744.86
538.42	3859.54
538.59	3943.80
538.75	3817.41
538.92	3588.04
539.09	3637.19
539.26	3461.65
539.43	3613.79
539.60	3721.45
539.77	3606.77
539.94	3576.34
540.11	3566.98
540.28	3485.06
540.44	3431.23
540.61	3410.16
540.78	3433.57
540.95	3541.23
541.12	3569.32
541.29	3712.09
541.46	3770.60
541.62	3700.39
541.79	3653.58
541.96	3700.39
542.13	3639.53
542.30	3714.43
542.47	3669.96
542.63	3590.38
542.80	3550.59
542.97	3543.57
543.14	3555.27
543.31	3630.17
543.48	3747.20
543.64	3730.81
543.81	3817.41
543.98	3854.86
544.15	3758.90
544.32	3698.05
544.48	3805.71
544.65	3550.59
544.82	3599.74
544.99	3672.30
545.16	3534.21
545.32	3588.04
545.49	3665.28
545.66	3772.94
545.83	3648.90
546.00	3709.75
546.16	3691.02
546.33	3552.93
546.50	3611.45
546.67	3777.62
546.83	3681.66
547.00	3557.61
547.17	3424.20
547.34	3459.31
547.50	3438.25
547.67	3569.32
547.84	3508.46
548.00	3513.14
548.17	3639.53
548.34	3548.25
548.51	3442.93
548.67	3606.77
548.84	3623.15
549.01	3630.17
549.18	3669.96
549.34	3641.87
549.51	3548.25
549.68	3461.65
549.84	3389.10
550.01	3548.25
550.18	3648.90
550.34	3529.53
550.51	3667.62
550.68	3604.42
550.84	3501.44
551.01	3480.38
551.18	3419.52
551.34	3555.27
551.51	3571.66
551.68	3513.14
551.84	3550.59
552.01	3557.61
552.18	3571.66
552.34	3489.74
552.51	3206.53
552.68	3391.44
552.84	3445.27
553.01	3482.72
553.18	3445.27
553.34	3447.61
553.51	3513.14
553.67	3552.93
553.84	3487.40
554.01	3431.23
554.17	3452.29
554.34	3389.10
554.51	3492.08
554.67	3468.67
554.84	3623.15
555.00	3566.98
555.17	3424.20
555.33	3478.04
555.50	3398.46
555.67	3485.06
555.83	3398.46
556.00	3323.56
556.16	3459.31
556.33	3339.94
556.50	3384.41
556.66	3286.11
556.83	3400.80
556.99	3311.86
557.16	3297.81
557.32	3368.03
557.49	3358.67
557.65	3571.66
557.82	3276.75
557.98	3337.60
558.15	3353.99
558.32	3171.43
558.48	3068.44
558.65	3176.11
558.81	3157.38
558.98	3194.83
559.14	3192.49
559.31	3197.17
559.47	3251.00
559.64	3117.59
559.80	3145.68
559.97	3145.68
560.13	3213.56
560.30	3316.54
560.46	3323.56
560.63	3499.10
560.79	3316.54
560.96	3351.65
561.12	3091.85
561.29	3084.83
561.45	3124.62
561.61	3019.29
561.78	3372.71
561.94	3255.69
562.11	3241.64
562.27	3068.44
562.44	3279.09
562.60	3152.70
562.77	3265.05
562.93	3286.11
563.10	3335.26
563.26	3087.17
563.42	3316.54
563.59	3117.59
563.75	3138.66
563.92	3190.15
564.08	3098.87
564.24	3222.92
564.41	3075.46
564.57	3232.28
564.74	3251.00
564.90	3119.93
565.07	3192.49
565.23	2956.10
565.39	2949.08
565.56	2995.89
565.72	2953.76
565.88	3040.36
566.05	3016.95
566.21	3101.21
566.38	3115.25
566.54	3176.11
566.70	3070.78
566.87	3243.98
567.03	3171.43
567.19	3077.80
567.36	3197.17
567.52	3211.22
567.68	3073.12
567.85	3005.25
568.01	3157.38
568.17	2846.09
568.34	2956.10
568.50	3016.95
568.66	2883.54
568.83	2883.54
568.99	2953.76
569.15	3026.31
569.32	2972.48
569.48	3070.78
569.64	2988.86
569.81	2946.73
569.97	2846.09
570.13	2916.31
570.30	2942.05
570.46	2890.56
570.62	2607.36
570.78	2874.18
570.95	2970.14
571.11	2787.58
571.27	2883.54
571.43	2813.32
571.60	2986.52
571.76	3087.17
571.92	2956.10
572.09	2984.18
572.25	3070.78
572.41	2883.54
572.57	3030.99
572.74	2995.89
572.90	3005.25
573.06	2949.08
573.22	2932.69
573.38	3066.10
573.55	2827.37
573.71	2888.22
573.87	2881.20
574.03	2754.81
574.20	2860.13
574.36	2895.24
574.52	2771.19
574.68	2806.30
574.84	2616.72
575.01	2750.13
575.17	2712.68
575.33	2752.47
575.49	2775.88
575.65	2825.03
575.82	2890.56
575.98	2792.26
576.14	2789.92
576.30	2750.13
576.46	2801.62
576.62	2890.56
576.79	2855.45
576.95	2796.94
577.11	2738.43
577.27	2729.06
577.43	2813.32
577.59	2752.47
577.75	2745.45
577.92	2644.81
578.08	2682.25
578.24	2607.36
578.40	2619.06
578.56	2684.59
578.72	2724.38
578.88	2633.10
579.04	2733.75
579.21	2710.34
579.37	2785.24
579.53	2675.23
579.69	2752.47
579.85	2810.98
580.01	2682.25
580.17	2724.38
580.33	2745.45
580.49	2806.30
580.65	2686.94
580.82	2750.13
580.98	2724.38
581.14	2736.09
581.30	2832.05
581.46	2792.26
581.62	2668.21
581.78	2834.39
581.94	2792.26
582.10	2810.98
582.26	2715.02
582.42	2759.49
582.58	2768.85
582.74	2853.11
582.90	2745.45
583.06	2796.94
583.22	2656.51
583.38	2747.79
583.54	2619.06
583.70	2670.55
583.86	2726.72
584.02	2626.08
584.18	2731.41
584.34	2705.66
584.50	2729.06
584.66	2715.02
584.82	2677.57
584.98	2602.68
585.14	2623.74
585.30	2499.69
585.46	2548.84
585.62	2464.58
585.78	2546.50
585.94	2469.27
586.10	2506.71
586.26	2560.55
586.42	2640.12
586.58	2656.51
586.74	2665.87
586.90	2789.92
587.06	2750.13
587.22	2609.70
587.38	2665.87
587.54	2513.74
587.70	2516.08
587.86	2513.74
588.02	2574.59
588.18	2424.80
588.34	2396.71
588.49	2172.02
588.65	2120.53
588.81	2141.59
588.97	2155.63
589.13	2155.63
589.29	2141.59
589.45	2218.83
589.61	2282.02
589.77	2284.36
589.93	2333.51
590.08	2473.95
590.24	2445.86
590.40	2415.43
590.56	2387.35
590.72	2286.70
590.88	2282.02
591.04	2373.30
591.20	2403.73
591.35	2333.51
591.51	2375.64
591.67	2296.07
591.83	2354.58
591.99	2485.65
592.15	2338.20
592.31	2420.11
592.46	2354.58
592.62	2495.01
592.78	2511.39
592.94	2455.22
593.10	2380.32
593.26	2319.47
593.41	2359.26
593.57	2326.49
593.73	2277.34
593.89	2272.66
594.05	2385.01
594.20	2319.47
594.36	2260.96
594.52	2162.66
594.68	2282.02
594.84	2232.87
594.99	2370.96
595.15	2265.64
595.31	2296.07
595.47	2331.17
595.62	2361.60
595.78	2293.72
595.94	2246.91
596.10	2434.16
596.25	2356.92
596.41	2354.58
596.57	2354.58
596.73	2331.17
596.88	2361.60
597.04	2335.85
597.20	2352.24
597.36	2249.25
597.51	2373.30
597.67	2380.32
597.83	2328.83
597.99	2373.30
598.14	2223.51
598.30	2195.42
598.46	2160.31
598.61	2244.57
598.77	2260.96
598.93	2267.98
599.09	2228.19
599.24	2333.51
599.40	2324.15
599.56	2303.09
