SpectraSuite Data File
++++++++++++++++++++++++++++++++++++
Date: Mon Oct 07 14:53:57 GMT-05:00 2013
User: price-jones
Dark Spectrum Present: No
Reference Spectrum Present: No
Number of Sampled Component Spectra: 1
Spectrometers: USB2+H05261
Integration Time (usec): 100000 (USB2+H05261)
Spectra Averaged: 1 (USB2+H05261)
Boxcar Smoothing: 0 (USB2+H05261)
Correct for Electrical Dark: No (USB2+H05261)
Strobe/Lamp Enabled: No (USB2+H05261)
Correct for Detector Non-linearity: No (USB2+H05261)
Correct for Stray Light: No (USB2+H05261)
Number of Pixels in Processed Spectrum: 2048
>>>>>Begin Processed Spectral Data<<<<<
365.73	0.00
365.92	0.00
366.12	0.00
366.32	0.00
366.52	0.00
366.72	0.00
366.91	0.00
367.11	0.00
367.31	0.00
367.51	0.00
367.70	0.00
367.90	0.00
368.10	0.00
368.30	0.00
368.49	0.00
368.69	0.00
368.89	0.00
369.09	0.00
369.28	0.00
369.48	0.00
369.68	0.00
369.87	0.00
370.07	0.00
370.27	0.00
370.47	1090.69
370.66	4933.85
370.86	5659.42
371.06	6216.46
371.25	6202.42
371.45	5530.69
371.65	4847.25
371.84	4638.94
372.04	5022.79
372.24	5561.11
372.44	5830.27
372.63	5703.89
372.83	5322.38
373.03	4524.26
373.22	4259.78
373.42	4552.34
373.62	5191.31
373.81	5689.84
374.01	5593.88
374.21	4912.78
374.40	4758.31
374.60	4917.47
374.79	5509.62
374.99	6352.21
375.19	6878.83
375.38	6991.18
375.58	6384.98
375.78	6218.80
375.97	6347.53
376.17	6464.56
376.37	6633.08
376.56	6881.18
376.76	7122.25
376.95	7536.52
377.15	8142.72
377.35	8519.55
377.54	8814.46
377.74	8964.25
377.93	9013.40
378.13	8643.60
378.33	8203.58
378.52	7470.99
378.72	7330.56
378.91	7171.40
379.11	6911.60
379.31	6626.06
379.50	6878.83
379.70	7396.09
379.89	8156.77
380.09	8482.10
380.28	8659.98
380.48	8681.05
380.68	8498.49
380.87	8243.37
381.07	7686.32
381.26	7021.61
381.46	6686.91
381.65	6473.92
381.85	6251.57
382.04	5994.11
382.24	5561.11
382.43	5294.29
382.63	5210.03
382.83	5172.58
383.02	5214.71
383.22	5247.48
383.41	5151.52
383.61	5598.56
383.80	6499.67
384.00	7356.30
384.19	7960.16
384.39	8475.08
384.58	8432.95
384.78	8248.05
384.97	8147.40
385.17	7953.14
385.36	7318.86
385.56	6995.86
385.75	7400.77
385.95	8170.81
386.14	8720.84
386.34	8795.73
386.53	8124.00
386.72	7709.72
386.92	7709.72
387.11	8072.51
387.31	8514.87
387.50	8503.17
387.70	8119.32
387.89	8025.70
388.09	8308.90
388.28	8306.56
388.48	8245.71
388.67	9092.98
388.86	9956.64
389.06	10354.53
389.25	10970.09
389.45	11014.56
389.64	11054.35
389.84	10813.28
390.03	10693.91
390.22	10689.23
390.42	11178.40
390.61	11817.36
390.81	12531.23
391.00	12833.16
391.19	12802.73
391.39	12215.26
391.58	11585.65
391.78	10670.50
391.97	10497.30
392.16	9827.91
392.36	8830.84
392.55	7105.87
392.75	5699.20
392.94	4734.90
393.13	4690.43
393.33	5565.79
393.52	7222.89
393.71	8592.11
393.91	9528.32
394.10	10373.25
394.29	11461.60
394.49	12252.70
394.68	13355.10
394.88	13256.79
395.07	13554.04
395.26	13481.49
395.46	13226.37
395.65	12280.79
395.84	10958.39
396.04	8997.02
396.23	7421.84
396.42	6129.86
396.62	5956.66
396.81	6904.58
397.00	8912.76
397.19	11117.54
397.39	13205.30
397.58	14941.98
397.77	15662.86
397.97	16264.38
398.16	16865.90
398.35	17324.65
398.55	17715.51
398.74	18560.45
398.93	18679.82
399.12	18499.59
399.32	17685.09
399.51	18115.75
399.70	19405.38
399.90	19140.90
400.09	19276.65
400.28	18560.45
400.47	19035.58
400.67	20528.84
400.86	20659.91
401.05	20423.51
401.24	20547.56
401.44	20943.11
401.63	20865.88
401.82	20875.24
402.01	21003.97
402.21	21046.10
402.40	21446.33
402.59	20486.71
402.78	19704.97
402.97	19424.11
403.17	20065.41
403.36	21160.78
403.55	21823.16
403.74	22211.68
403.93	20938.43
404.13	19604.33
404.32	19094.09
404.51	20034.99
404.70	21490.80
404.89	21539.95
405.09	21125.68
405.28	20456.28
405.47	20634.16
405.66	20306.49
405.85	19796.25
406.05	19442.83
406.24	19887.53
406.43	20430.54
406.62	21624.21
406.81	21287.17
407.00	20208.19
407.20	20112.22
407.39	20280.74
407.58	21193.55
407.77	22333.39
407.96	22838.95
408.15	22965.34
408.34	22958.31
408.54	23850.06
408.73	24278.38
408.92	23955.38
409.11	22808.52
409.30	21673.36
409.49	20416.49
409.68	19597.31
409.87	18981.74
410.07	20247.97
410.26	21633.57
410.45	22649.36
410.64	23683.88
410.83	24072.41
411.02	24723.08
411.21	25507.16
411.40	24980.54
411.59	25135.01
411.78	25282.47
411.98	25039.05
412.17	25329.28
412.36	25025.01
412.55	24793.29
412.74	24561.58
412.93	23852.40
413.12	23885.17
413.31	26003.35
413.50	26354.43
413.69	26923.18
413.88	25661.63
414.07	24985.22
414.26	25509.50
414.45	26216.34
414.64	26443.37
414.83	26501.89
415.02	26244.43
415.22	25982.29
415.41	26639.98
415.60	27222.77
415.79	28477.30
415.98	29132.65
416.17	28882.21
416.36	28189.41
416.55	27878.12
416.74	26960.63
416.93	25865.26
417.12	26223.36
417.31	26497.20
417.50	26885.73
417.69	27758.75
417.88	28009.19
418.07	27440.44
418.26	26913.82
418.45	27229.79
418.64	28063.02
418.83	29352.66
419.02	29149.03
419.21	28343.89
419.39	27232.13
419.58	25935.48
419.77	26246.77
419.96	27143.19
420.15	28439.85
420.34	29605.44
420.53	30581.44
420.72	31386.58
420.91	30988.69
421.10	30373.13
421.29	30295.89
421.48	29160.73
421.67	30532.29
421.86	30230.36
422.05	27803.22
422.24	24926.71
422.43	24531.15
422.61	27019.14
422.80	29411.17
422.99	29715.44
423.18	28261.97
423.37	27917.91
423.56	28292.40
423.75	28418.78
423.94	28697.31
424.13	27154.90
424.32	27569.17
424.50	27543.42
424.69	27400.65
424.88	27695.56
425.07	27623.00
425.26	27400.65
425.45	27040.21
425.64	26628.27
425.83	26639.98
426.01	28404.74
426.20	28821.36
426.39	28472.62
426.58	26471.46
426.77	24451.58
426.96	23747.08
427.15	24549.88
427.33	26705.51
427.52	27880.46
427.71	27573.85
427.90	27377.25
428.09	27229.79
428.28	26485.50
428.46	25694.40
428.65	25057.78
428.84	26068.89
429.03	26115.70
429.22	24915.00
429.40	23311.74
429.59	21282.49
429.78	18703.22
429.97	18850.67
430.16	19529.43
430.34	19227.50
430.53	19143.24
430.72	19735.40
430.91	21727.19
431.10	25804.41
431.28	30101.63
431.47	32531.11
431.66	32685.58
431.85	29893.32
432.03	27475.55
432.22	26284.22
432.41	27241.50
432.60	30724.21
432.79	31735.32
432.97	32528.77
433.16	31084.65
433.35	28402.40
433.54	25841.85
433.72	24252.63
433.91	25081.18
434.10	28189.41
434.28	30054.82
434.47	31548.08
434.66	30852.94
434.85	30415.26
435.03	30188.23
435.22	30536.97
435.41	32854.10
435.59	32596.64
435.78	33188.80
435.97	33949.47
436.16	34235.02
436.34	33677.97
436.53	32818.99
436.72	33029.64
436.90	31016.78
437.09	31349.14
437.28	30930.18
437.46	31550.42
437.65	31527.02
437.84	29355.00
438.02	26799.13
438.21	27063.61
438.40	28231.54
438.58	30808.47
438.77	31363.18
438.96	32177.68
439.14	33280.08
439.33	34375.45
439.52	34380.13
439.70	33750.52
439.89	33146.67
440.08	32095.77
440.26	31814.90
440.45	33317.53
440.63	34965.26
440.82	37053.02
441.01	36311.07
441.19	36187.02
441.38	36409.37
441.57	37895.61
441.75	38143.71
441.94	38415.21
442.12	38466.70
442.31	39063.54
442.50	38880.98
442.68	38309.89
442.87	38150.73
443.05	36882.16
443.24	38075.84
443.43	38522.88
443.61	39555.05
443.80	39871.03
443.98	37818.38
444.17	37273.03
444.35	39948.26
444.54	40222.11
444.73	39463.77
444.91	38272.44
445.10	36858.76
445.28	35285.92
445.47	34740.57
445.65	35012.07
445.84	35857.01
446.02	37027.28
446.21	37736.46
446.39	37722.41
446.58	38590.75
446.77	38616.50
446.95	39557.39
447.14	40353.18
447.32	40622.34
447.51	40095.72
447.69	38298.19
447.88	38443.30
448.06	37837.10
448.25	39173.55
448.43	39948.26
448.62	38527.56
448.80	38218.61
448.99	39136.10
449.17	39278.87
449.36	39023.75
449.54	40650.42
449.73	41282.37
449.91	41521.10
450.10	42621.16
450.28	43461.41
450.46	42429.23
450.65	43084.58
450.83	42597.75
451.02	41738.77
451.20	41865.16
451.39	41670.90
451.57	41383.01
451.76	41504.72
451.94	41502.38
452.13	40627.02
452.31	38712.46
452.49	36931.31
452.68	37343.25
452.86	37727.10
453.05	38197.54
453.23	39030.77
453.42	39643.99
453.60	40800.22
453.78	41081.08
453.97	40517.01
454.15	40671.49
454.34	39599.52
454.52	39999.76
454.70	39168.87
454.89	39569.10
455.07	39889.75
455.26	40388.28
455.44	41596.00
455.62	42330.93
455.81	42768.61
455.99	41872.18
456.17	42000.91
456.36	41893.25
456.54	42927.77
456.73	42969.90
456.91	43835.89
457.09	43761.00
457.28	44343.79
457.46	43199.27
457.64	42696.05
457.83	41551.53
458.01	40620.00
458.19	42160.07
458.38	41984.53
458.56	43395.87
458.74	43192.25
458.93	42234.97
459.11	42061.77
459.29	41631.11
459.48	42106.24
459.66	41830.05
459.84	42511.15
460.03	42911.38
460.21	42508.81
460.39	43768.02
460.57	43768.02
460.76	44210.38
460.94	44392.94
461.12	43863.98
461.31	43573.75
461.49	43650.99
461.67	43653.33
461.85	45268.30
462.04	44765.09
462.22	44954.67
462.40	44538.05
462.59	44837.64
462.77	44402.30
462.95	44566.14
463.13	43950.58
463.32	44016.11
463.50	43592.48
463.68	43388.85
463.86	43058.84
464.05	43016.71
464.23	42328.59
464.41	42279.44
464.59	41146.62
464.78	43107.99
464.96	42988.62
465.14	42398.80
465.32	43669.72
465.50	44519.33
465.69	44879.77
465.87	44107.40
466.05	42930.11
466.23	41371.31
466.41	40484.25
466.60	41614.72
466.78	42256.03
466.96	42131.98
467.14	42646.90
467.32	43189.91
467.51	43344.38
467.69	41656.85
467.87	41876.86
468.05	43288.21
468.23	42784.99
468.41	43318.64
468.60	43358.42
468.78	43501.20
468.96	42763.93
469.14	43828.87
469.32	44334.43
469.50	42139.00
469.69	41862.82
469.87	41462.59
470.05	41799.63
470.23	41916.65
470.41	42162.41
470.59	42520.51
470.77	42808.40
470.95	43569.07
471.14	43611.20
471.32	43906.11
471.50	45958.76
471.68	46138.98
471.86	46614.11
472.04	46745.18
472.22	46536.87
472.40	45237.87
472.58	44320.38
472.77	43927.17
472.95	44828.28
473.13	45979.82
473.31	44484.22
473.49	44964.03
473.67	45752.79
473.85	45893.22
474.03	47171.16
474.21	46843.48
474.39	47182.86
474.57	47545.64
474.75	47435.64
474.93	47114.98
475.12	46124.94
475.30	46454.95
475.48	46490.06
475.66	47112.64
475.84	46176.43
476.02	46167.07
476.20	45827.69
476.38	46501.76
476.56	47412.23
476.74	48175.25
476.92	48453.77
477.10	48788.47
477.28	49954.05
477.46	49951.71
477.64	50080.44
477.82	50033.63
478.00	50384.71
478.18	49729.36
478.36	49591.27
478.54	49542.12
478.72	50197.47
478.90	51016.66
479.08	51615.83
479.26	51901.38
479.44	52280.55
479.62	51789.03
479.80	51817.12
479.98	52203.31
480.16	52322.68
480.34	51807.76
480.52	52432.68
480.70	52250.12
480.88	52495.88
481.06	52828.23
481.24	53256.55
481.41	53862.75
481.59	54461.93
481.77	54124.89
481.95	53724.66
482.13	53602.95
482.31	53528.05
482.49	54199.79
482.67	53853.39
482.85	53977.43
483.03	54454.90
483.21	54740.45
483.39	54731.09
483.57	54433.84
483.74	53951.69
483.92	54398.73
484.10	54394.05
484.28	55192.17
484.46	55330.26
484.64	55468.36
484.82	54880.88
485.00	54885.56
485.18	53958.71
485.35	53073.99
485.53	50588.34
485.71	46871.57
485.89	46873.91
486.07	48631.65
486.25	51346.67
486.43	53289.32
486.61	53911.90
486.78	53872.11
486.96	54134.25
487.14	55220.26
487.32	55585.38
487.50	56465.42
487.68	57116.09
487.85	57532.71
488.03	57502.28
488.21	57078.64
488.39	56823.53
488.57	56158.81
488.75	55889.65
488.92	56563.73
489.10	58349.56
489.28	59447.27
489.46	59952.82
489.64	59779.62
489.81	59980.91
489.99	59538.55
490.17	59632.17
490.35	59833.46
490.53	59540.89
490.70	59189.81
490.88	59236.62
491.06	59922.40
491.24	59936.44
491.41	59304.49
491.59	57918.90
491.77	57310.36
491.95	58368.28
492.13	59072.78
492.30	60025.38
492.48	60842.23
492.66	61125.43
492.84	61064.58
493.01	60776.69
493.19	60367.10
493.37	60397.52
493.54	59957.50
493.72	60619.88
493.90	61277.57
494.08	62000.79
494.25	62216.12
494.43	62328.47
494.61	62424.43
494.79	62595.29
494.96	62564.86
495.14	61827.59
495.32	61242.46
495.49	60793.07
495.67	61542.05
495.85	62665.50
496.02	63112.55
496.20	63051.69
496.38	62621.03
496.55	62281.66
496.73	62911.26
496.91	62878.49
497.09	63451.92
497.26	63671.93
497.44	63112.55
497.62	62702.95
497.79	62101.43
497.97	60886.70
498.14	61207.35
498.32	62166.97
498.50	62775.51
498.67	63348.94
498.85	63149.99
499.03	63227.23
499.20	63561.93
499.38	63412.13
499.56	63360.64
499.73	62913.60
499.91	62494.64
500.08	62094.41
500.26	61621.62
500.44	61942.28
500.61	62567.20
500.79	62473.58
500.97	61984.41
501.14	61853.34
501.32	61827.59
501.49	61680.14
501.67	61968.02
501.84	62466.56
502.02	62658.48
502.20	62845.72
502.37	63100.84
502.55	63007.22
502.72	63405.11
502.90	63990.25
503.07	63688.32
503.25	63437.88
503.43	62536.77
503.60	61829.93
503.78	61415.66
503.95	61616.94
504.13	63133.61
504.30	63728.11
504.48	63641.51
504.65	63288.09
504.83	63412.13
505.01	63817.05
505.18	64044.08
505.36	64561.34
505.53	64797.73
505.71	64893.69
505.88	65041.15
506.06	64301.54
506.23	64165.79
506.41	63611.08
506.58	63924.71
506.76	63875.56
506.93	63955.14
507.11	63531.50
507.28	63622.78
507.46	63290.43
507.63	62782.53
507.81	62700.61
507.98	62824.66
508.16	63491.71
508.33	63992.59
508.50	64301.54
508.68	64640.92
508.85	65153.49
509.03	64886.67
509.20	64818.80
509.38	64182.17
509.55	63578.31
509.73	63540.86
509.90	64254.73
510.08	64448.99
510.25	64172.81
510.42	63880.24
510.60	64030.04
510.77	64385.80
510.95	64643.26
511.12	64825.82
511.30	65132.43
511.47	65394.57
511.64	65240.09
511.82	64956.89
511.99	64271.11
512.17	63962.16
512.34	63564.27
512.51	63749.17
512.69	63966.84
512.86	63969.18
513.04	64268.77
513.21	64367.07
513.38	63807.68
513.56	63454.26
513.73	63049.35
513.90	63316.17
514.08	63257.66
514.25	63625.12
514.43	63590.01
514.60	63887.26
514.77	63728.11
514.95	64015.99
515.12	63753.85
515.29	63980.88
515.47	64779.01
515.64	64786.03
515.81	64250.05
515.99	63901.31
516.16	62712.31
516.33	60591.79
516.51	59374.71
516.68	58773.19
516.85	58515.73
517.03	58836.39
517.20	61181.60
517.37	63126.59
517.54	63992.59
517.72	63503.42
517.89	61591.20
518.06	59402.80
518.24	59835.80
518.41	61708.22
518.58	62724.02
518.75	62841.04
518.93	63007.22
519.10	62922.96
519.27	63353.62
519.45	63437.88
519.62	64165.79
519.79	64353.03
519.96	64154.08
520.14	63709.38
520.31	63091.48
520.48	63128.93
520.65	63348.94
520.83	64236.00
521.00	64521.55
521.17	64341.33
521.34	63863.86
521.52	64212.60
521.69	64706.45
521.86	65165.20
522.03	64790.71
522.20	63737.47
522.38	62742.74
522.55	62794.23
522.72	63208.51
522.89	63494.05
523.07	63540.86
523.24	63880.24
523.41	64706.45
523.58	64973.27
523.75	65223.71
523.92	65221.37
524.10	65195.62
524.27	65186.26
524.44	65036.47
524.61	64657.30
524.78	64685.39
524.96	64612.83
525.13	64477.08
525.30	64757.94
525.47	65001.36
525.64	65127.75
525.81	64470.06
525.98	63208.51
526.16	61909.51
526.33	61347.78
526.50	61062.24
526.67	60685.41
526.84	61303.31
527.01	62171.65
527.18	62812.96
527.36	63557.25
527.53	64472.40
527.70	64781.35
527.87	64039.40
528.04	63714.06
528.21	64184.51
528.38	64661.98
528.55	65261.16
528.72	65364.14
528.89	65535.00
529.07	65172.22
529.24	64683.04
529.41	64228.98
529.58	63690.66
529.75	63849.81
529.92	64142.38
530.09	64645.60
530.26	64935.82
530.43	65102.00
530.60	65319.67
530.77	65436.70
530.94	65331.37
531.11	65031.78
531.28	64530.91
531.46	64727.52
531.63	64760.28
531.80	64479.42
531.97	64147.06
532.14	63430.86
532.31	62630.40
532.48	62195.06
532.65	62246.55
532.82	62864.45
532.99	63870.88
533.16	64107.27
533.33	64610.49
533.50	64643.26
533.67	63922.37
533.84	63482.35
534.01	63564.27
534.18	63739.81
534.35	63999.61
534.52	63838.11
534.69	64163.45
534.86	64519.21
535.03	64720.49
535.20	65116.04
535.37	65485.85
535.54	65366.48
535.71	64989.66
535.88	64863.27
536.05	64175.15
536.22	63943.44
536.38	63550.23
536.55	63189.78
536.72	62691.25
536.89	62660.82
537.06	63477.67
537.23	64324.94
537.40	64409.20
537.57	64418.56
537.74	64051.10
537.91	64086.21
538.08	64088.55
538.25	64189.19
538.42	64186.85
538.59	63959.82
538.75	63632.14
538.92	63386.39
539.09	63072.76
539.26	63161.70
539.43	62929.98
539.60	62841.04
539.77	63068.08
539.94	63018.92
540.11	62372.94
540.28	61813.55
540.44	62094.41
540.61	62127.18
540.78	62323.78
540.95	62831.68
541.12	63014.24
541.29	63135.95
541.46	63559.59
541.62	63636.83
541.79	63491.71
541.96	62892.54
542.13	62614.01
542.30	63224.89
542.47	63398.09
542.63	63051.69
542.80	62763.81
542.97	62955.73
543.14	62681.89
543.31	62958.07
543.48	63545.54
543.64	64147.06
543.81	64353.03
543.98	64067.48
544.15	63496.39
544.32	63068.08
544.48	63238.93
544.65	63604.06
544.82	63842.79
544.99	63522.14
545.16	63168.72
545.32	62791.89
545.49	63552.57
545.66	63936.41
545.83	63547.89
546.00	63353.62
546.16	62782.53
546.33	62976.79
546.50	63145.31
546.67	63568.95
546.83	63152.33
547.00	63192.12
547.17	62553.16
547.34	62010.15
547.50	61961.00
547.67	62557.84
547.84	62578.90
548.00	62810.62
548.17	63135.95
548.34	63241.28
548.51	63042.33
548.67	63100.84
548.84	63154.68
549.01	63304.47
549.18	62995.52
549.34	62972.11
549.51	63089.14
549.68	62829.34
549.84	62742.74
550.01	62480.60
550.18	62597.63
550.34	62635.08
550.51	62892.54
550.68	62756.78
550.84	62323.78
551.01	62330.81
551.18	62349.53
551.34	62651.46
551.51	62850.41
551.68	63004.88
551.84	63229.57
552.01	62869.13
552.18	62714.65
552.34	62216.12
552.51	62028.88
552.68	61656.73
552.84	62113.14
553.01	62651.46
553.18	62202.08
553.34	62443.15
553.51	62492.30
553.67	62721.68
553.84	62906.58
554.01	62695.93
554.17	62499.33
554.34	62438.47
554.51	62644.44
554.67	62976.79
554.84	62871.47
555.00	62520.39
555.17	62410.38
555.33	62431.45
555.50	62370.60
555.67	62323.78
555.83	62307.40
556.00	62078.03
556.16	61916.53
556.33	61584.18
556.50	61464.81
556.66	61425.02
556.83	61120.75
556.99	61347.78
557.16	61558.43
557.32	61633.33
557.49	61909.51
557.65	61801.85
557.82	61719.93
557.98	61701.20
558.15	61270.54
558.32	60605.83
558.48	60013.68
558.65	59973.89
558.81	60348.37
558.98	60622.22
559.14	60797.76
559.31	60760.31
559.47	60774.35
559.64	60472.42
559.80	60217.30
559.97	60411.57
560.13	60643.28
560.30	61661.41
560.46	61979.73
560.63	62108.46
560.79	62223.14
560.96	61881.42
561.12	60919.46
561.29	60100.28
561.45	60240.71
561.61	60701.79
561.78	60830.52
561.94	60975.64
562.11	60692.43
562.27	60537.96
562.44	60980.32
562.60	61127.77
562.77	61221.39
562.93	61127.77
563.10	61139.47
563.26	60788.39
563.42	60694.77
563.59	60280.50
563.75	60526.25
563.92	60566.04
564.08	60495.83
564.24	60722.86
564.41	60863.29
564.57	60666.69
564.74	60512.21
564.90	60390.50
565.07	60413.91
565.23	59941.12
565.39	59430.88
565.56	59089.16
565.72	58986.18
565.88	59302.15
566.05	59379.39
566.21	59828.77
566.38	59739.83
566.54	59915.37
566.70	60392.84
566.87	60535.62
567.03	60544.98
567.19	60654.98
567.36	60514.55
567.52	60423.27
567.68	60074.53
567.85	59454.29
568.01	59398.12
568.17	58927.67
568.34	58801.28
568.50	58852.77
568.66	59150.02
568.83	59262.36
568.99	59231.94
569.15	59648.55
569.32	59391.09
569.48	59100.87
569.64	59180.45
569.81	58653.82
569.97	58482.97
570.13	58536.80
570.30	58518.07
570.46	58035.92
570.62	57640.37
570.78	57523.35
570.95	57808.89
571.11	58166.99
571.27	58557.86
571.43	58330.83
571.60	58930.01
571.76	58934.69
571.92	59135.98
572.09	59234.28
572.25	59257.68
572.41	59370.03
572.57	59054.06
572.74	59245.98
572.90	58838.73
573.06	58922.99
573.22	58960.44
573.38	59007.25
573.55	58997.88
573.71	58922.99
573.87	58913.62
574.03	58578.93
574.20	58541.48
574.36	58326.15
574.52	58323.81
574.68	58127.20
574.84	57961.03
575.01	57418.02
575.17	57127.80
575.33	57460.15
575.49	57865.06
575.65	57855.70
575.82	57741.02
575.98	57488.24
576.14	57804.21
576.30	58178.70
576.46	58169.33
576.62	57935.28
576.79	57961.03
576.95	57502.28
577.11	57705.91
577.27	57886.13
577.43	57860.38
577.59	57371.21
577.75	57090.35
577.92	56750.97
578.08	56427.98
578.24	56535.64
578.40	57076.30
578.56	56767.35
578.72	56949.92
578.88	57340.78
579.04	57319.72
579.21	57654.42
579.37	57293.97
579.53	57556.11
579.69	57497.60
579.85	57675.48
580.01	57411.00
580.17	56999.07
580.33	56963.96
580.49	57001.41
580.65	57401.64
580.82	57455.47
580.98	57265.89
581.14	57279.93
581.30	57331.42
581.46	57097.37
581.62	57364.19
581.78	57558.45
581.94	57567.82
582.10	57453.13
582.26	57673.14
582.42	57350.15
582.58	57366.53
582.74	57408.66
582.90	57329.08
583.06	57312.70
583.22	57151.20
583.38	57247.16
583.54	57064.60
583.70	57045.88
583.86	57146.52
584.02	57120.77
584.18	57296.31
584.34	57151.20
584.50	56807.14
584.66	56844.59
584.82	56437.34
584.98	56486.49
