SpectraSuite Data File
++++++++++++++++++++++++++++++++++++
Date: Mon Oct 07 14:52:54 GMT-05:00 2013
User: price-jones
Dark Spectrum Present: No
Reference Spectrum Present: No
Number of Sampled Component Spectra: 1
Spectrometers: USB2+H05261
Integration Time (usec): 100000 (USB2+H05261)
Spectra Averaged: 1 (USB2+H05261)
Boxcar Smoothing: 0 (USB2+H05261)
Correct for Electrical Dark: No (USB2+H05261)
Strobe/Lamp Enabled: No (USB2+H05261)
Correct for Detector Non-linearity: No (USB2+H05261)
Correct for Stray Light: No (USB2+H05261)
Number of Pixels in Processed Spectrum: 2048
>>>>>Begin Processed Spectral Data<<<<<
365.73	0.00
365.92	0.00
366.12	0.00
366.32	0.00
366.52	0.00
366.72	0.00
366.91	0.00
367.11	0.00
367.31	0.00
367.51	0.00
367.70	0.00
367.90	0.00
368.10	0.00
368.30	0.00
368.49	0.00
368.69	0.00
368.89	0.00
369.09	0.00
369.28	0.00
369.48	0.00
369.68	0.00
369.87	0.00
370.07	0.00
370.27	0.00
370.47	500.87
370.66	2747.79
370.86	3351.65
371.06	3669.96
371.25	3674.64
371.45	3288.45
371.65	2871.84
371.84	2871.84
372.04	2813.32
372.24	3346.97
372.44	3426.54
372.63	3353.99
372.83	3061.42
373.03	2757.15
373.22	2452.88
373.42	2724.38
373.62	3124.62
373.81	3361.01
374.01	3300.16
374.21	2902.26
374.40	2775.88
374.60	2920.99
374.79	3365.69
374.99	3866.56
375.19	4189.56
375.38	4067.85
375.58	3925.08
375.78	3805.71
375.97	3829.12
376.17	3974.23
376.37	3981.25
376.56	4198.92
376.76	4344.03
376.95	4638.94
377.15	5102.37
377.35	5093.01
377.54	5341.10
377.74	5472.17
377.93	5390.25
378.13	5305.99
378.33	5118.75
378.52	4674.05
378.72	4545.32
378.91	4278.50
379.11	4234.03
379.31	4194.24
379.50	4236.37
379.70	4655.33
379.89	4901.08
380.09	5107.05
380.28	5495.58
380.48	5256.84
380.68	5305.99
380.87	5114.07
381.07	4510.21
381.26	4402.55
381.46	4311.27
381.65	3988.27
381.85	3969.55
382.04	3761.24
382.24	3379.73
382.43	3358.67
382.63	3274.41
382.83	3215.90
383.02	3279.09
383.22	3225.26
383.41	3255.69
383.61	3468.67
383.80	4058.49
384.00	4538.30
384.19	5139.82
384.39	5399.62
384.58	5359.83
384.78	5200.67
384.97	5142.16
385.17	5022.79
385.36	4727.88
385.56	4416.59
385.75	4587.45
385.95	5144.50
386.14	5617.29
386.34	5600.90
386.53	5254.50
386.72	4809.80
386.92	5142.16
387.11	5350.46
387.31	5659.42
387.50	5390.25
387.70	5179.61
387.89	5043.85
388.09	5193.65
388.28	5179.61
388.48	5331.74
388.67	5671.12
388.86	6202.42
389.06	6745.42
389.25	6899.90
389.45	7105.87
389.64	6944.37
389.84	6991.18
390.03	6967.77
390.22	6960.75
390.42	7082.46
390.61	7606.74
390.81	8053.78
391.00	8454.02
391.19	8292.52
391.39	7859.52
391.58	7564.61
391.78	6930.33
391.97	6839.05
392.16	6209.44
392.36	5610.26
392.55	4561.70
392.75	3637.19
392.94	3021.63
393.13	3143.34
393.33	3485.06
393.52	4535.96
393.71	5671.12
393.91	6370.94
394.10	6871.81
394.29	7625.47
394.49	8021.02
394.68	8791.05
394.88	8645.94
395.07	9149.15
395.26	8870.63
395.46	8702.11
395.65	8056.12
395.84	7138.63
396.04	5994.11
396.23	4786.40
396.42	4004.66
396.62	3932.10
396.81	4568.73
397.00	6001.13
397.19	7480.35
397.39	9004.04
397.58	9872.38
397.77	10342.83
397.97	10747.74
398.16	11138.61
398.35	11517.78
398.55	11847.79
398.74	12280.79
398.93	12554.63
399.12	12238.66
399.32	11702.68
399.51	12290.15
399.70	13022.74
399.90	12737.20
400.09	12519.53
400.28	12594.42
400.47	12798.05
400.67	13673.41
400.86	13830.23
401.05	13425.31
401.24	13678.09
401.44	13923.85
401.63	13921.51
401.82	13926.19
402.01	14153.22
402.21	14480.89
402.40	14356.85
402.59	13902.78
402.78	13191.26
402.97	12952.52
403.17	13507.23
403.36	14150.88
403.55	14654.09
403.74	14829.63
403.93	14134.50
404.13	13270.84
404.32	12894.01
404.51	13626.60
404.70	14656.43
404.89	14588.56
405.09	14518.34
405.28	13909.80
405.47	14080.66
405.66	13905.12
405.85	13776.39
406.05	12922.10
406.24	13310.63
406.43	13954.27
406.62	14434.08
406.81	14544.09
407.00	14043.21
407.20	13715.54
407.39	13844.27
407.58	14544.09
407.77	15073.05
407.96	15470.94
408.15	15845.43
408.34	15852.45
408.54	16603.76
408.73	16514.82
408.92	16329.92
409.11	15974.16
409.30	15211.14
409.49	14237.48
409.68	13291.90
409.87	12823.80
410.07	13706.18
410.26	14839.00
410.45	15644.14
410.64	16184.80
410.83	16652.91
411.02	16814.41
411.21	17865.31
411.40	17341.03
411.59	17575.08
411.78	17128.04
411.98	17247.41
412.17	17284.86
412.36	17207.62
412.55	17011.01
412.74	16961.86
412.93	16287.79
413.12	16671.64
413.31	18441.08
413.50	18148.51
413.69	18534.70
413.88	17839.56
414.07	17579.76
414.26	17706.15
414.45	18270.22
414.64	18487.89
414.83	18630.66
415.02	18113.41
415.22	18195.32
415.41	18661.09
415.60	19349.21
415.79	19719.01
415.98	20142.65
416.17	20395.43
416.36	19892.21
416.55	19449.85
416.74	19051.96
416.93	18153.20
417.12	18431.72
417.31	18394.27
417.50	19044.94
417.69	19194.73
417.88	19484.96
418.07	19089.41
418.26	19061.32
418.45	19040.26
418.64	19779.87
418.83	20421.17
419.02	20086.48
419.21	20142.65
419.39	19246.23
419.58	18288.95
419.77	18438.74
419.96	19098.77
420.15	20159.03
420.34	20711.40
420.53	21668.68
420.72	21937.84
420.91	21659.32
421.10	21298.88
421.29	21362.07
421.48	20339.26
421.67	21504.84
421.86	21139.72
422.05	19470.92
422.24	17846.58
422.43	17446.35
422.61	19197.07
422.80	20767.57
422.99	20755.87
423.18	20280.74
423.37	19634.75
423.56	19627.73
423.75	20056.05
423.94	20381.38
424.13	19140.90
424.32	19592.62
424.50	19772.85
424.69	19318.78
424.88	19487.30
425.07	19494.32
425.26	19314.10
425.45	19173.67
425.64	18897.49
425.83	18953.66
426.01	20088.82
426.20	20304.15
426.39	20142.65
426.58	18857.70
426.77	17413.59
426.96	17195.92
427.15	17348.05
427.33	18766.42
427.52	19431.13
427.71	19974.13
427.90	19417.08
428.09	19424.11
428.28	19164.31
428.46	18160.22
428.65	18068.94
428.84	18466.83
429.03	18663.43
429.22	17507.21
429.40	16964.20
429.59	15047.30
429.78	13479.15
429.97	13516.59
430.16	13685.11
430.34	13998.74
430.53	13631.28
430.72	14333.44
430.91	15871.17
431.10	18401.29
431.28	21766.98
431.47	23281.31
431.66	23459.19
431.85	21135.04
432.03	19445.17
432.22	18972.38
432.41	19927.32
432.60	22068.91
432.79	22492.55
432.97	23365.57
433.16	22745.33
433.35	20769.91
433.54	18361.50
433.72	18001.06
433.91	18326.39
434.10	20215.21
434.28	21991.67
434.47	22841.29
434.66	22141.47
434.85	21991.67
435.03	21858.26
435.22	22810.86
435.41	23758.78
435.59	23501.32
435.78	23934.32
435.97	24685.63
436.16	24702.01
436.34	24372.00
436.53	23821.97
436.72	23775.16
436.90	22808.52
437.09	22735.96
437.28	22274.88
437.46	22745.33
437.65	22625.96
437.84	21490.80
438.02	19719.01
438.21	19412.40
438.40	20655.23
438.58	22134.45
438.77	23094.07
438.96	23213.43
439.14	24360.30
439.33	24814.36
439.52	25418.22
439.70	24673.93
439.89	23924.96
440.08	23578.56
440.26	23356.21
440.45	24287.74
440.63	25979.95
440.82	27346.82
441.01	26586.15
441.19	26560.40
441.38	27012.12
441.57	27957.70
441.75	28297.08
441.94	28437.51
442.12	28374.31
442.31	28943.06
442.50	28694.97
442.68	28386.02
442.87	27969.40
443.05	27365.54
443.24	28088.77
443.43	28320.48
443.61	29331.59
443.80	29530.54
443.98	28098.13
444.17	27604.28
444.35	29479.05
444.54	29961.20
444.73	29596.07
444.91	27974.08
445.10	27517.68
445.28	26242.09
445.47	25834.83
445.65	26192.94
445.84	26843.60
446.02	27679.18
446.21	27880.46
446.39	27709.60
446.58	28769.86
446.77	29186.48
446.95	28999.24
447.14	30246.74
447.32	30347.39
447.51	29743.53
447.69	28540.49
447.88	28528.79
448.06	28823.70
448.25	29371.38
448.43	29343.30
448.62	28938.38
448.80	28823.70
448.99	29420.53
449.17	29032.00
449.36	29500.11
449.54	30579.10
449.73	31000.40
449.91	31360.84
450.10	32350.88
450.28	32505.36
450.46	32587.28
450.65	32252.58
450.83	32229.18
451.02	31564.46
451.20	31126.78
451.39	31182.96
451.57	31337.43
451.76	31131.47
451.94	30387.18
452.13	30450.37
452.31	28718.37
452.49	27662.79
452.68	28037.28
452.86	28254.95
453.05	28390.70
453.23	29584.37
453.42	30237.38
453.60	30897.41
453.78	31009.76
453.97	30174.19
454.15	30668.04
454.34	29839.49
454.52	30366.11
454.70	29675.65
454.89	29961.20
455.07	30213.98
455.26	30616.55
455.44	31789.16
455.62	32144.92
455.81	32517.06
455.99	32273.65
456.17	31732.98
456.36	31943.63
456.54	32741.75
456.73	32694.94
456.91	33439.23
457.09	33277.74
457.28	33886.28
457.46	33036.66
457.64	32311.10
457.83	31681.49
458.01	31019.12
458.19	31693.19
458.38	32271.31
458.56	33006.23
458.74	32849.42
458.93	32264.28
459.11	32233.86
459.29	31695.53
459.48	32116.83
459.66	32027.89
459.84	32552.17
460.03	32760.48
460.21	32952.40
460.39	33759.89
460.57	33256.67
460.76	34164.80
460.94	33830.10
461.12	33282.42
461.31	33495.41
461.49	33535.20
461.67	33518.81
461.85	34649.29
462.04	34338.00
462.22	34733.55
462.40	34270.12
462.59	34529.92
462.77	34649.29
462.95	34223.31
463.13	33785.63
463.32	33785.63
463.50	33359.66
463.68	33841.81
463.86	33851.17
464.05	33331.57
464.23	32442.17
464.41	32594.30
464.59	31683.83
464.78	33668.61
464.96	33378.38
465.14	33132.62
465.32	33975.22
465.50	34630.57
465.69	35056.54
465.87	34164.80
466.05	33043.68
466.23	31906.18
466.41	31115.08
466.60	31903.84
466.78	31782.13
466.96	32652.81
467.14	33184.12
467.32	33600.73
467.51	33479.02
467.69	32226.84
467.87	33261.35
468.05	33469.66
468.23	33500.09
468.41	33366.68
468.60	33621.80
468.78	33689.67
468.96	32987.51
469.14	34359.06
469.32	34211.61
469.50	33001.55
469.69	32950.06
469.87	32767.50
470.05	32423.44
470.23	32512.38
470.41	32491.32
470.59	33289.44
470.77	32973.47
470.95	33933.09
471.14	33963.51
471.32	34295.87
471.50	35845.30
471.68	36322.77
471.86	36311.07
472.04	37013.23
472.22	36926.63
472.40	35058.88
472.58	35269.53
472.77	34656.31
472.95	35372.52
473.13	36327.45
473.31	35395.92
473.49	35255.49
473.67	35852.33
473.85	36584.91
474.03	36870.46
474.21	37081.11
474.39	37816.04
474.57	37673.26
474.75	37736.46
474.93	37619.43
475.12	36715.98
475.30	36423.42
475.48	36690.24
475.66	37600.71
475.84	36765.14
476.02	36479.59
476.20	35995.10
476.38	36671.51
476.56	38064.13
476.74	38675.01
476.92	38590.75
477.10	39063.54
477.28	40217.43
477.46	40217.43
477.64	40505.31
477.82	40430.41
478.00	40837.67
478.18	40430.41
478.36	40240.83
478.54	40488.93
478.72	40304.02
478.90	41617.07
479.08	42630.52
479.26	43061.18
479.44	42773.29
479.62	42696.05
479.80	42803.72
479.98	43072.88
480.16	43168.84
480.34	42579.03
480.52	43519.92
480.70	43381.83
480.88	44076.97
481.06	44165.91
481.24	44390.60
481.41	45544.48
481.59	45963.44
481.77	45591.30
481.95	45137.23
482.13	44800.19
482.31	44947.65
482.49	45846.41
482.67	45705.98
482.85	45666.19
483.03	46667.94
483.21	46869.23
483.39	46527.51
483.57	46281.75
483.74	45858.12
483.92	46131.96
484.10	46328.56
484.28	47103.28
484.46	47494.15
484.64	48102.69
484.82	46841.14
485.00	46614.11
485.18	46178.77
485.35	44446.77
485.53	40861.07
485.71	37830.08
485.89	37560.92
486.07	39695.49
486.25	42506.47
486.43	44786.15
486.61	45928.33
486.78	45574.91
486.96	46036.00
487.14	47562.03
487.32	48395.26
487.50	49202.74
487.68	50045.33
487.85	50417.48
488.03	50686.64
488.21	50291.09
488.39	49375.94
488.57	48769.74
488.75	48608.25
488.92	49710.64
489.10	51863.93
489.28	53085.69
489.46	53701.25
489.64	53228.46
489.81	53897.86
489.99	53476.56
490.17	53535.07
490.35	53811.26
490.53	53244.85
490.70	53130.16
490.88	52959.30
491.06	53736.36
491.24	53794.87
491.41	52559.07
491.59	51290.50
491.77	50557.91
491.95	51826.48
492.13	52741.63
492.30	54021.90
492.48	54843.43
492.66	55365.37
492.84	55290.48
493.01	55257.71
493.19	54560.23
493.37	54211.49
493.54	53727.00
493.72	54642.15
493.90	55664.96
494.08	56343.72
494.25	56500.53
494.43	56989.70
494.61	57165.24
494.79	57027.15
494.96	57055.24
495.14	56339.04
495.32	55545.59
495.49	54717.04
495.67	56025.40
495.85	57336.10
496.02	57631.01
496.20	57661.44
496.38	56968.64
496.55	57057.58
496.73	57322.06
496.91	57453.13
497.09	58003.16
497.26	58281.68
497.44	57691.86
497.62	57256.53
497.79	56512.23
497.97	55332.60
498.14	55597.09
498.32	56486.49
498.50	57373.55
498.67	57804.21
498.85	57942.30
499.03	57841.66
499.20	58120.18
499.38	58138.91
499.56	58028.90
499.73	57418.02
499.91	57038.86
500.08	56821.19
500.26	55997.32
500.44	56584.79
500.61	57073.96
500.79	57015.45
500.97	56598.83
501.14	56463.08
501.32	56303.93
501.49	56409.25
501.67	56610.54
501.84	57123.11
502.02	57457.81
502.20	57776.12
502.37	58005.50
502.55	57944.64
502.72	58344.87
502.90	58880.86
503.07	58482.97
503.25	58216.14
503.43	57233.12
503.60	56629.26
503.78	56097.96
503.95	56540.32
504.13	58017.20
504.30	58651.48
504.48	58698.30
504.65	58047.63
504.83	58447.86
505.01	58883.20
505.18	59079.80
505.36	59690.68
505.53	59601.74
505.71	60041.76
505.88	59906.01
506.06	59278.75
506.23	58967.46
506.41	58691.27
506.58	59044.69
506.76	58906.60
506.93	58908.94
507.11	58646.80
507.28	58801.28
507.46	58300.40
507.63	57656.76
507.81	57602.92
507.98	58056.99
508.16	58599.99
508.33	59049.38
508.50	59468.33
508.68	59484.72
508.85	60177.51
509.03	60114.32
509.20	59854.52
509.38	59302.15
509.55	58398.71
509.73	58588.29
509.90	59201.51
510.08	59355.99
510.25	59339.60
510.42	59007.25
510.60	59236.62
510.77	59423.86
510.95	59772.60
511.12	60020.70
511.30	60451.36
511.47	60547.32
511.64	60423.27
511.82	60076.87
511.99	59114.91
512.17	58974.48
512.34	58749.79
512.51	58705.32
512.69	59222.58
512.86	59070.44
513.04	59400.46
513.21	59641.53
513.38	59077.46
513.56	58686.59
513.73	57984.43
513.90	58522.76
514.08	58492.33
514.25	58698.30
514.43	58841.07
514.60	58810.64
514.77	59330.24
514.95	59217.89
515.12	59054.06
515.29	59262.36
515.47	59739.83
515.64	59725.79
515.81	59550.25
515.99	59192.15
516.16	57570.16
516.33	55419.20
516.51	54363.62
516.68	53191.01
516.85	52999.09
517.03	53670.82
517.20	56371.80
517.37	58506.37
517.54	59381.73
517.72	58670.21
517.89	56273.50
518.06	54267.66
518.24	54873.86
518.41	56996.73
518.58	58131.89
518.75	58099.12
518.93	58354.24
519.10	58293.38
519.27	58735.74
519.45	58862.13
519.62	59636.85
519.79	59973.89
519.96	59531.53
520.14	58939.37
520.31	58241.89
520.48	58482.97
520.65	59072.78
520.83	59777.28
521.00	59796.01
521.17	59498.76
521.34	59363.01
521.52	59709.41
521.69	60163.47
521.86	60444.33
522.03	60193.90
522.20	59093.85
522.38	58225.51
522.55	58267.64
522.72	58621.06
522.89	58934.69
523.07	59135.98
523.24	59501.10
523.41	60093.25
523.58	60432.63
523.75	60835.20
523.92	60687.75
524.10	60605.83
524.27	60594.13
524.44	60371.78
524.61	60350.71
524.78	60001.97
524.96	60114.32
525.13	59868.56
525.30	60331.99
525.47	60874.99
525.64	60633.92
525.81	59819.41
525.98	58473.60
526.16	57106.73
526.33	56526.28
526.50	56320.31
526.67	56245.41
526.84	56708.84
527.01	57544.41
527.18	58265.30
527.36	59358.33
527.53	60140.07
527.70	60231.35
527.87	59636.85
528.04	59243.64
528.21	59772.60
528.38	60221.98
528.55	60725.20
528.72	61244.80
528.89	61324.38
529.07	60949.89
529.24	60397.52
529.41	59683.66
529.58	59285.77
529.75	59449.61
529.92	59877.93
530.09	60168.15
530.26	60687.75
530.43	60938.19
530.60	60795.42
530.77	60982.66
530.94	61174.58
531.11	60844.57
531.28	60509.87
531.46	60327.31
531.63	60465.40
531.80	60294.54
531.97	60065.17
532.14	59119.59
532.31	58159.97
532.48	57483.56
532.65	57726.97
532.82	58812.98
532.99	59568.97
533.16	59767.92
533.33	60542.64
533.50	60308.58
533.67	59531.53
533.84	59262.36
534.01	59627.49
534.18	59732.81
534.35	59711.75
534.52	59678.98
534.69	59894.31
534.86	60168.15
535.03	60523.91
535.20	60842.23
535.37	61076.28
535.54	61406.30
535.71	61031.81
535.88	60434.97
536.05	60058.15
536.22	59686.00
536.38	59281.09
536.55	58946.39
536.72	58447.86
536.89	58232.53
537.06	59288.11
537.23	60072.19
537.40	60182.19
537.57	60081.55
537.74	59901.33
537.91	59803.03
538.08	60088.57
538.25	59922.40
538.42	60243.05
538.59	59817.07
538.75	59351.30
538.92	59004.91
539.09	59061.08
539.26	58962.78
539.43	58562.54
539.60	58824.68
539.77	59084.48
539.94	58653.82
540.11	58059.33
540.28	57525.69
540.44	57509.30
540.61	57907.19
540.78	58113.16
540.95	58504.03
541.12	59049.38
541.29	59182.79
541.46	59255.34
541.62	59547.91
541.79	59374.71
541.96	58679.57
542.13	58738.08
542.30	59182.79
542.47	59276.41
542.63	59030.65
542.80	58639.78
542.97	59150.02
543.14	58871.49
543.31	58817.66
543.48	59318.54
543.64	60273.48
543.81	60460.72
543.98	60231.35
544.15	59386.41
544.32	59056.40
544.48	59096.19
544.65	59667.28
544.82	59929.42
544.99	59309.18
545.16	59297.47
545.32	58997.88
545.49	59913.03
545.66	59938.78
545.83	59498.76
546.00	59318.54
546.16	58883.20
546.33	59140.66
546.50	59014.27
546.67	59458.97
546.83	58878.52
547.00	59164.06
547.17	58354.24
547.34	58094.44
547.50	57944.64
547.67	58370.62
547.84	58365.94
548.00	58934.69
548.17	59187.47
548.34	59100.87
548.51	59047.04
548.67	59133.63
548.84	59271.73
549.01	59096.19
549.18	58997.88
549.34	58848.09
549.51	59178.10
549.68	58927.67
549.84	58740.42
550.01	58543.82
550.18	58365.94
550.34	58728.72
550.51	58794.26
550.68	58721.70
550.84	58305.09
551.01	58309.77
551.18	58326.15
551.34	58597.65
551.51	59117.25
551.68	59159.38
551.84	58958.09
552.01	59007.25
552.18	58812.98
552.34	58237.21
552.51	57722.29
552.68	57907.19
552.84	58267.64
553.01	58426.79
553.18	58134.23
553.34	58277.00
553.51	58518.07
553.67	58894.90
553.84	58763.83
554.01	58749.79
554.17	58698.30
554.34	58824.68
554.51	58717.02
554.67	59264.70
554.84	59086.82
555.00	58473.60
555.17	58511.05
555.33	58356.58
555.50	58274.66
555.67	58277.00
555.83	58150.61
556.00	57911.88
556.16	57986.77
556.33	57729.31
556.50	57439.09
556.66	57467.17
556.83	57268.23
556.99	57382.91
557.16	57443.77
557.32	57652.08
557.49	58073.37
557.65	58071.03
557.82	57879.11
557.98	57577.18
558.15	57190.99
558.32	56336.69
558.48	55945.83
558.65	56224.35
558.81	56065.19
558.98	56638.62
559.14	56650.33
559.31	56821.19
559.47	56931.19
559.64	56587.13
559.80	56034.77
559.97	56292.22
560.13	56821.19
560.30	57546.75
560.46	58073.37
560.63	58195.08
560.79	58241.89
560.96	57797.19
561.12	56846.93
561.29	56172.86
561.45	56130.73
561.61	56804.80
561.78	57064.60
561.94	56935.87
562.11	56741.61
562.27	56802.46
562.44	56800.12
562.60	57123.11
562.77	57499.94
562.93	57476.54
563.10	57375.89
563.26	56959.28
563.42	56687.78
563.59	56823.53
563.75	56762.67
563.92	56640.96
564.08	56655.01
564.24	56882.04
564.41	56992.04
564.57	56783.74
564.74	56535.64
564.90	56662.03
565.07	56676.07
565.23	56104.98
565.39	55290.48
565.56	55114.94
565.72	55021.31
565.88	55604.11
566.05	55482.40
566.21	55927.10
566.38	55910.72
566.54	56182.22
566.70	56236.05
566.87	56598.83
567.03	56512.23
567.19	56697.14
567.36	56765.01
567.52	56348.40
567.68	56147.11
567.85	55543.25
568.01	55250.69
568.17	54710.02
568.34	54754.49
568.50	54768.54
568.66	54967.48
568.83	55636.87
568.99	55494.10
569.15	55676.66
569.32	55522.19
569.48	55309.20
569.64	55147.70
569.81	54564.91
569.97	54815.35
570.13	54946.42
570.30	54422.14
570.46	53631.04
570.62	53249.53
570.78	53095.05
570.95	53745.72
571.11	54340.22
571.27	54335.54
571.43	54504.06
571.60	55033.02
571.76	55402.82
571.92	55634.53
572.09	55693.05
572.25	55477.72
572.41	55538.57
572.57	55332.60
572.74	55201.53
572.90	54756.83
573.06	54658.53
573.22	54934.71
573.38	54885.56
573.55	54787.26
573.71	55065.78
573.87	54976.84
574.03	54656.19
574.20	54588.31
574.36	54312.13
574.52	54185.74
574.68	54181.06
574.84	53600.61
575.01	53090.37
575.17	53509.33
575.33	53488.26
575.49	53893.18
575.65	54195.10
575.82	53719.98
575.98	53532.73
576.14	53734.02
576.30	54012.54
576.46	54218.51
576.62	54167.02
576.79	54188.08
576.95	53600.61
577.11	53731.68
577.27	53752.74
577.43	53734.02
577.59	53151.23
577.75	53254.21
577.92	52678.44
578.08	52217.35
578.24	52252.46
578.40	52697.16
578.56	52921.85
578.72	53095.05
578.88	53059.94
579.04	53364.21
579.21	53441.45
579.37	53631.04
579.53	53567.84
579.69	53364.21
579.85	53616.99
580.01	53600.61
580.17	52945.26
580.33	52708.86
580.49	52893.77
580.65	53097.39
580.82	53558.48
580.98	53602.95
581.14	53404.00
581.30	53886.15
581.46	53162.93
581.62	53612.31
581.78	53366.55
581.94	53956.37
582.10	53642.74
582.26	53904.88
582.42	53530.39
582.58	53731.68
582.74	53497.62
582.90	53755.08
583.06	53584.22
583.22	53282.30
583.38	53148.88
583.54	53078.67
583.70	53174.63
583.86	53062.29
584.02	52966.32
584.18	53141.86
584.34	52919.51
584.50	53052.92
584.66	53078.67
584.82	52432.68
584.98	52566.09
585.14	52018.41
585.30	51325.61
