SpectraSuite Data File
++++++++++++++++++++++++++++++++++++
Date: Mon Oct 07 14:52:56 GMT-05:00 2013
User: price-jones
Dark Spectrum Present: No
Reference Spectrum Present: No
Number of Sampled Component Spectra: 1
Spectrometers: USB2+H05261
Integration Time (usec): 100000 (USB2+H05261)
Spectra Averaged: 1 (USB2+H05261)
Boxcar Smoothing: 0 (USB2+H05261)
Correct for Electrical Dark: No (USB2+H05261)
Strobe/Lamp Enabled: No (USB2+H05261)
Correct for Detector Non-linearity: No (USB2+H05261)
Correct for Stray Light: No (USB2+H05261)
Number of Pixels in Processed Spectrum: 2048
>>>>>Begin Processed Spectral Data<<<<<
365.73	0.00
365.92	0.00
366.12	0.00
366.32	0.00
366.52	0.00
366.72	0.00
366.91	0.00
367.11	0.00
367.31	0.00
367.51	0.00
367.70	0.00
367.90	0.00
368.10	0.00
368.30	0.00
368.49	0.00
368.69	0.00
368.89	0.00
369.09	0.00
369.28	0.00
369.48	0.00
369.68	0.00
369.87	0.00
370.07	0.00
370.27	0.00
370.47	393.21
370.66	2312.45
370.86	2841.41
371.06	3012.27
371.25	3110.57
371.45	2724.38
371.65	2562.89
371.84	2394.37
372.04	2406.07
372.24	2754.81
372.44	2836.73
372.63	2855.45
372.83	2682.25
373.03	2293.72
373.22	2134.57
373.42	2263.30
373.62	2654.17
373.81	2963.12
374.01	2818.00
374.21	2614.38
374.40	2286.70
374.60	2483.31
374.79	2731.41
374.99	3316.54
375.19	3447.61
375.38	3487.40
375.58	3281.43
375.78	3236.96
375.97	3323.56
376.17	3426.54
376.37	3361.01
376.56	3548.25
376.76	3754.22
376.95	3854.86
377.15	4112.32
377.35	4334.67
377.54	4566.39
377.74	4638.94
377.93	4791.08
378.13	4449.36
378.33	4369.78
378.52	3728.47
378.72	3920.40
378.91	3798.69
379.11	3604.42
379.31	3499.10
379.50	3576.34
379.70	3859.54
379.89	4353.40
380.09	4421.27
380.28	4660.01
380.48	4643.62
380.68	4437.66
380.87	4351.06
381.07	4084.23
381.26	3817.41
381.46	3508.46
381.65	3452.29
381.85	3337.60
382.04	3243.98
382.24	3066.10
382.43	2710.34
382.63	2740.77
382.83	2693.96
383.02	2745.45
383.22	2736.09
383.41	2787.58
383.61	2904.60
383.80	3510.80
384.00	3803.37
384.19	4248.07
384.39	4414.25
384.58	4510.21
384.78	4358.08
384.97	4507.87
385.17	4278.50
385.36	4018.70
385.56	3892.31
385.75	3908.69
385.95	4301.90
386.14	4781.71
386.34	4664.69
386.53	4432.97
386.72	4046.79
386.92	4234.03
387.11	4571.07
387.31	4678.73
387.50	4585.11
387.70	4461.06
387.89	4472.76
388.09	4517.23
388.28	4306.59
388.48	4507.87
388.67	4980.66
388.86	5427.70
389.06	5937.94
389.25	6040.92
389.45	6026.88
389.64	6073.69
389.84	6003.47
390.03	5893.47
390.22	5909.85
390.42	6335.83
390.61	6616.69
390.81	6972.46
391.00	7061.40
391.19	7016.93
391.39	6785.21
391.58	6296.04
391.78	5959.00
391.97	5790.49
392.16	5467.49
392.36	4938.53
392.55	3889.97
392.75	3155.04
392.94	2504.37
393.13	2546.50
393.33	3026.31
393.52	3894.65
393.71	4833.21
393.91	5385.57
394.10	5881.77
394.29	6539.46
394.49	6974.80
394.68	7398.43
394.88	7503.76
395.07	7920.37
395.26	7723.77
395.46	7442.90
395.65	6806.28
395.84	6190.72
396.04	5130.45
396.23	4004.66
396.42	3421.86
396.62	3487.40
396.81	3983.59
397.00	5102.37
397.19	6300.72
397.39	7470.99
397.58	8475.08
397.77	8898.72
397.97	9322.35
398.16	9312.99
398.35	9769.40
398.55	9818.55
398.74	10366.23
398.93	10878.81
399.12	10572.20
399.32	10125.16
399.51	10345.17
399.70	11033.29
399.90	10647.10
400.09	10750.08
400.28	10759.44
400.47	10930.30
400.67	11353.94
400.86	11616.08
401.05	11503.73
401.24	11651.19
401.44	11990.56
401.63	11859.49
401.82	12194.19
402.01	11887.58
402.21	12013.97
402.40	12341.64
402.59	11756.51
402.78	11396.07
402.97	11030.94
403.17	11566.93
403.36	12044.40
403.55	12498.46
403.74	12870.61
403.93	12156.74
404.13	11255.64
404.32	11049.67
404.51	11578.63
404.70	12699.75
404.89	12404.84
405.09	12250.36
405.28	12030.35
405.47	12123.98
405.66	11950.78
405.85	11456.92
406.05	11300.11
406.24	11389.05
406.43	12142.70
406.62	12603.78
406.81	12463.35
407.00	11901.62
407.20	11733.11
407.39	11953.12
407.58	12496.12
407.77	12858.90
407.96	13411.27
408.15	13687.45
408.34	13685.11
408.54	14204.71
408.73	14155.56
408.92	14040.87
409.11	13570.43
409.30	12854.22
409.49	12114.61
409.68	11466.28
409.87	10942.00
410.07	11815.02
410.26	12627.19
410.45	13235.73
410.64	13935.55
410.83	14579.20
411.02	14586.22
411.21	15021.56
411.40	14932.62
411.59	14883.47
411.78	14871.76
411.98	14635.37
412.17	14963.04
412.36	14661.12
412.55	14593.24
412.74	14511.32
412.93	14073.64
413.12	14394.29
413.31	15721.38
413.50	15789.25
413.69	16168.42
413.88	15620.74
414.07	15026.24
414.26	15152.63
414.45	15716.70
414.64	15807.98
414.83	15934.37
415.02	15440.51
415.22	15494.35
415.41	15910.96
415.60	16418.86
415.79	16856.54
415.98	17186.55
416.17	17184.21
416.36	16870.58
416.55	16372.05
416.74	16269.06
416.93	15721.38
417.12	15477.96
417.31	15929.69
417.50	15913.30
417.69	16662.27
417.88	16769.94
418.07	16460.99
418.26	15922.66
418.45	16470.35
418.64	16526.52
418.83	17476.78
419.02	17193.58
419.21	17467.42
419.39	16222.25
419.58	15484.98
419.77	15702.65
419.96	16465.67
420.15	17247.41
420.34	17841.90
420.53	18354.48
420.72	19082.39
420.91	18462.15
421.10	18298.31
421.29	18143.83
421.48	17460.40
421.67	18483.21
421.86	18099.36
422.05	16699.72
422.24	15176.03
422.43	14967.73
422.61	16390.77
422.80	17949.57
422.99	17839.56
423.18	17160.81
423.37	16716.11
423.56	16772.28
423.75	17104.64
423.94	17516.57
424.13	16786.32
424.32	16538.23
424.50	17062.51
424.69	16620.14
424.88	16992.29
425.07	16603.76
425.26	16837.81
425.45	16290.13
425.64	16067.78
425.83	16240.98
426.01	17116.34
426.20	17324.65
426.39	17572.74
426.58	16166.08
426.77	14883.47
426.96	14260.88
427.15	14778.14
427.33	16255.02
427.52	16849.52
427.71	16891.65
427.90	16884.62
428.09	16418.86
428.28	16280.77
428.46	15651.16
428.65	15374.98
428.84	15756.49
429.03	16133.31
429.22	15136.24
429.40	14305.35
429.59	13062.53
429.78	11592.67
429.97	11698.00
430.16	11887.58
430.34	11988.22
430.53	11845.45
430.72	12102.91
430.91	13364.46
431.10	15803.30
431.28	18544.06
431.47	20198.82
431.66	20032.65
431.85	17895.74
432.03	16856.54
432.22	16266.72
432.41	17050.80
432.60	18750.03
432.79	19367.93
432.97	19655.82
433.16	19213.46
433.35	17579.76
433.54	15712.02
433.72	14993.47
433.91	15709.68
434.10	17357.41
434.28	18359.16
434.47	19499.00
434.66	19000.47
434.85	18623.64
435.03	18457.46
435.22	19126.86
435.41	20458.62
435.59	20116.90
435.78	20585.01
435.97	20800.34
436.16	21216.96
436.34	20610.76
436.53	20430.54
436.72	20496.07
436.90	19253.25
437.09	19508.37
437.28	19311.76
437.46	19690.93
437.65	19616.03
437.84	18249.16
438.02	16793.34
438.21	16919.73
438.40	17790.41
438.58	19087.07
438.77	20004.56
438.96	19922.64
439.14	20727.78
439.33	21046.10
439.52	21460.37
439.70	21025.03
439.89	20421.17
440.08	20093.50
440.26	19962.43
440.45	20641.18
440.63	21996.35
440.82	22998.10
441.01	22939.59
441.19	22780.43
441.38	23323.44
441.57	23346.84
441.75	23887.51
441.94	24308.80
442.12	24280.72
442.31	24580.31
442.50	24390.72
442.68	24334.55
442.87	23672.18
443.05	23669.84
443.24	24109.86
443.43	24538.18
443.61	24875.21
443.80	25219.27
443.98	23683.88
444.17	23637.07
444.35	25170.12
444.54	25481.41
444.73	25413.54
444.91	24098.16
445.10	23103.43
445.28	22427.01
445.47	21935.50
445.65	22008.06
445.84	22801.50
446.02	23737.71
446.21	24149.65
446.39	23655.79
446.58	24442.21
446.77	24484.34
446.95	24891.60
447.14	25715.47
447.32	26108.68
447.51	25174.80
447.69	24311.14
447.88	23868.78
448.06	24472.64
448.25	25032.03
448.43	25373.75
448.62	24861.17
448.80	24718.40
448.99	24650.52
449.17	25514.18
449.36	25153.74
449.54	25888.67
449.73	26625.93
449.91	26831.90
450.10	27557.47
450.28	27990.47
450.46	27580.87
450.65	27718.96
450.83	27281.28
451.02	26845.94
451.20	26766.37
451.39	26642.32
451.57	26441.03
451.76	26717.22
451.94	26441.03
452.13	25986.97
452.31	24753.51
452.49	23517.70
452.68	23931.98
452.86	24257.31
453.05	24135.60
453.23	25095.22
453.42	25788.02
453.60	26539.33
453.78	26347.41
453.97	26162.51
454.15	26363.79
454.34	25411.20
454.52	25773.98
454.70	25254.38
454.89	25556.31
455.07	25923.77
455.26	26239.75
455.44	27395.97
455.62	27529.38
455.81	27857.06
455.99	27587.89
456.17	26941.91
456.36	27407.67
456.54	27814.93
456.73	27833.65
456.91	28489.00
457.09	28456.23
457.28	29397.13
457.46	28238.56
457.64	28006.85
457.83	27075.32
458.01	26712.53
458.19	27192.34
458.38	27431.08
458.56	28086.43
458.74	28245.58
458.93	27613.64
459.11	27419.38
459.29	27594.92
459.48	27742.37
459.66	27117.45
459.84	27854.72
460.03	28011.53
460.21	27578.53
460.39	28947.75
460.57	28477.30
460.76	28746.46
460.94	29392.45
461.12	28519.43
461.31	28538.15
461.49	28500.70
461.67	28776.89
461.85	30089.93
462.04	29277.76
462.22	29876.94
462.40	29425.22
462.59	29371.38
462.77	29144.35
462.95	29666.29
463.13	28994.56
463.32	28886.89
463.50	28636.45
463.68	28772.21
463.86	28753.48
464.05	28238.56
464.23	27658.11
464.41	27569.17
464.59	27154.90
464.78	28318.14
464.96	28474.96
465.14	28009.19
465.32	29022.64
465.50	29675.65
465.69	30068.86
465.87	29275.42
466.05	28451.55
466.23	27215.75
466.41	26593.17
466.60	27339.80
466.78	27613.64
466.96	28105.15
467.14	28425.81
467.32	28732.42
467.51	28882.21
467.69	27644.07
467.87	27805.56
468.05	28786.25
468.23	28247.93
468.41	28664.54
468.60	28758.16
468.78	29284.78
468.96	28290.06
469.14	29214.57
469.32	29331.59
469.50	28299.42
469.69	28163.67
469.87	27466.19
470.05	27803.22
470.23	27578.53
470.41	27695.56
470.59	28182.39
470.77	28329.84
470.95	28751.14
471.14	29362.02
471.32	29284.78
471.50	31175.94
471.68	31283.60
471.86	31126.78
472.04	31557.44
472.22	31189.98
472.40	30171.85
472.58	29865.24
472.77	29156.05
472.95	29876.94
473.13	30546.33
473.31	30118.01
473.49	30274.83
473.67	30672.72
473.85	31002.74
474.03	31548.08
474.21	31791.50
474.39	31793.84
474.57	32205.77
474.75	32086.40
474.93	31992.78
475.12	31054.23
475.30	31627.66
475.48	31784.48
475.66	31838.31
475.84	31412.33
476.02	31250.83
476.20	30508.88
476.38	31321.05
476.56	32395.35
476.74	32751.12
476.92	33329.23
477.10	33254.33
477.28	34094.58
477.46	34384.81
477.64	35070.59
477.82	34857.60
478.00	35182.93
478.18	34778.02
478.36	34873.98
478.54	34352.04
478.72	34909.09
478.90	35679.13
479.08	36636.41
479.26	36982.80
479.44	36919.61
479.62	36622.36
479.80	36444.48
479.98	36858.76
480.16	36858.76
480.34	36662.15
480.52	36978.12
480.70	37345.59
480.88	37610.07
481.06	38171.80
481.24	38146.05
481.41	39115.03
481.59	39887.41
481.77	39463.77
481.95	38672.67
482.13	38583.73
482.31	38579.05
482.49	39065.88
482.67	38979.28
482.85	39466.11
483.03	40287.64
483.21	40774.47
483.39	40608.29
483.57	39941.24
483.74	39789.11
483.92	40179.98
484.10	39533.99
484.28	41256.62
484.46	41165.34
484.64	41813.67
484.82	40938.31
485.00	40175.30
485.18	39510.58
485.35	38398.83
485.53	35337.41
485.71	32215.13
485.89	31899.16
486.07	33694.35
486.25	36849.39
486.43	38618.84
486.61	39433.35
486.78	39475.48
486.96	39569.10
487.14	41038.95
487.32	42438.59
487.50	43143.09
487.68	44186.97
487.85	44364.85
488.03	44783.81
488.21	43903.77
488.39	43084.58
488.57	42735.84
488.75	42380.08
488.92	43697.80
489.10	46012.59
489.28	47503.51
489.46	48355.47
489.64	47950.56
489.81	48428.02
489.99	47845.23
490.17	48060.56
490.35	48250.14
490.53	47728.20
490.70	47318.61
490.88	47297.55
491.06	48491.22
491.24	48729.95
491.41	47185.20
491.59	45324.47
491.77	44194.00
491.95	45656.83
492.13	47175.84
492.30	49146.57
492.48	49750.43
492.66	50244.28
492.84	50375.35
493.01	50181.09
493.19	49457.86
493.37	49045.93
493.54	48484.20
493.72	49347.86
493.90	50326.20
494.08	51547.96
494.25	51985.64
494.43	51913.08
494.61	52797.80
494.79	52648.01
494.96	52121.39
495.14	51634.56
495.32	50471.31
495.49	49907.24
495.67	51217.94
495.85	52622.26
496.02	52975.69
496.20	52762.70
496.38	52254.80
496.55	52121.39
496.73	52963.98
496.91	52748.65
497.09	53607.63
497.26	53666.14
497.44	53324.43
497.62	52596.52
497.79	51423.91
497.97	50653.87
498.14	50841.12
498.32	51833.50
498.50	52549.71
498.67	53373.58
498.85	53296.34
499.03	53467.20
499.20	53778.49
499.38	53916.58
499.56	53766.79
499.73	53153.57
499.91	52704.18
500.08	51744.56
500.26	51377.10
500.44	51613.49
500.61	52765.04
500.79	52392.89
500.97	51863.93
501.14	51583.07
501.32	51545.62
501.49	51643.92
501.67	51966.91
501.84	52458.43
502.02	52956.96
502.20	53092.71
502.37	53289.32
502.55	53485.92
502.72	54195.10
502.90	54497.03
503.07	53958.71
503.25	53689.55
503.43	52491.19
503.60	51805.42
503.78	51384.12
503.95	51943.51
504.13	53565.50
504.30	54485.33
504.48	54057.01
504.65	53673.16
504.83	53846.36
505.01	54319.15
505.18	54681.94
505.36	55386.44
505.53	55491.76
505.71	55716.45
505.88	56025.40
506.06	55072.81
506.23	54693.64
506.41	54454.90
506.58	54777.90
506.76	54546.18
506.93	54410.43
507.11	54262.98
507.28	54405.75
507.46	53970.41
507.63	52905.47
507.81	52971.00
507.98	53406.34
508.16	54277.02
508.33	54773.22
508.50	55110.25
508.68	55709.43
508.85	55929.44
509.03	55962.21
509.20	55725.81
509.38	55016.63
509.55	53911.90
509.73	54398.73
509.90	54869.18
510.08	55093.87
510.25	54859.82
510.42	54754.49
510.60	54653.85
510.77	55082.17
510.95	55622.83
511.12	55901.36
511.30	56076.90
511.47	56350.74
511.64	56271.16
511.82	55882.63
511.99	55131.32
512.17	54635.13
512.34	54333.20
512.51	54459.58
512.69	54653.85
512.86	54911.31
513.04	55072.81
513.21	55100.89
513.38	54976.84
513.56	54195.10
513.73	53673.16
513.90	53766.79
514.08	53881.47
514.25	54457.24
514.43	54663.21
514.60	54497.03
514.77	54658.53
514.95	54768.54
515.12	54876.20
515.29	55002.59
515.47	55686.03
515.64	55807.73
515.81	55348.99
515.99	54965.14
516.16	52978.03
516.33	50351.94
516.51	49212.10
516.68	47555.00
516.85	47133.71
517.03	48320.36
517.20	51344.33
517.37	54183.40
517.54	55159.41
517.72	54176.38
517.89	51435.61
518.06	49413.39
518.24	49495.31
518.41	51772.65
518.58	53621.67
518.75	53638.06
518.93	53745.72
519.10	53497.62
519.27	54323.83
519.45	54518.10
519.62	55363.03
519.79	55707.09
519.96	55304.52
520.14	55009.61
520.31	53984.46
520.48	53834.66
520.65	54344.90
520.83	55367.71
521.00	55650.92
521.17	55285.79
521.34	54864.50
521.52	55585.38
521.69	56147.11
521.86	56376.48
522.03	55990.30
522.20	54667.89
522.38	53574.86
522.55	53661.46
522.72	54382.35
522.89	54665.55
523.07	54859.82
523.24	55009.61
523.41	56112.00
523.58	56303.93
523.75	56676.07
523.92	56589.47
524.10	56692.46
524.27	56554.36
524.44	56261.80
524.61	55990.30
524.78	56013.70
524.96	55767.94
525.13	55817.10
525.30	56109.66
525.47	56725.22
525.64	56587.13
525.81	55777.31
525.98	53972.75
526.16	52690.14
526.33	51945.85
526.50	51674.35
526.67	51105.60
526.84	51915.42
527.01	53057.60
527.18	53815.94
527.36	54864.50
527.53	55814.76
527.70	56016.04
527.87	55522.19
528.04	55161.75
528.21	55381.76
528.38	56112.00
528.55	56767.35
528.72	57080.98
528.89	57284.61
529.07	57020.13
529.24	56287.54
529.41	55508.14
529.58	54890.24
529.75	55075.15
529.92	55477.72
530.09	55964.55
530.26	56694.80
530.43	56837.57
530.60	56453.72
530.77	57015.45
530.94	57326.74
531.11	56619.90
531.28	56179.88
531.46	56072.21
531.63	56549.68
531.80	55983.27
531.97	55561.98
532.14	54768.54
532.31	53565.50
532.48	53191.01
532.65	53244.85
532.82	54237.23
532.99	55341.97
533.16	55648.58
533.33	56203.28
533.50	55875.61
533.67	55313.88
533.84	54754.49
534.01	55136.00
534.18	55569.00
534.35	55798.37
534.52	55168.77
534.69	55838.16
534.86	55913.06
535.03	56247.75
535.20	56921.83
535.37	57092.69
535.54	57190.99
535.71	56830.55
535.88	56467.76
536.05	55838.16
536.22	55405.16
536.38	54815.35
536.55	54422.14
536.72	54192.76
536.89	53986.80
537.06	54892.58
537.23	55913.06
537.40	56144.77
537.57	56313.29
537.74	55847.52
537.91	55657.94
538.08	55889.65
538.25	55924.76
538.42	55962.21
538.59	55622.83
538.75	54969.82
538.92	54798.96
539.09	54724.07
539.26	54398.73
539.43	54372.99
539.60	54569.59
539.77	54637.47
539.94	54274.68
540.11	53439.11
540.28	53228.46
540.44	53394.64
540.61	53322.08
540.78	53598.27
540.95	54401.07
541.12	54761.51
541.29	55040.04
541.46	55393.46
541.62	55288.13
541.79	55061.10
541.96	54363.62
542.13	54600.02
542.30	54925.35
542.47	54845.77
542.63	54550.87
542.80	54567.25
542.97	54485.33
543.14	54511.08
543.31	54543.84
543.48	55093.87
543.64	55938.80
543.81	56203.28
543.98	55643.90
544.15	54871.52
544.32	54609.38
544.48	54742.79
544.65	55131.32
544.82	55728.16
544.99	54962.80
545.16	54923.01
545.32	54571.93
545.49	55302.18
545.66	55899.01
545.83	55393.46
546.00	55201.53
546.16	54590.66
546.33	54679.60
546.50	54927.69
546.67	55131.32
546.83	54532.14
547.00	54789.60
547.17	53764.45
547.34	53401.66
547.50	53396.98
547.67	54234.89
547.84	54106.16
548.00	54225.53
548.17	55133.66
548.34	54878.54
548.51	54820.03
548.67	54738.11
548.84	55030.68
549.01	54892.58
549.18	54766.20
549.34	54574.27
549.51	54915.99
549.68	54564.91
549.84	54485.33
550.01	54241.92
550.18	54096.80
550.34	54415.11
550.51	54326.17
550.68	54347.24
550.84	53614.65
551.01	54248.94
551.18	54047.65
551.34	54244.26
551.51	54602.36
551.68	54796.62
551.84	54859.82
552.01	54457.24
552.18	54279.36
552.34	53703.59
552.51	53296.34
552.68	53106.76
552.84	53354.85
553.01	54073.40
553.18	53921.26
553.34	54059.35
553.51	54211.49
553.67	54272.34
553.84	54855.14
554.01	54202.13
554.17	54377.67
554.34	54452.56
554.51	54485.33
554.67	54805.98
554.84	54670.23
555.00	53921.26
555.17	53832.32
555.33	53347.83
555.50	54127.23
555.67	53881.47
555.83	53759.76
556.00	53277.61
556.16	53411.02
556.33	53085.69
556.50	52846.96
556.66	52938.24
556.83	52659.71
556.99	52542.69
557.16	53013.13
557.32	53092.71
557.49	53612.31
557.65	53109.10
557.82	53478.90
557.98	52938.24
558.15	52413.96
558.32	51442.63
558.48	50850.48
558.65	50742.81
558.81	51398.16
558.98	51969.26
559.14	51606.47
559.31	52170.54
559.47	51927.13
559.64	51662.64
559.80	51400.50
559.97	51452.00
560.13	51803.08
560.30	52971.00
560.46	53605.29
560.63	53734.02
560.79	53661.46
560.96	53226.12
561.12	52100.32
561.29	50972.19
561.45	51229.65
561.61	51798.40
561.78	52477.15
561.94	52018.41
562.11	52027.77
562.27	51924.78
562.44	52079.26
562.60	52734.61
562.77	52802.49
562.93	52849.30
563.10	52692.48
563.26	51667.33
563.42	52055.85
563.59	51702.43
563.75	51812.44
563.92	51789.03
564.08	51819.46
564.24	52257.14
564.41	52217.35
564.57	51906.06
564.74	51636.90
564.90	51690.73
565.07	51306.88
565.23	50976.87
565.39	50511.10
565.56	50220.87
565.72	49930.65
565.88	50363.65
566.05	50471.31
566.21	50990.91
566.38	50981.55
566.54	51100.92
566.70	51171.13
566.87	51772.65
567.03	51978.62
567.19	52034.79
567.36	51732.86
567.52	51515.19
567.68	51014.32
567.85	50618.77
568.01	49811.28
568.17	49567.87
568.34	49467.22
568.50	49294.02
568.66	49869.79
568.83	50361.31
568.99	50316.84
569.15	50483.01
569.32	50326.20
569.48	49645.10
569.64	50110.87
569.81	49350.20
569.97	49312.75
570.13	49624.04
570.30	48648.03
570.46	48137.80
570.62	47863.96
570.78	47386.49
570.95	48090.99
571.11	48811.87
571.27	49165.29
571.43	49401.69
571.60	50064.06
571.76	49989.16
571.92	50424.50
572.09	50543.87
572.25	50237.26
572.41	50349.60
572.57	50094.49
572.74	49846.39
572.90	49773.83
573.06	49476.58
573.22	49698.94
573.38	49598.29
573.55	49783.19
573.71	50024.27
573.87	49717.66
574.03	49549.14
574.20	49207.42
574.36	48837.62
574.52	48854.00
574.68	48816.55
574.84	48296.95
575.01	47908.43
575.17	47557.35
575.33	47957.58
575.49	48268.87
575.65	48591.86
575.82	48128.44
575.98	47838.21
576.14	48271.21
576.30	48729.95
576.46	48472.49
576.62	48732.29
576.79	48945.28
576.95	47983.32
577.11	48065.24
577.27	48114.39
577.43	48147.16
577.59	48067.58
577.75	47475.43
577.92	46466.66
578.08	46700.71
578.24	46089.83
578.40	46506.44
578.56	47079.88
578.72	47398.19
578.88	47349.04
579.04	47571.39
579.21	47569.05
579.37	47873.32
579.53	48018.43
579.69	47695.44
579.85	48154.18
580.01	47840.55
580.17	47140.73
580.33	47236.69
580.49	47264.78
580.65	47236.69
580.82	47700.12
580.98	47435.64
581.14	47587.77
581.30	47929.49
581.46	47248.39
581.62	48032.47
581.78	48090.99
581.94	47995.03
582.10	48018.43
582.26	47681.39
582.42	47220.31
582.58	48133.12
582.74	48074.60
582.90	47990.34
583.06	47976.30
583.22	47737.57
583.38	47552.66
583.54	47812.46
583.70	47175.84
583.86	47311.59
584.02	47334.99
584.18	47737.57
584.34	47461.38
584.50	47220.31
584.66	46972.21
584.82	46454.95
584.98	46607.09
585.14	46141.32
585.30	45399.37
