SpectraSuite Data File
++++++++++++++++++++++++++++++++++++
Date: Mon Oct 07 14:53:46 GMT-05:00 2013
User: price-jones
Dark Spectrum Present: No
Reference Spectrum Present: No
Number of Sampled Component Spectra: 1
Spectrometers: USB2+H05261
Integration Time (usec): 100000 (USB2+H05261)
Spectra Averaged: 1 (USB2+H05261)
Boxcar Smoothing: 0 (USB2+H05261)
Correct for Electrical Dark: No (USB2+H05261)
Strobe/Lamp Enabled: No (USB2+H05261)
Correct for Detector Non-linearity: No (USB2+H05261)
Correct for Stray Light: No (USB2+H05261)
Number of Pixels in Processed Spectrum: 2048
>>>>>Begin Processed Spectral Data<<<<<
365.73	0.00
365.92	0.00
366.12	0.00
366.32	0.00
366.52	0.00
366.72	0.00
366.91	0.00
367.11	0.00
367.31	0.00
367.51	0.00
367.70	0.00
367.90	0.00
368.10	0.00
368.30	0.00
368.49	0.00
368.69	0.00
368.89	0.00
369.09	0.00
369.28	0.00
369.48	0.00
369.68	0.00
369.87	0.00
370.07	0.00
370.27	0.00
370.47	587.47
370.66	2864.82
370.86	3461.65
371.06	3648.90
371.25	3840.82
371.45	3424.20
371.65	3056.74
371.84	2832.05
372.04	3035.67
372.24	3463.99
372.44	3648.90
372.63	3452.29
372.83	3124.62
373.03	2754.81
373.22	2541.82
373.42	2612.04
373.62	3148.02
373.81	3323.56
374.01	3405.48
374.21	3178.45
374.40	2930.35
374.60	3002.91
374.79	3447.61
374.99	3962.53
375.19	4126.36
375.38	4299.56
375.58	3880.61
375.78	3962.53
375.97	4126.36
376.17	4184.88
376.37	4077.21
376.56	4222.33
376.76	4491.49
376.95	4957.25
377.15	5153.86
377.35	5369.19
377.54	5416.00
377.74	5675.80
377.93	5678.14
378.13	5476.85
378.33	5282.59
378.52	4727.88
378.72	4667.03
378.91	4603.83
379.11	4589.79
379.31	4273.82
379.50	4339.35
379.70	4667.03
379.89	5221.74
380.09	5352.81
380.28	5778.78
380.48	5638.35
380.68	5551.75
380.87	5273.23
381.07	4901.08
381.26	4596.81
381.46	4283.18
381.65	4259.78
381.85	3995.29
382.04	3723.79
382.24	3630.17
382.43	3527.19
382.63	3414.84
382.83	3405.48
383.02	3424.20
383.22	3346.97
383.41	3414.84
383.61	3531.87
383.80	4088.92
384.00	4697.46
384.19	5205.35
384.39	5502.60
384.58	5467.49
384.78	5418.34
384.97	5355.15
385.17	5114.07
385.36	4823.84
385.56	4674.05
385.75	4695.11
385.95	5228.76
386.14	5678.14
386.34	5666.44
386.53	5439.40
386.72	5266.21
386.92	5097.69
387.11	5399.62
387.31	5706.23
387.50	5537.71
387.70	5472.17
387.89	5294.29
388.09	5401.96
388.28	5502.60
388.48	5526.00
388.67	5966.03
388.86	6670.53
389.06	7112.89
389.25	7377.37
389.45	7513.12
389.64	7494.40
389.84	7279.07
390.03	7087.14
390.22	7176.08
390.42	7538.87
390.61	7805.69
390.81	8358.05
391.00	8552.32
391.19	8573.38
391.39	8262.09
391.58	7709.72
391.78	7281.41
391.97	7129.27
392.16	6560.52
392.36	6050.28
392.55	4877.68
392.75	3829.12
392.94	3255.69
393.13	3119.93
393.33	3471.01
393.52	4713.84
393.71	5799.85
393.91	6445.84
394.10	7052.03
394.29	7822.07
394.49	8402.52
394.68	9167.88
394.88	8922.12
395.07	9465.13
395.26	9380.87
395.46	8936.17
395.65	8578.06
395.84	7480.35
396.04	6345.19
396.23	5163.22
396.42	4292.54
396.62	4023.38
396.81	4711.50
397.00	6188.38
397.19	7545.89
397.39	9090.64
397.58	10300.70
397.77	10937.32
397.97	11428.84
398.16	11543.52
398.35	11868.86
398.55	12341.64
398.74	12489.10
398.93	13118.70
399.12	12636.55
399.32	12278.45
399.51	12582.72
399.70	13408.93
399.90	13263.82
400.09	13252.11
400.28	13001.68
400.47	13516.59
400.67	13870.01
400.86	14270.25
401.05	14127.47
401.24	14389.61
401.44	14745.38
401.63	14642.39
401.82	14780.48
402.01	14686.86
402.21	14974.75
402.40	14998.15
402.59	14403.66
402.78	13757.67
402.97	13448.72
403.17	14024.49
403.36	14675.16
403.55	15403.07
403.74	15477.96
403.93	14883.47
404.13	13565.74
404.32	13439.36
404.51	13984.70
404.70	15232.21
404.89	14892.83
405.09	15066.03
405.28	14406.00
405.47	14256.20
405.66	14527.71
405.85	14256.20
406.05	13722.56
406.24	13682.77
406.43	14595.58
406.62	15089.43
406.81	15171.35
407.00	14504.30
407.20	14129.81
407.39	14361.53
407.58	15147.95
407.77	15342.21
407.96	16273.74
408.15	16215.23
408.34	16264.38
408.54	17397.20
408.73	17032.08
408.92	17018.04
409.11	16617.80
409.30	15597.33
409.49	14714.95
409.68	13734.26
409.87	13420.63
410.07	14242.16
410.26	15124.54
410.45	16229.27
410.64	16610.78
410.83	17095.27
411.02	17713.17
411.21	18099.36
411.40	17865.31
411.59	18122.77
411.78	18036.17
411.98	17783.39
412.17	18139.15
412.36	17839.56
412.55	17823.18
412.74	17446.35
412.93	16992.29
413.12	17406.56
413.31	18925.57
413.50	18932.59
413.69	19454.53
413.88	18630.66
414.07	17980.00
414.26	18415.34
414.45	18892.80
414.64	19122.18
414.83	19133.88
415.02	18796.84
415.22	18817.91
415.41	18766.42
415.60	19524.75
415.79	20634.16
415.98	20807.36
416.17	20819.07
416.36	20329.89
416.55	20144.99
416.74	19772.85
416.93	18579.17
417.12	18941.96
417.31	19218.14
417.50	19346.87
417.69	20325.21
417.88	20070.09
418.07	19831.36
418.26	19543.47
418.45	19686.25
418.64	20465.64
418.83	20908.01
419.02	20971.20
419.21	20690.34
419.39	19632.41
419.58	18541.72
419.77	18878.76
419.96	19784.55
420.15	20858.85
420.34	21326.96
420.53	22150.83
420.72	22546.38
420.91	22370.84
421.10	22015.08
421.29	21909.75
421.48	20870.56
421.67	22127.42
421.86	21490.80
422.05	20079.46
422.24	18087.66
422.43	17628.92
422.61	19763.48
422.80	21607.83
422.99	21348.03
423.18	20573.31
423.37	20573.31
423.56	20290.10
423.75	20741.83
423.94	20985.24
424.13	19817.32
424.32	20182.44
424.50	20236.27
424.69	20046.69
424.88	20084.14
425.07	20315.85
425.26	20208.19
425.45	19623.05
425.64	19405.38
425.83	19295.38
426.01	20706.72
426.20	21226.32
426.39	20940.77
426.58	19454.53
426.77	18333.42
426.96	17216.98
427.15	17989.36
427.33	19709.65
427.52	20203.50
427.71	20552.24
427.90	19885.19
428.09	19690.93
428.28	19473.26
428.46	18836.63
428.65	18225.75
428.84	18920.89
429.03	19286.01
429.22	18253.84
429.40	17376.14
429.59	15590.31
429.78	13900.44
429.97	14064.28
430.16	14061.94
430.34	14317.06
430.53	14122.79
430.72	14600.26
430.91	15697.97
431.10	18604.92
431.28	22054.87
431.47	24006.87
431.66	24526.47
431.85	22309.99
432.03	20226.91
432.22	19358.57
432.41	20098.18
432.60	22291.26
432.79	23225.14
432.97	23651.11
433.16	23253.22
433.35	21125.68
433.54	18885.78
433.72	18054.89
433.91	18368.52
434.10	20472.67
434.28	22375.52
434.47	23466.21
434.66	22967.68
434.85	22389.56
435.03	22345.09
435.22	22757.03
435.41	24119.22
435.59	24208.16
435.78	24489.03
435.97	25446.30
436.16	25235.66
436.34	24975.86
436.53	24046.66
436.72	24545.20
436.90	23215.77
437.09	23033.21
437.28	22960.66
437.46	23468.55
437.65	23517.70
437.84	22101.68
438.02	20182.44
438.21	19875.83
438.40	20952.48
438.58	22796.82
438.77	23508.34
438.96	23651.11
439.14	24903.30
439.33	25362.04
439.52	25865.26
439.70	25120.97
439.89	24512.43
440.08	23627.71
440.26	23845.38
440.45	24641.16
440.63	26178.89
440.82	27442.78
441.01	27342.14
441.19	26906.80
441.38	27550.45
441.57	28315.80
441.75	28755.82
441.94	28893.91
442.12	28643.48
442.31	29123.29
442.50	29273.08
442.68	28938.38
442.87	28795.61
443.05	28093.45
443.24	28371.97
443.43	29013.28
443.61	30064.18
443.80	30141.42
443.98	28524.11
444.17	27955.36
444.35	30377.81
444.54	30415.26
444.73	29818.42
444.91	28875.19
445.10	27899.19
445.28	26396.56
445.47	26082.93
445.65	26391.88
445.84	27140.85
446.02	28173.03
446.21	28945.41
446.39	28325.16
446.58	29102.22
446.77	29530.54
446.95	29565.65
447.14	30281.85
447.32	30859.96
447.51	30925.50
447.69	29235.63
447.88	28753.48
448.06	28781.57
448.25	30204.61
448.43	30665.70
448.62	29284.78
448.80	29177.12
448.99	29626.50
449.17	30024.39
449.36	29773.95
449.54	30871.67
449.73	31058.91
449.91	32053.64
450.10	32634.09
450.28	32905.59
450.46	32779.20
450.65	33184.12
450.83	32648.13
451.02	31793.84
451.20	31524.68
451.39	31620.64
451.57	31119.76
451.76	31622.98
451.94	31482.55
452.13	30806.13
452.31	29645.23
452.49	27924.93
452.68	28151.96
452.86	28807.31
453.05	28685.61
453.23	29809.06
453.42	30593.14
453.60	30857.62
453.78	31328.07
453.97	31145.51
454.15	30986.35
454.34	30464.41
454.52	30529.95
454.70	29633.52
454.89	30597.82
455.07	30492.50
455.26	30866.98
455.44	31842.99
455.62	32514.72
455.81	32788.56
455.99	32563.87
456.17	32102.79
456.36	32280.67
456.54	33123.26
456.73	33041.34
456.91	33483.70
457.09	33883.94
457.28	34227.99
457.46	33102.20
457.64	32804.95
457.83	31929.59
458.01	31229.77
458.19	32048.96
458.38	32027.89
458.56	33312.84
458.74	33558.60
458.93	32079.38
459.11	32322.80
459.29	32243.22
459.48	32208.11
459.66	32439.82
459.84	32730.05
460.03	33003.89
460.21	33167.73
460.39	33462.64
460.57	33518.81
460.76	34220.97
460.94	34567.37
461.12	33371.36
461.31	33825.42
461.49	33895.64
461.67	33820.74
461.85	34459.71
462.04	34405.88
462.22	34763.98
462.40	34693.76
462.59	34487.79
462.77	34314.59
462.95	34583.76
463.13	34040.75
463.32	33818.40
463.50	33525.83
463.68	33537.54
463.86	34012.66
464.05	33523.49
464.23	32549.83
464.41	32898.57
464.59	32353.23
464.78	33488.38
464.96	33516.47
465.14	33036.66
465.32	34036.07
465.50	34600.14
465.69	35323.36
465.87	34232.68
466.05	33401.79
466.23	31845.33
466.41	31105.72
466.60	32229.18
466.78	32112.15
466.96	32971.13
467.14	33607.75
467.32	33947.13
467.51	34047.77
467.69	31995.12
467.87	33223.90
468.05	33647.54
468.23	33357.32
468.41	33539.88
468.60	33640.52
468.78	34047.77
468.96	33450.94
469.14	34246.72
469.32	34305.23
469.50	32954.74
469.69	33055.39
469.87	32664.52
470.05	32451.53
470.23	32875.16
470.41	32711.33
470.59	33214.54
470.77	33392.42
470.95	34078.20
471.14	34651.63
471.32	34319.28
471.50	36217.45
471.68	36442.14
471.86	36596.62
472.04	36797.90
472.22	37244.94
472.40	35161.87
472.58	35042.50
472.77	34012.66
472.95	35409.96
473.13	36044.25
473.31	34820.15
473.49	35168.89
473.67	35800.83
473.85	36140.21
474.03	37294.10
474.21	37326.86
474.39	37708.37
474.57	37755.18
474.75	37486.02
474.93	37504.74
475.12	35971.69
475.30	36968.76
475.48	36711.30
475.66	37404.10
475.84	36837.69
476.02	36800.24
476.20	35943.61
476.38	36491.29
476.56	38031.36
476.74	38246.69
476.92	38225.63
477.10	39072.90
477.28	39945.92
477.46	40261.90
477.64	40315.73
477.82	40575.53
478.00	41151.30
478.18	39866.34
478.36	39988.05
478.54	39959.97
478.72	40198.70
478.90	41294.07
479.08	42260.71
479.26	42876.27
479.44	43061.18
479.62	42349.65
479.80	42305.18
479.98	42553.28
480.16	42997.98
480.34	42623.50
480.52	43250.76
480.70	43189.91
480.88	43154.80
481.06	43868.66
481.24	44119.10
481.41	45422.78
481.59	45418.10
481.77	45591.30
481.95	45116.17
482.13	44671.46
482.31	44713.59
482.49	45425.12
482.67	45127.87
482.85	45577.25
483.03	46340.27
483.21	46756.88
483.39	46693.69
483.57	46005.57
483.74	45853.44
483.92	46005.57
484.10	46014.93
484.28	46866.89
484.46	47246.05
484.64	47913.11
484.82	46562.62
485.00	46300.48
485.18	45598.32
485.35	44292.30
485.53	41221.52
485.71	37750.50
485.89	37230.90
486.07	38983.96
486.25	42150.71
486.43	44940.63
486.61	45385.33
486.78	45322.13
486.96	45815.99
487.14	47196.90
487.32	47957.58
487.50	49139.55
487.68	50052.36
487.85	50279.39
488.03	50555.57
488.21	50000.86
488.39	49392.33
488.57	48308.66
488.75	48278.23
488.92	49301.04
489.10	51679.03
489.28	52968.66
489.46	53577.20
489.64	53235.48
489.81	53624.01
489.99	53118.46
490.17	53153.57
490.35	53876.79
490.53	53130.16
490.70	52645.67
490.88	52669.08
491.06	53656.78
491.24	53528.05
491.41	52835.25
491.59	51103.26
491.77	50089.80
491.95	51297.52
492.13	52505.24
492.30	53755.08
492.48	54794.28
492.66	55035.36
492.84	54695.98
493.01	54850.45
493.19	54059.35
493.37	53989.14
493.54	53696.57
493.72	54328.52
493.90	55367.71
494.08	56062.85
494.25	56268.82
494.43	56561.39
494.61	56633.94
494.79	56903.10
494.96	56638.62
495.14	56039.45
495.32	55002.59
495.49	54445.54
495.67	55714.11
495.85	56807.14
496.02	57261.21
496.20	57242.48
496.38	56647.99
496.55	56575.43
496.73	57073.96
496.91	57394.62
497.09	57659.10
497.26	57963.37
497.44	57354.83
497.62	56774.37
497.79	56002.00
497.97	54885.56
498.14	54834.07
498.32	56240.73
498.50	57359.51
498.67	57518.67
498.85	57457.81
499.03	57659.10
499.20	57822.93
499.38	57773.78
499.56	57799.53
499.73	57062.26
499.91	56910.13
500.08	56409.25
500.26	55760.92
500.44	56224.35
500.61	56655.01
500.79	56596.49
500.97	56217.33
501.14	56259.46
501.32	55880.29
501.49	56112.00
501.67	56341.38
501.84	56591.81
502.02	57088.01
502.20	57366.53
502.37	57525.69
502.55	57408.66
502.72	57958.69
502.90	58459.56
503.07	58066.35
503.25	57900.17
503.43	56924.17
503.60	56418.61
503.78	55599.43
503.95	56278.18
504.13	57432.07
504.30	58419.77
504.48	58150.61
504.65	57752.72
504.83	57872.09
505.01	58267.64
505.18	58721.70
505.36	59145.34
505.53	59281.09
505.71	59491.74
505.88	59601.74
506.06	59117.25
506.23	58644.46
506.41	58103.80
506.58	58525.10
506.76	58487.65
506.93	58515.73
507.11	58265.30
507.28	58295.72
507.46	57965.71
507.63	57364.19
507.81	57085.67
507.98	57366.53
508.16	58117.84
508.33	58464.24
508.50	59007.25
508.68	59248.32
508.85	59601.74
509.03	59814.73
509.20	59564.29
509.38	59018.95
509.55	58028.90
509.73	58337.85
509.90	58742.77
510.08	59000.22
510.25	59133.63
510.42	58822.34
510.60	58672.55
510.77	58812.98
510.95	59402.80
511.12	59580.68
511.30	59732.81
511.47	60273.48
511.64	60116.66
511.82	59798.35
511.99	59002.56
512.17	58838.73
512.34	58239.55
512.51	58333.17
512.69	58372.96
512.86	58768.51
513.04	59157.04
513.21	59131.29
513.38	58782.55
513.56	58141.25
513.73	57602.92
513.90	57965.71
514.08	57932.94
514.25	58422.11
514.43	58543.82
514.60	58597.65
514.77	58646.80
514.95	58667.87
515.12	58667.87
515.29	58862.13
515.47	59255.34
515.64	59508.12
515.81	59058.74
515.99	58590.63
516.16	57209.71
516.33	55138.34
516.51	53666.14
516.68	52802.49
516.85	52528.64
517.03	52526.30
517.20	55564.32
517.37	57865.06
517.54	58862.13
517.72	58501.69
517.89	55945.83
518.06	54014.88
518.24	53818.28
518.41	55887.31
518.58	57268.23
518.75	57684.84
518.93	57668.46
519.10	57680.16
519.27	58152.95
519.45	58424.45
519.62	59056.40
519.79	59150.02
519.96	59203.85
520.14	58555.52
520.31	57584.20
520.48	57839.32
520.65	58143.59
520.83	59032.99
521.00	59393.43
521.17	59210.87
521.34	58726.38
521.52	59091.51
521.69	59756.22
521.86	60067.51
522.03	59550.25
522.20	58632.76
522.38	57602.92
522.55	57591.22
522.72	58059.33
522.89	58237.21
523.07	58602.33
523.24	58688.93
523.41	59702.38
523.58	60025.38
523.75	60104.96
523.92	60130.70
524.10	59945.80
524.27	60023.04
524.44	59908.35
524.61	59533.87
524.78	59749.20
524.96	59377.05
525.13	59451.95
525.30	59817.07
525.47	59990.27
525.64	60051.12
525.81	59449.61
525.98	58059.33
526.16	56732.25
526.33	55976.25
526.50	55487.08
526.67	55028.34
526.84	55554.96
527.01	57151.20
527.18	57593.56
527.36	58415.09
527.53	59203.85
527.70	59716.43
527.87	59100.87
528.04	58920.65
528.21	59110.23
528.38	59798.35
528.55	60390.50
528.72	60472.42
528.89	60587.11
529.07	60404.55
529.24	59814.73
529.41	59224.92
529.58	58599.99
529.75	59049.38
529.92	59126.61
530.09	59480.03
530.26	60170.49
530.43	60306.24
530.60	60339.01
530.77	60537.96
530.94	60753.29
531.11	60287.52
531.28	59711.75
531.46	59634.51
531.63	59643.87
531.80	59702.38
531.97	59281.09
532.14	58515.73
532.31	57729.31
532.48	57062.26
532.65	57052.90
532.82	57986.77
532.99	58864.47
533.16	59271.73
533.33	59948.14
533.50	59632.17
533.67	59075.12
533.84	58574.25
534.01	58702.98
534.18	58962.78
534.35	59138.32
534.52	58913.62
534.69	59405.14
534.86	59517.48
535.03	59781.96
535.20	60076.87
535.37	60706.47
535.54	60605.83
535.71	60420.93
535.88	60060.49
536.05	59344.28
536.22	58951.07
536.38	58761.49
536.55	58237.21
536.72	57757.40
536.89	57652.08
537.06	58506.37
537.23	59159.38
537.40	59611.10
537.57	59625.15
537.74	59377.05
537.91	59159.38
538.08	59248.32
538.25	59292.79
538.42	59468.33
538.59	59126.61
538.75	58618.72
538.92	58553.18
539.09	58293.38
539.26	58021.88
539.43	57771.44
539.60	58110.82
539.77	58260.62
539.94	58337.85
540.11	57347.81
540.28	56832.89
540.44	57064.60
540.61	57364.19
540.78	57518.67
540.95	57813.57
541.12	58206.78
541.29	58431.47
541.46	58836.39
541.62	58883.20
541.79	58831.71
541.96	58000.82
542.13	57991.45
542.30	58230.19
542.47	58564.88
542.63	58272.32
542.80	58145.93
542.97	58110.82
543.14	58054.65
543.31	58195.08
543.48	58525.10
543.64	59491.74
543.81	59760.90
543.98	59540.89
544.15	58850.43
544.32	58253.59
544.48	58213.80
544.65	58695.95
544.82	59145.34
544.99	58841.07
545.16	58461.90
545.32	58005.50
545.49	58883.20
545.66	59224.92
545.83	58953.41
546.00	58508.71
546.16	58223.17
546.33	58293.38
546.50	58288.70
546.67	58850.43
546.83	58277.00
547.00	58464.24
547.17	57900.17
547.34	57286.95
547.50	57104.39
547.67	57483.56
547.84	57925.92
548.00	57834.64
548.17	58382.32
548.34	58178.70
548.51	58351.90
548.67	58384.66
548.84	58370.62
549.01	58354.24
549.18	58202.10
549.34	58099.12
549.51	58026.56
549.68	58019.54
549.84	57942.30
550.01	57937.62
550.18	57841.66
550.34	57764.42
550.51	57855.70
550.68	58110.82
550.84	57691.86
551.01	57441.43
551.18	57488.24
551.34	57703.57
551.51	58085.07
551.68	58312.11
551.84	58438.50
552.01	58305.09
552.18	57944.64
552.34	57368.87
552.51	56989.70
552.68	56844.59
552.84	57277.59
553.01	57579.52
553.18	57380.57
553.34	57687.18
553.51	57715.27
553.67	57984.43
553.84	58178.70
554.01	57986.77
554.17	57661.44
554.34	57930.60
554.51	57886.13
554.67	58487.65
554.84	58014.86
555.00	57733.99
555.17	57502.28
555.33	57443.77
555.50	57469.51
555.67	57588.88
555.83	57310.36
556.00	57055.24
556.16	57069.28
556.33	56685.43
556.50	56647.99
556.66	56678.41
556.83	56477.13
556.99	56554.36
557.16	56411.59
557.32	57024.81
557.49	56935.87
557.65	57251.84
557.82	56919.49
557.98	56694.80
558.15	56247.75
558.32	55573.68
558.48	54539.16
558.65	54967.48
558.81	55395.80
558.98	55480.06
559.14	55784.33
559.31	55765.60
559.47	56046.47
559.64	55428.57
559.80	55381.76
559.97	55028.34
560.13	55793.69
560.30	56624.58
560.46	57183.97
560.63	57633.35
560.79	57329.08
560.96	57015.45
561.12	55906.04
561.29	54969.82
561.45	54918.33
561.61	55620.49
561.78	55962.21
561.94	56034.77
562.11	55962.21
562.27	55487.08
562.44	55704.75
562.60	56334.35
562.77	56498.19
562.93	56458.40
563.10	56287.54
563.26	55650.92
563.42	55798.37
563.59	55625.17
563.75	55597.09
563.92	55494.10
564.08	55348.99
564.24	55828.80
564.41	55880.29
564.57	55746.88
564.74	55655.60
564.90	55384.10
565.07	55334.95
565.23	54979.18
565.39	54506.40
565.56	54246.60
565.72	53939.99
565.88	54302.77
566.05	54443.20
566.21	54597.68
566.38	54913.65
566.54	54915.99
566.70	55234.30
566.87	55356.01
567.03	55618.15
567.19	55917.74
567.36	55615.81
567.52	55533.89
567.68	55173.45
567.85	54370.64
568.01	54096.80
568.17	53635.72
568.34	54005.52
568.50	53741.04
568.66	53663.80
568.83	54370.64
568.99	54209.15
569.15	54464.27
569.32	54417.46
569.48	54436.18
569.64	53834.66
569.81	53790.19
569.97	53354.85
570.13	53359.53
570.30	53289.32
570.46	52320.34
570.62	52299.27
570.78	51789.03
570.95	52076.92
571.11	52891.43
571.27	53460.18
571.43	53396.98
571.60	53743.38
571.76	53975.09
571.92	54073.40
572.09	54131.91
572.25	54377.67
572.41	54424.48
572.57	54237.23
572.74	54258.30
572.90	53663.80
573.06	53715.29
573.22	53860.41
573.38	53495.28
573.55	53719.98
573.71	53918.92
573.87	53949.35
574.03	53474.22
574.20	53621.67
574.36	53324.43
574.52	52982.71
574.68	53029.52
574.84	52472.47
575.01	52205.65
575.17	51723.50
575.33	52299.27
575.49	52666.73
575.65	52765.04
575.82	52453.75
575.98	52041.81
576.14	52381.19
576.30	53216.76
576.46	52846.96
576.62	52963.98
576.79	52898.45
576.95	52505.24
577.11	52577.79
577.27	52442.04
577.43	52385.87
577.59	52413.96
577.75	52067.56
577.92	51405.19
578.08	50719.41
578.24	50908.99
578.40	51250.71
578.56	51484.76
578.72	51318.59
578.88	51709.46
579.04	51903.72
579.21	52130.75
579.37	52020.75
579.53	52381.19
579.69	52226.71
579.85	52189.27
580.01	52009.04
580.17	51723.50
580.33	51519.87
580.49	51868.61
580.65	51803.08
580.82	52154.16
580.98	52158.84
581.14	51922.44
581.30	52226.71
581.46	51849.89
581.62	52151.82
581.78	52301.61
581.94	52308.63
582.10	52458.43
582.26	52236.08
582.42	52060.54
582.58	52137.77
582.74	52287.57
582.90	52559.07
583.06	51814.78
583.22	52016.07
583.38	51976.28
583.54	51997.34
583.70	51625.20
583.86	51707.12
584.02	51664.99
584.18	51987.98
584.34	51749.24
584.50	51821.80
584.66	51288.16
584.82	51086.87
584.98	51358.38
585.14	50670.26
585.30	49954.05
