SpectraSuite Data File
++++++++++++++++++++++++++++++++++++
Date: Mon Oct 07 14:53:44 GMT-05:00 2013
User: price-jones
Dark Spectrum Present: No
Reference Spectrum Present: No
Number of Sampled Component Spectra: 1
Spectrometers: USB2+H05261
Integration Time (usec): 100000 (USB2+H05261)
Spectra Averaged: 1 (USB2+H05261)
Boxcar Smoothing: 0 (USB2+H05261)
Correct for Electrical Dark: No (USB2+H05261)
Strobe/Lamp Enabled: No (USB2+H05261)
Correct for Detector Non-linearity: No (USB2+H05261)
Correct for Stray Light: No (USB2+H05261)
Number of Pixels in Processed Spectrum: 2048
>>>>>Begin Processed Spectral Data<<<<<
365.73	0.00
365.92	0.00
366.12	0.00
366.32	0.00
366.52	0.00
366.72	0.00
366.91	0.00
367.11	0.00
367.31	0.00
367.51	0.00
367.70	0.00
367.90	0.00
368.10	0.00
368.30	0.00
368.49	0.00
368.69	0.00
368.89	0.00
369.09	0.00
369.28	0.00
369.48	0.00
369.68	0.00
369.87	0.00
370.07	0.00
370.27	0.00
370.47	674.07
370.66	3391.44
370.86	3971.89
371.06	4496.17
371.25	4505.53
371.45	4142.75
371.65	3623.15
371.84	3321.22
372.04	3475.70
372.24	3967.21
372.44	4241.05
372.63	4145.09
372.83	3749.54
373.03	3358.67
373.22	3030.99
373.42	3260.37
373.62	3922.74
373.81	4098.28
374.01	4182.54
374.21	3733.15
374.40	3346.97
374.60	3552.93
374.79	3908.69
374.99	4578.09
375.19	5060.24
375.38	5153.86
375.58	4631.92
375.78	4610.86
375.97	4889.38
376.17	5004.07
376.37	4952.57
376.56	5048.54
376.76	5401.96
376.95	5589.20
377.15	6169.65
377.35	6218.80
377.54	6333.49
377.74	6839.05
377.93	6787.55
378.13	6654.14
378.33	6202.42
378.52	5884.11
378.72	5556.43
378.91	5528.35
379.11	5376.21
379.31	5078.96
379.50	5177.26
379.70	5507.28
379.89	6108.80
380.09	6335.83
380.28	6668.19
380.48	6726.70
380.68	6441.15
380.87	6352.21
381.07	5984.75
381.26	5526.00
381.46	5090.67
381.65	4889.38
381.85	4880.02
382.04	4507.87
382.24	4306.59
382.43	4212.96
382.63	3992.95
382.83	4030.40
383.02	4065.51
383.22	4035.08
383.41	4058.49
383.61	4341.69
383.80	4999.38
384.00	5640.69
384.19	6420.09
384.39	6590.95
384.58	6579.25
384.78	6623.72
384.97	6382.64
385.17	6162.63
385.36	5715.59
385.56	5483.88
385.75	5605.58
385.95	6406.05
386.14	6878.83
386.34	6857.77
386.53	6558.18
386.72	6169.65
386.92	6118.16
387.11	6368.60
387.31	6806.28
387.50	6700.95
387.70	6539.46
387.89	6342.85
388.09	6436.47
388.28	6544.14
388.48	6532.44
388.67	7126.93
388.86	7803.35
389.06	8372.10
389.25	8667.00
389.45	8891.70
389.64	8819.14
389.84	8720.84
390.03	8608.49
390.22	8468.06
390.42	8898.72
390.61	9486.19
390.81	9933.23
391.00	10326.44
391.19	10008.13
391.39	9774.08
391.58	9219.37
391.78	8723.18
391.97	8489.12
392.16	7873.56
392.36	7227.57
392.55	5680.48
392.75	4636.60
392.94	3829.12
393.13	3775.28
393.33	4351.06
393.52	5483.88
393.71	6862.45
393.91	7676.96
394.10	8461.04
394.29	8964.25
394.49	9902.81
394.68	10796.89
394.88	10647.10
395.07	11012.22
395.26	10977.11
395.46	10583.90
395.65	10036.22
395.84	8868.29
396.04	7676.96
396.23	5926.24
396.42	5074.28
396.62	4887.04
396.81	5741.33
397.00	7335.24
397.19	9043.83
397.39	10689.23
397.58	12154.40
397.77	12987.63
397.97	13518.93
398.16	13486.17
398.35	14038.53
398.55	14134.50
398.74	15075.39
398.93	15192.42
399.12	14796.87
399.32	14349.82
399.51	14937.30
399.70	15770.53
399.90	15456.90
400.09	15714.36
400.28	15531.80
400.47	15447.54
400.67	16411.84
400.86	17029.74
401.05	16879.94
401.24	16943.14
401.44	17539.97
401.63	17280.18
401.82	17135.06
402.01	17132.72
402.21	17352.73
402.40	17685.09
402.59	17390.18
402.78	16299.49
402.97	15859.47
403.17	16444.60
403.36	17610.19
403.55	17940.21
403.74	18450.44
403.93	17736.58
404.13	16350.98
404.32	15873.51
404.51	16751.21
404.70	18033.83
404.89	17818.50
405.09	17722.54
405.28	16854.20
405.47	17202.94
405.66	16966.54
405.85	16645.89
406.05	16416.52
406.24	16615.46
406.43	16964.20
406.62	17778.71
406.81	18099.36
407.00	17404.22
407.20	16819.09
407.39	16893.99
407.58	17640.62
407.77	18551.09
407.96	19138.56
408.15	19424.11
408.34	19173.67
408.54	20226.91
408.73	20374.36
408.92	20002.22
409.11	19454.53
409.30	18368.52
409.49	17561.04
409.68	16463.33
409.87	15805.64
410.07	16950.16
410.26	18164.90
410.45	19124.52
410.64	19833.70
410.83	20294.79
411.02	20924.39
411.21	21722.51
411.40	21209.93
411.59	21553.99
411.78	21097.59
411.98	20938.43
412.17	21408.88
412.36	20919.71
412.55	21137.38
412.74	20758.21
412.93	20521.82
413.12	20362.66
413.31	22136.79
413.50	22494.89
413.69	23477.91
413.88	21994.01
414.07	21064.82
414.26	21558.67
414.45	22473.82
414.64	22473.82
414.83	22738.30
415.02	22199.98
415.22	22026.78
415.41	22871.72
415.60	23234.50
415.79	24194.12
415.98	24966.49
416.17	24917.34
416.36	24320.51
416.55	24051.34
416.74	23122.15
416.93	22237.43
417.12	22417.65
417.31	22728.94
417.50	22874.06
417.69	23730.69
417.88	23807.93
418.07	23704.95
418.26	23316.42
418.45	23405.36
418.64	24261.99
418.83	24687.97
419.02	24741.80
419.21	24723.08
419.39	23655.79
419.58	22218.71
419.77	22684.47
419.96	23321.10
420.15	24936.07
420.34	25322.26
420.53	26122.72
420.72	26794.45
420.91	26754.66
421.10	26422.31
421.29	26462.10
421.48	25015.65
421.67	26209.32
421.86	25565.67
422.05	23864.10
422.24	21603.14
422.43	21289.51
422.61	23456.85
422.80	25357.36
422.99	25432.26
423.18	24666.91
423.37	23700.26
423.56	23531.75
423.75	24261.99
423.94	25202.89
424.13	23571.54
424.32	23686.22
424.50	24011.56
424.69	23370.25
424.88	23669.84
425.07	23480.25
425.26	23658.14
425.45	23496.64
425.64	22951.29
425.83	23028.53
426.01	24360.30
426.20	24758.19
426.39	24727.76
426.58	23000.44
426.77	21460.37
426.96	20142.65
427.15	20989.92
427.33	23105.77
427.52	24102.84
427.71	24409.45
427.90	23550.47
428.09	23491.96
428.28	23096.41
428.46	22471.48
428.65	22029.12
428.84	22120.40
429.03	22546.38
429.22	21834.86
429.40	20631.82
429.59	18504.28
429.78	16306.51
429.97	16411.84
430.16	16692.70
430.34	16638.87
430.53	16685.68
430.72	17029.74
430.91	18618.96
431.10	21947.20
431.28	26272.51
431.47	28320.48
431.66	28748.80
431.85	26031.44
432.03	23962.40
432.22	22860.01
432.41	23784.52
432.60	26562.74
432.79	27262.56
432.97	28046.64
433.16	27550.45
433.35	25188.85
433.54	22586.17
433.72	21282.49
433.91	21682.72
434.10	24245.61
434.28	26157.83
434.47	27889.82
434.66	26902.12
434.85	26434.01
435.03	26382.52
435.22	27063.61
435.41	28725.39
435.59	28767.52
435.78	28868.17
435.97	29839.49
436.16	29830.13
436.34	29436.92
436.53	28683.27
436.72	29235.63
436.90	27618.32
437.09	27665.13
437.28	26747.64
437.46	27805.56
437.65	28018.55
437.84	26164.85
438.02	23552.81
438.21	23541.11
438.40	25261.40
438.58	27117.45
438.77	27934.29
438.96	27711.94
439.14	29139.67
439.33	30064.18
439.52	30464.41
439.70	29766.93
439.89	28945.41
440.08	28093.45
440.26	28133.24
440.45	29081.16
440.63	30979.33
440.82	32744.09
441.01	32268.97
441.19	32109.81
441.38	32435.14
441.57	33897.98
441.75	34424.60
441.94	34230.33
442.12	34066.50
442.31	34543.97
442.50	34789.72
442.68	34146.08
442.87	33771.59
443.05	33053.05
443.24	34061.82
443.43	34752.27
443.61	35337.41
443.80	35868.71
443.98	33479.02
444.17	33544.56
444.35	35496.56
444.54	36243.20
444.73	35831.26
444.91	34199.91
445.10	32985.17
445.28	31400.63
445.47	30677.40
445.65	31143.17
445.84	32236.20
446.02	33181.77
446.21	33734.14
446.39	33350.29
446.58	34192.89
446.77	34618.86
446.95	35000.37
447.14	35761.05
447.32	36343.84
447.51	35889.77
447.69	34443.32
447.88	33743.50
448.06	34473.75
448.25	35292.94
448.43	35826.58
448.62	34878.66
448.80	34235.02
448.99	34962.92
449.17	34979.31
449.36	34918.45
449.54	36451.50
449.73	36603.64
449.91	37420.48
450.10	38675.01
450.28	39110.35
450.46	38778.00
450.65	38429.26
450.83	38124.99
451.02	37542.19
451.20	37376.01
451.39	37022.59
451.57	37111.53
451.76	37413.46
451.94	37001.53
452.13	36627.04
452.31	34822.49
452.49	32980.49
452.68	33837.12
452.86	33102.20
453.05	33848.83
453.23	35154.85
453.42	36016.16
453.60	36921.95
453.78	37219.20
453.97	36252.56
454.15	36840.03
454.34	35826.58
454.52	36430.44
454.70	35063.57
454.89	35550.40
455.07	35892.12
455.26	36268.94
455.44	37521.13
455.62	38181.16
455.81	38359.04
455.99	38415.21
456.17	37790.29
456.36	37748.16
456.54	39187.59
456.73	38953.54
456.91	39803.15
457.09	39871.03
457.28	40502.97
457.46	38995.67
457.64	38848.21
457.83	37907.32
458.01	36629.38
458.19	37621.77
458.38	37596.03
458.56	39276.53
458.74	39278.87
458.93	38263.08
459.11	38132.01
459.29	38127.33
459.48	38012.64
459.66	38022.00
459.84	38349.68
460.03	39129.08
460.21	38871.62
460.39	39700.17
460.57	40037.20
460.76	40446.80
460.94	40245.51
461.12	40076.99
461.31	39966.99
461.49	39880.39
461.67	39821.87
461.85	40954.69
462.04	41078.74
462.22	41118.53
462.40	40954.69
462.59	40509.99
462.77	41074.06
462.95	41062.36
463.13	40151.89
463.32	40151.89
463.50	40048.91
463.68	40201.04
463.86	39821.87
464.05	39367.81
464.23	38204.56
464.41	38237.33
464.59	37275.37
464.78	39854.64
464.96	39100.99
465.14	39108.01
465.32	40100.40
465.50	41123.21
465.69	41277.69
465.87	40505.31
466.05	39693.15
466.23	37591.34
466.41	37097.49
466.60	38059.45
466.78	37893.27
466.96	38892.68
467.14	39613.57
467.32	39505.90
467.51	39627.61
467.69	38263.08
467.87	38583.73
468.05	39590.16
468.23	39512.92
468.41	39655.70
468.60	39613.57
468.78	39779.74
468.96	39431.01
469.14	40456.16
469.32	40423.39
469.50	38803.74
469.69	39131.42
469.87	38614.16
470.05	38349.68
470.23	38436.28
470.41	38628.20
470.59	39491.86
470.77	39005.03
470.95	40163.59
471.14	40467.86
471.32	40718.30
471.50	42433.91
471.68	43105.65
471.86	43117.35
472.04	43138.41
472.22	43426.30
472.40	41572.60
472.58	41085.76
472.77	40755.75
472.95	41450.89
473.13	42291.14
473.31	41441.53
473.49	41614.72
473.67	41963.46
473.85	42548.60
474.03	43627.59
474.21	43480.13
474.39	44058.24
474.57	44343.79
474.75	44058.24
474.93	43566.73
475.12	43337.36
475.30	43016.71
475.48	43103.31
475.66	44065.27
475.84	43400.55
476.02	42754.57
476.20	42373.06
476.38	43529.28
476.56	44245.49
476.74	44519.33
476.92	45179.36
477.10	45670.87
477.28	46794.33
477.46	46953.49
477.64	47161.79
477.82	47253.08
478.00	47674.37
478.18	46738.16
478.36	46492.40
478.54	47072.85
478.72	47274.14
478.90	47899.06
479.08	49081.03
479.26	49373.60
479.44	49195.72
479.62	49090.40
479.80	48793.15
479.98	49160.61
480.16	49731.70
480.34	48964.01
480.52	49776.17
480.70	49818.30
480.88	49764.47
481.06	50639.83
481.24	50412.80
481.41	51306.88
481.59	52156.50
481.77	51774.99
481.95	51306.88
482.13	50836.44
482.31	51203.90
482.49	51828.82
482.67	51639.24
482.85	51943.51
483.03	52296.93
483.21	52971.00
483.39	52575.45
483.57	52186.92
483.74	51597.11
483.92	52002.02
484.10	52065.22
484.28	52903.13
484.46	53404.00
484.64	53560.82
484.82	52938.24
485.00	52217.35
485.18	51885.00
485.35	50801.33
485.53	48299.30
485.71	44135.48
485.89	43566.73
486.07	45698.96
486.25	48928.90
486.43	51082.19
486.61	51966.91
486.78	51440.29
486.96	51800.74
487.14	53006.11
487.32	53675.51
487.50	54550.87
487.68	55267.07
487.85	55758.58
488.03	55641.56
488.21	55372.39
488.39	54656.19
488.57	54216.17
488.75	53755.08
488.92	54808.32
489.10	56790.76
489.28	57694.21
489.46	58330.83
489.64	58204.44
489.81	58293.38
489.99	57942.30
490.17	57925.92
490.35	58262.96
490.53	57886.13
490.70	57792.51
490.88	57549.09
491.06	58396.37
491.24	58218.49
491.41	57439.09
491.59	56090.94
491.77	55435.59
491.95	56481.81
492.13	57389.94
492.30	58333.17
492.48	59339.60
492.66	59384.07
492.84	59533.87
493.01	59323.22
493.19	58962.78
493.37	58614.04
493.54	58365.94
493.72	58892.56
493.90	59793.67
494.08	60322.63
494.25	60636.26
494.43	60552.00
494.61	61219.05
494.79	61104.37
494.96	61092.66
495.14	60568.38
495.32	59863.88
495.49	58899.58
495.67	59924.74
495.85	61207.35
496.02	61537.36
496.20	61591.20
496.38	60961.59
496.55	60919.46
496.73	61265.86
496.91	61378.21
497.09	61806.53
497.26	62068.67
497.44	61558.43
497.62	61237.78
497.79	60465.40
497.97	59388.75
498.14	59561.95
498.32	60598.81
498.50	61263.52
498.67	61956.32
498.85	61759.72
499.03	61752.69
499.20	61998.45
499.38	62075.69
499.56	61900.15
499.73	61663.75
499.91	61237.78
500.08	60690.09
500.26	60039.42
500.44	60331.99
500.61	61162.88
500.79	61020.11
500.97	60453.70
501.14	60624.56
501.32	60374.12
501.49	60376.46
501.67	60554.34
501.84	61102.03
502.02	61359.48
502.20	61448.42
502.37	61785.46
502.55	61855.68
502.72	62255.91
502.90	62529.75
503.07	62246.55
503.25	61961.00
503.43	61293.95
503.60	60523.91
503.78	60219.64
503.95	60573.06
504.13	61834.61
504.30	62377.62
504.48	62370.60
504.65	61970.36
504.83	62082.71
505.01	62553.16
505.18	62763.81
505.36	63269.36
505.53	63419.16
505.71	63529.16
505.88	63695.34
506.06	63171.06
506.23	62714.65
506.41	62520.39
506.58	62927.64
506.76	62745.08
506.93	62717.00
507.11	62546.14
507.28	62485.28
507.46	62284.00
507.63	61600.56
507.81	61413.32
507.98	61485.87
508.16	62375.28
508.33	62808.28
508.50	63049.35
508.68	63519.80
508.85	63765.56
509.03	63849.81
509.20	63732.79
509.38	63077.44
509.55	62384.64
509.73	62511.03
509.90	62892.54
510.08	63234.25
510.25	63063.39
510.42	62791.89
510.60	62756.78
510.77	63023.61
510.95	63547.89
511.12	63751.51
511.30	64067.48
511.47	64179.83
511.64	64069.82
511.82	63758.53
511.99	63114.89
512.17	62939.35
512.34	62337.83
512.51	62506.35
512.69	62726.36
512.86	62883.17
513.04	63157.02
513.21	63227.23
513.38	62808.28
513.56	62368.26
513.73	61991.43
513.90	62075.69
514.08	62059.30
514.25	62415.07
514.43	62541.45
514.60	62658.48
514.77	62904.24
514.95	62906.58
515.12	62808.28
515.29	63072.76
515.47	63426.18
515.64	63702.36
515.81	63374.69
515.99	62815.30
516.16	61354.80
516.33	59545.57
516.51	58138.91
516.68	57855.70
516.85	57303.34
517.03	57502.28
517.20	59767.92
517.37	61998.45
517.54	62864.45
517.72	62494.64
517.89	60411.57
518.06	58316.79
518.24	58532.12
518.41	60505.19
518.58	61577.15
518.75	61902.49
518.93	61839.29
519.10	61705.88
519.27	62164.63
519.45	62541.45
519.62	62995.52
519.79	63306.81
519.96	63274.04
520.14	62841.04
520.31	62106.12
520.48	62007.81
520.65	62410.38
520.83	63318.51
521.00	63533.84
521.17	63166.38
521.34	63086.80
521.52	63224.89
521.69	63758.53
521.86	64053.44
522.03	63758.53
522.20	62754.44
522.38	61656.73
522.55	61794.82
522.72	62269.95
522.89	62602.31
523.07	62679.55
523.24	62918.28
523.41	63578.31
523.58	63999.61
523.75	64390.48
523.92	64282.81
524.10	64039.40
524.27	64231.32
524.44	63936.41
524.61	63784.28
524.78	63594.70
524.96	63723.43
525.13	63597.04
525.30	63786.62
525.47	64072.17
525.64	64193.87
525.81	63536.18
525.98	62295.70
526.16	60821.16
526.33	60427.95
526.50	60285.18
526.67	59952.82
526.84	60278.16
527.01	61043.51
527.18	62000.79
527.36	62562.52
527.53	63372.34
527.70	63641.51
527.87	63374.69
528.04	62796.57
528.21	63236.59
528.38	63896.62
528.55	64336.65
528.72	64582.40
528.89	64793.05
529.07	64292.18
529.24	63920.03
529.41	63489.37
529.58	62733.38
529.75	62836.36
529.92	63463.63
530.09	63831.09
530.26	64189.19
530.43	64191.53
530.60	64486.44
530.77	64661.98
530.94	64713.47
531.11	64135.36
531.28	63966.84
531.46	63805.34
531.63	63990.25
531.80	63807.68
531.97	63409.79
532.14	62791.89
532.31	62047.60
532.48	61347.78
532.65	61410.98
532.82	62141.22
532.99	63058.71
533.16	63285.75
533.33	63962.16
533.50	63681.30
533.67	63114.89
533.84	62745.08
534.01	62787.21
534.18	63187.44
534.35	63337.24
534.52	63152.33
534.69	63341.92
534.86	63646.19
535.03	63884.92
535.20	64427.93
535.37	64631.55
535.54	64746.24
535.71	64418.56
535.88	64179.83
536.05	63522.14
536.22	63098.50
536.38	62794.23
536.55	62489.96
536.72	61951.64
536.89	61883.76
537.06	62876.15
537.23	63575.97
537.40	63580.65
537.57	63608.74
537.74	63267.02
537.91	63475.33
538.08	63320.85
538.25	63295.11
538.42	63543.20
538.59	63358.30
538.75	62913.60
538.92	62728.70
539.09	62616.35
539.26	62225.48
539.43	62026.54
539.60	62281.66
539.77	62501.67
539.94	62401.02
540.11	61638.01
540.28	61233.10
540.44	61146.50
540.61	61518.64
540.78	61757.38
540.95	61986.75
541.12	62279.31
541.29	62646.78
541.46	62885.51
541.62	63051.69
541.79	62735.72
541.96	62211.44
542.13	62274.63
542.30	62504.01
542.47	62642.10
542.63	62330.81
542.80	62141.22
542.97	62403.36
543.14	62279.31
543.31	62152.93
543.48	62717.00
543.64	63381.71
543.81	63770.24
543.98	63470.65
544.15	63025.95
544.32	62384.64
544.48	62450.17
544.65	62918.28
544.82	63283.40
544.99	62761.47
545.16	62721.68
545.32	62305.06
545.49	62948.71
545.66	63395.75
545.83	63149.99
546.00	62773.17
546.16	62375.28
546.33	62312.08
546.50	62424.43
546.67	62990.84
546.83	62686.57
547.00	62546.14
547.17	61937.60
547.34	61509.28
547.50	61427.36
547.67	62026.54
547.84	61961.00
548.00	62241.87
548.17	62616.35
548.34	62511.03
548.51	62674.87
548.67	62447.83
548.84	62658.48
549.01	62546.14
549.18	62452.51
549.34	62546.14
549.51	62522.73
549.68	62461.88
549.84	62171.65
550.01	62087.39
550.18	62052.28
550.34	61916.53
550.51	62232.50
550.68	62202.08
550.84	61881.42
551.01	61764.40
551.18	61867.38
551.34	61923.55
551.51	62171.65
551.68	62464.22
551.84	62511.03
552.01	62396.34
552.18	62284.00
552.34	61705.88
552.51	61368.85
552.68	61300.97
552.84	61745.67
553.01	61918.87
553.18	61684.82
553.34	61923.55
553.51	61961.00
553.67	62209.10
553.84	62190.37
554.01	62183.35
554.17	62063.99
554.34	62281.66
554.51	62094.41
554.67	62614.01
554.84	62216.12
555.00	62195.06
555.17	61724.61
555.33	61869.72
555.50	61778.44
555.67	61698.86
555.83	61649.71
556.00	61336.08
556.16	61286.93
556.33	60996.70
556.50	61048.19
556.66	60921.80
556.83	60669.03
556.99	60910.10
557.16	60968.61
557.32	61179.26
557.49	61488.21
557.65	61237.78
557.82	61408.64
557.98	61148.84
558.15	60973.30
558.32	59807.71
558.48	59559.61
558.65	59533.87
558.81	59887.29
558.98	59980.91
559.14	60470.08
559.31	60310.92
559.47	60479.44
559.64	60065.17
559.80	59608.76
559.97	59838.14
560.13	60348.37
560.30	60961.59
560.46	61490.55
560.63	61710.56
560.79	61818.23
560.96	61380.55
561.12	60196.24
561.29	59578.34
561.45	59512.80
561.61	60062.83
561.78	60540.30
561.94	60207.94
562.11	60474.76
562.27	60229.01
562.44	60214.96
562.60	60853.93
562.77	60867.97
562.93	60816.48
563.10	60760.31
563.26	60294.54
563.42	60245.39
563.59	59952.82
563.75	60055.81
563.92	60058.15
564.08	60081.55
564.24	60355.39
564.41	60151.77
564.57	60184.54
564.74	60095.60
564.90	60072.19
565.07	59786.64
565.23	59344.28
565.39	59203.85
565.56	58787.24
565.72	58506.37
565.88	59063.42
566.05	59166.40
566.21	59257.68
566.38	59419.18
566.54	59594.72
566.70	59643.87
566.87	60076.87
567.03	60245.39
567.19	60182.19
567.36	60069.85
567.52	59847.50
567.68	59538.55
567.85	59348.96
568.01	58728.72
568.17	58436.16
568.34	58482.97
568.50	58323.81
568.66	58700.64
568.83	58827.02
568.99	58871.49
569.15	59224.92
569.32	58983.84
569.48	58843.41
569.64	58876.18
569.81	58387.00
569.97	58562.54
570.13	58401.05
570.30	57986.77
570.46	57741.02
570.62	57137.16
570.78	56933.53
570.95	57144.18
571.11	57820.59
571.27	58199.76
571.43	58365.94
571.60	58422.11
571.76	58735.74
571.92	58571.91
572.09	58976.82
572.25	58831.71
572.41	58763.83
572.57	58897.24
572.74	58810.64
572.90	58487.65
573.06	58681.91
573.22	58646.80
573.38	58618.72
573.55	58398.71
573.71	58674.89
573.87	58468.92
574.03	58155.29
574.20	58607.01
574.36	58120.18
574.52	57846.34
574.68	57888.47
574.84	57612.29
575.01	57099.71
575.17	56975.66
575.33	57392.28
575.49	57371.21
575.65	57783.15
575.82	57612.29
575.98	57240.14
576.14	57546.75
576.30	57968.05
576.46	57790.17
576.62	57715.27
576.79	57729.31
576.95	57289.29
577.11	57200.35
577.27	57359.51
577.43	57490.58
577.59	57418.02
577.75	57003.75
577.92	56336.69
578.08	56097.96
578.24	56271.16
578.40	56519.26
578.56	56647.99
578.72	56849.27
578.88	57102.05
579.04	57099.71
579.21	57172.27
579.37	57092.69
579.53	57296.31
579.69	57167.58
579.85	57277.59
580.01	57153.54
580.17	56776.72
580.33	56788.42
580.49	56903.10
580.65	56832.89
580.82	57055.24
580.98	57249.50
581.14	56982.68
581.30	57106.73
581.46	56973.32
581.62	57223.76
581.78	56992.04
581.94	57350.15
582.10	57162.90
582.26	57546.75
582.42	57205.03
582.58	57219.08
582.74	57233.12
582.90	57272.91
583.06	57270.57
583.22	56905.44
583.38	56966.30
583.54	57073.96
583.70	56757.99
583.86	56839.91
584.02	56966.30
584.18	56917.15
584.34	56772.03
584.50	56704.16
584.66	56598.83
584.82	56477.13
584.98	56402.23
585.14	55987.95
