SpectraSuite Data File
++++++++++++++++++++++++++++++++++++
Date: Mon Oct 07 14:54:55 GMT-05:00 2013
User: price-jones
Dark Spectrum Present: No
Reference Spectrum Present: No
Number of Sampled Component Spectra: 1
Spectrometers: USB2+H05261
Integration Time (usec): 10000 (USB2+H05261)
Spectra Averaged: 1 (USB2+H05261)
Boxcar Smoothing: 0 (USB2+H05261)
Correct for Electrical Dark: No (USB2+H05261)
Strobe/Lamp Enabled: No (USB2+H05261)
Correct for Detector Non-linearity: No (USB2+H05261)
Correct for Stray Light: No (USB2+H05261)
Number of Pixels in Processed Spectrum: 2048
>>>>>Begin Processed Spectral Data<<<<<
365.73	0.00
365.92	0.00
366.12	0.00
366.32	0.00
366.52	0.00
366.72	0.00
366.91	0.00
367.11	0.00
367.31	0.00
367.51	0.00
367.70	0.00
367.90	0.00
368.10	0.00
368.30	0.00
368.49	0.00
368.69	0.00
368.89	0.00
369.09	0.00
369.28	0.00
369.48	0.00
369.68	0.00
369.87	0.00
370.07	0.00
370.27	0.00
370.47	0.00
370.66	0.00
370.86	21.06
371.06	0.00
371.25	67.88
371.45	0.00
371.65	49.15
371.84	0.00
372.04	0.00
372.24	0.00
372.44	0.00
372.63	30.43
372.83	88.94
373.03	0.00
373.22	0.00
373.42	0.00
373.62	11.70
373.81	28.09
374.01	9.36
374.21	37.45
374.40	21.06
374.60	0.00
374.79	32.77
374.99	9.36
375.19	95.96
375.38	159.16
375.58	131.07
375.78	28.09
375.97	81.92
376.17	102.98
376.37	58.51
376.56	166.18
376.76	72.56
376.95	88.94
377.15	138.09
377.35	152.13
377.54	149.79
377.74	170.86
377.93	208.31
378.13	182.56
378.33	175.54
378.52	187.24
378.72	217.67
378.91	95.96
379.11	72.56
379.31	124.05
379.50	91.28
379.70	93.62
379.89	182.56
380.09	182.56
380.28	217.67
380.48	184.90
380.68	117.03
380.87	196.60
381.07	95.96
381.26	138.09
381.46	56.17
381.65	102.98
381.85	39.79
382.04	35.11
382.24	18.72
382.43	0.00
382.63	32.77
382.83	0.00
383.02	23.41
383.22	98.30
383.41	53.83
383.61	4.68
383.80	117.03
384.00	126.39
384.19	133.41
384.39	234.05
384.58	177.88
384.78	182.56
384.97	117.03
385.17	154.48
385.36	184.90
385.56	161.50
385.75	91.28
385.95	205.97
386.14	220.01
386.34	269.16
386.53	196.60
386.72	154.48
386.92	182.56
387.11	67.88
387.31	234.05
387.50	201.29
387.70	124.05
387.89	140.43
388.09	194.26
388.28	201.29
388.48	280.86
388.67	273.84
388.86	318.31
389.06	367.46
389.25	297.25
389.45	362.78
389.64	332.36
389.84	376.83
390.03	271.50
390.22	290.23
390.42	315.97
390.61	322.99
390.81	346.40
391.00	482.15
391.19	397.89
391.39	440.02
391.58	304.27
391.78	311.29
391.97	283.20
392.16	264.48
392.36	205.97
392.55	110.01
392.75	32.77
392.94	0.00
393.13	72.56
393.33	0.00
393.52	166.18
393.71	161.50
393.91	231.71
394.10	266.82
394.29	369.80
394.49	381.51
394.68	428.32
394.88	362.78
395.07	543.00
395.26	397.89
395.46	496.19
395.65	367.46
395.84	397.89
396.04	217.67
396.23	100.64
396.42	79.58
396.62	117.03
396.81	102.98
397.00	250.44
397.19	337.04
397.39	451.72
397.58	627.26
397.77	587.47
397.97	641.31
398.16	538.32
398.35	571.09
398.55	718.54
398.74	753.65
398.93	746.63
399.12	631.94
399.32	709.18
399.51	713.86
399.70	748.97
399.90	692.80
400.09	791.10
400.28	779.40
400.47	725.57
400.67	858.98
400.86	774.72
401.05	901.11
401.24	882.38
401.44	875.36
401.63	931.53
401.82	947.92
402.01	833.23
402.21	842.59
402.40	770.04
402.59	844.93
402.78	727.91
402.97	851.96
403.17	793.44
403.36	863.66
403.55	922.17
403.74	896.43
403.93	788.76
404.13	786.42
404.32	819.19
404.51	908.13
404.70	1020.47
404.89	922.17
405.09	866.00
405.28	870.68
405.47	863.66
405.66	866.00
405.85	748.97
406.05	739.61
406.24	868.34
406.43	821.53
406.62	901.11
406.81	891.74
407.00	931.53
407.20	819.19
407.39	826.21
407.58	926.85
407.77	915.15
407.96	1060.26
408.15	1006.43
408.34	964.30
408.54	1041.54
408.73	1025.15
408.92	943.24
409.11	968.98
409.30	894.08
409.49	931.53
409.68	873.02
409.87	809.83
410.07	809.83
410.26	912.81
410.45	947.92
410.64	1090.69
410.83	1090.69
411.02	1027.50
411.21	1053.24
411.40	1100.05
411.59	1097.71
411.78	1086.01
411.98	1163.25
412.17	1034.52
412.36	1207.72
412.55	1074.31
412.74	1088.35
412.93	1095.37
413.12	1020.47
413.31	1144.52
413.50	1207.72
413.69	1238.14
413.88	1224.10
414.07	1078.99
414.26	1118.78
414.45	1139.84
414.64	1242.82
414.83	1240.48
415.02	1125.80
415.22	1163.25
415.41	1158.57
415.60	1235.80
415.79	1275.59
415.98	1263.89
416.17	1188.99
416.36	1390.28
416.55	1266.23
416.74	1177.29
416.93	1235.80
417.12	1205.38
417.31	1130.48
417.50	1181.97
417.69	1238.14
417.88	1114.10
418.07	1308.36
418.26	1207.72
418.45	1174.95
418.64	1299.00
418.83	1313.04
419.02	1212.40
419.21	1352.83
419.39	1111.75
419.58	1074.31
419.77	1125.80
419.96	1132.82
420.15	1273.25
420.34	1249.85
420.53	1369.21
420.72	1420.71
420.91	1322.40
421.10	1390.28
421.29	1345.81
421.48	1252.19
421.67	1465.18
421.86	1366.87
422.05	1277.93
422.24	1050.90
422.43	1022.81
422.61	1128.14
422.80	1296.66
422.99	1198.35
423.18	1263.89
423.37	1282.61
423.56	1238.14
423.75	1142.18
423.94	1359.85
424.13	1130.48
424.32	1359.85
424.50	1196.01
424.69	1242.82
424.88	1200.69
425.07	1198.35
425.26	1167.93
425.45	1217.08
425.64	1217.08
425.83	1188.99
426.01	1238.14
426.20	1357.51
426.39	1296.66
426.58	1104.73
426.77	1109.41
426.96	1006.43
427.15	973.66
427.33	1160.91
427.52	1226.44
427.71	1221.76
427.90	1097.71
428.09	1214.74
428.28	1196.01
428.46	1158.57
428.65	1062.60
428.84	1036.86
429.03	1181.97
429.22	1116.44
429.40	959.62
429.59	896.43
429.78	727.91
429.97	763.01
430.16	837.91
430.34	814.51
430.53	840.25
430.72	772.38
430.91	884.72
431.10	1086.01
431.28	1266.23
431.47	1465.18
431.66	1483.90
431.85	1296.66
432.03	1291.98
432.22	1158.57
432.41	1177.29
432.60	1299.00
432.79	1380.92
432.97	1439.43
433.16	1364.53
433.35	1261.55
433.54	1198.35
433.72	1067.28
433.91	1076.65
434.10	1203.04
434.28	1303.68
434.47	1462.83
434.66	1399.64
434.85	1359.85
435.03	1420.71
435.22	1334.11
435.41	1540.07
435.59	1362.19
435.78	1497.94
435.97	1554.12
436.16	1619.65
436.34	1549.43
436.53	1394.96
436.72	1413.68
436.90	1444.11
437.09	1301.34
437.28	1362.19
437.46	1432.41
437.65	1425.39
437.84	1277.93
438.02	1130.48
438.21	1083.67
438.40	1231.12
438.58	1444.11
438.77	1406.66
438.96	1380.92
439.14	1516.67
439.33	1593.90
439.52	1621.99
439.70	1610.29
439.89	1390.28
440.08	1467.52
440.26	1401.98
440.45	1444.11
440.63	1617.31
440.82	1640.72
441.01	1579.86
441.19	1593.90
441.38	1713.27
441.57	1701.57
441.75	1762.42
441.94	1755.40
442.12	1797.53
442.31	1764.76
442.50	1755.40
442.68	1680.50
442.87	1657.10
443.05	1720.29
443.24	1713.27
443.43	1729.66
443.61	1776.47
443.80	1820.94
443.98	1631.35
444.17	1650.08
444.35	1863.07
444.54	1865.41
444.73	1755.40
444.91	1680.50
445.10	1640.72
445.28	1577.52
445.47	1556.46
445.65	1432.41
445.84	1640.72
446.02	1685.19
446.21	1713.27
446.39	1715.61
446.58	1626.67
446.77	1781.15
446.95	1734.34
447.14	1806.89
447.32	1933.28
447.51	1811.57
447.69	1605.61
447.88	1750.72
448.06	1764.76
448.25	1872.43
448.43	1827.96
448.62	1727.32
448.80	1870.09
448.99	1799.87
449.17	1762.42
449.36	1696.89
449.54	1804.55
449.73	1863.07
449.91	1893.49
450.10	1956.69
450.28	2017.54
450.46	1987.11
450.65	1923.92
450.83	1907.54
451.02	1930.94
451.20	1987.11
451.39	1867.75
451.57	1961.37
451.76	1923.92
451.94	1952.01
452.13	1961.37
452.31	1717.95
452.49	1626.67
452.68	1696.89
452.86	1732.00
453.05	1734.34
453.23	1778.81
453.42	1881.79
453.60	1778.81
453.78	1867.75
453.97	1823.28
454.15	1870.09
454.34	1886.47
454.52	1827.96
454.70	1923.92
454.89	1694.55
455.07	1806.89
455.26	1900.52
455.44	1881.79
455.62	1989.46
455.81	1895.83
455.99	1961.37
456.17	2010.52
456.36	1930.94
456.54	1980.09
456.73	1926.26
456.91	1954.35
457.09	2052.65
457.28	2211.81
457.46	1973.07
457.64	1973.07
457.83	1909.88
458.01	1834.98
458.19	1811.57
458.38	1921.58
458.56	2080.74
458.74	2012.86
458.93	1870.09
459.11	1949.67
459.29	1921.58
459.48	1893.49
459.66	1912.22
459.84	1921.58
460.03	1961.37
460.21	1923.92
460.39	2003.50
460.57	2071.37
460.76	2008.18
460.94	2167.34
461.12	1966.05
461.31	2038.61
461.49	2052.65
461.67	2026.90
461.85	2040.95
462.04	2036.27
462.22	2125.21
462.40	2183.72
462.59	2106.48
462.77	2136.91
462.95	2127.55
463.13	2036.27
463.32	2026.90
463.50	2062.01
463.68	2080.74
463.86	2223.51
464.05	2003.50
464.23	1930.94
464.41	1893.49
464.59	1870.09
464.78	1956.69
464.96	1994.14
465.14	1886.47
465.32	2066.69
465.50	2062.01
465.69	2174.36
465.87	2045.63
466.05	2029.24
466.23	1792.85
466.41	1783.49
466.60	1923.92
466.78	1933.28
466.96	1947.33
467.14	1982.43
467.32	1884.13
467.51	2026.90
467.69	2015.20
467.87	1895.83
468.05	2010.52
468.23	1959.03
468.41	1916.90
468.60	1863.07
468.78	1940.30
468.96	1930.94
469.14	2010.52
469.32	2050.31
469.50	1891.15
469.69	1959.03
469.87	1921.58
470.05	1893.49
470.23	1923.92
470.41	1881.79
470.59	2054.99
470.77	1916.90
470.95	2012.86
471.14	2038.61
471.32	1930.94
471.50	2125.21
471.68	2172.02
471.86	2232.87
472.04	2172.02
472.22	2179.04
472.40	2010.52
472.58	1966.05
472.77	2090.10
472.95	1994.14
473.13	2080.74
473.31	1907.54
473.49	2167.34
473.67	2200.10
473.85	2148.61
474.03	2193.08
474.21	2190.74
474.39	2282.02
474.57	2251.60
474.75	2172.02
474.93	2319.47
475.12	2167.34
475.30	2153.29
475.48	2026.90
475.66	2162.66
475.84	2132.23
476.02	2017.54
476.20	2026.90
476.38	2172.02
476.56	2267.98
476.74	2239.89
476.92	2209.47
477.10	2284.36
477.28	2303.09
477.46	2361.60
477.64	2284.36
477.82	2326.49
478.00	2445.86
478.18	2370.96
478.36	2408.41
478.54	2394.37
478.72	2279.68
478.90	2422.45
479.08	2609.70
479.26	2455.22
479.44	2518.42
479.62	2363.94
479.80	2569.91
479.98	2476.29
480.16	2569.91
480.34	2562.89
480.52	2546.50
480.70	2590.97
480.88	2551.18
481.06	2708.00
481.24	2628.42
481.41	2670.55
481.59	2794.60
481.77	2808.64
481.95	2700.98
482.13	2640.12
482.31	2684.59
482.49	2743.11
482.67	2775.88
482.85	2750.13
483.03	2834.39
483.21	2752.47
483.39	2752.47
483.57	2703.32
483.74	2768.85
483.92	2822.69
484.10	2874.18
484.28	2911.63
484.46	2829.71
484.64	2818.00
484.82	2806.30
485.00	2651.83
485.18	2722.04
485.35	2651.83
485.53	2429.48
485.71	2193.08
485.89	2083.08
486.07	2260.96
486.25	2450.54
486.43	2551.18
486.61	2572.25
486.78	2644.81
486.96	2705.66
487.14	2902.26
487.32	2878.86
487.50	2820.35
487.68	3084.83
487.85	3038.02
488.03	3052.06
488.21	2967.80
488.39	3052.06
488.57	2923.33
488.75	2935.03
488.92	3047.38
489.10	3236.96
489.28	3309.52
489.46	3384.41
489.64	3419.52
489.81	3447.61
489.99	3492.08
490.17	3480.38
490.35	3400.80
490.53	3379.73
490.70	3403.14
490.88	3405.48
491.06	3309.52
491.24	3433.57
491.41	3398.46
491.59	3089.51
491.77	2958.44
491.95	3119.93
492.13	3229.94
492.30	3351.65
492.48	3501.44
492.66	3585.70
492.84	3588.04
493.01	3496.76
493.19	3473.36
493.37	3386.76
493.54	3297.81
493.72	3611.45
493.90	3524.85
494.08	3744.86
494.25	3648.90
494.43	3889.97
494.61	3702.73
494.79	3871.25
494.96	3946.14
495.14	3822.09
495.32	3520.17
495.49	3562.30
495.67	3653.58
495.85	3833.80
496.02	3901.67
496.20	3880.61
496.38	3772.94
496.55	3794.01
496.73	3896.99
496.91	3899.33
497.09	3967.21
497.26	4002.32
497.44	3990.61
497.62	3765.92
497.79	3609.11
497.97	3424.20
498.14	3555.27
498.32	3819.75
498.50	3815.07
498.67	3948.48
498.85	3971.89
499.03	3829.12
499.20	3882.95
499.38	3887.63
499.56	3709.75
499.73	3777.62
499.91	3833.80
500.08	3674.64
500.26	3616.13
500.44	3578.68
500.61	3789.33
500.79	3723.79
500.97	3655.92
501.14	3735.50
501.32	3742.52
501.49	3693.37
501.67	3698.05
501.84	3763.58
502.02	3868.91
502.20	3859.54
502.37	3852.52
502.55	3730.81
502.72	3899.33
502.90	4025.72
503.07	3932.10
503.25	3981.25
503.43	3779.97
503.60	3735.50
503.78	3592.72
503.95	3660.60
504.13	3819.75
504.30	4051.47
504.48	3983.59
504.65	3889.97
504.83	3765.92
505.01	3896.99
505.18	4145.09
505.36	4079.55
505.53	4257.43
505.71	4140.41
505.88	4067.85
506.06	4070.19
506.23	4210.62
506.41	4025.72
506.58	4056.15
506.76	4212.96
506.93	4011.68
507.11	3911.04
507.28	4011.68
507.46	3995.29
507.63	3761.24
507.81	3737.84
507.98	3777.62
508.16	4039.76
508.33	3875.93
508.50	4201.26
508.68	4135.73
508.85	4180.20
509.03	4327.65
509.20	4241.05
509.38	3983.59
509.55	4014.02
509.73	3906.35
509.90	4044.45
510.08	4060.83
510.25	4011.68
510.42	4138.07
510.60	3995.29
510.77	3899.33
510.95	3985.93
511.12	4149.77
511.30	4201.26
511.47	4306.59
511.64	4154.45
511.82	4191.90
511.99	4058.49
512.17	4018.70
512.34	3852.52
512.51	3847.84
512.69	4016.36
512.86	4032.74
513.04	4142.75
513.21	4060.83
513.38	4046.79
513.56	3857.20
513.73	3770.60
513.90	3871.25
514.08	3847.84
514.25	3981.25
514.43	4065.51
514.60	4028.06
514.77	3997.64
514.95	4189.56
515.12	3988.27
515.29	4046.79
515.47	4234.03
515.64	4203.60
515.81	4016.36
515.99	3915.72
516.16	3669.96
516.33	3555.27
516.51	3304.84
516.68	3232.28
516.85	3236.96
517.03	3382.07
517.20	3588.04
517.37	3868.91
517.54	3978.91
517.72	3822.09
517.89	3538.89
518.06	3272.07
518.24	3302.50
518.41	3421.86
518.58	3763.58
518.75	3906.35
518.93	3730.81
519.10	3719.11
519.27	3896.99
519.45	3974.23
519.62	4140.41
519.79	4126.36
519.96	3971.89
520.14	3913.38
520.31	3850.18
520.48	3742.52
520.65	3803.37
520.83	4037.42
521.00	4067.85
521.17	4163.81
521.34	3971.89
521.52	4037.42
521.69	4067.85
521.86	4184.88
522.03	4007.00
522.20	4042.11
522.38	3854.86
522.55	3719.11
522.72	3812.73
522.89	3782.31
523.07	3805.71
523.24	3999.98
523.41	3962.53
523.58	4053.81
523.75	4297.22
523.92	4322.97
524.10	4060.83
524.27	4149.77
524.44	4187.22
524.61	4023.38
524.78	4084.23
524.96	4102.96
525.13	3971.89
525.30	4056.15
525.47	4182.54
525.64	4145.09
525.81	4056.15
525.98	3824.44
526.16	3609.11
526.33	3566.98
526.50	3550.59
526.67	3499.10
526.84	3527.19
527.01	3669.96
527.18	3768.26
527.36	3955.51
527.53	3864.22
527.70	4131.05
527.87	4042.11
528.04	3948.48
528.21	3983.59
528.38	4163.81
528.55	4208.28
528.72	4266.80
528.89	4201.26
529.07	4184.88
529.24	4035.08
529.41	3990.61
529.58	4023.38
529.75	3964.87
529.92	3948.48
530.09	4093.60
530.26	4166.15
530.43	4236.37
530.60	4227.01
530.77	4231.69
530.94	4390.84
531.11	4112.32
531.28	4077.21
531.46	4053.81
531.63	4088.92
531.80	4093.60
531.97	3964.87
532.14	3854.86
532.31	3754.22
532.48	3728.47
532.65	3782.31
532.82	3726.13
532.99	3918.06
533.16	3882.95
533.33	4163.81
533.50	3962.53
533.67	3981.25
533.84	4014.02
534.01	3964.87
534.18	3908.69
534.35	4025.72
534.52	3981.25
534.69	3976.57
534.86	3995.29
535.03	4044.45
535.20	4177.86
535.37	4294.88
535.54	4159.13
535.71	4152.11
535.88	4126.36
536.05	3995.29
536.22	3988.27
536.38	3988.27
536.55	3786.99
536.72	3716.77
536.89	3719.11
537.06	3857.20
537.23	3974.23
537.40	4035.08
537.57	4042.11
537.74	3885.29
537.91	3964.87
538.08	3896.99
538.25	3934.44
538.42	4079.55
538.59	3911.04
538.75	3953.16
538.92	3850.18
539.09	3796.35
539.26	3676.98
539.43	3794.01
539.60	3749.54
539.77	3772.94
539.94	3679.32
540.11	3639.53
540.28	3557.61
540.44	3623.15
540.61	3585.70
540.78	3700.39
540.95	3810.39
541.12	3889.97
541.29	4004.66
541.46	3983.59
541.62	3990.61
541.79	3838.48
541.96	3719.11
542.13	3667.62
542.30	3908.69
542.47	3794.01
542.63	3831.46
542.80	3754.22
542.97	3754.22
543.14	3744.86
543.31	3719.11
543.48	3798.69
543.64	4042.11
543.81	3922.74
543.98	4063.17
544.15	3901.67
544.32	3815.07
544.48	3906.35
544.65	3857.20
544.82	3974.23
544.99	3838.48
545.16	3829.12
545.32	3929.76
545.49	3894.65
545.66	3999.98
545.83	3866.56
546.00	3885.29
546.16	3864.22
546.33	3791.67
546.50	3908.69
546.67	3847.84
546.83	3772.94
547.00	3864.22
547.17	3639.53
547.34	3688.68
547.50	3707.41
547.67	3662.94
547.84	3597.40
548.00	3641.87
548.17	3763.58
548.34	3875.93
548.51	3784.65
548.67	3737.84
548.84	3805.71
549.01	3854.86
549.18	3892.31
549.34	3700.39
549.51	3721.45
549.68	3613.79
549.84	3768.26
550.01	3660.60
550.18	3672.30
550.34	3721.45
550.51	3726.13
550.68	3665.28
550.84	3630.17
551.01	3667.62
551.18	3501.44
551.34	3672.30
551.51	3719.11
551.68	3721.45
551.84	3695.71
552.01	3709.75
552.18	3740.18
552.34	3550.59
552.51	3604.42
552.68	3513.14
552.84	3564.64
553.01	3583.36
553.18	3630.17
553.34	3606.77
553.51	3684.00
553.67	3627.83
553.84	3620.81
554.01	3723.79
554.17	3658.26
554.34	3602.08
554.51	3698.05
554.67	3693.37
554.84	3604.42
555.00	3681.66
555.17	3679.32
555.33	3641.87
555.50	3529.53
555.67	3548.25
555.83	3618.47
556.00	3508.46
556.16	3559.95
556.33	3454.63
556.50	3548.25
556.66	3463.99
556.83	3459.31
556.99	3496.76
557.16	3538.89
557.32	3543.57
557.49	3609.11
557.65	3531.87
557.82	3384.41
557.98	3534.21
558.15	3412.50
558.32	3393.78
558.48	3201.85
558.65	3225.26
558.81	3318.88
558.98	3330.58
559.14	3328.24
559.31	3337.60
559.47	3314.20
559.64	3194.83
559.80	3213.56
559.97	3361.01
560.13	3288.45
560.30	3487.40
560.46	3478.04
560.63	3543.57
560.79	3569.32
560.96	3466.33
561.12	3361.01
561.29	3201.85
561.45	3279.09
561.61	3335.26
561.78	3410.16
561.94	3370.37
562.11	3541.23
562.27	3279.09
562.44	3332.92
562.60	3368.03
562.77	3503.78
562.93	3400.80
563.10	3496.76
563.26	3398.46
563.42	3311.86
563.59	3351.65
563.75	3379.73
563.92	3391.44
564.08	3304.84
564.24	3318.88
564.41	3440.59
564.57	3349.31
564.74	3330.58
564.90	3330.58
565.07	3232.28
565.23	3166.74
565.39	3187.81
565.56	3164.40
565.72	3117.59
565.88	3124.62
566.05	3194.83
566.21	3159.72
566.38	3162.06
566.54	3255.69
566.70	3297.81
566.87	3274.41
567.03	3337.60
567.19	3452.29
567.36	3241.64
567.52	3262.71
567.68	3225.26
567.85	3176.11
568.01	3208.87
568.17	3162.06
568.34	3059.08
568.50	3059.08
568.66	3124.62
568.83	3117.59
568.99	3260.37
569.15	3253.34
569.32	3225.26
569.48	3082.49
569.64	3091.85
569.81	3126.96
569.97	2995.89
570.13	3169.09
570.30	3026.31
570.46	2785.24
570.62	2963.12
570.78	2780.56
570.95	2988.86
571.11	2986.52
571.27	3028.65
571.43	3035.67
571.60	3082.49
571.76	3117.59
571.92	3136.32
572.09	2998.23
572.25	3164.40
572.41	3068.44
572.57	3143.34
572.74	3129.30
572.90	3103.55
573.06	3066.10
573.22	3049.72
573.38	3169.09
573.55	2967.80
573.71	3098.87
573.87	3082.49
574.03	3019.29
574.20	3098.87
574.36	2949.08
574.52	2979.50
574.68	2979.50
574.84	3059.08
575.01	3035.67
575.17	2864.82
575.33	2857.79
575.49	2869.50
575.65	2829.71
575.82	3056.74
575.98	2857.79
576.14	2946.73
576.30	2953.76
576.46	2906.95
576.62	3056.74
576.79	2885.88
576.95	2937.37
577.11	2981.84
577.27	2967.80
577.43	2895.24
577.59	2864.82
577.75	2899.92
577.92	2876.52
578.08	2773.53
578.24	2759.49
578.40	2677.57
578.56	2782.90
578.72	2848.43
578.88	2822.69
579.04	2881.20
579.21	2848.43
579.37	2972.48
579.53	2925.67
579.69	2942.05
579.85	2803.96
580.01	2906.95
580.17	2834.39
580.33	2899.92
580.49	2857.79
580.65	2881.20
580.82	2977.16
580.98	2892.90
581.14	2946.73
581.30	2913.97
581.46	2986.52
581.62	3021.63
581.78	2925.67
581.94	3070.78
582.10	3016.95
582.26	2888.22
582.42	2836.73
582.58	2942.05
582.74	2867.16
582.90	2878.86
583.06	2848.43
583.22	2857.79
583.38	2787.58
583.54	2752.47
583.70	2953.76
583.86	2920.99
584.02	2871.84
584.18	2806.30
584.34	2825.03
584.50	2862.48
584.66	2815.66
584.82	2794.60
584.98	2761.83
585.14	2677.57
585.30	2583.95
585.46	2600.34
585.62	2736.09
585.78	2750.13
585.94	2792.26
586.10	2605.02
586.26	2642.46
586.42	2766.51
586.58	2768.85
586.74	2778.22
586.90	2832.05
587.06	2686.94
587.22	2803.96
587.38	2806.30
587.54	2633.10
587.70	2628.42
587.86	2691.62
588.02	2761.83
588.18	2626.08
588.34	2499.69
588.49	2406.07
588.65	2136.91
588.81	2153.29
588.97	2275.00
589.13	2150.95
589.29	2235.21
589.45	2270.32
589.61	2303.09
589.77	2443.52
589.93	2607.36
590.08	2572.25
590.24	2597.99
590.40	2537.14
590.56	2530.12
590.72	2586.29
590.88	2579.27
591.04	2448.20
591.20	2466.92
591.35	2527.78
591.51	2583.95
591.67	2516.08
591.83	2565.23
591.99	2466.92
592.15	2490.33
592.31	2525.44
592.46	2647.15
592.62	2574.59
592.78	2600.34
592.94	2499.69
593.10	2551.18
593.26	2527.78
593.41	2490.33
593.57	2544.16
593.73	2499.69
593.89	2490.33
594.05	2513.74
594.20	2335.85
594.36	2502.03
594.52	2359.26
594.68	2338.20
594.84	2335.85
594.99	2483.31
595.15	2370.96
595.31	2420.11
595.47	2457.56
595.62	2593.31
595.78	2520.76
595.94	2462.24
596.10	2490.33
596.25	2532.46
596.41	2403.73
596.57	2455.22
596.73	2331.17
596.88	2370.96
597.04	2385.01
597.20	2223.51
597.36	2352.24
597.51	2338.20
597.67	2392.03
597.83	2399.05
597.99	2326.49
598.14	2267.98
598.30	2345.22
598.46	2331.17
598.61	2457.56
598.77	2382.67
598.93	2317.13
599.09	2324.15
599.24	2478.63
599.40	2368.62
