SpectraSuite Data File
++++++++++++++++++++++++++++++++++++
Date: Mon Oct 07 14:53:27 GMT-05:00 2013
User: price-jones
Dark Spectrum Present: No
Reference Spectrum Present: No
Number of Sampled Component Spectra: 1
Spectrometers: USB2+H05261
Integration Time (usec): 100000 (USB2+H05261)
Spectra Averaged: 1 (USB2+H05261)
Boxcar Smoothing: 0 (USB2+H05261)
Correct for Electrical Dark: No (USB2+H05261)
Strobe/Lamp Enabled: No (USB2+H05261)
Correct for Detector Non-linearity: No (USB2+H05261)
Correct for Stray Light: No (USB2+H05261)
Number of Pixels in Processed Spectrum: 2048
>>>>>Begin Processed Spectral Data<<<<<
365.73	0.00
365.92	0.00
366.12	0.00
366.32	0.00
366.52	0.00
366.72	0.00
366.91	0.00
367.11	0.00
367.31	0.00
367.51	0.00
367.70	0.00
367.90	0.00
368.10	0.00
368.30	0.00
368.49	0.00
368.69	0.00
368.89	0.00
369.09	0.00
369.28	0.00
369.48	0.00
369.68	0.00
369.87	0.00
370.07	0.00
370.27	0.00
370.47	545.34
370.66	3265.05
370.86	4028.06
371.06	4269.14
371.25	4346.37
371.45	3904.01
371.65	3407.82
371.84	3279.09
372.04	3410.16
372.24	3845.50
372.44	3988.27
372.63	4070.19
372.83	3620.81
373.03	3190.15
373.22	3023.97
373.42	3070.78
373.62	3639.53
373.81	4140.41
374.01	3999.98
374.21	3564.64
374.40	3309.52
374.60	3456.97
374.79	4051.47
374.99	4496.17
375.19	4887.04
375.38	4835.55
375.58	4538.30
375.78	4566.39
375.97	4568.73
376.17	4636.60
376.37	4676.39
376.56	4840.23
376.76	5111.73
376.95	5291.95
377.15	5790.49
377.35	6052.63
377.54	6340.51
377.74	6523.07
377.93	6450.52
378.13	6284.34
378.33	5834.96
378.52	5561.11
378.72	5401.96
378.91	5256.84
379.11	5020.45
379.31	4950.23
379.50	4826.18
379.70	5350.46
379.89	5748.36
380.09	6101.78
380.28	6464.56
380.48	6438.81
380.68	6345.19
380.87	6277.32
381.07	5722.61
381.26	5198.33
381.46	4973.64
381.65	4901.08
381.85	4652.98
382.04	4400.21
382.24	4128.70
382.43	3896.99
382.63	3908.69
382.83	3843.16
383.02	3831.46
383.22	4011.68
383.41	3967.21
383.61	4203.60
383.80	4662.35
384.00	5331.74
384.19	5996.45
384.39	6361.58
384.58	6216.46
384.78	6202.42
384.97	6228.17
385.17	5832.62
385.36	5427.70
385.56	5301.31
385.75	5392.59
385.95	6118.16
386.14	6518.39
386.34	6619.04
386.53	6181.35
386.72	5914.53
386.92	5912.19
387.11	6059.65
387.31	6417.75
387.50	6331.15
387.70	6136.88
387.89	5984.75
388.09	6162.63
388.28	6174.33
388.48	6317.11
388.67	6633.08
388.86	7449.93
389.06	7777.60
389.25	8376.78
389.45	8657.64
389.64	8500.83
389.84	8341.67
390.03	7981.23
390.22	8320.60
390.42	8428.27
390.61	8872.97
390.81	9582.15
391.00	9858.34
391.19	9757.69
391.39	9221.71
391.58	8912.76
391.78	8264.43
391.97	8112.30
392.16	7576.31
392.36	7019.27
392.55	5600.90
392.75	4362.76
392.94	3712.09
393.13	3522.51
393.33	3988.27
393.52	5320.04
393.71	6619.04
393.91	7492.05
394.10	8006.97
394.29	8772.33
394.49	9420.66
394.68	10031.54
394.88	10253.89
395.07	10684.55
395.26	10244.52
395.46	10120.48
395.65	9837.27
395.84	8561.68
396.04	7094.16
396.23	5893.47
396.42	4894.06
396.62	4730.22
396.81	5317.70
397.00	6810.96
397.19	8786.37
397.39	10256.23
397.58	11562.25
397.77	12552.29
397.97	12842.52
398.16	12933.80
398.35	13418.29
398.55	13958.96
398.74	14253.86
398.93	14595.58
399.12	14553.45
399.32	13895.76
399.51	14129.81
399.70	15185.40
399.90	14946.66
400.09	15140.93
400.28	14895.17
400.47	14920.92
400.67	15672.23
400.86	15812.66
401.05	16198.85
401.24	16411.84
401.44	16545.25
401.63	16620.14
401.82	16526.52
402.01	16545.25
402.21	16624.83
402.40	16847.18
402.59	16105.23
402.78	15609.03
402.97	15192.42
403.17	15548.18
403.36	16629.51
403.55	17371.46
403.74	17638.28
403.93	17025.06
404.13	15466.26
404.32	15019.22
404.51	15899.26
404.70	17011.01
404.89	17130.38
405.09	17018.04
405.28	16402.47
405.47	16119.27
405.66	16514.82
405.85	15992.88
406.05	15400.72
406.24	15545.84
406.43	16339.28
406.62	17139.74
406.81	17039.10
407.00	16360.34
407.20	15861.81
407.39	16318.22
407.58	16901.01
407.77	17380.82
407.96	18204.69
408.15	18263.20
408.34	18604.92
408.54	19140.90
408.73	19447.51
408.92	19220.48
409.11	18651.73
409.30	17820.84
409.49	16662.27
409.68	15534.14
409.87	15061.35
410.07	16079.48
410.26	17116.34
410.45	18607.26
410.64	18623.64
410.83	19178.35
411.02	19906.26
411.21	20596.71
411.40	20601.40
411.59	20156.69
411.78	20276.06
411.98	20020.94
412.17	20594.37
412.36	19941.36
412.55	20056.05
412.74	19777.53
412.93	19346.87
413.12	19381.98
413.31	21221.64
413.50	21326.96
413.69	21778.68
413.88	21113.97
414.07	20341.60
414.26	20783.96
414.45	21158.44
414.64	21546.97
414.83	21869.97
415.02	20875.24
415.22	21036.74
415.41	21544.63
415.60	22333.39
415.79	23005.13
415.98	23548.13
416.17	23651.11
416.36	23035.55
416.55	23009.81
416.74	22148.49
416.93	21212.28
417.12	21427.60
417.31	21472.07
417.50	22199.98
417.69	22546.38
417.88	22511.27
418.07	22410.63
418.26	21797.41
418.45	22263.18
418.64	23185.35
418.83	23861.76
419.02	23311.74
419.21	23131.51
419.39	22345.09
419.58	21111.63
419.77	21467.39
419.96	22253.81
420.15	23388.97
420.34	24140.29
420.53	24950.11
420.72	25582.06
420.91	25406.52
421.10	24943.09
421.29	24577.97
421.48	23934.32
421.67	25160.76
421.86	24472.64
422.05	22918.53
422.24	20496.07
422.43	20112.22
422.61	22150.83
422.80	23910.91
422.99	24144.97
423.18	23171.30
423.37	22965.34
423.56	22972.36
423.75	23363.23
423.94	23679.20
424.13	22595.53
424.32	22895.12
424.50	22661.07
424.69	22410.63
424.88	22504.25
425.07	22403.61
425.26	22270.20
425.45	22288.92
425.64	21713.15
425.83	21944.86
426.01	23119.81
426.20	23541.11
426.39	23548.13
426.58	21741.24
426.77	20168.40
426.96	19611.35
427.15	20049.03
427.33	21748.26
427.52	22431.69
427.71	22632.98
427.90	22544.04
428.09	22459.78
428.28	21790.39
428.46	21399.52
428.65	20673.95
428.84	21245.04
429.03	21862.94
429.22	20533.52
429.40	19522.41
429.59	17483.80
429.78	15520.09
429.97	16058.42
430.16	16006.92
430.34	16184.80
430.53	15679.25
430.72	16442.26
430.91	18125.11
431.10	21010.99
431.28	24659.88
431.47	26721.90
431.66	27470.87
431.85	24922.02
432.03	22892.78
432.22	21432.29
432.41	22686.81
432.60	25383.11
432.79	25909.73
432.97	26780.41
433.16	26082.93
433.35	23941.34
433.54	21364.41
433.72	20123.93
433.91	20690.34
434.10	23377.27
434.28	24514.77
434.47	26195.28
434.66	26244.43
434.85	25263.74
435.03	24924.36
435.22	25366.73
435.41	27566.83
435.59	27171.28
435.78	27714.28
435.97	28231.54
436.16	29041.37
436.34	27964.72
436.53	27260.22
436.72	27641.73
436.90	25944.84
437.09	26206.98
437.28	25757.60
437.46	26679.77
437.65	26319.32
437.84	24922.02
438.02	22408.29
438.21	22782.77
438.40	23859.42
438.58	25905.05
438.77	26492.52
438.96	26611.89
439.14	28158.99
439.33	28449.21
439.52	28781.57
439.70	28481.98
439.89	27721.30
440.08	26888.07
440.26	26600.19
440.45	27814.93
440.63	29013.28
440.82	31278.92
441.01	30883.37
441.19	30410.58
441.38	30906.77
441.57	32362.59
441.75	32479.61
441.94	32779.20
442.12	32039.59
442.31	32383.65
442.50	32556.85
442.68	32393.01
442.87	32348.54
443.05	31384.24
443.24	31644.04
443.43	32638.77
443.61	33418.17
443.80	33675.63
443.98	31630.00
444.17	31770.43
444.35	33312.84
444.54	34078.20
444.73	33834.78
444.91	32055.98
445.10	31087.00
445.28	29855.87
445.47	29340.96
445.65	29621.82
445.84	30431.65
446.02	31604.25
446.21	32102.79
446.39	32781.54
446.58	32453.87
446.77	32933.68
446.95	32826.01
447.14	34227.99
447.32	34864.62
447.51	33846.49
447.69	32732.39
447.88	32290.03
448.06	32418.76
448.25	33507.11
448.43	33633.50
448.62	33193.48
448.80	32919.63
448.99	33146.67
449.17	33582.01
449.36	33209.86
449.54	34415.24
449.73	34998.03
449.91	35143.14
450.10	36659.81
450.28	37237.92
450.46	36779.18
450.65	36477.25
450.83	36348.52
451.02	35768.07
451.20	35461.46
451.39	34998.03
451.57	35477.84
451.76	35515.29
451.94	35328.05
452.13	34593.12
452.31	32861.12
452.49	31665.11
452.68	31852.35
452.86	31915.54
453.05	32044.27
453.23	33296.46
453.42	33848.83
453.60	34897.39
453.78	35414.65
453.97	34859.94
454.15	34881.00
454.34	34157.78
454.52	34244.38
454.70	33752.87
454.89	33780.95
455.07	33963.51
455.26	34611.84
455.44	35997.44
455.62	36418.74
455.81	36252.56
455.99	36683.22
456.17	36020.84
456.36	35974.03
456.54	37067.06
456.73	37191.11
456.91	37422.83
457.09	37682.62
457.28	38586.07
457.46	37165.37
457.64	36907.91
457.83	35828.92
458.01	35161.87
458.19	35887.43
458.38	35639.34
458.56	37174.73
458.74	37120.90
458.93	36362.56
459.11	36205.75
459.29	35723.60
459.48	36833.01
459.66	35826.58
459.84	36758.11
460.03	36982.80
460.21	36697.26
460.39	37989.24
460.57	37783.27
460.76	38234.99
460.94	38405.85
461.12	37731.78
461.31	37785.61
461.49	37469.64
461.67	37982.21
461.85	39199.29
462.04	38740.55
462.22	39194.61
462.40	38199.88
462.59	38286.48
462.77	38565.01
462.95	38731.18
463.13	38239.67
463.32	37715.39
463.50	37858.17
463.68	37851.14
463.86	37998.60
464.05	37319.84
464.23	36772.16
464.41	36355.54
464.59	35842.96
464.78	37823.06
464.96	37436.87
465.14	37050.68
465.32	38183.50
465.50	38993.32
465.69	39175.89
465.87	38253.72
466.05	37715.39
466.23	36217.45
466.41	35122.08
466.60	36084.04
466.78	36201.07
466.96	36947.70
467.14	37406.44
467.32	37855.82
467.51	37940.08
467.69	36294.69
467.87	37277.71
468.05	37368.99
468.23	38057.11
468.41	37801.99
468.60	37425.17
468.78	38124.99
468.96	37525.81
469.14	37970.51
469.32	38508.83
469.50	37174.73
469.69	37207.50
469.87	36793.22
470.05	36350.86
470.23	36636.41
470.41	36959.40
470.59	37188.77
470.77	37507.08
470.95	37928.38
471.14	38359.04
471.32	38527.56
471.50	40332.11
471.68	40856.39
471.86	41069.38
472.04	41123.21
472.22	41256.62
472.40	39077.58
472.58	38974.60
472.77	38345.00
472.95	39264.83
473.13	40301.68
473.31	39154.82
473.49	39604.20
473.67	40243.17
473.85	40172.96
474.03	41034.27
474.21	41638.13
474.39	41816.01
474.57	42359.02
474.75	42033.68
474.93	41574.94
475.12	41130.23
475.30	41331.52
475.48	41191.09
475.66	41624.09
475.84	41071.72
476.02	40687.87
476.20	40208.06
476.38	40886.82
476.56	42017.30
476.74	42754.57
476.92	43086.92
477.10	43690.78
477.28	44474.86
477.46	44760.40
477.64	45064.67
477.82	45406.39
478.00	45268.30
478.18	44601.25
478.36	44715.93
478.54	44608.27
478.72	44830.62
478.90	46059.40
479.08	46927.74
479.26	47592.45
479.44	47138.39
479.62	47035.41
479.80	46951.15
479.98	47466.06
480.16	47765.65
480.34	46789.65
480.52	47725.86
480.70	47894.38
480.88	47632.24
481.06	48484.20
481.24	48488.88
481.41	49574.89
481.59	50424.50
481.77	49818.30
481.95	49514.03
482.13	49015.50
482.31	49385.30
482.49	50143.64
482.67	49703.62
482.85	50277.05
483.03	50450.25
483.21	50775.58
483.39	50873.88
483.57	50422.16
483.74	49804.26
483.92	50424.50
484.10	50316.84
484.28	51000.27
484.46	51571.36
484.64	51927.13
484.82	50995.59
485.00	50457.27
485.18	50274.71
485.35	48935.92
485.53	46017.27
485.71	41923.68
485.89	41172.36
486.07	43555.03
486.25	46761.56
486.43	49123.16
486.61	49879.16
486.78	49652.12
486.96	49930.65
487.14	51363.06
487.32	51999.68
487.50	52856.32
487.68	53764.45
487.85	54059.35
488.03	54181.06
488.21	53790.19
488.39	53195.70
488.57	52381.19
488.75	52135.43
488.92	53298.68
489.10	55454.31
489.28	56404.57
489.46	56884.38
489.64	56809.48
489.81	56741.61
489.99	56383.51
490.17	56624.58
490.35	56949.92
490.53	56409.25
490.70	55927.10
490.88	55866.25
491.06	56970.98
491.24	56947.57
491.41	56128.39
491.59	54532.14
491.77	54026.59
491.95	54681.94
492.13	55891.99
492.30	56940.55
492.48	57778.46
492.66	58007.84
492.84	58379.98
493.01	57865.06
493.19	57336.10
493.37	57088.01
493.54	56882.04
493.72	57373.55
493.90	58321.47
494.08	58897.24
494.25	59311.52
494.43	59477.69
494.61	59753.88
494.79	59950.48
494.96	59688.34
495.14	59229.60
495.32	58382.32
495.49	57689.52
495.67	58857.45
495.85	59929.42
496.02	60186.88
496.20	60067.51
496.38	59611.10
496.55	59496.42
496.73	60088.57
496.91	60182.19
497.09	60657.32
497.26	60924.14
497.44	60154.11
497.62	59870.90
497.79	59283.43
497.97	58220.83
498.14	58145.93
498.32	59124.27
498.50	60067.51
498.67	60669.03
498.85	60479.44
499.03	60547.32
499.20	60701.79
499.38	60919.46
499.56	60605.83
499.73	60299.22
499.91	59798.35
500.08	59664.94
500.26	58885.54
500.44	59150.02
500.61	59821.75
500.79	59842.82
500.97	59498.76
501.14	59021.29
501.32	58831.71
501.49	59082.14
501.67	59171.08
501.84	59587.70
502.02	60093.25
502.20	60334.33
502.37	60437.31
502.55	60233.69
502.72	60867.97
502.90	61286.93
503.07	61123.09
503.25	60867.97
503.43	59910.69
503.60	59344.28
503.78	58635.10
503.95	59182.79
504.13	60416.25
504.30	61200.33
504.48	61010.74
504.65	60701.79
504.83	60544.98
505.01	61212.03
505.18	61563.11
505.36	62192.72
505.53	62096.75
505.71	62534.43
505.88	62475.92
506.06	61645.03
506.23	61378.21
506.41	61141.81
506.58	61506.94
506.76	61485.87
506.93	61485.87
507.11	60982.66
507.28	61298.63
507.46	60940.53
507.63	60266.45
507.81	60097.94
507.98	60367.10
508.16	61066.92
508.33	61535.02
508.50	61797.16
508.68	61888.45
508.85	62599.97
509.03	62433.79
509.20	62365.91
509.38	61630.99
509.55	60893.72
509.73	61017.77
509.90	61453.11
510.08	61918.87
510.25	61740.99
510.42	61446.08
510.60	61483.53
510.77	61773.76
510.95	62267.61
511.12	62293.36
511.30	62770.83
511.47	62728.70
511.64	62695.93
511.82	62606.99
511.99	61853.34
512.17	61467.15
512.34	61055.21
512.51	61134.79
512.69	61223.73
512.86	61588.86
513.04	61939.94
513.21	61951.64
513.38	61511.62
513.56	61134.79
513.73	60491.15
513.90	60645.62
514.08	60699.45
514.25	61048.19
514.43	61214.37
514.60	61275.22
514.77	61331.40
514.95	61457.79
515.12	61574.81
515.29	61691.84
515.47	62166.97
515.64	62260.59
515.81	61958.66
515.99	61471.83
516.16	60135.38
516.33	58103.80
516.51	56875.02
516.68	56287.54
516.85	55643.90
517.03	56229.03
517.20	58731.06
517.37	60865.63
517.54	61656.73
517.72	61179.26
517.89	59047.04
518.06	56907.79
518.24	57174.61
518.41	59042.35
518.58	60402.21
518.75	60348.37
518.93	60762.65
519.10	60521.57
519.27	61205.01
519.45	61392.25
519.62	61797.16
519.79	62202.08
519.96	62026.54
520.14	61418.00
520.31	60753.29
520.48	60671.37
520.65	61045.85
520.83	61900.15
521.00	62344.85
521.17	61989.09
521.34	61673.12
521.52	61897.81
521.69	62489.96
521.86	62927.64
522.03	62541.45
522.20	61675.46
522.38	60673.71
522.55	60512.21
522.72	60954.57
522.89	61109.05
523.07	61265.86
523.24	61790.14
523.41	62330.81
523.58	62649.12
523.75	62908.92
523.92	62951.05
524.10	62958.07
524.27	62873.81
524.44	62569.54
524.61	62417.41
524.78	62480.60
524.96	62354.21
525.13	62246.55
525.30	62501.67
525.47	62981.48
525.64	62869.13
525.81	62183.35
525.98	61010.74
526.16	59796.01
526.33	58876.18
526.50	58731.06
526.67	58330.83
526.84	59168.74
527.01	59751.54
527.18	60736.90
527.36	61347.78
527.53	62368.26
527.70	62391.66
527.87	61961.00
528.04	61633.33
528.21	62096.75
528.38	62525.07
528.55	63049.35
528.72	63351.28
528.89	63515.12
529.07	63262.34
529.24	62625.71
529.41	61827.59
529.58	61628.65
529.75	61600.56
529.92	62113.14
530.09	62394.00
530.26	62934.66
530.43	63304.47
530.60	63082.12
530.77	63449.58
530.94	63430.86
531.11	63070.42
531.28	62754.44
531.46	62370.60
531.63	62562.52
531.80	62480.60
531.97	62232.50
532.14	61535.02
532.31	60474.76
532.48	60037.08
532.65	59955.16
532.82	60755.63
532.99	61874.40
533.16	62216.12
533.33	62726.36
533.50	62499.33
533.67	61818.23
533.84	61497.58
534.01	61579.49
534.18	61804.19
534.35	62190.37
534.52	61979.73
534.69	62433.79
534.86	62255.91
535.03	62667.84
535.20	63119.57
535.37	63306.81
535.54	63501.07
535.71	63140.63
535.88	62688.91
536.05	62398.68
536.22	61993.77
536.38	61586.52
536.55	61167.56
536.72	60612.85
536.89	60708.82
537.06	61317.35
537.23	62293.36
537.40	62518.05
537.57	62466.56
537.74	62265.27
537.91	62129.52
538.08	62141.22
538.25	62272.29
538.42	62342.51
538.59	62059.30
538.75	61436.72
538.92	61333.74
539.09	61155.86
539.26	61041.17
539.43	60823.50
539.60	61120.75
539.77	61130.11
539.94	60947.55
540.11	60247.73
540.28	59791.33
540.44	60072.19
540.61	60184.54
540.78	60385.82
540.95	60907.76
541.12	61057.56
541.29	61455.45
541.46	61778.44
541.62	61787.80
541.79	61546.73
541.96	60860.95
542.13	61017.77
542.30	61242.46
542.47	61415.66
542.63	61256.50
542.80	60849.25
542.97	61340.76
543.14	60985.00
543.31	60977.98
543.48	61455.45
543.64	62178.67
543.81	62398.68
543.98	62286.34
544.15	61586.52
544.32	61057.56
544.48	61226.07
544.65	61630.99
544.82	62052.28
544.99	61579.49
545.16	61286.93
545.32	60996.70
545.49	61890.79
545.66	62234.84
545.83	61729.29
546.00	61340.76
546.16	60973.30
546.33	61371.19
546.50	61202.67
546.67	61626.31
546.83	61265.86
547.00	61205.01
547.17	60493.49
547.34	60074.53
547.50	59966.87
547.67	60643.28
547.84	60589.45
548.00	60858.61
548.17	61268.20
548.34	61197.99
548.51	61305.65
548.67	61399.27
548.84	61371.19
549.01	61413.32
549.18	61371.19
549.34	61078.62
549.51	61111.39
549.68	61111.39
549.84	60835.20
550.01	60872.65
550.18	60608.17
550.34	60835.20
550.51	60898.40
550.68	60961.59
550.84	60568.38
551.01	60680.73
551.18	60544.98
551.34	60601.15
551.51	61083.30
551.68	61235.44
551.84	61169.90
552.01	61104.37
552.18	61272.88
552.34	60273.48
552.51	60001.97
552.68	60053.47
552.84	60549.66
553.01	60697.11
553.18	60514.55
553.34	60722.86
553.51	60753.29
553.67	60874.99
553.84	60910.10
554.01	60956.91
554.17	60720.52
554.34	60804.78
554.51	60966.27
554.67	61146.50
554.84	61174.58
555.00	60568.38
555.17	60420.93
555.33	60566.04
555.50	60573.06
555.67	60406.89
555.83	60140.07
556.00	60287.52
556.16	60191.56
556.33	59765.58
556.50	59709.41
556.66	59735.15
556.83	59554.93
556.99	59510.46
557.16	59538.55
557.32	59786.64
557.49	60287.52
557.65	60011.34
557.82	60243.05
557.98	59767.92
558.15	59435.56
558.32	58702.98
558.48	58131.89
558.65	58150.61
558.81	58674.89
558.98	58754.47
559.14	59000.22
559.31	59210.87
559.47	59150.02
559.64	58738.08
559.80	58471.26
559.97	58684.25
560.13	58883.20
560.30	59636.85
560.46	60189.22
560.63	60280.50
560.79	60470.08
560.96	59971.55
561.12	59222.58
561.29	58319.13
561.45	58269.98
561.61	58763.83
561.78	58962.78
561.94	58981.50
562.11	59040.01
562.27	58557.86
562.44	59128.95
562.60	59379.39
562.77	59643.87
562.93	59414.50
563.10	59365.35
563.26	58796.60
563.42	59128.95
563.59	58834.05
563.75	58719.36
563.92	58824.68
564.08	58621.06
564.24	58754.47
564.41	59079.80
564.57	58937.03
564.74	58922.99
564.90	58625.74
565.07	58642.12
565.23	58106.14
565.39	57804.21
565.56	57558.45
565.72	57291.63
565.88	57633.35
566.05	57792.51
566.21	58019.54
566.38	58073.37
566.54	58349.56
566.70	58763.83
566.87	58611.70
567.03	58740.42
567.19	58988.52
567.36	58583.61
567.52	58763.83
567.68	58159.97
567.85	57708.25
568.01	57588.88
568.17	57118.43
568.34	57329.08
568.50	57317.38
568.66	57242.48
568.83	57525.69
568.99	57628.67
569.15	57792.51
569.32	57860.38
569.48	57523.35
569.64	57284.61
569.81	56968.64
569.97	57024.81
570.13	56844.59
570.30	56624.58
570.46	56041.79
570.62	55784.33
570.78	55669.64
570.95	55695.39
571.11	56767.35
571.27	56603.52
571.43	56868.00
571.60	57027.15
571.76	57364.19
571.92	57481.22
572.09	57741.02
572.25	57532.71
572.41	57591.22
572.57	57490.58
572.74	57359.51
572.90	57095.03
573.06	57233.12
573.22	57308.02
573.38	57193.33
573.55	57057.58
573.71	57240.14
573.87	57272.91
574.03	57003.75
574.20	57120.77
574.36	56467.76
574.52	56392.87
574.68	56411.59
574.84	56130.73
575.01	55522.19
575.17	55674.32
575.33	56002.00
575.49	56109.66
575.65	56334.35
575.82	55964.55
575.98	55774.97
576.14	56121.37
576.30	56336.69
576.46	56495.85
576.62	56261.80
576.79	56268.82
576.95	56023.06
577.11	55856.88
577.27	56109.66
577.43	56135.41
577.59	55618.15
577.75	55391.12
577.92	55016.63
578.08	54497.03
578.24	54721.72
578.40	55025.99
578.56	55271.75
578.72	55241.32
578.88	55388.78
579.04	55356.01
579.21	55763.26
579.37	55777.31
579.53	55884.97
579.69	55950.51
579.85	55913.06
580.01	55648.58
580.17	55295.16
580.33	55271.75
580.49	55236.64
580.65	55571.34
580.82	55679.00
580.98	55597.09
581.14	55576.02
581.30	55686.03
581.46	55669.64
581.62	55962.21
581.78	55704.75
581.94	56079.24
582.10	55891.99
582.26	56011.36
582.42	55796.03
582.58	55779.65
582.74	55854.54
582.90	56041.79
583.06	55774.97
583.22	55842.84
583.38	55559.64
583.54	55641.56
583.70	55409.84
583.86	55625.17
584.02	55374.73
584.18	55524.53
584.34	55533.89
584.50	55423.89
584.66	55344.31
584.82	54937.05
584.98	54805.98
585.14	54454.90
