SpectraSuite Data File
++++++++++++++++++++++++++++++++++++
Date: Mon Oct 07 14:54:57 GMT-05:00 2013
User: price-jones
Dark Spectrum Present: No
Reference Spectrum Present: No
Number of Sampled Component Spectra: 1
Spectrometers: USB2+H05261
Integration Time (usec): 10000 (USB2+H05261)
Spectra Averaged: 1 (USB2+H05261)
Boxcar Smoothing: 0 (USB2+H05261)
Correct for Electrical Dark: No (USB2+H05261)
Strobe/Lamp Enabled: No (USB2+H05261)
Correct for Detector Non-linearity: No (USB2+H05261)
Correct for Stray Light: No (USB2+H05261)
Number of Pixels in Processed Spectrum: 2048
>>>>>Begin Processed Spectral Data<<<<<
365.73	0.00
365.92	0.00
366.12	0.00
366.32	0.00
366.52	0.00
366.72	0.00
366.91	0.00
367.11	0.00
367.31	0.00
367.51	0.00
367.70	0.00
367.90	0.00
368.10	0.00
368.30	0.00
368.49	0.00
368.69	0.00
368.89	0.00
369.09	0.00
369.28	0.00
369.48	0.00
369.68	0.00
369.87	0.00
370.07	0.00
370.27	0.00
370.47	215.33
370.66	1811.57
370.86	2218.83
371.06	2317.13
371.25	2225.85
371.45	2047.97
371.65	1856.04
371.84	1795.19
372.04	1989.46
372.24	2221.17
372.44	2197.76
372.63	2062.01
372.83	1891.15
373.03	1724.97
373.22	1640.72
373.42	1729.66
373.62	1991.80
373.81	2064.35
374.01	1996.48
374.21	1834.98
374.40	1750.72
374.60	1909.88
374.79	2228.19
374.99	2502.03
375.19	2647.15
375.38	2616.72
375.58	2544.16
375.78	2485.65
375.97	2452.88
376.17	2633.10
376.37	2588.63
376.56	2778.22
376.76	2874.18
376.95	3023.97
377.15	3323.56
377.35	3391.44
377.54	3590.38
377.74	3515.48
377.93	3648.90
378.13	3428.88
378.33	3148.02
378.52	2916.31
378.72	2958.44
378.91	2806.30
379.11	2789.92
379.31	2766.51
379.50	2752.47
379.70	3136.32
379.89	3281.43
380.09	3648.90
380.28	3482.72
380.48	3552.93
380.68	3478.04
380.87	3335.26
381.07	3133.98
381.26	2787.58
381.46	2562.89
381.65	2602.68
381.85	2478.63
382.04	2417.77
382.24	2120.53
382.43	2146.27
382.63	2071.37
382.83	2083.08
383.02	2083.08
383.22	2031.58
383.41	2176.70
383.61	2265.64
383.80	2630.76
384.00	3131.64
384.19	3492.08
384.39	3534.21
384.58	3325.90
384.78	3384.41
384.97	3412.50
385.17	3171.43
385.36	2888.22
385.56	2906.95
385.75	3169.09
385.95	3440.59
386.14	3501.44
386.34	3508.46
386.53	3365.69
386.72	3239.30
386.92	3126.96
387.11	3508.46
387.31	3543.57
387.50	3473.36
387.70	3447.61
387.89	3461.65
388.09	3358.67
388.28	3478.04
388.48	3513.14
388.67	3915.72
388.86	4287.86
389.06	4547.66
389.25	4479.79
389.45	4788.74
389.64	4533.62
389.84	4486.81
390.03	4414.25
390.22	4599.15
390.42	4863.63
390.61	5289.61
390.81	5455.79
391.00	5458.13
391.19	5324.72
391.39	5121.09
391.58	4898.74
391.78	4526.60
391.97	4292.54
392.16	4016.36
392.36	3550.59
392.55	2885.88
392.75	2253.94
392.94	1905.20
393.13	1984.77
393.33	2485.65
393.52	3190.15
393.71	3859.54
393.91	4308.93
394.10	4634.26
394.29	5135.14
394.49	5593.88
394.68	5874.74
394.88	5813.89
395.07	5888.79
395.26	5792.83
395.46	5746.02
395.65	5128.11
395.84	4407.23
396.04	3644.21
396.23	2916.31
396.42	2518.42
396.62	2757.15
396.81	3335.26
397.00	4271.48
397.19	5149.18
397.39	6010.50
397.58	6651.80
397.77	6986.50
397.97	7229.91
398.16	7283.75
398.35	7543.55
398.55	7803.35
398.74	8070.17
398.93	8416.57
399.12	8252.73
399.32	8088.89
399.51	8456.36
399.70	8678.71
399.90	8517.21
400.09	8315.92
400.28	8400.18
400.47	8615.51
400.67	8929.14
400.86	9413.63
401.05	9034.47
401.24	9130.43
401.44	9345.76
401.63	9291.93
401.82	9322.35
402.01	9228.73
402.21	9507.26
402.40	9425.34
402.59	8901.06
402.78	8631.90
402.97	8629.56
403.17	9032.13
403.36	9682.80
403.55	9776.42
403.74	9713.22
403.93	9228.73
404.13	8472.74
404.32	8538.27
404.51	9226.39
404.70	9652.37
404.89	9621.94
405.09	9268.52
405.28	9317.67
405.47	9245.12
405.66	9114.05
405.85	8753.60
406.05	8655.30
406.24	9109.36
406.43	9385.55
406.62	9488.53
406.81	9437.04
407.00	9233.41
407.20	8875.31
407.39	9256.82
407.58	9778.76
407.77	10057.28
407.96	10356.87
408.15	10207.08
408.34	10537.09
408.54	11044.99
408.73	10934.98
408.92	10649.44
409.11	10204.74
409.30	9813.87
409.49	9170.22
409.68	8702.11
409.87	8805.10
410.07	9287.25
410.26	9982.38
410.45	10586.24
410.64	10717.31
410.83	10846.04
411.02	11335.21
411.21	11424.15
411.40	11351.60
411.59	11515.44
411.78	11410.11
411.98	11339.90
412.17	11587.99
412.36	11070.73
412.55	11426.50
412.74	11047.33
412.93	10902.22
413.12	11255.64
413.31	12037.38
413.50	12444.63
413.69	12028.01
413.88	11733.11
414.07	11749.49
414.26	12131.00
414.45	12311.22
414.64	12051.42
414.83	11843.11
415.02	12056.10
415.22	11988.22
415.41	12402.50
415.60	12758.26
415.79	13287.22
415.98	13542.34
416.17	13004.02
416.36	12634.21
416.55	12652.94
416.74	12376.75
416.93	11922.69
417.12	11946.09
417.31	12423.56
417.50	12580.38
417.69	12903.37
417.88	12685.70
418.07	12407.18
418.26	12442.29
418.45	12933.80
418.64	13130.41
418.83	13462.76
419.02	13193.60
419.21	12952.52
419.39	12271.43
419.58	11850.13
419.77	12238.66
419.96	13048.49
420.15	13394.89
420.34	13668.73
420.53	14462.17
420.72	14532.39
420.91	14211.73
421.10	14047.90
421.29	14267.91
421.48	13575.11
421.67	14251.52
421.86	13465.10
422.05	12156.74
422.24	11646.51
422.43	11981.20
422.61	13420.63
422.80	13502.55
422.99	13666.39
423.18	13217.01
423.37	12987.63
423.56	13383.18
423.75	13195.94
423.94	13823.20
424.13	12585.06
424.32	12681.02
424.50	12877.63
424.69	12910.40
424.88	12748.90
425.07	12617.83
425.26	12975.93
425.45	12280.79
425.64	12402.50
425.83	12807.41
426.01	13547.02
426.20	13657.03
426.39	13095.30
426.58	12198.87
426.77	11349.26
426.96	11548.20
427.15	12100.57
427.33	13043.81
427.52	12779.32
427.71	12999.34
427.90	12758.26
428.09	12500.80
428.28	12210.57
428.46	11971.84
428.65	11894.60
428.84	12208.23
429.03	12397.82
429.22	11653.53
429.40	10705.61
429.59	9984.73
429.78	8973.61
429.97	8896.38
430.16	9048.51
430.34	9064.89
430.53	9036.81
430.72	9741.31
430.91	10637.73
431.10	12788.69
431.28	14745.38
431.47	15522.43
431.66	15363.28
431.85	13652.34
432.03	12578.04
432.22	12643.57
432.41	13547.02
432.60	14450.47
432.79	15087.09
432.97	15318.81
433.16	14279.61
433.35	13408.93
433.54	11899.28
433.72	11541.18
433.91	12383.77
434.10	13558.72
434.28	14340.46
434.47	14836.66
434.66	14246.84
434.85	14118.11
435.03	14293.65
435.22	14607.28
435.41	15377.32
435.59	15573.92
435.78	15992.88
435.97	16475.03
436.16	16023.31
436.34	16219.91
436.53	15899.26
436.72	15756.49
436.90	15133.90
437.09	14839.00
437.28	14448.13
437.46	15330.51
437.65	14581.54
437.84	13703.84
438.02	12950.18
438.21	13240.41
438.40	13659.37
438.58	14682.18
438.77	15194.76
438.96	15447.54
439.14	16140.33
439.33	16091.18
439.52	16437.58
439.70	15679.25
439.89	15410.09
440.08	15665.21
440.26	15742.44
440.45	16114.59
440.63	17046.12
440.82	18118.09
441.01	17605.51
441.19	17387.84
441.38	17823.18
441.57	18003.40
441.75	18143.83
441.94	18267.88
442.12	18036.17
442.31	18745.35
442.50	18843.65
442.68	18457.46
442.87	17839.56
443.05	18150.85
443.24	18654.07
443.43	19309.42
443.61	19154.94
443.80	19800.93
443.98	18040.85
444.17	18230.43
444.35	19283.67
444.54	19480.28
444.73	18965.36
444.91	17980.00
445.10	17664.02
445.28	16772.28
445.47	16418.86
445.65	16622.48
445.84	17305.92
446.02	18071.28
446.21	18808.54
446.39	18090.00
446.58	18532.36
446.77	18972.38
446.95	19234.52
447.14	19597.31
447.32	20081.80
447.51	19281.33
447.69	18438.74
447.88	18387.25
448.06	18625.98
448.25	19438.15
448.43	19080.05
448.62	18651.73
448.80	18635.35
448.99	18635.35
449.17	18831.95
449.36	19421.77
449.54	19590.28
449.73	20215.21
449.91	20577.99
450.10	20772.25
450.28	20739.49
450.46	20884.60
450.65	20936.09
450.83	20617.78
451.02	20255.00
451.20	20357.98
451.39	20430.54
451.57	20100.52
451.76	20269.04
451.94	19541.13
452.13	19435.81
452.31	18398.95
452.49	17682.75
452.68	17731.90
452.86	18122.77
453.05	18799.18
453.23	19564.54
453.42	19487.30
453.60	19990.52
453.78	20182.44
453.97	19480.28
454.15	19414.74
454.34	19440.49
454.52	19126.86
454.70	18867.06
454.89	19183.03
455.07	19501.34
455.26	19880.51
455.44	20568.63
455.62	20767.57
455.81	20919.71
455.99	20470.33
456.17	20645.87
456.36	20683.31
456.54	21202.91
456.73	21104.61
456.91	21385.47
457.09	21579.74
457.28	21453.35
457.46	20720.76
457.64	20779.28
457.83	19932.00
458.01	19831.36
458.19	20676.29
458.38	20301.81
458.56	21041.42
458.74	20992.26
458.93	20587.35
459.11	20236.27
459.29	19845.40
459.48	20357.98
459.66	20180.10
459.84	20704.38
460.03	20453.94
460.21	20772.25
460.39	21233.34
460.57	21062.48
460.76	21832.52
460.94	21790.39
461.12	21333.98
461.31	21067.16
461.49	21649.96
461.67	21146.74
461.85	22338.07
462.04	22003.38
462.22	22061.89
462.40	21909.75
462.59	21752.94
462.77	22031.46
462.95	22089.98
463.13	21680.38
463.32	21399.52
463.50	21186.53
463.68	21284.83
463.86	21254.40
464.05	21081.21
464.23	20280.74
464.41	20514.80
464.59	20795.66
464.78	21200.57
464.96	21191.21
465.14	21041.42
465.32	21649.96
465.50	22113.38
465.69	21881.67
465.87	21558.67
466.05	20706.72
466.23	20149.67
466.41	19620.71
466.60	20601.40
466.78	20311.17
466.96	20444.58
467.14	21256.75
467.32	21476.76
467.51	21242.70
467.69	20486.71
467.87	20781.62
468.05	21385.47
468.23	21418.24
468.41	21404.20
468.60	21149.08
468.78	21317.60
468.96	20835.45
469.14	21577.40
469.32	21502.50
469.50	20577.99
469.69	20563.95
469.87	20152.01
470.05	20299.47
470.23	20449.26
470.41	21008.65
470.59	21125.68
470.77	21212.28
470.95	21404.20
471.14	21640.59
471.32	21280.15
471.50	23077.68
471.68	22752.35
471.86	22972.36
472.04	22244.45
472.22	22911.50
472.40	21401.86
472.58	21642.93
472.77	21268.45
472.95	21914.44
473.13	22757.03
473.31	22324.03
473.49	22785.12
473.67	22824.90
473.85	22307.65
474.03	22747.67
474.21	23194.71
474.39	22707.88
474.57	23271.95
474.75	23431.10
474.93	23611.32
475.12	23278.97
475.30	22993.42
475.48	22991.08
475.66	23637.07
475.84	22347.44
476.02	22530.00
476.20	22305.31
476.38	23374.93
476.56	23868.78
476.74	23974.11
476.92	24156.67
477.10	24613.07
477.28	25249.70
477.46	25394.81
477.64	25813.77
477.82	26050.16
478.00	26075.91
478.18	25565.67
478.36	25090.54
478.54	25223.95
478.72	25781.00
478.90	26946.59
479.08	27243.84
479.26	26817.86
479.44	26295.92
479.62	26251.45
479.80	26195.28
479.98	26434.01
480.16	26544.02
480.34	26703.17
480.52	27068.30
480.70	27037.87
480.88	27548.11
481.06	28685.61
481.24	28299.42
481.41	28741.78
481.59	28975.83
481.77	28180.05
481.95	28231.54
482.13	28498.36
482.31	28058.34
482.49	28212.82
482.67	27824.29
482.85	28610.71
483.03	29207.55
483.21	29027.32
483.39	29221.59
483.57	29127.97
483.74	28790.93
483.92	29282.44
484.10	29759.91
484.28	29687.36
484.46	29879.28
484.64	29336.27
484.82	28910.30
485.00	28727.74
485.18	28409.42
485.35	27325.75
485.53	24460.94
485.71	22960.66
485.89	23021.51
486.07	25221.61
486.25	26771.05
486.43	27714.28
486.61	27835.99
486.78	28701.99
486.96	29081.16
487.14	30958.27
487.32	30815.49
487.50	31852.35
487.68	31407.65
487.85	31934.27
488.03	32151.94
488.21	31409.99
488.39	30429.30
488.57	30331.00
488.75	31512.97
488.92	32896.23
489.10	35276.55
489.28	34305.23
489.46	34761.64
489.64	35278.89
489.81	35777.43
489.99	34466.73
490.17	35061.22
490.35	36203.41
490.53	35555.08
490.70	34405.88
490.88	35573.80
491.06	36554.49
491.24	35489.54
491.41	33354.97
491.59	32835.38
491.77	32086.40
491.95	33261.35
492.13	34326.30
492.30	35709.55
492.48	37230.90
492.66	37525.81
492.84	36547.47
493.01	35882.75
493.19	35335.07
493.37	35288.26
493.54	35826.58
493.72	37354.95
493.90	38457.34
494.08	38733.53
494.25	40210.40
494.43	39704.85
494.61	39798.47
494.79	39826.56
494.96	40016.14
495.14	38637.56
495.32	37888.59
495.49	37237.92
495.67	38443.30
495.85	40294.66
496.02	40275.94
496.20	39400.58
496.38	39124.40
496.55	38607.14
496.73	39957.63
496.91	40076.99
497.09	41319.82
497.26	40116.78
497.44	41111.51
497.62	39243.76
497.79	38019.66
497.97	35981.06
498.14	37457.93
498.32	39646.33
498.50	39627.61
498.67	41298.75
498.85	40491.27
499.03	40458.50
499.20	41345.56
499.38	40538.08
499.56	40914.90
499.73	40446.80
499.91	39770.38
500.08	39098.65
500.26	37895.61
500.44	39899.11
500.61	40470.20
500.79	39178.23
500.97	37326.86
501.14	37116.22
501.32	37811.35
501.49	37972.85
501.67	38050.09
501.84	39470.79
502.02	39526.97
502.20	40076.99
502.37	40025.50
502.55	40271.26
502.72	41612.38
502.90	41743.45
503.07	41551.53
503.25	41153.64
503.43	39793.79
503.60	38157.75
503.78	38436.28
503.95	39728.25
504.13	39585.48
504.30	41612.38
504.48	41713.03
504.65	41181.73
504.83	41062.36
505.01	41212.15
505.18	42801.38
505.36	44119.10
505.53	44067.61
505.71	44210.38
505.88	43742.27
506.06	42902.02
506.23	42822.44
506.41	42190.50
506.58	43012.02
506.76	42146.03
506.93	41869.84
507.11	40451.48
507.28	40790.86
507.46	40011.46
507.63	39220.36
507.81	39061.20
507.98	40432.75
508.16	41708.35
508.33	42265.39
508.50	42948.83
508.68	42944.15
508.85	43833.55
509.03	43690.78
509.20	42120.28
509.38	41532.81
509.55	40470.20
509.73	41233.22
509.90	41610.04
510.08	41787.92
510.25	40748.73
510.42	41647.49
510.60	42349.65
510.77	42246.67
510.95	43899.09
511.12	42864.57
511.30	43002.66
511.47	43597.16
511.64	43515.24
511.82	43241.40
511.99	41661.54
512.17	41364.29
512.34	41907.29
512.51	40678.51
512.69	41141.94
512.86	41628.77
513.04	43227.35
513.21	41825.37
513.38	40470.20
513.56	39796.13
513.73	40184.66
513.90	39835.92
514.08	40474.88
514.25	41249.60
514.43	41432.16
514.60	41874.52
514.77	41841.76
514.95	41900.27
515.12	41975.17
515.29	42557.96
515.47	42354.33
515.64	42349.65
515.81	42337.95
515.99	41186.41
516.16	38927.79
516.33	36254.90
516.51	34323.96
516.68	32613.02
516.85	32512.38
517.03	33778.61
517.20	36507.68
517.37	40390.62
517.54	40102.74
517.72	38403.51
517.89	35653.38
518.06	34754.61
518.24	36554.49
518.41	38614.16
518.58	39800.81
518.75	40409.35
518.93	39662.72
519.10	40184.66
519.27	41338.54
519.45	40996.82
519.62	42181.13
519.79	42274.76
519.96	41738.77
520.14	40596.59
520.31	39578.46
520.48	39803.15
520.65	39655.70
520.83	41333.86
521.00	41617.07
521.17	40933.63
521.34	39943.58
521.52	40868.09
521.69	42462.00
521.86	42031.34
522.03	41640.47
522.20	39707.19
522.38	39082.27
522.55	39910.82
522.72	41191.09
522.89	40582.55
523.07	41067.04
523.24	41860.48
523.41	42635.20
523.58	43023.73
523.75	42319.23
523.92	43517.58
524.10	43730.57
524.27	43594.82
524.44	43679.08
524.61	43225.01
524.78	43297.57
524.96	42703.07
525.13	41968.15
525.30	42976.92
525.47	43005.00
525.64	43328.00
525.81	40699.58
525.98	38967.58
526.16	37078.77
526.33	37408.78
526.50	36437.46
526.67	36470.23
526.84	37319.84
527.01	38838.85
527.18	40325.09
527.36	40758.09
527.53	42679.67
527.70	41790.27
527.87	40275.94
528.04	40914.90
528.21	42005.59
528.38	43697.80
528.55	43983.35
528.72	42906.70
528.89	43613.54
529.07	42862.23
529.24	42078.15
529.41	42181.13
529.58	41413.44
529.75	41556.21
529.92	42539.24
530.09	42864.57
530.26	41474.29
530.43	41390.03
530.60	42667.97
530.77	43358.42
530.94	43508.22
531.11	42810.74
531.28	42564.98
531.46	41645.15
531.63	42412.85
531.80	42073.47
531.97	41034.27
532.14	39978.69
532.31	37865.19
532.48	37074.09
532.65	38471.39
532.82	39339.72
532.99	40184.66
533.16	40847.03
533.33	41832.39
533.50	40708.94
533.67	40072.31
533.84	40346.15
534.01	40840.01
534.18	41067.04
534.35	40730.00
534.52	40542.76
534.69	40931.29
534.86	41303.43
535.03	43459.07
535.20	42307.52
535.37	42405.83
535.54	42527.53
535.71	42380.08
535.88	41127.89
536.05	40636.38
536.22	40718.30
536.38	39590.16
536.55	39428.66
536.72	39587.82
536.89	39288.23
537.06	39697.83
537.23	40931.29
537.40	40589.57
537.57	41289.39
537.74	40659.79
537.91	41008.53
538.08	41053.00
538.25	40795.54
538.42	40416.37
538.59	40933.63
538.75	40500.63
538.92	40875.12
539.09	39667.40
539.26	38396.49
539.43	38068.81
539.60	38602.46
539.77	38141.37
539.94	36959.40
540.11	37528.15
540.28	36615.34
540.44	37188.77
540.61	38026.68
540.78	37993.92
540.95	39608.89
541.12	40222.11
541.29	40842.35
541.46	40109.76
541.62	40177.64
541.79	38223.29
541.96	38094.56
542.13	39629.95
542.30	40278.28
542.47	39854.64
542.63	39449.73
542.80	37235.58
542.97	37937.74
543.14	37479.00
543.31	37813.70
543.48	38813.10
543.64	40027.84
543.81	40191.68
543.98	40116.78
544.15	39108.01
544.32	37846.46
544.48	39435.69
544.65	38691.40
544.82	39332.70
544.99	38948.85
545.16	38843.53
545.32	38993.32
545.49	40215.08
545.66	41331.52
545.83	40720.64
546.00	39625.27
546.16	39164.18
546.33	39566.76
546.50	39709.53
546.67	39564.42
546.83	38457.34
547.00	37479.00
547.17	37148.98
547.34	38110.94
547.50	37778.59
547.67	37865.19
547.84	38330.95
548.00	39119.71
548.17	38160.09
548.34	38438.62
548.51	38801.40
548.67	39278.87
548.84	39285.89
549.01	41095.13
549.18	39512.92
549.34	40493.61
549.51	39864.00
549.68	38501.81
549.84	39264.83
550.01	39241.42
550.18	38445.64
550.34	38644.59
550.51	38565.01
550.68	37734.12
550.84	36594.28
551.01	37879.23
551.18	37240.26
551.34	37593.68
551.51	37605.39
551.68	39007.37
551.84	37984.55
552.01	38513.52
552.18	37507.08
552.34	37151.32
552.51	37371.33
552.68	37642.84
552.84	37352.61
553.01	38380.10
553.18	38862.26
553.34	38958.22
553.51	38651.61
553.67	38082.86
553.84	39358.45
554.01	39447.39
554.17	38520.54
554.34	39037.80
554.51	39126.74
554.67	38455.00
554.84	36779.18
555.00	37628.79
555.17	36943.02
555.33	37542.19
555.50	38876.30
555.67	38682.03
555.83	38068.81
556.00	36524.06
556.16	36952.38
556.33	36818.97
556.50	37315.16
556.66	36259.58
556.83	35510.61
556.99	35442.73
557.16	35709.55
557.32	36863.44
557.49	36924.29
557.65	37195.79
557.82	34923.13
557.98	35938.93
558.15	35838.28
558.32	34668.02
558.48	34213.95
558.65	33722.44
558.81	34059.48
558.98	35012.07
559.14	35709.55
559.31	36154.26
559.47	34593.12
559.64	34672.70
559.80	35316.34
559.97	34724.19
560.13	36004.46
560.30	36648.11
560.46	37790.29
560.63	37010.89
560.79	37914.34
560.96	35681.47
561.12	34857.60
561.29	34457.37
561.45	35012.07
561.61	35012.07
561.78	34810.79
561.94	34401.19
562.11	35849.99
562.27	35992.76
562.44	36624.70
562.60	35089.31
562.77	35592.53
562.93	34742.91
563.10	34445.66
563.26	34253.74
563.42	34064.16
563.59	34815.47
563.75	36006.80
563.92	35072.93
564.08	35414.65
564.24	34438.64
564.41	32533.45
564.57	34892.71
564.74	34394.17
564.90	33163.05
565.07	32856.44
565.23	32266.63
565.39	32355.57
565.56	34082.88
565.72	32924.32
565.88	33488.38
566.05	33392.42
566.21	33301.14
566.38	32598.98
566.54	33504.77
566.70	32730.05
566.87	33221.56
567.03	35730.62
567.19	35328.05
567.36	33111.56
567.52	34698.44
567.68	33312.84
567.85	32919.63
568.01	32081.72
568.17	31094.02
568.34	30719.53
568.50	31606.59
568.66	31978.74
568.83	32039.59
568.99	31768.09
569.15	31000.40
569.32	32297.05
569.48	32739.41
569.64	31936.61
569.81	31800.86
569.97	31901.50
570.13	32669.20
570.30	32807.29
570.46	31608.93
570.62	29741.19
570.78	29301.17
570.95	29502.45
571.11	31199.34
571.27	31370.20
571.43	30876.35
571.60	31985.76
571.76	31571.49
571.92	31543.40
572.09	32959.42
572.25	32877.51
572.41	33057.73
572.57	32914.95
572.74	31290.62
572.90	31290.62
573.06	30789.75
573.22	30789.75
573.38	31725.96
573.55	31145.51
573.71	32072.36
573.87	31599.57
574.03	31964.70
574.20	31101.04
574.36	31297.64
574.52	31786.82
574.68	31175.94
574.84	30902.09
575.01	31477.86
575.17	30796.77
575.33	30558.03
575.49	29766.93
575.65	30417.60
575.82	30033.75
575.98	29677.99
576.14	30274.83
576.30	30029.07
576.46	29961.20
576.62	30338.02
576.79	30714.85
576.95	30590.80
577.11	29853.53
577.27	29455.64
577.43	29244.99
577.59	29893.32
577.75	29448.62
577.92	28910.30
578.08	28280.69
578.24	28116.86
578.40	28973.49
578.56	28669.22
578.72	29479.05
578.88	30316.96
579.04	30321.64
579.21	30026.73
579.37	30295.89
579.53	29984.60
579.69	29333.93
579.85	28748.80
580.01	28025.57
580.17	28158.99
580.33	28613.05
580.49	28882.21
580.65	29186.48
580.82	29102.22
580.98	28830.72
581.14	28456.23
581.30	29687.36
581.46	30036.09
581.62	29312.87
581.78	29783.32
581.94	30438.67
582.10	30368.45
582.26	29972.90
582.42	29572.67
582.58	30284.19
582.74	29727.14
582.90	29359.68
583.06	29881.62
583.22	29862.90
583.38	30108.65
583.54	29677.99
583.70	29392.45
583.86	29315.21
584.02	29977.58
584.18	30242.06
584.34	29755.23
584.50	31213.38
584.66	29883.96
584.82	28917.32
584.98	28811.99
585.14	27718.96
585.30	27655.77
585.46	26998.08
585.62	26995.74
585.78	28245.58
585.94	28006.85
