SpectraSuite Data File
++++++++++++++++++++++++++++++++++++
Date: Mon Oct 07 14:53:38 GMT-05:00 2013
User: price-jones
Dark Spectrum Present: No
Reference Spectrum Present: No
Number of Sampled Component Spectra: 1
Spectrometers: USB2+H05261
Integration Time (usec): 100000 (USB2+H05261)
Spectra Averaged: 1 (USB2+H05261)
Boxcar Smoothing: 0 (USB2+H05261)
Correct for Electrical Dark: No (USB2+H05261)
Strobe/Lamp Enabled: No (USB2+H05261)
Correct for Detector Non-linearity: No (USB2+H05261)
Correct for Stray Light: No (USB2+H05261)
Number of Pixels in Processed Spectrum: 2048
>>>>>Begin Processed Spectral Data<<<<<
365.73	0.00
365.92	0.00
366.12	0.00
366.32	0.00
366.52	0.00
366.72	0.00
366.91	0.00
367.11	0.00
367.31	0.00
367.51	0.00
367.70	0.00
367.90	0.00
368.10	0.00
368.30	0.00
368.49	0.00
368.69	0.00
368.89	0.00
369.09	0.00
369.28	0.00
369.48	0.00
369.68	0.00
369.87	0.00
370.07	0.00
370.27	0.00
370.47	472.79
370.66	2572.25
370.86	3138.66
371.06	3307.18
371.25	3393.78
371.45	3000.57
371.65	2761.83
371.84	2567.57
372.04	2736.09
372.24	2977.16
372.44	3180.79
372.63	3148.02
372.83	3000.57
373.03	2567.57
373.22	2406.07
373.42	2527.78
373.62	2869.50
373.81	3220.58
374.01	3091.85
374.21	2944.39
374.40	2597.99
374.60	2722.04
374.79	3098.87
374.99	3627.83
375.19	3934.44
375.38	3918.06
375.58	3520.17
375.78	3602.08
375.97	3658.26
376.17	3775.28
376.37	3737.84
376.56	3864.22
376.76	4023.38
376.95	4432.97
377.15	4571.07
377.35	4751.29
377.54	5130.45
377.74	5184.29
377.93	5231.10
378.13	5060.24
378.33	4922.15
378.52	4414.25
378.72	4337.01
378.91	4400.21
379.11	4081.89
379.31	3981.25
379.50	4016.36
379.70	4182.54
379.89	4671.71
380.09	5001.72
380.28	5156.20
380.48	5235.78
380.68	5078.96
380.87	4849.59
381.07	4505.53
381.26	4205.94
381.46	3882.95
381.65	3693.37
381.85	3613.79
382.04	3597.40
382.24	3346.97
382.43	3098.87
382.63	2932.69
382.83	3054.40
383.02	3101.21
383.22	3152.70
383.41	3136.32
383.61	3386.76
383.80	3796.35
384.00	4397.87
384.19	4699.80
384.39	5018.11
384.58	5046.20
384.78	4926.83
384.97	5069.60
385.17	4772.35
385.36	4418.93
385.56	4318.29
385.75	4322.97
385.95	4990.02
386.14	5324.72
386.34	5338.76
386.53	5039.17
386.72	4730.22
386.92	4807.46
387.11	4961.94
387.31	5114.07
387.50	5284.93
387.70	4901.08
387.89	4856.61
388.09	5001.72
388.28	4945.55
388.48	4968.96
388.67	5383.23
388.86	6164.97
389.06	6373.28
389.25	6715.00
389.45	6850.75
389.64	6743.08
389.84	6813.30
390.03	6516.05
390.22	6644.78
390.42	6834.36
390.61	7321.20
390.81	7662.91
391.00	7925.05
391.19	7955.48
391.39	7810.37
391.58	7094.16
391.78	6700.95
391.97	6574.56
392.16	6104.12
392.36	5568.13
392.55	4456.38
392.75	3627.83
392.94	2909.29
393.13	2813.32
393.33	3330.58
393.52	4306.59
393.71	5369.19
393.91	5858.36
394.10	6516.05
394.29	7220.55
394.49	7740.15
394.68	8292.52
394.88	8131.02
395.07	8748.92
395.26	8725.52
395.46	8353.37
395.65	7967.18
395.84	7052.03
396.04	5954.32
396.23	4601.49
396.42	3964.87
396.62	3749.54
396.81	4409.57
397.00	5544.73
397.19	7084.80
397.39	8327.63
397.58	9554.07
397.77	10076.01
397.97	10516.03
398.16	10434.11
398.35	10944.34
398.55	11197.12
398.74	11625.44
398.93	11817.36
399.12	11557.57
399.32	11234.57
399.51	11583.31
399.70	12367.39
399.90	12250.36
400.09	12203.55
400.28	12168.45
400.47	12276.11
400.67	12999.34
400.86	13212.32
401.05	13125.72
401.24	13062.53
401.44	13341.05
401.63	13336.37
401.82	13642.98
402.01	13385.52
402.21	13657.03
402.40	13846.61
402.59	13404.25
402.78	12847.20
402.97	12444.63
403.17	12812.09
403.36	13673.41
403.55	14347.48
403.74	14485.58
403.93	13867.67
404.13	12802.73
404.32	12306.54
404.51	12877.63
404.70	14125.13
404.89	13862.99
405.09	13811.50
405.28	13341.05
405.47	13359.78
405.66	13472.12
405.85	13263.82
406.05	12287.81
406.24	12702.09
406.43	13446.38
406.62	13678.09
406.81	14160.24
407.00	13231.05
407.20	13179.56
407.39	13547.02
407.58	13870.01
407.77	14104.07
407.96	14871.76
408.15	14995.81
408.34	15267.31
408.54	15896.92
408.73	16056.08
408.92	15845.43
409.11	15234.55
409.30	14553.45
409.49	13947.25
409.68	12877.63
409.87	12372.07
410.07	13191.26
410.26	14204.71
410.45	15157.31
410.64	15332.85
410.83	15929.69
411.02	16191.83
411.21	16898.67
411.40	16655.25
411.59	16697.38
411.78	16681.00
411.98	16287.79
412.17	16755.90
412.36	16444.60
412.55	16521.84
412.74	15981.18
412.93	15763.51
413.12	16020.97
413.31	17125.70
413.50	17411.25
413.69	17940.21
413.88	17490.82
414.07	16863.56
414.26	16798.02
414.45	17432.31
414.64	17823.18
414.83	17628.92
415.02	17235.70
415.22	17275.49
415.41	17664.02
415.60	18010.42
415.79	18705.56
415.98	19253.25
416.17	19307.08
416.36	18883.44
416.55	18633.00
416.74	18258.52
416.93	17472.10
417.12	17572.74
417.31	17853.61
417.50	18118.09
417.69	18684.50
417.88	18389.59
418.07	18569.81
418.26	17886.37
418.45	18263.20
418.64	19115.16
418.83	19428.79
419.02	19452.19
419.21	19082.39
419.39	18305.33
419.58	17205.28
419.77	17429.97
419.96	18085.32
420.15	19103.45
420.34	20030.30
420.53	20460.96
420.72	20858.85
420.91	20842.47
421.10	20608.42
421.29	20379.04
421.48	19557.52
421.67	20765.23
421.86	20119.24
422.05	18621.30
422.24	16994.63
422.43	16418.86
422.61	18300.65
422.80	20039.67
422.99	19969.45
423.18	19576.24
423.37	18576.83
423.56	18862.38
423.75	19264.95
423.94	19499.00
424.13	18670.45
424.32	18794.50
424.50	19075.37
424.69	18455.12
424.88	18686.84
425.07	18684.50
425.26	18525.34
425.45	18555.77
425.64	18288.95
425.83	18064.25
426.01	19124.52
426.20	19510.71
426.39	19183.03
426.58	18071.28
426.77	16451.63
426.96	16006.92
427.15	16673.98
427.33	17926.16
427.52	18483.21
427.71	18525.34
427.90	18438.74
428.09	18478.53
428.28	18162.56
428.46	17671.04
428.65	16964.20
428.84	17341.03
429.03	17935.53
429.22	16833.13
429.40	16236.30
429.59	14721.97
429.78	12828.48
429.97	13153.81
430.16	13142.11
430.34	13041.46
430.53	13062.53
430.72	13511.91
430.91	14597.92
431.10	17565.72
431.28	20397.77
431.47	22026.78
431.66	23070.66
431.85	20458.62
432.03	18817.91
432.22	17806.80
432.41	18511.30
432.60	20875.24
432.79	21954.22
432.97	22052.53
433.16	21837.20
433.35	20163.72
433.54	17900.42
433.72	16491.41
433.91	17240.39
434.10	19147.92
434.28	20531.18
434.47	21385.47
434.66	21216.96
434.85	20886.94
435.03	20835.45
435.22	21451.01
435.41	22628.30
435.59	22473.82
435.78	22895.12
435.97	23782.18
436.16	23906.23
436.34	23173.64
436.53	23035.55
436.72	22431.69
436.90	21668.68
437.09	21408.88
437.28	20987.58
437.46	21853.58
437.65	22054.87
437.84	20514.80
438.02	18321.71
438.21	18656.41
438.40	19686.25
438.58	21364.41
438.77	21830.18
438.96	22239.77
439.14	23063.64
439.33	23550.47
439.52	24166.03
439.70	23491.96
439.89	22623.62
440.08	22480.85
440.26	21907.41
440.45	23103.43
440.63	24451.58
440.82	25752.91
441.01	25329.28
441.19	25109.27
441.38	25476.73
441.57	26775.73
441.75	27131.49
441.94	26785.09
442.12	26766.37
442.31	27309.37
442.50	27061.27
442.68	26925.52
442.87	26637.64
443.05	25968.24
443.24	26579.12
443.43	27026.17
443.61	27365.54
443.80	28456.23
443.98	26707.85
444.17	26583.80
444.35	28002.17
444.54	28666.88
444.73	28304.10
444.91	27290.65
445.10	26043.14
445.28	24884.58
445.47	24730.10
445.65	24797.98
445.84	25254.38
446.02	26225.70
446.21	26576.78
446.39	26677.43
446.58	26778.07
446.77	27550.45
446.95	27316.39
447.14	28287.71
447.32	29230.95
447.51	28334.53
447.69	27108.08
447.88	26806.16
448.06	27019.14
448.25	28116.86
448.43	28128.56
448.62	27517.68
448.80	27812.59
448.99	27566.83
449.17	27789.18
449.36	27770.46
449.54	28788.59
449.73	29331.59
449.91	30017.37
450.10	30651.66
450.28	30705.49
450.46	30827.20
450.65	30937.20
450.83	30192.91
451.02	29780.98
451.20	29788.00
451.39	29663.95
451.57	29317.55
451.76	29677.99
451.94	29209.89
452.13	29287.12
452.31	27517.68
452.49	26113.36
452.68	26410.60
452.86	26511.25
453.05	27007.44
453.23	28105.15
453.42	28414.10
453.60	29200.52
453.78	29170.10
453.97	28872.85
454.15	29017.96
454.34	28594.32
454.52	28596.67
454.70	27857.06
454.89	28510.07
455.07	28533.47
455.26	29050.73
455.44	29883.96
455.62	30466.75
455.81	30827.20
455.99	30752.30
456.17	29535.22
456.36	30464.41
456.54	31299.98
456.73	31192.32
456.91	31426.37
457.09	31519.99
457.28	32589.62
457.46	31019.12
457.64	30778.04
457.83	30003.33
458.01	29006.26
458.19	29467.34
458.38	30099.29
458.56	31124.44
458.74	31227.43
458.93	30256.11
459.11	30710.17
459.29	30106.31
459.48	30115.67
459.66	30209.29
459.84	30579.10
460.03	31005.08
460.21	30960.61
460.39	31789.16
460.57	31421.69
460.76	32254.92
460.94	32287.69
461.12	31531.70
461.31	31587.87
461.49	31489.57
461.67	31608.93
461.85	32723.03
462.04	32369.61
462.22	33254.33
462.40	32655.15
462.59	32381.31
462.77	32641.11
462.95	32491.32
463.13	32154.28
463.32	31608.93
463.50	31929.59
463.68	31740.00
463.86	31842.99
464.05	31747.03
464.23	30543.99
464.41	30483.14
464.59	29921.41
464.78	31365.52
464.96	30965.29
465.14	31072.95
465.32	32058.32
465.50	32563.87
465.69	33174.75
465.87	32297.05
466.05	31536.38
466.23	29888.64
466.41	29385.43
466.60	30359.09
466.78	30363.77
466.96	30895.07
467.14	31412.33
467.32	31447.44
467.51	31917.89
467.69	30403.56
467.87	31094.02
468.05	31866.39
468.23	31592.55
468.41	31880.44
468.60	31454.46
468.78	32041.93
468.96	31522.34
469.14	31943.63
469.32	32257.26
469.50	31044.87
469.69	31105.72
469.87	30796.77
470.05	30464.41
470.23	30249.08
470.41	30682.08
470.59	30705.49
470.77	31297.64
470.95	31857.03
471.14	32182.37
471.32	32245.56
471.50	33893.30
471.68	34534.60
471.86	34553.33
472.04	34749.93
472.22	35051.86
472.40	33046.02
472.58	33036.66
472.77	32465.57
472.95	33151.35
473.13	34003.30
473.31	32854.10
473.49	32800.27
473.67	33771.59
473.85	33933.09
474.03	35084.63
474.21	34925.47
474.39	35091.65
474.57	35517.63
474.75	35896.80
474.93	35459.12
475.12	34611.84
475.30	34394.17
475.48	35232.08
475.66	35480.18
475.84	34520.56
476.02	34340.34
476.20	33914.36
476.38	34607.16
476.56	36041.91
476.74	35997.44
476.92	36545.12
477.10	36641.09
477.28	37734.12
477.46	38270.10
477.64	38316.91
477.82	38263.08
478.00	38539.26
478.18	37858.17
478.36	37743.48
478.54	37773.91
478.72	38036.05
478.90	39173.55
479.08	40055.93
479.26	40772.13
479.44	40701.92
479.62	40343.81
479.80	40472.54
479.98	40641.06
480.16	40921.93
480.34	40273.60
480.52	40502.97
480.70	40891.50
480.88	40713.62
481.06	41963.46
481.24	42265.39
481.41	42508.81
481.59	43426.30
481.77	43047.13
481.95	42363.70
482.13	42227.95
482.31	42464.34
482.49	43065.86
482.67	43105.65
482.85	43316.29
483.03	43971.64
483.21	44514.65
483.39	44151.87
483.57	43765.68
483.74	43150.12
483.92	43353.74
484.10	43782.06
484.28	44596.57
484.46	45291.71
484.64	45406.39
484.82	44421.03
485.00	44137.82
485.18	43276.51
485.35	42066.45
485.53	39269.51
485.71	35931.90
485.89	35049.52
486.07	36500.65
486.25	40170.61
486.43	42225.60
486.61	43157.14
486.78	43192.25
486.96	42974.58
487.14	44872.75
487.32	45911.95
487.50	47325.63
487.68	47690.76
487.85	48523.99
488.03	48200.99
488.21	47576.07
488.39	47248.39
488.57	46590.70
488.75	46272.39
488.92	47119.66
489.10	49502.33
489.28	50471.31
489.46	51571.36
489.64	51515.19
489.81	51566.68
489.99	51058.79
490.17	51433.27
490.35	51849.89
490.53	51234.33
490.70	50960.48
490.88	50749.84
491.06	51751.59
491.24	51784.35
491.41	50822.39
491.59	48938.26
491.77	47966.94
491.95	48868.05
492.13	50452.59
492.30	51931.81
492.48	52830.57
492.66	53476.56
492.84	53050.58
493.01	52718.23
493.19	52252.46
493.37	52107.35
493.54	51824.14
493.72	52549.71
493.90	53521.03
494.08	54131.91
494.25	54869.18
494.43	54756.83
494.61	55341.97
494.79	55526.87
494.96	55117.28
495.14	54539.16
495.32	53506.99
495.49	52832.91
495.67	54131.91
495.85	55257.71
496.02	55648.58
496.20	55501.12
496.38	55480.06
496.55	54820.03
496.73	55515.17
496.91	55547.93
497.09	56245.41
497.26	56711.18
497.44	55704.75
497.62	55370.05
497.79	54712.36
497.97	53345.49
498.14	53284.64
498.32	54663.21
498.50	55519.85
498.67	56191.58
498.85	55976.25
499.03	56116.68
499.20	56357.76
499.38	56266.48
499.56	56254.78
499.73	55730.50
499.91	55367.71
500.08	54827.05
500.26	53998.50
500.44	54288.73
500.61	55285.79
500.79	55075.15
500.97	54899.61
501.14	54590.66
501.32	54274.68
501.49	54415.11
501.67	54831.73
501.84	55299.84
502.02	55477.72
502.20	55653.26
502.37	55796.03
502.55	56102.64
502.72	56680.75
502.90	56966.30
503.07	56750.97
503.25	56320.31
503.43	55585.38
503.60	55009.61
503.78	54124.89
503.95	54452.56
504.13	56011.36
504.30	56942.89
504.48	56748.63
504.65	56236.05
504.83	56381.16
505.01	56879.70
505.18	57127.80
505.36	57949.32
505.53	57801.87
505.71	58007.84
505.88	58145.93
506.06	57668.46
506.23	57385.25
506.41	56947.57
506.58	57148.86
506.76	57088.01
506.93	57038.86
507.11	56804.80
507.28	56750.97
507.46	56755.65
507.63	56161.15
507.81	55711.77
507.98	56200.94
508.16	56802.46
508.33	57382.91
508.50	57364.19
508.68	57902.51
508.85	58260.62
509.03	58316.79
509.20	58143.59
509.38	57396.96
509.55	56479.47
509.73	56797.78
509.90	57144.18
510.08	57509.30
510.25	57471.85
510.42	57382.91
510.60	57083.33
510.77	57422.70
510.95	57942.30
511.12	58150.61
511.30	58494.67
511.47	58642.12
511.64	58705.32
511.82	58433.81
511.99	57708.25
512.17	57279.93
512.34	56818.84
512.51	57190.99
512.69	57041.20
512.86	57293.97
513.04	57799.53
513.21	57549.09
513.38	57219.08
513.56	56666.71
513.73	56481.81
513.90	56587.13
514.08	56619.90
514.25	56804.80
514.43	57006.09
514.60	57029.49
514.77	57183.97
514.95	57521.01
515.12	57380.57
515.29	57378.23
515.47	57984.43
515.64	58089.76
515.81	57801.87
515.99	57188.65
516.16	55814.76
516.33	53783.17
516.51	51852.23
516.68	50894.95
516.85	50798.99
517.03	51014.32
517.20	53937.65
517.37	56406.91
517.54	57406.32
517.72	56999.07
517.89	54522.78
518.06	52102.67
518.24	52287.57
518.41	54494.69
518.58	55899.01
518.75	56191.58
518.93	56444.36
519.10	56093.28
519.27	56643.30
519.45	56970.98
519.62	57602.92
519.79	58000.82
519.96	57846.34
520.14	57226.10
520.31	56629.26
520.48	56381.16
520.65	57113.75
520.83	57614.63
521.00	58230.19
521.17	57858.04
521.34	57373.55
521.52	57694.21
521.69	58330.83
521.86	58763.83
522.03	58370.62
522.20	57406.32
522.38	56072.21
522.55	56104.98
522.72	56947.57
522.89	56910.13
523.07	57062.26
523.24	57422.70
523.41	58291.04
523.58	58592.97
523.75	58873.84
523.92	58969.80
524.10	58871.49
524.27	58499.35
524.44	58637.44
524.61	58092.10
524.78	58150.61
524.96	58291.04
525.13	57965.71
525.30	58494.67
525.47	59114.91
525.64	58939.37
525.81	58239.55
525.98	56647.99
526.16	55213.24
526.33	54593.00
526.50	54064.03
526.67	53558.48
526.84	54534.48
527.01	55171.11
527.18	56280.52
527.36	57193.33
527.53	57956.35
527.70	58319.13
527.87	57668.46
528.04	57228.44
528.21	57659.10
528.38	58363.60
528.55	59028.31
528.72	59363.01
528.89	59468.33
529.07	59182.79
529.24	58710.00
529.41	58045.29
529.58	57305.68
529.75	57443.77
529.92	57743.36
530.09	58384.66
530.26	58852.77
530.43	58986.18
530.60	59100.87
530.77	59215.55
530.94	59337.26
531.11	58773.19
531.28	58684.25
531.46	58489.99
531.63	58590.63
531.80	58272.32
531.97	58183.38
532.14	57406.32
532.31	56207.97
532.48	55496.44
532.65	55683.69
532.82	56502.87
532.99	57640.37
533.16	58007.84
533.33	58562.54
533.50	58412.75
533.67	57780.81
533.84	57235.46
534.01	57364.19
534.18	57719.95
534.35	57975.07
534.52	57710.59
534.69	57902.51
534.86	58279.34
535.03	58333.17
535.20	58824.68
535.37	59489.40
535.54	59409.82
535.71	59028.31
535.88	58724.04
536.05	58108.48
536.22	57881.45
536.38	57551.43
536.55	56896.08
536.72	56404.57
536.89	56392.87
537.06	57322.06
537.23	58164.65
537.40	58398.71
537.57	58305.09
537.74	58089.76
537.91	58216.14
538.08	58089.76
538.25	58192.74
538.42	58286.36
538.59	58061.67
538.75	57275.25
538.92	57071.62
539.09	57085.67
539.26	56666.71
539.43	56748.63
539.60	56790.76
539.77	57008.43
539.94	56886.72
540.11	56032.42
540.28	55622.83
540.44	55920.08
540.61	55945.83
540.78	56205.62
540.95	56537.98
541.12	57251.84
541.29	57336.10
541.46	57441.43
541.62	57544.41
541.79	57357.17
541.96	56582.45
542.13	56959.28
542.30	57106.73
542.47	57499.94
542.63	57106.73
542.80	56765.01
542.97	56954.60
543.14	56818.84
543.31	56680.75
543.48	57331.42
543.64	58178.70
543.81	58508.71
543.98	58178.70
544.15	57921.24
544.32	56912.47
544.48	57010.77
544.65	57525.69
544.82	57916.56
544.99	57516.32
545.16	57169.93
545.32	57024.81
545.49	57607.61
545.66	58176.36
545.83	57769.10
546.00	57293.97
546.16	56835.23
546.33	57123.11
546.50	57162.90
546.67	57762.08
546.83	57064.60
547.00	57111.41
547.17	56519.26
547.34	56044.13
547.50	55819.44
547.67	56521.60
547.84	56427.98
548.00	56652.67
548.17	57336.10
548.34	57125.46
548.51	57013.11
548.67	57212.06
548.84	57123.11
549.01	57127.80
549.18	57050.56
549.34	56994.39
549.51	57020.13
549.68	56924.17
549.84	56519.26
550.01	56713.52
550.18	56664.37
550.34	56652.67
550.51	56825.87
550.68	56868.00
550.84	56278.18
551.01	56411.59
551.18	56306.27
551.34	56521.60
551.51	56860.97
551.68	57226.10
551.84	57305.68
552.01	57085.67
552.18	56921.83
552.34	56116.68
552.51	55730.50
552.68	55657.94
552.84	56116.68
553.01	56301.59
553.18	56477.13
553.34	56233.71
553.51	56610.54
553.67	56797.78
553.84	56896.08
554.01	56739.27
554.17	56727.56
554.34	56657.35
554.51	56762.67
554.67	57092.69
554.84	56992.04
555.00	56533.30
555.17	56444.36
555.33	56294.56
555.50	56214.99
555.67	56254.78
555.83	56186.90
556.00	55966.89
556.16	56023.06
556.33	55323.24
556.50	55208.56
556.66	55473.04
556.83	55309.20
556.99	55292.82
557.16	55124.30
557.32	55552.62
557.49	56051.15
557.65	55838.16
557.82	55650.92
557.98	55601.77
558.15	55072.81
558.32	54239.57
558.48	53680.19
558.65	53944.67
558.81	54110.85
558.98	54258.30
559.14	54560.23
559.31	54691.30
559.47	54499.37
559.64	54241.92
559.80	54145.95
559.97	54169.36
560.13	54567.25
560.30	55524.53
560.46	56126.05
560.63	56285.20
560.79	56224.35
560.96	55744.54
561.12	54789.60
561.29	53893.18
561.45	53883.81
561.61	54614.06
561.78	54733.43
561.94	54649.17
562.11	54518.10
562.27	54293.41
562.44	54628.10
562.60	55093.87
562.77	55444.95
562.93	55084.51
563.10	55140.68
563.26	54595.34
563.42	54527.46
563.59	54300.43
563.75	54363.62
563.92	54155.32
564.08	54618.74
564.24	54501.71
564.41	54838.75
564.57	54688.96
564.74	54588.31
564.90	54368.30
565.07	54108.50
565.23	53614.65
565.39	53235.48
565.56	53102.07
565.72	52329.70
565.88	53127.82
566.05	53230.80
566.21	53153.57
566.38	53546.78
566.54	53762.11
566.70	54155.32
566.87	54274.68
567.03	54356.60
567.19	54550.87
567.36	54274.68
567.52	54003.18
567.68	53797.21
567.85	53535.07
568.01	52980.37
568.17	52601.20
568.34	52212.67
568.50	52193.95
568.66	52563.75
568.83	53017.82
568.99	53076.33
569.15	53001.43
569.32	53144.20
569.48	52921.85
569.64	52870.36
569.81	52278.21
569.97	52341.40
570.13	52362.46
570.30	51672.01
570.46	51222.62
570.62	50391.73
570.78	50520.46
570.95	51304.54
571.11	51875.63
571.27	51803.08
571.43	52158.84
571.60	52362.46
571.76	52479.49
571.92	53029.52
572.09	53216.76
572.25	53153.57
572.41	53095.05
572.57	52987.39
572.74	52940.58
572.90	52343.74
573.06	52437.36
573.22	52383.53
573.38	52580.13
573.55	52659.71
573.71	52568.43
573.87	52463.11
574.03	51873.29
574.20	52287.57
574.36	52090.96
574.52	51875.63
574.68	51620.52
574.84	51414.55
575.01	50724.09
575.17	50546.21
575.33	50990.91
575.49	51234.33
575.65	51161.77
575.82	51407.53
575.98	50918.35
576.14	51007.29
576.30	51393.48
576.46	51779.67
576.62	51868.61
576.79	51398.16
576.95	51154.75
577.11	51082.19
577.27	51004.95
577.43	51557.32
577.59	51063.47
577.75	50473.65
577.92	50045.33
578.08	49162.95
578.24	49324.45
578.40	50042.99
578.56	50475.99
578.72	50211.51
578.88	50337.90
579.04	50911.33
579.21	50623.45
579.37	51000.27
579.53	50595.36
579.69	50590.68
579.85	51154.75
580.01	50969.85
580.17	50602.38
580.33	50450.25
580.49	50183.43
580.65	50569.61
580.82	50770.90
580.98	50841.12
581.14	50546.21
581.30	50394.07
581.46	50866.86
581.62	50925.38
581.78	50990.91
581.94	51119.64
582.10	50712.39
582.26	51023.68
582.42	51026.02
582.58	51110.28
582.74	50873.88
582.90	51243.69
583.06	51000.27
583.22	50698.34
583.38	50450.25
583.54	50588.34
583.70	50361.31
583.86	50501.74
584.02	50267.69
584.18	50389.39
584.34	50145.98
584.50	50464.29
584.66	50239.60
584.82	49778.51
584.98	49883.84
585.14	49177.00
585.30	48910.17
