SpectraSuite Data File
++++++++++++++++++++++++++++++++++++
Date: Mon Oct 07 14:55:00 GMT-05:00 2013
User: price-jones
Dark Spectrum Present: No
Reference Spectrum Present: No
Number of Sampled Component Spectra: 1
Spectrometers: USB2+H05261
Integration Time (usec): 10000 (USB2+H05261)
Spectra Averaged: 1 (USB2+H05261)
Boxcar Smoothing: 0 (USB2+H05261)
Correct for Electrical Dark: No (USB2+H05261)
Strobe/Lamp Enabled: No (USB2+H05261)
Correct for Detector Non-linearity: No (USB2+H05261)
Correct for Stray Light: No (USB2+H05261)
Number of Pixels in Processed Spectrum: 2048
>>>>>Begin Processed Spectral Data<<<<<
365.73	0.00
365.92	0.00
366.12	0.00
366.32	0.00
366.52	0.00
366.72	0.00
366.91	0.00
367.11	0.00
367.31	0.00
367.51	0.00
367.70	0.00
367.90	0.00
368.10	0.00
368.30	0.00
368.49	0.00
368.69	0.00
368.89	0.00
369.09	0.00
369.28	0.00
369.48	0.00
369.68	0.00
369.87	0.00
370.07	0.00
370.27	0.00
370.47	280.86
370.66	2186.06
370.86	2668.21
371.06	2782.90
371.25	2829.71
371.45	2349.90
371.65	2092.44
371.84	2174.36
372.04	2317.13
372.24	2527.78
372.44	2665.87
372.63	2452.88
372.83	2260.96
373.03	1996.48
373.22	1980.09
373.42	2143.93
373.62	2429.48
373.81	2586.29
374.01	2532.46
374.21	2319.47
374.40	2132.23
374.60	2300.75
374.79	2665.87
374.99	3042.70
375.19	3169.09
375.38	3117.59
375.58	2895.24
375.78	2860.13
375.97	3000.57
376.17	3066.10
376.37	3063.76
376.56	3089.51
376.76	3396.12
376.95	3590.38
377.15	3978.91
377.35	3892.31
377.54	4042.11
377.74	4262.12
377.93	4140.41
378.13	4140.41
378.33	3789.33
378.52	3613.79
378.72	3531.87
378.91	3527.19
379.11	3398.46
379.31	3225.26
379.50	3342.28
379.70	3426.54
379.89	3838.48
380.09	4128.70
380.28	4280.84
380.48	4243.39
380.68	4205.94
380.87	4053.81
381.07	3669.96
381.26	3290.79
381.46	3070.78
381.65	3206.53
381.85	3183.13
382.04	2813.32
382.24	2719.70
382.43	2626.08
382.63	2380.32
382.83	2523.10
383.02	2469.27
383.22	2487.99
383.41	2448.20
383.61	2792.26
383.80	3251.00
384.00	3611.45
384.19	4086.58
384.39	4105.30
384.58	4266.80
384.78	4107.64
384.97	4152.11
385.17	3826.78
385.36	3700.39
385.56	3543.57
385.75	3758.90
385.95	4100.62
386.14	4346.37
386.34	4407.23
386.53	4114.66
386.72	3927.42
386.92	4035.08
387.11	4156.79
387.31	4344.03
387.50	4231.69
387.70	4084.23
387.89	4156.79
388.09	4016.36
388.28	4138.07
388.48	4353.40
388.67	4610.86
388.86	5198.33
389.06	5404.30
389.25	5586.86
389.45	5795.17
389.64	5509.62
389.84	5640.69
390.03	5439.40
390.22	5764.74
390.42	5940.28
390.61	6321.79
390.81	6497.33
391.00	6710.32
391.19	6534.78
391.39	6289.02
391.58	5863.04
391.78	5542.39
391.97	5509.62
392.16	5130.45
392.36	4482.13
392.55	3522.51
392.75	2820.35
392.94	2277.34
393.13	2541.82
393.33	2963.12
393.52	4011.68
393.71	4517.23
393.91	5203.01
394.10	5631.33
394.29	6251.57
394.49	6761.81
394.68	6951.39
394.88	7005.22
395.07	7227.57
395.26	7445.24
395.46	6923.30
395.65	6289.02
395.84	5416.00
396.04	4517.23
396.23	3791.67
396.42	3222.92
396.62	3201.85
396.81	4095.94
397.00	5109.39
397.19	6181.35
397.39	7590.36
397.58	8336.99
397.77	8774.67
397.97	8812.12
398.16	8812.12
398.35	9460.45
398.55	9554.07
398.74	9893.44
398.93	10171.97
399.12	9984.73
399.32	9727.27
399.51	10094.73
399.70	10506.66
399.90	10087.71
400.09	10544.11
400.28	10410.70
400.47	10260.91
400.67	10764.12
400.86	11119.89
401.05	11197.12
401.24	11421.81
401.44	11473.31
401.63	11534.16
401.82	11262.66
402.01	11330.53
402.21	11702.68
402.40	11700.34
402.59	11110.52
402.78	10864.77
402.97	10677.52
403.17	11000.52
403.36	11721.40
403.55	12020.99
403.74	12229.30
403.93	11602.04
404.13	10799.23
404.32	10541.77
404.51	11234.57
404.70	11999.93
404.89	11850.13
405.09	11470.97
405.28	11520.12
405.47	11641.82
405.66	11377.34
405.85	10803.91
406.05	10998.18
406.24	10981.79
406.43	11602.04
406.62	12259.73
406.81	11913.33
407.00	11583.31
407.20	11269.68
407.39	11300.11
407.58	12081.85
407.77	12587.40
407.96	12713.79
408.15	12926.78
408.34	13011.04
408.54	13650.00
408.73	13694.47
408.92	13259.13
409.11	12868.27
409.30	12156.74
409.49	11559.91
409.68	10754.76
409.87	10729.02
410.07	11562.25
410.26	12393.14
410.45	12973.59
410.64	13612.56
410.83	14094.71
411.02	14307.69
411.21	14403.66
411.40	14415.36
411.59	14654.09
411.78	14548.77
411.98	14368.55
412.17	14469.19
412.36	14115.77
412.55	14239.82
412.74	13944.91
412.93	13783.41
413.12	14029.17
413.31	15351.57
413.50	15218.16
413.69	15297.74
413.88	14696.22
414.07	14555.79
414.26	14888.15
414.45	15222.84
414.64	14937.30
414.83	15281.36
415.02	14686.86
415.22	14944.32
415.41	15892.24
415.60	16386.09
415.79	16613.12
415.98	16844.84
416.17	16821.43
416.36	16402.47
416.55	16460.99
416.74	15641.80
416.93	15267.31
417.12	15618.39
417.31	15503.71
417.50	15889.90
417.69	16479.71
417.88	16201.19
418.07	15896.92
418.26	15777.55
418.45	16067.78
418.64	17090.59
418.83	17469.76
419.02	17027.40
419.21	16531.20
419.39	15833.72
419.58	15351.57
419.77	15798.62
419.96	16524.18
420.15	17326.99
420.34	17837.22
420.53	18192.98
420.72	18410.65
420.91	18012.76
421.10	17745.94
421.29	17806.80
421.48	17462.74
421.67	18471.51
421.86	17184.21
422.05	15971.82
422.24	14422.38
422.43	15016.88
422.61	16734.83
422.80	17561.04
422.99	17284.86
423.18	17104.64
423.37	16603.76
423.56	16886.97
423.75	17371.46
423.94	17708.49
424.13	16388.43
424.32	16126.29
424.50	16460.99
424.69	16535.88
424.88	16791.00
425.07	16510.14
425.26	16685.68
425.45	16196.51
425.64	15810.32
425.83	15995.22
426.01	17006.33
426.20	17062.51
426.39	17139.74
426.58	15634.78
426.77	14590.90
426.96	14586.22
427.15	15199.44
427.33	16463.33
427.52	16798.02
427.71	16971.22
427.90	16486.73
428.09	16336.94
428.28	15697.97
428.46	15133.90
428.65	15356.25
428.84	16107.57
429.03	15707.34
429.22	14911.55
429.40	13752.99
429.59	12503.14
429.78	11398.41
429.97	11861.84
430.16	11599.70
430.34	11632.46
430.53	11819.71
430.72	12484.42
430.91	13591.49
431.10	16453.97
431.28	18768.76
431.47	20063.07
431.66	19601.99
431.85	17376.14
432.03	16306.51
432.22	16549.93
432.41	17748.28
432.60	19190.05
432.79	19641.78
432.97	19594.96
433.16	18960.68
433.35	16968.88
433.54	15545.84
433.72	15014.54
433.91	15796.28
434.10	17795.09
434.28	18717.26
434.47	19370.27
434.66	18883.44
434.85	18483.21
435.03	19241.54
435.22	18998.13
435.41	19660.50
435.59	20816.72
435.78	20500.75
435.97	20968.86
436.16	21118.65
436.34	20741.83
436.53	20173.08
436.72	20180.10
436.90	19442.83
437.09	19503.68
437.28	19260.27
437.46	19452.19
437.65	19358.57
437.84	17479.12
438.02	17027.40
438.21	17212.30
438.40	17874.67
438.58	19323.46
438.77	19749.44
438.96	20166.06
439.14	21067.16
439.33	21170.15
439.52	21270.79
439.70	21010.99
439.89	20563.95
440.08	19838.38
440.26	20072.43
440.45	21223.98
440.63	22438.72
440.82	23271.95
441.01	22370.84
441.19	22632.98
441.38	23426.42
441.57	24374.34
441.75	24212.84
441.94	24233.91
442.12	23906.23
442.31	25048.41
442.50	24458.60
442.68	24238.59
442.87	23964.75
443.05	23576.22
443.24	24388.38
443.43	24720.74
443.61	24662.22
443.80	25254.38
443.98	24474.98
444.17	24348.59
444.35	25355.02
444.54	25830.15
444.73	25214.59
444.91	23494.30
445.10	23154.92
445.28	22396.59
445.47	22340.41
445.65	22139.13
445.84	22714.90
446.02	23534.09
446.21	23491.96
446.39	24095.82
446.58	24446.90
446.77	24872.87
446.95	25062.46
447.14	26080.59
447.32	26836.58
447.51	25895.69
447.69	24599.03
447.88	24505.41
448.06	25177.14
448.25	25385.45
448.43	25340.98
448.62	24968.84
448.80	24790.95
448.99	25268.42
449.17	25247.36
449.36	25378.43
449.54	26396.56
449.73	27126.81
449.91	27332.78
450.10	28123.88
450.28	27929.61
450.46	27784.50
450.65	28222.18
450.83	27234.47
451.02	27131.49
451.20	27201.71
451.39	27323.41
451.57	26911.48
451.76	27374.91
451.94	26464.44
452.13	25790.36
452.31	24631.80
452.49	23236.84
452.68	24479.66
452.86	24409.45
453.05	24620.10
453.23	25914.41
453.42	25748.23
453.60	26375.50
453.78	26932.54
453.97	26588.49
454.15	26455.08
454.34	25399.49
454.52	25528.22
454.70	25371.41
454.89	25621.84
455.07	25818.45
455.26	26890.41
455.44	27267.24
455.62	27679.18
455.81	27475.55
455.99	27660.45
456.17	27358.52
456.36	28093.45
456.54	28226.86
456.73	28371.97
456.91	28044.30
457.09	28451.55
457.28	29640.54
457.46	27969.40
457.64	27349.16
457.83	26548.70
458.01	26600.19
458.19	27648.75
458.38	27920.25
458.56	28348.57
458.74	28512.41
458.93	27702.58
459.11	27342.14
459.29	27346.82
459.48	27484.91
459.66	27321.07
459.84	27880.46
460.03	28247.93
460.21	28421.13
460.39	29390.11
460.57	28556.88
460.76	28877.53
460.94	29165.42
461.12	28849.44
461.31	29336.27
461.49	29254.36
461.67	29305.85
461.85	30005.67
462.04	29600.76
462.22	29654.59
462.40	29319.89
462.59	29160.73
462.77	30314.62
462.95	29776.30
463.13	29577.35
463.32	28779.23
463.50	28800.29
463.68	28924.34
463.86	29034.35
464.05	28498.36
464.23	27922.59
464.41	27756.41
464.59	27630.02
464.78	28821.36
464.96	28067.70
465.14	27824.29
465.32	29270.74
465.50	29923.75
465.69	30623.57
465.87	29699.06
466.05	28683.27
466.23	27580.87
466.41	27180.64
466.60	27718.96
466.78	27281.28
466.96	27704.92
467.14	28290.06
467.32	28528.79
467.51	29158.39
467.69	27475.55
467.87	28240.90
468.05	28835.40
468.23	29156.05
468.41	29104.56
468.60	29156.05
468.78	29567.99
468.96	29268.40
469.14	29977.58
469.32	29888.64
469.50	28187.07
469.69	28421.13
469.87	27843.01
470.05	28098.13
470.23	28357.93
470.41	28161.33
470.59	28318.14
470.77	28491.34
470.95	29160.73
471.14	29553.94
471.32	29893.32
471.50	31545.74
471.68	31424.03
471.86	31477.86
472.04	31379.56
472.22	31491.91
472.40	30265.47
472.58	29703.74
472.77	29986.94
472.95	30148.44
473.13	31351.48
473.31	30040.78
473.49	30478.46
473.67	31290.62
473.85	32027.89
474.03	32563.87
474.21	32280.67
474.39	32718.35
474.57	33102.20
474.75	33214.54
474.93	32327.48
475.12	31990.44
475.30	32081.72
475.48	31718.94
475.66	32470.25
475.84	31433.39
476.02	31920.23
476.20	31082.31
476.38	31747.03
476.56	32421.10
476.74	33347.95
476.92	34230.33
477.10	33715.42
477.28	34646.95
477.46	35068.25
477.64	35379.54
477.82	35695.51
478.00	35213.36
478.18	34930.16
478.36	34579.07
478.54	35178.25
478.72	35449.75
478.90	36591.94
479.08	37385.38
479.26	37158.34
479.44	38026.68
479.62	37720.07
479.80	37830.08
479.98	37373.67
480.16	37471.98
480.34	36982.80
480.52	37048.34
480.70	37390.06
480.88	37647.52
481.06	38019.66
481.24	38993.32
481.41	39885.07
481.59	40835.33
481.77	39545.69
481.95	38689.06
482.13	39571.44
482.31	39887.41
482.49	40587.23
482.67	40034.86
482.85	39697.83
483.03	40184.66
483.21	41294.07
483.39	41434.50
483.57	40708.94
483.74	40355.52
483.92	39934.22
484.10	40594.25
484.28	40629.36
484.46	41532.81
484.64	42518.17
484.82	41413.44
485.00	40776.81
485.18	40215.08
485.35	38501.81
485.53	33600.73
485.71	31409.99
485.89	32496.00
486.07	34806.11
486.25	37095.15
486.43	39402.92
486.61	39852.30
486.78	39304.62
486.96	40999.16
487.14	42204.54
487.32	43077.56
487.50	43943.56
487.68	44423.37
487.85	45254.26
488.03	45247.24
488.21	43969.30
488.39	43768.02
488.57	42059.43
488.75	42504.13
488.92	44481.88
489.10	46960.51
489.28	47030.72
489.46	48741.66
489.64	47819.49
489.81	48729.95
489.99	48549.73
490.17	48711.23
490.35	48940.60
490.53	48261.85
490.70	48313.34
490.88	47629.90
491.06	49230.83
491.24	49544.46
491.41	47887.36
491.59	45731.73
491.77	45123.19
491.95	46904.34
492.13	48886.77
492.30	49989.16
492.48	51136.02
492.66	50717.07
492.84	49588.93
493.01	50122.57
493.19	50167.04
493.37	49350.20
493.54	49724.68
493.72	50770.90
493.90	51807.76
494.08	52186.92
494.25	52144.80
494.43	52982.71
494.61	53357.19
494.79	52896.11
494.96	52877.38
495.14	52612.90
495.32	51026.02
495.49	50920.70
495.67	52088.62
495.85	53104.41
496.02	53811.26
496.20	53209.74
496.38	52640.99
496.55	52640.99
496.73	53514.01
496.91	53696.57
497.09	54375.33
497.26	54738.11
497.44	53687.21
497.62	52762.70
497.79	52322.68
497.97	51023.68
498.14	51791.37
498.32	53144.20
498.50	53675.51
498.67	53710.61
498.85	53001.43
499.03	54054.67
499.20	54059.35
499.38	53289.32
499.56	52755.68
499.73	52610.56
499.91	52884.40
500.08	52182.24
500.26	51784.35
500.44	52322.68
500.61	53521.03
500.79	52814.19
500.97	52584.82
501.14	52041.81
501.32	51014.32
501.49	51697.75
501.67	52821.21
501.84	53071.65
502.02	53162.93
502.20	53509.33
502.37	53385.28
502.55	54042.97
502.72	55018.97
502.90	55143.02
503.07	54490.01
503.25	53221.44
503.43	52669.08
503.60	52037.13
503.78	52027.77
503.95	52673.76
504.13	54049.99
504.30	55007.27
504.48	54426.82
504.65	54354.26
504.83	54101.48
505.01	54948.76
505.18	55391.12
505.36	56002.00
505.53	55997.32
505.71	55664.96
505.88	56151.79
506.06	55650.92
506.23	55098.55
506.41	54347.24
506.58	55002.59
506.76	55203.88
506.93	54759.17
507.11	54798.96
507.28	54391.71
507.46	53874.45
507.63	54031.27
507.81	53588.91
507.98	53567.84
508.16	54955.78
508.33	55374.73
508.50	55552.62
508.68	55917.74
508.85	55903.70
509.03	56788.42
509.20	56339.04
509.38	55618.15
509.55	55510.49
509.73	55100.89
509.90	55323.24
510.08	55423.89
510.25	54901.95
510.42	54389.37
510.60	55351.33
510.77	55920.08
510.95	55856.88
511.12	56437.34
511.30	57155.88
511.47	57031.83
511.64	56687.78
511.82	56633.94
511.99	55377.08
512.17	55440.27
512.34	54878.54
512.51	55360.69
512.69	55473.04
512.86	55114.94
513.04	55334.95
513.21	54681.94
513.38	54244.26
513.56	53876.79
513.73	53453.15
513.90	54794.28
514.08	54536.82
514.25	54569.59
514.43	55201.53
514.60	54948.76
514.77	55241.32
514.95	55451.97
515.12	55304.52
515.29	56189.24
515.47	56474.79
515.64	56257.12
515.81	55819.44
515.99	54291.07
516.16	52470.13
516.33	49907.24
516.51	49642.76
516.68	48758.04
516.85	47327.97
517.03	48608.25
517.20	51714.14
517.37	54616.40
517.54	55447.29
517.72	54480.65
517.89	51009.64
518.06	49350.20
518.24	50291.09
518.41	52657.37
518.58	54071.06
518.75	54171.70
518.93	53862.75
519.10	53478.90
519.27	54447.88
519.45	55306.86
519.62	56037.11
519.79	55758.58
519.96	55295.16
520.14	55353.67
520.31	54138.93
520.48	54227.87
520.65	55056.42
520.83	56203.28
521.00	55622.83
521.17	54995.57
521.34	55576.02
521.52	56533.30
521.69	56444.36
521.86	57006.09
522.03	56224.35
522.20	54480.65
522.38	53537.41
522.55	54085.10
522.72	54064.03
522.89	54485.33
523.07	55271.75
523.24	56104.98
523.41	56306.27
523.58	56760.33
523.75	56652.67
523.92	57176.95
524.10	56383.51
524.27	56144.77
524.44	55550.27
524.61	55168.77
524.78	55494.10
524.96	55854.54
525.13	56170.52
525.30	56996.73
525.47	57055.24
525.64	56875.02
525.81	55234.30
525.98	53549.12
526.16	52023.09
526.33	52449.06
526.50	51683.71
526.67	51821.80
526.84	52622.26
527.01	53736.36
527.18	54649.17
527.36	55173.45
527.53	55903.70
527.70	55604.11
527.87	54333.20
528.04	55131.32
528.21	55700.07
528.38	56285.20
528.55	57396.96
528.72	57223.76
528.89	56985.02
529.07	56631.60
529.24	55217.92
529.41	55171.11
529.58	55168.77
529.75	55756.24
529.92	56533.30
530.09	56481.81
530.26	56711.18
530.43	57593.56
530.60	56809.48
530.77	57366.53
530.94	57542.07
531.11	56750.97
531.28	56233.71
531.46	56542.66
531.63	56427.98
531.80	55814.76
531.97	55662.62
532.14	55444.95
532.31	54167.02
532.48	53326.77
532.65	53691.89
532.82	54218.51
532.99	56137.75
533.16	56193.92
533.33	56704.16
533.50	56278.18
533.67	55779.65
533.84	55714.11
534.01	56013.70
534.18	55828.80
534.35	55934.12
534.52	55388.78
534.69	55407.50
534.86	56348.40
535.03	56755.65
535.20	57368.87
535.37	57656.76
535.54	57691.86
535.71	56924.17
535.88	56486.49
536.05	55896.67
536.22	55077.49
536.38	55262.39
536.55	54721.72
536.72	54358.94
536.89	54532.14
537.06	55267.07
537.23	55812.41
537.40	55037.70
537.57	55248.35
537.74	55571.34
537.91	55636.87
538.08	55171.11
538.25	55927.10
538.42	56233.71
538.59	56041.79
538.75	54873.86
538.92	54136.59
539.09	54714.70
539.26	54564.91
539.43	54670.23
539.60	54073.40
539.77	55028.34
539.94	54478.31
540.11	54115.53
540.28	53460.18
540.44	53371.24
540.61	53338.47
540.78	53719.98
540.95	54239.57
541.12	54188.08
541.29	55194.51
541.46	54611.72
541.62	55323.24
541.79	54468.95
541.96	54064.03
542.13	54450.22
542.30	54728.75
542.47	54845.77
542.63	54429.16
542.80	54064.03
542.97	53315.06
543.14	53797.21
543.31	54808.32
543.48	55304.52
543.64	55384.10
543.81	56065.19
543.98	56107.32
544.15	55405.16
544.32	55620.49
544.48	55451.97
544.65	54803.64
544.82	55526.87
544.99	54138.93
545.16	54042.97
545.32	54789.60
545.49	55077.49
545.66	55444.95
545.83	55042.38
546.00	55454.31
546.16	54684.28
546.33	54003.18
546.50	54087.44
546.67	55306.86
546.83	55260.05
547.00	54892.58
547.17	53378.26
547.34	52912.49
547.50	52748.65
547.67	53598.27
547.84	54440.86
548.00	55276.43
548.17	54780.24
548.34	54967.48
548.51	55114.94
548.67	54838.75
548.84	54555.55
549.01	55182.81
549.18	54408.09
549.34	54515.76
549.51	55004.93
549.68	55554.96
549.84	54321.49
550.01	53296.34
550.18	54225.53
550.34	53801.89
550.51	53544.44
550.68	54426.82
550.84	55021.31
551.01	53928.28
551.18	54127.23
551.34	54110.85
551.51	54578.95
551.68	54475.97
551.84	55501.12
552.01	54340.22
552.18	54145.95
552.34	53045.90
552.51	52921.85
552.68	52830.57
552.84	53834.66
553.01	53736.36
553.18	53549.12
553.34	53993.82
553.51	53979.78
553.67	54164.68
553.84	54522.78
554.01	54857.48
554.17	54230.21
554.34	53855.73
554.51	54131.91
554.67	53539.75
554.84	53666.14
555.00	52851.64
555.17	53570.18
555.33	53317.40
555.50	52802.49
555.67	53254.21
555.83	53258.89
556.00	52870.36
556.16	52296.93
556.33	53003.77
556.50	53258.89
556.66	52837.59
556.83	52013.73
556.99	51889.68
557.16	52664.39
557.32	52308.63
557.49	53418.05
557.65	52769.72
557.82	53537.41
557.98	53701.25
558.15	52170.54
558.32	51901.38
558.48	50700.68
558.65	50401.10
558.81	51138.36
558.98	51924.78
559.14	51751.59
559.31	51866.27
559.47	52051.17
559.64	51402.85
559.80	51159.43
559.97	51798.40
560.13	52079.26
560.30	53141.86
560.46	53698.91
560.63	54017.22
560.79	53977.43
560.96	53155.91
561.12	52095.64
561.29	52027.77
561.45	52287.57
561.61	53052.92
561.78	51889.68
561.94	51936.49
562.11	51545.62
562.27	51075.17
562.44	52758.02
562.60	52467.79
562.77	52465.45
562.93	52446.72
563.10	52797.80
563.26	52034.79
563.42	52343.74
563.59	51978.62
563.75	51908.40
563.92	51796.06
564.08	51845.21
564.24	52760.36
564.41	51014.32
564.57	52907.81
564.74	52420.98
564.90	51938.83
565.07	50681.96
565.23	50031.29
565.39	49684.89
565.56	49846.39
565.72	50660.90
565.88	50220.87
566.05	51805.42
566.21	50899.63
566.38	51608.81
566.54	52673.76
566.70	52664.39
566.87	52243.10
567.03	52257.14
567.19	53286.98
567.36	53092.71
567.52	51838.18
567.68	51140.71
567.85	50192.79
568.01	50328.54
568.17	49916.61
568.34	50731.11
568.50	50017.25
568.66	49738.72
568.83	49488.29
568.99	49584.25
569.15	49881.50
569.32	49839.37
569.48	50003.20
569.64	49741.06
569.81	50005.55
569.97	49474.24
570.13	48428.02
570.30	47505.85
570.46	47707.14
570.62	47482.45
570.78	48215.04
570.95	47903.74
571.11	48442.07
571.27	48470.15
571.43	48882.09
571.60	49549.14
571.76	49663.83
571.92	49551.48
572.09	50143.64
572.25	49219.13
572.41	49237.85
572.57	49418.07
572.74	50546.21
572.90	50796.65
573.06	51044.74
573.22	50808.35
573.38	50663.24
573.55	51332.63
573.71	50202.15
573.87	49918.95
574.03	49766.81
574.20	48926.56
574.36	48612.93
574.52	48732.29
574.68	48804.85
574.84	47718.84
575.01	47206.26
575.17	47583.09
575.33	48278.23
575.49	48383.55
575.65	47325.63
575.82	47540.96
575.98	48987.41
576.14	49399.35
576.30	49841.71
576.46	48566.12
576.62	48205.67
576.79	47814.80
576.95	49043.59
577.11	48938.26
577.27	48495.90
577.43	48629.31
577.59	47971.62
577.75	47412.23
577.92	47021.36
578.08	46859.87
578.24	46759.22
578.40	46885.61
578.56	45642.79
578.72	45918.97
578.88	46890.29
579.04	47257.76
579.21	47040.09
579.37	46672.62
579.53	47000.30
579.69	46618.79
579.85	46681.98
580.01	47154.77
580.17	46270.05
580.33	47262.44
580.49	47608.84
580.65	46965.19
580.82	47657.99
580.98	47681.39
581.14	46323.88
581.30	46429.21
581.46	46525.17
581.62	47510.53
581.78	48041.84
581.94	48179.93
582.10	48123.75
582.26	47983.32
582.42	47772.67
582.58	47000.30
582.74	46852.84
582.90	46686.67
583.06	48486.54
583.22	47077.54
583.38	47529.26
583.54	47636.92
583.70	47278.82
583.86	47756.29
584.02	46036.00
584.18	46726.46
584.34	46082.81
584.50	46171.75
584.66	46092.17
584.82	45675.55
584.98	46284.09
585.14	44467.84
585.30	44807.22
