SpectraSuite Data File
++++++++++++++++++++++++++++++++++++
Date: Mon Oct 07 14:55:48 GMT-05:00 2013
User: price-jones
Dark Spectrum Present: No
Reference Spectrum Present: No
Number of Sampled Component Spectra: 1
Spectrometers: USB2+H05261
Integration Time (usec): 1000000 (USB2+H05261)
Spectra Averaged: 1 (USB2+H05261)
Boxcar Smoothing: 0 (USB2+H05261)
Correct for Electrical Dark: No (USB2+H05261)
Strobe/Lamp Enabled: No (USB2+H05261)
Correct for Detector Non-linearity: No (USB2+H05261)
Correct for Stray Light: No (USB2+H05261)
Number of Pixels in Processed Spectrum: 2048
>>>>>Begin Processed Spectral Data<<<<<
365.73	0.00
365.92	0.00
366.12	0.00
366.32	0.00
366.52	0.00
366.72	217.67
366.91	0.00
367.11	212.99
367.31	37.45
367.51	152.13
367.70	212.99
367.90	421.30
368.10	299.59
368.30	210.65
368.49	0.00
368.69	369.80
368.89	236.39
369.09	9.36
369.28	205.97
369.48	0.00
369.68	88.94
369.87	255.12
370.07	23.41
370.27	486.83
370.47	1109.41
370.66	3265.05
370.86	3894.65
371.06	4519.57
371.25	4727.88
371.45	3749.54
371.65	3698.05
371.84	3117.59
372.04	3131.64
372.24	3688.68
372.44	3908.69
372.63	3665.28
372.83	3997.64
373.03	3131.64
373.22	2881.20
373.42	3052.06
373.62	3452.29
373.81	3812.73
374.01	3976.57
374.21	3557.61
374.40	3304.84
374.60	3623.15
374.79	3765.92
374.99	4135.73
375.19	4447.02
375.38	4676.39
375.58	4161.47
375.78	4409.57
375.97	4547.66
376.17	5064.92
376.37	4248.07
376.56	4645.96
376.76	4592.13
376.95	4837.89
377.15	5329.40
377.35	5472.17
377.54	5668.78
377.74	5486.22
377.93	5701.54
378.13	5582.18
378.33	5514.30
378.52	5076.62
378.72	5153.86
378.91	4968.96
379.11	4334.67
379.31	4320.63
379.50	4278.50
379.70	4940.87
379.89	5476.85
380.09	5336.42
380.28	5364.51
380.48	5350.46
380.68	5341.10
380.87	5057.90
381.07	4992.36
381.26	4971.30
381.46	4512.55
381.65	4311.27
381.85	3943.80
382.04	4114.66
382.24	3768.26
382.43	3389.10
382.63	3328.24
382.83	3424.20
383.02	3648.90
383.22	3782.31
383.41	3262.71
383.61	3864.22
383.80	4559.36
384.00	4744.27
384.19	5081.30
384.39	5331.74
384.58	5322.38
384.78	5458.13
384.97	5109.39
385.17	4896.40
385.36	4622.56
385.56	4814.48
385.75	4500.85
385.95	5247.48
386.14	5753.04
386.34	5362.17
386.53	5355.15
386.72	4746.61
386.92	5315.36
387.11	5423.02
387.31	5673.46
387.50	5062.58
387.70	4933.85
387.89	5095.35
388.09	5097.69
388.28	4999.38
388.48	5076.62
388.67	5947.30
388.86	6256.25
389.06	6354.55
389.25	6775.85
389.45	7035.65
389.64	6881.18
389.84	6991.18
390.03	6815.64
390.22	6766.49
390.42	6855.43
390.61	7201.83
390.81	7389.07
391.00	7737.81
391.19	7911.01
391.39	7297.79
391.58	7045.01
391.78	6665.85
391.97	6621.38
392.16	5816.23
392.36	5820.91
392.55	4788.74
392.75	3606.77
392.94	3070.78
393.13	3445.27
393.33	3604.42
393.52	4641.28
393.71	5891.13
393.91	6179.01
394.10	6312.42
394.29	6974.80
394.49	7351.62
394.68	8250.39
394.88	8196.56
395.07	8664.66
395.26	8315.92
395.46	8018.68
395.65	7676.96
395.84	6651.80
396.04	6434.13
396.23	4688.09
396.42	3985.93
396.62	4056.15
396.81	4905.76
397.00	5816.23
397.19	7126.93
397.39	8109.96
397.58	9497.89
397.77	9760.03
397.97	9783.44
398.16	9900.47
398.35	10581.56
398.55	10284.31
398.74	11138.61
398.93	11250.96
399.12	10848.38
399.32	10682.20
399.51	10927.96
399.70	11740.13
399.90	11281.38
400.09	11311.81
400.28	11686.29
400.47	11344.58
400.67	12070.14
400.86	12159.08
401.05	12397.82
401.24	12592.08
401.44	12519.53
401.63	12603.78
401.82	12919.76
402.01	12231.64
402.21	12666.98
402.40	12524.21
402.59	12049.08
402.78	11527.14
402.97	11536.50
403.17	12119.29
403.36	12851.88
403.55	13081.25
403.74	13184.24
403.93	12589.74
404.13	12404.84
404.32	12262.07
404.51	12802.73
404.70	13465.10
404.89	12704.43
405.09	13050.83
405.28	12304.20
405.47	11906.31
405.66	12407.18
405.85	12093.55
406.05	11639.48
406.24	11873.54
406.43	12386.12
406.62	12793.37
406.81	13352.76
407.00	12734.85
407.20	12138.02
407.39	12030.35
407.58	12737.20
407.77	13099.98
407.96	13720.22
408.15	13635.96
408.34	13982.36
408.54	14239.82
408.73	14225.78
408.92	13989.38
409.11	13802.14
409.30	13233.39
409.49	11894.60
409.68	11545.86
409.87	11356.28
410.07	11953.12
410.26	13029.76
410.45	13521.27
410.64	13593.83
410.83	14286.63
411.02	14623.67
411.21	15232.21
411.40	15073.05
411.59	14970.07
411.78	14719.63
411.98	14623.67
412.17	14483.24
412.36	14523.02
412.55	14525.36
412.74	14373.23
412.93	14347.48
413.12	14195.35
413.31	15807.98
413.50	15321.15
413.69	15627.76
413.88	15257.95
414.07	14949.00
414.26	15122.20
414.45	15456.90
414.64	15332.85
414.83	15721.38
415.02	15295.40
415.22	15489.67
415.41	15875.85
415.60	15910.96
415.79	16669.30
415.98	17315.28
416.17	16690.36
416.36	16421.20
416.55	16203.53
416.74	15569.24
416.93	15571.58
417.12	15211.14
417.31	15641.80
417.50	15791.59
417.69	16788.66
417.88	16400.13
418.07	15679.25
418.26	15662.86
418.45	15950.75
418.64	16893.99
418.83	17291.88
419.02	16741.85
419.21	16594.40
419.39	15719.04
419.58	14691.54
419.77	15103.48
419.96	16367.37
420.15	17146.76
420.34	17135.06
420.53	17921.48
420.72	18092.34
420.91	17717.86
421.10	17467.42
421.29	17362.09
421.48	17008.67
421.67	17593.81
421.86	16931.44
422.05	15653.50
422.24	14185.99
422.43	14700.90
422.61	15695.63
422.80	16863.56
422.99	16992.29
423.18	16290.13
423.37	16472.69
423.56	16517.16
423.75	16561.63
423.94	16388.43
424.13	15627.76
424.32	15686.27
424.50	15580.95
424.69	15857.13
424.88	16308.85
425.07	15709.68
425.26	15990.54
425.45	15484.98
425.64	14878.79
425.83	15328.17
426.01	16435.24
426.20	16477.37
426.39	16269.06
426.58	14995.81
426.77	13813.84
426.96	13708.52
427.15	14274.93
427.33	15147.95
427.52	15889.90
427.71	16088.84
427.90	15756.49
428.09	15534.14
428.28	14995.81
428.46	14609.62
428.65	14679.84
428.84	14633.03
429.03	15351.57
429.22	13961.30
429.40	13125.72
429.59	11971.84
429.78	11342.24
429.97	11000.52
430.16	11073.07
430.34	10946.69
430.53	11084.78
430.72	11676.93
430.91	13099.98
431.10	14750.06
431.28	17334.01
431.47	18555.77
431.66	18593.22
431.85	16519.50
432.03	15463.92
432.22	15737.76
432.41	15875.85
432.60	17687.43
432.79	17605.51
432.97	18305.33
433.16	17617.21
433.35	15777.55
433.54	14637.71
433.72	14075.98
433.91	14750.06
434.10	16229.27
434.28	17240.39
434.47	17956.59
434.66	17350.39
434.85	17172.51
435.03	18017.44
435.22	20308.83
435.41	23634.73
435.59	23520.04
435.78	21530.59
435.97	20245.63
436.16	19681.56
436.34	18878.76
436.53	18420.02
436.72	18808.54
436.90	17898.08
437.09	17776.37
437.28	17338.69
437.46	17989.36
437.65	17851.27
437.84	16702.06
438.02	15403.07
438.21	15484.98
438.40	15728.40
438.58	17160.81
438.77	17949.57
438.96	18108.72
439.14	18317.03
439.33	19424.11
439.52	19119.84
439.70	18822.59
439.89	18501.93
440.08	17996.38
440.26	17989.36
440.45	19274.31
440.63	19899.23
440.82	20453.94
441.01	20088.82
441.19	19899.23
441.38	20587.35
441.57	21046.10
441.75	21465.05
441.94	21472.07
442.12	21298.88
442.31	21556.33
442.50	21397.18
442.68	21193.55
442.87	21296.53
443.05	20486.71
443.24	21329.30
443.43	22001.04
443.61	22092.32
443.80	21956.57
443.98	20706.72
444.17	21006.31
444.35	22295.94
444.54	22136.79
444.73	22113.38
444.91	21242.70
445.10	19955.41
445.28	19304.74
445.47	19295.38
445.65	19742.42
445.84	19833.70
446.02	20802.68
446.21	20650.55
446.39	20767.57
446.58	21231.00
446.77	21404.20
446.95	21820.81
447.14	22441.06
447.32	22909.16
447.51	21921.46
447.69	21202.91
447.88	21036.74
448.06	21610.17
448.25	21895.71
448.43	21568.04
448.62	21174.83
448.80	21371.43
448.99	21479.10
449.17	21378.45
449.36	21544.63
449.54	22567.45
449.73	22309.99
449.91	23023.85
450.10	23407.70
450.28	24168.37
450.46	24290.08
450.65	23957.72
450.83	23285.99
451.02	23044.91
451.20	23016.83
451.39	22590.85
451.57	22235.09
451.76	22600.21
451.94	22511.27
452.13	22010.40
452.31	21439.31
452.49	20166.06
452.68	19957.75
452.86	20582.67
453.05	21120.99
453.23	21647.61
453.42	21930.82
453.60	22181.26
453.78	22530.00
453.97	21982.31
454.15	22059.55
454.34	21238.02
454.52	21474.42
454.70	21549.31
454.89	21582.08
455.07	21511.86
455.26	22312.33
455.44	23084.70
455.62	23482.59
455.81	23407.70
455.99	22951.29
456.17	22874.06
456.36	22930.23
456.54	23445.15
456.73	23487.28
456.91	24027.94
457.09	23772.82
457.28	24631.80
457.46	23117.47
457.64	22988.74
457.83	22391.91
458.01	21872.31
458.19	22464.46
458.38	22618.94
458.56	23468.55
458.74	22712.56
458.93	22958.31
459.11	22995.76
459.29	22270.20
459.48	22965.34
459.66	22930.23
459.84	23208.75
460.03	24212.84
460.21	23501.32
460.39	23716.65
460.57	23892.19
460.76	23742.39
460.94	23934.32
461.12	23873.46
461.31	23967.09
461.49	23386.63
461.67	23438.12
461.85	24175.39
462.04	23726.01
462.22	30998.06
462.40	24357.96
462.59	24570.94
462.77	24016.24
462.95	24173.05
463.13	23681.54
463.32	23791.55
463.50	23508.34
463.68	23711.97
463.86	23496.64
464.05	22890.44
464.23	22904.48
464.41	22845.97
464.59	22244.45
464.78	23524.72
464.96	22944.27
465.14	22930.23
465.32	23403.02
465.50	24196.46
465.69	24388.38
465.87	23597.28
466.05	23094.07
466.23	21586.76
466.41	21174.83
466.60	22190.62
466.78	22251.47
466.96	22757.03
467.14	23080.02
467.32	23452.17
467.51	23248.54
467.69	22298.28
467.87	23112.79
468.05	23365.57
468.23	23573.88
468.41	23101.09
468.60	23040.23
468.78	23470.89
468.96	23058.96
469.14	23534.09
469.32	22937.25
469.50	22478.50
469.69	22562.76
469.87	22043.17
470.05	22071.25
470.23	22302.96
470.41	22092.32
470.59	22628.30
470.77	22754.69
470.95	23082.36
471.14	23721.33
471.32	23285.99
471.50	24755.85
471.68	24486.68
471.86	24847.13
472.04	24456.26
472.22	24992.24
472.40	23702.61
472.58	23438.12
472.77	23080.02
472.95	23594.94
473.13	24599.03
473.31	24081.77
473.49	23625.37
473.67	24098.16
473.85	24156.67
474.03	25003.94
474.21	24919.68
474.39	25865.26
474.57	25947.18
474.75	25553.97
474.93	24819.04
475.12	24266.67
475.30	24339.23
475.48	24683.29
475.66	25043.73
475.84	24664.57
476.02	24341.57
476.20	24205.82
476.38	24369.66
476.56	25883.98
476.74	25549.29
476.92	25785.68
477.10	26080.59
477.28	26977.01
477.46	26316.98
477.64	26810.84
477.82	27051.91
478.00	27103.40
478.18	27026.17
478.36	26602.53
478.54	26466.78
478.72	26911.48
478.90	27740.03
479.08	28369.63
479.26	28526.45
479.44	27903.87
479.62	27718.96
479.80	28435.17
479.98	28196.43
480.16	28467.94
480.34	28166.01
480.52	28533.47
480.70	29109.24
480.88	28858.81
481.06	29359.68
481.24	29797.36
481.41	29993.97
481.59	30986.35
481.77	30073.54
481.95	29776.30
482.13	30281.85
482.31	29909.71
482.49	30024.39
482.67	30277.17
482.85	30991.03
483.03	31143.17
483.21	31129.12
483.39	30948.90
483.57	30244.40
483.74	30799.11
483.92	30909.11
484.10	30646.97
484.28	31466.16
484.46	32500.68
484.64	31999.80
484.82	31449.78
485.00	30831.88
485.18	30433.99
485.35	29247.33
485.53	26813.18
485.71	25106.93
485.89	24629.46
486.07	26583.80
486.25	29053.07
486.43	30073.54
486.61	30691.44
486.78	30171.85
486.96	30363.77
487.14	31569.15
487.32	32393.01
487.50	32950.06
487.68	34167.14
487.85	34148.42
488.03	34543.97
488.21	34232.68
488.39	33076.45
488.57	32517.06
488.75	31983.42
488.92	37041.32
489.10	35648.70
489.28	37605.39
489.46	37024.93
489.64	36959.40
489.81	37151.32
489.99	37177.07
490.17	36629.38
490.35	37708.37
490.53	36643.43
490.70	36170.64
490.88	36598.96
491.06	37401.76
491.24	37544.53
491.41	36287.67
491.59	34649.29
491.77	33570.30
491.95	34532.26
492.13	35821.90
492.30	37354.95
492.48	38424.57
492.66	38988.64
492.84	38653.95
493.01	38082.86
493.19	37340.91
493.37	37556.24
493.54	37120.90
493.72	38029.02
493.90	38967.58
494.08	39899.11
494.25	40840.01
494.43	40208.06
494.61	41020.23
494.79	40924.27
494.96	40409.35
495.14	39564.42
495.32	38110.94
495.49	37801.99
495.67	39475.48
495.85	41139.60
496.02	41141.94
496.20	41769.20
496.38	40652.76
496.55	40327.43
496.73	41378.33
496.91	40945.33
497.09	42419.87
497.26	41839.42
497.44	41518.76
497.62	40563.82
497.79	39688.46
497.97	38117.96
498.14	38630.54
498.32	39814.85
498.50	40587.23
498.67	41397.06
498.85	41687.28
499.03	41799.63
499.20	41991.55
499.38	42085.17
499.56	41539.83
499.73	41038.95
499.91	41076.40
500.08	40362.54
500.26	38735.87
500.44	39674.42
500.61	40772.13
500.79	39831.24
500.97	39323.34
501.14	39676.76
501.32	39098.65
501.49	39117.37
501.67	39512.92
501.84	40264.24
502.02	40444.46
502.20	41790.27
502.37	41209.81
502.55	41006.19
502.72	41596.00
502.90	42876.27
503.07	42061.77
503.25	41418.12
503.43	40133.17
503.60	39208.65
503.78	38733.53
503.95	38836.51
504.13	40889.16
504.30	42277.10
504.48	42274.76
504.65	41593.66
504.83	41727.07
505.01	42256.03
505.18	42562.64
505.36	43482.47
505.53	43697.80
505.71	43690.78
505.88	43875.68
506.06	42850.53
506.23	42649.24
506.41	41696.64
506.58	42440.93
506.76	42195.18
506.93	42108.58
507.11	42223.26
507.28	41890.91
507.46	41273.01
507.63	40072.31
507.81	40411.69
507.98	40676.17
508.16	41703.67
508.33	42251.35
508.50	43304.59
508.68	43342.04
508.85	44002.07
509.03	43627.59
509.20	43262.46
509.38	42527.53
509.55	41642.81
509.73	42176.45
509.90	42679.67
510.08	42997.98
510.25	42752.23
510.42	41923.68
510.60	42181.13
510.77	42864.57
510.95	43587.80
511.12	43391.19
511.30	44025.48
511.47	44669.12
511.64	44971.05
511.82	43669.72
511.99	42307.52
512.17	41888.57
512.34	41242.58
512.51	41694.30
512.69	41734.09
512.86	42302.84
513.04	42241.99
513.21	42478.38
513.38	41865.16
513.56	41092.79
513.73	40598.93
513.90	40940.65
514.08	40942.99
514.25	41373.65
514.43	41626.43
514.60	41806.65
514.77	41874.52
514.95	41911.97
515.12	42087.51
515.29	42288.80
515.47	43379.49
515.64	43847.60
515.81	42967.55
515.99	42171.77
516.16	39646.33
516.33	37001.53
516.51	35459.12
516.68	34546.31
516.85	33647.54
517.03	34904.41
517.20	38342.66
517.37	41071.72
517.54	41923.68
517.72	41165.34
517.89	36989.83
518.06	35325.71
518.24	36919.61
518.41	39033.11
518.58	40711.28
518.75	40208.06
518.93	40453.82
519.10	40388.28
519.27	40926.61
519.45	41537.49
519.62	42284.12
519.79	43222.67
519.96	42513.49
520.14	42110.92
520.31	41270.67
520.48	40629.36
520.65	41322.16
520.83	42937.13
521.00	43449.70
521.17	42981.60
521.34	41706.01
521.52	42478.38
521.69	43133.73
521.86	43489.49
522.03	43159.48
522.20	41710.69
522.38	40184.66
522.55	40304.02
522.72	40528.72
522.89	41294.07
523.07	41476.63
523.24	42515.83
523.41	43302.25
523.58	43220.33
523.75	44573.16
523.92	43650.99
524.10	44217.40
524.27	43672.06
524.44	43721.21
524.61	43512.90
524.78	42990.96
524.96	43320.98
525.13	43562.05
525.30	43562.05
525.47	43976.33
525.64	43234.38
525.81	42485.40
525.98	40741.71
526.16	38696.08
526.33	38150.73
526.50	37263.67
526.67	37134.94
526.84	37993.92
527.01	39056.52
527.18	40521.69
527.36	41301.09
527.53	42689.03
527.70	42944.15
527.87	42564.98
528.04	41986.87
528.21	42740.52
528.38	43606.52
528.55	44470.18
528.72	44999.14
528.89	45240.21
529.07	44006.75
529.24	43313.95
529.41	42436.25
529.58	41940.06
529.75	41296.41
529.92	42363.70
530.09	43035.43
530.26	43695.46
530.43	44470.18
530.60	44140.16
530.77	44959.35
530.94	44945.31
531.11	44215.06
531.28	43187.56
531.46	43159.48
531.63	43732.91
531.80	43140.75
531.97	42557.96
532.14	41380.67
532.31	40390.62
532.48	39526.97
532.65	39873.37
532.82	40823.62
532.99	42169.43
533.16	42607.11
533.33	43154.80
533.50	43217.99
533.67	41708.35
533.84	41886.23
534.01	41874.52
534.18	41713.03
534.35	42209.22
534.52	42162.41
534.69	43201.61
534.86	42738.18
535.03	43765.68
535.20	44013.77
535.37	45174.68
535.54	44832.96
535.71	44268.89
535.88	44086.33
536.05	42862.23
536.22	42436.25
536.38	41701.32
536.55	41507.06
536.72	40856.39
536.89	40442.12
537.06	41837.08
537.23	42871.59
537.40	43206.29
537.57	43320.98
537.74	43716.53
537.91	43557.37
538.08	43585.46
538.25	43676.74
538.42	43590.14
538.59	43009.68
538.75	41942.40
538.92	42134.32
539.09	42326.25
539.26	41488.34
539.43	42623.50
539.60	42014.96
539.77	43100.97
539.94	42787.33
540.11	41572.60
540.28	41916.65
540.44	42305.18
540.61	42424.55
540.78	43147.78
540.95	44055.90
541.12	46092.17
541.29	45832.37
541.46	46829.44
541.62	47264.78
541.79	46211.54
541.96	45694.28
542.13	45762.15
542.30	45684.92
542.47	45996.21
542.63	45186.38
542.80	45209.79
542.97	45151.27
543.14	44823.60
543.31	45308.09
543.48	46038.34
543.64	46873.91
543.81	47210.95
543.98	46604.75
544.15	45471.93
544.32	44697.21
544.48	45003.82
544.65	45687.26
544.82	45663.85
544.99	45233.19
545.16	45436.82
545.32	45539.80
545.49	50216.19
545.66	52996.75
545.83	53600.61
546.00	51065.81
546.16	47430.96
546.33	45642.79
546.50	44439.75
546.67	45013.18
546.83	43599.50
547.00	43723.55
547.17	42628.18
547.34	41593.66
547.50	41706.01
547.67	42569.66
547.84	41914.31
548.00	42995.64
548.17	42962.87
548.34	43241.40
548.51	43316.29
548.67	43260.12
548.84	42855.21
549.01	42909.04
549.18	42457.32
549.34	42794.36
549.51	42665.63
549.68	42632.86
549.84	41703.67
550.01	41174.70
550.18	43143.09
550.34	42373.06
550.51	41647.49
550.68	42164.75
550.84	40313.39
551.01	40987.46
551.18	40739.36
551.34	41319.82
551.51	41502.38
551.68	41673.24
551.84	41750.48
552.01	41017.89
552.18	41118.53
552.34	39885.07
552.51	39318.66
552.68	39077.58
552.84	40275.94
553.01	40123.80
553.18	40165.93
553.34	39988.05
553.51	39842.94
553.67	40371.90
553.84	41223.86
554.01	40587.23
554.17	40814.26
554.34	40025.50
554.51	40456.16
554.67	41219.17
554.84	40512.33
555.00	39786.77
555.17	39676.76
555.33	39770.38
555.50	39571.44
555.67	39304.62
555.83	39178.23
556.00	38906.73
556.16	41357.27
556.33	38569.69
556.50	38195.20
556.66	38120.31
556.83	37645.18
556.99	37673.26
557.16	38253.72
557.32	38160.09
557.49	38321.59
557.65	37935.40
557.82	38082.86
557.98	38110.94
558.15	37579.64
558.32	36811.95
558.48	35747.00
558.65	36236.17
558.81	36376.61
558.98	36301.71
559.14	36762.79
559.31	36697.26
559.47	36961.74
559.64	36114.47
559.80	36432.78
559.97	36074.68
560.13	36950.04
560.30	37722.41
560.46	38150.73
560.63	38450.32
560.79	38490.11
560.96	38216.27
561.12	36598.96
561.29	35599.55
561.45	35606.57
561.61	36449.16
561.78	38092.22
561.94	36491.29
562.11	36514.70
562.27	36414.05
562.44	36882.16
562.60	37509.43
562.77	37684.97
562.93	38274.78
563.10	37172.39
563.26	36514.70
563.42	36414.05
563.59	36128.51
563.75	35615.93
563.92	36615.34
564.08	36074.68
564.24	36914.93
564.41	37046.00
564.57	36701.94
564.74	35711.89
564.90	35941.27
565.07	35910.84
565.23	35613.59
565.39	34820.15
565.56	34274.80
565.72	34192.89
565.88	34302.89
566.05	34983.99
566.21	34873.98
566.38	35431.03
566.54	35145.48
566.70	36201.07
566.87	35662.74
567.03	35824.24
567.19	36261.92
567.36	36062.97
567.52	35505.93
567.68	35580.82
567.85	34958.24
568.01	33968.19
568.17	33266.03
568.34	33862.87
568.50	34284.17
568.66	33773.93
568.83	35374.86
568.99	34136.71
569.15	34649.29
569.32	34733.55
569.48	34440.98
569.64	33701.37
569.81	33322.21
569.97	33745.84
570.13	33961.17
570.30	32971.13
570.46	32439.82
570.62	32081.72
570.78	32130.87
570.95	31962.36
571.11	33626.48
571.27	33890.96
571.43	33230.93
571.60	33958.83
571.76	33816.06
571.92	34258.42
572.09	34274.80
572.25	33905.00
572.41	34312.25
572.57	33656.90
572.74	34644.61
572.90	33902.66
573.06	33359.66
573.22	34007.98
573.38	34075.86
573.55	33881.60
573.71	34139.05
573.87	34071.18
574.03	33186.46
574.20	33537.54
574.36	33160.71
574.52	32933.68
574.68	32919.63
574.84	32804.95
575.01	32034.91
575.17	32294.71
575.33	32273.65
575.49	32973.47
575.65	32961.76
575.82	32596.64
575.98	32856.44
576.14	32917.29
576.30	33743.50
576.46	34550.99
576.62	35440.39
576.79	35065.91
576.95	34110.97
577.11	32980.49
577.27	33022.62
577.43	32987.51
577.59	32421.10
577.75	32404.72
577.92	31002.74
578.08	30541.65
578.24	30941.88
578.40	32259.60
578.56	33610.09
578.72	34146.08
578.88	34433.96
579.04	33263.69
579.21	32992.19
579.37	32538.13
579.53	32051.30
579.69	32884.53
579.85	32751.12
580.01	33113.90
580.17	32449.19
580.33	32212.79
580.49	32173.00
580.65	32631.75
580.82	32521.74
580.98	32472.59
581.14	32149.60
581.30	32896.23
581.46	32486.64
581.62	32526.42
581.78	32517.06
581.94	33001.55
582.10	32367.27
582.26	32769.84
582.42	32350.88
582.58	32952.40
582.74	32650.47
582.90	32982.83
583.06	33134.96
583.22	32811.97
583.38	33216.88
583.54	32687.92
583.70	33291.78
583.86	32830.69
584.02	32732.39
584.18	33460.30
584.34	32147.26
584.50	32442.17
584.66	31920.23
584.82	31763.41
584.98	31740.00
