SpectraSuite Data File
++++++++++++++++++++++++++++++++++++
Date: Mon Oct 07 14:53:43 GMT-05:00 2013
User: price-jones
Dark Spectrum Present: No
Reference Spectrum Present: No
Number of Sampled Component Spectra: 1
Spectrometers: USB2+H05261
Integration Time (usec): 100000 (USB2+H05261)
Spectra Averaged: 1 (USB2+H05261)
Boxcar Smoothing: 0 (USB2+H05261)
Correct for Electrical Dark: No (USB2+H05261)
Strobe/Lamp Enabled: No (USB2+H05261)
Correct for Detector Non-linearity: No (USB2+H05261)
Correct for Stray Light: No (USB2+H05261)
Number of Pixels in Processed Spectrum: 2048
>>>>>Begin Processed Spectral Data<<<<<
365.73	0.00
365.92	0.00
366.12	0.00
366.32	0.00
366.52	0.00
366.72	0.00
366.91	0.00
367.11	0.00
367.31	0.00
367.51	0.00
367.70	0.00
367.90	0.00
368.10	0.00
368.30	0.00
368.49	0.00
368.69	0.00
368.89	0.00
369.09	0.00
369.28	0.00
369.48	0.00
369.68	0.00
369.87	0.00
370.07	0.00
370.27	0.00
370.47	674.07
370.66	3620.81
370.86	4212.96
371.06	4624.90
371.25	4641.28
371.45	4072.53
371.65	3896.99
371.84	3606.77
372.04	3719.11
372.24	4067.85
372.44	4325.31
372.63	4421.27
372.83	4154.45
373.03	3400.80
373.22	3251.00
373.42	3356.33
373.62	3990.61
373.81	4409.57
374.01	4311.27
374.21	3948.48
374.40	3693.37
374.60	3782.31
374.79	4255.09
374.99	4919.81
375.19	5015.77
375.38	5275.57
375.58	4980.66
375.78	4868.31
375.97	5069.60
376.17	5205.35
376.37	5074.28
376.56	5231.10
376.76	5638.35
376.95	5921.56
377.15	6424.77
377.35	6572.22
377.54	6754.79
377.74	7157.36
377.93	7126.93
378.13	6654.14
378.33	6457.54
378.52	6012.84
378.72	5802.19
378.91	5769.42
379.11	5423.02
379.31	5401.96
379.50	5301.31
379.70	5753.04
379.89	6258.59
380.09	6829.68
380.28	6705.63
380.48	6839.05
380.68	6939.69
380.87	6752.45
381.07	6204.76
381.26	5633.67
381.46	5298.97
381.65	5177.26
381.85	4901.08
382.04	4851.93
382.24	4500.85
382.43	4138.07
382.63	4149.77
382.83	4159.13
383.02	4236.37
383.22	4095.94
383.41	4250.41
383.61	4444.68
383.80	5029.81
384.00	5804.53
384.19	6452.86
384.39	6855.43
384.58	6682.23
384.78	6766.49
384.97	6771.17
385.17	6392.00
385.36	6059.65
385.56	5809.21
385.75	5841.98
385.95	6572.22
386.14	6960.75
386.34	7150.34
386.53	6883.52
386.72	6384.98
386.92	6298.38
387.11	6920.96
387.31	7066.08
387.50	6855.43
387.70	6675.21
387.89	6595.63
388.09	6759.47
388.28	6754.79
388.48	6712.66
388.67	7311.83
388.86	7990.59
389.06	8645.94
389.25	9022.77
389.45	9090.64
389.64	9123.41
389.84	9090.64
390.03	8814.46
390.22	9013.40
390.42	9249.80
390.61	9760.03
390.81	10494.96
391.00	10642.42
391.19	10595.61
391.39	10188.35
391.58	9600.88
391.78	9029.79
391.97	8769.99
392.16	8067.83
392.36	7456.95
392.55	6125.18
392.75	4933.85
392.94	3934.44
393.13	3775.28
393.33	4498.51
393.52	6010.50
393.71	7262.68
393.91	8210.60
394.10	8793.39
394.29	9647.69
394.49	10251.55
394.68	11082.44
394.88	11133.93
395.07	11763.53
395.26	11265.00
395.46	11117.54
395.65	10574.54
395.84	9317.67
396.04	7887.61
396.23	6317.11
396.42	5315.36
396.62	5029.81
396.81	5870.06
397.00	7515.46
397.19	9322.35
397.39	11204.14
397.58	12568.68
397.77	13497.87
397.97	14389.61
398.16	14038.53
398.35	14494.94
398.55	15150.29
398.74	15484.98
398.93	15922.66
399.12	15550.52
399.32	14930.28
399.51	15400.72
399.70	16526.52
399.90	16514.82
400.09	16573.33
400.28	16149.70
400.47	16400.13
400.67	17144.42
400.86	17369.12
401.05	17891.06
401.24	17722.54
401.44	17860.63
401.63	17947.23
401.82	18101.70
402.01	17834.88
402.21	18218.73
402.40	18258.52
402.59	18038.51
402.78	17083.57
402.97	16133.31
403.17	17106.98
403.36	18113.41
403.55	18661.09
403.74	19105.79
403.93	18492.57
404.13	17064.85
404.32	16732.49
404.51	17268.47
404.70	18761.73
404.89	18417.68
405.09	18382.57
405.28	17659.34
405.47	18015.10
405.66	17640.62
405.85	17558.70
406.05	16840.15
406.24	17027.40
406.43	17832.54
406.62	18595.56
406.81	18616.62
407.00	17750.62
407.20	17462.74
407.39	17848.93
407.58	18651.73
407.77	19435.81
407.96	19894.55
408.15	20009.24
408.34	20259.68
408.54	20950.14
408.73	21280.15
408.92	20802.68
409.11	20503.09
409.30	19253.25
409.49	18387.25
409.68	17020.38
409.87	16294.81
410.07	17422.95
410.26	18824.93
410.45	19939.02
410.64	20645.87
410.83	21270.79
411.02	21509.52
411.21	22487.87
411.40	22429.35
411.59	22670.43
411.78	22253.81
411.98	22169.55
412.17	22647.02
412.36	21649.96
412.55	21851.24
412.74	21516.54
412.93	21135.04
413.12	21216.96
413.31	23005.13
413.50	23630.05
413.69	23688.56
413.88	22963.00
414.07	22225.73
414.26	22265.52
414.45	23388.97
414.64	23779.84
414.83	23410.04
415.02	23278.97
415.22	22979.38
415.41	23426.42
415.60	24109.86
415.79	25106.93
415.98	25818.45
416.17	26246.77
416.36	25174.80
416.55	24828.40
416.74	24067.73
416.93	23166.62
417.12	23126.83
417.31	23538.77
417.50	23985.81
417.69	24772.23
417.88	24753.51
418.07	24247.95
418.26	23845.38
418.45	24283.06
418.64	24706.70
418.83	26160.17
419.02	25853.56
419.21	25579.71
419.39	24261.99
419.58	23194.71
419.77	23309.40
419.96	24049.00
420.15	25413.54
420.34	26705.51
420.53	27302.35
420.72	27627.68
420.91	27419.38
421.10	27424.06
421.29	26689.13
421.48	25991.65
421.67	27454.48
421.86	26735.94
422.05	24992.24
422.24	22368.50
422.43	22057.21
422.61	24100.50
422.80	26546.36
422.99	26324.01
423.18	25153.74
423.37	24861.17
423.56	24737.12
423.75	25483.75
423.94	25991.65
424.13	24596.69
424.32	24940.75
424.50	24999.26
424.69	24439.87
424.88	24512.43
425.07	24322.85
425.26	24503.07
425.45	24299.44
425.64	23962.40
425.83	23833.68
426.01	25429.92
426.20	25862.92
426.39	26096.97
426.58	24067.73
426.77	22111.04
426.96	21235.68
427.15	21996.35
427.33	23955.38
427.52	25336.30
427.71	24702.01
427.90	24570.94
428.09	24252.63
428.28	24009.22
428.46	23208.75
428.65	22644.68
428.84	23239.18
429.03	23704.95
429.22	22349.78
429.40	20996.95
429.59	19286.01
429.78	17111.66
429.97	17179.53
430.16	17160.81
430.34	17638.28
430.53	17371.46
430.72	17521.25
430.91	19417.08
431.10	22951.29
431.28	26745.30
431.47	29422.87
431.66	29626.50
431.85	27154.90
432.03	24973.52
432.22	23744.73
432.41	24795.64
432.60	27777.48
432.79	28397.72
432.97	29167.76
433.16	28809.65
433.35	26338.05
433.54	23339.82
433.72	22010.40
433.91	22740.64
434.10	25317.57
434.28	27300.01
434.47	29017.96
434.66	28465.60
434.85	27669.81
435.03	27269.58
435.22	28329.84
435.41	29977.58
435.59	29919.07
435.78	30174.19
435.97	31388.92
436.16	31292.96
436.34	30567.40
436.53	30195.25
436.72	30345.05
436.90	28170.69
437.09	28760.50
437.28	27894.50
437.46	28865.83
437.65	29149.03
437.84	27300.01
438.02	24718.40
438.21	24292.42
438.40	25879.30
438.58	28070.04
438.77	29043.71
438.96	29233.29
439.14	30464.41
439.33	31138.49
439.52	31784.48
439.70	30981.67
439.89	30045.46
440.08	29415.85
440.26	29462.66
440.45	29827.79
440.63	32273.65
440.82	33745.84
441.01	33825.42
441.19	32961.76
441.38	33495.41
441.57	35363.15
441.75	35667.42
441.94	35517.63
442.12	35035.48
442.31	36191.70
442.50	35728.28
442.68	35143.14
442.87	35185.27
443.05	34686.74
443.24	35044.84
443.43	35927.22
443.61	36491.29
443.80	37174.73
443.98	35159.53
444.17	34740.57
444.35	37104.51
444.54	37654.54
444.73	37001.53
444.91	35344.43
445.10	33991.60
445.28	32535.79
445.47	32474.93
445.65	32285.35
445.84	33481.36
446.02	34220.97
446.21	35227.40
446.39	35246.13
446.58	35810.20
446.77	36304.05
446.95	36147.23
447.14	36898.55
447.32	37818.38
447.51	36715.98
447.69	35651.04
447.88	35164.21
448.06	35440.39
448.25	36577.89
448.43	37027.28
448.62	36067.66
448.80	36224.47
448.99	36392.99
449.17	36692.58
449.36	36116.81
449.54	37935.40
449.73	38373.08
449.91	38719.48
450.10	39758.68
450.28	40086.36
450.46	40048.91
450.65	40170.61
450.83	39938.90
451.02	38871.62
451.20	38756.93
451.39	38810.76
451.57	38562.67
451.76	38480.75
451.94	38670.33
452.13	37663.90
452.31	36301.71
452.49	34614.18
452.68	34763.98
452.86	34602.48
453.05	35133.78
453.23	36268.94
453.42	36985.15
453.60	38113.28
453.78	38050.09
453.97	37764.54
454.15	38073.49
454.34	37507.08
454.52	37333.89
454.70	36762.79
454.89	37141.96
455.07	37310.48
455.26	37652.20
455.44	39096.31
455.62	39810.17
455.81	40126.14
455.99	40144.87
456.17	39325.68
456.36	39611.23
456.54	40781.49
456.73	40430.41
456.91	41177.04
457.09	41352.58
457.28	41881.55
457.46	40704.26
457.64	39964.65
457.83	39227.38
458.01	37961.15
458.19	39166.52
458.38	39463.77
458.56	40793.20
458.74	40446.80
458.93	40011.46
459.11	39571.44
459.29	39819.53
459.48	40081.67
459.66	39213.34
459.84	40194.02
460.03	39995.07
460.21	40671.49
460.39	41350.24
460.57	41338.54
460.76	41792.61
460.94	41865.16
461.12	41106.83
461.31	41022.57
461.49	41792.61
461.67	41273.01
461.85	42501.79
462.04	42265.39
462.22	42590.73
462.40	42337.95
462.59	41911.97
462.77	41865.16
462.95	42227.95
463.13	41881.55
463.32	41612.38
463.50	41027.25
463.68	41488.34
463.86	41258.96
464.05	40989.80
464.23	39775.06
464.41	40105.08
464.59	39248.44
464.78	41050.66
464.96	41013.21
465.14	40458.50
465.32	41523.44
465.50	42501.79
465.69	42656.26
465.87	42574.34
466.05	40985.12
466.23	39494.20
466.41	38356.70
466.60	39592.50
466.78	39316.32
466.96	40631.70
467.14	41060.02
467.32	41563.23
467.51	41490.68
467.69	39828.90
467.87	40334.45
468.05	41055.34
468.23	41020.23
468.41	41155.98
468.60	41338.54
468.78	41340.88
468.96	40795.54
469.14	42162.41
469.32	42157.73
469.50	40208.06
469.69	40856.39
469.87	39871.03
470.05	40140.19
470.23	39969.33
470.41	40442.12
470.59	40673.83
470.77	40858.73
470.95	41490.68
471.14	42073.47
471.32	41921.34
471.50	44362.51
471.68	44470.18
471.86	44423.37
472.04	45059.99
472.22	44884.45
472.40	42801.38
472.58	42649.24
472.77	42382.42
472.95	42855.21
473.13	43789.08
473.31	42656.26
473.49	43131.39
473.67	43896.75
473.85	44083.99
474.03	45275.32
474.21	45471.93
474.39	45581.93
474.57	45666.19
474.75	45764.49
474.93	45322.13
475.12	44350.81
475.30	44680.83
475.48	44877.43
475.66	45345.54
475.84	44863.39
476.02	44582.52
476.20	44091.01
476.38	44711.25
476.56	45916.63
476.74	46312.18
476.92	46443.25
477.10	47327.97
477.28	48374.19
477.46	48484.20
477.64	48814.21
477.82	48701.87
478.00	48987.41
478.18	48381.21
478.36	48245.46
478.54	48266.53
478.72	48533.35
478.90	49249.55
479.08	50651.53
479.26	50857.50
479.44	50590.68
479.62	50646.85
479.80	50241.94
479.98	50653.87
480.16	51194.54
480.34	50457.27
480.52	51054.11
480.70	51360.72
480.88	51243.69
481.06	51889.68
481.24	52018.41
481.41	52676.10
481.59	53188.67
481.77	52856.32
481.95	52601.20
482.13	52404.59
482.31	52645.67
482.49	52921.85
482.67	53137.18
482.85	53179.31
483.03	53722.32
483.21	53776.15
483.39	54028.93
483.57	53162.93
483.74	52959.30
483.92	53263.57
484.10	53474.22
484.28	54117.87
484.46	54321.49
484.64	54710.02
484.82	54190.42
485.00	53425.07
485.18	53223.78
485.35	52205.65
485.53	49141.89
485.71	46026.63
485.89	45268.30
486.07	47084.56
486.25	50263.00
486.43	52247.78
486.61	53209.74
486.78	52758.02
486.96	52926.53
487.14	54321.49
487.32	54899.61
487.50	55648.58
487.68	56652.67
487.85	56767.35
488.03	56680.75
488.21	56287.54
488.39	55861.57
488.57	55075.15
488.75	55264.73
488.92	55723.47
489.10	57638.03
489.28	58726.38
489.46	59260.02
489.64	58948.73
489.81	59309.18
489.99	59028.31
490.17	58995.54
490.35	59447.27
490.53	59047.04
490.70	58623.40
490.88	58663.19
491.06	59344.28
491.24	59171.08
491.41	58752.13
491.59	57226.10
491.77	56594.15
491.95	57581.86
492.13	58436.16
492.30	59339.60
492.48	60093.25
492.66	60446.68
492.84	60434.97
493.01	60226.66
493.19	59576.00
493.37	59700.04
493.54	59320.88
493.72	59831.11
493.90	60622.22
494.08	61380.55
494.25	61553.75
494.43	61595.88
494.61	61881.42
494.79	62010.15
494.96	61862.70
495.14	61434.38
495.32	60397.52
495.49	60009.00
495.67	61165.22
495.85	62113.14
496.02	62522.73
496.20	62415.07
496.38	62003.13
496.55	61942.28
496.73	62370.60
496.91	62396.34
497.09	62965.09
497.26	62983.82
497.44	62567.20
497.62	62127.18
497.79	61382.89
497.97	60334.33
498.14	60374.12
498.32	61432.04
498.50	62155.27
498.67	62911.26
498.85	62548.48
499.03	62742.74
499.20	62929.98
499.38	63159.36
499.56	63014.24
499.73	62478.26
499.91	62237.19
500.08	61752.69
500.26	61066.92
500.44	61432.04
500.61	62092.07
500.79	61881.42
500.97	61549.07
501.14	61513.96
501.32	61359.48
501.49	61385.23
501.67	61539.71
501.84	62010.15
502.02	62204.42
502.20	62583.58
502.37	62656.14
502.55	62628.05
502.72	63203.83
502.90	63632.14
503.07	63236.59
503.25	62965.09
503.43	62286.34
503.60	61623.96
503.78	61024.79
503.95	61499.92
504.13	62691.25
504.30	63384.05
504.48	63229.57
504.65	63157.02
504.83	62979.14
505.01	63575.97
505.18	63810.03
505.36	64289.84
505.53	64381.12
505.71	64561.34
505.88	64629.21
506.06	64147.06
506.23	63812.37
506.41	63470.65
506.58	63639.17
506.76	63449.58
506.93	63693.00
507.11	63234.25
507.28	63575.97
507.46	63152.33
507.63	62674.87
507.81	62379.96
507.98	62628.05
508.16	63086.80
508.33	63704.70
508.50	64020.67
508.68	64212.60
508.85	64669.00
509.03	64624.53
509.20	64559.00
509.38	64008.97
509.55	63086.80
509.73	63257.66
509.90	63758.53
510.08	64107.27
510.25	64140.04
510.42	63884.92
510.60	63688.32
510.77	64013.65
510.95	64397.50
511.12	64636.23
511.30	64692.41
511.47	64933.48
511.64	65043.49
511.82	64725.17
511.99	64072.17
512.17	63613.42
512.34	63362.98
512.51	63557.25
512.69	63568.95
512.86	63737.47
513.04	64023.01
513.21	64086.21
513.38	63660.23
513.56	63327.87
513.73	62855.09
513.90	63042.33
514.08	63028.29
514.25	63482.35
514.43	63522.14
514.60	63749.17
514.77	63751.51
514.95	63929.39
515.12	63700.02
515.29	63824.07
515.47	64465.38
515.64	64479.42
515.81	64224.30
515.99	63646.19
516.16	62330.81
516.33	60678.39
516.51	59192.15
516.68	58761.49
516.85	58485.31
517.03	58482.97
517.20	60786.05
517.37	62866.79
517.54	63704.70
517.72	63337.24
517.89	61396.93
518.06	59299.81
518.24	59367.69
518.41	61371.19
518.58	62656.14
518.75	62817.64
518.93	63007.22
519.10	62941.69
519.27	63309.15
519.45	63098.50
519.62	64217.28
519.79	64346.01
519.96	64156.42
520.14	63786.62
520.31	63070.42
520.48	63039.99
520.65	63213.19
520.83	64245.36
521.00	64346.01
521.17	64221.96
521.34	63908.33
521.52	64282.81
521.69	64566.02
521.86	64931.14
522.03	64729.86
522.20	63709.38
522.38	62763.81
522.55	62639.76
522.72	63426.18
522.89	63243.62
523.07	63423.84
523.24	63842.79
523.41	64516.87
523.58	64898.37
523.75	65256.48
523.92	65305.63
524.10	65022.42
524.27	65059.87
524.44	65038.81
524.61	64949.87
524.78	64692.41
524.96	64350.69
525.13	64526.23
525.30	64526.23
525.47	65186.26
525.64	65174.56
525.81	64292.18
525.98	63262.34
526.16	61806.53
526.33	61254.16
526.50	61031.81
526.67	60699.45
526.84	61340.76
527.01	62176.33
527.18	62906.58
527.36	63650.87
527.53	64502.82
527.70	64669.00
527.87	64273.45
528.04	63770.24
528.21	64151.74
528.38	64779.01
528.55	65284.56
528.72	65516.28
528.89	65535.00
529.07	65427.34
529.24	64940.50
529.41	64320.26
529.58	63685.98
529.75	63826.41
529.92	64301.54
530.09	64678.36
530.26	64984.97
530.43	65357.12
530.60	65148.81
530.77	65410.95
530.94	65535.00
531.11	65132.43
531.28	64872.63
531.46	64690.07
531.63	64921.78
531.80	64687.73
531.97	64378.78
532.14	63547.89
532.31	62845.72
532.48	62176.33
532.65	62213.78
532.82	62967.43
532.99	63997.27
533.16	64303.88
533.33	64821.14
533.50	64713.47
533.67	63891.94
533.84	63718.74
534.01	63990.25
534.18	64102.59
534.35	64221.96
534.52	64161.11
534.69	64357.71
534.86	64622.19
535.03	64722.83
535.20	65137.11
535.37	65469.46
535.54	65535.00
535.71	65254.14
535.88	65078.60
536.05	64568.36
536.22	63943.44
536.38	63800.66
536.55	63241.28
536.72	62995.52
536.89	62915.94
537.06	63561.93
537.23	64371.75
537.40	64448.99
537.57	64556.66
537.74	64460.69
537.91	64409.20
538.08	64224.30
538.25	64264.09
538.42	64580.06
538.59	64205.58
538.75	63676.61
538.92	63566.61
539.09	63498.73
539.26	63161.70
539.43	63084.46
539.60	63135.95
539.77	63311.49
539.94	63334.90
540.11	62569.54
540.28	62152.93
540.44	62181.01
540.61	62328.47
540.78	62564.86
540.95	63131.27
541.12	63320.85
541.29	63540.86
541.46	63821.73
541.62	64046.42
541.79	63800.66
541.96	63267.02
542.13	63093.82
542.30	63416.82
542.47	63709.38
542.63	63377.03
542.80	63196.80
542.97	63231.91
543.14	63267.02
543.31	63103.18
543.48	63540.86
543.64	64507.50
543.81	64573.04
543.98	64516.87
544.15	63901.31
544.32	63430.86
544.48	63458.94
544.65	63915.35
544.82	64130.68
544.99	63978.54
545.16	63522.14
545.32	63182.76
545.49	63861.52
545.66	64264.09
545.83	63994.93
546.00	63847.47
546.16	63292.77
546.33	63505.76
546.50	63339.58
546.67	63821.73
546.83	63416.82
547.00	63510.44
547.17	62805.94
547.34	62361.23
547.50	62518.05
547.67	62735.72
547.84	62761.47
548.00	63217.87
548.17	63489.37
548.34	63451.92
548.51	63384.05
548.67	63545.54
548.84	63367.66
549.01	63503.42
549.18	63379.37
549.34	63416.82
549.51	63463.63
549.68	63320.85
549.84	62911.26
550.01	62965.09
550.18	63079.78
550.34	62929.98
550.51	63140.63
550.68	63215.53
550.84	62766.15
551.01	62761.47
551.18	62649.12
551.34	62873.81
551.51	63260.00
551.68	63475.33
551.84	63480.01
552.01	63276.38
552.18	63245.96
552.34	62452.51
552.51	62267.61
552.68	61993.77
552.84	62768.49
553.01	62831.68
553.18	62770.83
553.34	62827.00
553.51	62691.25
553.67	63105.52
553.84	63245.96
554.01	63070.42
554.17	62672.52
554.34	62944.03
554.51	63075.10
554.67	63302.13
554.84	63236.59
555.00	62974.45
555.17	62754.44
555.33	62693.59
555.50	62808.28
555.67	62787.21
555.83	62604.65
556.00	62150.59
556.16	62288.68
556.33	61970.36
556.50	61918.87
556.66	61881.42
556.83	61790.14
556.99	61799.50
557.16	61942.28
557.32	62138.88
557.49	62173.99
557.65	62239.53
557.82	62356.55
557.98	62241.87
558.15	61862.70
558.32	60987.34
558.48	60327.31
558.65	60573.06
558.81	60949.89
558.98	61123.09
559.14	61275.22
559.31	61141.81
559.47	61326.72
559.64	61015.43
559.80	60664.35
559.97	60786.05
560.13	61080.96
560.30	61879.08
560.46	62422.09
560.63	62604.65
560.79	62532.09
560.96	62307.40
561.12	61214.37
561.29	60360.08
561.45	60547.32
561.61	60914.78
561.78	61401.61
561.94	61366.51
562.11	61223.73
562.27	61034.15
562.44	61389.91
562.60	61497.58
562.77	61813.55
562.93	61731.63
563.10	61694.18
563.26	60947.55
563.42	61303.31
563.59	61003.72
563.75	61034.15
563.92	61048.19
564.08	61017.77
564.24	61251.82
564.41	61326.72
564.57	61300.97
564.74	61160.54
564.90	61249.48
565.07	60891.38
565.23	60643.28
565.39	60243.05
565.56	59927.08
565.72	59697.70
565.88	60102.62
566.05	60104.96
566.21	60313.26
566.38	60367.10
566.54	60416.25
566.70	60664.35
566.87	60893.72
567.03	60884.36
567.19	61097.34
567.36	61048.19
567.52	60814.14
567.68	60537.96
567.85	60182.19
568.01	59772.60
568.17	59433.22
568.34	59489.40
568.50	59372.37
568.66	59547.91
568.83	59805.37
568.99	59913.03
569.15	60020.70
569.32	59992.61
569.48	59917.71
569.64	59592.38
569.81	59498.76
569.97	59498.76
570.13	59313.86
570.30	58922.99
570.46	58738.08
570.62	58302.74
570.78	57888.47
570.95	58042.95
571.11	59096.19
571.27	58876.18
571.43	59178.10
571.60	59721.11
571.76	59711.75
571.92	59845.16
572.09	59889.63
572.25	59824.09
572.41	59943.46
572.57	59845.16
572.74	59908.35
572.90	59552.59
573.06	59428.54
573.22	59508.12
573.38	59533.87
573.55	59430.88
573.71	59585.36
573.87	59473.01
574.03	59398.12
574.20	59297.47
574.36	58951.07
574.52	59042.35
574.68	58798.94
574.84	58621.06
575.01	58108.48
575.17	57986.77
575.33	58443.18
575.49	58564.88
575.65	58768.51
575.82	58602.33
575.98	58244.23
576.14	58403.39
576.30	59004.91
576.46	58838.73
576.62	58939.37
576.79	58752.13
576.95	58370.62
577.11	58295.72
577.27	58384.66
577.43	58693.61
577.59	58202.10
577.75	57902.51
577.92	57352.49
578.08	57350.15
578.24	57462.49
578.40	57595.90
578.56	57736.34
578.72	57820.59
578.88	58075.71
579.04	58136.57
579.21	58075.71
579.37	58211.46
579.53	58466.58
579.69	58159.97
579.85	58377.64
580.01	58291.04
580.17	57701.23
580.33	57820.59
580.49	57684.84
580.65	57783.15
580.82	58204.44
580.98	58291.04
581.14	57935.28
581.30	57998.48
581.46	58005.50
581.62	58075.71
581.78	58169.33
581.94	58377.64
582.10	58134.23
582.26	58258.27
582.42	58340.19
582.58	58431.47
582.74	58354.24
582.90	58265.30
583.06	58209.12
583.22	57982.09
583.38	58003.16
583.54	57867.40
583.70	58012.52
583.86	57998.48
584.02	57954.00
584.18	57879.11
584.34	57844.00
584.50	57539.73
584.66	57825.28
584.82	57642.71
584.98	57506.96
585.14	57172.27
