SpectraSuite Data File
++++++++++++++++++++++++++++++++++++
Date: Mon Oct 07 14:55:02 GMT-05:00 2013
User: price-jones
Dark Spectrum Present: No
Reference Spectrum Present: No
Number of Sampled Component Spectra: 1
Spectrometers: USB2+H05261
Integration Time (usec): 10000 (USB2+H05261)
Spectra Averaged: 1 (USB2+H05261)
Boxcar Smoothing: 0 (USB2+H05261)
Correct for Electrical Dark: No (USB2+H05261)
Strobe/Lamp Enabled: No (USB2+H05261)
Correct for Detector Non-linearity: No (USB2+H05261)
Correct for Stray Light: No (USB2+H05261)
Number of Pixels in Processed Spectrum: 2048
>>>>>Begin Processed Spectral Data<<<<<
365.73	0.00
365.92	0.00
366.12	0.00
366.32	0.00
366.52	0.00
366.72	0.00
366.91	0.00
367.11	0.00
367.31	0.00
367.51	0.00
367.70	0.00
367.90	0.00
368.10	0.00
368.30	0.00
368.49	0.00
368.69	0.00
368.89	0.00
369.09	0.00
369.28	0.00
369.48	0.00
369.68	0.00
369.87	0.00
370.07	0.00
370.27	0.00
370.47	491.51
370.66	2771.19
370.86	3159.72
371.06	3251.00
371.25	3346.97
371.45	3012.27
371.65	2682.25
371.84	2588.63
372.04	2822.69
372.24	3159.72
372.44	3276.75
372.63	3087.17
372.83	2733.75
373.03	2487.99
373.22	2291.38
373.42	2600.34
373.62	2895.24
373.81	3314.20
374.01	3061.42
374.21	2696.30
374.40	2459.90
374.60	2768.85
374.79	3239.30
374.99	3459.31
375.19	3789.33
375.38	3740.18
375.58	3478.04
375.78	3555.27
375.97	3646.55
376.17	3679.32
376.37	3873.59
376.56	3896.99
376.76	4112.32
376.95	4540.64
377.15	4601.49
377.35	4816.82
377.54	4957.25
377.74	5284.93
377.93	5261.52
378.13	4983.00
378.33	4732.56
378.52	4339.35
378.72	4067.85
378.91	4098.28
379.11	3995.29
379.31	3892.31
379.50	3918.06
379.70	4278.50
379.89	4765.33
380.09	4959.60
380.28	5088.32
380.48	5139.82
380.68	5200.67
380.87	4770.01
381.07	4355.74
381.26	4025.72
381.46	3845.50
381.65	3716.77
381.85	3667.62
382.04	3414.84
382.24	3206.53
382.43	3059.08
382.63	2960.78
382.83	2986.52
383.02	2986.52
383.22	2935.03
383.41	3061.42
383.61	3485.06
383.80	3791.67
384.00	4538.30
384.19	4931.51
384.39	5050.88
384.58	5064.92
384.78	4994.70
384.97	4830.87
385.17	4636.60
385.36	4262.12
385.56	4142.75
385.75	4503.19
385.95	5067.26
386.14	5256.84
386.34	5146.84
386.53	4887.04
386.72	4587.45
386.92	4802.78
387.11	5114.07
387.31	5135.14
387.50	5214.71
387.70	5158.54
387.89	4985.34
388.09	5057.90
388.28	5011.09
388.48	5100.03
388.67	5612.60
388.86	5989.43
389.06	6834.36
389.25	6946.71
389.45	6911.60
389.64	6963.09
389.84	6864.79
390.03	6663.51
390.22	6698.61
390.42	7059.06
390.61	7330.56
390.81	7929.74
391.00	8088.89
391.19	7866.54
391.39	7824.41
391.58	7035.65
391.78	6911.60
391.97	6506.69
392.16	5921.56
392.36	5355.15
392.55	4236.37
392.75	3302.50
392.94	2782.90
393.13	2899.92
393.33	3726.13
393.52	4762.99
393.71	5528.35
393.91	6244.55
394.10	6862.45
394.29	7737.81
394.49	8088.89
394.68	8746.58
394.88	8482.10
395.07	8798.07
395.26	8615.51
395.46	8205.92
395.65	7618.44
395.84	6597.97
396.04	5446.43
396.23	4606.17
396.42	3871.25
396.62	3925.08
396.81	4758.31
397.00	6211.78
397.19	7566.95
397.39	9015.74
397.58	10071.33
397.77	10389.64
397.97	10738.38
398.16	10855.40
398.35	11403.09
398.55	11578.63
398.74	12245.68
398.93	12222.28
399.12	12128.66
399.32	11590.33
399.51	12042.06
399.70	12929.12
399.90	12215.26
400.09	12528.89
400.28	12444.63
400.47	12961.89
400.67	13231.05
400.86	13540.00
401.05	13504.89
401.24	13472.12
401.44	13493.19
401.63	13879.38
401.82	13680.43
402.01	13907.46
402.21	14115.77
402.40	14417.70
402.59	13462.76
402.78	12982.95
402.97	12959.55
403.17	13642.98
403.36	14310.04
403.55	14757.08
403.74	15096.46
403.93	14160.24
404.13	12765.28
404.32	12786.35
404.51	13715.54
404.70	14445.79
404.89	14160.24
405.09	14026.83
405.28	13774.05
405.47	14160.24
405.66	13862.99
405.85	13240.41
406.05	13294.24
406.24	13437.02
406.43	13977.68
406.62	14403.66
406.81	14494.94
407.00	14075.98
407.20	13727.24
407.39	13888.74
407.58	14862.40
407.77	15290.72
407.96	15389.02
408.15	15934.37
408.34	15929.69
408.54	16430.56
408.73	16484.39
408.92	16428.22
409.11	15592.65
409.30	14745.38
409.49	13928.53
409.68	12830.82
409.87	12851.88
410.07	13914.48
410.26	14710.27
410.45	15377.32
410.64	16056.08
410.83	16821.43
411.02	16957.18
411.21	17678.07
411.40	17649.98
411.59	17537.63
411.78	17612.53
411.98	17378.48
412.17	17935.53
412.36	17420.61
412.55	17338.69
412.74	16989.95
412.93	16552.27
413.12	17282.52
413.31	18675.13
413.50	18963.02
413.69	19187.71
413.88	18207.03
414.07	17727.22
414.26	18195.32
414.45	18726.63
414.64	18513.64
414.83	18258.52
415.02	18235.11
415.22	18221.07
415.41	18885.78
415.60	19470.92
415.79	20060.73
415.98	20463.30
416.17	20262.02
416.36	19910.94
416.55	19690.93
416.74	18623.64
416.93	18314.69
417.12	18675.13
417.31	18785.14
417.50	19152.60
417.69	19702.63
417.88	19623.05
418.07	19461.55
418.26	19316.44
418.45	19482.62
418.64	20170.74
418.83	21043.76
419.02	20397.77
419.21	20152.01
419.39	19452.19
419.58	18473.85
419.77	18740.67
419.96	20402.45
420.15	20950.14
420.34	21451.01
420.53	21755.28
420.72	22190.62
420.91	21752.94
421.10	21745.92
421.29	21551.65
421.48	21270.79
421.67	22104.02
421.86	20826.09
422.05	18848.33
422.24	17551.68
422.43	18265.54
422.61	20800.34
422.80	21022.69
422.99	20671.61
423.18	19971.79
423.37	20093.50
423.56	20561.61
423.75	21039.08
423.94	20931.41
424.13	20002.22
424.32	19943.70
424.50	19875.83
424.69	20198.82
424.88	20496.07
425.07	20257.34
425.26	20269.04
425.45	19520.07
425.64	19197.07
425.83	19161.97
426.01	20688.00
426.20	20952.48
426.39	20365.00
426.58	18663.43
426.77	17958.93
426.96	17937.87
427.15	18387.25
427.33	20060.73
427.52	20343.94
427.71	20624.80
427.90	20290.10
428.09	20027.96
428.28	19435.81
428.46	18579.17
428.65	18410.65
428.84	19103.45
429.03	18991.11
429.22	18059.57
429.40	16606.10
429.59	15012.20
429.78	13680.43
429.97	13987.04
430.16	14022.15
430.34	14225.78
430.53	14546.43
430.72	15117.52
430.91	16861.22
431.10	19761.14
431.28	22565.10
431.47	24716.06
431.66	23627.71
431.85	21200.57
432.03	19784.55
432.22	19625.39
432.41	20950.14
432.60	23105.77
432.79	23695.58
432.97	24032.62
433.16	22822.56
433.35	20582.67
433.54	18616.62
433.72	18216.39
433.91	19318.78
434.10	21977.63
434.28	22719.58
434.47	23733.03
434.66	22845.97
434.85	22541.70
435.03	22981.72
435.22	23115.13
435.41	24545.20
435.59	24690.31
435.78	24968.84
435.97	25865.26
436.16	25518.86
436.34	24861.17
436.53	24826.06
436.72	24395.40
436.90	23850.06
437.09	23592.60
437.28	23161.94
437.46	24018.58
437.65	23316.42
437.84	21570.38
438.02	20496.07
438.21	20872.90
438.40	21525.91
438.58	23101.09
438.77	24063.05
438.96	24360.30
439.14	25734.19
439.33	25776.32
439.52	25696.74
439.70	25020.33
439.89	24128.58
440.08	23784.52
440.26	24156.67
440.45	25427.58
440.63	27082.34
440.82	28065.36
441.01	27854.72
441.19	27402.99
441.38	28381.34
441.57	29268.40
441.75	28809.65
441.94	29626.50
442.12	29097.54
442.31	29935.45
442.50	29757.57
442.68	29160.73
442.87	29230.95
443.05	28362.61
443.24	29399.47
443.43	29785.66
443.61	30174.19
443.80	30656.34
443.98	29942.47
444.17	29060.09
444.35	30345.05
444.54	31159.55
444.73	30455.05
444.91	28950.09
445.10	27866.42
445.28	27243.84
445.47	26359.11
445.65	27225.11
445.84	27782.16
446.02	28723.05
446.21	29188.82
446.39	29369.04
446.58	30033.75
446.77	31077.63
446.95	30611.87
447.14	31548.08
447.32	32041.93
447.51	30843.58
447.69	29841.83
447.88	29799.70
448.06	30005.67
448.25	30731.23
448.43	30382.49
448.62	30022.05
448.80	29713.10
448.99	30469.09
449.17	30881.03
449.36	31342.11
449.54	31599.57
449.73	32353.23
449.91	32563.87
450.10	33762.23
450.28	33713.08
450.46	34085.22
450.65	33895.64
450.83	33626.48
451.02	32346.20
451.20	32425.78
451.39	32561.53
451.57	32762.82
451.76	32854.10
451.94	31997.46
452.13	30998.06
452.31	29570.33
452.49	28699.65
452.68	29034.35
452.86	29769.27
453.05	30181.21
453.23	31414.67
453.42	31557.44
453.60	32292.37
453.78	32383.65
453.97	31875.76
454.15	31702.56
454.34	30576.76
454.52	30747.62
454.70	30553.35
454.89	31110.40
455.07	31428.71
455.26	32325.14
455.44	32629.41
455.62	33649.88
455.81	33432.21
455.99	33207.52
456.17	33750.52
456.36	34291.19
456.54	34532.26
456.73	33823.08
456.91	34396.51
457.09	34492.47
457.28	35627.63
457.46	33858.19
457.64	33530.51
457.83	32774.52
458.01	32659.84
458.19	33876.91
458.38	33975.22
458.56	34866.96
458.74	34658.65
458.93	33457.96
459.11	33497.75
459.29	32929.00
459.48	33755.21
459.66	33113.90
459.84	33322.21
460.03	33743.50
460.21	34675.04
460.39	35557.42
460.57	34550.99
460.76	34857.60
460.94	35501.25
461.12	35658.06
461.31	35278.89
461.49	35927.22
461.67	35482.52
461.85	36285.33
462.04	35732.96
462.22	35812.54
462.40	35952.97
462.59	35519.97
462.77	35810.20
462.95	35871.05
463.13	35475.50
463.32	34665.67
463.50	34649.29
463.68	34890.37
463.86	35737.64
464.05	34412.90
464.23	33771.59
464.41	33965.85
464.59	33312.84
464.78	35297.62
464.96	34721.85
465.14	34089.90
465.32	35770.41
465.50	36594.28
465.69	37284.73
465.87	36025.53
466.05	34705.46
466.23	33343.27
466.41	32383.65
466.60	33553.92
466.78	33247.31
466.96	33759.89
467.14	35014.41
467.32	34595.46
467.51	35447.41
467.69	33371.36
467.87	34253.74
468.05	34785.04
468.23	34700.78
468.41	34724.19
468.60	35000.37
468.78	36114.47
468.96	34909.09
469.14	35606.57
469.32	35737.64
469.50	34064.16
469.69	34899.73
469.87	33965.85
470.05	34249.06
470.23	33888.62
470.41	34356.72
470.59	34876.32
470.77	34841.21
470.95	35393.58
471.14	36095.74
471.32	36032.55
471.50	37954.13
471.68	38068.81
471.86	38335.63
472.04	37935.40
472.22	38546.28
472.40	36966.42
472.58	36683.22
472.77	36416.40
472.95	37188.77
473.13	38277.12
473.31	36135.53
473.49	36627.04
473.67	37570.28
473.85	38309.89
474.03	40212.74
474.21	39716.55
474.39	39981.03
474.57	39805.49
474.75	39515.26
474.93	39047.16
475.12	38272.44
475.30	38342.66
475.48	37804.33
475.66	38347.34
475.84	37862.85
476.02	38265.42
476.20	37799.65
476.38	38607.14
476.56	40084.01
476.74	40699.58
476.92	40479.57
477.10	40840.01
477.28	42253.69
477.46	42117.94
477.64	42801.38
477.82	42506.47
478.00	42733.50
478.18	41867.50
478.36	41141.94
478.54	42309.86
478.72	42492.43
478.90	43873.34
479.08	45698.96
479.26	45455.54
479.44	45490.65
479.62	44575.50
479.80	45560.87
479.98	45008.50
480.16	45605.34
480.34	45132.55
480.52	45745.77
480.70	46164.73
480.88	45710.66
481.06	46508.79
481.24	46721.77
481.41	47512.88
481.59	48608.25
481.77	47208.61
481.95	46674.96
482.13	46756.88
482.31	47288.18
482.49	48151.84
482.67	47407.55
482.85	47405.21
483.03	47484.79
483.21	48978.05
483.39	48531.01
483.57	47894.38
483.74	48039.50
483.92	48821.23
484.10	48058.22
484.28	48568.46
484.46	48355.47
484.64	50279.39
484.82	48823.58
485.00	48523.99
485.18	47896.72
485.35	45839.39
485.53	40245.51
485.71	38450.32
485.89	39166.52
486.07	42087.51
486.25	44896.16
486.43	47239.03
486.61	47299.89
486.78	46979.23
486.96	48334.40
487.14	49368.92
487.32	49961.08
487.50	50738.13
487.68	52287.57
487.85	52673.76
488.03	51803.08
488.21	51753.93
488.39	51419.23
488.57	50101.51
488.75	50087.46
488.92	51526.89
489.10	53607.63
489.28	54164.68
489.46	55402.82
489.64	55126.64
489.81	55222.60
489.99	54660.87
490.17	54946.42
490.35	55054.08
490.53	54600.02
490.70	54122.55
490.88	54237.23
491.06	55143.02
491.24	55421.55
491.41	54251.28
491.59	53179.31
491.77	52741.63
491.95	54035.95
492.13	55358.35
492.30	55756.24
492.48	56460.74
492.66	56978.00
492.84	56472.45
493.01	56088.60
493.19	56055.83
493.37	55388.78
493.54	56011.36
493.72	56921.83
493.90	57137.16
494.08	57441.43
494.25	57265.89
494.43	58007.84
494.61	58635.10
494.79	58464.24
494.96	58646.80
495.14	58391.68
495.32	56842.25
495.49	57116.09
495.67	58286.36
495.85	59030.65
496.02	59229.60
496.20	58728.72
496.38	58665.53
496.55	58548.50
496.73	59171.08
496.91	59346.62
497.09	59330.24
497.26	59578.34
497.44	59098.53
497.62	58361.26
497.79	57656.76
497.97	56872.68
498.14	57535.05
498.32	58731.06
498.50	58946.39
498.67	58777.87
498.85	58927.67
499.03	59426.20
499.20	60041.76
499.38	59192.15
499.56	58667.87
499.73	58684.25
499.91	58279.34
500.08	57827.62
500.26	57193.33
500.44	58157.63
500.61	58670.21
500.79	58239.55
500.97	58323.81
501.14	57577.18
501.32	57219.08
501.49	57549.09
501.67	58059.33
501.84	58281.68
502.02	58885.54
502.20	59611.10
502.37	59409.82
502.55	59447.27
502.72	60053.47
502.90	60341.35
503.07	60037.08
503.25	58873.84
503.43	58286.36
503.60	57806.55
503.78	57841.66
503.95	58019.54
504.13	59234.28
504.30	59737.49
504.48	59098.53
504.65	59351.30
504.83	59353.65
505.01	60051.12
505.18	60383.48
505.36	60533.28
505.53	60825.84
505.71	61001.38
505.88	61165.22
506.06	60610.51
506.23	60350.71
506.41	60011.34
506.58	60474.76
506.76	60317.95
506.93	59718.77
507.11	59573.66
507.28	60004.31
507.46	59407.48
507.63	59318.54
507.81	58873.84
507.98	59267.05
508.16	60507.53
508.33	60385.82
508.50	60584.77
508.68	61057.56
508.85	61240.12
509.03	61530.34
509.20	60800.10
509.38	59875.58
509.55	59945.80
509.73	60205.60
509.90	60371.78
510.08	60559.02
510.25	59931.76
510.42	60116.66
510.60	60378.80
510.77	60699.45
510.95	60687.75
511.12	61013.08
511.30	61668.44
511.47	62012.49
511.64	61670.78
511.82	61645.03
511.99	60603.49
512.17	60643.28
512.34	60102.62
512.51	60191.56
512.69	60760.31
512.86	60317.95
513.04	60734.56
513.21	60114.32
513.38	59545.57
513.56	59196.83
513.73	58777.87
513.90	59660.26
514.08	59671.96
514.25	59440.24
514.43	60104.96
514.60	60292.20
514.77	60556.68
514.95	60547.32
515.12	60165.81
515.29	60849.25
515.47	61366.51
515.64	61212.03
515.81	60903.08
515.99	59861.54
516.16	58183.38
516.33	56273.50
516.51	56214.99
516.68	54405.75
516.85	53825.30
517.03	55819.44
517.20	58021.88
517.37	59908.35
517.54	60575.40
517.72	59262.36
517.89	56797.78
518.06	55018.97
518.24	56413.93
518.41	58312.11
518.58	59339.60
518.75	59456.63
518.93	59449.61
519.10	58749.79
519.27	59828.77
519.45	60334.33
519.62	60647.96
519.79	60999.04
519.96	60111.98
520.14	60074.53
520.31	58904.26
520.48	59320.88
520.65	60163.47
520.83	61022.45
521.00	61144.16
521.17	60353.05
521.34	60369.44
521.52	60697.11
521.69	61048.19
521.86	61586.52
522.03	61307.99
522.20	59756.22
522.38	59316.20
522.55	59863.88
522.72	60376.46
522.89	59484.72
523.07	60439.65
523.24	60977.98
523.41	61806.53
523.58	62145.90
523.75	62166.97
523.92	61766.74
524.10	61574.81
524.27	61530.34
524.44	61181.60
524.61	60767.33
524.78	61298.63
524.96	61078.62
525.13	61300.97
525.30	61736.31
525.47	61806.53
525.64	61862.70
525.81	61087.98
525.98	59367.69
526.16	58061.67
526.33	58452.54
526.50	57659.10
526.67	57574.84
526.84	58272.32
527.01	59346.62
527.18	59566.63
527.36	60470.08
527.53	61490.55
527.70	60877.33
527.87	59470.67
528.04	60835.20
528.21	61282.25
528.38	61542.05
528.55	62511.03
528.72	62120.16
528.89	61649.71
529.07	61689.50
529.24	60472.42
529.41	60231.35
529.58	60109.64
529.75	61256.50
529.92	61602.90
530.09	61333.74
530.26	61834.61
530.43	62492.30
530.60	61577.15
530.77	62293.36
530.94	62328.47
531.11	61544.39
531.28	61492.89
531.46	61773.76
531.63	61588.86
531.80	61307.99
531.97	60610.51
532.14	60486.46
532.31	59241.30
532.48	58445.52
532.65	59004.91
532.82	59503.44
532.99	61179.26
533.16	61399.27
533.33	61200.33
533.50	61544.39
533.67	61293.95
533.84	60692.43
534.01	61003.72
534.18	61169.90
534.35	60694.77
534.52	60299.22
534.69	60926.49
534.86	61509.28
535.03	61787.80
535.20	61256.50
535.37	62103.77
535.54	62326.13
535.71	62152.93
535.88	62368.26
536.05	61045.85
536.22	60505.19
536.38	60495.83
536.55	59269.39
536.72	59325.56
536.89	60097.94
537.06	60051.12
537.23	60540.30
537.40	60617.53
537.57	60406.89
537.74	60912.44
537.91	60956.91
538.08	60893.72
538.25	60540.30
538.42	61556.09
538.59	60949.89
538.75	60186.88
538.92	59522.16
539.09	59950.48
539.26	59767.92
539.43	59714.09
539.60	59718.77
539.77	60353.05
539.94	60207.94
540.11	59309.18
540.28	58965.12
540.44	58796.60
540.61	58539.14
540.78	59381.73
540.95	60034.74
541.12	59994.95
541.29	60451.36
541.46	60474.76
541.62	60863.29
541.79	59894.31
541.96	59498.76
542.13	59711.75
542.30	59573.66
542.47	60095.60
542.63	59894.31
542.80	59950.48
542.97	59400.46
543.14	59339.60
543.31	59442.59
543.48	60537.96
543.64	60622.22
543.81	61661.41
543.98	61539.71
544.15	59959.84
544.32	60526.25
544.48	60285.18
544.65	60240.71
544.82	60750.94
544.99	59468.33
545.16	58773.19
545.32	59320.88
545.49	60182.19
545.66	60062.83
545.83	59906.01
546.00	60315.61
546.16	60205.60
546.33	60072.19
546.50	60130.70
546.67	60673.71
546.83	59772.60
547.00	60498.17
547.17	59267.05
547.34	58265.30
547.50	58417.43
547.67	59536.21
547.84	60350.71
548.00	60121.34
548.17	59966.87
548.34	60214.96
548.51	60331.99
548.67	60402.21
548.84	60411.57
549.01	60563.70
549.18	59835.80
549.34	59992.61
549.51	60102.62
549.68	60243.05
549.84	59971.55
550.01	59351.30
550.18	59011.93
550.34	59119.59
550.51	59671.96
550.68	60060.49
550.84	59868.56
551.01	59138.32
551.18	59077.46
551.34	58705.32
551.51	59997.29
551.68	59611.10
551.84	60238.37
552.01	59784.30
552.18	59133.63
552.34	58789.58
552.51	58642.12
552.68	58534.46
552.84	58555.52
553.01	58625.74
553.18	59494.08
553.34	59707.07
553.51	59667.28
553.67	59454.29
553.84	59234.28
554.01	59519.82
554.17	59079.80
554.34	59512.80
554.51	59648.55
554.67	58691.27
554.84	58859.79
555.00	58702.98
555.17	58988.52
555.33	58742.77
555.50	57956.35
555.67	58735.74
555.83	58862.13
556.00	58700.64
556.16	58560.20
556.33	57946.98
556.50	58534.46
556.66	58745.11
556.83	58248.91
556.99	57874.43
557.16	58234.87
557.32	57797.19
557.49	58333.17
557.65	58049.97
557.82	58356.58
557.98	58812.98
558.15	57752.72
558.32	56870.34
558.48	56535.64
558.65	56746.29
558.81	57045.88
558.98	57724.63
559.14	57869.75
559.31	57703.57
559.47	57345.47
559.64	57228.44
559.80	56741.61
559.97	57481.22
560.13	58129.54
560.30	59037.67
560.46	59545.57
560.63	59749.20
560.79	59536.21
560.96	58539.14
561.12	57626.33
561.29	57181.63
561.45	57106.73
561.61	58389.34
561.78	57792.51
561.94	58284.02
562.11	58269.98
562.27	57216.74
562.44	58155.29
562.60	58361.26
562.77	58560.20
562.93	57450.79
563.10	57776.12
563.26	57808.89
563.42	58314.45
563.59	57523.35
563.75	57450.79
563.92	57013.11
564.08	56970.98
564.24	57703.57
564.41	57198.01
564.57	58017.20
564.74	57811.23
564.90	56917.15
565.07	57010.77
565.23	55910.72
565.39	55833.48
565.56	56130.73
565.72	56364.78
565.88	55079.83
566.05	57055.24
566.21	57762.08
566.38	57111.41
566.54	57439.09
566.70	57719.95
566.87	57504.62
567.03	56856.29
567.19	57996.13
567.36	58265.30
567.52	57106.73
567.68	56619.90
567.85	55943.48
568.01	56268.82
568.17	56339.04
568.34	56685.43
568.50	56261.80
568.66	56308.61
568.83	55838.16
568.99	55800.71
569.15	55847.52
569.32	56233.71
569.48	55800.71
569.64	55744.54
569.81	55552.62
569.97	55466.02
570.13	54866.84
570.30	54401.07
570.46	53947.01
570.62	53277.61
570.78	53467.20
570.95	54674.91
571.11	54372.99
571.27	54192.76
571.43	54429.16
571.60	54087.44
571.76	55414.52
571.92	55611.13
572.09	55957.53
572.25	56053.49
572.41	56378.82
572.57	56006.68
572.74	56058.17
572.90	57202.69
573.06	56561.39
573.22	56664.37
573.38	56481.81
573.55	57425.04
573.71	56041.79
573.87	56016.04
574.03	56481.81
574.20	55461.33
574.36	55814.76
574.52	55009.61
574.68	54892.58
574.84	54255.96
575.01	54494.69
575.17	54703.00
575.33	54871.52
575.49	54775.56
575.65	53897.86
575.82	54394.05
575.98	54202.13
576.14	55051.74
576.30	55824.12
576.46	54663.21
576.62	54721.72
576.79	54745.13
576.95	54688.96
577.11	55058.76
577.27	55033.02
577.43	55178.13
577.59	54522.78
577.75	53284.64
577.92	53371.24
578.08	53904.88
578.24	54342.56
578.40	54150.63
578.56	53158.25
578.72	53755.08
578.88	53549.12
579.04	53851.05
579.21	53427.41
579.37	53794.87
579.53	54241.92
579.69	53738.70
579.85	53326.77
580.01	53584.22
580.17	53633.38
580.33	54073.40
580.49	54490.01
580.65	52999.09
580.82	53361.87
580.98	54129.57
581.14	54543.84
581.30	53984.46
581.46	53652.10
581.62	53834.66
581.78	54536.82
581.94	54780.24
582.10	55000.25
582.26	54967.48
582.42	54677.25
582.58	53668.48
582.74	53467.20
582.90	53382.94
583.06	53862.75
583.22	54176.38
583.38	54155.32
583.54	54585.97
583.70	54508.74
583.86	54506.40
584.02	53719.98
584.18	53818.28
584.34	53064.63
584.50	53090.37
584.66	53127.82
584.82	53350.17
584.98	53324.43
585.14	52507.58
585.30	52861.00
