SpectraSuite Data File
++++++++++++++++++++++++++++++++++++
Date: Mon Oct 07 14:53:49 GMT-05:00 2013
User: price-jones
Dark Spectrum Present: No
Reference Spectrum Present: No
Number of Sampled Component Spectra: 1
Spectrometers: USB2+H05261
Integration Time (usec): 100000 (USB2+H05261)
Spectra Averaged: 1 (USB2+H05261)
Boxcar Smoothing: 0 (USB2+H05261)
Correct for Electrical Dark: No (USB2+H05261)
Strobe/Lamp Enabled: No (USB2+H05261)
Correct for Detector Non-linearity: No (USB2+H05261)
Correct for Stray Light: No (USB2+H05261)
Number of Pixels in Processed Spectrum: 2048
>>>>>Begin Processed Spectral Data<<<<<
365.73	0.00
365.92	0.00
366.12	0.00
366.32	0.00
366.52	0.00
366.72	0.00
366.91	0.00
367.11	0.00
367.31	0.00
367.51	0.00
367.70	0.00
367.90	0.00
368.10	0.00
368.30	0.00
368.49	0.00
368.69	0.00
368.89	0.00
369.09	0.00
369.28	0.00
369.48	0.00
369.68	0.00
369.87	0.00
370.07	0.00
370.27	0.00
370.47	643.65
370.66	3108.23
370.86	3768.26
371.06	4030.40
371.25	4086.58
371.45	3688.68
371.65	3281.43
371.84	3115.25
372.04	3194.83
372.24	3688.68
372.44	3794.01
372.63	3667.62
372.83	3503.78
373.03	3094.19
373.22	2820.35
373.42	2909.29
373.62	3466.33
373.81	3730.81
374.01	3850.18
374.21	3545.91
374.40	3019.29
374.60	3309.52
374.79	3712.09
374.99	4184.88
375.19	4587.45
375.38	4585.11
375.58	4383.82
375.78	4250.41
375.97	4334.67
376.17	4386.16
376.37	4304.25
376.56	4662.35
376.76	4901.08
376.95	5081.30
377.15	5568.13
377.35	5783.46
377.54	5959.00
377.74	6106.46
377.93	6209.44
378.13	5858.36
378.33	5647.71
378.52	5329.40
378.72	5121.09
378.91	4966.62
379.11	4849.59
379.31	4657.67
379.50	4683.41
379.70	4952.57
379.89	5453.45
380.09	5837.30
380.28	6064.33
380.48	6052.63
380.68	5895.81
380.87	5872.40
381.07	5270.89
381.26	4842.57
381.46	4589.79
381.65	4521.92
381.85	4437.66
382.04	4180.20
382.24	3941.46
382.43	3861.88
382.63	3667.62
382.83	3646.55
383.02	3676.98
383.22	3630.17
383.41	3679.32
383.61	3983.59
383.80	4423.61
384.00	5060.24
384.19	5666.44
384.39	5930.92
384.58	6090.07
384.78	5657.07
384.97	5863.04
385.17	5404.30
385.36	5317.70
385.56	4945.55
385.75	5060.24
385.95	5605.58
386.14	6136.88
386.34	6239.87
386.53	5926.24
386.72	5542.39
386.92	5509.62
387.11	5783.46
387.31	6139.23
387.50	6076.03
387.70	5844.32
387.89	5806.87
388.09	5874.74
388.28	5825.59
388.48	5860.70
388.67	6277.32
388.86	6857.77
389.06	7829.09
389.25	7950.80
389.45	8135.70
389.64	7822.07
389.84	7887.61
390.03	7597.38
390.22	7698.02
390.42	8095.91
390.61	8657.64
390.81	9163.20
391.00	9224.05
391.19	9242.78
391.39	8957.23
391.58	8236.35
391.78	7882.92
391.97	7681.64
392.16	7066.08
392.36	6560.52
392.55	5069.60
392.75	4189.56
392.94	3386.76
393.13	3356.33
393.33	3974.23
393.52	5114.07
393.71	6179.01
393.91	7096.50
394.10	7400.77
394.29	8301.88
394.49	8947.87
394.68	9722.59
394.88	9706.20
395.07	10078.35
395.26	9902.81
395.46	9535.34
395.65	9252.14
395.84	7978.89
396.04	6808.62
396.23	5455.79
396.42	4652.98
396.62	4423.61
396.81	5111.73
397.00	6452.86
397.19	8250.39
397.39	9804.50
397.58	10888.17
397.77	11674.59
397.97	11997.59
398.16	12276.11
398.35	12496.12
398.55	13062.53
398.74	13404.25
398.93	13949.59
399.12	13474.46
399.32	13137.43
399.51	13444.04
399.70	14558.13
399.90	14169.60
400.09	14310.04
400.28	14012.79
400.47	14031.51
400.67	14965.39
400.86	15241.57
401.05	15374.98
401.24	15328.17
401.44	15625.42
401.63	15641.80
401.82	15805.64
402.01	15496.69
402.21	15866.49
402.40	16231.62
402.59	15594.99
402.78	14956.02
402.97	14476.21
403.17	14841.34
403.36	15683.93
403.55	16276.09
403.74	16582.70
403.93	16156.72
404.13	14626.01
404.32	14038.53
404.51	14998.15
404.70	16360.34
404.89	16163.74
405.09	15735.42
405.28	15592.65
405.47	15353.91
405.66	15644.14
405.85	14911.55
406.05	14792.19
406.24	14647.07
406.43	15407.75
406.62	16070.12
406.81	16093.52
407.00	15562.22
407.20	15236.89
407.39	15178.37
407.58	15939.05
407.77	16276.09
407.96	17216.98
408.15	17249.75
408.34	17231.02
408.54	17741.26
408.73	18555.77
408.92	17827.86
409.11	17654.66
409.30	16294.81
409.49	15536.48
409.68	14724.31
409.87	14230.46
410.07	14857.72
410.26	16327.58
410.45	17137.40
410.64	17877.01
410.83	18319.37
411.02	18754.71
411.21	19510.71
411.40	19288.35
411.59	19506.02
411.78	19264.95
411.98	18726.63
412.17	19494.32
412.36	18789.82
412.55	18972.38
412.74	18099.36
412.93	18216.39
413.12	18270.22
413.31	19946.05
413.50	19999.88
413.69	20573.31
413.88	19974.13
414.07	19133.88
414.26	19494.32
414.45	20350.96
414.64	20315.85
414.83	20276.06
415.02	19924.98
415.22	19819.66
415.41	20201.16
415.60	21268.45
415.79	21858.26
415.98	22412.97
416.17	22675.11
416.36	21525.91
416.55	21455.69
416.74	20695.02
416.93	19920.30
417.12	20081.80
417.31	20587.35
417.50	20669.27
417.69	21600.80
417.88	21280.15
418.07	21228.66
418.26	21020.35
418.45	21137.38
418.64	21893.37
418.83	22822.56
419.02	21881.67
419.21	22071.25
419.39	21034.39
419.58	19714.33
419.77	20135.63
419.96	20819.07
420.15	22228.07
420.34	22548.72
420.53	23470.89
420.72	24105.18
420.91	23779.84
421.10	23723.67
421.29	23183.01
421.48	22230.41
421.67	23143.22
421.86	23199.39
422.05	21448.67
422.24	19337.51
422.43	18958.34
422.61	20727.78
422.80	22834.27
422.99	22785.12
423.18	22036.14
423.37	21427.60
423.56	21411.22
423.75	22087.64
423.94	22082.95
424.13	21111.63
424.32	21209.93
424.50	21612.51
424.69	21200.57
424.88	20989.92
425.07	21036.74
425.26	21371.43
425.45	21036.74
425.64	20709.06
425.83	20374.36
426.01	22146.15
426.20	22333.39
426.39	22216.36
426.58	20638.84
426.77	19243.88
426.96	18190.64
427.15	19047.28
427.33	20287.76
427.52	21420.58
427.71	21483.78
427.90	21453.35
428.09	21097.59
428.28	20627.14
428.46	19796.25
428.65	19538.79
428.84	20091.16
429.03	20231.59
429.22	19145.58
429.40	18235.11
429.59	16592.06
429.78	14546.43
429.97	14967.73
430.16	14951.34
430.34	15070.71
430.53	14780.48
430.72	15353.91
430.91	16732.49
431.10	20011.58
431.28	23091.73
431.47	25060.12
431.66	25640.57
431.85	23339.82
432.03	21406.54
432.22	20313.51
432.41	21336.32
432.60	23866.44
432.79	24629.46
432.97	25153.74
433.16	24664.57
433.35	22403.61
433.54	20205.84
433.72	18750.03
433.91	19213.46
434.10	21879.33
434.28	23463.87
434.47	24594.35
434.66	24243.27
434.85	23873.46
435.03	23536.43
435.22	24009.22
435.41	25635.89
435.59	25575.03
435.78	25624.18
435.97	26782.75
436.16	26820.20
436.34	26387.20
436.53	25839.51
436.72	25612.48
436.90	24400.08
437.09	24444.56
437.28	24058.37
437.46	25029.69
437.65	24999.26
437.84	23185.35
438.02	21001.63
438.21	21146.74
438.40	22583.83
438.58	23763.46
438.77	24987.56
438.96	25195.87
439.14	26115.70
439.33	26927.86
439.52	26953.61
439.70	26555.72
439.89	25776.32
440.08	25057.78
440.26	25223.95
440.45	26005.69
440.63	28070.04
440.82	28943.06
441.01	28755.82
441.19	28629.43
441.38	29181.80
441.57	30033.75
441.75	30581.44
441.94	30731.23
442.12	30373.13
442.31	31089.34
442.50	30574.42
442.68	30052.48
442.87	30141.42
443.05	29659.27
443.24	30129.72
443.43	30796.77
443.61	31173.60
443.80	31936.61
443.98	29809.06
444.17	29675.65
444.35	31480.21
444.54	32156.62
444.73	31782.13
444.91	30555.69
445.10	29017.96
445.28	28294.74
445.47	27482.57
445.65	28079.41
445.84	28573.26
446.02	29425.22
446.21	29436.92
446.39	30291.21
446.58	30333.34
446.77	31175.94
446.95	31398.29
447.14	32175.34
447.32	32393.01
447.51	31644.04
447.69	30611.87
447.88	30059.50
448.06	30717.19
448.25	30965.29
448.43	31854.69
448.62	31054.23
448.80	30761.66
448.99	30918.48
449.17	31360.84
449.36	31456.80
449.54	32350.88
449.73	33195.82
449.91	33577.33
450.10	34436.30
450.28	34852.92
450.46	34546.31
450.65	34452.69
450.83	34015.01
451.02	33785.63
451.20	33549.24
451.39	33439.23
451.57	33170.07
451.76	33088.15
451.94	33053.05
452.13	32465.57
452.31	30745.28
452.49	29546.92
452.68	29720.12
452.86	29869.92
453.05	30043.12
453.23	31213.38
453.42	31950.65
453.60	32430.46
453.78	33146.67
453.97	32737.07
454.15	32278.33
454.34	31955.33
454.52	32091.09
454.70	31395.95
454.89	31835.97
455.07	31948.31
455.26	32208.11
455.44	33376.04
455.62	33949.47
455.81	34195.23
455.99	34206.93
456.17	33762.23
456.36	33663.93
456.54	34721.85
456.73	34824.83
456.91	35028.46
457.09	35309.32
457.28	36140.21
457.46	34700.78
457.64	34288.85
457.83	33415.83
458.01	33149.01
458.19	33596.05
458.38	33635.84
458.56	34763.98
458.74	34539.29
458.93	33954.15
459.11	34117.99
459.29	33574.98
459.48	34061.82
459.66	33694.35
459.84	33729.46
460.03	34466.73
460.21	34206.93
460.39	35707.21
460.57	35648.70
460.76	35660.40
460.94	36074.68
461.12	35084.63
461.31	35915.52
461.49	35445.07
461.67	35248.47
461.85	36507.68
462.04	36388.31
462.22	36278.30
462.40	35962.33
462.59	36013.82
462.77	36367.24
462.95	36350.86
463.13	35711.89
463.32	35295.28
463.50	35096.33
463.68	34911.43
463.86	35346.77
464.05	35019.10
464.23	34253.74
464.41	33853.51
464.59	33394.76
464.78	34838.87
464.96	34705.46
465.14	34398.85
465.32	35335.07
465.50	36058.29
465.69	36634.06
465.87	35941.27
466.05	35255.49
466.23	33619.46
466.41	32849.42
466.60	33736.48
466.78	33656.90
466.96	34410.56
467.14	34841.21
467.32	35440.39
467.51	35049.52
467.69	33635.84
467.87	34581.42
468.05	35124.42
468.23	35061.22
468.41	34983.99
468.60	35143.14
468.78	35683.81
468.96	35358.47
469.14	35447.41
469.32	35646.36
469.50	34204.59
469.69	34639.93
469.87	34031.39
470.05	34057.14
470.23	33970.54
470.41	33830.10
470.59	34782.70
470.77	34543.97
470.95	35576.14
471.14	35817.22
471.32	35789.13
471.50	37970.51
471.68	37684.97
471.86	38202.22
472.04	38265.42
472.22	38401.17
472.40	36690.24
472.58	36374.27
472.77	36107.44
472.95	36343.84
473.13	37691.99
473.31	36610.66
473.49	36800.24
473.67	37546.87
473.85	37743.48
474.03	38689.06
474.21	38785.02
474.39	38841.19
474.57	39494.20
474.75	39562.08
474.93	39173.55
475.12	38043.07
475.30	38045.41
475.48	38265.42
475.66	38885.66
475.84	38295.85
476.02	37935.40
476.20	37408.78
476.38	38721.82
476.56	39686.12
476.74	39955.29
476.92	40264.24
477.10	40648.08
477.28	41904.95
477.46	41663.88
477.64	41900.27
477.82	42396.46
478.00	42316.89
478.18	41698.98
478.36	41804.31
478.54	41635.79
478.72	42087.51
478.90	43290.55
479.08	44067.61
479.26	45031.91
479.44	44664.44
479.62	44060.58
479.80	44121.44
479.98	44477.20
480.16	44811.90
480.34	43955.26
480.52	44931.26
480.70	45191.06
480.88	44814.24
481.06	45757.47
481.24	46192.81
481.41	46773.27
481.59	47566.71
481.77	47187.54
481.95	46529.85
482.13	46588.36
482.31	46284.09
482.49	47255.42
482.67	46857.52
482.85	47117.32
483.03	47611.18
483.21	48301.64
483.39	47784.38
483.57	47260.10
483.74	47000.30
483.92	47426.28
484.10	47840.55
484.28	48575.48
484.46	49268.28
484.64	49551.48
484.82	48533.35
485.00	47952.90
485.18	47166.48
485.35	45631.08
485.53	42997.98
485.71	39435.69
485.89	38260.74
486.07	40472.54
486.25	43929.51
486.43	46213.88
486.61	46855.18
486.78	47049.45
486.96	47007.32
487.14	48605.91
487.32	49867.45
487.50	50529.83
487.68	50937.08
487.85	51873.29
488.03	51597.11
488.21	51419.23
488.39	50506.42
488.57	50237.26
488.75	49420.41
488.92	50478.33
489.10	52851.64
489.28	54227.87
489.46	54923.01
489.64	54693.64
489.81	54681.94
489.99	54412.77
490.17	54724.07
490.35	54923.01
490.53	54288.73
490.70	54080.42
490.88	53703.59
491.06	54831.73
491.24	54667.89
491.41	53989.14
491.59	52315.65
491.77	51372.42
491.95	52390.55
492.13	53546.78
492.30	54990.89
492.48	55484.74
492.66	56224.35
492.84	56030.08
493.01	55772.63
493.19	55231.96
493.37	55110.25
493.54	54705.34
493.72	55318.56
493.90	56268.82
494.08	57160.56
494.25	57160.56
494.43	57345.47
494.61	57872.09
494.79	58085.07
494.96	57719.95
495.14	57111.41
495.32	56376.48
495.49	55774.97
495.67	56626.92
495.85	58007.84
496.02	58096.78
496.20	58157.63
496.38	57752.72
496.55	57605.26
496.73	58085.07
496.91	58181.04
497.09	58768.51
497.26	58871.49
497.44	58518.07
497.62	57832.30
497.79	57265.89
497.97	56020.72
498.14	56182.22
498.32	57162.90
498.50	58064.01
498.67	58667.87
498.85	58595.31
499.03	58738.08
499.20	58693.61
499.38	58747.45
499.56	58707.66
499.73	58155.29
499.91	57820.59
500.08	57352.49
500.26	56919.49
500.44	57249.50
500.61	57911.88
500.79	57626.33
500.97	57364.19
501.14	57120.77
501.32	57130.14
501.49	57041.20
501.67	57251.84
501.84	57741.02
502.02	58134.23
502.20	58323.81
502.37	58403.39
502.55	58382.32
502.72	58873.84
502.90	59428.54
503.07	58988.52
503.25	58702.98
503.43	57993.79
503.60	57399.30
503.78	56633.94
503.95	57331.42
504.13	58471.26
504.30	59395.77
504.48	59032.99
504.65	58728.72
504.83	58794.26
505.01	59248.32
505.18	59554.93
505.36	60130.70
505.53	60203.26
505.71	60369.44
505.88	60500.51
506.06	59957.50
506.23	59515.14
506.41	59238.96
506.58	59547.91
506.76	59568.97
506.93	59468.33
507.11	59154.70
507.28	59370.03
507.46	58951.07
507.63	58302.74
507.81	57928.26
507.98	58473.60
508.16	59175.76
508.33	59407.48
508.50	59889.63
508.68	60137.72
508.85	60704.13
509.03	60552.00
509.20	60406.89
509.38	59653.23
509.55	59107.89
509.73	59082.14
509.90	59639.19
510.08	59969.21
510.25	59887.29
510.42	59697.70
510.60	59580.68
510.77	59786.64
510.95	60360.08
511.12	60537.96
511.30	60732.22
511.47	61080.96
511.64	61022.45
511.82	60619.88
511.99	59840.48
512.17	59433.22
512.34	59054.06
512.51	59334.92
512.69	59550.25
512.86	59435.56
513.04	59786.64
513.21	59889.63
513.38	59517.48
513.56	59025.97
513.73	58447.86
513.90	58808.30
514.08	58908.94
514.25	59065.76
514.43	59201.51
514.60	59292.79
514.77	59463.65
514.95	59756.22
515.12	59564.29
515.29	59978.57
515.47	60334.33
515.64	60449.02
515.81	59966.87
515.99	59304.49
516.16	58178.70
516.33	55959.87
516.51	54585.97
516.68	53935.30
516.85	53488.26
517.03	53645.08
517.20	56240.73
517.37	58733.40
517.54	59503.44
517.72	59407.48
517.89	57041.20
518.06	54749.81
518.24	54841.09
518.41	56821.19
518.58	58234.87
518.75	58391.68
518.93	58773.19
519.10	58241.89
519.27	58915.96
519.45	59147.68
519.62	59805.37
519.79	60114.32
519.96	59819.41
520.14	59489.40
520.31	58693.61
520.48	58466.58
520.65	59047.04
520.83	59760.90
521.00	60289.86
521.17	60013.68
521.34	59531.53
521.52	59866.22
521.69	60360.08
521.86	60767.33
522.03	60577.75
522.20	59487.06
522.38	58192.74
522.55	58316.79
522.72	58836.39
522.89	59117.25
523.07	59292.79
523.24	59461.31
523.41	60395.18
523.58	60629.24
523.75	61186.28
523.92	60863.29
524.10	61001.38
524.27	61109.05
524.44	60659.66
524.61	60376.46
524.78	60282.84
524.96	60257.09
525.13	60203.26
525.30	60509.87
525.47	60893.72
525.64	60783.71
525.81	60121.34
525.98	58831.71
526.16	57495.26
526.33	56891.40
526.50	56437.34
526.67	56207.97
526.84	56818.84
527.01	57895.49
527.18	58344.87
527.36	59114.91
527.53	60214.96
527.70	60191.56
527.87	59849.84
528.04	59632.17
528.21	59840.48
528.38	60521.57
528.55	61024.79
528.72	61172.24
528.89	61450.77
529.07	61120.75
529.24	60666.69
529.41	59966.87
529.58	59384.07
529.75	59365.35
529.92	59922.40
530.09	60467.74
530.26	60729.88
530.43	60907.76
530.60	61015.43
530.77	61448.42
530.94	61420.34
531.11	61001.38
531.28	60652.64
531.46	60327.31
531.63	60781.37
531.80	60423.27
531.97	59990.27
532.14	59213.21
532.31	58480.63
532.48	57612.29
532.65	57696.55
532.82	58614.04
532.99	59559.61
533.16	59992.61
533.33	60402.21
533.50	60238.37
533.67	59639.19
533.84	59260.02
534.01	59573.66
534.18	59788.98
534.35	60072.19
534.52	59671.96
534.69	59957.50
534.86	60383.48
535.03	60549.66
535.20	61029.47
535.37	61333.74
535.54	61453.11
535.71	61151.18
535.88	60598.81
536.05	60121.34
536.22	59683.66
536.38	59508.12
536.55	58951.07
536.72	58553.18
536.89	58602.33
537.06	59330.24
537.23	60048.78
537.40	60214.96
537.57	60182.19
537.74	60018.36
537.91	59950.48
538.08	59884.95
538.25	60088.57
538.42	60299.22
538.59	60067.51
538.75	59503.44
538.92	59213.21
539.09	58995.54
539.26	58812.98
539.43	58578.93
539.60	58862.13
539.77	58979.16
539.94	58897.24
540.11	58066.35
540.28	57530.37
540.44	57691.86
540.61	57893.15
540.78	57946.98
540.95	58644.46
541.12	59035.33
541.29	59068.10
541.46	59550.25
541.62	59367.69
541.79	59334.92
541.96	58934.69
542.13	58756.81
542.30	59077.46
542.47	59187.47
542.63	59103.21
542.80	58904.26
542.97	58890.22
543.14	58880.86
543.31	58494.67
543.48	59255.34
543.64	60133.04
543.81	60303.90
543.98	59999.63
544.15	59540.89
544.32	58810.64
544.48	59011.93
544.65	59126.61
544.82	59674.30
544.99	59316.20
545.16	59096.19
545.32	58967.46
545.49	59468.33
545.66	59980.91
545.83	59678.98
546.00	59260.02
546.16	58906.60
546.33	58993.20
546.50	58913.62
546.67	59351.30
546.83	59042.35
547.00	59049.38
547.17	58471.26
547.34	57874.43
547.50	57914.22
547.67	58305.09
547.84	58291.04
548.00	58691.27
548.17	59140.66
548.34	58976.82
548.51	58976.82
548.67	58766.17
548.84	59189.81
549.01	58775.53
549.18	58969.80
549.34	58972.14
549.51	58918.31
549.68	58862.13
549.84	58543.82
550.01	58541.48
550.18	58445.52
550.34	58309.77
550.51	58567.23
550.68	58590.63
550.84	57993.79
551.01	58164.65
551.18	58279.34
551.34	58396.37
551.51	58731.06
551.68	59098.53
551.84	59035.33
552.01	58843.41
552.18	58887.88
552.34	57797.19
552.51	57495.26
552.68	57474.20
552.84	58003.16
553.01	58115.50
553.18	58218.49
553.34	58277.00
553.51	58354.24
553.67	58410.41
553.84	58726.38
554.01	58454.88
554.17	58225.51
554.34	58340.19
554.51	58637.44
554.67	59058.74
554.84	58745.11
555.00	58440.84
555.17	58099.12
555.33	58113.16
555.50	57911.88
555.67	58117.84
555.83	57951.66
556.00	57808.89
556.16	57818.25
556.33	57389.94
556.50	57102.05
556.66	57181.63
556.83	56975.66
556.99	57165.24
557.16	57104.39
557.32	57396.96
557.49	57855.70
557.65	57696.55
557.82	57677.82
557.98	57396.96
558.15	57034.17
558.32	56219.67
558.48	55339.63
558.65	55877.95
558.81	56240.73
558.98	56289.88
559.14	56549.68
559.31	56467.76
559.47	56931.19
559.64	56252.44
559.80	55915.40
559.97	56002.00
560.13	56306.27
560.30	57268.23
560.46	57832.30
560.63	58061.67
560.79	58061.67
560.96	57532.71
561.12	56582.45
561.29	55601.77
561.45	55728.16
561.61	56203.28
561.78	56842.25
561.94	56514.58
562.11	56603.52
562.27	56264.14
562.44	56734.59
562.60	57059.92
562.77	57286.95
562.93	57024.81
563.10	57013.11
563.26	56301.59
563.42	56399.89
563.59	55987.95
563.75	56257.12
563.92	56140.09
564.08	56137.75
564.24	56566.07
564.41	56523.94
564.57	56294.56
564.74	56140.09
564.90	56030.08
565.07	55739.86
565.23	55648.58
565.39	55182.81
565.56	54946.42
565.72	54707.68
565.88	55096.21
566.05	55173.45
566.21	55566.66
566.38	55728.16
566.54	55426.23
566.70	55796.03
566.87	56369.46
567.03	56385.85
567.19	56423.29
567.36	56364.78
567.52	56034.77
567.68	55793.69
567.85	55182.81
568.01	54752.15
568.17	54365.96
568.34	54532.14
568.50	54396.39
568.66	54724.07
568.83	54775.56
568.99	54965.14
569.15	55121.96
569.32	55079.83
569.48	54670.23
569.64	54630.44
569.81	54152.97
569.97	54309.79
570.13	54225.53
570.30	53406.34
570.46	53338.47
570.62	53160.59
570.78	52566.09
570.95	53027.18
571.11	53729.34
571.27	54096.80
571.43	54136.59
571.60	54440.86
571.76	54625.76
571.92	54953.44
572.09	54997.91
572.25	54892.58
572.41	54885.56
572.57	54546.18
572.74	54635.13
572.90	54440.86
573.06	54382.35
573.22	54363.62
573.38	54155.32
573.55	54202.13
573.71	54834.07
573.87	54557.89
574.03	54183.40
574.20	54003.18
574.36	53827.64
574.52	53811.26
574.68	53684.87
574.84	53139.52
575.01	52851.64
575.17	52360.12
575.33	53055.26
575.49	53244.85
575.65	53427.41
575.82	53333.79
575.98	52914.83
576.14	53179.31
576.30	53556.14
576.46	53406.34
576.62	53324.43
576.79	53652.10
576.95	52971.00
577.11	52985.05
577.27	53172.29
577.43	53240.17
577.59	52605.88
577.75	52692.48
577.92	51875.63
578.08	51711.80
578.24	51707.12
578.40	52243.10
578.56	51990.32
578.72	52310.97
578.88	52428.00
579.04	52835.25
579.21	52626.95
579.37	52631.63
579.53	52971.00
579.69	52839.93
579.85	53230.80
580.01	52760.36
580.17	52341.40
580.33	52439.70
580.49	52266.50
580.65	52694.82
580.82	52741.63
580.98	52830.57
581.14	52718.23
581.30	52676.10
581.46	52289.91
581.62	52694.82
581.78	52734.61
581.94	52809.51
582.10	52882.06
582.26	53048.24
582.42	53141.86
582.58	52760.36
582.74	52872.70
582.90	52839.93
583.06	52896.11
583.22	52809.51
583.38	52362.46
583.54	52432.68
583.70	52743.97
583.86	52444.38
584.02	52472.47
584.18	52420.98
584.34	52367.15
584.50	52217.35
584.66	52285.23
584.82	51690.73
584.98	51697.75
585.14	51318.59
